SpectraSuite Data File
++++++++++++++++++++++++++++++++++++
Date: Mon Feb 25 17:28:37 EST 2013
User: group
Dark Spectrum Present: No
Reference Spectrum Present: No
Number of Sampled Component Spectra: 1
Spectrometers: USB2E7196
Integration Time (usec): 52000 (USB2E7196)
Spectra Averaged: 20 (USB2E7196)
Boxcar Smoothing: 10 (USB2E7196)
Correct for Electrical Dark: No (USB2E7196)
Strobe/Lamp Enabled: No (USB2E7196)
Correct for Detector Non-linearity: No (USB2E7196)
Correct for Stray Light: No (USB2E7196)
Number of Pixels in Processed Spectrum: 2048
>>>>>Begin Processed Spectral Data<<<<<
339.09	0.00
339.48	197.30
339.86	199.90
340.24	200.85
340.63	202.45
341.01	206.35
341.39	205.70
341.78	207.15
342.16	208.00
342.54	209.25
342.93	197.84
343.31	207.89
343.69	208.50
344.07	208.98
344.46	209.47
344.84	209.89
345.22	210.08
345.60	210.28
345.99	210.42
346.37	210.55
346.75	210.62
347.13	210.65
347.52	210.76
347.90	210.86
348.28	210.87
348.66	210.91
349.05	210.80
349.43	210.80
349.81	210.81
350.19	210.87
350.57	210.84
350.96	210.94
351.34	211.00
351.72	211.06
352.10	211.15
352.48	211.17
352.87	211.18
353.25	211.25
353.63	211.29
354.01	211.39
354.39	211.46
354.77	211.44
355.15	211.58
355.54	211.61
355.92	211.60
356.30	211.65
356.68	211.79
357.06	211.88
357.44	211.90
357.82	211.93
358.20	211.97
358.58	212.03
358.97	212.01
359.35	212.07
359.73	212.16
360.11	212.18
360.49	212.18
360.87	212.18
361.25	212.24
361.63	212.40
362.01	212.43
362.39	212.38
362.77	212.48
363.15	212.54
363.53	212.55
363.91	212.60
364.29	212.59
364.67	212.43
365.05	212.38
365.43	212.48
365.81	212.51
366.19	212.55
366.57	212.59
366.95	212.63
367.33	212.52
367.71	212.50
368.09	212.49
368.47	212.55
368.85	212.56
369.23	212.55
369.61	212.40
369.99	212.37
370.37	212.39
370.75	212.42
371.13	212.28
371.51	212.26
371.89	212.27
372.27	212.25
372.65	212.24
373.03	212.25
373.41	212.17
373.78	212.11
374.16	212.02
374.54	211.91
374.92	211.89
375.30	211.85
375.68	211.68
376.06	211.59
376.44	211.48
376.82	211.42
377.19	211.39
377.57	211.33
377.95	211.29
378.33	211.23
378.71	211.10
379.09	211.11
379.47	211.03
379.84	210.84
380.22	210.75
380.60	210.68
380.98	210.64
381.36	210.55
381.73	210.55
382.11	210.57
382.49	210.58
382.87	210.41
383.25	210.39
383.62	210.65
384.00	210.60
384.38	210.60
384.76	210.62
385.13	210.53
385.51	210.53
385.89	210.43
386.27	210.40
386.64	210.39
387.02	210.32
387.40	210.33
387.78	210.38
388.15	210.40
388.53	210.33
388.91	210.25
389.29	210.23
389.66	210.14
390.04	210.07
390.42	210.03
390.79	210.02
391.17	209.94
391.55	209.67
391.92	209.72
392.30	209.66
392.68	209.59
393.05	209.56
393.43	209.62
393.81	209.60
394.18	209.51
394.56	209.49
394.94	209.47
395.31	209.39
395.69	209.37
396.06	209.35
396.44	209.42
396.82	209.40
397.19	209.44
397.57	209.34
397.95	209.29
398.32	209.26
398.70	209.30
399.07	209.35
399.45	209.36
399.82	209.28
400.20	209.29
400.58	209.24
400.95	209.28
401.33	209.22
401.70	209.35
402.08	209.44
402.45	209.35
402.83	209.45
403.20	209.45
403.58	209.50
403.95	209.52
404.33	209.48
404.71	209.49
405.08	209.58
405.46	209.63
405.83	209.69
406.21	209.63
406.58	209.68
406.96	209.60
407.33	209.61
407.70	209.65
408.08	209.74
408.45	209.76
408.83	209.65
409.20	209.60
409.58	209.52
409.95	209.52
410.33	209.66
410.70	209.56
411.08	209.52
411.45	209.46
411.82	209.45
412.20	209.46
412.57	209.55
412.95	209.44
413.32	209.47
413.69	209.37
414.07	209.41
414.44	209.39
414.82	209.49
415.19	209.52
415.56	209.51
415.94	209.38
416.31	209.41
416.68	209.48
417.06	209.56
417.43	209.63
417.81	209.56
418.18	209.50
418.55	209.48
418.93	209.47
419.30	209.47
419.67	209.45
420.04	209.37
420.42	209.29
420.79	209.49
421.16	209.48
421.54	209.62
421.91	209.64
422.28	209.59
422.66	209.58
423.03	209.70
423.40	209.75
423.77	209.81
424.15	209.83
424.52	209.86
424.89	209.83
425.26	209.75
425.64	209.76
426.01	209.73
426.38	209.72
426.75	209.88
427.13	209.88
427.50	209.88
427.87	209.90
428.24	209.91
428.61	209.71
428.99	209.74
429.36	209.66
429.73	209.67
430.10	209.79
430.47	209.84
430.85	209.71
431.22	209.70
431.59	209.85
431.96	209.87
432.33	209.85
432.70	209.89
433.08	209.94
433.45	210.01
433.82	210.05
434.19	210.09
434.56	210.10
434.93	210.13
435.30	210.15
435.68	210.23
436.05	210.24
436.42	210.25
436.79	210.31
437.16	210.36
437.53	210.29
437.90	210.16
438.27	210.14
438.64	210.03
439.01	210.00
439.38	209.78
439.75	209.72
440.13	209.70
440.50	209.63
440.87	209.58
441.24	209.52
441.61	209.53
441.98	209.51
442.35	209.36
442.72	209.37
443.09	209.43
443.46	209.37
443.83	209.36
444.20	209.39
444.57	209.33
444.94	209.30
445.31	209.33
445.68	209.62
446.05	209.54
446.42	209.61
446.79	209.68
447.16	209.73
447.53	209.81
447.90	209.81
448.27	209.79
448.64	209.88
449.01	209.95
449.37	210.04
449.74	210.07
450.11	210.36
450.48	210.32
450.85	210.27
451.22	210.31
451.59	210.39
451.96	210.36
452.33	210.39
452.70	210.39
453.07	210.37
453.43	210.16
453.80	210.19
454.17	210.22
454.54	210.20
454.91	210.18
455.28	210.12
455.65	210.15
456.02	210.48
456.38	210.42
456.75	210.45
457.12	210.29
457.49	210.30
457.86	210.12
458.23	210.25
458.59	210.31
458.96	210.36
459.33	210.31
459.70	210.35
460.07	210.34
460.43	210.31
460.80	210.37
461.17	210.39
461.54	210.44
461.91	210.40
462.27	210.40
462.64	210.46
463.01	210.45
463.38	210.56
463.74	210.31
464.11	210.32
464.48	210.30
464.85	210.32
465.21	210.38
465.58	210.38
465.95	210.27
466.32	210.25
466.68	210.15
467.05	210.13
467.42	210.07
467.78	210.10
468.15	210.14
468.52	210.19
468.88	210.10
469.25	210.08
469.62	210.16
469.98	210.14
470.35	210.14
470.72	210.19
471.08	210.04
471.45	210.03
471.82	210.05
472.18	210.09
472.55	210.15
472.92	210.04
473.28	209.97
473.65	209.94
474.02	209.91
474.38	209.94
474.75	209.97
475.11	209.97
475.48	209.98
475.85	209.95
476.21	209.86
476.58	209.94
476.94	209.95
477.31	209.86
477.67	209.86
478.04	209.85
478.41	209.86
478.77	210.12
479.14	210.10
479.50	210.05
479.87	210.07
480.23	210.11
480.60	210.17
480.96	210.25
481.33	210.41
481.69	210.49
482.06	210.56
482.42	210.67
482.79	210.80
483.15	210.83
483.52	210.92
483.88	211.07
484.25	211.18
484.61	211.27
484.98	211.34
485.34	211.56
485.71	211.63
486.07	211.70
486.44	211.60
486.80	211.67
487.17	211.77
487.53	211.80
487.90	211.84
488.26	211.96
488.62	212.03
488.99	212.00
489.35	212.05
489.72	212.02
490.08	211.95
490.44	211.93
490.81	211.95
491.17	211.95
491.54	211.89
491.90	211.82
492.26	211.77
492.63	211.76
492.99	211.64
493.36	211.59
493.72	211.57
494.08	211.45
494.45	211.48
494.81	211.44
495.17	211.34
495.54	211.36
495.90	211.25
496.26	211.23
496.63	211.17
496.99	211.09
497.35	211.11
497.72	211.10
498.08	210.96
498.44	210.91
498.80	210.85
499.17	210.81
499.53	210.75
499.89	210.70
500.26	210.77
500.62	210.73
500.98	210.74
501.34	210.67
501.71	210.72
502.07	210.67
502.43	210.61
502.79	210.61
503.16	210.51
503.52	210.49
503.88	210.37
504.24	210.33
504.60	210.32
504.97	210.29
505.33	210.20
505.69	210.29
506.05	210.28
506.41	210.25
506.78	210.22
507.14	210.23
507.50	210.16
507.86	210.16
508.22	210.13
508.59	210.09
508.95	210.08
509.31	210.18
509.67	210.15
510.03	210.15
510.39	210.17
510.75	210.18
511.12	210.25
511.48	210.31
511.84	210.34
512.20	210.32
512.56	210.33
512.92	210.37
513.28	210.37
513.64	210.35
514.00	210.39
514.37	210.39
514.73	210.35
515.09	210.43
515.45	210.32
515.81	210.30
516.17	210.33
516.53	210.29
516.89	210.08
517.25	210.11
517.61	210.17
517.97	210.18
518.33	210.14
518.69	210.14
519.05	210.13
519.41	210.18
519.77	210.26
520.13	210.25
520.49	210.20
520.85	210.13
521.21	210.24
521.57	210.26
521.93	210.23
522.29	210.29
522.65	210.29
523.01	210.35
523.37	210.42
523.73	210.43
524.09	210.49
524.45	210.57
524.81	210.58
525.17	210.49
525.53	210.51
525.89	210.58
526.25	210.50
526.61	210.49
526.97	210.54
527.33	210.45
527.68	210.62
528.04	210.68
528.40	210.75
528.76	210.73
529.12	210.67
529.48	210.77
529.84	210.75
530.20	210.85
530.56	210.85
530.91	210.85
531.27	210.79
531.63	210.81
531.99	210.83
532.35	210.80
532.71	210.92
533.07	210.89
533.42	211.10
533.78	211.14
534.14	211.21
534.50	211.19
534.86	211.37
535.21	211.25
535.57	211.38
535.93	211.47
536.29	211.70
536.65	211.90
537.00	212.11
537.36	212.33
537.72	212.51
538.08	212.81
538.44	213.15
538.79	213.58
539.15	214.00
539.51	214.36
539.87	214.88
540.22	215.30
540.58	215.78
540.94	216.04
541.29	216.51
541.65	216.90
542.01	217.40
542.37	217.63
542.72	217.93
543.08	218.12
543.44	218.30
543.79	218.35
544.15	218.54
544.51	218.57
544.87	218.61
545.22	218.57
545.58	218.44
545.94	218.23
546.29	217.96
546.65	217.68
547.01	217.38
547.36	217.00
547.72	216.61
548.07	216.31
548.43	215.94
548.79	215.56
549.14	215.16
549.50	214.72
549.86	214.41
550.21	214.26
550.57	214.07
550.92	213.76
551.28	213.51
551.64	213.19
551.99	213.01
552.35	212.76
552.70	212.57
553.06	212.51
553.41	212.32
553.77	212.29
554.13	212.16
554.48	212.10
554.84	212.01
555.19	211.95
555.55	211.99
555.90	211.94
556.26	211.88
556.61	211.86
556.97	211.74
557.32	211.59
557.68	211.44
558.03	211.38
558.39	211.35
558.74	211.28
559.10	211.32
559.45	211.23
559.81	211.22
560.16	211.21
560.52	211.13
560.87	211.20
561.23	211.13
561.58	211.23
561.94	211.20
562.29	211.20
562.64	211.19
563.00	210.96
563.35	210.96
563.71	210.94
564.06	210.91
564.42	210.92
564.77	211.01
565.12	211.06
565.48	211.18
565.83	211.25
566.19	211.21
566.54	211.10
566.89	211.20
567.25	211.29
567.60	211.35
567.96	211.48
568.31	211.55
568.66	211.56
569.02	211.45
569.37	211.39
569.72	211.40
570.08	211.45
570.43	211.51
570.78	211.42
571.14	211.46
571.49	211.48
571.84	211.53
572.20	211.62
572.55	211.63
572.90	211.45
573.26	211.50
573.61	211.58
573.96	211.63
574.31	211.68
574.67	211.69
575.02	211.73
575.37	211.64
575.72	211.63
576.08	211.70
576.43	211.84
576.78	211.99
577.13	212.10
577.49	212.13
577.84	212.20
578.19	212.37
578.54	212.41
578.90	212.48
579.25	212.61
579.60	212.65
579.95	212.63
580.30	212.81
580.66	212.88
581.01	212.99
581.36	213.08
581.71	213.06
582.06	213.19
582.42	213.19
582.77	213.32
583.12	213.43
583.47	213.48
583.82	213.53
584.17	213.63
584.53	213.71
584.88	213.69
585.23	213.76
585.58	213.75
585.93	213.76
586.28	213.80
586.63	213.75
586.98	213.68
587.34	213.82
587.69	213.85
588.04	213.83
588.39	213.76
588.74	213.75
589.09	213.81
589.44	213.68
589.79	213.61
590.14	213.46
590.49	213.27
590.84	213.24
591.19	213.18
591.54	213.10
591.89	212.93
592.25	213.06
592.60	212.83
592.95	212.73
593.30	212.71
593.65	212.60
594.00	212.50
594.35	212.91
594.70	212.78
595.05	212.65
595.40	212.56
595.75	212.54
596.10	212.49
596.45	212.36
596.80	212.34
597.15	212.34
597.50	212.37
597.85	212.49
598.19	212.41
598.54	212.28
598.89	212.15
599.24	212.23
599.59	212.09
599.94	212.18
600.29	212.25
600.64	212.15
600.99	212.22
601.34	212.25
601.69	211.82
602.04	211.81
602.39	211.78
602.74	211.79
603.08	211.77
603.43	211.82
603.78	211.79
604.13	211.81
604.48	211.86
604.83	211.95
605.18	212.04
605.53	212.22
605.87	212.49
606.22	212.82
606.57	213.05
606.92	213.41
607.27	213.77
607.62	214.15
607.96	214.61
608.31	214.85
608.66	215.17
609.01	215.46
609.36	215.76
609.70	216.10
610.05	216.36
610.40	216.64
610.75	216.96
611.10	217.19
611.44	217.36
611.79	217.50
612.14	217.50
612.49	217.50
612.83	217.41
613.18	217.29
613.53	217.17
613.88	216.91
614.22	216.59
614.57	216.27
614.92	215.94
615.27	215.58
615.61	215.34
615.96	215.10
616.31	214.83
616.65	214.62
617.00	214.35
617.35	214.12
617.70	213.88
618.04	213.58
618.39	213.39
618.74	213.24
619.08	213.01
619.43	213.00
619.78	212.80
620.12	212.81
620.47	212.76
620.82	212.63
621.16	212.60
621.51	212.66
621.85	212.61
622.20	212.56
622.55	212.54
622.89	212.51
623.24	212.50
623.59	212.46
623.93	212.43
624.28	212.41
624.62	212.60
624.97	212.74
625.32	212.70
625.66	212.70
626.01	212.67
626.35	212.72
626.70	212.67
627.04	212.76
627.39	212.68
627.73	212.75
628.08	212.76
628.43	212.78
628.77	212.65
629.12	212.65
629.46	212.55
629.81	212.55
630.15	212.46
630.50	212.38
630.84	212.38
631.19	212.29
631.53	212.20
631.88	211.95
632.22	211.68
632.57	211.71
632.91	211.65
633.26	211.62
633.60	211.50
633.95	211.38
634.29	211.30
634.64	211.20
634.98	211.06
635.32	211.07
635.67	211.02
636.01	210.96
636.36	210.95
636.70	210.99
637.05	210.93
637.39	210.96
637.73	210.97
638.08	211.03
638.42	210.96
638.77	211.00
639.11	211.00
639.45	211.02
639.80	210.91
640.14	210.93
640.49	210.83
640.83	210.91
641.17	211.00
641.52	211.03
641.86	211.17
642.20	211.24
642.55	211.12
642.89	211.11
643.23	211.10
643.58	211.11
643.92	211.05
644.26	211.07
644.61	211.11
644.95	211.06
645.29	210.96
645.64	211.07
645.98	211.00
646.32	211.01
646.66	211.00
647.01	211.01
647.35	211.13
647.69	211.24
648.04	211.26
648.38	211.27
648.72	211.25
649.06	211.16
649.41	211.06
649.75	211.07
650.09	211.05
650.43	211.08
650.78	211.05
651.12	211.05
651.46	210.97
651.80	210.89
652.14	210.90
652.49	210.94
652.83	210.95
653.17	211.03
653.51	210.99
653.85	211.04
654.20	211.08
654.54	210.98
654.88	210.85
655.22	210.93
655.56	210.85
655.90	210.88
656.25	210.85
656.59	210.85
656.93	210.82
657.27	210.92
657.61	210.93
657.95	210.98
658.29	211.02
658.64	211.18
658.98	211.17
659.32	211.13
659.66	211.10
660.00	211.10
660.34	211.03
660.68	211.00
661.02	210.97
661.36	210.92
661.70	210.83
662.05	210.88
662.39	210.81
662.73	210.89
663.07	210.98
663.41	211.02
663.75	211.01
664.09	211.14
664.43	211.05
664.77	211.05
665.11	210.95
665.45	210.90
665.79	210.87
666.13	210.89
666.47	211.00
666.81	211.01
667.15	210.93
667.49	210.95
667.83	211.06
668.17	211.05
668.51	211.00
668.85	211.10
669.19	211.18
669.53	211.12
669.87	211.02
670.21	210.90
670.55	210.84
670.89	210.94
671.23	210.81
671.57	210.81
671.91	210.83
672.25	210.95
672.58	211.00
672.92	210.87
673.26	210.87
673.60	210.83
673.94	210.81
674.28	210.83
674.62	210.83
674.96	210.72
675.30	210.74
675.64	210.77
675.97	210.77
676.31	210.71
676.65	210.76
676.99	210.86
677.33	210.83
677.67	210.86
678.01	210.70
678.34	210.74
678.68	210.70
679.02	210.59
679.36	210.56
679.70	210.51
680.04	210.52
680.37	210.58
680.71	210.50
681.05	210.53
681.39	210.59
681.73	210.61
682.06	210.65
682.40	210.64
682.74	210.69
683.08	210.67
683.42	210.68
683.75	210.65
684.09	210.58
684.43	210.59
684.77	210.56
685.10	210.63
685.44	210.64
685.78	210.70
686.12	210.75
686.45	210.77
686.79	210.78
687.13	210.84
687.46	210.74
687.80	210.85
688.14	210.84
688.48	210.76
688.81	210.80
689.15	210.86
689.49	210.88
689.82	210.90
690.16	210.87
690.50	210.85
690.83	210.80
691.17	210.74
691.51	210.77
691.84	210.79
692.18	210.80
692.52	210.79
692.85	210.74
693.19	210.84
693.52	210.79
693.86	210.75
694.20	210.83
694.53	210.86
694.87	210.83
695.21	210.79
695.54	210.86
695.88	210.78
696.21	210.71
696.55	210.71
696.88	210.69
697.22	210.63
697.56	210.70
697.89	210.74
698.23	210.82
698.56	210.81
698.90	210.93
699.23	210.94
699.57	210.99
699.90	211.02
700.24	210.92
700.58	210.97
700.91	211.07
701.25	211.13
701.58	211.19
701.92	211.16
702.25	211.23
702.59	211.24
702.92	211.30
703.26	211.34
703.59	211.36
703.93	211.55
704.26	211.72
704.60	211.69
704.93	211.78
705.26	211.76
705.60	211.84
705.93	211.75
706.27	211.78
706.60	211.84
706.94	211.95
707.27	212.00
707.61	211.97
707.94	212.02
708.27	211.91
708.61	211.91
708.94	211.98
709.28	212.01
709.61	211.91
709.94	211.96
710.28	211.96
710.61	211.96
710.95	211.77
711.28	211.76
711.61	211.84
711.95	211.75
712.28	211.71
712.61	211.63
712.95	211.64
713.28	211.67
713.61	211.56
713.95	211.47
714.28	211.46
714.61	211.45
714.95	211.35
715.28	211.33
715.61	211.32
715.95	211.28
716.28	211.18
716.61	211.30
716.95	211.23
717.28	211.17
717.61	211.13
717.94	211.11
718.28	211.01
718.61	210.94
718.94	210.98
719.27	210.97
719.61	210.95
719.94	210.90
720.27	210.82
720.60	210.84
720.94	210.86
721.27	210.88
721.60	210.85
721.93	210.87
722.27	210.85
722.60	210.82
722.93	210.78
723.26	210.81
723.59	210.79
723.93	210.80
724.26	210.90
724.59	210.92
724.92	210.97
725.25	211.01
725.59	210.92
725.92	210.90
726.25	210.95
726.58	210.98
726.91	210.95
727.24	211.01
727.57	210.99
727.91	210.97
728.24	210.96
728.57	210.97
728.90	210.95
729.23	210.92
729.56	210.97
729.89	211.00
730.22	210.96
730.55	210.85
730.89	210.80
731.22	210.69
731.55	210.63
731.88	210.56
732.21	210.49
732.54	210.55
732.87	210.53
733.20	210.53
733.53	210.50
733.86	210.55
734.19	210.55
734.52	210.65
734.85	210.74
735.18	210.78
735.51	210.86
735.84	210.87
736.17	210.94
736.50	210.87
736.83	211.05
737.16	211.06
737.49	211.06
737.82	211.06
738.15	211.13
738.48	211.17
738.81	211.21
739.14	211.21
739.47	211.19
739.80	211.25
740.13	211.25
740.46	211.22
740.79	211.20
741.12	211.14
741.45	211.07
741.78	210.95
742.11	210.90
742.44	210.86
742.77	210.95
743.10	210.86
743.43	210.81
743.75	210.65
744.08	210.92
744.41	210.95
744.74	210.97
745.07	210.97
745.40	211.02
745.73	211.06
746.06	211.06
746.39	211.10
746.71	210.98
747.04	211.00
747.37	211.06
747.70	211.15
748.03	211.12
748.36	211.21
748.68	211.25
749.01	211.24
749.34	211.25
749.67	211.18
750.00	211.30
750.33	211.51
750.65	211.54
750.98	211.29
751.31	211.30
751.64	211.28
751.97	211.40
752.29	211.37
752.62	211.25
752.95	211.34
753.28	211.35
753.60	211.38
753.93	211.40
754.26	211.37
754.59	211.25
754.91	211.28
755.24	211.20
755.57	211.19
755.90	211.21
756.22	211.15
756.55	211.18
756.88	211.15
757.20	210.95
757.53	210.87
757.86	210.85
758.19	210.92
758.51	210.95
758.84	210.83
759.17	210.80
759.49	210.87
759.82	210.92
760.15	210.89
760.47	210.95
760.80	210.88
761.13	210.92
761.45	210.92
761.78	210.91
762.11	210.86
762.43	210.82
762.76	210.80
763.08	210.85
763.41	210.87
763.74	210.82
764.06	210.86
764.39	210.87
764.71	210.90
765.04	210.87
765.37	210.84
765.69	210.81
766.02	210.84
766.34	210.79
766.67	210.71
767.00	210.75
767.32	210.76
767.65	210.80
767.97	210.79
768.30	210.90
768.62	210.92
768.95	211.03
769.27	211.11
769.60	211.14
769.92	211.12
770.25	211.14
770.57	211.16
770.90	211.16
771.22	211.17
771.55	211.13
771.87	211.11
772.20	211.15
772.52	211.30
772.85	211.53
773.17	211.59
773.50	211.61
773.82	211.61
774.15	211.59
774.47	211.55
774.80	211.48
775.12	211.40
775.45	211.42
775.77	211.39
776.09	211.36
776.42	211.33
776.74	211.40
777.07	211.27
777.39	211.27
777.72	211.26
778.04	211.30
778.36	211.32
778.69	211.31
779.01	211.33
779.33	211.17
779.66	210.90
779.98	210.84
780.31	210.79
780.63	210.82
780.95	210.86
781.28	210.85
781.60	210.84
781.92	210.85
782.25	210.83
782.57	210.77
782.89	210.78
783.22	210.78
783.54	210.66
783.86	210.71
784.19	210.65
784.51	210.72
784.83	210.68
785.16	210.73
785.48	210.72
785.80	210.71
786.12	210.75
786.45	210.80
786.77	210.87
787.09	210.84
787.42	210.78
787.74	210.71
788.06	210.70
788.38	210.74
788.71	210.76
789.03	210.80
789.35	210.86
789.67	210.85
789.99	210.86
790.32	210.93
790.64	210.94
790.96	211.10
791.28	211.00
791.61	210.98
791.93	210.91
792.25	210.95
792.57	211.04
792.89	210.98
793.21	210.90
793.54	210.89
793.86	210.88
794.18	210.92
