SpectraSuite Data File
++++++++++++++++++++++++++++++++++++
Date: Mon Feb 25 17:33:17 EST 2013
User: group
Dark Spectrum Present: No
Reference Spectrum Present: No
Number of Sampled Component Spectra: 1
Spectrometers: USB2E7196
Integration Time (usec): 52000 (USB2E7196)
Spectra Averaged: 20 (USB2E7196)
Boxcar Smoothing: 10 (USB2E7196)
Correct for Electrical Dark: No (USB2E7196)
Strobe/Lamp Enabled: No (USB2E7196)
Correct for Detector Non-linearity: No (USB2E7196)
Correct for Stray Light: No (USB2E7196)
Number of Pixels in Processed Spectrum: 2048
>>>>>Begin Processed Spectral Data<<<<<
339.09	0.00
339.48	197.95
339.86	198.80
340.24	201.60
340.63	203.45
341.01	206.50
341.39	205.40
341.78	206.95
342.16	208.05
342.54	207.90
342.93	197.56
343.31	207.53
343.69	208.10
344.07	208.52
344.46	208.93
344.84	209.29
345.22	209.53
345.60	209.78
345.99	209.98
346.37	210.13
346.75	210.27
347.13	210.41
347.52	210.53
347.90	210.63
348.28	210.71
348.66	210.87
349.05	210.91
349.43	210.96
349.81	211.09
350.19	211.13
350.57	211.26
350.96	211.37
351.34	211.51
351.72	211.61
352.10	211.82
352.48	211.91
352.87	211.96
353.25	212.01
353.63	212.12
354.01	212.17
354.39	212.22
354.77	212.32
355.15	212.43
355.54	212.45
355.92	212.50
356.30	212.55
356.68	212.75
357.06	212.83
357.44	212.93
357.82	212.97
358.20	213.11
358.58	213.20
358.97	213.32
359.35	213.41
359.73	213.51
360.11	213.60
360.49	213.73
360.87	213.85
361.25	213.91
361.63	213.95
362.01	214.05
362.39	214.11
362.77	214.17
363.15	214.23
363.53	214.19
363.91	214.20
364.29	214.20
364.67	214.05
365.05	214.01
365.43	214.11
365.81	214.12
366.19	214.19
366.57	214.27
366.95	214.29
367.33	214.27
367.71	214.35
368.09	214.41
368.47	214.39
368.85	214.33
369.23	214.33
369.61	214.30
369.99	214.32
370.37	214.32
370.75	214.38
371.13	214.31
371.51	214.34
371.89	214.30
372.27	214.24
372.65	214.27
373.03	214.31
373.41	214.19
373.78	214.14
374.16	214.01
374.54	213.91
374.92	213.84
375.30	213.83
375.68	213.65
376.06	213.53
376.44	213.48
376.82	213.44
377.19	213.45
377.57	213.42
377.95	213.32
378.33	213.28
378.71	213.14
379.09	213.17
379.47	213.10
379.84	213.03
380.22	213.04
380.60	212.92
380.98	212.86
381.36	212.76
381.73	212.67
382.11	212.63
382.49	212.57
382.87	212.43
383.25	212.27
383.62	212.40
384.00	212.30
384.38	212.25
384.76	212.27
385.13	212.20
385.51	212.16
385.89	212.05
386.27	212.00
386.64	211.97
387.02	211.85
387.40	211.78
387.78	211.86
388.15	211.84
388.53	211.71
388.91	211.63
389.29	211.58
389.66	211.61
390.04	211.53
390.42	211.54
390.79	211.52
391.17	211.59
391.55	211.42
391.92	211.40
392.30	211.40
392.68	211.35
393.05	211.37
393.43	211.34
393.81	211.34
394.18	211.26
394.56	211.22
394.94	211.27
395.31	211.28
395.69	211.23
396.06	211.18
396.44	211.23
396.82	211.25
397.19	211.45
397.57	211.49
397.95	211.53
398.32	211.53
398.70	211.66
399.07	211.70
399.45	211.76
399.82	211.79
400.20	211.84
400.58	211.84
400.95	211.73
401.33	211.80
401.70	212.04
402.08	212.13
402.45	212.24
402.83	212.34
403.20	212.46
403.58	212.54
403.95	212.65
404.33	212.78
404.71	212.90
405.08	213.07
405.46	213.14
405.83	213.33
406.21	213.45
406.58	213.59
406.96	213.76
407.33	213.92
407.70	214.12
408.08	214.40
408.45	214.70
408.83	215.08
409.20	215.26
409.58	215.45
409.95	215.85
410.33	216.17
410.70	216.45
411.08	216.75
411.45	217.14
411.82	217.56
412.20	218.09
412.57	218.64
412.95	218.92
413.32	219.41
413.69	219.98
414.07	220.52
414.44	221.11
414.82	221.78
415.19	222.52
415.56	223.26
415.94	224.08
416.31	224.96
416.68	225.83
417.06	226.86
417.43	227.80
417.81	228.85
418.18	229.91
418.55	231.08
418.93	232.37
419.30	233.61
419.67	234.96
420.04	236.31
420.42	237.79
420.79	239.64
421.16	241.42
421.54	243.25
421.91	245.15
422.28	247.03
422.66	249.04
423.03	251.18
423.40	253.28
423.77	255.38
424.15	257.51
424.52	259.81
424.89	262.41
425.26	264.86
425.64	267.15
426.01	269.68
426.38	272.44
426.75	275.21
427.13	278.11
427.50	281.07
427.87	284.09
428.24	287.09
428.61	289.90
428.99	293.17
429.36	296.55
429.73	300.03
430.10	303.45
430.47	307.02
430.85	310.55
431.22	314.40
431.59	318.68
431.96	322.79
432.33	327.21
432.70	331.40
433.08	336.27
433.45	340.97
433.82	345.69
434.19	350.80
434.56	355.63
434.93	360.31
435.30	365.08
435.68	370.40
436.05	375.67
436.42	380.81
436.79	385.35
437.16	390.41
437.53	395.85
437.90	401.25
438.27	406.31
438.64	411.62
439.01	416.66
439.38	420.98
439.75	425.10
440.13	429.94
440.50	434.50
440.87	438.32
441.24	442.14
441.61	446.42
441.98	449.52
442.35	453.25
442.72	456.95
443.09	460.47
443.46	462.56
443.83	463.81
444.20	464.97
444.57	466.83
444.94	467.54
445.31	468.25
445.68	469.01
446.05	469.35
446.42	468.84
446.79	468.04
447.16	467.08
447.53	466.35
447.90	464.15
448.27	461.90
448.64	458.92
449.01	456.79
449.37	453.07
449.74	449.42
450.11	445.33
450.48	440.86
450.85	436.24
451.22	432.32
451.59	428.69
451.96	425.19
452.33	420.44
452.70	416.17
453.07	410.96
453.43	405.59
453.80	400.62
454.17	395.75
454.54	391.25
454.91	386.55
455.28	381.99
455.65	377.57
456.02	373.34
456.38	369.67
456.75	364.97
457.12	361.05
457.49	357.37
457.86	353.65
458.23	350.38
458.59	346.86
458.96	343.26
459.33	340.12
459.70	337.02
460.07	334.52
460.43	331.70
460.80	329.05
461.17	326.78
461.54	324.30
461.91	321.95
462.27	319.57
462.64	317.47
463.01	315.28
463.38	313.24
463.74	311.01
464.11	309.14
464.48	307.55
464.85	305.85
465.21	304.51
465.58	303.04
465.95	301.35
466.32	300.02
466.68	298.68
467.05	297.22
467.42	295.75
467.78	294.26
468.15	292.91
468.52	291.88
468.88	290.57
469.25	289.33
469.62	288.43
469.98	287.27
470.35	286.32
470.72	285.37
471.08	284.37
471.45	283.66
471.82	282.88
472.18	282.04
472.55	281.45
472.92	280.75
473.28	280.16
473.65	279.59
474.02	278.97
474.38	278.49
474.75	278.09
475.11	277.67
475.48	277.48
475.85	277.27
476.21	277.15
476.58	277.01
476.94	277.01
477.31	276.98
477.67	277.01
478.04	277.15
478.41	277.28
478.77	277.58
479.14	277.75
479.50	278.03
479.87	278.36
480.23	278.69
480.60	278.96
480.96	279.33
481.33	280.08
481.69	280.70
482.06	281.35
482.42	282.01
482.79	282.79
483.15	283.56
483.52	284.50
483.88	285.28
484.25	286.25
484.61	287.36
484.98	288.42
485.34	289.78
485.71	291.08
486.07	292.36
486.44	293.62
486.80	295.11
487.17	296.68
487.53	298.42
487.90	300.31
488.26	302.28
488.62	304.36
488.99	306.25
489.35	308.37
489.72	310.65
490.08	313.18
490.44	315.70
490.81	318.32
491.17	321.01
491.54	323.92
491.90	326.92
492.26	330.11
492.63	333.32
492.99	336.72
493.36	340.38
493.72	344.32
494.08	348.38
494.45	352.65
494.81	357.20
495.17	361.82
495.54	366.66
495.90	371.69
496.26	377.00
496.63	382.45
496.99	388.17
497.35	394.09
497.72	400.41
498.08	406.92
498.44	413.64
498.80	420.74
499.17	428.28
499.53	435.97
499.89	443.87
500.26	452.09
500.62	460.45
500.98	469.26
501.34	478.43
501.71	487.90
502.07	497.49
502.43	507.41
502.79	517.59
503.16	528.29
503.52	539.26
503.88	550.43
504.24	562.05
504.60	574.03
504.97	586.61
505.33	599.06
505.69	612.30
506.05	625.87
506.41	639.59
506.78	653.27
507.14	667.50
507.50	682.07
507.86	697.07
508.22	712.50
508.59	727.99
508.95	744.05
509.31	760.40
509.67	777.22
510.03	793.97
510.39	811.49
510.75	829.12
511.12	846.94
511.48	865.31
511.84	883.93
512.20	902.65
512.56	922.00
512.92	941.34
513.28	960.76
513.64	980.34
514.00	1000.23
514.37	1020.53
514.73	1041.21
515.09	1061.90
515.45	1082.91
515.81	1104.17
516.17	1125.43
516.53	1146.65
516.89	1168.10
517.25	1189.64
517.61	1211.51
517.97	1233.19
518.33	1254.91
518.69	1276.92
519.05	1299.15
519.41	1321.27
519.77	1343.83
520.13	1365.46
520.49	1387.51
520.85	1410.34
521.21	1433.23
521.57	1456.18
521.93	1478.28
522.29	1501.36
522.65	1524.01
523.01	1546.37
523.37	1568.48
523.73	1591.08
524.09	1613.34
524.45	1635.84
524.81	1658.22
525.17	1680.76
525.53	1703.25
525.89	1725.52
526.25	1747.65
526.61	1768.78
526.97	1790.55
527.33	1811.88
527.68	1833.42
528.04	1854.80
528.40	1875.25
528.76	1895.64
529.12	1916.23
529.48	1938.00
529.84	1958.22
530.20	1978.19
530.56	1998.88
530.91	2019.39
531.27	2039.74
531.63	2059.88
531.99	2079.68
532.35	2098.84
532.71	2117.95
533.07	2137.58
533.42	2156.15
533.78	2175.13
534.14	2193.84
534.50	2211.32
534.86	2229.49
535.21	2246.61
535.57	2264.48
535.93	2281.58
536.29	2298.56
536.65	2315.42
537.00	2330.63
537.36	2345.80
537.72	2361.48
538.08	2376.58
538.44	2392.05
538.79	2407.34
539.15	2422.26
539.51	2437.00
539.87	2452.40
540.22	2466.83
540.58	2481.60
540.94	2496.15
541.29	2509.26
541.65	2521.27
542.01	2534.27
542.37	2546.03
542.72	2558.42
543.08	2569.39
543.44	2581.45
543.79	2591.86
544.15	2602.18
544.51	2613.74
544.87	2624.88
545.22	2634.24
545.58	2642.77
545.94	2650.19
546.29	2656.46
546.65	2662.78
547.01	2668.76
547.36	2674.55
547.72	2680.01
548.07	2683.94
548.43	2687.73
548.79	2691.60
549.14	2696.53
549.50	2701.17
549.86	2705.08
550.21	2708.69
550.57	2713.06
550.92	2715.71
551.28	2718.60
551.64	2721.16
551.99	2723.35
552.35	2724.81
552.70	2727.62
553.06	2730.56
553.41	2733.52
553.77	2736.57
554.13	2738.83
554.48	2741.03
554.84	2742.37
555.19	2742.94
555.55	2743.40
555.90	2743.74
556.26	2744.41
556.61	2744.02
556.97	2742.49
557.32	2742.14
557.68	2740.64
558.03	2739.03
558.39	2737.44
558.74	2736.89
559.10	2735.40
559.45	2733.31
559.81	2732.59
560.16	2729.94
560.52	2727.52
560.87	2724.45
561.23	2720.97
561.58	2718.74
561.94	2715.28
562.29	2711.53
562.64	2709.53
563.00	2707.38
563.35	2705.68
563.71	2703.48
564.06	2701.75
564.42	2700.19
564.77	2697.91
565.12	2696.10
565.48	2693.07
565.83	2690.13
566.19	2686.96
566.54	2682.73
566.89	2679.22
567.25	2674.97
567.60	2671.55
567.96	2667.54
568.31	2664.45
568.66	2660.44
569.02	2655.63
569.37	2650.62
569.72	2646.99
570.08	2641.59
570.43	2635.49
570.78	2629.57
571.14	2623.14
571.49	2616.48
571.84	2610.57
572.20	2603.73
572.55	2597.39
572.90	2590.52
573.26	2583.59
573.61	2576.28
573.96	2569.96
574.31	2562.08
574.67	2554.10
575.02	2545.75
575.37	2537.52
575.72	2528.06
576.08	2520.43
576.43	2511.68
576.78	2503.93
577.13	2495.40
577.49	2487.00
577.84	2479.39
578.19	2471.67
578.54	2464.62
578.90	2457.84
579.25	2448.84
579.60	2439.87
579.95	2430.20
580.30	2422.03
580.66	2413.57
581.01	2404.39
581.36	2394.90
581.71	2386.48
582.06	2377.61
582.42	2369.37
582.77	2360.12
583.12	2351.59
583.47	2343.15
583.82	2334.90
584.17	2325.78
584.53	2317.08
584.88	2308.50
585.23	2299.34
585.58	2289.73
585.93	2279.45
586.28	2269.82
586.63	2261.18
586.98	2252.67
587.34	2244.59
587.69	2235.40
588.04	2226.67
588.39	2218.47
588.74	2209.72
589.09	2200.85
589.44	2191.61
589.79	2183.06
590.14	2175.14
590.49	2166.67
590.84	2157.37
591.19	2149.34
591.54	2140.57
591.89	2130.50
592.25	2121.14
592.60	2111.60
592.95	2102.22
593.30	2092.92
593.65	2083.22
594.00	2073.33
594.35	2064.98
594.70	2055.55
595.05	2046.94
595.40	2037.91
595.75	2028.26
596.10	2020.08
596.45	2011.66
596.80	2003.84
597.15	1995.15
597.50	1986.14
597.85	1977.72
598.19	1969.02
598.54	1960.26
598.89	1952.55
599.24	1945.58
599.59	1938.45
599.94	1931.22
600.29	1923.20
600.64	1915.11
600.99	1906.87
601.34	1899.70
601.69	1890.99
602.04	1882.93
602.39	1874.56
602.74	1866.65
603.08	1859.98
603.43	1852.58
603.78	1844.57
604.13	1836.49
604.48	1828.93
604.83	1821.98
605.18	1814.56
605.53	1807.06
605.87	1799.33
606.22	1792.06
606.57	1784.18
606.92	1775.79
607.27	1767.75
607.62	1760.58
607.96	1753.92
608.31	1747.77
608.66	1740.00
609.01	1732.51
609.36	1725.05
609.70	1717.21
610.05	1709.56
610.40	1701.64
610.75	1693.01
611.10	1685.55
611.44	1676.61
611.79	1667.44
612.14	1657.80
612.49	1648.37
612.83	1639.43
613.18	1629.68
613.53	1620.09
613.88	1610.31
614.22	1601.39
614.57	1592.25
614.92	1582.95
615.27	1573.67
615.61	1563.56
615.96	1554.53
616.31	1545.91
616.65	1537.86
617.00	1529.64
617.35	1520.95
617.70	1511.75
618.04	1502.88
618.39	1493.17
618.74	1484.68
619.08	1475.93
619.43	1467.71
619.78	1459.97
620.12	1452.01
620.47	1444.45
620.82	1435.75
621.16	1427.69
621.51	1419.33
621.85	1411.09
622.20	1402.40
622.55	1393.68
622.89	1385.65
623.24	1377.57
623.59	1368.67
623.93	1359.86
624.28	1351.56
624.62	1343.46
624.97	1335.14
625.32	1327.18
625.66	1319.76
626.01	1312.39
626.35	1305.15
626.70	1297.33
627.04	1289.62
627.39	1281.77
627.73	1274.26
628.08	1267.53
628.43	1260.06
628.77	1252.64
629.12	1245.17
629.46	1238.76
629.81	1231.68
630.15	1224.04
630.50	1216.87
630.84	1209.82
631.19	1202.68
631.53	1195.55
631.88	1187.65
632.22	1180.18
632.57	1173.31
632.91	1165.73
633.26	1158.41
633.60	1151.22
633.95	1144.51
634.29	1137.19
634.64	1130.79
634.98	1123.73
635.32	1116.77
635.67	1110.43
636.01	1103.71
636.36	1096.84
636.70	1090.16
637.05	1083.73
637.39	1077.42
637.73	1070.99
638.08	1065.18
638.42	1059.55
638.77	1053.06
639.11	1046.93
639.45	1040.91
639.80	1034.35
640.14	1027.93
640.49	1021.62
640.83	1015.56
641.17	1009.23
641.52	1003.38
641.86	996.72
642.20	990.39
642.55	983.45
642.89	976.95
643.23	970.75
643.58	964.98
643.92	958.31
644.26	951.96
644.61	945.98
644.95	939.60
645.29	933.20
645.64	926.39
645.98	920.27
646.32	914.43
646.66	908.26
647.01	902.13
647.35	896.51
647.69	890.23
648.04	884.09
648.38	878.14
648.72	871.93
649.06	865.82
649.41	859.85
649.75	854.22
650.09	848.12
650.43	842.16
650.78	835.87
651.12	829.91
651.46	824.27
651.80	818.30
652.14	812.51
652.49	806.53
652.83	800.64
653.17	794.61
653.51	788.65
653.85	782.99
654.20	777.13
654.54	771.37
654.88	765.66
655.22	759.83
655.56	753.83
655.90	747.93
656.25	742.19
656.59	736.56
656.93	731.24
657.27	726.11
657.61	720.55
657.95	715.35
658.29	710.35
658.64	704.97
658.98	699.93
659.32	694.52
659.66	689.38
660.00	684.00
660.34	678.92
660.68	673.90
661.02	668.79
661.36	664.07
661.70	659.04
662.05	654.61
662.39	650.31
662.73	646.01
663.07	641.79
663.41	637.48
663.75	632.95
664.09	628.18
664.43	623.51
664.77	619.28
665.11	614.95
665.45	610.45
665.79	606.21
666.13	601.77
666.47	597.54
666.81	593.36
667.15	589.33
667.49	585.27
667.83	581.27
668.17	577.34
668.51	573.46
668.85	569.86
669.19	566.13
669.53	562.08
669.87	558.01
670.21	554.11
670.55	550.16
670.89	546.79
671.23	543.56
671.57	540.04
671.91	536.25
672.25	532.57
672.58	529.05
672.92	525.61
673.26	522.31
673.60	519.26
673.94	515.89
674.28	512.67
674.62	509.54
674.96	506.44
675.30	503.44
675.64	500.32
675.97	497.04
676.31	494.01
676.65	491.04
676.99	488.49
677.33	485.39
677.67	482.56
678.01	479.35
678.34	476.25
678.68	473.36
679.02	470.55
679.36	467.81
679.70	464.91
680.04	461.95
680.37	459.01
680.71	456.05
681.05	453.40
681.39	450.66
681.73	447.85
682.06	445.25
682.40	442.69
682.74	440.13
683.08	437.60
683.42	434.87
683.75	432.29
684.09	429.56
684.43	427.30
684.77	424.72
685.10	422.31
685.44	419.84
685.78	417.40
686.12	415.15
686.45	412.86
686.79	410.60
687.13	408.49
687.46	406.26
687.80	404.17
688.14	401.90
688.48	399.83
688.81	397.69
689.15	395.50
689.49	393.17
689.82	390.93
690.16	388.59
690.50	386.21
690.83	383.94
691.17	381.67
691.51	379.44
691.84	377.37
692.18	375.39
692.52	373.45
692.85	371.48
693.19	369.46
693.52	367.44
693.86	365.49
694.20	363.51
694.53	361.76
694.87	359.66
695.21	357.67
695.54	355.79
695.88	353.90
696.21	352.02
696.55	350.35
696.88	348.63
697.22	347.06
697.56	345.60
697.89	344.02
698.23	342.46
698.56	340.76
698.90	339.35
699.23	337.67
699.57	335.95
699.90	334.30
700.24	332.67
700.58	331.11
700.91	329.59
701.25	328.24
701.58	326.71
701.92	325.33
702.25	324.05
702.59	322.62
702.92	321.27
703.26	319.83
703.59	318.52
703.93	317.33
704.26	316.00
704.60	314.65
704.93	313.34
705.26	312.12
705.60	310.89
705.93	309.48
706.27	308.39
706.60	307.39
706.94	306.31
707.27	305.13
707.61	304.09
707.94	302.99
708.27	301.64
708.61	300.47
708.94	299.33
709.28	298.10
709.61	296.92
709.94	295.86
710.28	294.86
710.61	293.69
710.95	292.53
711.28	291.60
711.61	290.49
711.95	289.57
712.28	288.55
712.61	287.55
712.95	286.70
713.28	285.74
713.61	284.75
713.95	283.88
714.28	283.03
714.61	282.01
714.95	281.06
715.28	280.17
715.61	279.27
715.95	278.40
716.28	277.54
716.61	276.71
716.95	275.95
717.28	275.07
717.61	274.30
717.94	273.53
718.28	272.60
718.61	271.93
718.94	271.16
719.27	270.41
719.61	269.70
719.94	268.95
720.27	268.15
720.60	267.36
720.94	266.59
721.27	265.87
721.60	265.22
721.93	264.70
722.27	264.16
722.60	263.53
722.93	262.91
723.26	262.37
723.59	261.82
723.93	261.17
724.26	260.63
724.59	260.00
724.92	259.40
725.25	258.88
725.59	258.29
725.92	257.82
726.25	257.31
726.58	256.85
726.91	256.26
727.24	255.69
727.57	255.26
727.91	254.74
728.24	254.34
728.57	253.87
728.90	253.32
729.23	252.79
729.56	252.44
729.89	251.95
730.22	251.48
730.55	250.97
730.89	250.57
731.22	250.07
731.55	249.63
731.88	249.19
732.21	248.77
732.54	248.39
732.87	247.92
733.20	247.45
733.53	246.99
733.86	246.66
734.19	246.22
734.52	245.79
734.85	245.54
735.18	245.09
735.51	244.75
735.84	244.39
736.17	244.06
736.50	243.61
736.83	243.50
737.16	243.15
737.49	242.81
737.82	242.38
738.15	242.10
738.48	241.79
738.81	241.44
739.14	241.06
739.47	240.74
739.80	240.33
740.13	240.02
740.46	239.65
740.79	239.25
741.12	238.94
741.45	238.63
741.78	238.21
742.11	237.89
742.44	237.57
742.77	237.23
743.10	236.89
743.43	236.52
743.75	235.97
744.08	235.88
744.41	235.56
744.74	235.30
745.07	234.95
745.40	234.59
745.73	234.37
746.06	234.07
746.39	233.75
746.71	233.52
747.04	233.25
747.37	233.01
747.70	232.72
748.03	232.50
748.36	232.27
748.68	231.93
749.01	231.63
749.34	231.33
749.67	231.18
750.00	230.95
750.33	230.80
750.65	230.63
750.98	230.10
751.31	229.84
751.64	229.66
751.97	229.50
752.29	229.42
752.62	229.09
752.95	228.84
753.28	228.59
753.60	228.40
753.93	228.22
754.26	227.99
754.59	227.74
754.91	227.49
755.24	227.20
755.57	227.02
755.90	226.93
756.22	226.73
756.55	226.46
756.88	226.25
757.20	226.01
757.53	225.81
757.86	225.72
758.19	225.57
758.51	225.30
758.84	225.07
759.17	224.82
759.49	224.72
759.82	224.61
760.15	224.46
760.47	224.25
760.80	224.00
761.13	223.86
761.45	223.73
761.78	223.61
762.11	223.56
762.43	223.37
762.76	223.11
763.08	222.98
763.41	222.83
763.74	222.72
764.06	222.54
764.39	222.32
764.71	222.17
765.04	222.00
765.37	221.93
765.69	221.76
766.02	221.67
766.34	221.49
766.67	221.34
767.00	221.25
767.32	221.30
767.65	221.26
767.97	221.13
768.30	221.04
768.62	220.87
768.95	220.62
769.27	220.56
769.60	220.55
769.92	220.39
770.25	220.28
770.57	220.10
770.90	220.00
771.22	219.86
771.55	219.79
771.87	219.71
772.20	219.53
772.52	219.61
772.85	219.68
773.17	219.60
773.50	219.48
773.82	219.32
774.15	219.04
774.47	218.85
774.80	218.73
775.12	218.62
775.45	218.55
775.77	218.58
776.09	218.52
776.42	218.36
776.74	218.33
777.07	218.19
777.39	218.12
777.72	218.03
778.04	218.05
778.36	217.93
778.69	217.84
779.01	217.78
779.33	217.57
779.66	217.23
779.98	217.11
780.31	217.06
780.63	217.07
780.95	217.08
781.28	217.05
781.60	216.97
781.92	216.86
782.25	216.81
782.57	216.68
782.89	216.60
783.22	216.54
783.54	216.46
783.86	216.42
784.19	216.41
784.51	216.42
784.83	216.28
785.16	216.22
785.48	216.16
785.80	216.13
786.12	216.12
786.45	216.15
