SpectraSuite Data File
++++++++++++++++++++++++++++++++++++
Date: Mon Feb 25 17:35:34 EST 2013
User: group
Dark Spectrum Present: No
Reference Spectrum Present: No
Number of Sampled Component Spectra: 1
Spectrometers: USB2E7196
Integration Time (usec): 52000 (USB2E7196)
Spectra Averaged: 20 (USB2E7196)
Boxcar Smoothing: 10 (USB2E7196)
Correct for Electrical Dark: No (USB2E7196)
Strobe/Lamp Enabled: No (USB2E7196)
Correct for Detector Non-linearity: No (USB2E7196)
Correct for Stray Light: No (USB2E7196)
Number of Pixels in Processed Spectrum: 2048
>>>>>Begin Processed Spectral Data<<<<<
339.09	0.00
339.48	197.95
339.86	200.85
340.24	201.95
340.63	203.45
341.01	207.45
341.39	205.80
341.78	206.50
342.16	209.20
342.54	207.90
342.93	198.12
343.31	208.13
343.69	208.70
344.07	209.14
344.46	209.58
344.84	209.95
345.22	210.07
345.60	210.28
345.99	210.50
346.37	210.60
346.75	210.76
347.13	210.72
347.52	210.74
347.90	210.86
348.28	210.94
348.66	210.96
349.05	210.97
349.43	211.02
349.81	211.06
350.19	211.09
350.57	211.23
350.96	211.30
351.34	211.39
351.72	211.52
352.10	211.60
352.48	211.61
352.87	211.61
353.25	211.74
353.63	211.79
354.01	211.87
354.39	212.01
354.77	211.97
355.15	212.14
355.54	212.23
355.92	212.23
356.30	212.23
356.68	212.46
357.06	212.51
357.44	212.59
357.82	212.66
358.20	212.75
358.58	212.71
358.97	212.75
359.35	212.89
359.73	212.94
360.11	213.04
360.49	213.17
360.87	213.28
361.25	213.33
361.63	213.49
362.01	213.49
362.39	213.45
362.77	213.66
363.15	213.66
363.53	213.72
363.91	213.81
364.29	213.86
364.67	213.70
365.05	213.75
365.43	213.79
365.81	213.91
366.19	214.05
366.57	214.20
366.95	214.16
367.33	214.09
367.71	214.09
368.09	214.16
368.47	214.13
368.85	214.17
369.23	214.22
369.61	214.19
369.99	214.30
370.37	214.32
370.75	214.35
371.13	214.40
371.51	214.35
371.89	214.31
372.27	214.29
372.65	214.30
373.03	214.34
373.41	214.21
373.78	214.11
374.16	213.96
374.54	213.88
374.92	213.94
375.30	213.92
375.68	213.90
376.06	213.80
376.44	213.76
376.82	213.69
377.19	213.64
377.57	213.51
377.95	213.42
378.33	213.42
378.71	213.27
379.09	213.15
379.47	213.08
379.84	213.05
380.22	212.92
380.60	212.78
380.98	212.62
381.36	212.65
381.73	212.55
382.11	212.60
382.49	212.53
382.87	212.42
383.25	212.38
383.62	212.48
384.00	212.43
384.38	212.42
384.76	212.43
385.13	212.50
385.51	212.48
385.89	212.40
386.27	212.33
386.64	212.28
387.02	212.20
387.40	212.17
387.78	212.15
388.15	212.16
388.53	212.15
388.91	212.12
389.29	212.05
389.66	212.06
390.04	212.00
390.42	211.96
390.79	211.91
391.17	211.88
391.55	211.63
391.92	211.59
392.30	211.55
392.68	211.41
393.05	211.30
393.43	211.27
393.81	211.25
394.18	211.16
394.56	211.17
394.94	211.30
395.31	211.28
395.69	211.30
396.06	211.33
396.44	211.35
396.82	211.36
397.19	211.46
397.57	211.49
397.95	211.45
398.32	211.40
398.70	211.48
399.07	211.51
399.45	211.58
399.82	211.60
400.20	211.64
400.58	211.71
400.95	211.71
401.33	211.80
401.70	212.02
402.08	212.15
402.45	212.24
402.83	212.23
403.20	212.32
403.58	212.37
403.95	212.53
404.33	212.61
404.71	212.79
405.08	212.90
405.46	213.07
405.83	213.28
406.21	213.46
406.58	213.56
406.96	213.71
407.33	213.92
407.70	214.16
408.08	214.51
408.45	214.78
408.83	215.04
409.20	215.28
409.58	215.35
409.95	215.64
410.33	215.92
410.70	216.26
411.08	216.61
411.45	216.98
411.82	217.35
412.20	217.82
412.57	218.39
412.95	218.88
413.32	219.30
413.69	219.75
414.07	220.34
414.44	221.00
414.82	221.67
415.19	222.45
415.56	223.16
415.94	223.82
416.31	224.77
416.68	225.66
417.06	226.66
417.43	227.69
417.81	228.73
418.18	229.94
418.55	231.15
418.93	232.48
419.30	233.86
419.67	235.20
420.04	236.67
420.42	238.15
420.79	239.89
421.16	241.67
421.54	243.50
421.91	245.30
422.28	247.20
422.66	249.18
423.03	251.17
423.40	253.30
423.77	255.54
424.15	257.73
424.52	260.10
424.89	262.69
425.26	265.16
425.64	267.63
426.01	270.21
426.38	272.86
426.75	275.69
427.13	278.53
427.50	281.46
427.87	284.54
428.24	287.71
428.61	290.67
428.99	293.96
429.36	297.47
429.73	301.01
430.10	304.50
430.47	308.12
430.85	311.79
431.22	315.65
431.59	319.88
431.96	323.83
432.33	328.25
432.70	332.50
433.08	337.47
433.45	342.15
433.82	346.75
434.19	351.93
434.56	356.94
434.93	361.73
435.30	366.64
435.68	372.00
436.05	377.19
436.42	382.34
436.79	387.08
437.16	392.31
437.53	397.62
437.90	402.87
438.27	408.14
438.64	413.60
439.01	418.62
439.38	422.93
439.75	427.38
440.13	432.14
440.50	436.69
440.87	440.45
441.24	444.26
441.61	448.58
441.98	451.79
442.35	455.39
442.72	459.03
443.09	462.50
443.46	464.57
443.83	465.88
444.20	467.08
444.57	468.87
444.94	469.46
445.31	470.35
445.68	471.30
446.05	471.37
446.42	470.63
446.79	469.93
447.16	469.17
447.53	468.42
447.90	466.30
448.27	464.16
448.64	461.23
449.01	459.23
449.37	455.50
449.74	451.90
450.11	447.71
450.48	443.15
450.85	438.50
451.22	434.50
451.59	430.75
451.96	426.94
452.33	422.20
452.70	417.90
453.07	412.75
453.43	407.38
453.80	402.49
454.17	397.69
454.54	393.07
454.91	388.14
455.28	383.35
455.65	378.94
456.02	374.63
456.38	370.90
456.75	366.09
457.12	362.22
457.49	358.31
457.86	354.58
458.23	351.38
458.59	347.88
458.96	344.33
459.33	341.04
459.70	338.03
460.07	335.38
460.43	332.41
460.80	329.65
461.17	327.26
461.54	324.73
461.91	322.39
462.27	320.04
462.64	318.02
463.01	315.85
463.38	313.73
463.74	311.50
464.11	309.56
464.48	307.90
464.85	306.19
465.21	304.90
465.58	303.47
465.95	301.73
466.32	300.35
466.68	298.95
467.05	297.65
467.42	296.26
467.78	294.82
468.15	293.51
468.52	292.48
468.88	291.20
469.25	290.05
469.62	289.08
469.98	288.06
470.35	287.19
470.72	286.21
471.08	285.28
471.45	284.50
471.82	283.70
472.18	282.83
472.55	282.15
472.92	281.34
473.28	280.70
473.65	280.05
474.02	279.40
474.38	278.93
474.75	278.65
475.11	278.27
475.48	278.06
475.85	277.93
476.21	277.79
476.58	277.64
476.94	277.61
477.31	277.57
477.67	277.48
478.04	277.48
478.41	277.62
478.77	277.98
479.14	278.06
479.50	278.35
479.87	278.76
480.23	279.10
480.60	279.56
480.96	279.94
481.33	280.73
481.69	281.33
482.06	281.94
482.42	282.44
482.79	283.12
483.15	283.94
483.52	284.93
483.88	285.78
484.25	286.74
484.61	287.80
484.98	288.86
485.34	290.17
485.71	291.57
486.07	293.01
486.44	294.26
486.80	295.84
487.17	297.47
487.53	299.15
487.90	301.02
488.26	302.95
488.62	304.97
488.99	306.92
489.35	309.18
489.72	311.52
490.08	313.95
490.44	316.37
490.81	318.96
491.17	321.64
491.54	324.57
491.90	327.60
492.26	330.81
492.63	334.19
492.99	337.65
493.36	341.24
493.72	345.10
494.08	349.12
494.45	353.27
494.81	357.72
495.17	362.29
495.54	367.00
495.90	371.98
496.26	377.23
496.63	382.84
496.99	388.59
497.35	394.63
497.72	400.95
498.08	407.50
498.44	414.23
498.80	421.25
499.17	428.59
499.53	436.24
499.89	444.25
500.26	452.29
500.62	460.57
500.98	469.31
501.34	478.44
501.71	487.82
502.07	497.68
502.43	507.72
502.79	517.98
503.16	528.86
503.52	539.92
503.88	551.19
504.24	562.66
504.60	574.40
504.97	586.65
505.33	599.19
505.69	612.70
506.05	626.14
506.41	639.81
506.78	653.66
507.14	667.84
507.50	682.37
507.86	697.50
508.22	712.95
508.59	728.52
508.95	744.52
509.31	760.83
509.67	777.57
510.03	794.66
510.39	812.35
510.75	830.06
511.12	848.20
511.48	866.60
511.84	885.33
512.20	904.54
512.56	923.93
512.92	943.59
513.28	963.08
513.64	983.00
514.00	1002.94
514.37	1023.33
514.73	1044.36
515.09	1065.30
515.45	1086.16
515.81	1107.67
516.17	1129.23
516.53	1150.59
516.89	1172.10
517.25	1193.73
517.61	1215.44
517.97	1236.94
518.33	1258.53
518.69	1280.30
519.05	1302.81
519.41	1325.11
519.77	1347.55
520.13	1369.86
520.49	1392.13
520.85	1414.94
521.21	1437.65
521.57	1460.84
521.93	1483.27
522.29	1506.01
522.65	1528.91
523.01	1551.75
523.37	1573.68
523.73	1596.00
524.09	1618.53
524.45	1641.20
524.81	1663.99
525.17	1686.47
525.53	1709.04
525.89	1731.73
526.25	1753.92
526.61	1775.26
526.97	1797.34
527.33	1819.07
527.68	1840.63
528.04	1861.92
528.40	1882.59
528.76	1903.53
529.12	1924.40
529.48	1946.33
529.84	1967.00
530.20	1987.27
530.56	2008.03
530.91	2029.45
531.27	2050.24
531.63	2070.59
531.99	2090.71
532.35	2110.02
532.71	2129.38
533.07	2149.21
533.42	2168.09
533.78	2187.25
534.14	2205.85
534.50	2222.72
534.86	2240.75
535.21	2257.80
535.57	2275.76
535.93	2293.31
536.29	2310.59
536.65	2327.26
537.00	2342.64
537.36	2358.25
537.72	2374.00
538.08	2389.35
538.44	2404.59
538.79	2420.24
539.15	2435.11
539.51	2449.96
539.87	2465.37
540.22	2480.19
540.58	2495.21
540.94	2509.65
541.29	2522.83
541.65	2535.06
542.01	2548.97
542.37	2561.19
542.72	2573.82
543.08	2585.12
543.44	2596.90
543.79	2606.93
544.15	2617.72
544.51	2629.20
544.87	2640.47
545.22	2649.86
545.58	2658.74
545.94	2666.52
546.29	2672.99
546.65	2679.56
547.01	2686.07
547.36	2691.87
547.72	2697.39
548.07	2701.52
548.43	2705.68
548.79	2709.80
549.14	2715.16
549.50	2719.78
549.86	2723.66
550.21	2727.65
550.57	2731.91
550.92	2734.82
551.28	2738.16
551.64	2740.95
551.99	2743.32
552.35	2745.01
552.70	2748.01
553.06	2750.65
553.41	2753.68
553.77	2757.17
554.13	2759.41
554.48	2761.38
554.84	2763.23
555.19	2764.23
555.55	2764.81
555.90	2765.31
556.26	2766.00
556.61	2766.05
556.97	2764.88
557.32	2764.88
557.68	2763.50
558.03	2762.21
558.39	2761.21
558.74	2760.99
559.10	2759.55
559.45	2757.76
559.81	2756.60
560.16	2753.87
560.52	2751.46
560.87	2748.21
561.23	2744.52
561.58	2742.68
561.94	2739.86
562.29	2736.05
562.64	2733.71
563.00	2731.81
563.35	2729.93
563.71	2728.14
564.06	2726.09
564.42	2724.60
564.77	2722.30
565.12	2720.38
565.48	2717.26
565.83	2713.92
566.19	2710.50
566.54	2706.46
566.89	2703.12
567.25	2699.44
567.60	2696.15
567.96	2692.85
568.31	2689.52
568.66	2685.59
569.02	2680.85
569.37	2675.55
569.72	2671.66
570.08	2666.62
570.43	2660.70
570.78	2654.83
571.14	2648.59
571.49	2641.55
571.84	2635.19
572.20	2628.11
572.55	2621.82
572.90	2615.45
573.26	2608.68
573.61	2601.43
573.96	2594.82
574.31	2586.70
574.67	2578.63
575.02	2570.21
575.37	2561.33
575.72	2552.04
576.08	2544.42
576.43	2535.71
576.78	2528.04
577.13	2520.03
577.49	2511.42
577.84	2503.66
578.19	2496.37
578.54	2488.89
578.90	2482.11
579.25	2473.44
579.60	2464.27
579.95	2454.57
580.30	2446.20
580.66	2437.56
581.01	2428.25
581.36	2419.08
581.71	2410.41
582.06	2401.65
582.42	2393.31
582.77	2384.33
583.12	2375.83
583.47	2366.74
583.82	2358.10
584.17	2348.34
584.53	2338.87
584.88	2330.14
585.23	2320.91
585.58	2310.92
585.93	2300.84
586.28	2291.44
586.63	2282.43
586.98	2274.15
587.34	2265.66
587.69	2256.01
588.04	2246.77
588.39	2238.60
588.74	2229.42
589.09	2220.65
589.44	2211.06
589.79	2202.40
590.14	2194.33
590.49	2185.59
590.84	2176.51
591.19	2168.59
591.54	2160.15
591.89	2149.89
592.25	2140.54
592.60	2130.77
592.95	2121.24
593.30	2111.84
593.65	2101.85
594.00	2092.25
594.35	2083.81
594.70	2074.78
595.05	2065.92
595.40	2057.09
595.75	2047.32
596.10	2039.07
596.45	2030.50
596.80	2022.50
597.15	2013.93
597.50	2004.44
597.85	1995.91
598.19	1987.07
598.54	1978.24
598.89	1970.15
599.24	1963.52
599.59	1955.89
599.94	1948.62
600.29	1940.89
600.64	1932.95
600.99	1924.78
601.34	1917.34
601.69	1908.32
602.04	1899.96
602.39	1891.74
602.74	1883.84
603.08	1877.23
603.43	1869.83
603.78	1861.60
604.13	1853.45
604.48	1845.26
604.83	1838.36
605.18	1831.35
605.53	1823.92
605.87	1816.00
606.22	1809.01
606.57	1800.71
606.92	1792.60
607.27	1784.54
607.62	1777.07
607.96	1770.20
608.31	1763.75
608.66	1755.73
609.01	1747.99
609.36	1740.06
609.70	1732.28
610.05	1724.51
610.40	1716.01
610.75	1707.08
611.10	1699.52
611.44	1690.30
611.79	1681.20
612.14	1671.79
612.49	1661.79
612.83	1652.72
613.18	1643.07
613.53	1633.18
613.88	1623.73
614.22	1614.83
614.57	1605.44
614.92	1595.85
615.27	1586.08
615.61	1575.96
615.96	1566.88
616.31	1558.49
616.65	1550.70
617.00	1542.07
617.35	1533.29
617.70	1524.05
618.04	1514.85
618.39	1505.11
618.74	1496.67
619.08	1488.05
619.43	1479.64
619.78	1471.98
620.12	1463.96
620.47	1456.13
620.82	1447.37
621.16	1438.89
621.51	1430.32
621.85	1422.02
622.20	1413.42
622.55	1404.89
622.89	1396.72
623.24	1388.58
623.59	1379.60
623.93	1370.60
624.28	1362.15
624.62	1353.84
624.97	1345.87
625.32	1338.15
625.66	1330.74
626.01	1323.30
626.35	1315.93
626.70	1308.13
627.04	1300.48
627.39	1292.52
627.73	1284.83
628.08	1278.03
628.43	1270.50
628.77	1262.88
629.12	1255.25
629.46	1248.69
629.81	1241.60
630.15	1234.10
630.50	1226.66
630.84	1219.31
631.19	1212.06
631.53	1205.28
631.88	1197.55
632.22	1189.80
632.57	1182.90
632.91	1175.50
633.26	1167.89
633.60	1160.84
633.95	1154.13
634.29	1146.62
634.64	1139.75
634.98	1132.49
635.32	1125.15
635.67	1118.91
636.01	1112.08
636.36	1105.35
636.70	1098.50
637.05	1091.60
637.39	1085.10
637.73	1078.61
638.08	1072.80
638.42	1066.82
638.77	1060.35
639.11	1054.24
639.45	1048.07
639.80	1041.42
640.14	1034.79
640.49	1028.50
640.83	1022.12
641.17	1015.47
641.52	1009.45
641.86	1002.83
642.20	996.66
642.55	989.88
642.89	983.29
643.23	977.00
643.58	970.98
643.92	964.40
644.26	958.42
644.61	952.24
644.95	945.98
645.29	939.54
645.64	932.94
645.98	926.54
646.32	920.54
646.66	914.66
647.01	908.86
647.35	902.94
647.69	896.52
648.04	890.37
648.38	884.46
648.72	878.31
649.06	872.42
649.41	866.29
649.75	860.70
650.09	854.73
650.43	848.75
650.78	842.50
651.12	836.48
651.46	830.55
651.80	824.69
652.14	818.89
652.49	812.94
652.83	807.21
653.17	801.11
653.51	795.04
653.85	788.99
654.20	782.84
654.54	777.13
654.88	771.77
655.22	765.92
655.56	759.98
655.90	754.12
656.25	748.33
656.59	742.70
656.93	737.32
657.27	732.00
657.61	726.42
657.95	721.30
658.29	715.95
658.64	710.62
658.98	705.33
659.32	699.80
659.66	694.59
660.00	689.05
660.34	683.91
660.68	678.58
661.02	673.48
661.36	668.56
661.70	663.57
662.05	658.80
662.39	654.35
662.73	649.91
663.07	645.50
663.41	641.02
663.75	636.51
664.09	631.74
664.43	626.94
664.77	622.76
665.11	618.05
665.45	613.82
665.79	609.38
666.13	605.01
666.47	600.86
666.81	596.82
667.15	592.79
667.49	588.79
667.83	584.93
668.17	581.05
668.51	577.35
668.85	573.75
669.19	569.95
669.53	566.01
669.87	561.99
670.21	558.05
670.55	554.15
670.89	550.72
671.23	547.25
671.57	543.74
671.91	539.88
672.25	536.49
672.58	532.76
672.92	529.30
673.26	526.03
673.60	522.72
673.94	519.18
674.28	515.90
674.62	512.63
674.96	509.38
675.30	506.23
675.64	502.97
675.97	499.52
676.31	496.56
676.65	493.51
676.99	490.73
677.33	487.75
677.67	484.80
678.01	481.54
678.34	478.54
678.68	475.55
679.02	472.58
679.36	469.66
679.70	466.89
680.04	464.00
680.37	460.95
680.71	457.97
681.05	455.33
681.39	452.57
681.73	449.87
682.06	447.31
682.40	444.75
682.74	442.09
683.08	439.63
683.42	436.89
683.75	434.23
684.09	431.57
684.43	429.08
684.77	426.51
685.10	424.02
685.44	421.44
685.78	418.95
686.12	416.82
686.45	414.47
686.79	412.15
687.13	409.81
687.46	407.70
687.80	405.62
688.14	403.28
688.48	401.15
688.81	398.99
689.15	396.70
689.49	394.33
689.82	392.12
690.16	389.62
690.50	387.30
690.83	385.05
691.17	382.83
691.51	380.56
691.84	378.41
692.18	376.48
692.52	374.54
692.85	372.68
693.19	370.62
693.52	368.70
693.86	366.69
694.20	364.84
694.53	362.92
694.87	360.85
695.21	358.81
695.54	356.75
695.88	354.78
696.21	352.95
696.55	351.19
696.88	349.38
697.22	347.82
697.56	346.27
697.89	344.70
698.23	343.00
698.56	341.45
698.90	339.99
699.23	338.29
699.57	336.69
699.90	335.01
700.24	333.35
700.58	331.71
700.91	330.26
701.25	328.84
701.58	327.44
701.92	326.00
702.25	324.68
702.59	323.35
702.92	321.97
703.26	320.65
703.59	319.39
703.93	318.25
704.26	317.01
704.60	315.69
704.93	314.29
705.26	313.07
705.60	311.80
705.93	310.54
706.27	309.31
706.60	308.19
706.94	307.17
707.27	306.03
707.61	304.98
707.94	303.78
708.27	302.55
708.61	301.33
708.94	300.21
709.28	299.14
709.61	297.98
709.94	297.01
710.28	295.91
710.61	294.85
710.95	293.62
711.28	292.67
711.61	291.55
711.95	290.61
712.28	289.60
712.61	288.68
712.95	287.70
713.28	286.83
713.61	285.76
713.95	284.68
714.28	283.77
714.61	282.69
714.95	281.77
715.28	280.86
715.61	279.86
715.95	278.98
716.28	278.04
716.61	277.27
716.95	276.34
717.28	275.56
717.61	274.63
717.94	273.90
718.28	272.94
718.61	272.21
718.94	271.45
719.27	270.72
719.61	269.90
719.94	269.24
720.27	268.42
720.60	267.76
720.94	267.13
721.27	266.40
721.60	265.84
721.93	265.24
722.27	264.67
722.60	264.15
722.93	263.56
723.26	263.00
723.59	262.28
723.93	261.68
724.26	261.13
724.59	260.62
724.92	260.10
725.25	259.59
725.59	259.01
725.92	258.48
726.25	257.85
726.58	257.35
726.91	256.76
727.24	256.25
727.57	255.73
727.91	255.12
728.24	254.64
728.57	254.02
728.90	253.50
729.23	252.94
729.56	252.47
729.89	251.97
730.22	251.41
730.55	250.95
730.89	250.50
731.22	249.93
731.55	249.48
731.88	248.94
732.21	248.47
732.54	248.03
732.87	247.61
733.20	247.20
733.53	246.79
733.86	246.41
734.19	246.03
734.52	245.70
734.85	245.53
735.18	245.11
735.51	244.86
735.84	244.48
736.17	244.04
736.50	243.55
736.83	243.43
737.16	243.08
737.49	242.74
737.82	242.30
738.15	241.98
738.48	241.58
738.81	241.26
739.14	240.85
739.47	240.51
739.80	240.06
740.13	239.77
740.46	239.37
740.79	238.98
741.12	238.65
741.45	238.26
741.78	237.75
742.11	237.55
742.44	237.20
742.77	236.90
743.10	236.64
743.43	236.40
743.75	235.90
744.08	235.80
744.41	235.54
744.74	235.19
745.07	234.93
745.40	234.73
745.73	234.43
746.06	234.15
746.39	233.86
746.71	233.66
747.04	233.38
747.37	233.16
747.70	232.85
748.03	232.58
748.36	232.31
748.68	232.09
749.01	231.81
749.34	231.55
749.67	231.27
750.00	231.02
750.33	230.90
750.65	230.63
750.98	230.26
751.31	230.01
751.64	229.84
751.97	229.60
752.29	229.30
752.62	228.94
752.95	228.72
753.28	228.52
753.60	228.32
753.93	228.16
754.26	227.94
754.59	227.74
754.91	227.51
755.24	227.29
755.57	227.13
755.90	226.84
756.22	226.64
756.55	226.45
756.88	226.22
757.20	225.89
757.53	225.67
757.86	225.48
758.19	225.28
758.51	225.16
758.84	224.88
759.17	224.70
759.49	224.70
759.82	224.56
760.15	224.44
760.47	224.24
760.80	223.95
761.13	223.83
761.45	223.65
761.78	223.47
762.11	223.43
762.43	223.23
762.76	223.15
763.08	223.05
763.41	222.96
763.74	222.87
764.06	222.80
764.39	222.70
764.71	222.52
765.04	222.42
765.37	222.25
765.69	222.19
766.02	222.03
766.34	221.91
766.67	221.75
767.00	221.60
767.32	221.67
767.65	221.66
767.97	221.47
768.30	221.41
768.62	221.33
768.95	221.11
769.27	220.99
769.60	220.85
769.92	220.63
770.25	220.45
770.57	220.32
770.90	220.10
771.22	219.91
771.55	219.80
771.87	219.76
772.20	219.68
772.52	219.67
772.85	219.84
773.17	219.71
773.50	219.61
773.82	219.54
774.15	219.21
774.47	219.03
774.80	218.96
775.12	218.80
775.45	218.69
775.77	218.63
776.09	218.51
776.42	218.40
776.74	218.43
777.07	218.29
777.39	218.22
777.72	218.13
778.04	218.11
778.36	218.06
778.69	217.93
779.01	217.80
779.33	217.62
779.66	217.37
779.98	217.20
780.31	217.11
780.63	217.11
780.95	217.10
781.28	217.08
781.60	217.01
781.92	216.95
782.25	216.85
782.57	216.79
782.89	216.72
783.22	216.67
783.54	216.58
783.86	216.61
784.19	216.50
784.51	216.49
784.83	216.32
785.16	216.22
785.48	216.14
785.80	216.09
786.12	216.05
786.45	215.96
