SpectraSuite Data File
++++++++++++++++++++++++++++++++++++
Date: Mon Feb 25 17:31:15 EST 2013
User: group
Dark Spectrum Present: No
Reference Spectrum Present: No
Number of Sampled Component Spectra: 1
Spectrometers: USB2E7196
Integration Time (usec): 52000 (USB2E7196)
Spectra Averaged: 20 (USB2E7196)
Boxcar Smoothing: 10 (USB2E7196)
Correct for Electrical Dark: No (USB2E7196)
Strobe/Lamp Enabled: No (USB2E7196)
Correct for Detector Non-linearity: No (USB2E7196)
Correct for Stray Light: No (USB2E7196)
Number of Pixels in Processed Spectrum: 2048
>>>>>Begin Processed Spectral Data<<<<<
339.09	0.00
339.48	199.20
339.86	200.80
340.24	201.50
340.63	203.05
341.01	207.20
341.39	206.35
341.78	207.40
342.16	207.85
342.54	208.95
342.93	198.35
343.31	208.36
343.69	208.93
344.07	209.35
344.46	209.82
344.84	210.21
345.22	210.38
345.60	210.67
345.99	210.85
346.37	211.04
346.75	211.13
347.13	211.30
347.52	211.37
347.90	211.50
348.28	211.62
348.66	211.64
349.05	211.74
349.43	211.75
349.81	211.83
350.19	211.95
350.57	212.07
350.96	212.15
351.34	212.31
351.72	212.37
352.10	212.46
352.48	212.52
352.87	212.63
353.25	212.72
353.63	212.70
354.01	212.85
354.39	212.98
354.77	213.10
355.15	213.19
355.54	213.28
355.92	213.34
356.30	213.35
356.68	213.62
357.06	213.67
357.44	213.80
357.82	213.84
358.20	213.81
358.58	213.81
358.97	213.87
359.35	213.92
359.73	214.05
360.11	214.17
360.49	214.21
360.87	214.24
361.25	214.29
361.63	214.45
362.01	214.44
362.39	214.42
362.77	214.49
363.15	214.41
363.53	214.37
363.91	214.30
364.29	214.26
364.67	214.11
365.05	214.15
365.43	214.14
365.81	214.09
366.19	214.16
366.57	214.21
366.95	214.19
367.33	214.13
367.71	214.03
368.09	214.05
368.47	214.10
368.85	213.98
369.23	213.99
369.61	213.87
369.99	213.88
370.37	213.84
370.75	213.85
371.13	213.83
371.51	213.73
371.89	213.78
372.27	213.77
372.65	213.68
373.03	213.62
373.41	213.52
373.78	213.47
374.16	213.30
374.54	213.21
374.92	213.17
375.30	213.10
375.68	213.06
376.06	212.95
376.44	212.81
376.82	212.85
377.19	212.84
377.57	212.74
377.95	212.66
378.33	212.61
378.71	212.42
379.09	212.43
379.47	212.46
379.84	212.33
380.22	212.27
380.60	212.14
380.98	212.02
381.36	211.98
381.73	211.93
382.11	212.00
382.49	211.93
382.87	211.84
383.25	211.80
383.62	211.95
384.00	211.93
384.38	211.96
384.76	211.96
385.13	211.91
385.51	211.91
385.89	211.82
386.27	211.78
386.64	211.84
387.02	211.77
387.40	211.68
387.78	211.76
388.15	211.80
388.53	211.89
388.91	211.89
389.29	211.80
389.66	211.85
390.04	211.85
390.42	211.85
390.79	211.81
391.17	211.84
391.55	211.64
391.92	211.59
392.30	211.55
392.68	211.49
393.05	211.44
393.43	211.45
393.81	211.52
394.18	211.46
394.56	211.42
394.94	211.44
395.31	211.47
395.69	211.45
396.06	211.43
396.44	211.40
396.82	211.35
397.19	211.53
397.57	211.51
397.95	211.50
398.32	211.43
398.70	211.53
399.07	211.55
399.45	211.56
399.82	211.61
400.20	211.65
400.58	211.71
400.95	211.73
401.33	211.83
401.70	211.94
402.08	211.99
402.45	212.07
402.83	212.23
403.20	212.38
403.58	212.42
403.95	212.54
404.33	212.62
404.71	212.79
405.08	212.93
405.46	213.04
405.83	213.19
406.21	213.45
406.58	213.56
406.96	213.70
407.33	213.89
407.70	214.03
408.08	214.36
408.45	214.57
408.83	214.88
409.20	215.10
409.58	215.28
409.95	215.64
410.33	215.97
410.70	216.13
411.08	216.42
411.45	216.75
411.82	217.00
412.20	217.47
412.57	218.02
412.95	218.28
413.32	218.83
413.69	219.32
414.07	219.83
414.44	220.51
414.82	221.11
415.19	221.87
415.56	222.66
415.94	223.34
416.31	224.16
416.68	224.97
417.06	225.93
417.43	226.87
417.81	227.87
418.18	228.95
418.55	230.10
418.93	231.38
419.30	232.71
419.67	234.23
420.04	235.61
420.42	236.98
420.79	238.82
421.16	240.48
421.54	242.28
421.91	244.11
422.28	245.97
422.66	248.04
423.03	250.04
423.40	252.10
423.77	254.27
424.15	256.52
424.52	258.81
424.89	261.24
425.26	263.72
425.64	266.04
426.01	268.49
426.38	271.22
426.75	273.80
427.13	276.49
427.50	279.33
427.87	282.32
428.24	285.32
428.61	288.20
428.99	291.44
429.36	294.85
429.73	298.25
430.10	301.63
430.47	305.10
430.85	308.69
431.22	312.48
431.59	316.51
431.96	320.35
432.33	324.72
432.70	328.86
433.08	333.68
433.45	338.30
433.82	342.81
434.19	347.85
434.56	352.88
434.93	357.60
435.30	362.41
435.68	367.56
436.05	372.75
436.42	377.79
436.79	382.39
437.16	387.34
437.53	392.54
437.90	397.67
438.27	402.65
438.64	407.99
439.01	412.76
439.38	417.10
439.75	421.30
440.13	425.98
440.50	430.53
440.87	434.06
441.24	437.79
441.61	442.07
441.98	445.07
442.35	448.61
442.72	452.16
443.09	455.49
443.46	457.60
443.83	458.96
444.20	460.11
444.57	461.78
444.94	462.61
445.31	463.50
445.68	464.31
446.05	464.55
446.42	463.85
446.79	463.20
447.16	462.36
447.53	461.79
447.90	459.60
448.27	457.50
448.64	454.57
449.01	452.48
449.37	448.80
449.74	445.35
450.11	441.39
450.48	437.07
450.85	432.55
451.22	428.58
451.59	424.81
451.96	421.29
452.33	416.70
452.70	412.35
453.07	407.21
453.43	402.12
453.80	397.28
454.17	392.49
454.54	388.10
454.91	383.41
455.28	378.73
455.65	374.58
456.02	370.37
456.38	366.86
456.75	362.40
457.12	358.73
457.49	354.91
457.86	351.08
458.23	347.91
458.59	344.56
458.96	341.19
459.33	338.12
459.70	335.00
460.07	332.45
460.43	329.76
460.80	327.18
461.17	324.79
461.54	322.43
461.91	320.25
462.27	317.82
462.64	315.74
463.01	313.54
463.38	311.39
463.74	309.18
464.11	307.32
464.48	305.65
464.85	303.95
465.21	302.72
465.58	301.38
465.95	299.77
466.32	298.32
466.68	296.84
467.05	295.52
467.42	294.11
467.78	292.66
468.15	291.24
468.52	290.25
468.88	289.00
469.25	287.73
469.62	286.82
469.98	285.93
470.35	285.16
470.72	284.38
471.08	283.46
471.45	282.75
471.82	282.01
472.18	281.22
472.55	280.59
472.92	279.84
473.28	279.24
473.65	278.58
474.02	278.03
474.38	277.64
474.75	277.30
475.11	276.97
475.48	276.87
475.85	276.67
476.21	276.42
476.58	276.25
476.94	276.29
477.31	276.22
477.67	276.24
478.04	276.21
478.41	276.33
478.77	276.61
479.14	276.81
479.50	277.07
479.87	277.44
480.23	277.77
480.60	278.21
480.96	278.65
481.33	279.40
481.69	280.09
482.06	280.87
482.42	281.46
482.79	282.20
483.15	283.02
483.52	284.08
483.88	285.10
484.25	286.05
484.61	287.23
484.98	288.29
485.34	289.58
485.71	290.89
486.07	292.25
486.44	293.63
486.80	295.00
487.17	296.64
487.53	298.40
487.90	300.16
488.26	302.11
488.62	303.99
488.99	305.88
489.35	307.99
489.72	310.17
490.08	312.56
490.44	315.16
490.81	317.65
491.17	320.21
491.54	323.01
491.90	326.05
492.26	329.05
492.63	332.41
492.99	335.81
493.36	339.52
493.72	343.41
494.08	347.43
494.45	351.78
494.81	356.22
495.17	360.84
495.54	365.78
495.90	370.70
496.26	375.96
496.63	381.47
496.99	387.19
497.35	393.10
497.72	399.46
498.08	405.80
498.44	412.57
498.80	419.71
499.17	427.11
499.53	434.77
499.89	442.82
500.26	450.86
500.62	459.08
500.98	467.77
501.34	476.74
501.71	486.16
502.07	495.89
502.43	505.91
502.79	516.09
503.16	526.71
503.52	537.63
503.88	548.86
504.24	560.43
504.60	572.24
504.97	584.46
505.33	596.94
505.69	610.11
506.05	623.48
506.41	637.00
506.78	650.66
507.14	664.72
507.50	679.25
507.86	694.21
508.22	709.68
508.59	725.11
508.95	741.03
509.31	757.11
509.67	773.45
510.03	790.16
510.39	807.30
510.75	825.04
511.12	843.22
511.48	861.49
511.84	879.97
512.20	898.60
512.56	917.69
512.92	937.10
513.28	956.49
513.64	976.16
514.00	996.01
514.37	1016.25
514.73	1036.86
515.09	1057.45
515.45	1078.00
515.81	1098.95
516.17	1120.23
516.53	1141.46
516.89	1162.81
517.25	1184.30
517.61	1205.83
517.97	1227.13
518.33	1248.44
518.69	1269.48
519.05	1291.22
519.41	1313.12
519.77	1335.45
520.13	1357.14
520.49	1378.69
520.85	1401.04
521.21	1423.17
521.57	1445.73
521.93	1467.45
522.29	1490.06
522.65	1512.19
523.01	1534.71
523.37	1556.52
523.73	1578.38
524.09	1600.19
524.45	1622.12
524.81	1643.94
525.17	1665.79
525.53	1688.13
525.89	1710.07
526.25	1732.00
526.61	1753.16
526.97	1774.47
527.33	1795.34
527.68	1816.73
528.04	1837.97
528.40	1858.04
528.76	1878.51
529.12	1898.87
529.48	1920.30
529.84	1940.30
530.20	1960.36
530.56	1980.21
530.91	2000.56
531.27	2020.63
531.63	2040.29
531.99	2059.85
532.35	2078.76
532.71	2097.60
533.07	2116.76
533.42	2134.50
533.78	2153.20
534.14	2171.35
534.50	2188.60
534.86	2206.33
535.21	2222.69
535.57	2240.03
535.93	2256.95
536.29	2273.22
536.65	2289.63
537.00	2304.76
537.36	2319.69
537.72	2334.72
538.08	2349.58
538.44	2364.60
538.79	2379.74
539.15	2394.53
539.51	2408.72
539.87	2423.87
540.22	2438.04
540.58	2452.59
540.94	2467.19
541.29	2479.68
541.65	2491.56
542.01	2504.10
542.37	2515.38
542.72	2527.16
543.08	2537.56
543.44	2549.35
543.79	2559.82
544.15	2569.48
544.51	2580.27
544.87	2591.23
545.22	2599.99
545.58	2608.62
545.94	2615.30
546.29	2621.53
546.65	2627.46
547.01	2633.34
547.36	2638.77
547.72	2644.12
548.07	2647.89
548.43	2651.45
548.79	2655.20
549.14	2659.57
549.50	2663.30
549.86	2667.38
550.21	2671.33
550.57	2675.50
550.92	2677.73
551.28	2680.06
551.64	2682.25
551.99	2684.46
552.35	2685.19
552.70	2688.22
553.06	2690.53
553.41	2693.51
553.77	2695.96
554.13	2697.91
554.48	2699.72
554.84	2700.85
555.19	2701.14
555.55	2701.48
555.90	2701.83
556.26	2701.91
556.61	2701.70
556.97	2700.75
557.32	2700.10
557.68	2698.55
558.03	2696.77
558.39	2695.20
558.74	2694.82
559.10	2693.50
559.45	2691.41
559.81	2690.50
560.16	2687.28
560.52	2684.71
560.87	2681.65
561.23	2677.95
561.58	2675.59
561.94	2672.61
562.29	2669.22
562.64	2667.05
563.00	2664.31
563.35	2662.11
563.71	2660.33
564.06	2657.90
564.42	2655.92
564.77	2653.45
565.12	2651.55
565.48	2648.37
565.83	2645.34
566.19	2641.80
566.54	2637.58
566.89	2633.65
567.25	2629.53
567.60	2626.18
567.96	2622.41
568.31	2618.90
568.66	2614.93
569.02	2610.07
569.37	2604.90
569.72	2600.67
570.08	2595.31
570.43	2589.49
570.78	2583.60
571.14	2577.23
571.49	2570.91
571.84	2564.67
572.20	2557.72
572.55	2550.83
572.90	2543.84
573.26	2536.43
573.61	2529.17
573.96	2522.83
574.31	2515.07
574.67	2507.42
575.02	2499.16
575.37	2490.36
575.72	2481.45
576.08	2473.69
576.43	2465.30
576.78	2457.49
577.13	2449.41
577.49	2441.21
577.84	2433.84
578.19	2426.20
578.54	2419.01
578.90	2411.95
579.25	2403.69
579.60	2394.79
579.95	2385.85
580.30	2378.26
580.66	2370.42
581.01	2361.54
581.36	2352.41
581.71	2344.02
582.06	2335.48
582.42	2327.44
582.77	2318.74
583.12	2310.14
583.47	2301.88
583.82	2293.55
584.17	2284.83
584.53	2276.23
584.88	2267.58
585.23	2258.39
585.58	2249.16
585.93	2239.45
586.28	2230.36
586.63	2221.65
586.98	2213.65
587.34	2205.31
587.69	2195.96
588.04	2187.27
588.39	2179.31
588.74	2170.45
589.09	2161.97
589.44	2152.36
589.79	2143.92
590.14	2136.10
590.49	2127.93
590.84	2118.85
591.19	2111.05
591.54	2102.09
591.89	2091.97
592.25	2083.03
592.60	2073.87
592.95	2064.77
593.30	2055.54
593.65	2045.93
594.00	2036.57
594.35	2028.47
594.70	2019.45
595.05	2011.24
595.40	2002.63
595.75	1993.06
596.10	1985.20
596.45	1976.83
596.80	1969.50
597.15	1961.40
597.50	1952.63
597.85	1944.32
598.19	1935.94
598.54	1927.48
598.89	1919.67
599.24	1913.04
599.59	1905.75
599.94	1898.86
600.29	1891.22
600.64	1883.57
600.99	1875.54
601.34	1868.44
601.69	1859.80
602.04	1851.97
602.39	1844.03
602.74	1836.01
603.08	1829.40
603.43	1822.42
603.78	1814.70
604.13	1806.50
604.48	1798.56
604.83	1791.62
605.18	1784.46
605.53	1777.26
605.87	1769.64
606.22	1762.97
606.57	1755.30
606.92	1747.45
607.27	1739.38
607.62	1731.97
607.96	1725.23
608.31	1719.23
608.66	1711.45
609.01	1703.87
609.36	1696.39
609.70	1688.53
610.05	1681.14
610.40	1673.44
610.75	1664.87
611.10	1657.13
611.44	1648.21
611.79	1639.42
612.14	1630.40
612.49	1621.19
612.83	1612.59
613.18	1603.25
613.53	1593.85
613.88	1583.99
614.22	1574.80
614.57	1566.08
614.92	1557.04
615.27	1548.09
615.61	1538.33
615.96	1529.80
616.31	1521.53
616.65	1513.81
617.00	1505.60
617.35	1497.23
617.70	1488.45
618.04	1479.80
618.39	1470.55
618.74	1462.58
619.08	1454.05
619.43	1446.22
619.78	1438.45
620.12	1430.52
620.47	1422.98
620.82	1414.72
621.16	1407.00
621.51	1399.06
621.85	1390.64
622.20	1382.19
622.55	1373.75
622.89	1365.65
623.24	1357.54
623.59	1349.01
623.93	1340.25
624.28	1332.24
624.62	1324.19
624.97	1315.86
625.32	1307.94
625.66	1300.83
626.01	1293.68
626.35	1286.45
626.70	1278.69
627.04	1271.20
627.39	1263.68
627.73	1256.02
628.08	1249.12
628.43	1241.89
628.77	1234.61
629.12	1227.30
629.46	1220.97
629.81	1213.88
630.15	1206.70
630.50	1199.51
630.84	1192.42
631.19	1185.55
631.53	1178.54
631.88	1170.98
632.22	1163.52
632.57	1156.78
632.91	1149.41
633.26	1141.96
633.60	1135.06
633.95	1128.43
634.29	1121.37
634.64	1114.75
634.98	1107.96
635.32	1101.00
635.67	1094.61
636.01	1088.23
636.36	1081.65
636.70	1074.94
637.05	1068.65
637.39	1062.48
637.73	1056.23
638.08	1050.64
638.42	1044.81
638.77	1038.57
639.11	1032.38
639.45	1026.83
639.80	1020.52
640.14	1014.37
640.49	1008.39
640.83	1002.21
641.17	995.81
641.52	989.80
641.86	983.29
642.20	977.23
642.55	970.54
642.89	964.23
643.23	957.78
643.58	952.19
643.92	945.77
644.26	939.35
644.61	933.41
644.95	927.28
645.29	920.91
645.64	914.45
645.98	908.35
646.32	902.76
646.66	896.53
647.01	890.70
647.35	884.71
647.69	878.40
648.04	872.51
648.38	866.72
648.72	860.76
649.06	854.78
649.41	848.78
649.75	843.30
650.09	837.55
650.43	831.79
650.78	825.49
651.12	819.68
651.46	813.97
651.80	808.02
652.14	802.15
652.49	796.29
652.83	790.46
653.17	784.56
653.51	778.53
653.85	772.87
654.20	767.05
654.54	761.52
654.88	756.11
655.22	750.54
655.56	744.70
655.90	738.95
656.25	733.34
656.59	727.75
656.93	722.59
657.27	717.38
657.61	712.04
657.95	706.93
658.29	702.04
658.64	697.13
658.98	692.10
659.32	686.83
659.66	681.89
660.00	676.69
660.34	671.50
660.68	666.41
661.02	661.27
661.36	656.58
661.70	651.78
662.05	647.23
662.39	642.77
662.73	638.47
663.07	634.19
663.41	629.95
663.75	625.55
664.09	620.79
664.43	616.13
664.77	611.89
665.11	607.60
665.45	603.21
665.79	598.86
666.13	594.40
666.47	590.30
666.81	586.10
667.15	582.07
667.49	578.32
667.83	574.60
668.17	570.89
668.51	567.13
668.85	563.41
669.19	559.72
669.53	555.70
669.87	551.69
670.21	547.93
670.55	544.14
670.89	540.87
671.23	537.68
671.57	534.20
671.91	530.69
672.25	527.15
672.58	523.66
672.92	520.25
673.26	517.21
673.60	514.10
673.94	510.79
674.28	507.62
674.62	504.39
674.96	501.20
675.30	498.36
675.64	495.05
675.97	491.97
676.31	488.98
676.65	486.27
676.99	483.72
677.33	480.77
677.67	477.86
678.01	474.66
678.34	471.54
678.68	468.67
679.02	465.63
679.36	462.82
679.70	460.15
680.04	457.38
680.37	454.46
680.71	451.68
681.05	449.10
681.39	446.51
681.73	443.84
682.06	441.47
682.40	438.70
682.74	436.18
683.08	433.60
683.42	431.09
683.75	428.48
684.09	425.76
684.43	423.37
684.77	420.84
685.10	418.47
685.44	416.18
685.78	413.76
686.12	411.63
686.45	409.44
686.79	406.99
687.13	404.86
687.46	402.66
687.80	400.38
688.14	398.13
688.48	396.01
688.81	393.91
689.15	391.57
689.49	389.31
689.82	387.25
690.16	385.00
690.50	382.72
690.83	380.54
691.17	378.40
691.51	376.18
691.84	374.17
692.18	372.27
692.52	370.21
692.85	368.54
693.19	366.68
693.52	364.62
693.86	362.74
694.20	360.80
694.53	358.95
694.87	357.10
695.21	355.25
695.54	353.35
695.88	351.53
696.21	349.78
696.55	348.07
696.88	346.29
697.22	344.59
697.56	343.00
697.89	341.45
698.23	339.88
698.56	338.33
698.90	336.85
699.23	335.16
699.57	333.67
699.90	331.85
700.24	330.16
700.58	328.70
700.91	327.22
701.25	325.81
701.58	324.38
701.92	323.03
702.25	321.60
702.59	320.20
702.92	318.94
703.26	317.57
703.59	316.36
703.93	315.27
704.26	314.10
704.60	312.86
704.93	311.57
705.26	310.29
705.60	309.17
705.93	307.97
706.27	306.87
706.60	305.73
706.94	304.71
707.27	303.54
707.61	302.39
707.94	301.25
708.27	299.95
708.61	298.87
708.94	297.79
709.28	296.70
709.61	295.63
709.94	294.44
710.28	293.41
710.61	292.41
710.95	291.17
711.28	290.27
711.61	289.28
711.95	288.31
712.28	287.30
712.61	286.25
712.95	285.31
713.28	284.38
713.61	283.41
713.95	282.44
714.28	281.62
714.61	280.69
714.95	279.86
715.28	278.99
715.61	278.05
715.95	277.22
716.28	276.36
716.61	275.60
716.95	274.75
717.28	273.95
717.61	273.03
717.94	272.31
718.28	271.48
718.61	270.75
718.94	270.01
719.27	269.29
719.61	268.67
719.94	267.95
720.27	267.14
720.60	266.44
720.94	265.78
721.27	265.12
721.60	264.57
721.93	263.95
722.27	263.44
722.60	262.81
722.93	262.16
723.26	261.66
723.59	261.03
723.93	260.49
724.26	259.87
724.59	259.34
724.92	258.86
725.25	258.26
725.59	257.74
725.92	257.21
726.25	256.72
726.58	256.17
726.91	255.68
727.24	255.25
727.57	254.78
727.91	254.17
728.24	253.71
728.57	253.26
728.90	252.76
729.23	252.25
729.56	251.91
729.89	251.44
730.22	250.90
730.55	250.34
730.89	249.86
731.22	249.44
731.55	248.97
731.88	248.45
732.21	248.03
732.54	247.52
732.87	247.06
733.20	246.61
733.53	246.17
733.86	245.76
734.19	245.33
734.52	244.97
734.85	244.82
735.18	244.38
735.51	244.02
735.84	243.71
736.17	243.41
736.50	242.97
736.83	242.84
737.16	242.51
737.49	242.24
737.82	241.87
738.15	241.50
738.48	241.20
738.81	240.87
739.14	240.53
739.47	240.20
739.80	239.82
740.13	239.44
740.46	239.12
740.79	238.81
741.12	238.45
741.45	238.05
741.78	237.65
742.11	237.32
742.44	236.95
742.77	236.61
743.10	236.30
743.43	236.00
743.75	235.56
744.08	235.45
744.41	235.19
744.74	234.99
745.07	234.66
745.40	234.42
745.73	234.14
746.06	233.85
746.39	233.59
746.71	233.37
747.04	233.15
747.37	232.82
747.70	232.54
748.03	232.34
748.36	232.17
748.68	231.90
749.01	231.67
749.34	231.40
749.67	231.10
750.00	230.85
750.33	230.71
750.65	230.39
750.98	229.86
751.31	229.62
751.64	229.43
751.97	229.37
752.29	229.10
752.62	228.85
752.95	228.65
753.28	228.43
753.60	228.24
753.93	228.02
754.26	227.84
754.59	227.56
754.91	227.33
755.24	227.05
755.57	226.82
755.90	226.64
756.22	226.40
756.55	226.18
756.88	225.93
757.20	225.65
757.53	225.40
757.86	225.30
758.19	225.10
758.51	224.77
758.84	224.52
759.17	224.36
759.49	224.22
759.82	224.06
760.15	223.92
760.47	223.74
760.80	223.58
761.13	223.45
761.45	223.27
761.78	223.13
762.11	222.95
762.43	222.76
762.76	222.65
763.08	222.53
763.41	222.43
763.74	222.32
764.06	222.10
764.39	222.06
764.71	221.95
765.04	221.83
765.37	221.83
765.69	221.62
766.02	221.50
766.34	221.40
766.67	221.23
767.00	221.05
767.32	221.03
767.65	221.04
767.97	220.96
768.30	220.88
768.62	220.69
768.95	220.63
769.27	220.56
769.60	220.38
769.92	220.26
770.25	220.14
770.57	219.97
770.90	219.87
771.22	219.72
771.55	219.55
771.87	219.44
772.20	219.25
772.52	219.35
772.85	219.47
773.17	219.35
773.50	219.29
773.82	219.16
774.15	219.01
774.47	218.80
774.80	218.62
775.12	218.56
775.45	218.58
775.77	218.54
776.09	218.47
776.42	218.36
776.74	218.38
777.07	218.29
777.39	218.20
777.72	218.19
778.04	218.17
778.36	218.21
778.69	218.10
779.01	218.07
779.33	217.85
779.66	217.56
779.98	217.46
780.31	217.36
780.63	217.43
780.95	217.35
781.28	217.19
781.60	217.08
781.92	217.00
782.25	216.92
782.57	216.90
782.89	216.83
783.22	216.79
783.54	216.62
783.86	216.63
784.19	216.60
784.51	216.60
784.83	216.48
785.16	216.36
785.48	216.36
785.80	216.33
786.12	216.25
786.45	216.18
