SpectraSuite Data File
++++++++++++++++++++++++++++++++++++
Date: Mon Feb 25 17:30:35 EST 2013
User: group
Dark Spectrum Present: No
Reference Spectrum Present: No
Number of Sampled Component Spectra: 1
Spectrometers: USB2E7196
Integration Time (usec): 52000 (USB2E7196)
Spectra Averaged: 20 (USB2E7196)
Boxcar Smoothing: 10 (USB2E7196)
Correct for Electrical Dark: No (USB2E7196)
Strobe/Lamp Enabled: No (USB2E7196)
Correct for Detector Non-linearity: No (USB2E7196)
Correct for Stray Light: No (USB2E7196)
Number of Pixels in Processed Spectrum: 2048
>>>>>Begin Processed Spectral Data<<<<<
339.09	0.00
339.48	199.45
339.86	200.90
340.24	201.90
340.63	203.80
341.01	205.35
341.39	207.20
341.78	205.50
342.16	209.30
342.54	208.60
342.93	197.88
343.31	207.89
343.69	208.30
344.07	208.73
344.46	209.11
344.84	209.47
345.22	209.76
345.60	209.94
345.99	210.23
346.37	210.31
346.75	210.43
347.13	210.57
347.52	210.65
347.90	210.76
348.28	210.77
348.66	210.93
349.05	210.93
349.43	211.00
349.81	211.00
350.19	211.03
350.57	211.10
350.96	211.21
351.34	211.25
351.72	211.48
352.10	211.60
352.48	211.70
352.87	211.74
353.25	211.78
353.63	211.81
354.01	211.82
354.39	211.90
354.77	212.01
355.15	212.11
355.54	212.14
355.92	212.21
356.30	212.31
356.68	212.50
357.06	212.61
357.44	212.74
357.82	212.86
358.20	212.98
358.58	212.97
358.97	213.05
359.35	213.20
359.73	213.29
360.11	213.37
360.49	213.43
360.87	213.46
361.25	213.52
361.63	213.67
362.01	213.77
362.39	213.86
362.77	213.87
363.15	213.91
363.53	213.99
363.91	213.97
364.29	214.05
364.67	213.90
365.05	213.91
365.43	213.91
365.81	213.92
366.19	213.99
366.57	214.12
366.95	214.16
367.33	214.09
367.71	214.09
368.09	214.15
368.47	214.16
368.85	214.25
369.23	214.27
369.61	214.21
369.99	214.26
370.37	214.16
370.75	214.25
371.13	214.22
371.51	214.17
371.89	214.19
372.27	214.13
372.65	214.10
373.03	214.13
373.41	214.07
373.78	213.98
374.16	213.80
374.54	213.69
374.92	213.71
375.30	213.74
375.68	213.64
376.06	213.55
376.44	213.47
376.82	213.36
377.19	213.41
377.57	213.34
377.95	213.25
378.33	213.27
378.71	213.13
379.09	213.07
379.47	213.02
379.84	212.89
380.22	212.85
380.60	212.74
380.98	212.63
381.36	212.64
381.73	212.54
382.11	212.57
382.49	212.58
382.87	212.40
383.25	212.34
383.62	212.43
384.00	212.33
384.38	212.29
384.76	212.30
385.13	212.25
385.51	212.26
385.89	212.25
386.27	212.16
386.64	212.13
387.02	212.09
387.40	212.00
387.78	212.03
388.15	212.00
388.53	211.96
388.91	211.95
389.29	211.88
389.66	211.90
390.04	211.81
390.42	211.84
390.79	211.82
391.17	211.82
391.55	211.70
391.92	211.70
392.30	211.72
392.68	211.64
393.05	211.58
393.43	211.54
393.81	211.50
394.18	211.52
394.56	211.53
394.94	211.57
395.31	211.57
395.69	211.61
396.06	211.61
396.44	211.63
396.82	211.67
397.19	211.74
397.57	211.73
397.95	211.73
398.32	211.63
398.70	211.67
399.07	211.69
399.45	211.67
399.82	211.69
400.20	211.79
400.58	211.83
400.95	211.82
401.33	211.83
401.70	211.97
402.08	212.00
402.45	212.05
402.83	212.12
403.20	212.22
403.58	212.30
403.95	212.46
404.33	212.60
404.71	212.68
405.08	212.90
405.46	213.03
405.83	213.22
406.21	213.39
406.58	213.58
406.96	213.70
407.33	213.92
407.70	214.10
408.08	214.35
408.45	214.63
408.83	214.90
409.20	215.12
409.58	215.25
409.95	215.50
410.33	215.74
410.70	216.01
411.08	216.37
411.45	216.79
411.82	217.06
412.20	217.49
412.57	218.05
412.95	218.37
413.32	218.89
413.69	219.37
414.07	219.97
414.44	220.54
414.82	221.26
415.19	221.87
415.56	222.68
415.94	223.39
416.31	224.25
416.68	225.13
417.06	226.17
417.43	227.08
417.81	228.15
418.18	229.33
418.55	230.53
418.93	231.80
419.30	233.00
419.67	234.43
420.04	235.75
420.42	237.18
420.79	238.94
421.16	240.66
421.54	242.50
421.91	244.25
422.28	246.15
422.66	248.05
423.03	250.16
423.40	252.10
423.77	254.27
424.15	256.49
424.52	258.72
424.89	261.15
425.26	263.60
425.64	265.85
426.01	268.29
426.38	270.94
426.75	273.64
427.13	276.40
427.50	279.23
427.87	282.32
428.24	285.34
428.61	288.16
428.99	291.29
429.36	294.54
429.73	297.83
430.10	301.19
430.47	304.77
430.85	308.32
431.22	312.21
431.59	316.27
431.96	320.08
432.33	324.40
432.70	328.51
433.08	333.35
433.45	337.85
433.82	342.41
434.19	347.33
434.56	352.12
434.93	356.74
435.30	361.31
435.68	366.34
436.05	371.24
436.42	376.18
436.79	380.75
437.16	385.75
437.53	391.06
437.90	396.19
438.27	401.18
438.64	406.38
439.01	411.14
439.38	415.31
439.75	419.35
440.13	424.08
440.50	428.52
440.87	432.02
441.24	435.87
441.61	439.84
441.98	443.05
442.35	446.58
442.72	450.17
443.09	453.65
443.46	455.72
443.83	457.10
444.20	458.26
444.57	459.88
444.94	460.55
445.31	461.28
445.68	462.08
446.05	462.23
446.42	461.54
446.79	460.80
447.16	460.09
447.53	459.56
447.90	457.43
448.27	455.27
448.64	452.57
449.01	450.51
449.37	447.00
449.74	443.29
450.11	439.22
450.48	434.85
450.85	430.38
451.22	426.54
451.59	422.92
451.96	419.43
452.33	414.82
452.70	410.62
453.07	405.63
453.43	400.46
453.80	395.60
454.17	391.02
454.54	386.56
454.91	381.77
455.28	377.12
455.65	372.75
456.02	368.72
456.38	365.06
456.75	360.49
457.12	356.74
457.49	353.12
457.86	349.49
458.23	346.24
458.59	342.81
458.96	339.35
459.33	336.27
459.70	333.30
460.07	330.90
460.43	328.18
460.80	325.61
461.17	323.30
461.54	320.89
461.91	318.54
462.27	316.20
462.64	314.22
463.01	312.06
463.38	310.04
463.74	307.70
464.11	305.86
464.48	304.27
464.85	302.60
465.21	301.27
465.58	299.84
465.95	298.34
466.32	296.97
466.68	295.62
467.05	294.28
467.42	292.84
467.78	291.39
468.15	290.03
468.52	289.07
468.88	287.79
469.25	286.66
469.62	285.85
469.98	284.90
470.35	284.08
470.72	283.31
471.08	282.41
471.45	281.78
471.82	281.00
472.18	280.17
472.55	279.71
472.92	279.08
473.28	278.55
473.65	277.96
474.02	277.44
474.38	277.03
474.75	276.63
475.11	276.18
475.48	276.01
475.85	275.90
476.21	275.55
476.58	275.47
476.94	275.43
477.31	275.32
477.67	275.35
478.04	275.34
478.41	275.45
478.77	275.83
479.14	275.89
479.50	276.13
479.87	276.54
480.23	276.80
480.60	277.15
480.96	277.52
481.33	278.15
481.69	278.83
482.06	279.42
482.42	280.09
482.79	280.89
483.15	281.77
483.52	282.66
483.88	283.74
484.25	284.74
484.61	285.79
484.98	286.88
485.34	288.15
485.71	289.55
486.07	290.88
486.44	292.06
486.80	293.70
487.17	295.42
487.53	297.15
487.90	299.01
488.26	300.90
488.62	303.07
488.99	305.07
489.35	307.04
489.72	309.38
490.08	311.84
490.44	314.43
490.81	316.97
491.17	319.63
491.54	322.52
491.90	325.52
492.26	328.65
492.63	331.89
492.99	335.38
493.36	338.86
493.72	342.86
494.08	346.92
494.45	351.04
494.81	355.39
495.17	359.91
495.54	364.75
495.90	369.67
496.26	374.78
496.63	380.14
496.99	385.88
497.35	391.81
497.72	398.10
498.08	404.53
498.44	411.33
498.80	418.59
499.17	425.97
499.53	433.62
499.89	441.65
500.26	449.79
500.62	458.09
500.98	466.95
501.34	475.80
501.71	485.17
502.07	494.84
502.43	504.85
502.79	514.92
503.16	525.33
503.52	536.21
503.88	547.25
504.24	558.72
504.60	570.64
504.97	582.78
505.33	594.95
505.69	607.98
506.05	621.32
506.41	634.60
506.78	648.27
507.14	662.36
507.50	676.73
507.86	691.42
508.22	706.60
508.59	721.86
508.95	737.69
509.31	753.82
509.67	770.29
510.03	787.03
510.39	804.50
510.75	822.01
511.12	839.90
511.48	858.20
511.84	876.77
512.20	895.20
512.56	914.32
512.92	933.69
513.28	952.73
513.64	972.02
514.00	991.79
514.37	1011.86
514.73	1032.18
515.09	1052.95
515.45	1073.44
515.81	1094.02
516.17	1115.04
516.53	1136.09
516.89	1157.12
517.25	1178.29
517.61	1199.41
517.97	1220.48
518.33	1241.91
518.69	1263.18
519.05	1284.87
519.41	1306.68
519.77	1328.74
520.13	1350.33
520.49	1371.90
520.85	1394.45
521.21	1416.56
521.57	1439.12
521.93	1460.52
522.29	1482.93
522.65	1504.61
523.01	1526.99
523.37	1548.59
523.73	1570.51
524.09	1592.19
524.45	1614.14
524.81	1636.04
525.17	1658.38
525.53	1680.36
525.89	1702.31
526.25	1723.97
526.61	1744.59
526.97	1765.60
527.33	1786.29
527.68	1807.24
528.04	1828.26
528.40	1847.81
528.76	1868.20
529.12	1888.08
529.48	1909.23
529.84	1928.93
530.20	1948.84
530.56	1968.67
530.91	1989.02
531.27	2008.68
531.63	2027.99
531.99	2047.32
532.35	2066.23
532.71	2084.43
533.07	2103.43
533.42	2121.17
533.78	2139.52
534.14	2157.46
534.50	2174.44
534.86	2191.92
535.21	2208.01
535.57	2225.17
535.93	2242.19
536.29	2258.40
536.65	2274.68
537.00	2289.81
537.36	2304.61
537.72	2319.09
538.08	2333.57
538.44	2348.39
538.79	2363.19
539.15	2377.56
539.51	2391.55
539.87	2405.89
540.22	2419.70
540.58	2433.77
540.94	2447.63
541.29	2460.03
541.65	2472.27
542.01	2484.72
542.37	2496.42
542.72	2508.37
543.08	2518.67
543.44	2529.94
543.79	2539.46
544.15	2548.99
544.51	2559.32
544.87	2569.83
545.22	2578.95
545.58	2587.07
545.94	2593.77
546.29	2599.70
546.65	2605.50
547.01	2611.33
547.36	2616.63
547.72	2621.86
548.07	2625.35
548.43	2628.60
548.79	2632.22
549.14	2636.22
549.50	2639.89
549.86	2643.31
550.21	2647.04
550.57	2650.56
550.92	2653.06
551.28	2655.58
551.64	2657.71
551.99	2659.67
552.35	2660.87
552.70	2663.16
553.06	2665.36
553.41	2668.09
553.77	2670.53
554.13	2672.78
554.48	2674.24
554.84	2675.34
555.19	2675.60
555.55	2675.82
555.90	2676.32
556.26	2676.55
556.61	2676.18
556.97	2674.80
557.32	2674.29
557.68	2672.32
558.03	2670.93
558.39	2669.03
558.74	2668.19
559.10	2666.91
559.45	2665.04
559.81	2663.78
560.16	2660.95
560.52	2658.43
560.87	2655.21
561.23	2651.49
561.58	2649.05
561.94	2645.91
562.29	2642.01
562.64	2639.68
563.00	2637.21
563.35	2634.62
563.71	2632.80
564.06	2630.26
564.42	2628.15
564.77	2625.27
565.12	2623.46
565.48	2619.86
565.83	2616.95
566.19	2613.53
566.54	2609.14
566.89	2605.33
567.25	2601.40
567.60	2597.85
567.96	2594.28
568.31	2590.80
568.66	2587.22
569.02	2582.52
569.37	2577.42
569.72	2573.73
570.08	2568.12
570.43	2562.41
570.78	2556.78
571.14	2550.26
571.49	2543.85
571.84	2538.21
572.20	2531.44
572.55	2524.55
572.90	2517.86
573.26	2510.66
573.61	2503.86
573.96	2497.45
574.31	2489.49
574.67	2481.41
575.02	2473.16
575.37	2464.85
575.72	2455.83
576.08	2448.21
576.43	2439.98
576.78	2432.23
577.13	2424.11
577.49	2416.47
577.84	2408.95
578.19	2401.73
578.54	2394.50
578.90	2388.00
579.25	2379.54
579.60	2370.66
579.95	2361.89
580.30	2354.39
580.66	2346.73
581.01	2338.03
581.36	2329.20
581.71	2320.73
582.06	2312.48
582.42	2304.76
582.77	2295.75
583.12	2287.58
583.47	2278.95
583.82	2270.55
584.17	2261.68
584.53	2253.12
584.88	2244.53
585.23	2235.88
585.58	2226.63
585.93	2217.24
586.28	2207.97
586.63	2199.14
586.98	2191.32
587.34	2183.13
587.69	2174.16
588.04	2165.16
588.39	2156.81
588.74	2148.07
589.09	2139.96
589.44	2130.81
589.79	2122.40
590.14	2114.80
590.49	2106.49
590.84	2097.95
591.19	2090.27
591.54	2082.09
591.89	2072.45
592.25	2063.57
592.60	2054.27
592.95	2045.15
593.30	2035.96
593.65	2026.66
594.00	2017.41
594.35	2009.51
594.70	2000.72
595.05	1991.95
595.40	1983.19
595.75	1974.19
596.10	1966.43
596.45	1958.35
596.80	1950.75
597.15	1942.99
597.50	1934.35
597.85	1926.25
598.19	1917.85
598.54	1909.58
598.89	1901.77
599.24	1894.78
599.59	1887.59
599.94	1880.82
600.29	1873.41
600.64	1865.70
600.99	1857.55
601.34	1850.91
601.69	1842.32
602.04	1834.36
602.39	1826.86
602.74	1819.45
603.08	1813.10
603.43	1805.79
603.78	1797.99
604.13	1790.05
604.48	1781.90
604.83	1775.12
605.18	1768.28
605.53	1761.19
605.87	1753.30
606.22	1746.55
606.57	1739.16
606.92	1731.29
607.27	1723.57
607.62	1716.37
607.96	1709.80
608.31	1703.85
608.66	1696.14
609.01	1688.96
609.36	1681.70
609.70	1674.02
610.05	1666.49
610.40	1658.62
610.75	1650.73
611.10	1643.24
611.44	1634.54
611.79	1626.13
612.14	1617.23
612.49	1607.76
612.83	1599.12
613.18	1589.92
613.53	1580.40
613.88	1571.10
614.22	1562.28
614.57	1553.14
614.92	1544.24
615.27	1535.37
615.61	1526.01
615.96	1517.10
616.31	1508.76
616.65	1501.06
617.00	1493.09
617.35	1484.81
617.70	1475.82
618.04	1466.74
618.39	1457.56
618.74	1449.59
619.08	1440.98
619.43	1432.94
619.78	1425.63
620.12	1417.63
620.47	1410.24
620.82	1402.16
621.16	1394.00
621.51	1386.09
621.85	1378.11
622.20	1369.79
622.55	1361.39
622.89	1353.11
623.24	1345.41
623.59	1336.92
623.93	1328.18
624.28	1320.01
624.62	1312.15
624.97	1304.39
625.32	1296.76
625.66	1289.74
626.01	1282.59
626.35	1275.61
626.70	1268.01
627.04	1260.66
627.39	1253.44
627.73	1246.09
628.08	1239.53
628.43	1232.54
628.77	1225.23
629.12	1217.81
629.46	1211.30
629.81	1204.12
630.15	1196.91
630.50	1189.85
630.84	1182.73
631.19	1175.90
631.53	1169.14
631.88	1161.73
632.22	1154.17
632.57	1147.53
632.91	1140.25
633.26	1133.11
633.60	1126.10
633.95	1119.43
634.29	1112.25
634.64	1105.57
634.98	1098.59
635.32	1091.45
635.67	1085.07
636.01	1078.72
636.36	1072.27
636.70	1065.70
637.05	1059.35
637.39	1053.33
637.73	1047.21
638.08	1041.50
638.42	1035.77
638.77	1029.52
639.11	1023.30
639.45	1017.73
639.80	1011.37
640.14	1005.20
640.49	998.95
640.83	992.92
641.17	986.80
641.52	980.81
641.86	974.58
642.20	968.63
642.55	962.20
642.89	955.93
643.23	949.64
643.58	943.88
643.92	937.62
644.26	931.82
644.61	926.00
644.95	920.06
645.29	913.91
645.64	907.57
645.98	901.53
646.32	895.95
646.66	890.09
647.01	884.39
647.35	878.48
647.69	872.39
648.04	866.49
648.38	860.45
648.72	854.57
649.06	848.62
649.41	842.58
649.75	836.81
650.09	831.15
650.43	825.37
650.78	819.41
651.12	813.34
651.46	807.64
651.80	801.78
652.14	795.72
652.49	790.01
652.83	784.37
653.17	778.43
653.51	772.42
653.85	766.71
654.20	760.94
654.54	755.29
654.88	750.07
655.22	744.47
655.56	738.88
655.90	733.15
656.25	727.67
656.59	722.40
656.93	717.47
657.27	712.40
657.61	707.13
657.95	702.17
658.29	697.40
658.64	692.26
658.98	687.24
659.32	682.19
659.66	677.16
660.00	671.93
660.34	666.88
660.68	661.98
661.02	656.88
661.36	652.24
661.70	647.72
662.05	643.01
662.39	638.63
662.73	634.44
663.07	630.36
663.41	626.03
663.75	621.64
664.09	616.98
664.43	612.22
664.77	607.98
665.11	603.59
665.45	599.19
665.79	594.88
666.13	590.50
666.47	586.40
666.81	582.26
667.15	578.34
667.49	574.52
667.83	570.73
668.17	566.88
668.51	563.08
668.85	559.42
669.19	555.90
669.53	551.97
669.87	548.00
670.21	544.23
670.55	540.50
670.89	537.17
671.23	533.89
671.57	530.65
671.91	527.17
672.25	523.58
672.58	520.20
672.92	516.78
673.26	513.66
673.60	510.47
673.94	507.31
674.28	504.02
674.62	501.02
674.96	497.98
675.30	495.09
675.64	492.05
675.97	488.88
676.31	485.73
676.65	482.91
676.99	480.32
677.33	477.48
677.67	474.60
678.01	471.56
678.34	468.69
678.68	465.82
679.02	463.01
679.36	460.27
679.70	457.47
680.04	454.73
680.37	451.85
680.71	449.19
681.05	446.60
681.39	444.03
681.73	441.35
682.06	438.83
682.40	436.38
682.74	433.81
683.08	431.32
683.42	428.89
683.75	426.45
684.09	423.81
684.43	421.28
684.77	418.77
685.10	416.20
685.44	413.66
685.78	411.27
686.12	409.02
686.45	406.85
686.79	404.72
687.13	402.67
687.46	400.52
687.80	398.36
688.14	396.09
688.48	393.96
688.81	391.77
689.15	389.59
689.49	387.25
689.82	385.07
690.16	382.72
690.50	380.44
690.83	378.21
691.17	376.06
691.51	373.95
691.84	371.98
692.18	370.14
692.52	368.34
692.85	366.50
693.19	364.59
693.52	362.63
693.86	360.68
694.20	358.85
694.53	356.98
694.87	355.03
695.21	353.13
695.54	351.23
695.88	349.48
696.21	347.68
696.55	346.10
696.88	344.42
697.22	342.88
697.56	341.42
697.89	339.97
698.23	338.50
698.56	336.90
698.90	335.44
699.23	333.74
699.57	332.05
699.90	330.42
700.24	328.75
700.58	327.28
700.91	325.89
701.25	324.44
701.58	323.15
701.92	321.81
702.25	320.59
702.59	319.39
702.92	318.03
703.26	316.74
703.59	315.49
703.93	314.35
704.26	313.13
704.60	311.95
704.93	310.74
705.26	309.45
705.60	308.33
705.93	307.10
706.27	306.12
706.60	305.18
706.94	304.11
707.27	303.00
707.61	301.84
707.94	300.70
708.27	299.53
708.61	298.35
708.94	297.29
709.28	296.12
709.61	295.01
709.94	294.05
710.28	293.06
710.61	292.06
710.95	290.90
711.28	290.02
711.61	288.90
711.95	287.90
712.28	286.92
712.61	285.98
712.95	285.05
713.28	284.14
713.61	283.14
713.95	282.29
714.28	281.50
714.61	280.67
714.95	279.80
715.28	278.86
715.61	277.91
715.95	277.00
716.28	276.08
716.61	275.21
716.95	274.32
717.28	273.47
717.61	272.54
717.94	271.76
718.28	270.86
718.61	270.12
718.94	269.28
719.27	268.66
719.61	267.89
719.94	267.17
720.27	266.37
720.60	265.60
720.94	264.88
721.27	264.14
721.60	263.48
721.93	262.89
722.27	262.31
722.60	261.79
722.93	261.14
723.26	260.70
723.59	260.10
723.93	259.53
724.26	258.97
724.59	258.50
724.92	257.93
725.25	257.45
725.59	256.85
725.92	256.36
726.25	255.76
726.58	255.25
726.91	254.78
727.24	254.29
727.57	253.85
727.91	253.39
728.24	252.93
728.57	252.42
728.90	251.94
729.23	251.46
729.56	251.08
729.89	250.65
730.22	250.15
730.55	249.76
730.89	249.36
731.22	248.94
731.55	248.44
731.88	248.04
732.21	247.58
732.54	247.17
732.87	246.74
733.20	246.27
733.53	245.92
733.86	245.50
734.19	245.04
734.52	244.68
734.85	244.45
735.18	244.05
735.51	243.76
735.84	243.37
736.17	243.08
736.50	242.63
736.83	242.47
737.16	242.13
737.49	241.78
737.82	241.35
738.15	240.95
738.48	240.57
738.81	240.18
739.14	239.79
739.47	239.48
739.80	239.12
740.13	238.91
740.46	238.55
740.79	238.09
741.12	237.77
741.45	237.38
741.78	236.95
742.11	236.72
742.44	236.37
742.77	236.14
743.10	235.71
743.43	235.33
743.75	234.86
744.08	234.83
744.41	234.48
744.74	234.25
745.07	233.94
745.40	233.80
745.73	233.62
746.06	233.35
746.39	233.12
746.71	232.88
747.04	232.50
747.37	232.22
747.70	232.09
748.03	231.95
748.36	231.79
748.68	231.53
749.01	231.23
749.34	231.01
749.67	230.79
750.00	230.62
750.33	230.60
750.65	230.36
750.98	229.89
751.31	229.67
751.64	229.45
751.97	229.39
752.29	229.07
752.62	228.78
752.95	228.61
753.28	228.40
753.60	228.25
753.93	228.12
754.26	227.87
754.59	227.65
754.91	227.31
755.24	227.12
755.57	226.87
755.90	226.65
756.22	226.49
756.55	226.27
756.88	226.11
757.20	225.81
757.53	225.64
757.86	225.40
758.19	225.28
758.51	225.05
758.84	224.70
759.17	224.54
759.49	224.44
759.82	224.33
760.15	224.11
760.47	223.90
760.80	223.63
761.13	223.50
761.45	223.27
761.78	223.20
762.11	223.04
762.43	222.89
762.76	222.79
763.08	222.59
763.41	222.41
763.74	222.25
764.06	222.07
764.39	221.93
764.71	221.85
765.04	221.66
765.37	221.59
765.69	221.54
766.02	221.36
766.34	221.24
766.67	221.01
767.00	220.96
767.32	220.90
767.65	220.94
767.97	220.88
768.30	220.83
768.62	220.70
768.95	220.55
769.27	220.46
769.60	220.35
769.92	220.20
770.25	220.01
770.57	219.92
770.90	219.85
771.22	219.73
771.55	219.57
771.87	219.47
772.20	219.38
772.52	219.43
772.85	219.60
773.17	219.50
773.50	219.39
773.82	219.25
774.15	219.12
774.47	218.92
774.80	218.76
775.12	218.64
775.45	218.62
775.77	218.51
776.09	218.38
776.42	218.29
776.74	218.25
777.07	218.20
777.39	218.09
777.72	217.97
778.04	217.83
778.36	217.79
778.69	217.75
779.01	217.61
779.33	217.41
779.66	217.17
779.98	217.06
780.31	217.05
780.63	216.96
780.95	216.87
781.28	216.77
781.60	216.77
781.92	216.72
782.25	216.58
782.57	216.53
782.89	216.46
783.22	216.45
783.54	216.33
783.86	216.30
784.19	216.25
784.51	216.20
784.83	216.16
785.16	216.06
785.48	215.96
785.80	215.95
786.12	215.90
786.45	215.80
