SpectraSuite Data File
++++++++++++++++++++++++++++++++++++
Date: Mon Feb 25 17:33:42 EST 2013
User: group
Dark Spectrum Present: No
Reference Spectrum Present: No
Number of Sampled Component Spectra: 1
Spectrometers: USB2E7196
Integration Time (usec): 52000 (USB2E7196)
Spectra Averaged: 20 (USB2E7196)
Boxcar Smoothing: 10 (USB2E7196)
Correct for Electrical Dark: No (USB2E7196)
Strobe/Lamp Enabled: No (USB2E7196)
Correct for Detector Non-linearity: No (USB2E7196)
Correct for Stray Light: No (USB2E7196)
Number of Pixels in Processed Spectrum: 2048
>>>>>Begin Processed Spectral Data<<<<<
339.09	0.00
339.48	199.50
339.86	200.60
340.24	201.35
340.63	203.05
341.01	207.60
341.39	206.75
341.78	205.85
342.16	209.55
342.54	209.30
342.93	198.23
343.31	208.25
343.69	208.74
344.07	209.20
344.46	209.65
344.84	210.08
345.22	210.23
345.60	210.47
345.99	210.66
346.37	210.74
346.75	210.87
347.13	210.92
347.52	210.96
347.90	211.09
348.28	211.20
348.66	211.22
349.05	211.21
349.43	211.32
349.81	211.38
350.19	211.50
350.57	211.59
350.96	211.69
351.34	211.75
351.72	211.83
352.10	211.90
352.48	211.98
352.87	212.00
353.25	212.10
353.63	212.14
354.01	212.21
354.39	212.24
354.77	212.31
355.15	212.45
355.54	212.43
355.92	212.41
356.30	212.46
356.68	212.62
357.06	212.64
357.44	212.64
357.82	212.74
358.20	212.78
358.58	212.81
358.97	212.94
359.35	212.99
359.73	213.17
360.11	213.28
360.49	213.31
360.87	213.35
361.25	213.41
361.63	213.48
362.01	213.59
362.39	213.61
362.77	213.64
363.15	213.68
363.53	213.81
363.91	213.88
364.29	213.89
364.67	213.80
365.05	213.83
365.43	213.88
365.81	213.94
366.19	213.99
366.57	214.07
366.95	214.01
367.33	214.02
367.71	213.97
368.09	214.01
368.47	214.02
368.85	214.00
369.23	214.00
369.61	213.95
369.99	213.95
370.37	214.03
370.75	214.10
371.13	214.06
371.51	213.95
371.89	213.95
372.27	213.93
372.65	213.88
373.03	213.83
373.41	213.76
373.78	213.64
374.16	213.59
374.54	213.50
374.92	213.47
375.30	213.52
375.68	213.46
376.06	213.40
376.44	213.40
376.82	213.43
377.19	213.38
377.57	213.27
377.95	213.16
378.33	213.08
378.71	212.86
379.09	212.78
379.47	212.78
379.84	212.63
380.22	212.65
380.60	212.57
380.98	212.51
381.36	212.46
381.73	212.43
382.11	212.36
382.49	212.35
382.87	212.28
383.25	212.22
383.62	212.35
384.00	212.24
384.38	212.20
384.76	212.18
385.13	212.17
385.51	212.25
385.89	212.26
386.27	212.31
386.64	212.37
387.02	212.37
387.40	212.35
387.78	212.36
388.15	212.27
388.53	212.24
388.91	212.18
389.29	212.17
389.66	212.15
390.04	212.12
390.42	212.13
390.79	212.11
391.17	212.05
391.55	211.89
391.92	211.87
392.30	211.82
392.68	211.75
393.05	211.80
393.43	211.72
393.81	211.72
394.18	211.59
394.56	211.60
394.94	211.57
395.31	211.55
395.69	211.59
396.06	211.65
396.44	211.70
396.82	211.77
397.19	211.89
397.57	211.88
397.95	211.95
398.32	211.94
398.70	211.94
399.07	211.93
399.45	211.90
399.82	212.00
400.20	212.05
400.58	212.11
400.95	212.11
401.33	212.21
401.70	212.40
402.08	212.53
402.45	212.54
402.83	212.69
403.20	212.80
403.58	212.88
403.95	213.00
404.33	213.16
404.71	213.20
405.08	213.41
405.46	213.60
405.83	213.69
406.21	213.82
406.58	214.00
406.96	214.25
407.33	214.46
407.70	214.68
408.08	215.00
408.45	215.21
408.83	215.46
409.20	215.70
409.58	215.85
409.95	216.21
410.33	216.56
410.70	216.84
411.08	217.25
411.45	217.63
411.82	217.93
412.20	218.34
412.57	218.90
412.95	219.20
413.32	219.73
413.69	220.22
414.07	220.78
414.44	221.30
414.82	221.91
415.19	222.63
415.56	223.33
415.94	224.07
416.31	225.03
416.68	225.83
417.06	226.83
417.43	227.74
417.81	228.79
418.18	229.91
418.55	231.08
418.93	232.23
419.30	233.49
419.67	234.93
420.04	236.33
420.42	237.88
420.79	239.65
421.16	241.39
421.54	243.25
421.91	245.17
422.28	247.28
422.66	249.33
423.03	251.39
423.40	253.45
423.77	255.61
424.15	257.78
424.52	260.19
424.89	262.73
425.26	265.20
425.64	267.60
426.01	270.20
426.38	272.95
426.75	275.72
427.13	278.45
427.50	281.29
427.87	284.37
428.24	287.44
428.61	290.39
428.99	293.60
429.36	297.04
429.73	300.35
430.10	303.75
430.47	307.31
430.85	310.98
431.22	314.91
431.59	319.12
431.96	323.02
432.33	327.34
432.70	331.52
433.08	336.55
433.45	341.11
433.82	345.55
434.19	350.68
434.56	355.71
434.93	360.60
435.30	365.42
435.68	370.69
436.05	375.89
436.42	380.93
436.79	385.64
437.16	390.88
437.53	396.30
437.90	401.43
438.27	406.64
438.64	412.00
439.01	416.93
439.38	421.21
439.75	425.48
440.13	430.28
440.50	434.84
440.87	438.52
441.24	442.30
441.61	446.70
441.98	449.82
442.35	453.42
442.72	457.07
443.09	460.63
443.46	462.71
443.83	464.13
444.20	465.38
444.57	467.15
444.94	467.82
445.31	468.64
445.68	469.44
446.05	469.63
446.42	468.90
446.79	468.16
447.16	467.32
447.53	466.75
447.90	464.59
448.27	462.43
448.64	459.46
449.01	457.37
449.37	453.65
449.74	450.06
450.11	445.87
450.48	441.41
450.85	436.78
451.22	432.83
451.59	428.97
451.96	425.45
452.33	420.68
452.70	416.26
453.07	411.13
453.43	405.97
453.80	400.97
454.17	396.29
454.54	391.67
454.91	386.88
455.28	382.16
455.65	377.83
456.02	373.59
456.38	369.80
456.75	365.26
457.12	361.46
457.49	357.75
457.86	354.14
458.23	350.94
458.59	347.50
458.96	343.96
459.33	340.86
459.70	337.61
460.07	334.99
460.43	332.20
460.80	329.53
461.17	327.15
461.54	324.76
461.91	322.33
462.27	320.05
462.64	318.00
463.01	315.72
463.38	313.59
463.74	311.32
464.11	309.55
464.48	307.90
464.85	306.10
465.21	304.64
465.58	303.09
465.95	301.27
466.32	299.85
466.68	298.48
467.05	297.10
467.42	295.75
467.78	294.40
468.15	292.98
468.52	291.93
468.88	290.58
469.25	289.27
469.62	288.37
469.98	287.33
470.35	286.37
470.72	285.53
471.08	284.59
471.45	283.85
471.82	283.04
472.18	282.15
472.55	281.53
472.92	280.79
473.28	280.20
473.65	279.72
474.02	279.10
474.38	278.59
474.75	278.24
475.11	277.77
475.48	277.48
475.85	277.30
476.21	277.10
476.58	277.02
476.94	277.00
477.31	276.94
477.67	276.94
478.04	277.02
478.41	277.02
478.77	277.37
479.14	277.47
479.50	277.74
479.87	278.15
480.23	278.55
480.60	278.87
480.96	279.30
481.33	279.91
481.69	280.59
482.06	281.26
482.42	281.85
482.79	282.64
483.15	283.51
483.52	284.48
483.88	285.38
484.25	286.34
484.61	287.45
484.98	288.61
485.34	289.99
485.71	291.32
486.07	292.92
486.44	294.17
486.80	295.73
487.17	297.25
487.53	298.91
487.90	300.74
488.26	302.73
488.62	304.80
488.99	306.82
489.35	308.96
489.72	311.29
490.08	313.63
490.44	316.07
490.81	318.70
491.17	321.38
491.54	324.24
491.90	327.20
492.26	330.23
492.63	333.47
492.99	336.86
493.36	340.60
493.72	344.35
494.08	348.44
494.45	352.76
494.81	357.29
495.17	361.87
495.54	366.78
495.90	371.77
496.26	376.99
496.63	382.47
496.99	388.19
497.35	394.15
497.72	400.46
498.08	406.94
498.44	413.67
498.80	420.82
499.17	428.26
499.53	435.90
499.89	444.03
500.26	452.27
500.62	460.56
500.98	469.27
501.34	478.44
501.71	487.79
502.07	497.39
502.43	507.50
502.79	517.72
503.16	528.35
503.52	539.18
503.88	550.46
504.24	562.11
504.60	574.01
504.97	586.41
505.33	598.95
505.69	612.49
506.05	625.98
506.41	639.54
506.78	653.42
507.14	667.73
507.50	682.28
507.86	697.17
508.22	712.48
508.59	728.00
508.95	744.03
509.31	760.33
509.67	777.05
510.03	793.92
510.39	811.64
510.75	829.46
511.12	847.59
511.48	865.86
511.84	884.43
512.20	903.30
512.56	922.49
512.92	942.04
513.28	961.31
513.64	981.20
514.00	1001.10
514.37	1021.56
514.73	1042.23
515.09	1063.20
515.45	1084.07
515.81	1105.36
516.17	1126.85
516.53	1148.24
516.89	1169.87
517.25	1191.49
517.61	1213.38
517.97	1234.74
518.33	1256.32
518.69	1278.12
519.05	1300.19
519.41	1322.51
519.77	1345.08
520.13	1367.27
520.49	1389.42
520.85	1412.16
521.21	1434.41
521.57	1457.47
521.93	1479.51
522.29	1502.39
522.65	1525.00
523.01	1547.74
523.37	1569.90
523.73	1592.12
524.09	1614.37
524.45	1636.75
524.81	1659.14
525.17	1681.54
525.53	1704.33
525.89	1726.90
526.25	1748.98
526.61	1770.43
526.97	1792.14
527.33	1813.49
527.68	1834.85
528.04	1856.43
528.40	1876.75
528.76	1897.45
529.12	1918.07
529.48	1939.80
529.84	1960.12
530.20	1980.38
530.56	2000.48
530.91	2021.45
531.27	2041.79
531.63	2061.88
531.99	2081.83
532.35	2101.02
532.71	2120.10
533.07	2139.55
533.42	2158.03
533.78	2177.09
534.14	2195.75
534.50	2213.17
534.86	2231.30
535.21	2248.42
535.57	2265.97
535.93	2283.47
536.29	2300.86
536.65	2317.60
537.00	2332.89
537.36	2348.43
537.72	2363.70
538.08	2379.67
538.44	2394.88
538.79	2410.61
539.15	2425.62
539.51	2440.27
539.87	2455.66
540.22	2470.16
540.58	2485.17
540.94	2499.92
541.29	2512.87
541.65	2525.20
542.01	2538.78
542.37	2550.80
542.72	2562.83
543.08	2573.84
543.44	2586.07
543.79	2596.34
544.15	2606.43
544.51	2617.61
544.87	2628.80
545.22	2638.27
545.58	2646.60
545.94	2653.87
546.29	2660.30
546.65	2666.43
547.01	2672.84
547.36	2678.52
547.72	2684.19
548.07	2687.96
548.43	2691.68
548.79	2695.54
549.14	2700.39
549.50	2704.19
549.86	2708.08
550.21	2712.11
550.57	2716.46
550.92	2718.89
551.28	2721.60
551.64	2724.60
551.99	2727.09
552.35	2728.67
552.70	2731.24
553.06	2734.06
553.41	2737.25
553.77	2740.43
554.13	2742.91
554.48	2744.65
554.84	2746.19
555.19	2746.92
555.55	2747.51
555.90	2748.31
556.26	2749.43
556.61	2749.49
556.97	2748.44
557.32	2747.98
557.68	2746.78
558.03	2745.28
558.39	2743.70
558.74	2743.42
559.10	2742.04
559.45	2740.22
559.81	2739.20
560.16	2736.80
560.52	2734.39
560.87	2731.39
561.23	2727.54
561.58	2725.34
561.94	2722.10
562.29	2718.42
562.64	2716.31
563.00	2714.23
563.35	2711.78
563.71	2709.66
564.06	2707.29
564.42	2705.82
564.77	2703.69
565.12	2701.63
565.48	2698.36
565.83	2695.18
566.19	2691.88
566.54	2687.81
566.89	2683.99
567.25	2680.13
567.60	2676.62
567.96	2672.88
568.31	2669.26
568.66	2665.51
569.02	2660.88
569.37	2655.77
569.72	2651.95
570.08	2646.53
570.43	2640.36
570.78	2634.65
571.14	2628.36
571.49	2621.56
571.84	2615.15
572.20	2607.88
572.55	2601.45
572.90	2594.80
573.26	2588.00
573.61	2581.09
573.96	2574.59
574.31	2566.74
574.67	2558.39
575.02	2550.28
575.37	2541.56
575.72	2532.76
576.08	2525.16
576.43	2516.18
576.78	2508.33
577.13	2500.34
577.49	2492.01
577.84	2484.60
578.19	2476.70
578.54	2469.29
578.90	2462.75
579.25	2454.02
579.60	2445.01
579.95	2435.52
580.30	2427.43
580.66	2419.58
581.01	2410.20
581.36	2400.87
581.71	2392.71
582.06	2384.44
582.42	2376.07
582.77	2367.22
583.12	2358.21
583.47	2349.40
583.82	2341.19
584.17	2332.31
584.53	2323.23
584.88	2314.25
585.23	2304.80
585.58	2295.22
585.93	2285.20
586.28	2275.29
586.63	2266.75
586.98	2258.56
587.34	2250.22
587.69	2241.01
588.04	2231.47
588.39	2223.21
588.74	2214.16
589.09	2205.33
589.44	2195.58
589.79	2186.73
590.14	2178.76
590.49	2170.31
590.84	2161.12
591.19	2153.11
591.54	2144.37
591.89	2134.02
592.25	2124.93
592.60	2115.32
592.95	2106.10
593.30	2096.68
593.65	2087.08
594.00	2077.09
594.35	2068.97
594.70	2059.71
595.05	2051.27
595.40	2042.40
595.75	2032.71
596.10	2024.34
596.45	2015.72
596.80	2008.00
597.15	1999.69
597.50	1990.39
597.85	1981.92
598.19	1973.29
598.54	1964.41
598.89	1956.34
599.24	1949.72
599.59	1942.05
599.94	1935.16
600.29	1927.29
600.64	1919.62
600.99	1911.48
601.34	1904.42
601.69	1895.52
602.04	1887.29
602.39	1878.91
602.74	1871.02
603.08	1864.34
603.43	1856.97
603.78	1849.02
604.13	1840.75
604.48	1832.88
604.83	1825.83
605.18	1818.82
605.53	1811.16
605.87	1803.74
606.22	1796.56
606.57	1788.51
606.92	1780.43
607.27	1772.16
607.62	1764.82
607.96	1757.80
608.31	1751.35
608.66	1743.30
609.01	1735.57
609.36	1727.99
609.70	1719.96
610.05	1712.39
610.40	1704.09
610.75	1695.52
611.10	1687.57
611.44	1678.38
611.79	1669.25
612.14	1659.88
612.49	1650.23
612.83	1641.55
613.18	1631.68
613.53	1622.44
613.88	1612.78
614.22	1603.97
614.57	1594.65
614.92	1585.33
615.27	1576.05
615.61	1566.41
615.96	1557.49
616.31	1548.81
616.65	1540.90
617.00	1532.47
617.35	1524.01
617.70	1515.00
618.04	1506.20
618.39	1496.70
618.74	1488.45
619.08	1479.84
619.43	1471.69
619.78	1463.77
620.12	1455.47
620.47	1447.69
620.82	1438.75
621.16	1430.54
621.51	1421.87
621.85	1413.90
622.20	1405.36
622.55	1396.87
622.89	1388.51
623.24	1380.47
623.59	1371.96
623.93	1363.17
624.28	1354.68
624.62	1346.42
624.97	1337.96
625.32	1330.03
625.66	1322.97
626.01	1315.74
626.35	1308.35
626.70	1300.46
627.04	1292.94
627.39	1285.19
627.73	1277.57
628.08	1270.77
628.43	1263.22
628.77	1256.00
629.12	1248.38
629.46	1241.60
629.81	1234.16
630.15	1226.77
630.50	1219.31
630.84	1212.14
631.19	1205.13
631.53	1198.42
631.88	1190.59
632.22	1183.22
632.57	1176.32
632.91	1168.56
633.26	1160.87
633.60	1153.62
633.95	1146.73
634.29	1139.40
634.64	1132.76
634.98	1125.52
635.32	1118.43
635.67	1111.96
636.01	1105.36
636.36	1098.69
636.70	1092.18
637.05	1085.74
637.39	1079.47
637.73	1073.00
638.08	1066.99
638.42	1060.93
638.77	1054.40
639.11	1048.20
639.45	1042.43
639.80	1035.83
640.14	1029.39
640.49	1023.26
640.83	1017.06
641.17	1010.80
641.52	1004.84
641.86	998.18
642.20	992.04
642.55	985.35
642.89	978.86
643.23	972.41
643.58	966.44
643.92	959.68
644.26	953.17
644.61	946.86
644.95	940.86
645.29	934.45
645.64	927.81
645.98	921.59
646.32	915.53
646.66	909.05
647.01	903.15
647.35	897.37
647.69	891.02
648.04	885.10
648.38	879.00
648.72	872.97
649.06	866.85
649.41	860.93
649.75	855.17
650.09	849.32
650.43	843.36
650.78	837.05
651.12	831.28
651.46	825.59
651.80	819.87
652.14	813.84
652.49	807.92
652.83	802.28
653.17	796.07
653.51	790.20
653.85	784.58
654.20	778.60
654.54	772.69
654.88	767.16
655.22	761.31
655.56	755.65
655.90	749.66
656.25	744.03
656.59	738.49
656.93	733.14
657.27	727.98
657.61	722.62
657.95	717.53
658.29	712.17
658.64	707.04
658.98	701.69
659.32	696.48
659.66	691.24
660.00	685.64
660.34	680.52
660.68	675.27
661.02	670.31
661.36	665.64
661.70	660.77
662.05	656.11
662.39	651.74
662.73	647.28
663.07	642.88
663.41	638.63
663.75	634.20
664.09	629.57
664.43	624.68
664.77	620.18
665.11	615.70
665.45	611.35
665.79	606.92
666.13	602.58
666.47	598.24
666.81	594.22
667.15	590.22
667.49	586.42
667.83	582.53
668.17	578.60
668.51	574.66
668.85	570.99
669.19	567.23
669.53	563.25
669.87	559.11
670.21	555.32
670.55	551.37
670.89	547.75
671.23	544.38
671.57	541.01
671.91	537.51
672.25	533.86
672.58	530.40
672.92	527.00
673.26	523.72
673.60	520.54
673.94	517.10
674.28	513.79
674.62	510.54
674.96	507.47
675.30	504.31
675.64	501.17
675.97	497.89
676.31	494.81
676.65	491.92
676.99	489.25
677.33	486.21
677.67	483.33
678.01	480.28
678.34	477.19
678.68	474.15
679.02	471.18
679.36	468.45
679.70	465.56
680.04	462.47
680.37	459.44
680.71	456.58
681.05	453.88
681.39	451.20
681.73	448.49
682.06	445.92
682.40	443.34
682.74	440.72
683.08	438.25
683.42	435.56
683.75	432.87
684.09	430.21
684.43	427.77
684.77	425.21
685.10	422.60
685.44	420.10
685.78	417.74
686.12	415.40
686.45	412.97
686.79	410.67
687.13	408.63
687.46	406.51
687.80	404.32
688.14	401.95
688.48	399.82
688.81	397.65
689.15	395.27
689.49	392.97
689.82	390.66
690.16	388.33
690.50	386.12
690.83	383.75
691.17	381.54
691.51	379.35
691.84	377.21
692.18	375.31
692.52	373.39
692.85	371.45
693.19	369.60
693.52	367.67
693.86	365.74
694.20	363.78
694.53	361.98
694.87	360.07
695.21	358.17
695.54	356.29
695.88	354.36
696.21	352.53
696.55	350.77
696.88	349.04
697.22	347.31
697.56	345.73
697.89	344.33
698.23	342.72
698.56	341.09
698.90	339.65
699.23	337.88
699.57	336.26
699.90	334.57
700.24	332.85
700.58	331.15
700.91	329.60
701.25	328.21
701.58	326.70
701.92	325.19
702.25	323.80
702.59	322.34
702.92	320.97
703.26	319.68
703.59	318.43
703.93	317.31
704.26	315.99
704.60	314.73
704.93	313.39
705.26	312.07
705.60	310.87
705.93	309.58
706.27	308.54
706.60	307.42
706.94	306.36
707.27	305.15
707.61	304.09
707.94	302.93
708.27	301.64
708.61	300.53
708.94	299.43
709.28	298.29
709.61	297.23
709.94	296.23
710.28	295.15
710.61	294.09
710.95	292.89
711.28	292.03
711.61	290.90
711.95	289.95
712.28	288.98
712.61	287.96
712.95	287.08
713.28	286.10
713.61	285.20
713.95	284.23
714.28	283.41
714.61	282.50
714.95	281.59
715.28	280.75
715.61	279.76
715.95	278.86
716.28	278.00
716.61	277.09
716.95	276.17
717.28	275.36
717.61	274.44
717.94	273.59
718.28	272.77
718.61	272.03
718.94	271.26
719.27	270.54
719.61	269.79
719.94	269.03
720.27	268.26
720.60	267.52
720.94	266.86
721.27	266.14
721.60	265.56
721.93	264.97
722.27	264.40
722.60	263.75
722.93	263.20
723.26	262.61
723.59	261.99
723.93	261.41
724.26	260.80
724.59	260.30
724.92	259.83
725.25	259.24
725.59	258.71
725.92	258.18
726.25	257.62
726.58	257.12
726.91	256.53
727.24	256.06
727.57	255.52
727.91	254.95
728.24	254.44
728.57	253.95
728.90	253.44
729.23	252.90
729.56	252.60
729.89	252.08
730.22	251.67
730.55	251.29
730.89	250.90
731.22	250.50
731.55	250.03
731.88	249.50
732.21	249.07
732.54	248.70
732.87	248.23
733.20	247.80
733.53	247.42
733.86	247.04
734.19	246.54
734.52	246.12
734.85	245.89
735.18	245.49
735.51	245.16
735.84	244.78
736.17	244.44
736.50	243.96
736.83	243.84
737.16	243.44
737.49	243.07
737.82	242.61
738.15	242.16
738.48	241.77
738.81	241.45
739.14	241.03
739.47	240.65
739.80	240.29
740.13	240.05
740.46	239.69
740.79	239.31
741.12	239.03
741.45	238.68
741.78	238.28
742.11	238.07
742.44	237.65
742.77	237.38
743.10	237.02
743.43	236.63
743.75	236.15
744.08	236.05
744.41	235.70
744.74	235.45
745.07	235.18
745.40	234.95
745.73	234.70
746.06	234.48
746.39	234.14
746.71	233.84
747.04	233.39
747.37	233.13
747.70	232.84
748.03	232.55
748.36	232.38
748.68	232.07
749.01	231.74
749.34	231.52
749.67	231.28
750.00	231.09
750.33	231.01
750.65	230.75
750.98	230.30
751.31	230.10
751.64	229.78
751.97	229.67
752.29	229.43
752.62	229.18
752.95	228.94
753.28	228.72
753.60	228.47
753.93	228.41
754.26	228.16
754.59	227.94
754.91	227.74
755.24	227.45
755.57	227.31
755.90	227.09
756.22	226.80
756.55	226.55
756.88	226.22
757.20	225.93
757.53	225.69
757.86	225.44
758.19	225.23
758.51	225.12
758.84	224.84
759.17	224.66
759.49	224.46
759.82	224.33
760.15	224.22
760.47	224.09
760.80	223.82
761.13	223.71
761.45	223.55
761.78	223.36
762.11	223.22
762.43	222.91
762.76	222.70
763.08	222.64
763.41	222.54
763.74	222.41
764.06	222.22
764.39	222.10
764.71	222.09
765.04	221.90
765.37	221.75
765.69	221.55
766.02	221.46
766.34	221.34
766.67	221.15
767.00	221.05
767.32	221.01
767.65	221.05
767.97	220.91
768.30	220.81
768.62	220.66
768.95	220.59
769.27	220.56
769.60	220.53
769.92	220.36
770.25	220.24
770.57	220.19
770.90	220.14
771.22	220.04
771.55	219.90
771.87	219.88
772.20	219.81
772.52	219.94
772.85	220.06
773.17	220.01
773.50	219.91
773.82	219.75
774.15	219.55
774.47	219.34
774.80	219.23
775.12	219.13
775.45	219.07
775.77	218.97
776.09	218.94
776.42	218.91
776.74	218.93
777.07	218.83
777.39	218.74
777.72	218.60
778.04	218.58
778.36	218.47
778.69	218.42
779.01	218.35
779.33	218.13
779.66	217.79
779.98	217.66
780.31	217.62
780.63	217.65
780.95	217.65
781.28	217.58
781.60	217.57
781.92	217.54
782.25	217.49
782.57	217.46
782.89	217.37
783.22	217.25
783.54	217.13
783.86	217.14
784.19	217.06
784.51	217.07
784.83	216.89
785.16	216.82
785.48	216.72
785.80	216.67
786.12	216.61
786.45	216.58
