SpectraSuite Data File
++++++++++++++++++++++++++++++++++++
Date: Mon Feb 25 17:31:21 EST 2013
User: group
Dark Spectrum Present: No
Reference Spectrum Present: No
Number of Sampled Component Spectra: 1
Spectrometers: USB2E7196
Integration Time (usec): 52000 (USB2E7196)
Spectra Averaged: 20 (USB2E7196)
Boxcar Smoothing: 10 (USB2E7196)
Correct for Electrical Dark: No (USB2E7196)
Strobe/Lamp Enabled: No (USB2E7196)
Correct for Detector Non-linearity: No (USB2E7196)
Correct for Stray Light: No (USB2E7196)
Number of Pixels in Processed Spectrum: 2048
>>>>>Begin Processed Spectral Data<<<<<
339.09	0.00
339.48	199.45
339.86	199.60
340.24	203.40
340.63	202.20
341.01	207.75
341.39	205.90
341.78	207.75
342.16	210.40
342.54	209.15
342.93	198.45
343.31	208.45
343.69	208.99
344.07	209.46
344.46	209.84
344.84	210.30
345.22	210.50
345.60	210.74
345.99	210.89
346.37	210.89
346.75	210.94
347.13	211.00
347.52	211.03
347.90	211.10
348.28	211.06
348.66	211.12
349.05	211.04
349.43	211.15
349.81	211.17
350.19	211.20
350.57	211.23
350.96	211.29
351.34	211.41
351.72	211.41
352.10	211.51
352.48	211.49
352.87	211.53
353.25	211.51
353.63	211.55
354.01	211.59
354.39	211.66
354.77	211.76
355.15	211.89
355.54	211.92
355.92	211.93
356.30	212.02
356.68	212.10
357.06	212.13
357.44	212.07
357.82	212.11
358.20	212.20
358.58	212.27
358.97	212.35
359.35	212.35
359.73	212.49
360.11	212.55
360.49	212.64
360.87	212.65
361.25	212.76
361.63	212.85
362.01	212.96
362.39	213.01
362.77	213.14
363.15	213.14
363.53	213.18
363.91	213.24
364.29	213.26
364.67	213.18
365.05	213.18
365.43	213.27
365.81	213.33
366.19	213.47
366.57	213.58
366.95	213.56
367.33	213.59
367.71	213.60
368.09	213.69
368.47	213.70
368.85	213.72
369.23	213.79
369.61	213.75
369.99	213.74
370.37	213.72
370.75	213.70
371.13	213.71
371.51	213.74
371.89	213.78
372.27	213.82
372.65	213.78
373.03	213.79
373.41	213.77
373.78	213.77
374.16	213.65
374.54	213.57
374.92	213.53
375.30	213.45
375.68	213.35
376.06	213.28
376.44	213.30
376.82	213.26
377.19	213.18
377.57	213.15
377.95	213.08
378.33	213.06
378.71	212.95
379.09	212.91
379.47	212.89
379.84	212.80
380.22	212.71
380.60	212.72
380.98	212.60
381.36	212.58
381.73	212.46
382.11	212.38
382.49	212.37
382.87	212.33
383.25	212.30
383.62	212.50
384.00	212.41
384.38	212.29
384.76	212.35
385.13	212.39
385.51	212.37
385.89	212.29
386.27	212.27
386.64	212.25
387.02	212.19
387.40	212.00
387.78	211.94
388.15	211.89
388.53	211.82
388.91	211.86
389.29	211.79
389.66	211.80
390.04	211.79
390.42	211.78
390.79	211.79
391.17	211.82
391.55	211.60
391.92	211.67
392.30	211.69
392.68	211.61
393.05	211.49
393.43	211.44
393.81	211.45
394.18	211.37
394.56	211.33
394.94	211.40
395.31	211.45
395.69	211.54
396.06	211.61
396.44	211.65
396.82	211.64
397.19	211.77
397.57	211.77
397.95	211.83
398.32	211.74
398.70	211.77
399.07	211.84
399.45	211.85
399.82	211.80
400.20	211.82
400.58	211.91
400.95	211.90
401.33	212.05
401.70	212.24
402.08	212.36
402.45	212.44
402.83	212.49
403.20	212.61
403.58	212.66
403.95	212.70
404.33	212.84
404.71	212.97
405.08	213.06
405.46	213.15
405.83	213.24
406.21	213.38
406.58	213.47
406.96	213.53
407.33	213.68
407.70	213.87
408.08	214.19
408.45	214.40
408.83	214.72
409.20	214.90
409.58	214.98
409.95	215.31
410.33	215.65
410.70	215.95
411.08	216.24
411.45	216.60
411.82	217.02
412.20	217.48
412.57	218.00
412.95	218.40
413.32	218.90
413.69	219.52
414.07	220.10
414.44	220.71
414.82	221.41
415.19	222.18
415.56	222.93
415.94	223.66
416.31	224.48
416.68	225.32
417.06	226.25
417.43	227.32
417.81	228.35
418.18	229.44
418.55	230.58
418.93	231.90
419.30	233.18
419.67	234.51
420.04	235.84
420.42	237.28
420.79	238.96
421.16	240.66
421.54	242.43
421.91	244.20
422.28	246.05
422.66	247.97
423.03	249.95
423.40	251.97
423.77	254.08
424.15	256.25
424.52	258.50
424.89	260.97
425.26	263.42
425.64	265.70
426.01	268.20
426.38	270.83
426.75	273.43
427.13	276.21
427.50	279.13
427.87	282.20
428.24	285.18
428.61	288.03
428.99	291.27
429.36	294.69
429.73	298.16
430.10	301.62
430.47	305.20
430.85	308.81
431.22	312.59
431.59	316.67
431.96	320.53
432.33	324.83
432.70	329.01
433.08	333.86
433.45	338.49
433.82	343.04
434.19	348.10
434.56	352.98
434.93	357.60
435.30	362.28
435.68	367.39
436.05	372.50
436.42	377.60
436.79	382.26
437.16	387.22
437.53	392.53
437.90	397.62
438.27	402.66
438.64	407.93
439.01	412.86
439.38	417.12
439.75	421.32
440.13	426.07
440.50	430.50
440.87	434.09
441.24	437.84
441.61	442.14
441.98	445.12
442.35	448.79
442.72	452.54
443.09	456.06
443.46	458.16
443.83	459.57
444.20	460.64
444.57	462.24
444.94	462.81
445.31	463.53
445.68	464.41
446.05	464.70
446.42	463.92
446.79	463.10
447.16	462.35
447.53	461.73
447.90	459.70
448.27	457.74
448.64	454.91
449.01	452.77
449.37	449.04
449.74	445.63
450.11	441.52
450.48	436.99
450.85	432.36
451.22	428.45
451.59	424.77
451.96	421.35
452.33	416.71
452.70	412.64
453.07	407.54
453.43	402.34
453.80	397.39
454.17	392.88
454.54	388.54
454.91	383.77
455.28	379.13
455.65	374.78
456.02	370.50
456.38	366.82
456.75	362.31
457.12	358.57
457.49	354.83
457.86	351.16
458.23	348.06
458.59	344.73
458.96	341.30
459.33	338.12
459.70	335.03
460.07	332.66
460.43	329.85
460.80	327.23
461.17	324.84
461.54	322.44
461.91	320.09
462.27	317.74
462.64	315.74
463.01	313.53
463.38	311.47
463.74	309.22
464.11	307.36
464.48	305.77
464.85	303.94
465.21	302.54
465.58	301.14
465.95	299.40
466.32	297.95
466.68	296.57
467.05	295.25
467.42	293.84
467.78	292.35
468.15	291.00
468.52	289.99
468.88	288.70
469.25	287.58
469.62	286.73
469.98	285.76
470.35	284.93
470.72	284.18
471.08	283.24
471.45	282.49
471.82	281.74
472.18	280.93
472.55	280.45
472.92	279.78
473.28	279.23
473.65	278.70
474.02	278.20
474.38	277.82
474.75	277.51
475.11	277.16
475.48	276.95
475.85	276.70
476.21	276.52
476.58	276.45
476.94	276.35
477.31	276.30
477.67	276.28
478.04	276.33
478.41	276.45
478.77	276.77
479.14	276.97
479.50	277.26
479.87	277.61
480.23	278.06
480.60	278.43
480.96	278.86
481.33	279.58
481.69	280.21
482.06	280.75
482.42	281.42
482.79	282.16
483.15	282.97
483.52	284.03
483.88	285.00
484.25	286.09
484.61	287.13
484.98	288.19
485.34	289.45
485.71	290.79
486.07	292.06
486.44	293.40
486.80	294.95
487.17	296.51
487.53	298.21
487.90	299.96
488.26	301.98
488.62	303.94
488.99	305.91
489.35	307.95
489.72	310.29
490.08	312.62
490.44	315.12
490.81	317.78
491.17	320.50
491.54	323.38
491.90	326.30
492.26	329.53
492.63	332.86
492.99	336.29
493.36	339.90
493.72	343.85
494.08	347.89
494.45	352.11
494.81	356.59
495.17	361.15
495.54	365.92
495.90	370.85
496.26	376.15
496.63	381.59
496.99	387.36
497.35	393.41
497.72	399.64
498.08	406.05
498.44	412.78
498.80	419.75
499.17	427.16
499.53	434.75
499.89	442.75
500.26	450.88
500.62	459.23
500.98	468.05
501.34	477.20
501.71	486.41
502.07	496.17
502.43	506.10
502.79	516.44
503.16	527.11
503.52	538.11
503.88	549.32
504.24	560.80
504.60	572.61
504.97	584.83
505.33	597.32
505.69	610.54
506.05	623.98
506.41	637.55
506.78	651.30
507.14	665.57
507.50	679.93
507.86	694.66
508.22	709.96
508.59	725.38
508.95	741.20
509.31	757.47
509.67	774.09
510.03	790.80
510.39	808.05
510.75	825.60
511.12	843.33
511.48	861.44
511.84	879.99
512.20	898.40
512.56	917.40
512.92	936.96
513.28	956.20
513.64	975.76
514.00	995.60
514.37	1015.74
514.73	1036.25
515.09	1056.92
515.45	1077.70
515.81	1098.56
516.17	1119.51
516.53	1140.57
516.89	1161.92
517.25	1183.22
517.61	1204.90
517.97	1225.97
518.33	1247.35
518.69	1269.18
519.05	1290.97
519.41	1312.75
519.77	1335.50
520.13	1357.44
520.49	1379.38
520.85	1401.95
521.21	1424.27
521.57	1446.95
521.93	1468.83
522.29	1491.26
522.65	1513.60
523.01	1535.85
523.37	1557.85
523.73	1579.93
524.09	1601.86
524.45	1623.91
524.81	1645.79
525.17	1667.87
525.53	1690.27
525.89	1712.35
526.25	1734.18
526.61	1755.35
526.97	1777.07
527.33	1797.89
527.68	1819.17
528.04	1839.90
528.40	1859.92
528.76	1880.31
529.12	1900.67
529.48	1922.14
529.84	1942.42
530.20	1962.53
530.56	1982.77
530.91	2003.38
531.27	2023.57
531.63	2043.27
531.99	2062.73
532.35	2081.76
532.71	2100.42
533.07	2119.60
533.42	2137.93
533.78	2156.37
534.14	2174.69
534.50	2191.38
534.86	2209.03
535.21	2225.17
535.57	2242.36
535.93	2259.66
536.29	2276.21
536.65	2292.38
537.00	2307.45
537.36	2322.67
537.72	2337.43
538.08	2352.19
538.44	2367.00
538.79	2382.10
539.15	2396.70
539.51	2411.60
539.87	2426.68
540.22	2440.75
540.58	2455.15
540.94	2469.14
541.29	2481.64
541.65	2493.71
542.01	2506.57
542.37	2518.17
542.72	2530.35
543.08	2541.23
543.44	2552.44
543.79	2562.49
544.15	2572.65
544.51	2583.34
544.87	2593.98
545.22	2602.87
545.58	2611.21
545.94	2618.12
546.29	2624.27
546.65	2630.26
547.01	2635.47
547.36	2640.83
547.72	2646.17
548.07	2650.18
548.43	2653.83
548.79	2657.56
549.14	2662.01
549.50	2666.11
549.86	2670.14
550.21	2673.81
550.57	2677.99
550.92	2680.49
551.28	2682.68
551.64	2684.77
551.99	2686.85
552.35	2687.84
552.70	2690.64
553.06	2693.01
553.41	2695.92
553.77	2698.40
554.13	2700.61
554.48	2702.66
554.84	2703.67
555.19	2704.03
555.55	2704.11
555.90	2704.59
556.26	2705.22
556.61	2704.88
556.97	2703.86
557.32	2703.11
557.68	2701.31
558.03	2699.12
558.39	2697.27
558.74	2696.79
559.10	2695.65
559.45	2693.58
559.81	2692.48
560.16	2689.58
560.52	2687.06
560.87	2683.84
561.23	2680.09
561.58	2677.78
561.94	2674.65
562.29	2670.83
562.64	2668.61
563.00	2666.15
563.35	2663.87
563.71	2661.65
564.06	2659.25
564.42	2657.18
564.77	2654.12
565.12	2652.39
565.48	2649.36
565.83	2646.43
566.19	2643.18
566.54	2638.68
566.89	2634.95
567.25	2630.94
567.60	2627.63
567.96	2624.06
568.31	2620.59
568.66	2616.81
569.02	2612.00
569.37	2606.59
569.72	2602.93
570.08	2597.58
570.43	2591.91
570.78	2586.12
571.14	2579.84
571.49	2573.14
571.84	2567.08
572.20	2560.80
572.55	2554.47
572.90	2547.50
573.26	2540.59
573.61	2533.51
573.96	2527.07
574.31	2519.17
574.67	2511.23
575.02	2502.80
575.37	2494.01
575.72	2484.94
576.08	2477.61
576.43	2469.23
576.78	2461.78
577.13	2453.48
577.49	2445.52
577.84	2438.03
578.19	2430.56
578.54	2423.17
578.90	2416.34
579.25	2407.65
579.60	2398.54
579.95	2389.34
580.30	2381.86
580.66	2373.93
581.01	2364.98
581.36	2355.71
581.71	2347.47
582.06	2339.53
582.42	2331.61
582.77	2323.18
583.12	2314.82
583.47	2306.31
583.82	2297.96
584.17	2288.79
584.53	2280.18
584.88	2271.54
585.23	2262.41
585.58	2252.88
585.93	2243.44
586.28	2234.28
586.63	2225.89
586.98	2217.81
587.34	2209.61
587.69	2200.29
588.04	2191.04
588.39	2182.89
588.74	2174.29
589.09	2165.64
589.44	2155.75
589.79	2147.07
590.14	2138.86
590.49	2130.36
590.84	2121.55
591.19	2113.62
591.54	2105.03
591.89	2094.91
592.25	2085.78
592.60	2076.51
592.95	2067.38
593.30	2058.00
593.65	2048.59
594.00	2039.02
594.35	2031.15
594.70	2021.84
595.05	2013.59
595.40	2005.02
595.75	1995.59
596.10	1987.82
596.45	1979.55
596.80	1971.87
597.15	1963.99
597.50	1955.29
597.85	1947.17
598.19	1938.32
598.54	1929.82
598.89	1922.40
599.24	1915.96
599.59	1908.55
599.94	1901.64
600.29	1894.15
600.64	1886.55
600.99	1878.45
601.34	1871.27
601.69	1862.52
602.04	1854.63
602.39	1846.54
602.74	1838.98
603.08	1832.42
603.43	1825.00
603.78	1817.31
604.13	1809.43
604.48	1801.42
604.83	1794.83
605.18	1787.92
605.53	1780.65
605.87	1773.05
606.22	1765.89
606.57	1758.11
606.92	1750.13
607.27	1742.39
607.62	1735.21
607.96	1728.50
608.31	1722.32
608.66	1714.93
609.01	1707.41
609.36	1699.94
609.70	1692.29
610.05	1684.51
610.40	1676.62
610.75	1668.25
611.10	1660.61
611.44	1651.75
611.79	1642.89
612.14	1633.48
612.49	1624.07
612.83	1615.48
613.18	1606.03
613.53	1596.50
613.88	1586.78
614.22	1578.04
614.57	1568.84
614.92	1559.55
615.27	1550.01
615.61	1540.42
615.96	1531.34
616.31	1522.84
616.65	1514.88
617.00	1506.55
617.35	1498.37
617.70	1489.51
618.04	1480.80
618.39	1471.64
618.74	1463.40
619.08	1455.07
619.43	1447.15
619.78	1439.25
620.12	1431.38
620.47	1423.80
620.82	1415.57
621.16	1407.65
621.51	1399.57
621.85	1391.36
622.20	1382.83
622.55	1374.65
622.89	1366.37
623.24	1358.49
623.59	1350.07
623.93	1341.46
624.28	1333.46
624.62	1325.19
624.97	1317.12
625.32	1309.30
625.66	1301.96
626.01	1294.88
626.35	1287.94
626.70	1280.10
627.04	1272.77
627.39	1265.05
627.73	1257.58
628.08	1250.63
628.43	1243.35
628.77	1236.05
629.12	1228.85
629.46	1222.31
629.81	1215.14
630.15	1207.99
630.50	1200.65
630.84	1193.73
631.19	1186.68
631.53	1179.70
631.88	1172.09
632.22	1164.64
632.57	1157.89
632.91	1150.47
633.26	1142.97
633.60	1135.64
633.95	1129.03
634.29	1121.81
634.64	1115.25
634.98	1108.37
635.32	1101.44
635.67	1095.03
636.01	1088.43
636.36	1081.61
636.70	1075.15
637.05	1068.98
637.39	1062.70
637.73	1056.57
638.08	1050.65
638.42	1045.09
638.77	1038.81
639.11	1032.93
639.45	1027.16
639.80	1020.74
640.14	1014.64
640.49	1008.52
640.83	1002.40
641.17	996.03
641.52	990.27
641.86	983.78
642.20	977.72
642.55	971.29
642.89	965.04
643.23	958.78
643.58	953.11
643.92	946.64
644.26	940.25
644.61	934.37
644.95	928.31
645.29	921.99
645.64	915.34
645.98	909.10
646.32	903.15
646.66	897.07
647.01	891.01
647.35	885.14
647.69	879.05
648.04	873.00
648.38	867.22
648.72	860.95
649.06	855.08
649.41	849.04
649.75	843.47
650.09	837.57
650.43	831.72
650.78	825.56
651.12	819.52
651.46	813.80
651.80	807.91
652.14	801.98
652.49	796.12
652.83	790.41
653.17	784.52
653.51	779.00
653.85	773.40
654.20	767.85
654.54	762.08
654.88	756.77
655.22	751.19
655.56	745.32
655.90	739.68
656.25	734.04
656.59	728.66
656.93	723.28
657.27	718.19
657.61	712.89
657.95	707.79
658.29	703.04
658.64	698.04
658.98	692.90
659.32	687.68
659.66	682.73
660.00	677.55
660.34	672.50
660.68	667.22
661.02	662.04
661.36	657.37
661.70	652.60
662.05	647.86
662.39	643.44
662.73	639.30
663.07	635.16
663.41	630.88
663.75	626.38
664.09	621.68
664.43	617.06
664.77	612.85
665.11	608.44
665.45	603.93
665.79	599.63
666.13	595.27
666.47	591.13
666.81	586.92
667.15	582.94
667.49	579.08
667.83	575.15
668.17	571.39
668.51	567.56
668.85	563.88
669.19	560.18
669.53	556.32
669.87	552.14
670.21	548.29
670.55	544.40
670.89	541.05
671.23	537.82
671.57	534.40
671.91	530.83
672.25	527.24
672.58	523.87
672.92	520.48
673.26	517.29
673.60	513.95
673.94	510.51
674.28	507.27
674.62	504.13
674.96	501.13
675.30	498.05
675.64	494.86
675.97	491.82
676.31	488.79
676.65	485.80
676.99	483.26
677.33	480.35
677.67	477.56
678.01	474.42
678.34	471.48
678.68	468.65
679.02	465.63
679.36	462.99
679.70	460.29
680.04	457.41
680.37	454.56
680.71	451.99
681.05	449.51
681.39	446.93
681.73	444.37
682.06	441.89
682.40	439.38
682.74	436.83
683.08	434.27
683.42	431.70
683.75	429.31
684.09	426.71
684.43	424.32
684.77	421.78
685.10	419.30
685.44	416.70
685.78	414.32
686.12	412.20
686.45	410.01
686.79	407.67
687.13	405.61
687.46	403.47
687.80	401.31
688.14	399.14
688.48	396.95
688.81	394.64
689.15	392.42
689.49	390.22
689.82	388.02
690.16	385.73
690.50	383.47
690.83	381.17
691.17	378.93
691.51	376.75
691.84	374.68
692.18	372.77
692.52	370.89
692.85	368.96
693.19	367.01
693.52	364.91
693.86	362.97
694.20	361.09
694.53	359.18
694.87	357.25
695.21	355.26
695.54	353.40
695.88	351.58
696.21	349.78
696.55	348.12
696.88	346.43
697.22	344.82
697.56	343.35
697.89	341.76
698.23	340.26
698.56	338.54
698.90	337.01
699.23	335.29
699.57	333.79
699.90	332.12
700.24	330.45
700.58	328.91
700.91	327.47
701.25	326.04
701.58	324.61
701.92	323.18
702.25	321.85
702.59	320.48
702.92	319.14
703.26	317.71
703.59	316.28
703.93	315.11
704.26	313.84
704.60	312.48
704.93	311.26
705.26	309.98
705.60	308.94
705.93	307.73
706.27	306.65
706.60	305.56
706.94	304.50
707.27	303.44
707.61	302.39
707.94	301.21
708.27	299.99
708.61	298.90
708.94	297.83
709.28	296.71
709.61	295.59
709.94	294.57
710.28	293.57
710.61	292.59
710.95	291.37
711.28	290.42
711.61	289.43
711.95	288.50
712.28	287.46
712.61	286.38
712.95	285.52
713.28	284.62
713.61	283.65
713.95	282.77
714.28	281.85
714.61	280.92
714.95	280.03
715.28	279.03
715.61	278.15
715.95	277.22
716.28	276.37
716.61	275.62
716.95	274.72
717.28	273.90
717.61	273.09
717.94	272.38
718.28	271.52
718.61	270.79
718.94	270.06
719.27	269.35
719.61	268.70
719.94	267.95
720.27	267.22
720.60	266.51
720.94	265.82
721.27	265.21
721.60	264.64
721.93	264.00
722.27	263.56
722.60	263.01
722.93	262.43
723.26	261.88
723.59	261.24
723.93	260.72
724.26	260.22
724.59	259.67
724.92	259.12
725.25	258.62
725.59	257.98
725.92	257.45
726.25	256.95
726.58	256.44
726.91	255.87
727.24	255.25
727.57	254.74
727.91	254.21
728.24	253.72
728.57	253.21
728.90	252.81
729.23	252.24
729.56	251.85
729.89	251.44
730.22	250.93
730.55	250.46
730.89	250.02
731.22	249.46
731.55	249.01
731.88	248.55
732.21	248.05
732.54	247.65
732.87	247.15
733.20	246.72
733.53	246.32
733.86	245.85
734.19	245.49
734.52	245.13
734.85	244.92
735.18	244.41
735.51	244.05
735.84	243.62
736.17	243.28
736.50	242.73
736.83	242.53
737.16	242.20
737.49	241.83
737.82	241.42
738.15	241.16
738.48	240.84
738.81	240.46
739.14	240.11
739.47	239.78
739.80	239.45
740.13	239.15
740.46	238.79
740.79	238.54
741.12	238.33
741.45	237.93
741.78	237.48
742.11	237.29
742.44	236.88
742.77	236.64
743.10	236.35
743.43	236.07
743.75	235.58
744.08	235.48
744.41	235.21
744.74	234.98
745.07	234.67
745.40	234.39
745.73	234.25
746.06	233.96
746.39	233.70
746.71	233.40
747.04	233.09
747.37	232.80
747.70	232.48
748.03	232.21
748.36	231.97
748.68	231.68
749.01	231.36
749.34	231.17
749.67	230.94
750.00	230.68
750.33	230.61
750.65	230.42
750.98	229.94
751.31	229.75
751.64	229.50
751.97	229.38
752.29	229.11
752.62	228.76
752.95	228.58
753.28	228.37
753.60	228.11
753.93	227.98
754.26	227.75
754.59	227.59
754.91	227.37
755.24	227.20
755.57	227.02
755.90	226.88
756.22	226.69
756.55	226.48
756.88	226.34
757.20	226.03
757.53	225.85
757.86	225.71
758.19	225.53
758.51	225.32
758.84	225.08
759.17	224.91
759.49	224.75
759.82	224.58
760.15	224.45
760.47	224.31
760.80	224.06
761.13	224.01
761.45	223.76
761.78	223.55
762.11	223.40
762.43	223.21
762.76	222.99
763.08	222.87
763.41	222.73
763.74	222.62
764.06	222.43
764.39	222.19
764.71	222.07
765.04	221.95
765.37	221.84
765.69	221.62
766.02	221.55
766.34	221.38
766.67	221.30
767.00	221.17
767.32	221.12
767.65	221.14
767.97	220.97
768.30	220.89
768.62	220.75
768.95	220.64
769.27	220.55
769.60	220.58
769.92	220.42
770.25	220.28
770.57	220.10
770.90	220.06
771.22	219.96
771.55	219.80
771.87	219.71
772.20	219.57
772.52	219.65
772.85	219.67
773.17	219.65
773.50	219.53
773.82	219.43
774.15	219.24
774.47	219.01
774.80	218.92
775.12	218.84
775.45	218.76
775.77	218.68
776.09	218.61
776.42	218.40
776.74	218.33
777.07	218.23
777.39	218.14
777.72	218.02
778.04	217.92
778.36	217.89
778.69	217.78
779.01	217.73
779.33	217.50
779.66	217.24
779.98	217.13
780.31	217.01
780.63	217.00
780.95	217.00
781.28	216.99
781.60	216.85
781.92	216.82
782.25	216.74
782.57	216.73
782.89	216.61
783.22	216.61
783.54	216.55
783.86	216.45
784.19	216.35
784.51	216.43
784.83	216.36
785.16	216.28
785.48	216.24
785.80	216.18
786.12	216.18
786.45	216.16
