SpectraSuite Data File
++++++++++++++++++++++++++++++++++++
Date: Mon Feb 25 17:34:36 EST 2013
User: group
Dark Spectrum Present: No
Reference Spectrum Present: No
Number of Sampled Component Spectra: 1
Spectrometers: USB2E7196
Integration Time (usec): 52000 (USB2E7196)
Spectra Averaged: 20 (USB2E7196)
Boxcar Smoothing: 10 (USB2E7196)
Correct for Electrical Dark: No (USB2E7196)
Strobe/Lamp Enabled: No (USB2E7196)
Correct for Detector Non-linearity: No (USB2E7196)
Correct for Stray Light: No (USB2E7196)
Number of Pixels in Processed Spectrum: 2048
>>>>>Begin Processed Spectral Data<<<<<
339.09	0.00
339.48	198.10
339.86	201.55
340.24	202.05
340.63	203.15
341.01	207.90
341.39	206.60
341.78	207.25
342.16	209.50
342.54	209.20
342.93	198.31
343.31	208.35
343.69	208.90
344.07	209.26
344.46	209.73
344.84	210.14
345.22	210.32
345.60	210.55
345.99	210.74
346.37	210.82
346.75	210.93
347.13	211.03
347.52	210.98
347.90	211.11
348.28	211.16
348.66	211.20
349.05	211.27
349.43	211.32
349.81	211.42
350.19	211.45
350.57	211.55
350.96	211.58
351.34	211.69
351.72	211.79
352.10	211.95
352.48	211.90
352.87	211.92
353.25	211.94
353.63	211.95
354.01	211.97
354.39	212.02
354.77	212.02
355.15	212.13
355.54	212.25
355.92	212.27
356.30	212.30
356.68	212.53
357.06	212.55
357.44	212.58
357.82	212.55
358.20	212.68
358.58	212.74
358.97	212.77
359.35	212.80
359.73	212.94
360.11	212.95
360.49	213.08
360.87	213.12
361.25	213.17
361.63	213.35
362.01	213.47
362.39	213.47
362.77	213.58
363.15	213.62
363.53	213.51
363.91	213.43
364.29	213.48
364.67	213.29
365.05	213.34
365.43	213.35
365.81	213.42
366.19	213.49
366.57	213.53
366.95	213.55
367.33	213.60
367.71	213.49
368.09	213.56
368.47	213.52
368.85	213.57
369.23	213.61
369.61	213.47
369.99	213.41
370.37	213.44
370.75	213.52
371.13	213.44
371.51	213.51
371.89	213.59
372.27	213.59
372.65	213.65
373.03	213.61
373.41	213.61
373.78	213.55
374.16	213.42
374.54	213.36
374.92	213.30
375.30	213.19
375.68	213.21
376.06	213.15
376.44	213.14
376.82	213.07
377.19	213.02
377.57	212.92
377.95	212.86
378.33	212.76
378.71	212.59
379.09	212.58
379.47	212.52
379.84	212.41
380.22	212.31
380.60	212.19
380.98	212.17
381.36	212.16
381.73	212.06
382.11	212.02
382.49	211.99
382.87	211.97
383.25	212.00
383.62	212.10
384.00	211.99
384.38	211.96
384.76	211.95
385.13	212.03
385.51	212.10
385.89	212.12
386.27	212.17
386.64	212.20
387.02	212.15
387.40	212.17
387.78	212.17
388.15	212.19
388.53	212.16
388.91	212.11
389.29	212.05
389.66	212.05
390.04	212.09
390.42	212.08
390.79	212.00
391.17	211.91
391.55	211.66
391.92	211.70
392.30	211.69
392.68	211.62
393.05	211.51
393.43	211.44
393.81	211.39
394.18	211.34
394.56	211.33
394.94	211.35
395.31	211.35
395.69	211.42
396.06	211.47
396.44	211.46
396.82	211.47
397.19	211.55
397.57	211.53
397.95	211.50
398.32	211.50
398.70	211.59
399.07	211.63
399.45	211.66
399.82	211.67
400.20	211.72
400.58	211.75
400.95	211.80
401.33	211.94
401.70	212.12
402.08	212.25
402.45	212.34
402.83	212.50
403.20	212.54
403.58	212.59
403.95	212.64
404.33	212.83
404.71	212.98
405.08	213.18
405.46	213.34
405.83	213.44
406.21	213.53
406.58	213.70
406.96	213.83
407.33	214.15
407.70	214.40
408.08	214.71
408.45	214.98
408.83	215.23
409.20	215.40
409.58	215.62
409.95	215.82
410.33	216.10
410.70	216.38
411.08	216.76
411.45	217.14
411.82	217.61
412.20	218.05
412.57	218.57
412.95	218.92
413.32	219.49
413.69	220.09
414.07	220.77
414.44	221.40
414.82	222.16
415.19	222.85
415.56	223.66
415.94	224.41
416.31	225.29
416.68	226.20
417.06	227.23
417.43	228.18
417.81	229.35
418.18	230.40
418.55	231.67
418.93	232.96
419.30	234.31
419.67	235.63
420.04	237.08
420.42	238.49
420.79	240.37
421.16	242.10
421.54	243.92
421.91	245.74
422.28	247.67
422.66	249.71
423.03	251.72
423.40	253.78
423.77	255.97
424.15	258.16
424.52	260.50
424.89	263.14
425.26	265.58
425.64	267.87
426.01	270.52
426.38	273.10
426.75	275.83
427.13	278.61
427.50	281.60
427.87	284.67
428.24	287.81
428.61	290.59
428.99	293.90
429.36	297.39
429.73	300.80
430.10	304.26
430.47	307.78
430.85	311.49
431.22	315.34
431.59	319.57
431.96	323.57
432.33	327.97
432.70	332.03
433.08	337.06
433.45	341.83
433.82	346.52
434.19	351.75
434.56	356.76
434.93	361.70
435.30	366.51
435.68	371.85
436.05	377.04
436.42	382.35
436.79	387.01
437.16	392.11
437.53	397.50
437.90	402.84
438.27	407.97
438.64	413.32
439.01	418.23
439.38	422.61
439.75	427.02
440.13	431.81
440.50	436.48
440.87	440.14
441.24	443.95
441.61	448.19
441.98	451.30
442.35	454.94
442.72	458.43
443.09	461.88
443.46	463.84
443.83	465.27
444.20	466.40
444.57	468.18
444.94	468.87
445.31	469.66
445.68	470.39
446.05	470.68
446.42	469.97
446.79	469.27
447.16	468.45
447.53	467.65
447.90	465.51
448.27	463.36
448.64	460.44
449.01	458.35
449.37	454.62
449.74	451.05
450.11	446.94
450.48	442.43
450.85	437.84
451.22	433.94
451.59	430.11
451.96	426.40
452.33	421.59
452.70	417.30
453.07	412.09
453.43	406.80
453.80	401.69
454.17	396.89
454.54	392.34
454.91	387.43
455.28	382.67
455.65	378.33
456.02	373.98
456.38	370.15
456.75	365.42
457.12	361.57
457.49	357.62
457.86	353.78
458.23	350.56
458.59	347.00
458.96	343.45
459.33	340.26
459.70	337.16
460.07	334.60
460.43	331.63
460.80	328.99
461.17	326.66
461.54	324.28
461.91	321.97
462.27	319.50
462.64	317.47
463.01	315.28
463.38	313.08
463.74	310.86
464.11	309.02
464.48	307.31
464.85	305.45
465.21	304.21
465.58	302.79
465.95	301.05
466.32	299.70
466.68	298.24
467.05	296.89
467.42	295.52
467.78	294.12
468.15	292.79
468.52	291.82
468.88	290.40
469.25	289.19
469.62	288.30
469.98	287.41
470.35	286.53
470.72	285.63
471.08	284.64
471.45	283.92
471.82	283.18
472.18	282.47
472.55	281.98
472.92	281.15
473.28	280.58
473.65	279.96
474.02	279.43
474.38	278.98
474.75	278.58
475.11	278.19
475.48	277.89
475.85	277.72
476.21	277.45
476.58	277.35
476.94	277.29
477.31	277.23
477.67	277.15
478.04	277.13
478.41	277.28
478.77	277.59
479.14	277.62
479.50	277.84
479.87	278.14
480.23	278.57
480.60	278.97
480.96	279.40
481.33	280.11
481.69	280.69
482.06	281.33
482.42	281.98
482.79	282.74
483.15	283.60
483.52	284.57
483.88	285.50
484.25	286.55
484.61	287.66
484.98	288.78
485.34	290.00
485.71	291.25
486.07	292.60
486.44	293.92
486.80	295.48
487.17	297.13
487.53	298.78
487.90	300.56
488.26	302.59
488.62	304.59
488.99	306.56
489.35	308.68
489.72	310.98
490.08	313.40
490.44	315.88
490.81	318.43
491.17	321.07
491.54	324.00
491.90	326.92
492.26	330.11
492.63	333.40
492.99	336.86
493.36	340.57
493.72	344.51
494.08	348.52
494.45	352.76
494.81	357.23
495.17	361.89
495.54	366.82
495.90	371.82
496.26	377.00
496.63	382.58
496.99	388.32
497.35	394.44
497.72	400.73
498.08	407.17
498.44	413.90
498.80	421.09
499.17	428.49
499.53	436.20
499.89	444.10
500.26	452.13
500.62	460.48
500.98	469.35
501.34	478.38
501.71	487.90
502.07	497.70
502.43	507.71
502.79	517.91
503.16	528.54
503.52	539.38
503.88	550.66
504.24	562.29
504.60	574.15
504.97	586.36
505.33	598.87
505.69	612.25
506.05	625.91
506.41	639.47
506.78	653.38
507.14	667.61
507.50	682.24
507.86	697.53
508.22	713.18
508.59	728.74
508.95	744.82
509.31	761.13
509.67	777.71
510.03	794.68
510.39	812.53
510.75	830.32
511.12	848.54
511.48	866.89
511.84	885.36
512.20	904.07
512.56	923.51
512.92	942.93
513.28	962.33
513.64	982.39
514.00	1002.48
514.37	1022.82
514.73	1043.76
515.09	1064.66
515.45	1085.50
515.81	1106.67
516.17	1127.90
516.53	1149.36
516.89	1171.04
517.25	1192.67
517.61	1214.48
517.97	1235.79
518.33	1257.40
518.69	1279.44
519.05	1301.83
519.41	1324.30
519.77	1347.27
520.13	1369.25
520.49	1391.53
520.85	1414.57
521.21	1436.85
521.57	1459.96
521.93	1482.16
522.29	1505.30
522.65	1527.77
523.01	1550.26
523.37	1572.45
523.73	1594.89
524.09	1617.25
524.45	1639.88
524.81	1662.76
525.17	1685.25
525.53	1707.81
525.89	1730.44
526.25	1752.55
526.61	1773.78
526.97	1795.59
527.33	1816.92
527.68	1838.59
528.04	1860.03
528.40	1880.43
528.76	1901.20
529.12	1921.95
529.48	1944.05
529.84	1964.62
530.20	1985.51
530.56	2006.34
530.91	2027.27
531.27	2047.91
531.63	2068.10
531.99	2087.66
532.35	2106.84
532.71	2126.02
533.07	2145.88
533.42	2164.16
533.78	2183.21
534.14	2201.93
534.50	2219.45
534.86	2237.82
535.21	2254.91
535.57	2272.82
535.93	2290.53
536.29	2307.93
536.65	2324.68
537.00	2340.02
537.36	2355.12
537.72	2370.32
538.08	2385.89
538.44	2401.31
538.79	2417.19
539.15	2432.01
539.51	2447.08
539.87	2462.43
540.22	2476.90
540.58	2491.77
540.94	2506.98
541.29	2519.95
541.65	2532.45
542.01	2545.51
542.37	2557.28
542.72	2569.68
543.08	2580.81
543.44	2592.75
543.79	2602.86
544.15	2613.13
544.51	2624.44
544.87	2635.48
545.22	2644.93
545.58	2653.18
545.94	2660.43
546.29	2666.67
546.65	2673.45
547.01	2679.45
547.36	2685.22
547.72	2691.10
548.07	2695.26
548.43	2698.85
548.79	2703.07
549.14	2708.10
549.50	2712.87
549.86	2717.14
550.21	2721.60
550.57	2725.79
550.92	2728.65
551.28	2731.36
551.64	2734.12
551.99	2736.47
552.35	2738.23
552.70	2741.30
553.06	2744.50
553.41	2747.87
553.77	2750.94
554.13	2753.04
554.48	2755.31
554.84	2756.86
555.19	2757.61
555.55	2758.22
555.90	2759.13
556.26	2759.55
556.61	2759.19
556.97	2757.93
557.32	2757.40
557.68	2755.82
558.03	2754.61
558.39	2752.98
558.74	2752.77
559.10	2751.76
559.45	2749.87
559.81	2748.82
560.16	2745.90
560.52	2743.40
560.87	2740.33
561.23	2736.61
561.58	2734.64
561.94	2731.74
562.29	2728.54
562.64	2726.44
563.00	2724.16
563.35	2722.02
563.71	2720.28
564.06	2718.35
564.42	2716.70
564.77	2714.69
565.12	2712.72
565.48	2709.60
565.83	2706.56
566.19	2703.37
566.54	2699.14
566.89	2695.33
567.25	2691.43
567.60	2688.36
567.96	2684.75
568.31	2681.15
568.66	2677.37
569.02	2672.31
569.37	2667.17
569.72	2662.96
570.08	2657.62
570.43	2651.93
570.78	2645.88
571.14	2639.65
571.49	2633.06
571.84	2627.24
572.20	2620.07
572.55	2613.46
572.90	2606.53
573.26	2599.56
573.61	2592.45
573.96	2585.89
574.31	2577.97
574.67	2569.80
575.02	2561.33
575.37	2552.60
575.72	2543.77
576.08	2536.29
576.43	2527.69
576.78	2519.60
577.13	2511.40
577.49	2503.18
577.84	2495.45
578.19	2487.94
578.54	2480.90
578.90	2473.87
579.25	2464.99
579.60	2456.00
579.95	2446.57
580.30	2438.47
580.66	2430.21
581.01	2421.07
581.36	2411.59
581.71	2403.12
582.06	2394.72
582.42	2386.40
582.77	2377.10
583.12	2368.11
583.47	2359.28
583.82	2351.30
584.17	2342.14
584.53	2332.97
584.88	2324.29
585.23	2314.90
585.58	2305.22
585.93	2294.97
586.28	2285.50
586.63	2276.48
586.98	2268.02
587.34	2259.44
587.69	2250.18
588.04	2240.98
588.39	2232.65
588.74	2223.79
589.09	2215.25
589.44	2205.46
589.79	2196.61
590.14	2188.87
590.49	2180.34
590.84	2171.08
591.19	2162.40
591.54	2153.48
591.89	2143.57
592.25	2134.14
592.60	2124.57
592.95	2115.04
593.30	2105.30
593.65	2095.47
594.00	2085.40
594.35	2076.79
594.70	2067.53
595.05	2058.66
595.40	2049.53
595.75	2039.67
596.10	2031.41
596.45	2022.60
596.80	2014.97
597.15	2006.81
597.50	1997.22
597.85	1988.69
598.19	1979.96
598.54	1971.41
598.89	1963.79
599.24	1956.56
599.59	1949.06
599.94	1941.78
600.29	1933.99
600.64	1926.30
600.99	1917.95
601.34	1910.81
601.69	1901.98
602.04	1893.77
602.39	1885.70
602.74	1877.96
603.08	1871.41
603.43	1863.85
603.78	1855.69
604.13	1847.48
604.48	1839.38
604.83	1832.50
605.18	1825.43
605.53	1817.57
605.87	1809.87
606.22	1802.36
606.57	1794.42
606.92	1786.06
607.27	1777.85
607.62	1770.45
607.96	1763.36
608.31	1757.15
608.66	1749.27
609.01	1741.92
609.36	1734.13
609.70	1725.92
610.05	1718.15
610.40	1709.72
610.75	1701.42
611.10	1693.82
611.44	1684.65
611.79	1675.38
612.14	1665.92
612.49	1655.95
612.83	1647.46
613.18	1637.32
613.53	1627.98
613.88	1618.34
614.22	1609.34
614.57	1600.26
614.92	1590.87
615.27	1581.62
615.61	1571.48
615.96	1562.23
616.31	1553.59
616.65	1545.77
617.00	1537.63
617.35	1528.96
617.70	1519.94
618.04	1510.63
618.39	1500.97
618.74	1492.24
619.08	1483.39
619.43	1475.02
619.78	1467.30
620.12	1459.15
620.47	1451.54
620.82	1442.75
621.16	1434.56
621.51	1425.90
621.85	1417.47
622.20	1408.72
622.55	1400.13
622.89	1391.98
623.24	1384.32
623.59	1375.43
623.93	1366.72
624.28	1358.19
624.62	1349.92
624.97	1341.64
625.32	1333.68
625.66	1326.61
626.01	1319.40
626.35	1312.36
626.70	1304.77
627.04	1297.35
627.39	1289.56
627.73	1282.02
628.08	1275.27
628.43	1267.81
628.77	1260.82
629.12	1253.19
629.46	1246.89
629.81	1239.35
630.15	1231.94
630.50	1224.32
630.84	1217.22
631.19	1209.90
631.53	1202.90
631.88	1195.28
632.22	1187.74
632.57	1180.87
632.91	1173.20
633.26	1165.67
633.60	1158.25
633.95	1151.66
634.29	1144.21
634.64	1137.30
634.98	1130.29
635.32	1122.96
635.67	1116.42
636.01	1109.50
636.36	1102.88
636.70	1095.73
637.05	1089.35
637.39	1082.86
637.73	1076.40
638.08	1070.40
638.42	1064.60
638.77	1057.98
639.11	1051.70
639.45	1045.71
639.80	1039.15
640.14	1032.72
640.49	1026.65
640.83	1020.50
641.17	1013.93
641.52	1007.74
641.86	1001.33
642.20	994.90
642.55	988.17
642.89	981.53
643.23	975.16
643.58	969.25
643.92	962.71
644.26	956.21
644.61	950.18
644.95	943.92
645.29	937.44
645.64	930.59
645.98	924.66
646.32	918.54
646.66	912.35
647.01	906.25
647.35	900.36
647.69	893.89
648.04	887.97
648.38	881.69
648.72	875.52
649.06	869.35
649.41	863.27
649.75	857.39
650.09	851.52
650.43	845.47
650.78	839.08
651.12	833.13
651.46	827.37
651.80	821.43
652.14	815.53
652.49	809.52
652.83	803.72
653.17	797.46
653.51	791.57
653.85	785.75
654.20	779.99
654.54	773.99
654.88	768.58
655.22	762.51
655.56	756.71
655.90	751.02
656.25	745.26
656.59	739.91
656.93	734.97
657.27	729.70
657.61	724.16
657.95	719.02
658.29	713.88
658.64	708.73
658.98	703.42
659.32	698.00
659.66	692.86
660.00	687.50
660.34	682.49
660.68	677.43
661.02	672.29
661.36	667.47
661.70	662.68
662.05	657.82
662.39	653.51
662.73	649.28
663.07	644.84
663.41	640.62
663.75	635.88
664.09	630.76
664.43	626.00
664.77	621.80
665.11	617.35
665.45	612.92
665.79	608.43
666.13	604.17
666.47	600.03
666.81	596.01
667.15	591.96
667.49	588.02
667.83	584.08
668.17	580.28
668.51	576.37
668.85	572.73
669.19	569.13
669.53	565.00
669.87	560.87
670.21	557.17
670.55	553.12
670.89	549.75
671.23	546.55
671.57	543.05
671.91	539.39
672.25	535.72
672.58	532.17
672.92	528.67
673.26	525.31
673.60	521.95
673.94	518.40
674.28	515.19
674.62	511.86
674.96	508.57
675.30	505.37
675.64	502.08
675.97	498.74
676.31	495.54
676.65	492.65
676.99	489.92
677.33	486.78
677.67	483.91
678.01	480.74
678.34	477.82
678.68	474.97
679.02	471.94
679.36	469.20
679.70	466.32
680.04	463.44
680.37	460.46
680.71	457.79
681.05	455.19
681.39	452.36
681.73	449.58
682.06	446.91
682.40	444.32
682.74	441.66
683.08	439.13
683.42	436.44
683.75	433.88
684.09	431.32
684.43	428.90
684.77	426.32
685.10	423.94
685.44	421.26
685.78	418.74
686.12	416.41
686.45	414.04
686.79	411.80
687.13	409.74
687.46	407.59
687.80	405.38
688.14	403.03
688.48	400.91
688.81	398.84
689.15	396.65
689.49	394.29
689.82	392.05
690.16	389.69
690.50	387.41
690.83	385.15
691.17	382.74
691.51	380.42
691.84	378.31
692.18	376.21
692.52	374.28
692.85	372.45
693.19	370.51
693.52	368.62
693.86	366.61
694.20	364.57
694.53	362.56
694.87	360.45
695.21	358.48
695.54	356.38
695.88	354.45
696.21	352.69
696.55	351.02
696.88	349.32
697.22	347.60
697.56	346.04
697.89	344.39
698.23	342.75
698.56	341.20
698.90	339.65
699.23	337.95
699.57	336.24
699.90	334.40
700.24	332.72
700.58	331.03
700.91	329.51
701.25	327.95
701.58	326.51
701.92	325.17
702.25	323.77
702.59	322.54
702.92	321.11
703.26	319.57
703.59	318.22
703.93	317.05
704.26	315.80
704.60	314.51
704.93	313.27
705.26	311.99
705.60	310.68
705.93	309.37
706.27	308.27
706.60	307.15
706.94	306.13
707.27	304.96
707.61	303.85
707.94	302.70
708.27	301.52
708.61	300.41
708.94	299.18
709.28	298.08
709.61	296.93
709.94	295.88
710.28	294.93
710.61	293.91
710.95	292.72
711.28	291.81
711.61	290.67
711.95	289.61
712.28	288.64
712.61	287.70
712.95	286.81
713.28	285.92
713.61	285.03
713.95	284.09
714.28	283.23
714.61	282.27
714.95	281.39
715.28	280.52
715.61	279.49
715.95	278.67
716.28	277.78
716.61	276.93
716.95	276.03
717.28	275.21
717.61	274.36
717.94	273.54
718.28	272.67
718.61	271.99
718.94	271.18
719.27	270.46
719.61	269.70
719.94	268.97
720.27	268.17
720.60	267.41
720.94	266.72
721.27	266.03
721.60	265.39
721.93	264.72
722.27	264.15
722.60	263.61
722.93	263.00
723.26	262.46
723.59	261.81
723.93	261.24
724.26	260.63
724.59	260.10
724.92	259.60
725.25	259.07
725.59	258.48
725.92	258.11
726.25	257.56
726.58	257.08
726.91	256.50
727.24	255.96
727.57	255.43
727.91	254.78
728.24	254.26
728.57	253.79
728.90	253.27
729.23	252.79
729.56	252.43
729.89	251.95
730.22	251.40
730.55	250.91
730.89	250.49
731.22	250.00
731.55	249.58
731.88	249.16
732.21	248.66
732.54	248.20
732.87	247.73
733.20	247.31
733.53	246.86
733.86	246.51
734.19	246.09
734.52	245.68
734.85	245.43
735.18	245.10
735.51	244.71
735.84	244.47
736.17	244.10
736.50	243.66
736.83	243.48
737.16	243.22
737.49	243.01
737.82	242.61
738.15	242.30
738.48	241.86
738.81	241.48
739.14	241.06
739.47	240.76
739.80	240.41
740.13	240.08
740.46	239.80
740.79	239.42
741.12	239.11
741.45	238.81
741.78	238.44
742.11	238.18
742.44	237.78
742.77	237.43
743.10	237.09
743.43	236.72
743.75	236.20
744.08	236.04
744.41	235.67
744.74	235.37
745.07	235.02
745.40	234.84
745.73	234.61
746.06	234.37
746.39	234.08
746.71	233.72
747.04	233.43
747.37	233.14
747.70	232.95
748.03	232.63
748.36	232.36
748.68	232.11
749.01	231.74
749.34	231.60
749.67	231.38
750.00	231.17
750.33	231.06
750.65	230.87
750.98	230.47
751.31	230.25
751.64	230.03
751.97	229.85
752.29	229.54
752.62	229.22
752.95	229.05
753.28	228.79
753.60	228.59
753.93	228.42
754.26	228.17
754.59	227.82
754.91	227.63
755.24	227.50
755.57	227.32
755.90	227.17
756.22	226.95
756.55	226.70
756.88	226.51
757.20	226.19
757.53	226.01
757.86	225.76
758.19	225.53
758.51	225.38
758.84	225.17
759.17	224.99
759.49	224.81
759.82	224.77
760.15	224.60
760.47	224.47
760.80	224.19
761.13	224.05
761.45	223.92
761.78	223.70
762.11	223.43
762.43	223.19
762.76	223.00
763.08	222.85
763.41	222.74
763.74	222.59
764.06	222.47
764.39	222.27
764.71	222.09
765.04	221.99
765.37	221.85
765.69	221.69
766.02	221.56
766.34	221.40
766.67	221.07
767.00	221.11
767.32	221.04
767.65	221.06
767.97	220.92
768.30	220.85
768.62	220.78
768.95	220.66
769.27	220.61
769.60	220.50
769.92	220.30
770.25	220.11
770.57	219.93
770.90	219.76
771.22	219.64
771.55	219.62
771.87	219.46
772.20	219.37
772.52	219.45
772.85	219.57
773.17	219.53
773.50	219.48
773.82	219.29
774.15	219.10
774.47	218.94
774.80	218.82
775.12	218.69
775.45	218.61
775.77	218.54
776.09	218.48
776.42	218.37
776.74	218.44
777.07	218.37
777.39	218.29
777.72	218.20
778.04	218.15
778.36	218.08
778.69	218.03
779.01	217.94
779.33	217.76
779.66	217.46
779.98	217.36
780.31	217.28
780.63	217.30
780.95	217.31
781.28	217.20
781.60	217.20
781.92	217.17
782.25	217.15
782.57	217.05
782.89	216.92
783.22	216.95
783.54	216.82
783.86	216.78
784.19	216.65
784.51	216.70
784.83	216.59
785.16	216.46
785.48	216.40
785.80	216.35
786.12	216.29
786.45	216.21
