SpectraSuite Data File
++++++++++++++++++++++++++++++++++++
Date: Mon Feb 25 17:33:51 EST 2013
User: group
Dark Spectrum Present: No
Reference Spectrum Present: No
Number of Sampled Component Spectra: 1
Spectrometers: USB2E7196
Integration Time (usec): 52000 (USB2E7196)
Spectra Averaged: 20 (USB2E7196)
Boxcar Smoothing: 10 (USB2E7196)
Correct for Electrical Dark: No (USB2E7196)
Strobe/Lamp Enabled: No (USB2E7196)
Correct for Detector Non-linearity: No (USB2E7196)
Correct for Stray Light: No (USB2E7196)
Number of Pixels in Processed Spectrum: 2048
>>>>>Begin Processed Spectral Data<<<<<
339.09	0.00
339.48	199.05
339.86	200.80
340.24	200.75
340.63	202.70
341.01	206.45
341.39	205.35
341.78	207.10
342.16	209.90
342.54	207.95
342.93	198.18
343.31	208.17
343.69	208.67
344.07	209.15
344.46	209.69
344.84	210.14
345.22	210.30
345.60	210.61
345.99	210.82
346.37	210.93
346.75	211.07
347.13	211.20
347.52	211.32
347.90	211.42
348.28	211.44
348.66	211.49
349.05	211.52
349.43	211.59
349.81	211.66
350.19	211.78
350.57	211.88
350.96	211.91
351.34	212.05
351.72	212.27
352.10	212.39
352.48	212.41
352.87	212.47
353.25	212.61
353.63	212.63
354.01	212.81
354.39	212.89
354.77	213.09
355.15	213.19
355.54	213.25
355.92	213.26
356.30	213.39
356.68	213.53
357.06	213.53
357.44	213.56
357.82	213.58
358.20	213.65
358.58	213.64
358.97	213.74
359.35	213.83
359.73	213.94
360.11	213.97
360.49	213.99
360.87	214.01
361.25	214.06
361.63	214.21
362.01	214.19
362.39	214.19
362.77	214.15
363.15	214.17
363.53	214.22
363.91	214.28
364.29	214.33
364.67	214.18
365.05	214.29
365.43	214.34
365.81	214.42
366.19	214.49
366.57	214.54
366.95	214.51
367.33	214.49
367.71	214.37
368.09	214.40
368.47	214.43
368.85	214.45
369.23	214.46
369.61	214.43
369.99	214.44
370.37	214.38
370.75	214.41
371.13	214.30
371.51	214.25
371.89	214.19
372.27	214.10
372.65	214.07
373.03	214.00
373.41	213.88
373.78	213.78
374.16	213.62
374.54	213.54
374.92	213.50
375.30	213.42
375.68	213.36
376.06	213.28
376.44	213.22
376.82	213.15
377.19	213.08
377.57	212.91
377.95	212.80
378.33	212.80
378.71	212.63
379.09	212.62
379.47	212.56
379.84	212.55
380.22	212.55
380.60	212.54
380.98	212.45
381.36	212.44
381.73	212.35
382.11	212.35
382.49	212.33
382.87	212.27
383.25	212.23
383.62	212.36
384.00	212.25
384.38	212.24
384.76	212.24
385.13	212.28
385.51	212.30
385.89	212.20
386.27	212.21
386.64	212.23
387.02	212.16
387.40	212.16
387.78	212.07
388.15	212.01
388.53	212.01
388.91	211.97
389.29	211.96
389.66	211.93
390.04	211.91
390.42	211.90
390.79	211.85
391.17	211.83
391.55	211.70
391.92	211.66
392.30	211.71
392.68	211.65
393.05	211.58
393.43	211.55
393.81	211.64
394.18	211.56
394.56	211.55
394.94	211.67
395.31	211.61
395.69	211.66
396.06	211.74
396.44	211.72
396.82	211.70
397.19	211.85
397.57	211.93
397.95	212.00
398.32	211.94
398.70	212.01
399.07	212.08
399.45	212.08
399.82	212.15
400.20	212.07
400.58	212.12
400.95	212.19
401.33	212.32
401.70	212.42
402.08	212.51
402.45	212.58
402.83	212.59
403.20	212.66
403.58	212.75
403.95	212.85
404.33	212.95
404.71	213.12
405.08	213.30
405.46	213.39
405.83	213.46
406.21	213.61
406.58	213.81
406.96	213.98
407.33	214.17
407.70	214.44
408.08	214.81
408.45	215.10
408.83	215.28
409.20	215.44
409.58	215.63
409.95	215.92
410.33	216.19
410.70	216.46
411.08	216.91
411.45	217.23
411.82	217.56
412.20	218.02
412.57	218.53
412.95	218.78
413.32	219.28
413.69	219.80
414.07	220.41
414.44	220.91
414.82	221.47
415.19	222.18
415.56	222.83
415.94	223.54
416.31	224.36
416.68	225.28
417.06	226.30
417.43	227.27
417.81	228.38
418.18	229.51
418.55	230.75
418.93	231.96
419.30	233.35
419.67	234.69
420.04	236.02
420.42	237.52
420.79	239.38
421.16	241.15
421.54	243.00
421.91	244.89
422.28	246.81
422.66	248.88
423.03	250.97
423.40	253.11
423.77	255.34
424.15	257.65
424.52	259.98
424.89	262.56
425.26	265.01
425.64	267.31
426.01	269.98
426.38	272.69
426.75	275.48
427.13	278.33
427.50	281.31
427.87	284.42
428.24	287.48
428.61	290.38
428.99	293.68
429.36	297.20
429.73	300.69
430.10	304.22
430.47	307.85
430.85	311.49
431.22	315.37
431.59	319.52
431.96	323.36
432.33	327.76
432.70	331.91
433.08	336.86
433.45	341.54
433.82	346.13
434.19	351.20
434.56	356.10
434.93	360.80
435.30	365.58
435.68	370.83
436.05	375.98
436.42	381.07
436.79	385.75
437.16	390.92
437.53	396.20
437.90	401.47
438.27	406.61
438.64	411.83
439.01	416.86
439.38	421.21
439.75	425.53
440.13	430.27
440.50	434.83
440.87	438.53
441.24	442.36
441.61	446.57
441.98	449.59
442.35	453.14
442.72	456.70
443.09	460.23
443.46	462.39
443.83	463.77
444.20	464.90
444.57	466.58
444.94	467.23
445.31	467.94
445.68	468.79
446.05	469.01
446.42	468.39
446.79	467.55
447.16	466.74
447.53	466.11
447.90	464.19
448.27	462.10
448.64	459.24
449.01	457.15
449.37	453.49
449.74	450.08
450.11	446.16
450.48	441.65
450.85	437.01
451.22	433.13
451.59	429.40
451.96	425.88
452.33	421.17
452.70	416.84
453.07	411.71
453.43	406.34
453.80	401.37
454.17	396.58
454.54	391.98
454.91	387.18
455.28	382.44
455.65	377.85
456.02	373.46
456.38	369.71
456.75	365.00
457.12	361.09
457.49	357.24
457.86	353.31
458.23	350.20
458.59	346.66
458.96	343.05
459.33	339.98
459.70	336.86
460.07	334.34
460.43	331.45
460.80	328.76
461.17	326.46
461.54	323.91
461.91	321.58
462.27	319.34
462.64	317.20
463.01	314.90
463.38	312.78
463.74	310.70
464.11	308.81
464.48	307.17
464.85	305.44
465.21	304.01
465.58	302.62
465.95	300.84
466.32	299.47
466.68	298.07
467.05	296.59
467.42	295.16
467.78	293.63
468.15	292.22
468.52	291.35
468.88	290.02
469.25	288.90
469.62	288.03
469.98	287.05
470.35	286.15
470.72	285.33
471.08	284.39
471.45	283.58
471.82	282.73
472.18	281.92
472.55	281.35
472.92	280.69
473.28	280.10
473.65	279.60
474.02	279.00
474.38	278.50
474.75	278.15
475.11	277.83
475.48	277.77
475.85	277.67
476.21	277.41
476.58	277.30
476.94	277.28
477.31	277.19
477.67	277.12
478.04	277.23
478.41	277.41
478.77	277.73
479.14	277.81
479.50	278.18
479.87	278.56
480.23	278.92
480.60	279.35
480.96	279.75
481.33	280.35
481.69	281.08
482.06	281.75
482.42	282.45
482.79	283.21
483.15	283.95
483.52	284.87
483.88	285.82
484.25	286.78
484.61	287.87
484.98	289.02
485.34	290.28
485.71	291.65
486.07	292.98
486.44	294.30
486.80	295.85
487.17	297.39
487.53	299.12
487.90	300.97
488.26	302.80
488.62	304.93
488.99	306.99
489.35	309.16
489.72	311.51
490.08	313.79
490.44	316.18
490.81	318.78
491.17	321.44
491.54	324.34
491.90	327.40
492.26	330.56
492.63	333.88
492.99	337.26
493.36	340.91
493.72	344.77
494.08	348.78
494.45	353.07
494.81	357.62
495.17	362.26
495.54	367.14
495.90	372.19
496.26	377.35
496.63	382.88
496.99	388.50
497.35	394.48
497.72	400.75
498.08	407.17
498.44	413.90
498.80	421.05
499.17	428.42
499.53	436.09
499.89	444.04
500.26	452.21
500.62	460.63
500.98	469.25
501.34	478.42
501.71	487.86
502.07	497.59
502.43	507.64
502.79	517.77
503.16	528.41
503.52	539.45
503.88	550.83
504.24	562.36
504.60	574.31
504.97	586.76
505.33	599.53
505.69	612.85
506.05	626.51
506.41	640.17
506.78	654.04
507.14	668.07
507.50	682.49
507.86	697.53
508.22	712.97
508.59	728.47
508.95	744.47
509.31	760.90
509.67	777.36
510.03	794.07
510.39	811.72
510.75	829.35
511.12	847.50
511.48	865.75
511.84	884.50
512.20	903.31
512.56	922.38
512.92	941.79
513.28	961.31
513.64	980.96
514.00	1000.85
514.37	1021.19
514.73	1042.07
515.09	1063.06
515.45	1083.82
515.81	1104.95
516.17	1126.43
516.53	1147.86
516.89	1169.40
517.25	1191.31
517.61	1213.31
517.97	1234.92
518.33	1256.58
518.69	1278.47
519.05	1300.76
519.41	1322.95
519.77	1345.65
520.13	1367.85
520.49	1389.88
520.85	1412.51
521.21	1434.98
521.57	1457.90
521.93	1479.89
522.29	1503.00
522.65	1525.73
523.01	1548.53
523.37	1570.69
523.73	1593.28
524.09	1615.40
524.45	1637.83
524.81	1660.17
525.17	1682.69
525.53	1705.34
525.89	1727.60
526.25	1749.21
526.61	1770.38
526.97	1792.15
527.33	1813.39
527.68	1834.94
528.04	1856.32
528.40	1876.76
528.76	1897.67
529.12	1918.72
529.48	1940.53
529.84	1960.63
530.20	1980.84
530.56	2001.08
530.91	2022.04
531.27	2042.55
531.63	2062.76
531.99	2082.80
532.35	2102.10
532.71	2121.13
533.07	2140.29
533.42	2159.14
533.78	2178.55
534.14	2197.36
534.50	2214.69
534.86	2232.70
535.21	2249.51
535.57	2267.51
535.93	2285.23
536.29	2302.07
536.65	2318.31
537.00	2333.71
537.36	2349.43
537.72	2365.12
538.08	2380.53
538.44	2395.99
538.79	2411.25
539.15	2426.00
539.51	2440.77
539.87	2456.20
540.22	2470.88
540.58	2485.68
540.94	2500.45
541.29	2513.40
541.65	2525.83
542.01	2539.39
542.37	2551.53
542.72	2564.05
543.08	2574.94
543.44	2586.71
543.79	2597.10
544.15	2607.84
544.51	2619.42
544.87	2630.44
545.22	2639.73
545.58	2648.50
545.94	2655.58
546.29	2662.14
546.65	2668.88
547.01	2674.85
547.36	2680.39
547.72	2685.95
548.07	2690.52
548.43	2694.17
548.79	2697.92
549.14	2702.86
549.50	2707.08
549.86	2711.27
550.21	2715.10
550.57	2719.58
550.92	2722.07
551.28	2724.80
551.64	2727.00
551.99	2729.01
552.35	2730.58
552.70	2733.17
553.06	2736.01
553.41	2739.49
553.77	2742.51
554.13	2744.54
554.48	2746.64
554.84	2748.31
555.19	2748.67
555.55	2749.15
555.90	2749.54
556.26	2750.29
556.61	2750.15
556.97	2748.85
557.32	2748.25
557.68	2746.85
558.03	2745.54
558.39	2744.17
558.74	2744.05
559.10	2743.05
559.45	2741.61
559.81	2740.66
560.16	2738.02
560.52	2735.26
560.87	2732.04
561.23	2728.42
561.58	2726.27
561.94	2723.17
562.29	2719.55
562.64	2717.48
563.00	2715.20
563.35	2713.30
563.71	2711.46
564.06	2709.34
564.42	2707.81
564.77	2705.55
565.12	2703.63
565.48	2700.32
565.83	2697.36
566.19	2693.90
566.54	2689.83
566.89	2685.71
567.25	2682.03
567.60	2678.82
567.96	2675.50
568.31	2672.05
568.66	2668.28
569.02	2663.51
569.37	2658.34
569.72	2654.30
570.08	2649.04
570.43	2643.17
570.78	2637.45
571.14	2631.34
571.49	2624.73
571.84	2618.66
572.20	2611.59
572.55	2605.11
572.90	2598.13
573.26	2591.36
573.61	2584.44
573.96	2577.77
574.31	2570.23
574.67	2561.64
575.02	2553.00
575.37	2544.51
575.72	2535.40
576.08	2527.65
576.43	2518.92
576.78	2511.10
577.13	2503.16
577.49	2495.11
577.84	2487.37
578.19	2479.58
578.54	2471.87
578.90	2464.89
579.25	2455.67
579.60	2446.55
579.95	2437.22
580.30	2429.24
580.66	2420.99
581.01	2411.71
581.36	2402.80
581.71	2394.15
582.06	2385.57
582.42	2377.27
582.77	2367.96
583.12	2358.95
583.47	2350.20
583.82	2341.79
584.17	2332.43
584.53	2323.18
584.88	2314.24
585.23	2304.97
585.58	2295.59
585.93	2286.04
586.28	2276.41
586.63	2267.89
586.98	2259.81
587.34	2251.58
587.69	2242.33
588.04	2232.94
588.39	2224.48
588.74	2215.25
589.09	2206.34
589.44	2196.82
589.79	2188.45
590.14	2180.47
590.49	2172.47
590.84	2163.60
591.19	2155.65
591.54	2147.18
591.89	2136.98
592.25	2127.66
592.60	2118.25
592.95	2108.67
593.30	2099.18
593.65	2089.32
594.00	2079.69
594.35	2071.31
594.70	2061.73
595.05	2053.01
595.40	2044.29
595.75	2034.67
596.10	2026.25
596.45	2017.70
596.80	2010.07
597.15	2001.57
597.50	1992.17
597.85	1983.22
598.19	1974.23
598.54	1965.31
598.89	1957.21
599.24	1950.61
599.59	1943.11
599.94	1935.93
600.29	1928.28
600.64	1919.98
600.99	1911.56
601.34	1903.99
601.69	1895.16
602.04	1887.04
602.39	1878.60
602.74	1870.80
603.08	1864.46
603.43	1857.31
603.78	1849.32
604.13	1841.10
604.48	1832.98
604.83	1826.33
605.18	1819.66
605.53	1812.03
605.87	1804.70
606.22	1797.74
606.57	1789.67
606.92	1781.40
607.27	1773.45
607.62	1765.97
607.96	1759.37
608.31	1753.45
608.66	1745.52
609.01	1737.85
609.36	1730.45
609.70	1722.86
610.05	1715.01
610.40	1706.60
610.75	1697.99
611.10	1690.20
611.44	1681.15
611.79	1672.22
612.14	1662.64
612.49	1652.65
612.83	1644.04
613.18	1634.19
613.53	1624.32
613.88	1614.62
614.22	1605.85
614.57	1596.42
614.92	1586.79
615.27	1577.15
615.61	1566.96
615.96	1558.17
616.31	1549.41
616.65	1541.38
617.00	1532.78
617.35	1524.02
617.70	1514.81
618.04	1505.81
618.39	1496.60
618.74	1488.05
619.08	1479.51
619.43	1471.27
619.78	1463.32
620.12	1455.05
620.47	1447.31
620.82	1438.94
621.16	1430.49
621.51	1422.00
621.85	1413.75
622.20	1405.55
622.55	1397.19
622.89	1388.98
623.24	1381.13
623.59	1372.61
623.93	1363.63
624.28	1355.22
624.62	1346.87
624.97	1338.86
625.32	1330.96
625.66	1323.57
626.01	1316.46
626.35	1309.03
626.70	1301.23
627.04	1294.05
627.39	1286.37
627.73	1278.86
628.08	1271.87
628.43	1264.56
628.77	1257.03
629.12	1249.38
629.46	1242.57
629.81	1235.51
630.15	1228.16
630.50	1220.47
630.84	1213.10
631.19	1205.97
631.53	1199.21
631.88	1191.74
632.22	1184.09
632.57	1177.11
632.91	1169.55
633.26	1161.85
633.60	1154.70
633.95	1148.07
634.29	1140.40
634.64	1133.78
634.98	1126.61
635.32	1119.48
635.67	1113.28
636.01	1106.70
636.36	1099.82
636.70	1093.16
637.05	1086.51
637.39	1080.24
637.73	1073.95
638.08	1067.99
638.42	1062.14
638.77	1055.54
639.11	1049.47
639.45	1043.43
639.80	1036.91
640.14	1030.30
640.49	1024.20
640.83	1017.88
641.17	1011.32
641.52	1005.36
641.86	998.67
642.20	992.49
642.55	985.86
642.89	979.21
643.23	972.70
643.58	966.99
643.92	960.47
644.26	954.11
644.61	948.04
644.95	941.78
645.29	935.70
645.64	929.23
645.98	923.06
646.32	917.09
646.66	910.87
647.01	904.81
647.35	899.02
647.69	892.63
648.04	886.75
648.38	880.64
648.72	874.54
649.06	868.36
649.41	862.35
649.75	856.60
650.09	850.60
650.43	844.77
650.78	838.47
651.12	832.43
651.46	826.60
651.80	820.52
652.14	814.77
652.49	808.57
652.83	802.64
653.17	796.47
653.51	790.58
653.85	784.99
654.20	779.10
654.54	773.46
654.88	768.08
655.22	762.21
655.56	756.46
655.90	750.59
656.25	745.01
656.59	739.47
656.93	734.10
657.27	728.82
657.61	723.38
657.95	718.29
658.29	713.10
658.64	707.87
658.98	702.71
659.32	697.24
659.66	692.15
660.00	686.76
660.34	681.79
660.68	676.43
661.02	671.31
661.36	666.58
661.70	661.56
662.05	656.64
662.39	652.15
662.73	647.76
663.07	643.44
663.41	638.97
663.75	634.31
664.09	629.59
664.43	624.79
664.77	620.48
665.11	615.93
665.45	611.53
665.79	607.14
666.13	602.71
666.47	598.48
666.81	594.22
667.15	590.15
667.49	586.12
667.83	582.25
668.17	578.39
668.51	574.53
668.85	570.83
669.19	567.18
669.53	563.25
669.87	559.21
670.21	555.37
670.55	551.45
670.89	547.96
671.23	544.57
671.57	541.20
671.91	537.56
672.25	533.99
672.58	530.49
672.92	527.06
673.26	523.99
673.60	520.65
673.94	517.39
674.28	514.19
674.62	510.96
674.96	507.68
675.30	504.48
675.64	501.17
675.97	497.80
676.31	494.70
676.65	491.72
676.99	489.08
677.33	486.10
677.67	483.30
678.01	480.11
678.34	477.10
678.68	474.14
679.02	471.01
679.36	468.26
679.70	465.43
680.04	462.54
680.37	459.46
680.71	456.57
681.05	453.94
681.39	451.19
681.73	448.54
682.06	446.01
682.40	443.40
682.74	440.84
683.08	438.40
683.42	435.71
683.75	432.98
684.09	430.25
684.43	427.73
684.77	425.09
685.10	422.61
685.44	420.13
685.78	417.64
686.12	415.49
686.45	413.00
686.79	410.67
687.13	408.46
687.46	406.17
687.80	404.11
688.14	401.70
688.48	399.54
688.81	397.25
689.15	395.06
689.49	392.85
689.82	390.69
690.16	388.27
690.50	386.05
690.83	383.87
691.17	381.64
691.51	379.49
691.84	377.47
692.18	375.51
692.52	373.60
692.85	371.74
693.19	369.84
693.52	367.91
693.86	365.91
694.20	364.05
694.53	362.22
694.87	360.20
695.21	358.25
695.54	356.25
695.88	354.39
696.21	352.45
696.55	350.67
696.88	348.93
697.22	347.30
697.56	345.72
697.89	344.07
698.23	342.52
698.56	340.93
698.90	339.43
699.23	337.76
699.57	336.09
699.90	334.39
700.24	332.71
700.58	331.24
700.91	329.80
701.25	328.34
701.58	326.95
701.92	325.66
702.25	324.26
702.59	322.97
702.92	321.60
703.26	320.23
703.59	318.83
703.93	317.63
704.26	316.34
704.60	315.03
704.93	313.75
705.26	312.47
705.60	311.15
705.93	309.87
706.27	308.67
706.60	307.58
706.94	306.48
707.27	305.19
707.61	303.95
707.94	302.80
708.27	301.55
708.61	300.30
708.94	299.13
709.28	298.02
709.61	296.84
709.94	295.81
710.28	294.72
710.61	293.70
710.95	292.49
711.28	291.58
711.61	290.45
711.95	289.60
712.28	288.58
712.61	287.52
712.95	286.50
713.28	285.66
713.61	284.62
713.95	283.72
714.28	282.91
714.61	282.02
714.95	281.05
715.28	280.14
715.61	279.25
715.95	278.23
716.28	277.34
716.61	276.59
716.95	275.69
717.28	274.92
717.61	274.13
717.94	273.37
718.28	272.53
718.61	271.87
718.94	270.97
719.27	270.26
719.61	269.65
719.94	268.97
720.27	268.14
720.60	267.42
720.94	266.76
721.27	266.06
721.60	265.43
721.93	264.73
722.27	264.13
722.60	263.45
722.93	262.97
723.26	262.48
723.59	261.81
723.93	261.29
724.26	260.70
724.59	260.16
724.92	259.52
725.25	258.97
725.59	258.38
725.92	257.93
726.25	257.36
726.58	256.80
726.91	256.29
727.24	255.79
727.57	255.30
727.91	254.74
728.24	254.27
728.57	253.80
728.90	253.45
729.23	253.00
729.56	252.64
729.89	252.12
730.22	251.62
730.55	251.11
730.89	250.59
731.22	250.13
731.55	249.65
731.88	249.19
732.21	248.70
732.54	248.25
732.87	247.78
733.20	247.38
733.53	246.99
733.86	246.53
734.19	246.06
734.52	245.59
734.85	245.23
735.18	244.86
735.51	244.51
735.84	244.05
736.17	243.66
736.50	243.21
736.83	243.01
737.16	242.68
737.49	242.35
737.82	241.97
738.15	241.57
738.48	241.19
738.81	240.98
739.14	240.59
739.47	240.26
739.80	239.88
740.13	239.48
740.46	239.12
740.79	238.75
741.12	238.52
741.45	238.24
741.78	237.85
742.11	237.51
742.44	237.14
742.77	236.88
743.10	236.49
743.43	236.25
743.75	235.76
744.08	235.71
744.41	235.30
744.74	235.07
745.07	234.80
745.40	234.59
745.73	234.31
746.06	234.15
746.39	233.92
746.71	233.60
747.04	233.39
747.37	233.13
747.70	232.89
748.03	232.62
748.36	232.37
748.68	232.10
749.01	231.85
749.34	231.61
749.67	231.34
750.00	231.15
750.33	231.01
750.65	230.78
750.98	230.19
751.31	230.03
751.64	229.78
751.97	229.70
752.29	229.46
752.62	229.16
752.95	228.82
753.28	228.57
753.60	228.31
753.93	228.11
754.26	227.86
754.59	227.59
754.91	227.28
755.24	227.06
755.57	226.93
755.90	226.73
756.22	226.51
756.55	226.30
756.88	226.07
757.20	225.67
757.53	225.50
757.86	225.39
758.19	225.20
758.51	224.98
758.84	224.69
759.17	224.49
759.49	224.25
759.82	224.18
760.15	223.99
760.47	223.88
760.80	223.65
761.13	223.51
761.45	223.41
761.78	223.40
762.11	223.27
762.43	223.06
762.76	222.91
763.08	222.76
763.41	222.70
763.74	222.55
764.06	222.47
764.39	222.27
764.71	222.13
765.04	222.05
765.37	221.90
765.69	221.81
766.02	221.62
766.34	221.55
766.67	221.41
767.00	221.35
767.32	221.39
767.65	221.45
767.97	221.28
768.30	221.12
768.62	220.93
768.95	220.79
769.27	220.68
769.60	220.56
769.92	220.41
770.25	220.23
770.57	220.17
770.90	220.04
771.22	219.95
771.55	219.88
771.87	219.73
772.20	219.66
772.52	219.69
772.85	219.83
773.17	219.72
773.50	219.55
773.82	219.42
774.15	219.20
774.47	219.02
774.80	218.92
775.12	218.86
775.45	218.76
775.77	218.69
776.09	218.65
776.42	218.60
776.74	218.53
777.07	218.48
777.39	218.40
777.72	218.30
778.04	218.30
778.36	218.16
778.69	218.11
779.01	218.03
779.33	217.79
779.66	217.51
779.98	217.43
780.31	217.38
780.63	217.38
780.95	217.34
781.28	217.18
781.60	217.07
781.92	216.97
782.25	216.84
782.57	216.84
782.89	216.73
783.22	216.66
783.54	216.60
783.86	216.57
784.19	216.43
784.51	216.47
784.83	216.36
785.16	216.31
785.48	216.30
785.80	216.27
786.12	216.22
786.45	216.17
