SpectraSuite Data File
++++++++++++++++++++++++++++++++++++
Date: Mon Feb 25 17:32:04 EST 2013
User: group
Dark Spectrum Present: No
Reference Spectrum Present: No
Number of Sampled Component Spectra: 1
Spectrometers: USB2E7196
Integration Time (usec): 52000 (USB2E7196)
Spectra Averaged: 20 (USB2E7196)
Boxcar Smoothing: 10 (USB2E7196)
Correct for Electrical Dark: No (USB2E7196)
Strobe/Lamp Enabled: No (USB2E7196)
Correct for Detector Non-linearity: No (USB2E7196)
Correct for Stray Light: No (USB2E7196)
Number of Pixels in Processed Spectrum: 2048
>>>>>Begin Processed Spectral Data<<<<<
339.09	0.00
339.48	200.20
339.86	200.45
340.24	202.40
340.63	203.25
341.01	207.40
341.39	205.80
341.78	207.80
342.16	209.15
342.54	209.40
342.93	198.60
343.31	208.59
343.69	209.04
344.07	209.49
344.46	209.93
344.84	210.34
345.22	210.50
345.60	210.78
345.99	211.01
346.37	211.10
346.75	211.13
347.13	211.18
347.52	211.22
347.90	211.30
348.28	211.29
348.66	211.45
349.05	211.24
349.43	211.29
349.81	211.39
350.19	211.41
350.57	211.33
350.96	211.47
351.34	211.63
351.72	211.75
352.10	211.87
352.48	211.88
352.87	211.90
353.25	211.96
353.63	211.96
354.01	211.98
354.39	212.08
354.77	212.20
355.15	212.34
355.54	212.34
355.92	212.30
356.30	212.35
356.68	212.46
357.06	212.65
357.44	212.65
357.82	212.62
358.20	212.72
358.58	212.76
358.97	212.86
359.35	212.89
359.73	212.95
360.11	213.00
360.49	213.08
360.87	213.13
361.25	213.29
361.63	213.38
362.01	213.40
362.39	213.44
362.77	213.48
363.15	213.44
363.53	213.50
363.91	213.66
364.29	213.66
364.67	213.52
365.05	213.53
365.43	213.59
365.81	213.67
366.19	213.71
366.57	213.88
366.95	213.84
367.33	213.83
367.71	213.85
368.09	213.93
368.47	213.87
368.85	213.88
369.23	213.81
369.61	213.79
369.99	213.87
370.37	213.87
370.75	213.95
371.13	213.99
371.51	214.03
371.89	213.98
372.27	213.99
372.65	213.96
373.03	213.95
373.41	213.94
373.78	213.89
374.16	213.81
374.54	213.73
374.92	213.67
375.30	213.59
375.68	213.51
376.06	213.45
376.44	213.47
376.82	213.42
377.19	213.35
377.57	213.28
377.95	213.10
378.33	212.98
378.71	212.83
379.09	212.73
379.47	212.67
379.84	212.53
380.22	212.50
380.60	212.48
380.98	212.42
381.36	212.34
381.73	212.24
382.11	212.26
382.49	212.23
382.87	212.19
383.25	212.20
383.62	212.38
384.00	212.31
384.38	212.25
384.76	212.24
385.13	212.27
385.51	212.29
385.89	212.26
386.27	212.27
386.64	212.24
387.02	212.24
387.40	212.20
387.78	212.22
388.15	212.22
388.53	212.13
388.91	212.06
389.29	212.07
389.66	212.08
390.04	211.97
390.42	211.97
390.79	211.88
391.17	211.87
391.55	211.66
391.92	211.60
392.30	211.60
392.68	211.59
393.05	211.53
393.43	211.44
393.81	211.49
394.18	211.43
394.56	211.43
394.94	211.42
395.31	211.39
395.69	211.44
396.06	211.45
396.44	211.54
396.82	211.55
397.19	211.60
397.57	211.55
397.95	211.57
398.32	211.46
398.70	211.51
399.07	211.52
399.45	211.47
399.82	211.55
400.20	211.56
400.58	211.57
400.95	211.61
401.33	211.74
401.70	211.92
402.08	212.00
402.45	212.12
402.83	212.23
403.20	212.32
403.58	212.36
403.95	212.42
404.33	212.45
404.71	212.54
405.08	212.71
405.46	212.84
405.83	212.98
406.21	213.15
406.58	213.32
406.96	213.54
407.33	213.76
407.70	213.93
408.08	214.25
408.45	214.52
408.83	214.79
409.20	214.93
409.58	215.05
409.95	215.28
410.33	215.55
410.70	215.76
411.08	216.13
411.45	216.51
411.82	216.80
412.20	217.25
412.57	217.84
412.95	218.14
413.32	218.66
413.69	219.20
414.07	219.84
414.44	220.51
414.82	221.05
415.19	221.81
415.56	222.55
415.94	223.28
416.31	224.09
416.68	224.95
417.06	226.07
417.43	227.03
417.81	228.13
418.18	229.19
418.55	230.38
418.93	231.51
419.30	232.85
419.67	234.32
420.04	235.68
420.42	237.06
420.79	238.83
421.16	240.59
421.54	242.34
421.91	244.13
422.28	246.07
422.66	248.17
423.03	250.15
423.40	252.18
423.77	254.41
424.15	256.62
424.52	258.89
424.89	261.39
425.26	263.86
425.64	266.19
426.01	268.74
426.38	271.39
426.75	274.27
427.13	276.98
427.50	279.88
427.87	282.97
428.24	285.99
428.61	288.93
428.99	292.14
429.36	295.61
429.73	299.06
430.10	302.34
430.47	305.75
430.85	309.32
431.22	313.23
431.59	317.30
431.96	321.23
432.33	325.58
432.70	329.75
433.08	334.59
433.45	339.20
433.82	343.80
434.19	348.90
434.56	353.65
434.93	358.32
435.30	362.99
435.68	368.29
436.05	373.51
436.42	378.59
436.79	383.21
437.16	388.31
437.53	393.59
437.90	398.76
438.27	403.99
438.64	409.37
439.01	414.23
439.38	418.56
439.75	422.85
440.13	427.64
440.50	432.09
440.87	435.89
441.24	439.78
441.61	443.99
441.98	447.10
442.35	450.69
442.72	454.41
443.09	458.05
443.46	460.15
443.83	461.42
444.20	462.52
444.57	464.36
444.94	465.19
445.31	465.87
445.68	466.70
446.05	466.99
446.42	466.38
446.79	465.64
447.16	464.77
447.53	463.94
447.90	461.90
448.27	459.91
448.64	457.02
449.01	454.77
449.37	451.11
449.74	447.53
450.11	443.49
450.48	439.07
450.85	434.39
451.22	430.35
451.59	426.81
451.96	423.43
452.33	418.62
452.70	414.27
453.07	409.24
453.43	404.04
453.80	398.95
454.17	394.21
454.54	389.73
454.91	384.97
455.28	380.44
455.65	375.97
456.02	371.63
456.38	367.87
456.75	363.36
457.12	359.52
457.49	355.74
457.86	352.05
458.23	348.81
458.59	345.45
458.96	341.98
459.33	338.77
459.70	335.54
460.07	333.11
460.43	330.22
460.80	327.63
461.17	325.45
461.54	323.05
461.91	320.64
462.27	318.25
462.64	316.28
463.01	314.05
463.38	312.00
463.74	309.73
464.11	307.85
464.48	306.27
464.85	304.60
465.21	303.38
465.58	301.91
465.95	300.22
466.32	298.76
466.68	297.40
467.05	296.01
467.42	294.62
467.78	293.15
468.15	291.83
468.52	290.80
468.88	289.40
469.25	288.29
469.62	287.52
469.98	286.58
470.35	285.72
470.72	284.81
471.08	283.89
471.45	283.11
471.82	282.35
472.18	281.45
472.55	280.87
472.92	280.08
473.28	279.60
473.65	279.04
474.02	278.48
474.38	278.07
474.75	277.81
475.11	277.46
475.48	277.22
475.85	277.06
476.21	276.86
476.58	276.78
476.94	276.75
477.31	276.63
477.67	276.60
478.04	276.59
478.41	276.73
478.77	277.06
479.14	277.25
479.50	277.50
479.87	277.93
480.23	278.40
480.60	278.81
480.96	279.17
481.33	279.93
481.69	280.55
482.06	281.15
482.42	281.70
482.79	282.43
483.15	283.29
483.52	284.19
483.88	285.11
484.25	286.08
484.61	287.12
484.98	288.15
485.34	289.40
485.71	290.71
486.07	292.19
486.44	293.48
486.80	294.99
487.17	296.61
487.53	298.37
487.90	300.13
488.26	302.03
488.62	304.18
488.99	306.10
489.35	308.21
489.72	310.60
490.08	313.09
490.44	315.59
490.81	318.27
491.17	321.08
491.54	323.95
491.90	326.95
492.26	330.12
492.63	333.48
492.99	337.08
493.36	340.76
493.72	344.65
494.08	348.67
494.45	353.00
494.81	357.43
495.17	362.05
495.54	366.89
495.90	372.03
496.26	377.32
496.63	382.83
496.99	388.69
497.35	394.60
497.72	400.81
498.08	407.30
498.44	413.99
498.80	421.12
499.17	428.52
499.53	436.15
499.89	444.13
500.26	452.29
500.62	460.51
500.98	469.38
501.34	478.49
501.71	487.87
502.07	497.41
502.43	507.32
502.79	517.50
503.16	528.01
503.52	538.90
503.88	549.84
504.24	561.28
504.60	572.95
504.97	585.25
505.33	597.68
505.69	611.05
506.05	624.53
506.41	638.00
506.78	651.79
507.14	666.07
507.50	680.48
507.86	695.31
508.22	710.70
508.59	726.04
508.95	742.01
509.31	758.27
509.67	774.93
510.03	791.83
510.39	809.43
510.75	827.15
511.12	845.20
511.48	863.67
511.84	882.47
512.20	901.05
512.56	920.09
512.92	939.53
513.28	958.90
513.64	978.45
514.00	998.27
514.37	1018.60
514.73	1039.30
515.09	1060.05
515.45	1080.74
515.81	1101.64
516.17	1122.73
516.53	1143.82
516.89	1165.30
517.25	1186.75
517.61	1208.39
517.97	1229.57
518.33	1250.82
518.69	1272.30
519.05	1294.25
519.41	1316.21
519.77	1338.62
520.13	1360.43
520.49	1382.35
520.85	1404.85
521.21	1427.22
521.57	1449.92
521.93	1471.75
522.29	1494.56
522.65	1516.94
523.01	1539.55
523.37	1561.55
523.73	1583.74
524.09	1605.81
524.45	1627.69
524.81	1649.98
525.17	1672.20
525.53	1694.61
525.89	1717.12
526.25	1739.40
526.61	1760.60
526.97	1782.15
527.33	1803.62
527.68	1825.51
528.04	1846.79
528.40	1867.18
528.76	1888.03
529.12	1908.72
529.48	1930.50
529.84	1950.30
530.20	1970.40
530.56	1990.56
530.91	2011.22
531.27	2031.90
531.63	2051.90
531.99	2071.92
532.35	2090.87
532.71	2110.02
533.07	2129.25
533.42	2147.60
533.78	2165.95
534.14	2184.01
534.50	2200.73
534.86	2218.68
535.21	2235.15
535.57	2252.74
535.93	2269.68
536.29	2286.28
536.65	2302.39
537.00	2317.53
537.36	2332.76
537.72	2348.12
538.08	2363.33
538.44	2378.41
538.79	2392.94
539.15	2407.33
539.51	2421.58
539.87	2436.80
540.22	2451.16
540.58	2466.09
540.94	2480.40
541.29	2493.26
541.65	2505.65
542.01	2519.07
542.37	2530.64
542.72	2542.73
543.08	2553.19
543.44	2564.83
543.79	2574.85
544.15	2585.22
544.51	2595.84
544.87	2606.88
545.22	2616.11
545.58	2624.40
545.94	2631.49
546.29	2638.27
546.65	2644.70
547.01	2650.92
547.36	2656.52
547.72	2661.73
548.07	2665.36
548.43	2669.00
548.79	2672.85
549.14	2677.42
549.50	2681.61
549.86	2685.20
550.21	2689.07
550.57	2693.34
550.92	2695.88
551.28	2698.72
551.64	2701.19
551.99	2703.65
552.35	2705.17
552.70	2707.59
553.06	2710.22
553.41	2713.36
553.77	2716.10
554.13	2717.95
554.48	2719.85
554.84	2720.84
555.19	2721.24
555.55	2721.86
555.90	2722.67
556.26	2722.93
556.61	2722.67
556.97	2721.44
557.32	2721.40
557.68	2719.80
558.03	2718.13
558.39	2716.71
558.74	2715.79
559.10	2714.45
559.45	2712.55
559.81	2711.32
560.16	2708.21
560.52	2705.91
560.87	2702.58
561.23	2698.80
561.58	2696.53
561.94	2693.24
562.29	2689.88
562.64	2687.60
563.00	2684.92
563.35	2682.44
563.71	2680.69
564.06	2678.62
564.42	2676.86
564.77	2674.20
565.12	2672.45
565.48	2669.01
565.83	2665.89
566.19	2662.54
566.54	2658.35
566.89	2654.25
567.25	2650.32
567.60	2647.47
567.96	2643.55
568.31	2640.17
568.66	2636.23
569.02	2631.69
569.37	2626.39
569.72	2622.63
570.08	2617.71
570.43	2612.00
570.78	2606.06
571.14	2599.92
571.49	2593.00
571.84	2586.74
572.20	2579.70
572.55	2572.78
572.90	2566.70
573.26	2559.70
573.61	2552.50
573.96	2546.11
574.31	2538.55
574.67	2530.26
575.02	2521.92
575.37	2513.43
575.72	2504.29
576.08	2496.98
576.43	2488.48
576.78	2480.77
577.13	2472.40
577.49	2463.87
577.84	2456.17
578.19	2449.11
578.54	2441.52
578.90	2434.96
579.25	2426.44
579.60	2417.48
579.95	2408.39
580.30	2400.00
580.66	2391.98
581.01	2383.28
581.36	2373.90
581.71	2365.46
582.06	2357.36
582.42	2349.35
582.77	2340.44
583.12	2331.65
583.47	2323.03
583.82	2314.64
584.17	2305.61
584.53	2296.69
584.88	2288.07
585.23	2279.22
585.58	2269.26
585.93	2259.89
586.28	2250.42
586.63	2241.51
586.98	2233.34
587.34	2225.27
587.69	2216.53
588.04	2207.39
588.39	2199.09
588.74	2190.35
589.09	2181.87
589.44	2172.31
589.79	2163.49
590.14	2155.83
590.49	2147.88
590.84	2138.60
591.19	2130.98
591.54	2122.48
591.89	2112.64
592.25	2103.35
592.60	2093.92
592.95	2084.65
593.30	2074.98
593.65	2065.38
594.00	2055.70
594.35	2047.52
594.70	2038.47
595.05	2029.63
595.40	2021.03
595.75	2011.47
596.10	2003.44
596.45	1995.05
596.80	1987.35
597.15	1979.19
597.50	1969.71
597.85	1961.29
598.19	1952.76
598.54	1943.85
598.89	1936.07
599.24	1929.30
599.59	1922.00
599.94	1914.75
600.29	1907.06
600.64	1899.23
600.99	1890.99
601.34	1884.10
601.69	1875.48
602.04	1867.02
602.39	1858.86
602.74	1850.78
603.08	1844.41
603.43	1837.10
603.78	1829.02
604.13	1820.82
604.48	1812.63
604.83	1806.02
605.18	1798.90
605.53	1791.38
605.87	1783.86
606.22	1776.63
606.57	1768.72
606.92	1760.80
607.27	1752.82
607.62	1745.50
607.96	1738.93
608.31	1732.60
608.66	1724.74
609.01	1717.44
609.36	1709.95
609.70	1702.41
610.05	1695.06
610.40	1686.86
610.75	1678.35
611.10	1670.91
611.44	1662.03
611.79	1653.06
612.14	1643.61
612.49	1634.08
612.83	1625.45
613.18	1615.75
613.53	1606.48
613.88	1596.84
614.22	1588.00
614.57	1578.80
614.92	1569.73
615.27	1560.31
615.61	1550.93
615.96	1542.09
616.31	1533.22
616.65	1525.47
617.00	1516.95
617.35	1508.18
617.70	1499.08
618.04	1490.11
618.39	1480.63
618.74	1472.23
619.08	1463.97
619.43	1456.04
619.78	1448.51
620.12	1440.35
620.47	1433.10
620.82	1424.60
621.16	1416.53
621.51	1408.11
621.85	1400.08
622.20	1391.77
622.55	1383.26
622.89	1375.07
623.24	1367.42
623.59	1359.08
623.93	1350.42
624.28	1342.25
624.62	1334.37
624.97	1326.62
625.32	1318.94
625.66	1311.60
626.01	1304.46
626.35	1297.44
626.70	1289.60
627.04	1281.99
627.39	1274.67
627.73	1266.97
628.08	1260.08
628.43	1252.85
628.77	1245.43
629.12	1237.89
629.46	1231.20
629.81	1224.13
630.15	1216.74
630.50	1208.96
630.84	1201.62
631.19	1194.30
631.53	1187.43
631.88	1179.64
632.22	1172.14
632.57	1165.31
632.91	1157.94
633.26	1150.41
633.60	1143.11
633.95	1136.42
634.29	1129.20
634.64	1122.50
634.98	1115.41
635.32	1108.36
635.67	1101.92
636.01	1095.40
636.36	1088.91
636.70	1082.38
637.05	1075.90
637.39	1069.79
637.73	1063.55
638.08	1057.93
638.42	1052.20
638.77	1045.95
639.11	1039.88
639.45	1033.84
639.80	1027.20
640.14	1020.88
640.49	1014.91
640.83	1008.73
641.17	1002.37
641.52	996.17
641.86	989.62
642.20	983.32
642.55	976.61
642.89	970.05
643.23	963.78
643.58	957.82
643.92	951.24
644.26	944.96
644.61	938.72
644.95	932.68
645.29	926.37
645.64	919.69
645.98	913.21
646.32	907.30
646.66	901.19
647.01	895.19
647.35	889.45
647.69	882.95
648.04	877.08
648.38	871.07
648.72	865.20
649.06	859.14
649.41	853.24
649.75	847.49
650.09	841.79
650.43	835.85
650.78	829.64
651.12	823.71
651.46	818.14
651.80	812.35
652.14	806.55
652.49	800.65
652.83	795.06
653.17	789.14
653.51	783.30
653.85	777.54
654.20	771.86
654.54	766.02
654.88	760.74
655.22	754.92
655.56	749.27
655.90	743.55
656.25	737.97
656.59	732.40
656.93	727.43
657.27	722.21
657.61	716.78
657.95	711.72
658.29	706.49
658.64	701.18
658.98	695.88
659.32	690.45
659.66	685.41
660.00	680.05
660.34	674.87
660.68	669.63
661.02	664.64
661.36	660.12
661.70	655.28
662.05	650.56
662.39	646.15
662.73	641.90
663.07	637.58
663.41	633.36
663.75	628.91
664.09	624.19
664.43	619.40
664.77	615.19
665.11	610.66
665.45	606.39
665.79	602.25
666.13	597.93
666.47	593.91
666.81	589.69
667.15	585.84
667.49	582.15
667.83	578.51
668.17	574.69
668.51	570.80
668.85	567.02
669.19	563.35
669.53	559.44
669.87	555.23
670.21	551.43
670.55	547.38
670.89	543.95
671.23	540.56
671.57	537.21
671.91	533.53
672.25	530.17
672.58	526.57
672.92	522.97
673.26	519.99
673.60	516.65
673.94	513.30
674.28	509.88
674.62	506.66
674.96	503.43
675.30	500.41
675.64	497.21
675.97	494.05
676.31	491.05
676.65	488.07
676.99	485.61
677.33	482.62
677.67	479.90
678.01	476.90
678.34	474.00
678.68	471.10
679.02	468.21
679.36	465.35
679.70	462.58
680.04	459.73
680.37	456.71
680.71	453.95
681.05	451.22
681.39	448.59
681.73	445.97
682.06	443.50
682.40	440.91
682.74	438.27
683.08	435.97
683.42	433.32
683.75	430.88
684.09	428.14
684.43	425.68
684.77	423.13
685.10	420.70
685.44	418.15
685.78	415.63
686.12	413.41
686.45	411.15
686.79	408.96
687.13	406.89
687.46	404.67
687.80	402.45
688.14	400.25
688.48	398.11
688.81	395.84
689.15	393.50
689.49	391.16
689.82	388.98
690.16	386.63
690.50	384.35
690.83	382.09
691.17	379.97
691.51	377.80
691.84	375.67
692.18	373.59
692.52	371.72
692.85	369.88
693.19	368.10
693.52	366.15
693.86	364.27
694.20	362.45
694.53	360.59
694.87	358.77
695.21	356.89
695.54	355.02
695.88	353.15
696.21	351.42
696.55	349.76
696.88	347.93
697.22	346.14
697.56	344.63
697.89	342.97
698.23	341.27
698.56	339.58
698.90	338.10
699.23	336.45
699.57	334.86
699.90	333.29
700.24	331.49
700.58	329.88
700.91	328.26
701.25	326.71
701.58	325.31
701.92	323.87
702.25	322.50
702.59	321.11
702.92	319.71
703.26	318.33
703.59	317.15
703.93	316.09
704.26	314.88
704.60	313.52
704.93	312.31
705.26	311.05
705.60	309.94
705.93	308.70
706.27	307.59
706.60	306.40
706.94	305.29
707.27	304.19
707.61	303.05
707.94	301.92
708.27	300.70
708.61	299.55
708.94	298.37
709.28	297.20
709.61	296.15
709.94	295.10
710.28	294.00
710.61	292.85
710.95	291.69
711.28	290.81
711.61	289.80
711.95	288.86
712.28	287.86
712.61	286.85
712.95	285.99
713.28	285.11
713.61	284.13
713.95	283.17
714.28	282.30
714.61	281.43
714.95	280.65
715.28	279.74
715.61	278.81
715.95	277.91
716.28	277.10
716.61	276.16
716.95	275.39
717.28	274.57
717.61	273.70
717.94	272.91
718.28	272.01
718.61	271.34
718.94	270.58
719.27	269.91
719.61	269.20
719.94	268.40
720.27	267.63
720.60	266.85
720.94	266.15
721.27	265.45
721.60	264.81
721.93	264.11
722.27	263.54
722.60	262.89
722.93	262.31
723.26	261.69
723.59	261.16
723.93	260.55
724.26	260.04
724.59	259.53
724.92	258.98
725.25	258.44
725.59	257.83
725.92	257.25
726.25	256.66
726.58	256.23
726.91	255.78
727.24	255.27
727.57	254.87
727.91	254.37
728.24	253.95
728.57	253.50
728.90	253.04
729.23	252.52
729.56	252.24
729.89	251.80
730.22	251.34
730.55	250.84
730.89	250.38
731.22	249.86
731.55	249.42
731.88	248.87
732.21	248.44
732.54	247.94
732.87	247.55
733.20	247.10
733.53	246.59
733.86	246.19
734.19	245.72
734.52	245.34
734.85	245.09
735.18	244.64
735.51	244.28
735.84	243.90
736.17	243.61
736.50	243.11
736.83	242.96
737.16	242.60
737.49	242.26
737.82	241.98
738.15	241.71
738.48	241.26
738.81	240.96
739.14	240.56
739.47	240.29
739.80	239.95
740.13	239.67
740.46	239.34
740.79	238.89
741.12	238.58
741.45	238.21
741.78	237.82
742.11	237.56
742.44	237.18
742.77	236.97
743.10	236.57
743.43	236.29
743.75	235.75
744.08	235.72
744.41	235.40
744.74	235.04
745.07	234.69
745.40	234.60
745.73	234.46
746.06	234.15
746.39	233.75
746.71	233.36
747.04	233.05
747.37	232.75
747.70	232.54
748.03	232.30
748.36	232.09
748.68	231.74
749.01	231.47
749.34	231.25
749.67	230.94
750.00	230.78
750.33	230.61
750.65	230.45
750.98	229.91
751.31	229.66
751.64	229.45
751.97	229.26
752.29	228.93
752.62	228.55
752.95	228.31
753.28	228.19
753.60	228.01
753.93	227.85
754.26	227.63
754.59	227.35
754.91	227.10
755.24	226.89
755.57	226.70
755.90	226.46
756.22	226.20
756.55	225.93
756.88	225.70
757.20	225.41
757.53	225.14
757.86	225.01
758.19	224.84
758.51	224.75
758.84	224.53
759.17	224.32
759.49	224.19
759.82	224.14
760.15	223.93
760.47	223.75
760.80	223.61
761.13	223.52
761.45	223.41
761.78	223.28
762.11	223.18
762.43	223.04
762.76	222.89
763.08	222.78
763.41	222.78
763.74	222.67
764.06	222.52
764.39	222.43
764.71	222.30
765.04	222.18
765.37	221.96
765.69	221.85
766.02	221.75
766.34	221.62
766.67	221.46
767.00	221.45
767.32	221.50
767.65	221.48
767.97	221.35
768.30	221.21
768.62	221.16
768.95	221.00
769.27	220.94
769.60	220.91
769.92	220.81
770.25	220.62
770.57	220.50
770.90	220.43
771.22	220.26
771.55	220.22
771.87	220.14
772.20	220.07
772.52	220.13
772.85	220.24
773.17	220.14
773.50	220.02
773.82	219.86
774.15	219.66
774.47	219.47
774.80	219.41
775.12	219.32
775.45	219.20
775.77	219.17
776.09	219.05
776.42	218.91
776.74	218.85
777.07	218.80
777.39	218.72
777.72	218.65
778.04	218.69
778.36	218.59
778.69	218.55
779.01	218.50
779.33	218.30
779.66	218.12
779.98	218.04
780.31	218.03
780.63	218.03
780.95	217.99
781.28	217.89
781.60	217.83
781.92	217.84
782.25	217.77
782.57	217.64
782.89	217.57
783.22	217.52
783.54	217.44
783.86	217.32
784.19	217.19
784.51	217.14
784.83	217.00
785.16	216.86
785.48	216.82
785.80	216.77
786.12	216.73
786.45	216.59
