SpectraSuite Data File
++++++++++++++++++++++++++++++++++++
Date: Mon Feb 25 17:32:37 EST 2013
User: group
Dark Spectrum Present: No
Reference Spectrum Present: No
Number of Sampled Component Spectra: 1
Spectrometers: USB2E7196
Integration Time (usec): 52000 (USB2E7196)
Spectra Averaged: 20 (USB2E7196)
Boxcar Smoothing: 10 (USB2E7196)
Correct for Electrical Dark: No (USB2E7196)
Strobe/Lamp Enabled: No (USB2E7196)
Correct for Detector Non-linearity: No (USB2E7196)
Correct for Stray Light: No (USB2E7196)
Number of Pixels in Processed Spectrum: 2048
>>>>>Begin Processed Spectral Data<<<<<
339.09	0.00
339.48	197.75
339.86	198.35
340.24	200.15
340.63	201.20
341.01	205.80
341.39	203.95
341.78	206.70
342.16	207.60
342.54	206.05
342.93	196.91
343.31	206.90
343.69	207.42
344.07	207.94
344.46	208.42
344.84	208.84
345.22	209.04
345.60	209.37
345.99	209.61
346.37	209.82
346.75	210.07
347.13	210.22
347.52	210.35
347.90	210.57
348.28	210.66
348.66	210.76
349.05	210.74
349.43	210.84
349.81	210.97
350.19	211.09
350.57	211.15
350.96	211.26
351.34	211.35
351.72	211.51
352.10	211.64
352.48	211.75
352.87	211.87
353.25	212.01
353.63	212.10
354.01	212.17
354.39	212.24
354.77	212.30
355.15	212.44
355.54	212.58
355.92	212.54
356.30	212.70
356.68	212.90
357.06	213.06
357.44	213.12
357.82	213.22
358.20	213.32
358.58	213.44
358.97	213.51
359.35	213.67
359.73	213.83
360.11	213.96
360.49	214.05
360.87	214.17
361.25	214.23
361.63	214.41
362.01	214.43
362.39	214.46
362.77	214.60
363.15	214.67
363.53	214.70
363.91	214.76
364.29	214.81
364.67	214.66
365.05	214.70
365.43	214.79
365.81	214.86
366.19	214.96
366.57	214.99
366.95	215.02
367.33	215.05
367.71	215.02
368.09	215.03
368.47	214.99
368.85	214.95
369.23	214.98
369.61	214.90
369.99	214.99
370.37	214.98
370.75	215.00
371.13	214.80
371.51	214.81
371.89	214.79
372.27	214.69
372.65	214.63
373.03	214.61
373.41	214.51
373.78	214.47
374.16	214.37
374.54	214.28
374.92	214.14
375.30	214.01
375.68	213.95
376.06	213.92
376.44	213.90
376.82	213.81
377.19	213.75
377.57	213.65
377.95	213.53
378.33	213.49
378.71	213.32
379.09	213.30
379.47	213.18
379.84	213.18
380.22	213.14
380.60	213.13
380.98	213.12
381.36	213.05
381.73	212.97
382.11	212.95
382.49	212.91
382.87	212.86
383.25	212.78
383.62	213.00
384.00	212.85
384.38	212.81
384.76	212.79
385.13	212.87
385.51	212.77
385.89	212.72
386.27	212.67
386.64	212.71
387.02	212.65
387.40	212.65
387.78	212.64
388.15	212.61
388.53	212.54
388.91	212.41
389.29	212.36
389.66	212.32
390.04	212.18
390.42	212.18
390.79	212.21
391.17	212.19
391.55	211.86
391.92	211.89
392.30	211.85
392.68	211.88
393.05	211.79
393.43	211.84
393.81	211.80
394.18	211.75
394.56	211.73
394.94	211.83
395.31	211.81
395.69	211.79
396.06	211.82
396.44	211.90
396.82	211.91
397.19	212.03
397.57	212.03
397.95	212.11
398.32	212.05
398.70	212.10
399.07	212.23
399.45	212.31
399.82	212.29
400.20	212.28
400.58	212.24
400.95	212.22
401.33	212.35
401.70	212.56
402.08	212.60
402.45	212.64
402.83	212.70
403.20	212.72
403.58	212.79
403.95	212.89
404.33	213.01
404.71	213.16
405.08	213.30
405.46	213.42
405.83	213.50
406.21	213.66
406.58	213.77
406.96	213.90
407.33	213.96
407.70	214.17
408.08	214.52
408.45	214.79
408.83	215.05
409.20	215.19
409.58	215.32
409.95	215.64
410.33	215.95
410.70	216.22
411.08	216.55
411.45	216.87
411.82	217.22
412.20	217.59
412.57	218.08
412.95	218.38
413.32	218.91
413.69	219.42
414.07	219.94
414.44	220.52
414.82	221.12
415.19	221.95
415.56	222.75
415.94	223.43
416.31	224.28
416.68	225.11
417.06	226.16
417.43	227.13
417.81	228.25
418.18	229.38
418.55	230.59
418.93	231.87
419.30	233.20
419.67	234.61
420.04	236.04
420.42	237.47
420.79	239.30
421.16	241.00
421.54	242.87
421.91	244.65
422.28	246.62
422.66	248.68
423.03	250.64
423.40	252.62
423.77	254.85
424.15	257.14
424.52	259.38
424.89	261.85
425.26	264.27
425.64	266.60
426.01	269.11
426.38	271.77
426.75	274.45
427.13	277.24
427.50	280.12
427.87	283.25
428.24	286.33
428.61	289.23
428.99	292.46
429.36	295.94
429.73	299.41
430.10	302.82
430.47	306.37
430.85	310.06
431.22	314.07
431.59	318.24
431.96	322.12
432.33	326.55
432.70	330.73
433.08	335.60
433.45	340.19
433.82	344.74
434.19	349.79
434.56	354.86
434.93	359.67
435.30	364.50
435.68	369.61
436.05	374.74
436.42	379.82
436.79	384.60
437.16	389.62
437.53	394.99
437.90	400.20
438.27	405.27
438.64	410.58
439.01	415.51
439.38	419.94
439.75	424.20
440.13	429.00
440.50	433.60
440.87	437.26
441.24	441.13
441.61	445.48
441.98	448.54
442.35	452.05
442.72	455.62
443.09	459.08
443.46	461.15
443.83	462.54
444.20	463.66
444.57	465.33
444.94	466.08
445.31	466.83
445.68	467.63
446.05	467.92
446.42	467.21
446.79	466.37
447.16	465.42
447.53	464.61
447.90	462.52
448.27	460.45
448.64	457.55
449.01	455.50
449.37	451.78
449.74	448.35
450.11	444.27
450.48	439.65
450.85	435.05
451.22	431.15
451.59	427.48
451.96	424.01
452.33	419.33
452.70	414.97
453.07	409.91
453.43	404.65
453.80	399.71
454.17	395.04
454.54	390.46
454.91	385.69
455.28	381.16
455.65	376.76
456.02	372.30
456.38	368.62
456.75	363.95
457.12	360.12
457.49	356.34
457.86	352.66
458.23	349.67
458.59	346.24
458.96	342.79
459.33	339.64
459.70	336.46
460.07	333.89
460.43	331.11
460.80	328.35
461.17	326.02
461.54	323.48
461.91	321.12
462.27	318.85
462.64	316.85
463.01	314.59
463.38	312.58
463.74	310.48
464.11	308.71
464.48	307.11
464.85	305.41
465.21	304.12
465.58	302.65
465.95	300.85
466.32	299.35
466.68	298.01
467.05	296.58
467.42	295.14
467.78	293.71
468.15	292.32
468.52	291.45
468.88	290.22
469.25	289.06
469.62	288.14
469.98	287.09
470.35	286.18
470.72	285.30
471.08	284.30
471.45	283.47
471.82	282.74
472.18	281.79
472.55	281.14
472.92	280.36
473.28	279.83
473.65	279.28
474.02	278.75
474.38	278.22
474.75	277.90
475.11	277.62
475.48	277.33
475.85	277.15
476.21	276.84
476.58	276.72
476.94	276.68
477.31	276.58
477.67	276.55
478.04	276.51
478.41	276.69
478.77	276.95
479.14	277.19
479.50	277.39
479.87	277.84
480.23	278.28
480.60	278.58
480.96	278.95
481.33	279.55
481.69	280.18
482.06	280.82
482.42	281.47
482.79	282.12
483.15	283.01
483.52	284.03
483.88	285.04
484.25	285.93
484.61	287.01
484.98	288.10
485.34	289.43
485.71	290.80
486.07	292.14
486.44	293.47
486.80	294.90
487.17	296.50
487.53	298.18
487.90	299.96
488.26	301.99
488.62	304.14
488.99	306.21
489.35	308.32
489.72	310.66
490.08	312.99
490.44	315.54
490.81	318.28
491.17	320.91
491.54	323.82
491.90	326.83
492.26	330.09
492.63	333.43
492.99	336.94
493.36	340.55
493.72	344.49
494.08	348.48
494.45	352.85
494.81	357.29
495.17	361.82
495.54	366.68
495.90	371.71
496.26	376.86
496.63	382.33
496.99	388.04
497.35	393.98
497.72	400.40
498.08	406.91
498.44	413.69
498.80	420.84
499.17	428.35
499.53	436.13
499.89	444.03
500.26	452.27
500.62	460.55
500.98	469.45
501.34	478.51
501.71	488.03
502.07	497.55
502.43	507.55
502.79	517.86
503.16	528.52
503.52	539.50
503.88	550.65
504.24	562.37
504.60	574.40
504.97	586.78
505.33	599.22
505.69	612.48
506.05	625.75
506.41	639.46
506.78	653.12
507.14	667.11
507.50	681.74
507.86	696.68
508.22	712.08
508.59	727.52
508.95	743.50
509.31	759.59
509.67	776.25
510.03	793.12
510.39	810.54
510.75	828.26
511.12	846.34
511.48	864.71
511.84	883.23
512.20	902.00
512.56	921.12
512.92	940.42
513.28	959.70
513.64	979.34
514.00	999.05
514.37	1019.44
514.73	1040.27
515.09	1060.92
515.45	1081.50
515.81	1102.56
516.17	1123.79
516.53	1144.99
516.89	1166.60
517.25	1188.24
517.61	1209.90
517.97	1231.45
518.33	1253.00
518.69	1274.48
519.05	1296.59
519.41	1318.51
519.77	1340.79
520.13	1362.87
520.49	1385.04
520.85	1407.88
521.21	1430.34
521.57	1453.25
521.93	1475.31
522.29	1498.25
522.65	1520.84
523.01	1543.56
523.37	1565.60
523.73	1587.89
524.09	1610.18
524.45	1632.60
524.81	1655.08
525.17	1677.39
525.53	1699.81
525.89	1722.15
526.25	1744.35
526.61	1765.72
526.97	1787.64
527.33	1809.19
527.68	1830.45
528.04	1851.71
528.40	1871.50
528.76	1892.40
529.12	1913.15
529.48	1934.68
529.84	1954.70
530.20	1974.82
530.56	1994.96
530.91	2015.83
531.27	2036.32
531.63	2056.02
531.99	2075.66
532.35	2094.61
532.71	2113.66
533.07	2133.27
533.42	2151.61
533.78	2170.16
534.14	2188.50
534.50	2205.25
534.86	2222.72
535.21	2239.66
535.57	2257.39
535.93	2275.24
536.29	2291.88
536.65	2308.04
537.00	2323.30
537.36	2338.45
537.72	2353.85
538.08	2369.28
538.44	2384.50
538.79	2399.45
539.15	2414.66
539.51	2429.01
539.87	2444.01
540.22	2458.31
540.58	2472.75
540.94	2487.28
541.29	2500.43
541.65	2512.48
542.01	2525.95
542.37	2538.06
542.72	2550.39
543.08	2561.30
543.44	2572.97
543.79	2583.31
544.15	2593.99
544.51	2604.77
544.87	2615.97
545.22	2625.20
545.58	2633.66
545.94	2640.61
546.29	2646.74
546.65	2653.05
547.01	2659.19
547.36	2664.96
547.72	2670.41
548.07	2674.42
548.43	2678.27
548.79	2681.92
549.14	2686.70
549.50	2690.79
549.86	2694.87
550.21	2698.76
550.57	2702.59
550.92	2705.27
551.28	2707.94
551.64	2710.33
551.99	2713.15
552.35	2714.70
552.70	2717.33
553.06	2720.11
553.41	2723.15
553.77	2726.50
554.13	2728.60
554.48	2730.88
554.84	2732.69
555.19	2733.31
555.55	2733.62
555.90	2733.78
556.26	2734.24
556.61	2734.26
556.97	2733.07
557.32	2732.30
557.68	2730.53
558.03	2729.36
558.39	2727.72
558.74	2727.03
559.10	2725.43
559.45	2723.23
559.81	2721.80
560.16	2718.95
560.52	2716.31
560.87	2713.40
561.23	2709.65
561.58	2707.22
561.94	2703.81
562.29	2699.83
562.64	2697.64
563.00	2695.28
563.35	2693.46
563.71	2691.65
564.06	2689.33
564.42	2687.69
564.77	2685.45
565.12	2683.74
565.48	2680.14
565.83	2677.09
566.19	2674.10
566.54	2670.05
566.89	2666.19
567.25	2662.33
567.60	2659.04
567.96	2655.35
568.31	2651.65
568.66	2647.43
569.02	2642.71
569.37	2637.69
569.72	2633.57
570.08	2628.29
570.43	2622.50
570.78	2616.51
571.14	2610.24
571.49	2603.61
571.84	2597.62
572.20	2590.58
572.55	2583.91
572.90	2577.42
573.26	2570.85
573.61	2563.77
573.96	2557.16
574.31	2549.58
574.67	2541.63
575.02	2533.14
575.37	2524.72
575.72	2515.80
576.08	2508.60
576.43	2499.89
576.78	2492.17
577.13	2484.21
577.49	2476.01
577.84	2468.81
578.19	2461.22
578.54	2453.67
578.90	2446.97
579.25	2438.21
579.60	2429.18
579.95	2420.29
580.30	2412.14
580.66	2403.70
581.01	2394.63
581.36	2385.36
581.71	2377.07
582.06	2368.48
582.42	2360.35
582.77	2351.40
583.12	2342.55
583.47	2333.95
583.82	2325.73
584.17	2316.43
584.53	2307.31
584.88	2298.77
585.23	2289.20
585.58	2279.59
585.93	2270.15
586.28	2260.76
586.63	2251.69
586.98	2243.41
587.34	2234.82
587.69	2225.67
588.04	2216.55
588.39	2208.15
588.74	2199.39
589.09	2190.38
589.44	2180.91
589.79	2172.40
590.14	2164.30
590.49	2156.07
590.84	2147.06
591.19	2139.09
591.54	2130.42
591.89	2120.47
592.25	2111.21
592.60	2101.71
592.95	2092.60
593.30	2083.07
593.65	2073.20
594.00	2063.71
594.35	2055.57
594.70	2046.35
595.05	2038.05
595.40	2029.33
595.75	2019.79
596.10	2011.54
596.45	2003.04
596.80	1995.46
597.15	1986.98
597.50	1977.87
597.85	1969.63
598.19	1960.98
598.54	1952.34
598.89	1944.62
599.24	1937.98
599.59	1930.52
599.94	1923.66
600.29	1915.65
600.64	1907.79
600.99	1899.60
601.34	1892.48
601.69	1883.64
602.04	1875.49
602.39	1867.25
602.74	1859.38
603.08	1852.80
603.43	1845.40
603.78	1837.65
604.13	1829.66
604.48	1822.05
604.83	1815.17
605.18	1807.99
605.53	1800.38
605.87	1792.63
606.22	1785.54
606.57	1777.70
606.92	1769.46
607.27	1761.37
607.62	1754.03
607.96	1747.48
608.31	1741.16
608.66	1733.30
609.01	1725.67
609.36	1717.94
609.70	1709.85
610.05	1702.05
610.40	1693.41
610.75	1685.16
611.10	1677.43
611.44	1668.08
611.79	1658.93
612.14	1649.73
612.49	1640.14
612.83	1631.51
613.18	1621.85
613.53	1612.47
613.88	1602.70
614.22	1593.83
614.57	1584.54
614.92	1575.50
615.27	1566.02
615.61	1556.34
615.96	1547.50
616.31	1539.13
616.65	1531.50
617.00	1523.15
617.35	1514.54
617.70	1506.02
618.04	1497.21
618.39	1487.72
618.74	1479.95
619.08	1471.34
619.43	1463.00
619.78	1455.17
620.12	1447.13
620.47	1439.47
620.82	1430.90
621.16	1422.90
621.51	1414.75
621.85	1406.60
622.20	1398.08
622.55	1389.65
622.89	1381.23
623.24	1373.27
623.59	1364.64
623.93	1355.78
624.28	1347.72
624.62	1339.52
624.97	1331.22
625.32	1323.41
625.66	1315.94
626.01	1308.36
626.35	1301.18
626.70	1293.35
627.04	1286.08
627.39	1278.32
627.73	1270.76
628.08	1263.67
628.43	1256.03
628.77	1248.50
629.12	1241.07
629.46	1234.43
629.81	1227.08
630.15	1220.06
630.50	1212.53
630.84	1205.48
631.19	1198.26
631.53	1191.26
631.88	1183.65
632.22	1176.34
632.57	1169.15
632.91	1161.81
633.26	1154.25
633.60	1147.18
633.95	1140.60
634.29	1133.19
634.64	1126.51
634.98	1119.51
635.32	1112.61
635.67	1106.27
636.01	1099.62
636.36	1092.99
636.70	1086.21
637.05	1079.65
637.39	1073.22
637.73	1066.92
638.08	1061.00
638.42	1055.25
638.77	1048.93
639.11	1042.83
639.45	1036.79
639.80	1030.31
640.14	1024.02
640.49	1017.76
640.83	1011.45
641.17	1005.00
641.52	998.89
641.86	992.35
642.20	986.18
642.55	979.39
642.89	972.91
643.23	966.54
643.58	960.50
643.92	954.00
644.26	947.98
644.61	941.79
644.95	935.75
645.29	929.33
645.64	922.67
645.98	916.32
646.32	910.45
646.66	904.09
647.01	898.18
647.35	892.30
647.69	886.17
648.04	880.21
648.38	874.26
648.72	868.11
649.06	862.00
649.41	856.11
649.75	850.39
650.09	844.48
650.43	838.70
650.78	832.44
651.12	826.49
651.46	820.45
651.80	814.67
652.14	808.82
652.49	802.98
652.83	797.20
653.17	791.16
653.51	785.15
653.85	779.84
654.20	774.03
654.54	768.27
654.88	762.83
655.22	757.06
655.56	751.25
655.90	745.54
656.25	739.94
656.59	734.38
656.93	729.29
657.27	724.15
657.61	718.66
657.95	713.70
658.29	708.60
658.64	703.61
658.98	698.37
659.32	692.94
659.66	687.75
660.00	682.42
660.34	677.27
660.68	672.36
661.02	667.10
661.36	662.39
661.70	657.52
662.05	652.67
662.39	648.19
662.73	643.97
663.07	639.71
663.41	635.38
663.75	630.89
664.09	626.03
664.43	621.21
664.77	616.82
665.11	612.23
665.45	607.90
665.79	603.39
666.13	599.08
666.47	595.03
666.81	591.13
667.15	587.28
667.49	583.50
667.83	579.51
668.17	575.67
668.51	571.85
668.85	568.21
669.19	564.59
669.53	560.69
669.87	556.63
670.21	552.64
670.55	548.78
670.89	545.34
671.23	542.13
671.57	538.71
671.91	535.25
672.25	531.91
672.58	528.42
672.92	525.07
673.26	521.91
673.60	518.60
673.94	514.97
674.28	511.59
674.62	508.26
674.96	505.08
675.30	502.09
675.64	498.84
675.97	495.80
676.31	492.71
676.65	489.96
676.99	487.20
677.33	484.36
677.67	481.43
678.01	478.37
678.34	475.30
678.68	472.47
679.02	469.46
679.36	466.51
679.70	463.81
680.04	461.00
680.37	457.96
680.71	455.16
681.05	452.50
681.39	449.83
681.73	447.34
682.06	444.87
682.40	442.19
682.74	439.58
683.08	436.95
683.42	434.24
683.75	431.57
684.09	428.90
684.43	426.49
684.77	423.89
685.10	421.34
685.44	418.93
685.78	416.46
686.12	414.26
686.45	411.94
686.79	409.62
687.13	407.44
687.46	405.40
687.80	403.23
688.14	401.08
688.48	398.95
688.81	396.63
689.15	394.28
689.49	391.98
689.82	389.80
690.16	387.57
690.50	385.42
690.83	383.17
691.17	381.10
691.51	378.80
691.84	376.73
692.18	374.62
692.52	372.53
692.85	370.65
693.19	368.82
693.52	366.92
693.86	365.00
694.20	363.08
694.53	361.12
694.87	359.16
695.21	357.29
695.54	355.34
695.88	353.61
696.21	351.83
696.55	350.16
696.88	348.41
697.22	346.65
697.56	345.13
697.89	343.50
698.23	341.79
698.56	340.24
698.90	338.79
699.23	337.30
699.57	335.81
699.90	334.20
700.24	332.41
700.58	330.85
700.91	329.25
701.25	327.88
701.58	326.54
701.92	325.10
702.25	323.74
702.59	322.42
702.92	320.99
703.26	319.70
703.59	318.38
703.93	317.29
704.26	316.06
704.60	314.68
704.93	313.50
705.26	312.35
705.60	311.11
705.93	309.88
706.27	308.78
706.60	307.69
706.94	306.60
707.27	305.56
707.61	304.40
707.94	303.29
708.27	302.05
708.61	300.86
708.94	299.83
709.28	298.70
709.61	297.56
709.94	296.53
710.28	295.43
710.61	294.42
710.95	293.20
711.28	292.21
711.61	291.20
711.95	290.21
712.28	289.10
712.61	288.12
712.95	287.23
713.28	286.25
713.61	285.29
713.95	284.35
714.28	283.40
714.61	282.53
714.95	281.68
715.28	280.69
715.61	279.68
715.95	278.67
716.28	277.67
716.61	276.85
716.95	275.95
717.28	275.14
717.61	274.23
717.94	273.43
718.28	272.49
718.61	271.71
718.94	270.90
719.27	270.20
719.61	269.50
719.94	268.80
720.27	268.00
720.60	267.24
720.94	266.52
721.27	265.83
721.60	265.06
721.93	264.36
722.27	263.85
722.60	263.27
722.93	262.73
723.26	262.31
723.59	261.60
723.93	260.99
724.26	260.38
724.59	259.88
724.92	259.27
725.25	258.85
725.59	258.32
725.92	257.74
726.25	257.17
726.58	256.71
726.91	256.14
727.24	255.64
727.57	255.13
727.91	254.62
728.24	254.18
728.57	253.77
728.90	253.31
729.23	252.71
729.56	252.33
729.89	251.93
730.22	251.36
730.55	250.95
730.89	250.50
731.22	250.01
731.55	249.55
731.88	249.15
732.21	248.68
732.54	248.27
732.87	247.84
733.20	247.41
733.53	246.87
733.86	246.40
734.19	245.97
734.52	245.58
734.85	245.33
735.18	244.87
735.51	244.58
735.84	244.19
736.17	243.87
736.50	243.44
736.83	243.19
737.16	242.89
737.49	242.56
737.82	242.24
738.15	241.92
738.48	241.54
738.81	241.18
739.14	240.76
739.47	240.40
739.80	240.15
740.13	239.85
740.46	239.53
740.79	239.20
741.12	238.88
741.45	238.51
741.78	238.05
742.11	237.79
742.44	237.43
742.77	237.17
743.10	236.85
743.43	236.55
743.75	236.02
744.08	235.90
744.41	235.60
744.74	235.35
745.07	235.05
745.40	234.77
745.73	234.62
746.06	234.44
746.39	234.15
746.71	233.79
747.04	233.52
747.37	233.19
747.70	232.94
748.03	232.65
748.36	232.42
748.68	232.18
749.01	231.91
749.34	231.64
749.67	231.37
750.00	231.20
750.33	231.07
750.65	230.90
750.98	230.39
751.31	230.15
751.64	229.83
751.97	229.70
752.29	229.47
752.62	229.17
752.95	228.86
753.28	228.69
753.60	228.53
753.93	228.33
754.26	228.17
754.59	227.95
754.91	227.76
755.24	227.58
755.57	227.42
755.90	227.21
756.22	226.97
756.55	226.78
756.88	226.52
757.20	226.22
757.53	225.99
757.86	225.81
758.19	225.63
758.51	225.53
758.84	225.20
759.17	225.03
759.49	224.79
759.82	224.70
760.15	224.44
760.47	224.24
760.80	224.05
761.13	223.92
761.45	223.82
761.78	223.66
762.11	223.48
762.43	223.26
762.76	223.07
763.08	222.94
763.41	222.75
763.74	222.62
764.06	222.47
764.39	222.35
764.71	222.22
765.04	222.08
765.37	221.90
765.69	221.78
766.02	221.63
766.34	221.56
766.67	221.40
767.00	221.34
767.32	221.31
767.65	221.24
767.97	221.08
768.30	220.94
768.62	220.76
768.95	220.63
769.27	220.59
769.60	220.51
769.92	220.43
770.25	220.32
770.57	220.16
770.90	220.07
771.22	219.93
771.55	219.89
771.87	219.80
772.20	219.69
772.52	219.73
772.85	219.88
773.17	219.81
773.50	219.73
773.82	219.61
774.15	219.52
774.47	219.39
774.80	219.35
775.12	219.23
775.45	219.21
775.77	219.11
776.09	218.98
776.42	218.93
776.74	218.91
777.07	218.71
777.39	218.68
777.72	218.62
778.04	218.61
778.36	218.45
778.69	218.40
779.01	218.33
779.33	218.10
779.66	217.81
779.98	217.57
780.31	217.50
780.63	217.50
780.95	217.36
781.28	217.28
781.60	217.17
781.92	217.13
782.25	217.05
782.57	216.99
782.89	216.92
783.22	216.87
783.54	216.70
783.86	216.75
784.19	216.70
784.51	216.70
784.83	216.53
785.16	216.48
785.48	216.34
785.80	216.28
786.12	216.31
786.45	216.32
