SpectraSuite Data File
++++++++++++++++++++++++++++++++++++
Date: Mon Feb 25 17:33:00 EST 2013
User: group
Dark Spectrum Present: No
Reference Spectrum Present: No
Number of Sampled Component Spectra: 1
Spectrometers: USB2E7196
Integration Time (usec): 52000 (USB2E7196)
Spectra Averaged: 20 (USB2E7196)
Boxcar Smoothing: 10 (USB2E7196)
Correct for Electrical Dark: No (USB2E7196)
Strobe/Lamp Enabled: No (USB2E7196)
Correct for Detector Non-linearity: No (USB2E7196)
Correct for Stray Light: No (USB2E7196)
Number of Pixels in Processed Spectrum: 2048
>>>>>Begin Processed Spectral Data<<<<<
339.09	0.00
339.48	198.25
339.86	200.05
340.24	201.65
340.63	204.20
341.01	208.20
341.39	206.15
341.78	209.05
342.16	208.60
342.54	208.60
342.93	198.40
343.31	208.46
343.69	209.00
344.07	209.48
344.46	209.91
344.84	210.28
345.22	210.43
345.60	210.71
345.99	210.85
346.37	210.95
346.75	211.10
347.13	211.25
347.52	211.30
347.90	211.50
348.28	211.49
348.66	211.57
349.05	211.50
349.43	211.53
349.81	211.68
350.19	211.71
350.57	211.75
350.96	211.81
351.34	211.92
351.72	212.03
352.10	212.13
352.48	212.21
352.87	212.21
353.25	212.31
353.63	212.38
354.01	212.41
354.39	212.50
354.77	212.60
355.15	212.65
355.54	212.71
355.92	212.67
356.30	212.78
356.68	212.94
357.06	213.04
357.44	213.07
357.82	213.01
358.20	213.09
358.58	213.15
358.97	213.22
359.35	213.23
359.73	213.40
360.11	213.35
360.49	213.45
360.87	213.49
361.25	213.52
361.63	213.61
362.01	213.72
362.39	213.78
362.77	213.80
363.15	213.80
363.53	213.86
363.91	213.90
364.29	213.87
364.67	213.72
365.05	213.75
365.43	213.79
365.81	213.87
366.19	213.96
366.57	214.01
366.95	213.99
367.33	213.92
367.71	213.88
368.09	214.01
368.47	214.01
368.85	214.02
369.23	214.04
369.61	213.95
369.99	213.98
370.37	214.02
370.75	214.07
371.13	214.09
371.51	213.98
371.89	214.03
372.27	214.03
372.65	214.04
373.03	214.05
373.41	214.06
373.78	213.99
374.16	213.90
374.54	213.85
374.92	213.79
375.30	213.83
375.68	213.74
376.06	213.68
376.44	213.59
376.82	213.60
377.19	213.57
377.57	213.51
377.95	213.45
378.33	213.40
378.71	213.25
379.09	213.21
379.47	213.22
379.84	213.07
380.22	212.98
380.60	212.91
380.98	212.88
381.36	212.76
381.73	212.72
382.11	212.75
382.49	212.67
382.87	212.57
383.25	212.45
383.62	212.55
384.00	212.49
384.38	212.37
384.76	212.35
385.13	212.33
385.51	212.28
385.89	212.09
386.27	212.01
386.64	212.02
387.02	211.93
387.40	211.86
387.78	211.88
388.15	211.88
388.53	211.81
388.91	211.72
389.29	211.73
389.66	211.73
390.04	211.66
390.42	211.73
390.79	211.72
391.17	211.80
391.55	211.65
391.92	211.66
392.30	211.71
392.68	211.70
393.05	211.74
393.43	211.78
393.81	211.85
394.18	211.82
394.56	211.80
394.94	211.83
395.31	211.89
395.69	211.96
396.06	212.02
396.44	212.13
396.82	212.14
397.19	212.17
397.57	212.21
397.95	212.28
398.32	212.15
398.70	212.22
399.07	212.26
399.45	212.21
399.82	212.20
400.20	212.25
400.58	212.28
400.95	212.12
401.33	212.15
401.70	212.36
402.08	212.42
402.45	212.43
402.83	212.48
403.20	212.55
403.58	212.58
403.95	212.65
404.33	212.69
404.71	212.77
405.08	212.95
405.46	213.03
405.83	213.05
406.21	213.23
406.58	213.41
406.96	213.56
407.33	213.78
407.70	214.00
408.08	214.35
408.45	214.50
408.83	214.85
409.20	214.99
409.58	215.05
409.95	215.37
410.33	215.68
410.70	216.01
411.08	216.32
411.45	216.71
411.82	217.02
412.20	217.44
412.57	217.97
412.95	218.34
413.32	218.84
413.69	219.46
414.07	220.02
414.44	220.56
414.82	221.15
415.19	221.91
415.56	222.67
415.94	223.31
416.31	224.24
416.68	225.12
417.06	226.23
417.43	227.29
417.81	228.39
418.18	229.61
418.55	230.78
418.93	232.10
419.30	233.40
419.67	234.85
420.04	236.23
420.42	237.72
420.79	239.50
421.16	241.20
421.54	243.07
421.91	244.94
422.28	246.86
422.66	248.93
423.03	250.93
423.40	253.03
423.77	255.21
424.15	257.41
424.52	259.73
424.89	262.26
425.26	264.70
425.64	266.95
426.01	269.46
426.38	272.17
426.75	274.86
427.13	277.61
427.50	280.59
427.87	283.74
428.24	286.80
428.61	289.66
428.99	292.97
429.36	296.39
429.73	299.84
430.10	303.43
430.47	307.00
430.85	310.63
431.22	314.51
431.59	318.69
431.96	322.65
432.33	327.05
432.70	331.28
433.08	336.22
433.45	340.91
433.82	345.47
434.19	350.61
434.56	355.53
434.93	360.40
435.30	365.09
435.68	370.29
436.05	375.40
436.42	380.57
436.79	385.29
437.16	390.34
437.53	395.70
437.90	400.85
438.27	405.93
438.64	411.47
439.01	416.39
439.38	420.76
439.75	425.04
440.13	429.80
440.50	434.24
440.87	437.96
441.24	441.82
441.61	446.17
441.98	449.21
442.35	452.91
442.72	456.52
443.09	460.15
443.46	462.27
443.83	463.78
444.20	465.09
444.57	466.72
444.94	467.50
445.31	468.30
445.68	469.20
446.05	469.40
446.42	468.67
446.79	467.84
447.16	466.96
447.53	466.38
447.90	464.25
448.27	462.17
448.64	459.27
449.01	457.10
449.37	453.41
449.74	449.93
450.11	445.79
450.48	441.26
450.85	436.53
451.22	432.53
451.59	428.63
451.96	424.88
452.33	420.22
452.70	415.84
453.07	410.64
453.43	405.20
453.80	400.26
454.17	395.36
454.54	390.95
454.91	386.22
455.28	381.37
455.65	377.00
456.02	372.69
456.38	368.85
456.75	364.24
457.12	360.30
457.49	356.45
457.86	352.70
458.23	349.43
458.59	345.99
458.96	342.47
459.33	339.34
459.70	336.15
460.07	333.55
460.43	330.77
460.80	328.11
461.17	325.70
461.54	323.27
461.91	321.00
462.27	318.56
462.64	316.44
463.01	314.25
463.38	312.06
463.74	309.88
464.11	308.07
464.48	306.42
464.85	304.70
465.21	303.38
465.58	301.85
465.95	300.24
466.32	298.74
466.68	297.42
467.05	296.04
467.42	294.77
467.78	293.42
468.15	292.07
468.52	290.97
468.88	289.70
469.25	288.42
469.62	287.49
469.98	286.51
470.35	285.64
470.72	284.84
471.08	284.00
471.45	283.13
471.82	282.33
472.18	281.53
472.55	280.94
472.92	280.25
473.28	279.77
473.65	279.18
474.02	278.68
474.38	278.19
474.75	277.93
475.11	277.51
475.48	277.21
475.85	277.01
476.21	276.88
476.58	276.83
476.94	276.91
477.31	276.81
477.67	276.78
478.04	276.82
478.41	276.86
478.77	277.12
479.14	277.32
479.50	277.63
479.87	277.91
480.23	278.31
480.60	278.63
480.96	278.95
481.33	279.61
481.69	280.24
482.06	280.86
482.42	281.50
482.79	282.22
483.15	283.09
483.52	284.01
483.88	284.99
484.25	285.99
484.61	287.09
484.98	288.11
485.34	289.37
485.71	290.70
486.07	292.16
486.44	293.40
486.80	294.95
487.17	296.52
487.53	298.29
487.90	300.09
488.26	302.11
488.62	304.20
488.99	306.18
489.35	308.32
489.72	310.60
490.08	312.91
490.44	315.41
490.81	318.04
491.17	320.73
491.54	323.65
491.90	326.58
492.26	329.75
492.63	333.20
492.99	336.72
493.36	340.39
493.72	344.19
494.08	348.17
494.45	352.47
494.81	356.93
495.17	361.55
495.54	366.55
495.90	371.55
496.26	376.86
496.63	382.33
496.99	388.19
497.35	394.24
497.72	400.52
498.08	407.01
498.44	413.61
498.80	420.78
499.17	428.15
499.53	435.79
499.89	443.71
500.26	451.85
500.62	460.14
500.98	468.98
501.34	478.07
501.71	487.64
502.07	497.27
502.43	507.20
502.79	517.34
503.16	527.91
503.52	538.94
503.88	550.04
504.24	561.61
504.60	573.37
504.97	585.60
505.33	598.04
505.69	611.32
506.05	624.87
506.41	638.53
506.78	652.28
507.14	666.60
507.50	681.25
507.86	696.16
508.22	711.58
508.59	727.04
508.95	743.03
509.31	759.25
509.67	775.96
510.03	793.05
510.39	810.58
510.75	828.18
511.12	846.05
511.48	864.40
511.84	883.07
512.20	901.77
512.56	921.08
512.92	940.80
513.28	960.26
513.64	980.00
514.00	999.80
514.37	1020.16
514.73	1040.85
515.09	1061.45
515.45	1082.30
515.81	1103.31
516.17	1124.40
516.53	1145.94
516.89	1167.35
517.25	1188.68
517.61	1210.51
517.97	1232.31
518.33	1253.96
518.69	1276.06
519.05	1298.23
519.41	1320.40
519.77	1342.86
520.13	1365.01
520.49	1387.04
520.85	1409.68
521.21	1432.03
521.57	1455.06
521.93	1477.16
522.29	1499.93
522.65	1522.61
523.01	1545.20
523.37	1567.45
523.73	1590.07
524.09	1612.05
524.45	1634.47
524.81	1657.16
525.17	1679.30
525.53	1701.48
525.89	1723.91
526.25	1745.55
526.61	1766.74
526.97	1788.45
527.33	1809.99
527.68	1831.39
528.04	1852.45
528.40	1872.81
528.76	1893.84
529.12	1914.27
529.48	1936.01
529.84	1956.33
530.20	1976.54
530.56	1996.85
530.91	2017.57
531.27	2038.00
531.63	2058.13
531.99	2077.97
532.35	2096.98
532.71	2116.23
533.07	2135.60
533.42	2153.91
533.78	2173.12
534.14	2191.55
534.50	2208.73
534.86	2226.88
535.21	2243.84
535.57	2261.78
535.93	2279.22
536.29	2295.83
536.65	2312.69
537.00	2327.97
537.36	2343.52
537.72	2358.86
538.08	2374.16
538.44	2389.37
538.79	2404.65
539.15	2419.40
539.51	2434.09
539.87	2449.52
540.22	2463.97
540.58	2478.89
540.94	2493.45
541.29	2506.26
541.65	2518.79
542.01	2532.06
542.37	2543.58
542.72	2555.83
543.08	2566.76
543.44	2578.57
543.79	2588.85
544.15	2599.14
544.51	2610.15
544.87	2621.08
545.22	2630.32
545.58	2638.68
545.94	2645.90
546.29	2652.60
546.65	2658.85
547.01	2664.95
547.36	2670.49
547.72	2675.70
548.07	2679.75
548.43	2683.51
548.79	2687.38
549.14	2691.92
549.50	2696.36
549.86	2700.54
550.21	2704.53
550.57	2708.49
550.92	2710.80
551.28	2713.87
551.64	2716.27
551.99	2718.79
552.35	2720.17
552.70	2723.00
553.06	2725.97
553.41	2729.08
553.77	2731.75
554.13	2734.18
554.48	2736.22
554.84	2737.49
555.19	2738.05
555.55	2738.84
555.90	2739.43
556.26	2739.80
556.61	2739.93
556.97	2738.59
557.32	2738.16
557.68	2736.26
558.03	2734.97
558.39	2733.46
558.74	2732.76
559.10	2731.59
559.45	2729.65
559.81	2728.72
560.16	2726.02
560.52	2723.65
560.87	2720.47
561.23	2716.55
561.58	2714.33
561.94	2711.15
562.29	2707.80
562.64	2705.46
563.00	2702.86
563.35	2700.63
563.71	2698.76
564.06	2696.55
564.42	2694.55
564.77	2691.95
565.12	2690.20
565.48	2686.90
565.83	2684.18
566.19	2680.40
566.54	2676.12
566.89	2671.90
567.25	2667.73
567.60	2664.58
567.96	2660.65
568.31	2657.50
568.66	2653.91
569.02	2649.24
569.37	2644.18
569.72	2639.97
570.08	2634.70
570.43	2628.83
570.78	2622.94
571.14	2616.66
571.49	2609.76
571.84	2604.04
572.20	2597.27
572.55	2590.78
572.90	2584.46
573.26	2577.45
573.61	2570.60
573.96	2564.02
574.31	2556.41
574.67	2548.70
575.02	2540.39
575.37	2532.17
575.72	2522.88
576.08	2515.40
576.43	2506.91
576.78	2499.21
577.13	2491.17
577.49	2483.20
577.84	2475.89
578.19	2468.42
578.54	2460.91
578.90	2454.13
579.25	2445.39
579.60	2436.11
579.95	2426.93
580.30	2418.15
580.66	2409.97
581.01	2401.13
581.36	2391.73
581.71	2383.45
582.06	2374.75
582.42	2366.18
582.77	2356.93
583.12	2348.10
583.47	2339.37
583.82	2330.84
584.17	2321.53
584.53	2312.61
584.88	2303.99
585.23	2294.46
585.58	2284.93
585.93	2275.25
586.28	2265.90
586.63	2257.08
586.98	2248.97
587.34	2240.48
587.69	2231.67
588.04	2222.41
588.39	2213.97
588.74	2205.05
589.09	2196.34
589.44	2186.98
589.79	2178.64
590.14	2170.56
590.49	2162.22
590.84	2152.99
591.19	2144.93
591.54	2136.26
591.89	2126.09
592.25	2116.65
592.60	2107.13
592.95	2097.94
593.30	2088.54
593.65	2078.66
594.00	2068.92
594.35	2060.46
594.70	2051.14
595.05	2042.29
595.40	2033.69
595.75	2024.10
596.10	2016.07
596.45	2007.54
596.80	1999.56
597.15	1991.42
597.50	1982.50
597.85	1974.20
598.19	1965.64
598.54	1956.74
598.89	1948.67
599.24	1941.95
599.59	1934.51
599.94	1927.65
600.29	1919.73
600.64	1911.96
600.99	1903.80
601.34	1896.44
601.69	1887.91
602.04	1879.98
602.39	1871.87
602.74	1863.95
603.08	1857.47
603.43	1850.03
603.78	1841.77
604.13	1833.79
604.48	1825.29
604.83	1818.42
605.18	1811.22
605.53	1803.70
605.87	1796.30
606.22	1789.16
606.57	1781.32
606.92	1773.25
607.27	1765.06
607.62	1757.96
607.96	1751.04
608.31	1744.86
608.66	1737.16
609.01	1729.63
609.36	1721.98
609.70	1713.95
610.05	1706.12
610.40	1697.96
610.75	1689.55
611.10	1682.25
611.44	1672.79
611.79	1664.10
612.14	1654.69
612.49	1645.27
612.83	1636.50
613.18	1626.79
613.53	1617.31
613.88	1607.48
614.22	1598.54
614.57	1589.37
614.92	1579.85
615.27	1570.58
615.61	1560.79
615.96	1551.68
616.31	1542.92
616.65	1535.00
617.00	1526.85
617.35	1518.41
617.70	1509.37
618.04	1500.40
618.39	1490.91
618.74	1482.82
619.08	1474.04
619.43	1465.72
619.78	1457.75
620.12	1449.45
620.47	1441.80
620.82	1433.35
621.16	1425.30
621.51	1417.02
621.85	1408.63
622.20	1400.04
622.55	1391.42
622.89	1383.22
623.24	1375.26
623.59	1366.82
623.93	1358.08
624.28	1349.81
624.62	1341.50
624.97	1333.43
625.32	1325.51
625.66	1318.33
626.01	1310.87
626.35	1303.57
626.70	1296.15
627.04	1288.85
627.39	1281.38
627.73	1273.82
628.08	1266.96
628.43	1259.52
628.77	1252.05
629.12	1244.63
629.46	1238.07
629.81	1231.08
630.15	1223.87
630.50	1216.67
630.84	1209.44
631.19	1202.21
631.53	1195.34
631.88	1187.80
632.22	1180.13
632.57	1173.18
632.91	1165.53
633.26	1158.19
633.60	1151.02
633.95	1144.01
634.29	1136.64
634.64	1129.98
634.98	1122.79
635.32	1115.73
635.67	1109.31
636.01	1102.70
636.36	1096.05
636.70	1089.39
637.05	1082.78
637.39	1076.18
637.73	1069.67
638.08	1063.80
638.42	1057.84
638.77	1051.24
639.11	1045.01
639.45	1039.16
639.80	1032.49
640.14	1026.30
640.49	1020.11
640.83	1013.96
641.17	1007.45
641.52	1001.35
641.86	994.83
642.20	988.44
642.55	981.60
642.89	975.14
643.23	968.67
643.58	962.69
643.92	956.09
644.26	949.90
644.61	943.86
644.95	937.74
645.29	931.11
645.64	924.47
645.98	918.38
646.32	912.47
646.66	906.20
647.01	900.57
647.35	894.65
647.69	888.33
648.04	882.28
648.38	876.41
648.72	870.28
649.06	863.96
649.41	858.07
649.75	852.44
650.09	846.54
650.43	840.77
650.78	834.70
651.12	828.83
651.46	823.09
651.80	817.24
652.14	811.34
652.49	805.63
652.83	800.08
653.17	794.01
653.51	788.06
653.85	782.39
654.20	776.41
654.54	770.38
654.88	764.84
655.22	759.05
655.56	753.08
655.90	747.22
656.25	741.75
656.59	736.28
656.93	731.18
657.27	726.03
657.61	720.65
657.95	715.33
658.29	710.08
658.64	704.80
658.98	699.69
659.32	694.33
659.66	689.19
660.00	683.74
660.34	678.65
660.68	673.51
661.02	668.45
661.36	663.83
661.70	658.98
662.05	654.39
662.39	649.91
662.73	645.57
663.07	641.22
663.41	636.73
663.75	632.29
664.09	627.40
664.43	622.68
664.77	618.24
665.11	613.84
665.45	609.50
665.79	605.15
666.13	600.56
666.47	596.36
666.81	592.18
667.15	588.21
667.49	584.41
667.83	580.55
668.17	576.80
668.51	572.86
668.85	569.37
669.19	565.78
669.53	561.87
669.87	557.90
670.21	554.10
670.55	550.21
670.89	546.70
671.23	543.43
671.57	539.92
671.91	536.38
672.25	532.81
672.58	529.29
672.92	525.79
673.26	522.65
673.60	519.58
673.94	516.24
674.28	512.95
674.62	509.70
674.96	506.54
675.30	503.35
675.64	500.04
675.97	496.80
676.31	493.69
676.65	490.91
676.99	488.20
677.33	485.20
677.67	482.44
678.01	479.30
678.34	476.26
678.68	473.24
679.02	470.22
679.36	467.43
679.70	464.62
680.04	461.76
680.37	458.87
680.71	455.85
681.05	453.35
681.39	450.65
681.73	447.95
682.06	445.38
682.40	442.72
682.74	440.21
683.08	437.60
683.42	434.96
683.75	432.28
684.09	429.65
684.43	427.27
684.77	424.56
685.10	422.09
685.44	419.62
685.78	417.30
686.12	415.04
686.45	412.68
686.79	410.31
687.13	408.14
687.46	405.96
687.80	403.84
688.14	401.38
688.48	399.18
688.81	396.90
689.15	394.71
689.49	392.55
689.82	390.40
690.16	388.10
690.50	385.74
690.83	383.45
691.17	381.26
691.51	379.01
691.84	376.98
692.18	374.94
692.52	373.02
692.85	371.09
693.19	369.17
693.52	367.23
693.86	365.38
694.20	363.57
694.53	361.59
694.87	359.64
695.21	357.83
695.54	355.87
695.88	353.90
696.21	352.00
696.55	350.28
696.88	348.45
697.22	346.75
697.56	345.26
697.89	343.65
698.23	342.00
698.56	340.38
698.90	338.94
699.23	337.23
699.57	335.61
699.90	333.92
700.24	332.20
700.58	330.57
700.91	329.04
701.25	327.49
701.58	326.05
701.92	324.64
702.25	323.21
702.59	321.86
702.92	320.73
703.26	319.40
703.59	318.10
703.93	316.97
704.26	315.67
704.60	314.34
704.93	313.08
705.26	311.89
705.60	310.78
705.93	309.49
706.27	308.35
706.60	307.22
706.94	306.26
707.27	305.19
707.61	304.11
707.94	302.97
708.27	301.65
708.61	300.51
708.94	299.42
709.28	298.26
709.61	297.22
709.94	296.04
710.28	294.89
710.61	293.78
710.95	292.54
711.28	291.63
711.61	290.62
711.95	289.68
712.28	288.60
712.61	287.56
712.95	286.58
713.28	285.70
713.61	284.62
713.95	283.65
714.28	282.74
714.61	281.75
714.95	280.83
715.28	280.07
715.61	279.10
715.95	278.16
716.28	277.35
716.61	276.46
716.95	275.64
717.28	274.93
717.61	274.05
717.94	273.31
718.28	272.48
718.61	271.73
718.94	270.93
719.27	270.31
719.61	269.59
719.94	268.92
720.27	268.16
720.60	267.48
720.94	266.66
721.27	266.05
721.60	265.50
721.93	264.86
722.27	264.22
722.60	263.74
722.93	263.19
723.26	262.61
723.59	262.07
723.93	261.48
724.26	260.89
724.59	260.34
724.92	259.82
725.25	259.26
725.59	258.70
725.92	258.18
726.25	257.65
726.58	257.06
726.91	256.50
727.24	256.04
727.57	255.55
727.91	255.02
728.24	254.49
728.57	253.92
728.90	253.50
729.23	253.03
729.56	252.62
729.89	252.10
730.22	251.55
730.55	251.06
730.89	250.65
731.22	250.12
731.55	249.63
731.88	249.16
732.21	248.65
732.54	248.15
732.87	247.61
733.20	247.08
733.53	246.70
733.86	246.30
734.19	245.72
734.52	245.35
734.85	245.19
735.18	244.79
735.51	244.55
735.84	244.18
736.17	243.75
736.50	243.25
736.83	243.11
737.16	242.91
737.49	242.51
737.82	242.00
738.15	241.65
738.48	241.28
738.81	240.92
739.14	240.60
739.47	240.33
739.80	240.05
740.13	239.73
740.46	239.38
740.79	238.95
741.12	238.72
741.45	238.39
741.78	237.92
742.11	237.66
742.44	237.24
742.77	236.95
743.10	236.64
743.43	236.36
743.75	235.78
744.08	235.51
744.41	235.25
744.74	235.11
745.07	234.91
745.40	234.78
745.73	234.53
746.06	234.29
746.39	234.05
746.71	233.81
747.04	233.56
747.37	233.25
747.70	233.02
748.03	232.80
748.36	232.56
748.68	232.34
749.01	231.97
749.34	231.69
749.67	231.36
750.00	231.18
750.33	231.02
750.65	230.84
750.98	230.43
751.31	230.25
751.64	229.95
751.97	229.77
752.29	229.45
752.62	229.13
752.95	228.91
753.28	228.58
753.60	228.38
753.93	228.17
754.26	228.05
754.59	227.76
754.91	227.46
755.24	227.24
755.57	226.98
755.90	226.78
756.22	226.66
756.55	226.46
756.88	226.23
757.20	225.91
757.53	225.66
757.86	225.52
758.19	225.30
758.51	225.10
758.84	224.89
759.17	224.71
759.49	224.63
759.82	224.53
760.15	224.43
760.47	224.23
760.80	223.97
761.13	223.80
761.45	223.74
761.78	223.63
762.11	223.48
762.43	223.33
762.76	223.25
763.08	223.06
763.41	222.93
763.74	222.74
764.06	222.65
764.39	222.52
764.71	222.36
765.04	222.15
765.37	222.03
765.69	221.82
766.02	221.72
766.34	221.54
766.67	221.31
767.00	221.15
767.32	221.04
767.65	221.10
767.97	220.96
768.30	220.85
768.62	220.70
768.95	220.51
769.27	220.35
769.60	220.28
769.92	220.15
770.25	220.05
770.57	220.01
770.90	219.87
771.22	219.79
771.55	219.74
771.87	219.69
772.20	219.61
772.52	219.68
772.85	219.75
773.17	219.68
773.50	219.59
773.82	219.44
774.15	219.36
774.47	219.11
774.80	218.97
775.12	218.90
775.45	218.89
775.77	218.88
776.09	218.84
776.42	218.66
776.74	218.65
777.07	218.54
777.39	218.45
777.72	218.34
778.04	218.28
778.36	218.13
778.69	218.06
779.01	217.94
779.33	217.73
779.66	217.50
779.98	217.39
780.31	217.36
780.63	217.41
780.95	217.33
781.28	217.32
781.60	217.31
781.92	217.21
782.25	217.15
782.57	217.00
782.89	216.89
783.22	216.88
783.54	216.82
783.86	216.80
784.19	216.71
784.51	216.71
784.83	216.64
785.16	216.63
785.48	216.63
785.80	216.62
786.12	216.53
786.45	216.48
