SpectraSuite Data File
++++++++++++++++++++++++++++++++++++
Date: Mon Feb 25 17:29:53 EST 2013
User: group
Dark Spectrum Present: No
Reference Spectrum Present: No
Number of Sampled Component Spectra: 1
Spectrometers: USB2E7196
Integration Time (usec): 52000 (USB2E7196)
Spectra Averaged: 20 (USB2E7196)
Boxcar Smoothing: 10 (USB2E7196)
Correct for Electrical Dark: No (USB2E7196)
Strobe/Lamp Enabled: No (USB2E7196)
Correct for Detector Non-linearity: No (USB2E7196)
Correct for Stray Light: No (USB2E7196)
Number of Pixels in Processed Spectrum: 2048
>>>>>Begin Processed Spectral Data<<<<<
339.09	0.00
339.48	199.85
339.86	201.50
340.24	202.85
340.63	204.15
341.01	208.05
341.39	207.20
341.78	207.45
342.16	209.25
342.54	209.65
342.93	198.66
343.31	208.66
343.69	209.17
344.07	209.57
344.46	209.97
344.84	210.31
345.22	210.44
345.60	210.62
345.99	210.85
346.37	210.97
346.75	211.07
347.13	211.09
347.52	211.11
347.90	211.17
348.28	211.19
348.66	211.24
349.05	211.24
349.43	211.26
349.81	211.32
350.19	211.30
350.57	211.41
350.96	211.50
351.34	211.60
351.72	211.58
352.10	211.70
352.48	211.70
352.87	211.73
353.25	211.78
353.63	211.90
354.01	211.92
354.39	211.94
354.77	211.96
355.15	212.12
355.54	212.12
355.92	212.18
356.30	212.25
356.68	212.45
357.06	212.45
357.44	212.39
357.82	212.44
358.20	212.50
358.58	212.57
358.97	212.55
359.35	212.62
359.73	212.80
360.11	212.89
360.49	212.97
360.87	213.02
361.25	213.11
361.63	213.15
362.01	213.19
362.39	213.29
362.77	213.35
363.15	213.31
363.53	213.38
363.91	213.46
364.29	213.49
364.67	213.29
365.05	213.34
365.43	213.52
365.81	213.59
366.19	213.66
366.57	213.68
366.95	213.73
367.33	213.68
367.71	213.70
368.09	213.62
368.47	213.62
368.85	213.67
369.23	213.74
369.61	213.69
369.99	213.73
370.37	213.66
370.75	213.80
371.13	213.74
371.51	213.72
371.89	213.65
372.27	213.65
372.65	213.66
373.03	213.65
373.41	213.65
373.78	213.58
374.16	213.53
374.54	213.43
374.92	213.38
375.30	213.43
375.68	213.34
376.06	213.41
376.44	213.43
376.82	213.34
377.19	213.23
377.57	213.18
377.95	213.07
378.33	213.06
378.71	212.86
379.09	212.85
379.47	212.85
379.84	212.84
380.22	212.77
380.60	212.70
380.98	212.60
381.36	212.49
381.73	212.43
382.11	212.42
382.49	212.42
382.87	212.28
383.25	212.14
383.62	212.30
384.00	212.21
384.38	212.13
384.76	212.17
385.13	212.24
385.51	212.23
385.89	212.19
386.27	212.11
386.64	212.09
387.02	212.06
387.40	211.91
387.78	211.85
388.15	211.86
388.53	211.88
388.91	211.88
389.29	211.88
389.66	211.91
390.04	211.91
390.42	211.90
390.79	211.95
391.17	211.94
391.55	211.73
391.92	211.64
392.30	211.66
392.68	211.62
393.05	211.57
393.43	211.49
393.81	211.51
394.18	211.45
394.56	211.43
394.94	211.53
395.31	211.66
395.69	211.76
396.06	211.80
396.44	211.83
396.82	211.85
397.19	211.90
397.57	211.86
397.95	211.80
398.32	211.78
398.70	211.81
399.07	211.86
399.45	211.88
399.82	211.97
400.20	211.92
400.58	211.92
400.95	211.89
401.33	211.99
401.70	212.18
402.08	212.30
402.45	212.43
402.83	212.48
403.20	212.49
403.58	212.45
403.95	212.51
404.33	212.61
404.71	212.76
405.08	212.97
405.46	213.05
405.83	213.16
406.21	213.25
406.58	213.37
406.96	213.53
407.33	213.72
407.70	213.85
408.08	214.23
408.45	214.43
408.83	214.71
409.20	214.88
409.58	214.94
409.95	215.23
410.33	215.41
410.70	215.59
411.08	215.87
411.45	216.18
411.82	216.56
412.20	216.89
412.57	217.30
412.95	217.47
413.32	217.98
413.69	218.44
414.07	218.92
414.44	219.47
414.82	219.99
415.19	220.62
415.56	221.26
415.94	221.87
416.31	222.62
416.68	223.34
417.06	224.24
417.43	225.09
417.81	225.99
418.18	227.04
418.55	228.14
418.93	229.26
419.30	230.46
419.67	231.55
420.04	232.81
420.42	234.02
420.79	235.60
421.16	237.07
421.54	238.74
421.91	240.35
422.28	241.96
422.66	243.67
423.03	245.35
423.40	247.15
423.77	249.03
424.15	251.07
424.52	253.11
424.89	255.34
425.26	257.39
425.64	259.46
426.01	261.66
426.38	263.90
426.75	266.22
427.13	268.57
427.50	271.16
427.87	273.85
428.24	276.59
428.61	279.09
428.99	281.95
429.36	284.92
429.73	287.94
430.10	290.97
430.47	294.18
430.85	297.50
431.22	300.89
431.59	304.55
431.96	307.84
432.33	311.58
432.70	315.21
433.08	319.59
433.45	323.59
433.82	327.62
434.19	332.05
434.56	336.45
434.93	340.59
435.30	344.75
435.68	349.21
436.05	353.70
436.42	358.25
436.79	362.30
437.16	366.72
437.53	371.44
437.90	376.03
438.27	380.49
438.64	385.02
439.01	389.27
439.38	393.01
439.75	396.74
440.13	400.92
440.50	404.83
440.87	408.05
441.24	411.47
441.61	415.19
441.98	417.98
442.35	421.15
442.72	424.36
443.09	427.44
443.46	429.30
443.83	430.48
444.20	431.55
444.57	433.07
444.94	433.73
445.31	434.40
445.68	435.23
446.05	435.48
446.42	435.06
446.79	434.49
447.16	433.81
447.53	433.33
447.90	431.67
448.27	430.04
448.64	427.60
449.01	425.74
449.37	422.64
449.74	419.70
450.11	416.24
450.48	412.41
450.85	408.47
451.22	405.21
451.59	402.10
451.96	399.04
452.33	394.98
452.70	391.34
453.07	386.89
453.43	382.25
453.80	377.95
454.17	373.83
454.54	369.94
454.91	365.78
455.28	361.73
455.65	357.89
456.02	354.13
456.38	350.97
456.75	346.99
457.12	343.62
457.49	340.27
457.86	337.02
458.23	334.29
458.59	331.36
458.96	328.30
459.33	325.57
459.70	322.82
460.07	320.64
460.43	318.09
460.80	315.76
461.17	313.83
461.54	311.70
461.91	309.62
462.27	307.66
462.64	305.91
463.01	304.01
463.38	302.15
463.74	300.15
464.11	298.56
464.48	297.09
464.85	295.57
465.21	294.49
465.58	293.22
465.95	291.75
466.32	290.45
466.68	289.25
467.05	288.13
467.42	286.93
467.78	285.73
468.15	284.63
468.52	283.93
468.88	282.79
469.25	281.80
469.62	281.10
469.98	280.17
470.35	279.41
470.72	278.67
471.08	278.02
471.45	277.44
471.82	276.75
472.18	276.20
472.55	275.72
472.92	275.06
473.28	274.57
473.65	274.14
474.02	273.73
474.38	273.41
474.75	273.11
475.11	272.86
475.48	272.69
475.85	272.51
476.21	272.24
476.58	272.25
476.94	272.28
477.31	272.31
477.67	272.45
478.04	272.60
478.41	272.85
478.77	273.17
479.14	273.33
479.50	273.61
479.87	273.94
480.23	274.32
480.60	274.83
480.96	275.35
481.33	276.10
481.69	276.72
482.06	277.37
482.42	278.11
482.79	278.85
483.15	279.82
483.52	280.96
483.88	282.02
484.25	282.98
484.61	284.12
484.98	285.18
485.34	286.42
485.71	287.80
486.07	289.11
486.44	290.45
486.80	292.07
487.17	293.70
487.53	295.48
487.90	297.25
488.26	299.02
488.62	301.04
488.99	302.95
489.35	305.20
489.72	307.50
490.08	309.96
490.44	312.46
490.81	315.04
491.17	317.71
491.54	320.63
491.90	323.67
492.26	326.85
492.63	330.17
492.99	333.70
493.36	337.30
493.72	341.16
494.08	345.12
494.45	349.33
494.81	353.74
495.17	358.21
495.54	363.12
495.90	368.21
496.26	373.33
496.63	378.83
496.99	384.48
497.35	390.31
497.72	396.41
498.08	402.79
498.44	409.38
498.80	416.32
499.17	423.50
499.53	430.94
499.89	438.78
500.26	446.74
500.62	454.73
500.98	463.19
501.34	472.11
501.71	481.22
502.07	490.56
502.43	500.16
502.79	510.05
503.16	520.29
503.52	530.85
503.88	541.58
504.24	552.65
504.60	564.02
504.97	575.95
505.33	587.69
505.69	600.40
506.05	613.15
506.41	625.97
506.78	639.08
507.14	652.50
507.50	666.18
507.86	680.46
508.22	694.98
508.59	709.72
508.95	724.68
509.31	740.10
509.67	755.81
510.03	771.61
510.39	787.84
510.75	804.62
511.12	821.40
511.48	838.57
511.84	856.01
512.20	873.40
512.56	891.05
512.92	909.30
513.28	927.28
513.64	945.61
514.00	964.14
514.37	982.86
514.73	1002.01
515.09	1021.30
515.45	1040.50
515.81	1060.02
516.17	1079.44
516.53	1098.95
516.89	1118.64
517.25	1138.04
517.61	1158.00
517.97	1177.85
518.33	1197.22
518.69	1216.87
519.05	1236.89
519.41	1256.72
519.77	1277.17
520.13	1297.20
520.49	1316.94
520.85	1337.35
521.21	1357.75
521.57	1378.61
521.93	1398.30
522.29	1418.63
522.65	1438.74
523.01	1458.50
523.37	1477.97
523.73	1497.91
524.09	1517.71
524.45	1537.21
524.81	1557.24
525.17	1577.00
525.53	1596.96
525.89	1616.47
526.25	1635.69
526.61	1654.15
526.97	1673.13
527.33	1691.40
527.68	1709.82
528.04	1728.24
528.40	1745.57
528.76	1763.35
529.12	1780.77
529.48	1799.39
529.84	1817.01
530.20	1834.35
530.56	1851.93
530.91	1869.85
531.27	1887.35
531.63	1904.42
531.99	1921.36
532.35	1937.69
532.71	1953.81
533.07	1969.95
533.42	1985.62
533.78	2001.60
534.14	2017.37
534.50	2031.77
534.86	2046.97
535.21	2061.06
535.57	2076.00
535.93	2090.59
536.29	2104.18
536.65	2117.77
537.00	2130.50
537.36	2142.89
537.72	2155.03
538.08	2167.52
538.44	2179.83
538.79	2192.22
539.15	2204.32
539.51	2215.94
539.87	2228.20
540.22	2239.75
540.58	2251.70
540.94	2263.20
541.29	2273.43
541.65	2282.99
542.01	2293.59
542.37	2303.07
542.72	2312.75
543.08	2320.85
543.44	2329.83
543.79	2337.45
544.15	2345.32
544.51	2353.61
544.87	2361.92
545.22	2368.92
545.58	2375.14
545.94	2380.20
546.29	2384.53
546.65	2388.37
547.01	2392.47
547.36	2396.00
547.72	2399.46
548.07	2401.36
548.43	2403.54
548.79	2405.72
549.14	2407.95
549.50	2410.43
549.86	2412.35
550.21	2414.25
550.57	2416.72
550.92	2417.81
551.28	2419.28
551.64	2420.06
551.99	2421.14
552.35	2420.90
552.70	2421.71
553.06	2422.65
553.41	2423.86
553.77	2425.07
554.13	2425.54
554.48	2426.29
554.84	2426.21
555.19	2425.54
555.55	2425.43
555.90	2424.72
556.26	2423.95
556.61	2423.02
556.97	2420.46
557.32	2418.69
557.68	2416.15
558.03	2413.58
558.39	2411.11
558.74	2409.53
559.10	2407.65
559.45	2404.64
559.81	2402.82
560.16	2399.88
560.52	2396.41
560.87	2392.90
561.23	2388.62
561.58	2386.25
561.94	2382.30
562.29	2378.05
562.64	2374.87
563.00	2371.52
563.35	2368.69
563.71	2366.30
564.06	2363.51
564.42	2361.22
564.77	2358.58
565.12	2356.34
565.48	2353.10
565.83	2349.65
566.19	2345.95
566.54	2341.35
566.89	2337.00
567.25	2332.98
567.60	2329.50
567.96	2325.78
568.31	2322.05
568.66	2317.90
569.02	2313.00
569.37	2308.28
569.72	2304.60
570.08	2299.57
570.43	2293.72
570.78	2287.89
571.14	2281.51
571.49	2275.53
571.84	2269.74
572.20	2263.20
572.55	2256.88
572.90	2250.11
573.26	2243.82
573.61	2237.28
573.96	2231.16
574.31	2224.16
574.67	2216.66
575.02	2208.86
575.37	2201.30
575.72	2193.21
576.08	2186.37
576.43	2178.32
576.78	2171.15
577.13	2163.54
577.49	2156.45
577.84	2149.60
578.19	2142.84
578.54	2136.47
578.90	2130.35
579.25	2122.70
579.60	2114.65
579.95	2106.68
580.30	2099.85
580.66	2092.90
581.01	2085.20
581.36	2077.16
581.71	2070.00
582.06	2062.92
582.42	2055.94
582.77	2047.98
583.12	2040.66
583.47	2033.35
583.82	2026.52
584.17	2018.55
584.53	2011.12
584.88	2003.28
585.23	1995.72
585.58	1987.43
585.93	1979.05
586.28	1970.88
586.63	1963.26
586.98	1956.40
587.34	1949.30
587.69	1941.58
588.04	1933.56
588.39	1926.33
588.74	1918.62
589.09	1911.09
589.44	1902.73
589.79	1895.13
590.14	1888.50
590.49	1881.01
590.84	1873.16
591.19	1866.17
591.54	1858.75
591.89	1849.77
592.25	1841.91
592.60	1833.71
592.95	1826.04
593.30	1818.00
593.65	1809.65
594.00	1801.23
594.35	1794.04
594.70	1786.23
595.05	1778.86
595.40	1771.09
595.75	1763.10
596.10	1756.21
596.45	1749.09
596.80	1742.55
597.15	1735.62
597.50	1727.71
597.85	1720.88
598.19	1713.33
598.54	1705.77
598.89	1698.91
599.24	1693.34
599.59	1687.19
599.94	1681.32
600.29	1674.66
600.64	1668.19
600.99	1661.17
601.34	1655.22
601.69	1648.01
602.04	1641.04
602.39	1633.92
602.74	1627.37
603.08	1621.51
603.43	1615.51
603.78	1608.71
604.13	1601.90
604.48	1595.00
604.83	1589.42
605.18	1583.49
605.53	1577.44
605.87	1571.16
606.22	1565.45
606.57	1558.94
606.92	1552.19
607.27	1545.19
607.62	1539.04
607.96	1533.03
608.31	1527.90
608.66	1521.42
609.01	1514.79
609.36	1508.30
609.70	1501.70
610.05	1495.33
610.40	1488.35
610.75	1480.96
611.10	1474.61
611.44	1466.98
611.79	1459.44
612.14	1451.24
612.49	1442.74
612.83	1435.06
613.18	1426.81
613.53	1418.66
613.88	1410.42
614.22	1402.49
614.57	1394.55
614.92	1386.44
615.27	1378.52
615.61	1370.02
615.96	1362.30
616.31	1355.19
616.65	1348.64
617.00	1341.72
617.35	1334.38
617.70	1326.90
618.04	1319.23
618.39	1311.25
618.74	1304.02
619.08	1296.77
619.43	1289.85
619.78	1283.35
620.12	1276.33
620.47	1269.61
620.82	1262.03
621.16	1254.75
621.51	1247.83
621.85	1240.84
622.20	1233.79
622.55	1226.68
622.89	1219.65
623.24	1212.80
623.59	1205.22
623.93	1197.63
624.28	1190.57
624.62	1183.54
624.97	1176.55
625.32	1169.66
625.66	1163.41
626.01	1157.27
626.35	1151.04
626.70	1144.45
627.04	1137.74
627.39	1131.61
627.73	1125.40
628.08	1119.97
628.43	1113.94
628.77	1107.70
629.12	1101.21
629.46	1095.49
629.81	1089.29
630.15	1083.26
630.50	1076.88
630.84	1070.85
631.19	1064.74
631.53	1058.82
631.88	1052.32
632.22	1045.89
632.57	1040.13
632.91	1033.55
633.26	1026.95
633.60	1020.54
633.95	1014.70
634.29	1008.74
634.64	1002.85
634.98	996.84
635.32	990.52
635.67	984.99
636.01	979.02
636.36	973.46
636.70	967.75
637.05	962.17
637.39	956.54
637.73	951.20
638.08	946.18
638.42	941.20
638.77	935.47
639.11	929.95
639.45	924.83
639.80	919.36
640.14	913.95
640.49	908.67
640.83	903.57
641.17	898.24
641.52	892.89
641.86	887.12
642.20	881.70
642.55	876.04
642.89	870.30
643.23	865.14
643.58	860.13
643.92	854.49
644.26	849.00
644.61	843.79
644.95	838.57
645.29	833.02
645.64	827.20
645.98	821.92
646.32	816.95
646.66	811.59
647.01	806.42
647.35	801.30
647.69	795.88
648.04	790.67
648.38	785.36
648.72	780.15
649.06	775.20
649.41	769.87
649.75	764.76
650.09	759.89
650.43	754.63
650.78	749.15
651.12	743.98
651.46	739.00
651.80	734.07
652.14	729.02
652.49	723.90
652.83	718.99
653.17	713.75
653.51	708.72
653.85	703.79
654.20	698.48
654.54	693.55
654.88	688.90
655.22	683.97
655.56	678.96
655.90	674.01
656.25	669.02
656.59	664.32
656.93	659.93
657.27	655.34
657.61	650.75
657.95	646.22
658.29	641.87
658.64	637.49
658.98	632.70
659.32	627.80
659.66	623.30
660.00	618.64
660.34	614.25
660.68	609.86
661.02	605.28
661.36	601.34
661.70	596.99
662.05	592.96
662.39	588.96
662.73	585.14
663.07	581.34
663.41	577.55
663.75	573.77
664.09	569.55
664.43	565.46
664.77	561.59
665.11	557.77
665.45	553.84
665.79	550.01
666.13	546.33
666.47	542.80
666.81	539.20
667.15	535.76
667.49	532.31
667.83	528.92
668.17	525.74
668.51	522.43
668.85	519.41
669.19	516.22
669.53	512.90
669.87	509.45
670.21	506.15
670.55	502.70
670.89	499.71
671.23	496.97
671.57	493.99
671.91	490.95
672.25	487.79
672.58	484.78
672.92	481.74
673.26	479.00
673.60	476.30
673.94	473.47
674.28	470.62
674.62	467.97
674.96	465.15
675.30	462.49
675.64	459.64
675.97	456.79
676.31	454.08
676.65	451.53
676.99	449.19
677.33	446.60
677.67	444.10
678.01	441.37
678.34	438.72
678.68	436.16
679.02	433.58
679.36	431.28
679.70	428.92
680.04	426.51
680.37	423.94
680.71	421.60
681.05	419.26
681.39	417.02
681.73	414.65
682.06	412.53
682.40	410.36
682.74	408.21
683.08	406.02
683.42	403.79
683.75	401.60
684.09	399.35
684.43	397.27
684.77	395.06
685.10	392.96
685.44	390.77
685.78	388.73
686.12	386.78
686.45	384.84
686.79	382.91
687.13	381.12
687.46	379.25
687.80	377.40
688.14	375.46
688.48	373.57
688.81	371.65
689.15	369.68
689.49	367.72
689.82	365.82
690.16	363.79
690.50	361.78
690.83	359.85
691.17	357.98
691.51	356.04
691.84	354.34
692.18	352.44
692.52	350.77
692.85	349.17
693.19	347.58
693.52	345.84
693.86	344.03
694.20	342.35
694.53	340.71
694.87	338.85
695.21	337.15
695.54	335.41
695.88	333.83
696.21	332.21
696.55	330.72
696.88	329.23
697.22	327.92
697.56	326.46
697.89	325.06
698.23	323.61
698.56	322.29
698.90	321.00
699.23	319.74
699.57	318.38
699.90	317.00
700.24	315.43
700.58	314.09
700.91	312.91
701.25	311.69
701.58	310.47
701.92	309.32
702.25	308.25
702.59	307.15
702.92	305.99
703.26	304.83
703.59	303.74
703.93	302.85
704.26	301.61
704.60	300.54
704.93	299.42
705.26	298.39
705.60	297.37
705.93	296.25
706.27	295.20
706.60	294.30
706.94	293.23
707.27	292.30
707.61	291.31
707.94	290.25
708.27	289.15
708.61	288.23
708.94	287.29
709.28	286.24
709.61	285.28
709.94	284.37
710.28	283.48
710.61	282.56
710.95	281.43
711.28	280.73
711.61	279.88
711.95	279.08
712.28	278.24
712.61	277.31
712.95	276.51
713.28	275.75
713.61	274.82
713.95	274.03
714.28	273.38
714.61	272.59
714.95	271.79
715.28	271.00
715.61	270.10
715.95	269.30
716.28	268.51
716.61	267.78
716.95	266.97
717.28	266.23
717.61	265.52
717.94	264.88
718.28	264.09
718.61	263.46
718.94	262.81
719.27	262.09
719.61	261.37
719.94	260.77
720.27	260.09
720.60	259.52
720.94	258.96
721.27	258.32
721.60	257.78
721.93	257.24
722.27	256.86
722.60	256.32
722.93	255.75
723.26	255.30
723.59	254.78
723.93	254.35
724.26	253.90
724.59	253.39
724.92	252.92
725.25	252.53
725.59	252.07
725.92	251.60
726.25	251.24
726.58	250.90
726.91	250.43
727.24	250.03
727.57	249.59
727.91	249.10
728.24	248.66
728.57	248.32
728.90	248.00
729.23	247.46
729.56	247.16
729.89	246.83
730.22	246.45
730.55	246.09
730.89	245.67
731.22	245.39
731.55	245.05
731.88	244.65
732.21	244.18
732.54	243.80
732.87	243.43
733.20	243.02
733.53	242.75
733.86	242.43
734.19	242.05
734.52	241.74
734.85	241.56
735.18	241.17
735.51	240.83
735.84	240.45
736.17	240.08
736.50	239.66
736.83	239.55
737.16	239.25
737.49	238.90
737.82	238.66
738.15	238.28
738.48	237.99
738.81	237.70
739.14	237.40
739.47	237.05
739.80	236.77
740.13	236.53
740.46	236.15
740.79	235.84
741.12	235.55
741.45	235.21
741.78	234.88
742.11	234.71
742.44	234.35
742.77	234.20
743.10	233.98
743.43	233.78
743.75	233.35
744.08	233.30
744.41	233.00
744.74	232.65
745.07	232.32
745.40	232.10
745.73	231.88
746.06	231.64
746.39	231.43
746.71	231.16
747.04	230.91
747.37	230.66
747.70	230.45
748.03	230.24
748.36	230.00
748.68	229.73
749.01	229.41
749.34	229.20
749.67	228.91
750.00	228.70
750.33	228.58
750.65	228.35
750.98	227.86
751.31	227.70
751.64	227.55
751.97	227.45
752.29	227.16
752.62	226.88
752.95	226.76
753.28	226.54
753.60	226.32
753.93	226.10
754.26	225.93
754.59	225.66
754.91	225.42
755.24	225.31
755.57	225.05
755.90	224.93
756.22	224.82
756.55	224.62
756.88	224.44
757.20	224.16
757.53	224.00
757.86	223.83
758.19	223.71
758.51	223.58
758.84	223.37
759.17	223.23
759.49	223.09
759.82	222.92
760.15	222.79
760.47	222.59
760.80	222.43
761.13	222.35
761.45	222.18
761.78	221.97
762.11	221.82
762.43	221.73
762.76	221.61
763.08	221.41
763.41	221.28
763.74	221.19
764.06	221.05
764.39	220.92
764.71	220.76
765.04	220.55
765.37	220.38
765.69	220.28
766.02	220.21
766.34	220.07
766.67	219.97
767.00	219.87
767.32	219.96
767.65	219.96
767.97	219.81
768.30	219.83
768.62	219.81
768.95	219.64
769.27	219.49
769.60	219.39
769.92	219.32
770.25	219.25
770.57	219.13
770.90	219.02
771.22	218.83
771.55	218.82
771.87	218.77
772.20	218.74
772.52	218.76
772.85	218.81
773.17	218.77
773.50	218.67
773.82	218.62
774.15	218.46
774.47	218.31
774.80	218.22
775.12	218.06
775.45	218.00
775.77	218.05
776.09	218.03
776.42	218.00
776.74	217.99
777.07	217.92
777.39	217.79
777.72	217.73
778.04	217.80
778.36	217.71
778.69	217.69
779.01	217.60
779.33	217.44
779.66	217.21
779.98	217.14
780.31	217.04
780.63	217.01
780.95	216.96
781.28	216.83
781.60	216.82
781.92	216.74
782.25	216.64
782.57	216.49
782.89	216.40
783.22	216.23
783.54	216.14
783.86	216.08
784.19	216.07
784.51	216.09
784.83	215.99
785.16	215.88
785.48	215.80
785.80	215.67
786.12	215.60
786.45	215.46
786.77	215.36
787.09	215.32
