SpectraSuite Data File
++++++++++++++++++++++++++++++++++++
Date: Mon Feb 25 17:34:45 EST 2013
User: group
Dark Spectrum Present: No
Reference Spectrum Present: No
Number of Sampled Component Spectra: 1
Spectrometers: USB2E7196
Integration Time (usec): 52000 (USB2E7196)
Spectra Averaged: 20 (USB2E7196)
Boxcar Smoothing: 10 (USB2E7196)
Correct for Electrical Dark: No (USB2E7196)
Strobe/Lamp Enabled: No (USB2E7196)
Correct for Detector Non-linearity: No (USB2E7196)
Correct for Stray Light: No (USB2E7196)
Number of Pixels in Processed Spectrum: 2048
>>>>>Begin Processed Spectral Data<<<<<
339.09	0.00
339.48	198.90
339.86	200.45
340.24	200.95
340.63	203.45
341.01	206.75
341.39	205.50
341.78	206.75
342.16	207.70
342.54	209.75
342.93	197.70
343.31	207.77
343.69	208.36
344.07	208.74
344.46	209.22
344.84	209.58
345.22	209.86
345.60	210.08
345.99	210.23
346.37	210.42
346.75	210.44
347.13	210.57
347.52	210.66
347.90	210.73
348.28	210.77
348.66	210.80
349.05	210.81
349.43	210.91
349.81	210.99
350.19	211.10
350.57	211.21
350.96	211.32
351.34	211.33
351.72	211.37
352.10	211.54
352.48	211.64
352.87	211.70
353.25	211.72
353.63	211.79
354.01	211.89
354.39	211.95
354.77	212.04
355.15	212.14
355.54	212.25
355.92	212.24
356.30	212.26
356.68	212.52
357.06	212.57
357.44	212.54
357.82	212.56
358.20	212.63
358.58	212.71
358.97	212.76
359.35	212.92
359.73	212.99
360.11	213.07
360.49	213.07
360.87	213.15
361.25	213.12
361.63	213.25
362.01	213.31
362.39	213.34
362.77	213.43
363.15	213.48
363.53	213.44
363.91	213.40
364.29	213.45
364.67	213.34
365.05	213.46
365.43	213.51
365.81	213.60
366.19	213.72
366.57	213.86
366.95	213.86
367.33	213.83
367.71	213.81
368.09	213.82
368.47	213.88
368.85	213.81
369.23	213.86
369.61	213.79
369.99	213.86
370.37	213.87
370.75	213.97
371.13	213.87
371.51	213.90
371.89	213.92
372.27	213.97
372.65	213.90
373.03	213.87
373.41	213.87
373.78	213.79
374.16	213.65
374.54	213.52
374.92	213.45
375.30	213.41
375.68	213.39
376.06	213.35
376.44	213.20
376.82	213.24
377.19	213.20
377.57	213.17
377.95	213.07
378.33	213.04
378.71	212.91
379.09	212.90
379.47	212.84
379.84	212.87
380.22	212.74
380.60	212.75
380.98	212.68
381.36	212.60
381.73	212.53
382.11	212.47
382.49	212.52
382.87	212.47
383.25	212.41
383.62	212.57
384.00	212.54
384.38	212.57
384.76	212.49
385.13	212.51
385.51	212.45
385.89	212.38
386.27	212.30
386.64	212.26
387.02	212.19
387.40	212.17
387.78	212.15
388.15	212.15
388.53	212.13
388.91	212.04
389.29	212.03
389.66	212.04
390.04	212.02
390.42	211.89
390.79	211.88
391.17	211.88
391.55	211.59
391.92	211.51
392.30	211.48
392.68	211.46
393.05	211.50
393.43	211.52
393.81	211.49
394.18	211.49
394.56	211.45
394.94	211.54
395.31	211.55
395.69	211.56
396.06	211.59
396.44	211.50
396.82	211.55
397.19	211.57
397.57	211.53
397.95	211.58
398.32	211.58
398.70	211.65
399.07	211.63
399.45	211.74
399.82	211.75
400.20	211.77
400.58	211.85
400.95	211.83
401.33	211.90
401.70	212.08
402.08	212.08
402.45	212.20
402.83	212.24
403.20	212.28
403.58	212.28
403.95	212.38
404.33	212.59
404.71	212.71
405.08	212.97
405.46	213.04
405.83	213.24
406.21	213.43
406.58	213.61
406.96	213.78
407.33	213.99
407.70	214.25
408.08	214.60
408.45	214.81
408.83	215.05
409.20	215.26
409.58	215.45
409.95	215.83
410.33	216.17
410.70	216.49
411.08	216.92
411.45	217.35
411.82	217.72
412.20	218.05
412.57	218.60
412.95	218.90
413.32	219.53
413.69	220.00
414.07	220.50
414.44	221.13
414.82	221.75
415.19	222.49
415.56	223.21
415.94	223.94
416.31	224.84
416.68	225.77
417.06	226.78
417.43	227.79
417.81	228.86
418.18	229.92
418.55	231.08
418.93	232.29
419.30	233.63
419.67	235.03
420.04	236.54
420.42	237.99
420.79	239.80
421.16	241.50
421.54	243.35
421.91	245.25
422.28	247.09
422.66	249.15
423.03	251.15
423.40	253.24
423.77	255.45
424.15	257.67
424.52	259.99
424.89	262.57
425.26	265.04
425.64	267.46
426.01	270.06
426.38	272.80
426.75	275.56
427.13	278.31
427.50	281.30
427.87	284.38
428.24	287.47
428.61	290.35
428.99	293.65
429.36	297.18
429.73	300.68
430.10	304.17
430.47	307.79
430.85	311.43
431.22	315.26
431.59	319.47
431.96	323.47
432.33	327.82
432.70	332.08
433.08	337.08
433.45	341.75
433.82	346.27
434.19	351.45
434.56	356.35
434.93	361.24
435.30	365.97
435.68	371.32
436.05	376.50
436.42	381.72
436.79	386.38
437.16	391.41
437.53	396.78
437.90	402.03
438.27	407.23
438.64	412.72
439.01	417.77
439.38	422.14
439.75	426.37
440.13	431.26
440.50	435.80
440.87	439.48
441.24	443.20
441.61	447.58
441.98	450.61
442.35	454.38
442.72	457.96
443.09	461.54
443.46	463.64
443.83	465.07
444.20	466.22
444.57	468.20
444.94	469.06
445.31	469.73
445.68	470.56
446.05	470.76
446.42	470.09
446.79	469.38
447.16	468.51
447.53	467.96
447.90	465.82
448.27	463.55
448.64	460.60
449.01	458.50
449.37	454.75
449.74	451.34
450.11	447.16
450.48	442.78
450.85	438.19
451.22	434.06
451.59	430.27
451.96	426.75
452.33	421.76
452.70	417.35
453.07	412.23
453.43	406.97
453.80	401.97
454.17	397.20
454.54	392.64
454.91	387.82
455.28	383.03
455.65	378.61
456.02	374.40
456.38	370.70
456.75	366.13
457.12	362.30
457.49	358.39
457.86	354.67
458.23	351.35
458.59	347.78
458.96	344.27
459.33	341.13
459.70	337.87
460.07	335.33
460.43	332.45
460.80	329.78
461.17	327.47
461.54	324.98
461.91	322.52
462.27	320.07
462.64	318.07
463.01	315.71
463.38	313.53
463.74	311.23
464.11	309.27
464.48	307.59
464.85	305.81
465.21	304.43
465.58	303.00
465.95	301.32
466.32	299.80
466.68	298.42
467.05	297.01
467.42	295.70
467.78	294.24
468.15	292.86
468.52	291.80
468.88	290.40
469.25	289.24
469.62	288.39
469.98	287.43
470.35	286.41
470.72	285.60
471.08	284.69
471.45	284.02
471.82	283.24
472.18	282.35
472.55	281.75
472.92	281.01
473.28	280.31
473.65	279.64
474.02	279.17
474.38	278.67
474.75	278.24
475.11	277.77
475.48	277.51
475.85	277.32
476.21	277.16
476.58	277.01
476.94	277.00
477.31	276.90
477.67	276.85
478.04	276.90
478.41	277.10
478.77	277.40
479.14	277.50
479.50	277.68
479.87	278.07
480.23	278.37
480.60	278.84
480.96	279.32
481.33	279.97
481.69	280.62
482.06	281.34
482.42	282.02
482.79	282.82
483.15	283.65
483.52	284.60
483.88	285.51
484.25	286.60
484.61	287.60
484.98	288.67
485.34	289.93
485.71	291.26
486.07	292.55
486.44	293.85
486.80	295.44
487.17	297.20
487.53	299.02
487.90	300.93
488.26	302.79
488.62	304.72
488.99	306.76
489.35	308.91
489.72	311.23
490.08	313.62
490.44	316.02
490.81	318.65
491.17	321.35
491.54	324.34
491.90	327.25
492.26	330.49
492.63	333.83
492.99	337.33
493.36	341.01
493.72	344.95
494.08	348.97
494.45	353.15
494.81	357.54
495.17	362.00
495.54	366.86
495.90	371.97
496.26	377.22
496.63	382.67
496.99	388.36
497.35	394.26
497.72	400.62
498.08	407.17
498.44	413.90
498.80	421.05
499.17	428.33
499.53	435.97
499.89	443.88
500.26	451.98
500.62	460.41
500.98	469.20
501.34	478.25
501.71	487.70
502.07	497.45
502.43	507.53
502.79	517.82
503.16	528.47
503.52	539.38
503.88	550.77
504.24	562.36
504.60	574.20
504.97	586.45
505.33	599.05
505.69	612.32
506.05	625.87
506.41	639.43
506.78	653.17
507.14	667.33
507.50	681.99
507.86	697.00
508.22	712.36
508.59	727.89
508.95	744.05
509.31	760.27
509.67	777.06
510.03	793.85
510.39	811.49
510.75	829.28
511.12	847.46
511.48	865.79
511.84	884.47
512.20	903.20
512.56	922.70
512.92	942.14
513.28	961.85
513.64	981.49
514.00	1001.58
514.37	1022.27
514.73	1043.34
515.09	1064.00
515.45	1084.91
515.81	1106.36
516.17	1127.90
516.53	1149.11
516.89	1170.96
517.25	1192.48
517.61	1214.10
517.97	1235.57
518.33	1257.10
518.69	1279.00
519.05	1301.24
519.41	1323.66
519.77	1346.61
520.13	1368.62
520.49	1391.07
520.85	1413.61
521.21	1436.37
521.57	1459.55
521.93	1481.60
522.29	1504.57
522.65	1527.32
523.01	1549.90
523.37	1572.07
523.73	1594.47
524.09	1616.78
524.45	1639.13
524.81	1661.33
525.17	1683.89
525.53	1706.59
525.89	1728.99
526.25	1751.04
526.61	1772.73
526.97	1794.58
527.33	1815.66
527.68	1837.36
528.04	1858.70
528.40	1879.28
528.76	1900.12
529.12	1920.68
529.48	1942.65
529.84	1962.97
530.20	1983.53
530.56	2004.44
530.91	2025.26
531.27	2045.89
531.63	2066.41
531.99	2086.66
532.35	2106.64
532.71	2126.30
533.07	2145.86
533.42	2164.66
533.78	2183.73
534.14	2202.13
534.50	2219.61
534.86	2238.25
535.21	2255.39
535.57	2273.11
535.93	2290.99
536.29	2307.94
536.65	2324.98
537.00	2340.25
537.36	2355.69
537.72	2371.36
538.08	2386.69
538.44	2402.18
538.79	2417.63
539.15	2432.52
539.51	2447.22
539.87	2462.73
540.22	2477.27
540.58	2492.44
540.94	2507.22
541.29	2520.39
541.65	2532.70
542.01	2546.06
542.37	2557.80
542.72	2570.29
543.08	2581.59
543.44	2593.53
543.79	2604.20
544.15	2614.62
544.51	2626.07
544.87	2637.36
545.22	2646.53
545.58	2655.21
545.94	2662.60
546.29	2669.17
546.65	2675.73
547.01	2682.27
547.36	2687.93
547.72	2693.60
548.07	2697.72
548.43	2701.63
548.79	2705.68
549.14	2710.85
549.50	2715.45
549.86	2719.95
550.21	2723.79
550.57	2728.15
550.92	2730.59
551.28	2733.56
551.64	2736.06
551.99	2738.59
552.35	2740.44
552.70	2743.17
553.06	2746.00
553.41	2749.03
553.77	2752.12
554.13	2754.35
554.48	2756.35
554.84	2757.63
555.19	2758.37
555.55	2759.06
555.90	2760.25
556.26	2760.75
556.61	2760.63
556.97	2759.25
557.32	2759.04
557.68	2757.55
558.03	2756.05
558.39	2754.68
558.74	2754.28
559.10	2753.18
559.45	2751.28
559.81	2750.08
560.16	2747.67
560.52	2745.40
560.87	2742.22
561.23	2738.75
561.58	2736.92
561.94	2733.70
562.29	2730.14
562.64	2727.94
563.00	2725.55
563.35	2722.96
563.71	2721.63
564.06	2719.54
564.42	2717.80
564.77	2715.14
565.12	2713.37
565.48	2710.19
565.83	2707.00
566.19	2703.79
566.54	2699.81
566.89	2696.36
567.25	2692.38
567.60	2689.45
567.96	2685.84
568.31	2682.86
568.66	2678.59
569.02	2673.46
569.37	2668.28
569.72	2664.24
570.08	2658.94
570.43	2653.33
570.78	2647.34
571.14	2640.62
571.49	2633.90
571.84	2627.90
572.20	2620.95
572.55	2614.60
572.90	2607.68
573.26	2601.15
573.61	2594.00
573.96	2587.23
574.31	2579.10
574.67	2571.05
575.02	2562.21
575.37	2553.31
575.72	2544.30
576.08	2536.96
576.43	2528.53
576.78	2520.51
577.13	2512.91
577.49	2504.56
577.84	2496.47
578.19	2489.27
578.54	2481.76
578.90	2474.84
579.25	2465.95
579.60	2456.94
579.95	2447.65
580.30	2439.74
580.66	2431.42
581.01	2422.25
581.36	2412.92
581.71	2404.74
582.06	2396.11
582.42	2387.99
582.77	2379.10
583.12	2369.94
583.47	2361.31
583.82	2352.75
584.17	2343.75
584.53	2334.25
584.88	2325.46
585.23	2316.49
585.58	2306.49
585.93	2296.65
586.28	2287.28
586.63	2278.64
586.98	2270.25
587.34	2261.64
587.69	2252.32
588.04	2242.72
588.39	2234.25
588.74	2225.11
589.09	2216.24
589.44	2206.65
589.79	2197.99
590.14	2190.09
590.49	2181.65
590.84	2172.23
591.19	2164.15
591.54	2155.00
591.89	2144.89
592.25	2135.68
592.60	2125.83
592.95	2116.29
593.30	2106.91
593.65	2097.11
594.00	2087.16
594.35	2078.59
594.70	2069.40
595.05	2060.61
595.40	2051.99
595.75	2042.03
596.10	2033.83
596.45	2024.85
596.80	2017.09
597.15	2008.66
597.50	1999.35
597.85	1990.72
598.19	1982.06
598.54	1973.18
598.89	1965.38
599.24	1958.56
599.59	1950.99
599.94	1943.95
600.29	1936.23
600.64	1928.00
600.99	1919.39
601.34	1912.11
601.69	1903.03
602.04	1894.59
602.39	1886.25
602.74	1878.41
603.08	1872.06
603.43	1864.55
603.78	1856.59
604.13	1848.19
604.48	1840.04
604.83	1833.05
605.18	1825.98
605.53	1818.21
605.87	1810.35
606.22	1803.07
606.57	1795.20
606.92	1786.75
607.27	1778.63
607.62	1771.24
607.96	1764.49
608.31	1758.31
608.66	1750.25
609.01	1742.92
609.36	1735.41
609.70	1727.37
610.05	1719.51
610.40	1711.02
610.75	1702.77
611.10	1695.17
611.44	1686.15
611.79	1677.01
612.14	1667.11
612.49	1657.41
612.83	1648.66
613.18	1638.68
613.53	1629.05
613.88	1618.99
614.22	1610.04
614.57	1600.71
614.92	1591.41
615.27	1582.00
615.61	1572.13
615.96	1563.02
616.31	1554.41
616.65	1546.31
617.00	1537.95
617.35	1529.25
617.70	1520.09
618.04	1510.85
618.39	1501.21
618.74	1492.87
619.08	1484.13
619.43	1476.22
619.78	1468.28
620.12	1460.00
620.47	1452.64
620.82	1444.29
621.16	1436.18
621.51	1427.80
621.85	1419.43
622.20	1410.93
622.55	1402.32
622.89	1393.89
623.24	1385.88
623.59	1376.94
623.93	1368.08
624.28	1359.72
624.62	1351.42
624.97	1343.21
625.32	1335.13
625.66	1327.73
626.01	1320.35
626.35	1312.90
626.70	1305.05
627.04	1297.60
627.39	1290.04
627.73	1282.36
628.08	1275.31
628.43	1267.62
628.77	1260.09
629.12	1252.64
629.46	1245.65
629.81	1238.40
630.15	1231.00
630.50	1223.70
630.84	1216.48
631.19	1209.22
631.53	1202.32
631.88	1194.57
632.22	1187.12
632.57	1180.27
632.91	1172.65
633.26	1165.01
633.60	1158.00
633.95	1151.14
634.29	1143.55
634.64	1137.00
634.98	1129.68
635.32	1122.63
635.67	1116.27
636.01	1109.56
636.36	1102.70
636.70	1095.92
637.05	1089.48
637.39	1083.12
637.73	1076.72
638.08	1071.01
638.42	1065.07
638.77	1058.52
639.11	1052.14
639.45	1046.03
639.80	1039.47
640.14	1033.12
640.49	1026.84
640.83	1020.39
641.17	1013.98
641.52	1007.97
641.86	1001.05
642.20	995.15
642.55	988.17
642.89	981.60
643.23	975.30
643.58	969.58
643.92	963.11
644.26	956.67
644.61	950.44
644.95	944.28
645.29	937.73
645.64	931.16
645.98	925.01
646.32	919.45
646.66	913.31
647.01	907.32
647.35	901.40
647.69	895.05
648.04	889.03
648.38	882.70
648.72	876.60
649.06	870.57
649.41	864.33
649.75	858.68
650.09	852.79
650.43	846.80
650.78	840.15
651.12	834.11
651.46	828.25
651.80	822.28
652.14	816.18
652.49	810.28
652.83	804.43
653.17	798.21
653.51	792.08
653.85	786.26
654.20	780.26
654.54	774.47
654.88	768.94
655.22	763.20
655.56	757.41
655.90	751.62
656.25	745.69
656.59	740.06
656.93	734.93
657.27	729.78
657.61	724.20
657.95	719.19
658.29	714.09
658.64	709.04
658.98	703.78
659.32	698.35
659.66	693.11
660.00	687.71
660.34	682.48
660.68	677.14
661.02	672.01
661.36	667.39
661.70	662.40
662.05	657.71
662.39	653.34
662.73	648.96
663.07	644.44
663.41	640.25
663.75	635.67
664.09	630.81
664.43	625.89
664.77	621.67
665.11	617.04
665.45	612.67
665.79	608.03
666.13	603.55
666.47	599.43
666.81	595.30
667.15	591.27
667.49	587.45
667.83	583.64
668.17	579.75
668.51	575.78
668.85	572.04
669.19	568.34
669.53	564.20
669.87	560.25
670.21	556.48
670.55	552.58
670.89	549.16
671.23	545.74
671.57	542.35
671.91	538.69
672.25	535.25
672.58	531.62
672.92	528.19
673.26	525.09
673.60	521.90
673.94	518.48
674.28	515.09
674.62	511.83
674.96	508.50
675.30	505.28
675.64	502.15
675.97	499.00
676.31	495.91
676.65	492.96
676.99	490.32
677.33	487.25
677.67	484.34
678.01	481.08
678.34	478.04
678.68	475.14
679.02	472.23
679.36	469.28
679.70	466.51
680.04	463.73
680.37	460.90
680.71	458.01
681.05	455.40
681.39	452.82
681.73	450.14
682.06	447.64
682.40	445.17
682.74	442.39
683.08	439.79
683.42	437.06
683.75	434.62
684.09	431.87
684.43	429.47
684.77	426.82
685.10	424.41
685.44	421.83
685.78	419.36
686.12	417.01
686.45	414.77
686.79	412.49
687.13	410.23
687.46	407.96
687.80	405.76
688.14	403.41
688.48	401.22
688.81	398.91
689.15	396.76
689.49	394.45
689.82	392.30
690.16	390.03
690.50	387.72
690.83	385.43
691.17	383.11
691.51	380.86
691.84	378.82
692.18	376.74
692.52	374.77
692.85	372.77
693.19	370.87
693.52	368.89
693.86	366.77
694.20	364.87
694.53	362.91
694.87	360.89
695.21	358.89
695.54	356.86
695.88	354.90
696.21	352.91
696.55	351.15
696.88	349.40
697.22	347.62
697.56	346.09
697.89	344.43
698.23	342.87
698.56	341.27
698.90	339.70
699.23	338.06
699.57	336.44
699.90	334.84
700.24	333.17
700.58	331.55
700.91	330.04
701.25	328.49
701.58	327.04
701.92	325.60
702.25	324.18
702.59	322.87
702.92	321.65
703.26	320.41
703.59	319.18
703.93	317.94
704.26	316.74
704.60	315.48
704.93	314.14
705.26	312.93
705.60	311.76
705.93	310.56
706.27	309.46
706.60	308.40
706.94	307.30
707.27	306.13
707.61	305.00
707.94	303.97
708.27	302.83
708.61	301.70
708.94	300.56
709.28	299.52
709.61	298.42
709.94	297.33
710.28	296.21
710.61	295.13
710.95	293.94
711.28	292.97
711.61	291.92
711.95	291.02
712.28	289.96
712.61	288.86
712.95	287.90
713.28	286.98
713.61	286.00
713.95	285.05
714.28	284.17
714.61	283.21
714.95	282.24
715.28	281.32
715.61	280.40
715.95	279.50
716.28	278.60
716.61	277.79
716.95	276.89
717.28	276.05
717.61	275.10
717.94	274.29
718.28	273.41
718.61	272.58
718.94	271.76
719.27	271.00
719.61	270.32
719.94	269.62
720.27	268.87
720.60	268.05
720.94	267.33
721.27	266.62
721.60	266.06
721.93	265.45
722.27	264.81
722.60	264.09
722.93	263.53
723.26	263.01
723.59	262.34
723.93	261.80
724.26	261.26
724.59	260.65
724.92	260.18
725.25	259.60
725.59	259.10
725.92	258.60
726.25	258.10
726.58	257.58
726.91	257.02
727.24	256.48
727.57	255.99
727.91	255.47
728.24	254.98
728.57	254.32
728.90	253.84
729.23	253.33
729.56	253.07
729.89	252.53
730.22	251.98
730.55	251.51
730.89	250.98
731.22	250.47
731.55	250.13
731.88	249.63
732.21	249.18
732.54	248.67
732.87	248.11
733.20	247.68
733.53	247.22
733.86	246.84
734.19	246.44
734.52	246.05
734.85	245.76
735.18	245.31
735.51	245.13
735.84	244.69
736.17	244.36
736.50	243.84
736.83	243.72
737.16	243.29
737.49	242.88
737.82	242.54
738.15	242.22
738.48	241.88
738.81	241.65
739.14	241.28
739.47	240.93
739.80	240.67
740.13	240.27
740.46	239.88
740.79	239.45
741.12	239.04
741.45	238.70
741.78	238.27
742.11	237.98
742.44	237.54
742.77	237.32
743.10	236.96
743.43	236.68
743.75	236.21
744.08	236.18
744.41	235.83
744.74	235.53
745.07	235.20
745.40	234.86
745.73	234.56
746.06	234.20
746.39	233.94
746.71	233.66
747.04	233.41
747.37	233.17
747.70	233.00
748.03	232.80
748.36	232.61
748.68	232.32
749.01	232.08
749.34	231.78
749.67	231.47
750.00	231.22
750.33	231.08
750.65	230.77
750.98	230.32
751.31	230.15
751.64	229.93
751.97	229.75
752.29	229.51
752.62	229.14
752.95	228.95
753.28	228.71
753.60	228.48
753.93	228.33
754.26	228.12
754.59	227.81
754.91	227.57
755.24	227.36
755.57	227.20
755.90	226.98
756.22	226.82
756.55	226.65
756.88	226.48
757.20	226.11
757.53	225.97
757.86	225.72
758.19	225.61
758.51	225.50
758.84	225.28
759.17	225.12
759.49	225.00
759.82	224.95
760.15	224.80
760.47	224.61
760.80	224.40
761.13	224.25
761.45	224.10
761.78	223.98
762.11	223.79
762.43	223.57
762.76	223.44
763.08	223.26
763.41	223.08
763.74	222.90
764.06	222.80
764.39	222.53
764.71	222.41
765.04	222.24
765.37	222.00
765.69	221.84
766.02	221.68
766.34	221.54
766.67	221.33
767.00	221.17
767.32	221.06
767.65	220.97
767.97	220.85
768.30	220.74
768.62	220.56
768.95	220.41
769.27	220.35
769.60	220.24
769.92	220.13
770.25	220.01
770.57	219.93
770.90	219.83
771.22	219.83
771.55	219.67
771.87	219.56
772.20	219.42
772.52	219.53
772.85	219.58
773.17	219.47
773.50	219.33
773.82	219.27
774.15	219.10
774.47	218.88
774.80	218.75
775.12	218.66
775.45	218.59
775.77	218.53
776.09	218.40
776.42	218.26
776.74	218.26
777.07	218.09
777.39	217.96
777.72	217.85
778.04	217.71
778.36	217.65
778.69	217.61
779.01	217.64
779.33	217.44
779.66	217.24
779.98	217.17
780.31	217.20
780.63	217.19
780.95	217.22
781.28	217.23
781.60	217.15
781.92	217.06
782.25	217.00
782.57	216.96
782.89	216.89
783.22	216.79
783.54	216.68
783.86	216.71
784.19	216.66
784.51	216.71
784.83	216.60
785.16	216.60
785.48	216.52
785.80	216.45
786.12	216.35
786.45	216.37
