SpectraSuite Data File
++++++++++++++++++++++++++++++++++++
Date: Mon Feb 25 17:35:03 EST 2013
User: group
Dark Spectrum Present: No
Reference Spectrum Present: No
Number of Sampled Component Spectra: 1
Spectrometers: USB2E7196
Integration Time (usec): 52000 (USB2E7196)
Spectra Averaged: 20 (USB2E7196)
Boxcar Smoothing: 10 (USB2E7196)
Correct for Electrical Dark: No (USB2E7196)
Strobe/Lamp Enabled: No (USB2E7196)
Correct for Detector Non-linearity: No (USB2E7196)
Correct for Stray Light: No (USB2E7196)
Number of Pixels in Processed Spectrum: 2048
>>>>>Begin Processed Spectral Data<<<<<
339.09	0.00
339.48	198.30
339.86	201.00
340.24	200.70
340.63	203.30
341.01	207.90
341.39	204.75
341.78	207.10
342.16	207.85
342.54	208.85
342.93	197.98
343.31	207.94
343.69	208.52
344.07	208.95
344.46	209.46
344.84	209.88
345.22	210.00
345.60	210.31
345.99	210.45
346.37	210.60
346.75	210.69
347.13	210.79
347.52	210.87
347.90	210.98
348.28	211.01
348.66	211.07
349.05	211.11
349.43	211.24
349.81	211.30
350.19	211.38
350.57	211.44
350.96	211.53
351.34	211.63
351.72	211.74
352.10	211.84
352.48	211.88
352.87	211.92
353.25	212.05
353.63	212.09
354.01	212.20
354.39	212.29
354.77	212.32
355.15	212.50
355.54	212.48
355.92	212.43
356.30	212.48
356.68	212.70
357.06	212.75
357.44	212.69
357.82	212.69
358.20	212.78
358.58	212.77
358.97	212.76
359.35	212.93
359.73	212.98
360.11	212.98
360.49	213.00
360.87	213.03
361.25	213.10
361.63	213.28
362.01	213.33
362.39	213.36
362.77	213.47
363.15	213.45
363.53	213.55
363.91	213.66
364.29	213.68
364.67	213.59
365.05	213.57
365.43	213.62
365.81	213.61
366.19	213.63
366.57	213.74
366.95	213.82
367.33	213.75
367.71	213.83
368.09	213.94
368.47	213.94
368.85	213.94
369.23	213.93
369.61	213.79
369.99	213.86
370.37	213.86
370.75	214.00
371.13	213.97
371.51	213.91
371.89	213.82
372.27	213.79
372.65	213.74
373.03	213.69
373.41	213.64
373.78	213.60
374.16	213.50
374.54	213.44
374.92	213.30
375.30	213.23
375.68	213.10
376.06	213.03
376.44	213.00
376.82	212.97
377.19	212.95
377.57	212.93
377.95	212.82
378.33	212.76
378.71	212.52
379.09	212.51
379.47	212.52
379.84	212.52
380.22	212.50
380.60	212.45
380.98	212.39
381.36	212.39
381.73	212.38
382.11	212.36
382.49	212.25
382.87	212.18
383.25	212.12
383.62	212.24
384.00	212.18
384.38	212.21
384.76	212.20
385.13	212.16
385.51	212.14
385.89	212.08
386.27	212.08
386.64	212.15
387.02	212.08
387.40	212.03
387.78	212.00
388.15	211.93
388.53	211.93
388.91	211.97
389.29	211.90
389.66	211.96
390.04	211.91
390.42	212.00
390.79	212.06
391.17	212.10
391.55	211.84
391.92	211.76
392.30	211.71
392.68	211.59
393.05	211.51
393.43	211.49
393.81	211.48
394.18	211.41
394.56	211.33
394.94	211.38
395.31	211.45
395.69	211.47
396.06	211.56
396.44	211.57
396.82	211.56
397.19	211.63
397.57	211.59
397.95	211.66
398.32	211.62
398.70	211.66
399.07	211.69
399.45	211.79
399.82	211.92
400.20	211.94
400.58	212.06
400.95	212.08
401.33	212.15
401.70	212.32
402.08	212.33
402.45	212.40
402.83	212.50
403.20	212.46
403.58	212.50
403.95	212.62
404.33	212.71
404.71	212.75
405.08	212.95
405.46	213.06
405.83	213.23
406.21	213.35
406.58	213.42
406.96	213.55
407.33	213.71
407.70	213.84
408.08	214.18
408.45	214.37
408.83	214.72
409.20	214.92
409.58	215.08
409.95	215.47
410.33	215.76
410.70	216.03
411.08	216.43
411.45	216.80
411.82	217.06
412.20	217.50
412.57	218.10
412.95	218.40
413.32	218.90
413.69	219.37
414.07	219.93
414.44	220.58
414.82	221.32
415.19	222.14
415.56	222.80
415.94	223.46
416.31	224.44
416.68	225.23
417.06	226.27
417.43	227.27
417.81	228.36
418.18	229.51
418.55	230.67
418.93	232.03
419.30	233.37
419.67	234.83
420.04	236.25
420.42	237.77
420.79	239.63
421.16	241.35
421.54	243.16
421.91	245.00
422.28	246.99
422.66	249.02
423.03	250.98
423.40	253.19
423.77	255.42
424.15	257.57
424.52	260.02
424.89	262.65
425.26	265.15
425.64	267.55
426.01	270.16
426.38	272.90
426.75	275.55
427.13	278.36
427.50	281.37
427.87	284.46
428.24	287.56
428.61	290.47
428.99	293.68
429.36	297.23
429.73	300.68
430.10	304.09
430.47	307.60
430.85	311.33
431.22	315.20
431.59	319.38
431.96	323.38
432.33	327.67
432.70	331.91
433.08	336.95
433.45	341.54
433.82	346.09
434.19	351.31
434.56	356.45
434.93	361.28
435.30	366.10
435.68	371.46
436.05	376.61
436.42	381.83
436.79	386.75
437.16	391.85
437.53	397.40
437.90	402.84
438.27	408.04
438.64	413.46
439.01	418.54
439.38	422.85
439.75	427.16
440.13	432.10
440.50	436.53
440.87	440.11
441.24	444.05
441.61	448.36
441.98	451.48
442.35	455.02
442.72	458.84
443.09	462.36
443.46	464.42
443.83	465.90
444.20	467.01
444.57	468.64
444.94	469.41
445.31	470.04
445.68	470.82
446.05	471.17
446.42	470.50
446.79	469.73
447.16	468.95
447.53	468.32
447.90	466.01
448.27	464.03
448.64	461.22
449.01	459.02
449.37	455.39
449.74	451.79
450.11	447.69
450.48	443.04
450.85	438.43
451.22	434.40
451.59	430.58
451.96	427.10
452.33	422.30
452.70	417.94
453.07	412.80
453.43	407.43
453.80	402.30
454.17	397.44
454.54	392.88
454.91	388.10
455.28	383.29
455.65	378.95
456.02	374.56
456.38	370.66
456.75	365.97
457.12	362.11
457.49	358.24
457.86	354.40
458.23	351.11
458.59	347.49
458.96	343.91
459.33	340.67
459.70	337.37
460.07	334.90
460.43	331.91
460.80	329.25
461.17	326.85
461.54	324.37
461.91	322.07
462.27	319.64
462.64	317.51
463.01	315.26
463.38	313.20
463.74	310.87
464.11	308.96
464.48	307.30
464.85	305.51
465.21	304.14
465.58	302.73
465.95	301.02
466.32	299.70
466.68	298.30
467.05	296.93
467.42	295.58
467.78	294.00
468.15	292.65
468.52	291.56
468.88	290.29
469.25	289.13
469.62	288.09
469.98	287.03
470.35	286.18
470.72	285.39
471.08	284.33
471.45	283.60
471.82	282.93
472.18	282.14
472.55	281.49
472.92	280.74
473.28	280.20
473.65	279.66
474.02	279.04
474.38	278.66
474.75	278.31
475.11	277.94
475.48	277.73
475.85	277.55
476.21	277.35
476.58	277.18
476.94	277.16
477.31	277.21
477.67	277.18
478.04	277.15
478.41	277.26
478.77	277.56
479.14	277.65
479.50	277.90
479.87	278.29
480.23	278.74
480.60	279.18
480.96	279.56
481.33	280.21
481.69	280.97
482.06	281.59
482.42	282.30
482.79	282.94
483.15	283.86
483.52	284.78
483.88	285.75
484.25	286.74
484.61	287.77
484.98	288.78
485.34	290.12
485.71	291.50
486.07	292.85
486.44	294.23
486.80	295.75
487.17	297.36
487.53	299.09
487.90	300.87
488.26	302.81
488.62	304.84
488.99	306.77
489.35	308.69
489.72	310.95
490.08	313.35
490.44	315.87
490.81	318.38
491.17	321.14
491.54	324.01
491.90	327.06
492.26	330.32
492.63	333.63
492.99	337.04
493.36	340.68
493.72	344.52
494.08	348.63
494.45	353.04
494.81	357.46
495.17	362.05
495.54	367.03
495.90	372.15
496.26	377.35
496.63	382.88
496.99	388.71
497.35	394.77
497.72	400.90
498.08	407.35
498.44	414.11
498.80	421.25
499.17	428.79
499.53	436.45
499.89	444.37
500.26	452.63
500.62	461.05
500.98	470.06
501.34	479.23
501.71	488.59
502.07	498.30
502.43	508.42
502.79	518.65
503.16	529.18
503.52	539.85
503.88	551.17
504.24	562.89
504.60	574.92
504.97	587.25
505.33	599.85
505.69	613.26
506.05	626.95
506.41	640.62
506.78	654.30
507.14	668.38
507.50	682.98
507.86	697.91
508.22	713.43
508.59	728.78
508.95	744.82
509.31	761.03
509.67	777.73
510.03	794.59
510.39	812.07
510.75	829.96
511.12	848.46
511.48	866.97
511.84	885.69
512.20	904.35
512.56	923.64
512.92	943.19
513.28	962.85
513.64	982.67
514.00	1002.65
514.37	1023.50
514.73	1044.66
515.09	1065.35
515.45	1086.27
515.81	1107.34
516.17	1128.86
516.53	1150.24
516.89	1171.94
517.25	1193.41
517.61	1215.26
517.97	1236.82
518.33	1258.40
518.69	1280.06
519.05	1302.27
519.41	1324.38
519.77	1347.35
520.13	1369.47
520.49	1391.81
520.85	1414.28
521.21	1436.82
521.57	1459.98
521.93	1481.84
522.29	1504.63
522.65	1527.30
523.01	1550.00
523.37	1572.42
523.73	1595.08
524.09	1617.25
524.45	1639.77
524.81	1662.41
525.17	1685.00
525.53	1707.80
525.89	1730.46
526.25	1752.92
526.61	1774.29
526.97	1796.18
527.33	1817.38
527.68	1839.08
528.04	1860.37
528.40	1881.03
528.76	1902.04
529.12	1922.84
529.48	1944.57
529.84	1965.22
530.20	1985.80
530.56	2006.55
530.91	2027.40
531.27	2047.82
531.63	2068.43
531.99	2088.63
532.35	2107.96
532.71	2127.04
533.07	2146.82
533.42	2165.66
533.78	2184.46
534.14	2203.05
534.50	2220.73
534.86	2239.04
535.21	2256.24
535.57	2274.15
535.93	2291.76
536.29	2308.77
536.65	2325.64
537.00	2341.37
537.36	2356.74
537.72	2372.50
538.08	2388.13
538.44	2403.78
538.79	2419.25
539.15	2434.08
539.51	2449.07
539.87	2464.89
540.22	2479.73
540.58	2494.69
540.94	2509.08
541.29	2522.32
541.65	2535.13
542.01	2548.30
542.37	2560.10
542.72	2572.60
543.08	2583.87
543.44	2596.10
543.79	2606.40
544.15	2616.47
544.51	2627.91
544.87	2639.09
545.22	2648.37
545.58	2656.92
545.94	2664.10
546.29	2670.82
546.65	2677.54
547.01	2683.67
547.36	2689.22
547.72	2694.99
548.07	2699.29
548.43	2703.28
548.79	2707.81
549.14	2712.50
549.50	2716.88
549.86	2721.21
550.21	2725.35
550.57	2729.46
550.92	2732.12
551.28	2735.03
551.64	2737.97
551.99	2740.37
552.35	2741.57
552.70	2744.67
553.06	2747.70
553.41	2751.08
553.77	2754.16
554.13	2756.62
554.48	2758.87
554.84	2760.78
555.19	2761.54
555.55	2762.07
555.90	2762.47
556.26	2762.65
556.61	2762.61
556.97	2761.71
557.32	2761.32
557.68	2759.88
558.03	2758.76
558.39	2757.20
558.74	2756.88
559.10	2755.85
559.45	2753.79
559.81	2753.33
560.16	2750.51
560.52	2747.64
560.87	2744.33
561.23	2740.58
561.58	2738.29
561.94	2734.81
562.29	2730.92
562.64	2728.64
563.00	2726.01
563.35	2724.52
563.71	2722.67
564.06	2720.78
564.42	2719.00
564.77	2716.83
565.12	2715.07
565.48	2711.98
565.83	2709.25
566.19	2706.20
566.54	2701.97
566.89	2698.37
567.25	2694.44
567.60	2691.22
567.96	2687.84
568.31	2684.66
568.66	2680.76
569.02	2675.96
569.37	2671.01
569.72	2667.33
570.08	2661.85
570.43	2656.66
570.78	2650.65
571.14	2644.43
571.49	2637.81
571.84	2632.00
572.20	2625.29
572.55	2618.72
572.90	2611.94
573.26	2604.88
573.61	2597.77
573.96	2591.34
574.31	2583.29
574.67	2574.95
575.02	2566.45
575.37	2557.63
575.72	2548.78
576.08	2541.25
576.43	2532.57
576.78	2524.75
577.13	2516.45
577.49	2508.46
577.84	2500.34
578.19	2492.72
578.54	2485.05
578.90	2477.80
579.25	2468.68
579.60	2459.41
579.95	2449.67
580.30	2441.28
580.66	2433.11
581.01	2423.62
581.36	2414.12
581.71	2405.75
582.06	2397.10
582.42	2388.67
582.77	2379.94
583.12	2370.61
583.47	2361.85
583.82	2353.63
584.17	2344.34
584.53	2335.18
584.88	2326.29
585.23	2316.80
585.58	2306.85
585.93	2297.03
586.28	2287.60
586.63	2278.97
586.98	2270.59
587.34	2262.38
587.69	2253.33
588.04	2243.95
588.39	2235.76
588.74	2226.73
589.09	2218.07
589.44	2208.60
589.79	2200.10
590.14	2191.96
590.49	2183.62
590.84	2174.33
591.19	2165.87
591.54	2157.15
591.89	2147.07
592.25	2137.71
592.60	2128.41
592.95	2119.12
593.30	2109.78
593.65	2099.93
594.00	2089.75
594.35	2081.16
594.70	2071.85
595.05	2063.18
595.40	2054.34
595.75	2044.81
596.10	2036.48
596.45	2027.81
596.80	2019.94
597.15	2011.62
597.50	2002.46
597.85	1993.91
598.19	1985.12
598.54	1976.45
598.89	1968.35
599.24	1961.44
599.59	1953.79
599.94	1946.93
600.29	1939.04
600.64	1930.84
600.99	1922.49
601.34	1915.24
601.69	1906.26
602.04	1897.60
602.39	1889.35
602.74	1881.45
603.08	1874.30
603.43	1866.86
603.78	1858.63
604.13	1850.61
604.48	1842.37
604.83	1835.17
605.18	1828.03
605.53	1820.59
605.87	1812.73
606.22	1805.62
606.57	1797.32
606.92	1789.11
607.27	1780.49
607.62	1773.16
607.96	1766.20
608.31	1760.02
608.66	1752.21
609.01	1744.59
609.36	1737.11
609.70	1729.09
610.05	1721.13
610.40	1712.95
610.75	1704.40
611.10	1696.66
611.44	1687.34
611.79	1678.29
612.14	1668.75
612.49	1658.85
612.83	1649.90
613.18	1639.92
613.53	1630.14
613.88	1620.52
614.22	1611.71
614.57	1602.26
614.92	1592.71
615.27	1583.52
615.61	1573.29
615.96	1564.30
616.31	1555.85
616.65	1547.90
617.00	1539.05
617.35	1530.37
617.70	1521.32
618.04	1512.23
618.39	1502.87
618.74	1494.48
619.08	1485.72
619.43	1477.44
619.78	1469.78
620.12	1461.73
620.47	1454.06
620.82	1445.46
621.16	1437.11
621.51	1428.26
621.85	1420.13
622.20	1411.78
622.55	1403.08
622.89	1395.06
623.24	1387.02
623.59	1377.99
623.93	1369.24
624.28	1361.31
624.62	1352.91
624.97	1344.76
625.32	1336.87
625.66	1329.48
626.01	1321.93
626.35	1314.54
626.70	1306.80
627.04	1299.20
627.39	1291.48
627.73	1284.01
628.08	1276.99
628.43	1269.62
628.77	1262.44
629.12	1254.67
629.46	1247.91
629.81	1240.70
630.15	1233.21
630.50	1225.54
630.84	1218.51
631.19	1211.37
631.53	1204.16
631.88	1196.49
632.22	1188.83
632.57	1181.92
632.91	1174.22
633.26	1166.64
633.60	1159.33
633.95	1152.30
634.29	1145.01
634.64	1138.11
634.98	1130.92
635.32	1124.11
635.67	1117.65
636.01	1110.95
636.36	1104.38
636.70	1097.55
637.05	1090.77
637.39	1084.36
637.73	1078.04
638.08	1071.97
638.42	1066.01
638.77	1059.56
639.11	1053.33
639.45	1047.29
639.80	1040.58
640.14	1034.31
640.49	1028.22
640.83	1022.05
641.17	1015.80
641.52	1009.60
641.86	1003.14
642.20	996.85
642.55	989.76
642.89	983.10
643.23	976.61
643.58	970.74
643.92	964.15
644.26	957.87
644.61	951.70
644.95	945.52
645.29	939.35
645.64	932.55
645.98	926.12
646.32	920.36
646.66	914.21
647.01	908.10
647.35	902.20
647.69	896.00
648.04	890.02
648.38	883.89
648.72	877.77
649.06	871.58
649.41	865.49
649.75	859.86
650.09	854.18
650.43	848.16
650.78	841.75
651.12	835.60
651.46	829.83
651.80	823.84
652.14	817.80
652.49	811.66
652.83	805.75
653.17	799.93
653.51	793.78
653.85	788.11
654.20	782.20
654.54	776.24
654.88	770.61
655.22	764.60
655.56	758.59
655.90	752.64
656.25	746.80
656.59	741.31
656.93	736.12
657.27	730.67
657.61	725.25
657.95	720.22
658.29	715.02
658.64	709.80
658.98	704.52
659.32	699.19
659.66	694.23
660.00	688.87
660.34	683.50
660.68	678.47
661.02	673.19
661.36	668.51
661.70	663.56
662.05	658.88
662.39	654.48
662.73	650.16
663.07	645.85
663.41	641.53
663.75	636.96
664.09	632.18
664.43	627.35
664.77	622.93
665.11	618.39
665.45	614.05
665.79	609.75
666.13	605.36
666.47	601.13
666.81	596.61
667.15	592.47
667.49	588.61
667.83	584.56
668.17	580.72
668.51	576.84
668.85	573.14
669.19	569.39
669.53	565.39
669.87	561.25
670.21	557.34
670.55	553.29
670.89	549.84
671.23	546.41
671.57	542.98
671.91	539.37
672.25	535.62
672.58	532.15
672.92	528.57
673.26	525.31
673.60	521.96
673.94	518.78
674.28	515.54
674.62	512.33
674.96	509.02
675.30	505.95
675.64	502.65
675.97	499.40
676.31	496.29
676.65	493.37
676.99	490.86
677.33	487.84
677.67	485.02
678.01	481.80
678.34	478.72
678.68	475.72
679.02	472.69
679.36	469.97
679.70	467.02
680.04	464.18
680.37	461.17
680.71	458.49
681.05	455.75
681.39	453.09
681.73	450.36
682.06	447.86
682.40	445.14
682.74	442.57
683.08	440.05
683.42	437.24
683.75	434.64
684.09	431.85
684.43	429.43
684.77	426.78
685.10	424.30
685.44	421.66
685.78	419.18
686.12	416.94
686.45	414.46
686.79	412.22
687.13	409.90
687.46	407.63
687.80	405.27
688.14	402.93
688.48	400.72
688.81	398.42
689.15	396.13
689.49	393.85
689.82	391.46
690.16	389.14
690.50	386.96
690.83	384.66
691.17	382.39
691.51	380.13
691.84	378.06
692.18	376.00
692.52	374.05
692.85	372.26
693.19	370.35
693.52	368.42
693.86	366.35
694.20	364.41
694.53	362.59
694.87	360.62
695.21	358.62
695.54	356.72
695.88	354.84
696.21	353.00
696.55	351.27
696.88	349.57
697.22	347.75
697.56	346.17
697.89	344.50
698.23	343.01
698.56	341.38
698.90	339.81
699.23	338.13
699.57	336.58
699.90	334.82
700.24	333.09
700.58	331.50
700.91	329.98
701.25	328.55
701.58	327.12
701.92	325.71
702.25	324.32
702.59	322.85
702.92	321.45
703.26	320.10
703.59	318.73
703.93	317.60
704.26	316.47
704.60	315.19
704.93	313.90
705.26	312.52
705.60	311.30
705.93	310.08
706.27	308.97
706.60	307.74
706.94	306.58
707.27	305.37
707.61	304.25
707.94	303.15
708.27	301.96
708.61	300.75
708.94	299.70
709.28	298.62
709.61	297.54
709.94	296.52
710.28	295.38
710.61	294.49
710.95	293.30
711.28	292.25
711.61	291.15
711.95	290.25
712.28	289.28
712.61	288.24
712.95	287.27
713.28	286.35
713.61	285.44
713.95	284.49
714.28	283.65
714.61	282.73
714.95	281.79
715.28	280.79
715.61	279.93
715.95	278.90
716.28	277.99
716.61	277.11
716.95	276.21
717.28	275.36
717.61	274.48
717.94	273.69
718.28	272.83
718.61	272.11
718.94	271.31
719.27	270.61
719.61	269.90
719.94	269.21
720.27	268.45
720.60	267.69
720.94	266.98
721.27	266.34
721.60	265.72
721.93	265.08
722.27	264.56
722.60	263.99
722.93	263.43
723.26	262.89
723.59	262.33
723.93	261.76
724.26	261.32
724.59	260.64
724.92	260.09
725.25	259.58
725.59	259.00
725.92	258.50
726.25	257.98
726.58	257.58
726.91	257.09
727.24	256.55
727.57	256.09
727.91	255.54
728.24	255.04
728.57	254.54
728.90	254.10
729.23	253.57
729.56	253.11
729.89	252.72
730.22	252.19
730.55	251.63
730.89	251.17
731.22	250.64
731.55	250.28
731.88	249.86
732.21	249.40
732.54	248.96
732.87	248.50
733.20	248.00
733.53	247.41
733.86	246.95
734.19	246.50
734.52	246.09
734.85	245.94
735.18	245.57
735.51	245.18
735.84	244.86
736.17	244.55
736.50	244.13
736.83	243.83
737.16	243.52
737.49	243.23
737.82	242.87
738.15	242.58
738.48	242.12
738.81	241.72
739.14	241.32
739.47	240.94
739.80	240.60
740.13	240.30
740.46	239.94
740.79	239.60
741.12	239.22
741.45	238.88
741.78	238.40
742.11	238.06
742.44	237.73
742.77	237.36
743.10	236.96
743.43	236.64
743.75	236.18
744.08	236.08
744.41	235.80
744.74	235.53
745.07	235.20
745.40	235.04
745.73	234.86
746.06	234.64
746.39	234.31
746.71	234.03
747.04	233.77
747.37	233.50
747.70	233.26
748.03	233.10
748.36	232.92
748.68	232.66
749.01	232.41
749.34	232.18
749.67	231.94
750.00	231.75
750.33	231.56
750.65	231.43
750.98	230.97
751.31	230.77
751.64	230.48
751.97	230.31
752.29	230.05
752.62	229.68
752.95	229.43
753.28	229.19
753.60	228.95
753.93	228.74
754.26	228.52
754.59	228.23
754.91	227.97
755.24	227.69
755.57	227.56
755.90	227.32
756.22	227.10
756.55	226.89
756.88	226.60
757.20	226.38
757.53	226.05
757.86	225.83
758.19	225.60
758.51	225.46
758.84	225.15
759.17	224.90
759.49	224.81
759.82	224.70
760.15	224.60
760.47	224.41
760.80	224.23
761.13	224.13
761.45	223.97
761.78	223.83
762.11	223.75
762.43	223.52
762.76	223.38
763.08	223.33
763.41	223.11
763.74	222.98
764.06	222.81
764.39	222.73
764.71	222.57
765.04	222.47
765.37	222.40
765.69	222.29
766.02	222.18
766.34	222.05
766.67	221.95
767.00	221.85
767.32	221.90
767.65	221.88
767.97	221.76
768.30	221.67
768.62	221.53
768.95	221.43
769.27	221.32
769.60	221.25
769.92	221.11
770.25	221.00
770.57	220.86
770.90	220.68
771.22	220.53
771.55	220.49
771.87	220.36
772.20	220.18
772.52	220.27
772.85	220.43
773.17	220.27
773.50	220.06
773.82	219.95
774.15	219.67
774.47	219.45
774.80	219.34
775.12	219.20
775.45	219.12
775.77	219.02
776.09	218.91
776.42	218.78
776.74	218.68
777.07	218.58
777.39	218.55
777.72	218.46
778.04	218.44
778.36	218.28
778.69	218.22
779.01	218.17
779.33	217.94
779.66	217.65
779.98	217.52
780.31	217.47
780.63	217.42
780.95	217.37
781.28	217.32
781.60	217.20
781.92	217.20
782.25	217.09
782.57	216.96
782.89	216.91
783.22	216.87
783.54	216.70
783.86	216.74
784.19	216.66
784.51	216.72
784.83	216.63
785.16	216.63
785.48	216.56
785.80	216.52
786.12	216.46
786.45	216.40
