SpectraSuite Data File
++++++++++++++++++++++++++++++++++++
Date: Mon Feb 25 17:34:32 EST 2013
User: group
Dark Spectrum Present: No
Reference Spectrum Present: No
Number of Sampled Component Spectra: 1
Spectrometers: USB2E7196
Integration Time (usec): 52000 (USB2E7196)
Spectra Averaged: 20 (USB2E7196)
Boxcar Smoothing: 10 (USB2E7196)
Correct for Electrical Dark: No (USB2E7196)
Strobe/Lamp Enabled: No (USB2E7196)
Correct for Detector Non-linearity: No (USB2E7196)
Correct for Stray Light: No (USB2E7196)
Number of Pixels in Processed Spectrum: 2048
>>>>>Begin Processed Spectral Data<<<<<
339.09	0.00
339.48	199.00
339.86	200.00
340.24	202.25
340.63	202.15
341.01	205.95
341.39	206.20
341.78	206.95
342.16	209.05
342.54	207.40
342.93	197.93
343.31	207.88
343.69	208.36
344.07	208.79
344.46	209.17
344.84	209.59
345.22	209.88
345.60	210.14
345.99	210.32
346.37	210.39
346.75	210.54
347.13	210.51
347.52	210.61
347.90	210.67
348.28	210.71
348.66	210.86
349.05	210.89
349.43	210.89
349.81	211.01
350.19	211.04
350.57	211.12
350.96	211.11
351.34	211.22
351.72	211.31
352.10	211.49
352.48	211.55
352.87	211.63
353.25	211.60
353.63	211.67
354.01	211.78
354.39	211.94
354.77	212.01
355.15	212.13
355.54	212.20
355.92	212.22
356.30	212.32
356.68	212.46
357.06	212.58
357.44	212.70
357.82	212.75
358.20	212.83
358.58	212.93
358.97	213.10
359.35	213.25
359.73	213.43
360.11	213.48
360.49	213.57
360.87	213.62
361.25	213.77
361.63	213.88
362.01	213.97
362.39	214.02
362.77	214.07
363.15	214.10
363.53	214.18
363.91	214.26
364.29	214.26
364.67	214.13
365.05	214.20
365.43	214.30
365.81	214.29
366.19	214.42
366.57	214.44
366.95	214.38
367.33	214.40
367.71	214.37
368.09	214.46
368.47	214.49
368.85	214.50
369.23	214.58
369.61	214.50
369.99	214.51
370.37	214.53
370.75	214.63
371.13	214.62
371.51	214.53
371.89	214.42
372.27	214.47
372.65	214.46
373.03	214.41
373.41	214.31
373.78	214.33
374.16	214.18
374.54	214.17
374.92	214.09
375.30	214.00
375.68	213.91
376.06	213.84
376.44	213.72
376.82	213.65
377.19	213.51
377.57	213.45
377.95	213.30
378.33	213.24
378.71	213.11
379.09	213.08
379.47	213.06
379.84	213.02
380.22	212.86
380.60	212.87
380.98	212.86
381.36	212.80
381.73	212.68
382.11	212.68
382.49	212.63
382.87	212.58
383.25	212.55
383.62	212.72
384.00	212.57
384.38	212.56
384.76	212.51
385.13	212.56
385.51	212.58
385.89	212.57
386.27	212.43
386.64	212.37
387.02	212.33
387.40	212.27
387.78	212.32
388.15	212.30
388.53	212.18
388.91	212.08
389.29	212.01
389.66	212.03
390.04	211.95
390.42	211.94
390.79	211.93
391.17	211.92
391.55	211.73
391.92	211.74
392.30	211.75
392.68	211.71
393.05	211.65
393.43	211.56
393.81	211.60
394.18	211.61
394.56	211.67
394.94	211.64
395.31	211.55
395.69	211.56
396.06	211.64
396.44	211.67
396.82	211.68
397.19	211.79
397.57	211.80
397.95	211.87
398.32	211.87
398.70	211.87
399.07	211.90
399.45	211.95
399.82	212.02
400.20	211.96
400.58	212.08
400.95	212.04
401.33	212.13
401.70	212.22
402.08	212.20
402.45	212.17
402.83	212.26
403.20	212.37
403.58	212.40
403.95	212.48
404.33	212.56
404.71	212.64
405.08	212.79
405.46	212.88
405.83	213.02
406.21	213.10
406.58	213.31
406.96	213.51
407.33	213.68
407.70	213.80
408.08	214.18
408.45	214.40
408.83	214.65
409.20	214.95
409.58	215.17
409.95	215.52
410.33	215.85
410.70	216.15
411.08	216.52
411.45	216.97
411.82	217.29
412.20	217.77
412.57	218.32
412.95	218.68
413.32	219.27
413.69	219.79
414.07	220.43
414.44	221.02
414.82	221.61
415.19	222.33
415.56	223.11
415.94	223.85
416.31	224.79
416.68	225.70
417.06	226.64
417.43	227.61
417.81	228.72
418.18	229.91
418.55	231.18
418.93	232.48
419.30	233.72
419.67	235.15
420.04	236.56
420.42	238.05
420.79	239.83
421.16	241.53
421.54	243.37
421.91	245.22
422.28	247.08
422.66	249.12
423.03	251.22
423.40	253.32
423.77	255.50
424.15	257.73
424.52	260.09
424.89	262.72
425.26	265.14
425.64	267.49
426.01	270.05
426.38	272.72
426.75	275.47
427.13	278.31
427.50	281.33
427.87	284.46
428.24	287.55
428.61	290.50
428.99	293.71
429.36	297.18
429.73	300.66
430.10	304.24
430.47	307.78
430.85	311.36
431.22	315.20
431.59	319.43
431.96	323.30
432.33	327.71
432.70	331.87
433.08	336.89
433.45	341.55
433.82	346.18
434.19	351.29
434.56	356.30
434.93	361.08
435.30	365.96
435.68	371.21
436.05	376.45
436.42	381.60
436.79	386.34
437.16	391.53
437.53	396.91
437.90	402.14
438.27	407.35
438.64	412.74
439.01	417.79
439.38	422.15
439.75	426.43
440.13	431.22
440.50	435.64
440.87	439.25
441.24	443.16
441.61	447.41
441.98	450.44
442.35	454.04
442.72	457.66
443.09	461.10
443.46	463.19
443.83	464.48
444.20	465.70
444.57	467.54
444.94	468.20
445.31	468.90
445.68	469.70
446.05	469.94
446.42	469.29
446.79	468.57
447.16	467.76
447.53	467.17
447.90	464.98
448.27	463.05
448.64	460.15
449.01	458.06
449.37	454.37
449.74	450.90
450.11	446.78
450.48	442.35
450.85	437.65
451.22	433.72
451.59	429.98
451.96	426.34
452.33	421.40
452.70	417.17
453.07	411.95
453.43	406.66
453.80	401.73
454.17	396.86
454.54	392.21
454.91	387.35
455.28	382.55
455.65	378.24
456.02	373.84
456.38	370.09
456.75	365.31
457.12	361.46
457.49	357.70
457.86	353.85
458.23	350.61
458.59	347.18
458.96	343.57
459.33	340.36
459.70	337.24
460.07	334.72
460.43	331.70
460.80	329.10
461.17	326.75
461.54	324.25
461.91	322.02
462.27	319.77
462.64	317.81
463.01	315.59
463.38	313.39
463.74	311.08
464.11	309.31
464.48	307.72
464.85	305.85
465.21	304.42
465.58	303.00
465.95	301.20
466.32	299.76
466.68	298.38
467.05	296.96
467.42	295.50
467.78	294.17
468.15	292.75
468.52	291.77
468.88	290.43
469.25	289.20
469.62	288.20
469.98	287.15
470.35	286.16
470.72	285.32
471.08	284.40
471.45	283.69
471.82	282.80
472.18	281.95
472.55	281.46
472.92	280.75
473.28	280.25
473.65	279.80
474.02	279.26
474.38	278.85
474.75	278.62
475.11	278.30
475.48	278.05
475.85	277.92
476.21	277.70
476.58	277.61
476.94	277.54
477.31	277.48
477.67	277.40
478.04	277.44
478.41	277.61
478.77	277.91
479.14	278.02
479.50	278.30
479.87	278.65
480.23	279.01
480.60	279.38
480.96	279.78
481.33	280.38
481.69	280.99
482.06	281.63
482.42	282.21
482.79	282.89
483.15	283.75
483.52	284.83
483.88	285.78
484.25	286.72
484.61	287.81
484.98	289.00
485.34	290.35
485.71	291.73
486.07	293.02
486.44	294.30
486.80	295.86
487.17	297.39
487.53	299.13
487.90	300.93
488.26	302.84
488.62	304.78
488.99	306.81
489.35	308.94
489.72	311.20
490.08	313.58
490.44	316.06
490.81	318.63
491.17	321.25
491.54	324.11
491.90	327.20
492.26	330.41
492.63	333.65
492.99	337.03
493.36	340.56
493.72	344.46
494.08	348.49
494.45	352.78
494.81	357.40
495.17	361.97
495.54	366.89
495.90	372.08
496.26	377.36
496.63	382.83
496.99	388.56
497.35	394.62
497.72	400.94
498.08	407.45
498.44	414.15
498.80	421.32
499.17	428.64
499.53	436.32
499.89	444.34
500.26	452.49
500.62	460.90
500.98	469.81
501.34	479.01
501.71	488.62
502.07	498.36
502.43	508.37
502.79	518.57
503.16	529.23
503.52	540.06
503.88	551.34
504.24	562.89
504.60	574.86
504.97	587.17
505.33	599.66
505.69	613.04
506.05	626.59
506.41	640.26
506.78	654.20
507.14	668.33
507.50	682.88
507.86	697.73
508.22	713.14
508.59	728.67
508.95	744.65
509.31	760.95
509.67	777.67
510.03	794.46
510.39	812.36
510.75	830.10
511.12	848.10
511.48	866.59
511.84	885.34
512.20	904.11
512.56	923.22
512.92	942.96
513.28	962.48
513.64	982.11
514.00	1002.04
514.37	1022.32
514.73	1043.29
515.09	1063.97
515.45	1084.94
515.81	1106.31
516.17	1127.52
516.53	1148.86
516.89	1170.30
517.25	1191.94
517.61	1213.75
517.97	1235.12
518.33	1256.88
518.69	1278.70
519.05	1300.76
519.41	1323.11
519.77	1345.85
520.13	1368.12
520.49	1390.17
520.85	1412.71
521.21	1435.30
521.57	1458.24
521.93	1480.68
522.29	1503.55
522.65	1526.24
523.01	1548.92
523.37	1571.01
523.73	1593.43
524.09	1615.79
524.45	1638.20
524.81	1660.72
525.17	1683.18
525.53	1705.86
525.89	1728.32
526.25	1750.60
526.61	1772.24
526.97	1794.06
527.33	1815.27
527.68	1837.00
528.04	1858.51
528.40	1879.16
528.76	1900.40
529.12	1921.02
529.48	1942.87
529.84	1963.31
530.20	1983.82
530.56	2004.70
530.91	2025.49
531.27	2046.14
531.63	2066.47
531.99	2086.47
532.35	2106.00
532.71	2125.38
533.07	2145.09
533.42	2163.79
533.78	2183.08
534.14	2201.70
534.50	2219.23
534.86	2237.59
535.21	2254.54
535.57	2272.50
535.93	2290.05
536.29	2306.99
536.65	2324.15
537.00	2339.60
537.36	2355.22
537.72	2370.83
538.08	2386.11
538.44	2401.69
538.79	2417.24
539.15	2432.43
539.51	2447.50
539.87	2462.98
540.22	2477.64
540.58	2492.48
540.94	2507.21
541.29	2520.39
541.65	2532.95
542.01	2546.13
542.37	2558.12
542.72	2570.41
543.08	2581.16
543.44	2593.04
543.79	2603.28
544.15	2613.62
544.51	2624.88
544.87	2636.00
545.22	2645.51
545.58	2654.03
545.94	2661.67
546.29	2668.55
546.65	2674.85
547.01	2680.83
547.36	2686.28
547.72	2691.98
548.07	2695.65
548.43	2699.57
548.79	2703.06
549.14	2707.77
549.50	2711.98
549.86	2715.93
550.21	2720.21
550.57	2724.85
550.92	2727.47
551.28	2730.61
551.64	2733.45
551.99	2735.93
552.35	2737.67
552.70	2740.69
553.06	2743.41
553.41	2746.16
553.77	2749.07
554.13	2751.40
554.48	2753.74
554.84	2755.45
555.19	2755.68
555.55	2756.98
555.90	2757.45
556.26	2758.43
556.61	2758.24
556.97	2757.07
557.32	2757.02
557.68	2755.73
558.03	2754.37
558.39	2753.10
558.74	2752.63
559.10	2751.24
559.45	2749.37
559.81	2748.30
560.16	2745.38
560.52	2743.37
560.87	2740.42
561.23	2736.86
561.58	2734.65
561.94	2731.38
562.29	2727.70
562.64	2725.96
563.00	2723.36
563.35	2721.02
563.71	2719.41
564.06	2717.41
564.42	2716.19
564.77	2713.79
565.12	2711.87
565.48	2708.60
565.83	2705.69
566.19	2702.26
566.54	2697.98
566.89	2693.85
567.25	2689.89
567.60	2686.49
567.96	2682.84
568.31	2679.67
568.66	2675.70
569.02	2671.05
569.37	2665.87
569.72	2662.06
570.08	2656.65
570.43	2650.96
570.78	2645.71
571.14	2639.20
571.49	2632.46
571.84	2625.96
572.20	2618.85
572.55	2612.13
572.90	2605.53
573.26	2598.58
573.61	2591.35
573.96	2584.64
574.31	2577.08
574.67	2568.72
575.02	2560.40
575.37	2551.59
575.72	2542.39
576.08	2534.55
576.43	2526.11
576.78	2518.31
577.13	2510.28
577.49	2502.20
577.84	2494.66
578.19	2486.76
578.54	2479.20
578.90	2472.21
579.25	2463.65
579.60	2454.50
579.95	2445.18
580.30	2436.90
580.66	2428.59
581.01	2419.78
581.36	2410.57
581.71	2401.93
582.06	2393.51
582.42	2385.15
582.77	2376.03
583.12	2366.90
583.47	2358.20
583.82	2349.81
584.17	2340.30
584.53	2330.97
584.88	2321.92
585.23	2312.20
585.58	2302.46
585.93	2292.64
586.28	2283.43
586.63	2274.63
586.98	2266.57
587.34	2258.08
587.69	2248.69
588.04	2239.47
588.39	2230.85
588.74	2222.08
589.09	2213.45
589.44	2203.84
589.79	2195.29
590.14	2187.58
590.49	2179.40
590.84	2170.45
591.19	2161.87
591.54	2153.36
591.89	2143.34
592.25	2134.14
592.60	2124.73
592.95	2115.30
593.30	2105.70
593.65	2095.80
594.00	2085.87
594.35	2077.22
594.70	2067.88
595.05	2059.00
595.40	2050.28
595.75	2040.91
596.10	2032.57
596.45	2023.88
596.80	2016.06
597.15	2007.43
597.50	1997.90
597.85	1989.24
598.19	1980.21
598.54	1971.50
598.89	1964.00
599.24	1957.08
599.59	1949.81
599.94	1942.73
600.29	1935.14
600.64	1927.38
600.99	1919.06
601.34	1911.75
601.69	1902.77
602.04	1894.53
602.39	1886.29
602.74	1878.25
603.08	1871.44
603.43	1864.18
603.78	1856.32
604.13	1847.98
604.48	1839.98
604.83	1833.00
605.18	1825.88
605.53	1818.21
605.87	1810.45
606.22	1803.07
606.57	1794.94
606.92	1786.47
607.27	1778.17
607.62	1770.66
607.96	1763.74
608.31	1757.06
608.66	1749.21
609.01	1741.81
609.36	1734.04
609.70	1726.16
610.05	1718.44
610.40	1709.87
610.75	1701.23
611.10	1693.33
611.44	1684.31
611.79	1675.23
612.14	1665.92
612.49	1656.40
612.83	1647.68
613.18	1637.98
613.53	1628.07
613.88	1618.22
614.22	1609.14
614.57	1599.85
614.92	1590.35
615.27	1580.67
615.61	1571.07
615.96	1561.94
616.31	1553.23
616.65	1545.41
617.00	1537.20
617.35	1528.24
617.70	1519.39
618.04	1510.29
618.39	1500.78
618.74	1492.47
619.08	1483.84
619.43	1475.37
619.78	1467.22
620.12	1459.21
620.47	1451.44
620.82	1442.97
621.16	1434.82
621.51	1426.44
621.85	1418.04
622.20	1409.54
622.55	1401.29
622.89	1393.06
623.24	1385.02
623.59	1376.22
623.93	1367.31
624.28	1358.77
624.62	1350.71
624.97	1342.42
625.32	1334.45
625.66	1327.21
626.01	1319.72
626.35	1312.40
626.70	1304.70
627.04	1297.52
627.39	1289.62
627.73	1281.90
628.08	1274.92
628.43	1267.39
628.77	1259.95
629.12	1252.58
629.46	1245.83
629.81	1238.33
630.15	1230.73
630.50	1223.29
630.84	1216.20
631.19	1209.10
631.53	1202.25
631.88	1194.47
632.22	1186.64
632.57	1179.70
632.91	1171.92
633.26	1164.44
633.60	1156.98
633.95	1150.01
634.29	1142.38
634.64	1135.75
634.98	1128.63
635.32	1121.51
635.67	1115.20
636.01	1108.51
636.36	1101.67
636.70	1094.75
637.05	1088.21
637.39	1081.94
637.73	1075.55
638.08	1069.59
638.42	1063.70
638.77	1057.09
639.11	1050.84
639.45	1044.93
639.80	1038.28
640.14	1031.99
640.49	1025.76
640.83	1019.57
641.17	1013.28
641.52	1007.00
641.86	1000.47
642.20	994.24
642.55	987.53
642.89	980.85
643.23	974.35
643.58	968.43
643.92	961.98
644.26	955.68
644.61	949.70
644.95	943.62
645.29	937.18
645.64	930.49
645.98	924.31
646.32	918.45
646.66	912.36
647.01	906.25
647.35	900.32
647.69	894.00
648.04	888.15
648.38	882.07
648.72	876.13
649.06	869.97
649.41	864.07
649.75	858.20
650.09	852.23
650.43	846.41
650.78	840.10
651.12	834.01
651.46	828.25
651.80	822.16
652.14	816.14
652.49	810.15
652.83	804.34
653.17	798.21
653.51	792.37
653.85	786.66
654.20	780.84
654.54	775.01
654.88	769.51
655.22	763.55
655.56	757.71
655.90	752.00
656.25	746.14
656.59	740.46
656.93	735.27
657.27	730.25
657.61	724.80
657.95	719.59
658.29	714.43
658.64	709.21
658.98	703.82
659.32	698.52
659.66	693.37
660.00	687.99
660.34	682.82
660.68	677.57
661.02	672.47
661.36	667.69
661.70	662.81
662.05	658.01
662.39	653.54
662.73	649.21
663.07	644.77
663.41	640.57
663.75	636.12
664.09	631.40
664.43	626.39
664.77	621.98
665.11	617.63
665.45	613.27
665.79	608.69
666.13	604.27
666.47	600.07
666.81	595.90
667.15	591.85
667.49	587.89
667.83	583.90
668.17	579.98
668.51	576.10
668.85	572.30
669.19	568.62
669.53	564.69
669.87	560.54
670.21	556.60
670.55	552.73
670.89	549.20
671.23	545.87
671.57	542.50
671.91	538.84
672.25	535.26
672.58	531.75
672.92	528.42
673.26	525.34
673.60	521.92
673.94	518.59
674.28	515.24
674.62	511.95
674.96	508.71
675.30	505.67
675.64	502.43
675.97	499.22
676.31	496.10
676.65	493.02
676.99	490.40
677.33	487.40
677.67	484.42
678.01	481.16
678.34	477.99
678.68	475.03
679.02	472.10
679.36	469.25
679.70	466.34
680.04	463.38
680.37	460.40
680.71	457.70
681.05	455.08
681.39	452.35
681.73	449.72
682.06	447.20
682.40	444.44
682.74	441.91
683.08	439.36
683.42	436.67
683.75	434.16
684.09	431.43
684.43	428.91
684.77	426.28
685.10	423.78
685.44	421.20
685.78	418.76
686.12	416.45
686.45	414.16
686.79	411.79
687.13	409.65
687.46	407.50
687.80	405.25
688.14	402.73
688.48	400.55
688.81	398.29
689.15	396.03
689.49	393.84
689.82	391.54
690.16	389.18
690.50	386.94
690.83	384.74
691.17	382.56
691.51	380.42
691.84	378.26
692.18	376.30
692.52	374.41
692.85	372.55
693.19	370.68
693.52	368.57
693.86	366.72
694.20	364.81
694.53	362.82
694.87	360.80
695.21	359.05
695.54	357.19
695.88	355.24
696.21	353.34
696.55	351.52
696.88	349.81
697.22	348.16
697.56	346.64
697.89	345.00
698.23	343.33
698.56	341.64
698.90	340.13
699.23	338.46
699.57	336.89
699.90	335.17
700.24	333.43
700.58	331.92
700.91	330.39
701.25	328.91
701.58	327.51
701.92	326.07
702.25	324.60
702.59	323.23
702.92	321.98
703.26	320.70
703.59	319.42
703.93	318.28
704.26	317.05
704.60	315.65
704.93	314.39
705.26	313.12
705.60	311.92
705.93	310.64
706.27	309.46
706.60	308.23
706.94	307.14
707.27	305.95
707.61	304.76
707.94	303.57
708.27	302.29
708.61	301.10
708.94	299.95
709.28	298.82
709.61	297.62
709.94	296.53
710.28	295.39
710.61	294.29
710.95	293.04
711.28	292.00
711.61	291.01
711.95	290.01
712.28	289.01
712.61	287.97
712.95	287.03
713.28	286.08
713.61	285.05
713.95	284.10
714.28	283.31
714.61	282.35
714.95	281.55
715.28	280.67
715.61	279.69
715.95	278.85
716.28	278.04
716.61	277.15
716.95	276.30
717.28	275.47
717.61	274.62
717.94	273.87
718.28	272.97
718.61	272.14
718.94	271.30
719.27	270.60
719.61	269.89
719.94	269.23
720.27	268.44
720.60	267.80
720.94	267.05
721.27	266.29
721.60	265.70
721.93	264.97
722.27	264.43
722.60	263.87
722.93	263.23
723.26	262.58
723.59	261.99
723.93	261.40
724.26	260.79
724.59	260.23
724.92	259.62
725.25	259.17
725.59	258.67
725.92	258.17
726.25	257.53
726.58	256.97
726.91	256.37
727.24	255.80
727.57	255.27
727.91	254.70
728.24	254.24
728.57	253.72
728.90	253.30
729.23	252.77
729.56	252.43
729.89	251.97
730.22	251.52
730.55	250.97
730.89	250.57
731.22	250.07
731.55	249.61
731.88	249.13
732.21	248.60
732.54	248.12
732.87	247.72
733.20	247.24
733.53	246.85
733.86	246.50
734.19	246.12
734.52	245.76
734.85	245.45
735.18	245.00
735.51	244.68
735.84	244.27
736.17	243.86
736.50	243.39
736.83	243.18
737.16	242.77
737.49	242.53
737.82	242.10
738.15	241.77
738.48	241.43
738.81	241.03
739.14	240.70
739.47	240.30
739.80	240.00
740.13	239.69
740.46	239.34
740.79	238.96
741.12	238.67
741.45	238.29
741.78	237.97
742.11	237.74
742.44	237.30
742.77	236.96
743.10	236.61
743.43	236.24
743.75	235.79
744.08	235.75
744.41	235.36
744.74	234.98
745.07	234.67
745.40	234.31
745.73	234.18
746.06	233.93
746.39	233.68
746.71	233.34
747.04	233.14
747.37	232.82
747.70	232.56
748.03	232.30
748.36	232.11
748.68	231.80
749.01	231.50
749.34	231.34
749.67	231.11
750.00	230.95
750.33	230.75
750.65	230.50
750.98	230.00
751.31	229.86
751.64	229.69
751.97	229.55
752.29	229.41
752.62	229.01
752.95	228.74
753.28	228.50
753.60	228.21
753.93	228.05
754.26	227.85
754.59	227.58
754.91	227.38
755.24	227.17
755.57	226.97
755.90	226.70
756.22	226.50
756.55	226.27
756.88	225.99
757.20	225.65
757.53	225.41
757.86	225.25
758.19	225.09
758.51	224.86
758.84	224.61
759.17	224.42
759.49	224.33
759.82	224.24
760.15	224.19
760.47	224.01
760.80	223.77
761.13	223.65
761.45	223.50
761.78	223.32
762.11	223.13
762.43	222.99
762.76	222.86
763.08	222.77
763.41	222.60
763.74	222.49
764.06	222.43
764.39	222.30
764.71	222.18
765.04	222.02
765.37	221.93
765.69	221.78
766.02	221.68
766.34	221.58
766.67	221.34
767.00	221.17
767.32	221.17
767.65	221.15
767.97	220.96
768.30	220.79
768.62	220.72
768.95	220.59
769.27	220.50
769.60	220.44
769.92	220.22
770.25	220.10
770.57	220.01
770.90	219.91
771.22	219.77
771.55	219.71
771.87	219.58
772.20	219.46
772.52	219.57
772.85	219.64
773.17	219.50
773.50	219.43
773.82	219.30
774.15	219.08
774.47	218.85
774.80	218.74
775.12	218.69
775.45	218.56
775.77	218.53
776.09	218.35
776.42	218.21
776.74	218.21
777.07	218.13
777.39	218.00
777.72	217.85
778.04	217.84
778.36	217.71
778.69	217.66
779.01	217.65
779.33	217.43
779.66	217.13
779.98	217.01
780.31	217.00
780.63	217.00
780.95	217.07
781.28	217.01
781.60	216.96
781.92	216.97
782.25	216.96
782.57	216.84
782.89	216.83
783.22	216.78
783.54	216.67
783.86	216.65
784.19	216.64
784.51	216.72
784.83	216.62
785.16	216.53
785.48	216.46
785.80	216.38
786.12	216.32
786.45	216.32
