SpectraSuite Data File
++++++++++++++++++++++++++++++++++++
Date: Mon Feb 25 17:35:39 EST 2013
User: group
Dark Spectrum Present: No
Reference Spectrum Present: No
Number of Sampled Component Spectra: 1
Spectrometers: USB2E7196
Integration Time (usec): 52000 (USB2E7196)
Spectra Averaged: 20 (USB2E7196)
Boxcar Smoothing: 10 (USB2E7196)
Correct for Electrical Dark: No (USB2E7196)
Strobe/Lamp Enabled: No (USB2E7196)
Correct for Detector Non-linearity: No (USB2E7196)
Correct for Stray Light: No (USB2E7196)
Number of Pixels in Processed Spectrum: 2048
>>>>>Begin Processed Spectral Data<<<<<
339.09	0.00
339.48	198.30
339.86	200.75
340.24	201.85
340.63	202.30
341.01	206.45
341.39	204.95
341.78	207.20
342.16	207.50
342.54	208.75
342.93	197.72
343.31	207.73
343.69	208.25
344.07	208.66
344.46	209.09
344.84	209.48
345.22	209.69
345.60	209.92
345.99	210.05
346.37	210.25
346.75	210.35
347.13	210.48
347.52	210.65
347.90	210.76
348.28	210.83
348.66	210.91
349.05	210.88
349.43	210.91
349.81	211.02
350.19	211.11
350.57	211.27
350.96	211.42
351.34	211.49
351.72	211.66
352.10	211.77
352.48	211.85
352.87	212.00
353.25	212.17
353.63	212.31
354.01	212.42
354.39	212.50
354.77	212.63
355.15	212.68
355.54	212.65
355.92	212.58
356.30	212.66
356.68	212.81
357.06	212.85
357.44	212.92
357.82	212.97
358.20	213.02
358.58	212.98
358.97	212.99
359.35	213.12
359.73	213.20
360.11	213.32
360.49	213.44
360.87	213.50
361.25	213.50
361.63	213.65
362.01	213.74
362.39	213.78
362.77	213.82
363.15	213.94
363.53	214.11
363.91	214.17
364.29	214.18
364.67	214.08
365.05	214.11
365.43	214.18
365.81	214.18
366.19	214.30
366.57	214.39
366.95	214.43
367.33	214.34
367.71	214.30
368.09	214.34
368.47	214.28
368.85	214.27
369.23	214.28
369.61	214.19
369.99	214.22
370.37	214.22
370.75	214.28
371.13	214.16
371.51	214.09
371.89	214.12
372.27	214.19
372.65	214.20
373.03	214.21
373.41	214.18
373.78	214.13
374.16	213.94
374.54	213.87
374.92	213.82
375.30	213.81
375.68	213.79
376.06	213.73
376.44	213.61
376.82	213.48
377.19	213.38
377.57	213.29
377.95	213.22
378.33	213.14
378.71	213.02
379.09	213.10
379.47	213.03
379.84	212.90
380.22	212.78
380.60	212.70
380.98	212.59
381.36	212.50
381.73	212.45
382.11	212.50
382.49	212.45
382.87	212.35
383.25	212.32
383.62	212.39
384.00	212.27
384.38	212.29
384.76	212.27
385.13	212.29
385.51	212.24
385.89	212.14
386.27	212.17
386.64	212.10
387.02	211.95
387.40	211.85
387.78	211.86
388.15	211.83
388.53	211.77
388.91	211.76
389.29	211.72
389.66	211.66
390.04	211.59
390.42	211.58
390.79	211.62
391.17	211.60
391.55	211.39
391.92	211.36
392.30	211.35
392.68	211.33
393.05	211.26
393.43	211.29
393.81	211.23
394.18	211.09
394.56	211.07
394.94	211.11
395.31	211.16
395.69	211.23
396.06	211.31
396.44	211.32
396.82	211.28
397.19	211.43
397.57	211.51
397.95	211.48
398.32	211.42
398.70	211.46
399.07	211.53
399.45	211.55
399.82	211.63
400.20	211.65
400.58	211.66
400.95	211.65
401.33	211.73
401.70	211.94
402.08	212.03
402.45	212.10
402.83	212.27
403.20	212.32
403.58	212.35
403.95	212.35
404.33	212.44
404.71	212.57
405.08	212.72
405.46	212.81
405.83	212.98
406.21	213.18
406.58	213.32
406.96	213.50
407.33	213.76
407.70	213.93
408.08	214.27
408.45	214.49
408.83	214.82
409.20	215.03
409.58	215.22
409.95	215.55
410.33	215.87
410.70	215.98
411.08	216.36
411.45	216.73
411.82	217.09
412.20	217.58
412.57	218.06
412.95	218.38
413.32	218.89
413.69	219.37
414.07	219.89
414.44	220.51
414.82	221.07
415.19	221.78
415.56	222.60
415.94	223.34
416.31	224.24
416.68	225.09
417.06	226.14
417.43	227.06
417.81	228.15
418.18	229.26
418.55	230.53
418.93	231.78
419.30	233.03
419.67	234.52
420.04	235.93
420.42	237.45
420.79	239.26
421.16	241.04
421.54	242.99
421.91	244.94
422.28	246.86
422.66	248.94
423.03	251.02
423.40	253.08
423.77	255.23
424.15	257.56
424.52	259.93
424.89	262.40
425.26	264.97
425.64	267.25
426.01	269.82
426.38	272.61
426.75	275.40
427.13	278.31
427.50	281.29
427.87	284.38
428.24	287.51
428.61	290.42
428.99	293.69
429.36	297.10
429.73	300.55
430.10	304.00
430.47	307.59
430.85	311.21
431.22	315.11
431.59	319.39
431.96	323.38
432.33	327.83
432.70	332.15
433.08	337.08
433.45	341.90
433.82	346.59
434.19	351.68
434.56	356.78
434.93	361.69
435.30	366.43
435.68	371.74
436.05	376.97
436.42	382.15
436.79	386.87
437.16	392.07
437.53	397.45
437.90	402.83
438.27	408.07
438.64	413.42
439.01	418.47
439.38	422.84
439.75	426.93
440.13	431.80
440.50	436.34
440.87	440.10
441.24	444.02
441.61	448.29
441.98	451.44
442.35	455.03
442.72	458.62
443.09	462.15
443.46	464.28
443.83	465.78
444.20	467.01
444.57	468.79
444.94	469.59
445.31	470.37
445.68	471.17
446.05	471.45
446.42	470.90
446.79	470.08
447.16	469.15
447.53	468.71
447.90	466.52
448.27	464.41
448.64	461.32
449.01	459.11
449.37	455.47
449.74	451.81
450.11	447.69
450.48	443.18
450.85	438.46
451.22	434.47
451.59	430.60
451.96	427.01
452.33	422.18
452.70	417.81
453.07	412.68
453.43	407.37
453.80	402.26
454.17	397.39
454.54	392.81
454.91	388.03
455.28	383.23
455.65	378.76
456.02	374.47
456.38	370.84
456.75	366.13
457.12	362.16
457.49	358.50
457.86	354.66
458.23	351.39
458.59	347.97
458.96	344.43
459.33	341.31
459.70	338.07
460.07	335.45
460.43	332.52
460.80	329.79
461.17	327.33
461.54	324.93
461.91	322.56
462.27	320.27
462.64	318.19
463.01	315.84
463.38	313.76
463.74	311.41
464.11	309.51
464.48	307.90
464.85	306.17
465.21	304.73
465.58	303.35
465.95	301.71
466.32	300.37
466.68	298.98
467.05	297.49
467.42	296.07
467.78	294.69
468.15	293.30
468.52	292.23
468.88	290.91
469.25	289.71
469.62	288.78
469.98	287.64
470.35	286.76
470.72	285.95
471.08	284.93
471.45	284.15
471.82	283.35
472.18	282.45
472.55	281.85
472.92	281.22
473.28	280.50
473.65	279.78
474.02	279.16
474.38	278.64
474.75	278.29
475.11	277.96
475.48	277.71
475.85	277.53
476.21	277.44
476.58	277.29
476.94	277.17
477.31	277.11
477.67	277.08
478.04	277.10
478.41	277.25
478.77	277.67
479.14	277.84
479.50	278.09
479.87	278.45
480.23	278.86
480.60	279.15
480.96	279.57
481.33	280.25
481.69	280.82
482.06	281.45
482.42	282.06
482.79	282.79
483.15	283.70
483.52	284.63
483.88	285.48
484.25	286.56
484.61	287.67
484.98	288.84
485.34	290.16
485.71	291.45
486.07	292.95
486.44	294.18
486.80	295.64
487.17	297.24
487.53	299.00
487.90	300.65
488.26	302.59
488.62	304.67
488.99	306.69
489.35	308.80
489.72	311.16
490.08	313.52
490.44	316.01
490.81	318.59
491.17	321.21
491.54	324.08
491.90	327.08
492.26	330.23
492.63	333.52
492.99	336.96
493.36	340.66
493.72	344.38
494.08	348.48
494.45	352.83
494.81	357.39
495.17	361.92
495.54	366.89
495.90	371.99
496.26	377.14
496.63	382.65
496.99	388.51
497.35	394.44
497.72	400.68
498.08	407.05
498.44	413.80
498.80	421.10
499.17	428.51
499.53	436.15
499.89	444.10
500.26	452.17
500.62	460.69
500.98	469.50
501.34	478.65
501.71	488.05
502.07	497.64
502.43	507.58
502.79	517.92
503.16	528.72
503.52	539.59
503.88	550.86
504.24	562.46
504.60	574.31
504.97	586.67
505.33	599.38
505.69	612.86
506.05	626.19
506.41	639.59
506.78	653.55
507.14	667.74
507.50	682.39
507.86	697.51
508.22	712.73
508.59	728.30
508.95	744.33
509.31	760.72
509.67	777.66
510.03	794.53
510.39	812.26
510.75	830.10
511.12	848.29
511.48	866.90
511.84	885.71
512.20	904.42
512.56	923.98
512.92	943.50
513.28	963.07
513.64	983.21
514.00	1003.40
514.37	1023.78
514.73	1044.76
515.09	1065.67
515.45	1086.52
515.81	1107.76
516.17	1129.27
516.53	1150.69
516.89	1172.39
517.25	1193.97
517.61	1215.80
517.97	1237.09
518.33	1258.67
518.69	1280.33
519.05	1302.35
519.41	1324.69
519.77	1347.41
520.13	1369.43
520.49	1391.65
520.85	1414.50
521.21	1437.31
521.57	1460.41
521.93	1482.92
522.29	1505.73
522.65	1528.39
523.01	1551.22
523.37	1573.58
523.73	1596.02
524.09	1618.60
524.45	1640.83
524.81	1663.34
525.17	1686.14
525.53	1709.11
525.89	1731.74
526.25	1754.14
526.61	1775.60
526.97	1797.35
527.33	1818.83
527.68	1840.60
528.04	1862.01
528.40	1882.55
528.76	1903.32
529.12	1924.01
529.48	1945.89
529.84	1966.50
530.20	1987.17
530.56	2008.14
530.91	2029.35
531.27	2049.98
531.63	2070.16
531.99	2090.08
532.35	2109.65
532.71	2128.85
533.07	2148.53
533.42	2167.07
533.78	2186.30
534.14	2205.36
534.50	2222.61
534.86	2240.97
535.21	2257.93
535.57	2276.06
535.93	2293.45
536.29	2310.56
536.65	2327.49
537.00	2342.87
537.36	2358.41
537.72	2373.84
538.08	2389.45
538.44	2404.88
538.79	2420.43
539.15	2435.67
539.51	2450.99
539.87	2466.66
540.22	2481.82
540.58	2496.76
540.94	2511.47
541.29	2524.73
541.65	2537.13
542.01	2550.72
542.37	2562.77
542.72	2575.51
543.08	2586.55
543.44	2599.00
543.79	2609.52
544.15	2620.25
544.51	2631.63
544.87	2642.89
545.22	2652.72
545.58	2661.20
545.94	2668.38
546.29	2675.11
546.65	2681.53
547.01	2687.85
547.36	2693.33
547.72	2698.53
548.07	2702.61
548.43	2706.67
548.79	2710.64
549.14	2715.53
549.50	2720.48
549.86	2724.77
550.21	2729.16
550.57	2733.81
550.92	2736.50
551.28	2739.36
551.64	2741.90
551.99	2744.40
552.35	2746.00
552.70	2748.67
553.06	2751.51
553.41	2754.72
553.77	2757.85
554.13	2760.37
554.48	2762.44
554.84	2764.14
555.19	2765.21
555.55	2766.23
555.90	2767.25
556.26	2768.14
556.61	2768.01
556.97	2766.78
557.32	2766.57
557.68	2764.56
558.03	2763.09
558.39	2761.50
558.74	2761.31
559.10	2760.18
559.45	2758.40
559.81	2757.62
560.16	2754.88
560.52	2752.41
560.87	2749.75
561.23	2746.01
561.58	2743.93
561.94	2740.91
562.29	2737.26
562.64	2734.93
563.00	2732.52
563.35	2730.10
563.71	2728.52
564.06	2726.72
564.42	2724.98
564.77	2722.64
565.12	2720.96
565.48	2717.74
565.83	2714.89
566.19	2711.31
566.54	2707.30
566.89	2703.50
567.25	2699.49
567.60	2696.32
567.96	2692.62
568.31	2689.20
568.66	2685.50
569.02	2680.82
569.37	2675.82
569.72	2671.90
570.08	2666.62
570.43	2660.79
570.78	2655.12
571.14	2648.49
571.49	2641.67
571.84	2635.60
572.20	2628.80
572.55	2622.47
572.90	2615.82
573.26	2608.83
573.61	2601.86
573.96	2595.34
574.31	2587.67
574.67	2580.00
575.02	2571.45
575.37	2563.06
575.72	2553.93
576.08	2546.39
576.43	2537.28
576.78	2529.32
577.13	2521.73
577.49	2513.58
577.84	2505.87
578.19	2498.45
578.54	2490.93
578.90	2484.15
579.25	2475.15
579.60	2465.78
579.95	2456.22
580.30	2448.05
580.66	2439.63
581.01	2430.23
581.36	2420.77
581.71	2412.28
582.06	2403.38
582.42	2395.11
582.77	2385.71
583.12	2376.65
583.47	2367.66
583.82	2359.21
584.17	2350.18
584.53	2340.56
584.88	2331.37
585.23	2322.06
585.58	2312.06
585.93	2302.21
586.28	2292.68
586.63	2283.78
586.98	2275.44
587.34	2267.10
587.69	2257.89
588.04	2248.76
588.39	2240.42
588.74	2231.41
589.09	2222.62
589.44	2212.88
589.79	2204.20
590.14	2196.22
590.49	2187.65
590.84	2178.53
591.19	2170.44
591.54	2161.20
591.89	2151.12
592.25	2142.31
592.60	2132.77
592.95	2123.22
593.30	2113.86
593.65	2104.08
594.00	2094.44
594.35	2086.27
594.70	2076.95
595.05	2067.99
595.40	2059.04
595.75	2049.35
596.10	2040.99
596.45	2032.09
596.80	2024.27
597.15	2015.72
597.50	2006.29
597.85	1997.62
598.19	1988.66
598.54	1979.86
598.89	1972.05
599.24	1965.33
599.59	1957.33
599.94	1950.08
600.29	1942.40
600.64	1934.13
600.99	1925.25
601.34	1917.92
601.69	1908.82
602.04	1900.49
602.39	1892.07
602.74	1884.31
603.08	1877.54
603.43	1870.26
603.78	1862.01
604.13	1853.82
604.48	1845.88
604.83	1839.29
605.18	1832.41
605.53	1824.82
605.87	1817.08
606.22	1809.57
606.57	1801.35
606.92	1792.98
607.27	1784.61
607.62	1777.17
607.96	1770.02
608.31	1763.67
608.66	1755.66
609.01	1747.78
609.36	1739.88
609.70	1731.98
610.05	1724.07
610.40	1715.91
610.75	1707.10
611.10	1699.36
611.44	1690.12
611.79	1681.07
612.14	1671.21
612.49	1661.25
612.83	1652.47
613.18	1642.58
613.53	1633.22
613.88	1623.40
614.22	1614.49
614.57	1605.36
614.92	1595.69
615.27	1586.35
615.61	1576.42
615.96	1567.18
616.31	1558.85
616.65	1550.95
617.00	1542.38
617.35	1533.56
617.70	1524.30
618.04	1515.27
618.39	1505.73
618.74	1497.26
619.08	1488.49
619.43	1480.16
619.78	1472.27
620.12	1463.87
620.47	1456.27
620.82	1447.47
621.16	1439.06
621.51	1430.60
621.85	1422.19
622.20	1413.75
622.55	1405.14
622.89	1397.10
623.24	1389.04
623.59	1380.02
623.93	1371.29
624.28	1362.95
624.62	1354.63
624.97	1346.51
625.32	1338.52
625.66	1331.29
626.01	1323.92
626.35	1316.35
626.70	1308.81
627.04	1301.41
627.39	1293.67
627.73	1285.88
628.08	1279.09
628.43	1271.68
628.77	1264.13
629.12	1256.18
629.46	1249.23
629.81	1242.04
630.15	1234.43
630.50	1226.96
630.84	1219.81
631.19	1212.39
631.53	1205.45
631.88	1197.73
632.22	1190.19
632.57	1183.10
632.91	1175.55
633.26	1167.77
633.60	1160.49
633.95	1153.41
634.29	1145.90
634.64	1139.39
634.98	1132.25
635.32	1124.78
635.67	1118.30
636.01	1111.80
636.36	1105.37
636.70	1098.85
637.05	1092.10
637.39	1085.86
637.73	1079.56
638.08	1073.72
638.42	1067.87
638.77	1061.37
639.11	1054.95
639.45	1048.74
639.80	1042.12
640.14	1035.59
640.49	1029.49
640.83	1023.38
641.17	1016.99
641.52	1010.82
641.86	1004.14
642.20	997.90
642.55	991.26
642.89	984.56
643.23	977.93
643.58	971.81
643.92	965.33
644.26	959.19
644.61	953.18
644.95	946.88
645.29	940.37
645.64	933.53
645.98	927.25
646.32	921.46
646.66	915.25
647.01	909.28
647.35	903.29
647.69	897.10
648.04	890.97
648.38	884.87
648.72	878.78
649.06	872.44
649.41	866.44
649.75	860.65
650.09	854.75
650.43	848.91
650.78	842.66
651.12	836.50
651.46	830.71
651.80	824.59
652.14	818.52
652.49	812.36
652.83	806.52
653.17	800.34
653.51	794.28
653.85	788.61
654.20	782.81
654.54	776.91
654.88	771.08
655.22	765.25
655.56	759.43
655.90	753.59
656.25	748.12
656.59	742.57
656.93	737.51
657.27	732.33
657.61	726.91
657.95	721.67
658.29	716.25
658.64	710.92
658.98	705.73
659.32	700.37
659.66	695.11
660.00	689.62
660.34	684.48
660.68	679.33
661.02	674.20
661.36	669.33
661.70	664.43
662.05	659.70
662.39	655.22
662.73	650.69
663.07	646.34
663.41	641.81
663.75	637.12
664.09	632.21
664.43	627.43
664.77	623.04
665.11	618.66
665.45	614.55
665.79	610.02
666.13	605.42
666.47	601.30
666.81	597.23
667.15	593.29
667.49	589.40
667.83	585.40
668.17	581.46
668.51	577.51
668.85	573.92
669.19	570.25
669.53	566.33
669.87	562.20
670.21	558.28
670.55	554.35
670.89	550.94
671.23	547.52
671.57	543.91
671.91	540.12
672.25	536.60
672.58	532.91
672.92	529.48
673.26	526.36
673.60	523.04
673.94	519.63
674.28	516.32
674.62	513.09
674.96	509.92
675.30	506.75
675.64	503.49
675.97	500.12
676.31	496.98
676.65	493.85
676.99	491.28
677.33	488.22
677.67	485.37
678.01	482.25
678.34	479.24
678.68	476.29
679.02	473.31
679.36	470.44
679.70	467.58
680.04	464.65
680.37	461.59
680.71	458.65
681.05	456.07
681.39	453.41
681.73	450.60
682.06	448.03
682.40	445.55
682.74	443.00
683.08	440.50
683.42	437.81
683.75	435.31
684.09	432.61
684.43	430.15
684.77	427.42
685.10	424.80
685.44	422.22
685.78	419.77
686.12	417.54
686.45	415.12
686.79	412.75
687.13	410.56
687.46	408.45
687.80	406.42
688.14	404.02
688.48	401.80
688.81	399.56
689.15	397.24
689.49	394.95
689.82	392.69
690.16	390.17
690.50	387.93
690.83	385.73
691.17	383.41
691.51	381.11
691.84	379.16
692.18	377.13
692.52	375.14
692.85	373.30
693.19	371.31
693.52	369.33
693.86	367.42
694.20	365.49
694.53	363.44
694.87	361.37
695.21	359.39
695.54	357.37
695.88	355.39
696.21	353.57
696.55	351.66
696.88	349.88
697.22	348.32
697.56	346.75
697.89	344.97
698.23	343.33
698.56	341.77
698.90	340.19
699.23	338.47
699.57	336.80
699.90	335.16
700.24	333.51
700.58	331.86
700.91	330.31
701.25	328.87
701.58	327.45
701.92	326.07
702.25	324.68
702.59	323.28
702.92	321.95
703.26	320.53
703.59	319.23
703.93	318.03
704.26	316.78
704.60	315.50
704.93	314.28
705.26	313.02
705.60	311.89
705.93	310.60
706.27	309.41
706.60	308.34
706.94	307.26
707.27	306.02
707.61	304.87
707.94	303.70
708.27	302.46
708.61	301.29
708.94	300.19
709.28	299.02
709.61	298.00
709.94	296.91
710.28	295.81
710.61	294.76
710.95	293.65
711.28	292.62
711.61	291.50
711.95	290.52
712.28	289.60
712.61	288.49
712.95	287.56
713.28	286.73
713.61	285.70
713.95	284.70
714.28	283.84
714.61	282.91
714.95	281.98
715.28	281.05
715.61	280.17
715.95	279.21
716.28	278.38
716.61	277.43
716.95	276.61
717.28	275.86
717.61	274.93
717.94	274.04
718.28	273.15
718.61	272.40
718.94	271.61
719.27	270.75
719.61	270.04
719.94	269.29
720.27	268.44
720.60	267.71
720.94	266.93
721.27	266.26
721.60	265.63
721.93	265.02
722.27	264.47
722.60	263.91
722.93	263.28
723.26	262.69
723.59	262.17
723.93	261.60
724.26	261.09
724.59	260.63
724.92	260.09
725.25	259.59
725.59	259.09
725.92	258.61
726.25	258.10
726.58	257.56
726.91	257.02
727.24	256.57
727.57	256.10
727.91	255.59
728.24	255.08
728.57	254.55
728.90	254.07
729.23	253.48
729.56	252.99
729.89	252.52
730.22	252.05
730.55	251.45
730.89	250.95
731.22	250.37
731.55	249.84
731.88	249.41
732.21	248.97
732.54	248.47
732.87	247.91
733.20	247.55
733.53	247.14
733.86	246.71
734.19	246.22
734.52	245.85
734.85	245.56
735.18	245.11
735.51	244.80
735.84	244.37
736.17	244.05
736.50	243.60
736.83	243.37
737.16	243.00
737.49	242.78
737.82	242.43
738.15	242.06
738.48	241.68
738.81	241.34
739.14	240.96
739.47	240.55
739.80	240.28
740.13	239.90
740.46	239.54
740.79	239.19
741.12	238.96
741.45	238.54
741.78	238.11
742.11	237.88
742.44	237.50
742.77	237.27
743.10	236.93
743.43	236.65
743.75	236.22
744.08	236.18
744.41	235.74
744.74	235.49
745.07	235.22
745.40	235.01
745.73	234.73
746.06	234.42
746.39	234.20
746.71	233.86
747.04	233.62
747.37	233.36
747.70	233.10
748.03	232.70
748.36	232.52
748.68	232.29
749.01	231.96
749.34	231.75
749.67	231.53
750.00	231.25
750.33	231.14
750.65	230.84
750.98	230.30
751.31	230.12
751.64	229.88
751.97	229.69
752.29	229.46
752.62	229.15
752.95	228.88
753.28	228.66
753.60	228.49
753.93	228.32
754.26	228.06
754.59	227.85
754.91	227.73
755.24	227.48
755.57	227.31
755.90	227.15
756.22	226.96
756.55	226.72
756.88	226.53
757.20	226.25
757.53	226.06
757.86	225.85
758.19	225.65
758.51	225.49
758.84	225.27
759.17	225.07
759.49	224.91
759.82	224.87
760.15	224.75
760.47	224.49
760.80	224.20
761.13	224.14
761.45	223.93
761.78	223.69
762.11	223.62
762.43	223.38
762.76	223.21
763.08	223.09
763.41	222.94
763.74	222.80
764.06	222.52
764.39	222.37
764.71	222.30
765.04	222.20
765.37	222.10
765.69	221.95
766.02	221.86
766.34	221.77
766.67	221.64
767.00	221.50
767.32	221.48
767.65	221.45
767.97	221.27
768.30	221.17
768.62	221.13
768.95	220.88
769.27	220.81
769.60	220.68
769.92	220.51
770.25	220.36
770.57	220.21
770.90	220.12
771.22	220.05
771.55	219.95
771.87	219.81
772.20	219.62
772.52	219.69
772.85	219.73
773.17	219.57
773.50	219.48
773.82	219.40
774.15	219.23
774.47	219.10
774.80	219.00
775.12	219.02
775.45	218.90
775.77	218.82
776.09	218.74
776.42	218.66
776.74	218.59
777.07	218.42
777.39	218.43
777.72	218.37
778.04	218.27
778.36	218.24
778.69	218.15
779.01	218.09
779.33	217.90
779.66	217.67
779.98	217.60
780.31	217.45
780.63	217.40
780.95	217.38
781.28	217.26
781.60	217.20
781.92	217.05
782.25	216.99
782.57	216.94
782.89	216.88
783.22	216.81
783.54	216.73
783.86	216.71
784.19	216.51
784.51	216.50
784.83	216.46
785.16	216.27
785.48	216.25
785.80	216.16
786.12	216.05
786.45	215.88
