SpectraSuite Data File
++++++++++++++++++++++++++++++++++++
Date: Mon Feb 25 17:32:28 EST 2013
User: group
Dark Spectrum Present: No
Reference Spectrum Present: No
Number of Sampled Component Spectra: 1
Spectrometers: USB2E7196
Integration Time (usec): 52000 (USB2E7196)
Spectra Averaged: 20 (USB2E7196)
Boxcar Smoothing: 10 (USB2E7196)
Correct for Electrical Dark: No (USB2E7196)
Strobe/Lamp Enabled: No (USB2E7196)
Correct for Detector Non-linearity: No (USB2E7196)
Correct for Stray Light: No (USB2E7196)
Number of Pixels in Processed Spectrum: 2048
>>>>>Begin Processed Spectral Data<<<<<
339.09	0.00
339.48	198.65
339.86	201.55
340.24	200.90
340.63	203.70
341.01	207.45
341.39	207.20
341.78	206.80
342.16	208.50
342.54	209.65
342.93	198.52
343.31	208.55
343.69	209.09
344.07	209.46
344.46	209.95
344.84	210.31
345.22	210.49
345.60	210.74
345.99	210.97
346.37	211.07
346.75	211.15
347.13	211.19
347.52	211.11
347.90	211.25
348.28	211.29
348.66	211.45
349.05	211.40
349.43	211.42
349.81	211.45
350.19	211.49
350.57	211.49
350.96	211.58
351.34	211.62
351.72	211.72
352.10	211.87
352.48	211.91
352.87	211.94
353.25	212.03
353.63	212.02
354.01	212.06
354.39	212.14
354.77	212.20
355.15	212.31
355.54	212.40
355.92	212.37
356.30	212.32
356.68	212.47
357.06	212.47
357.44	212.51
357.82	212.53
358.20	212.60
358.58	212.76
358.97	212.87
359.35	213.07
359.73	213.15
360.11	213.16
360.49	213.25
360.87	213.32
361.25	213.35
361.63	213.46
362.01	213.49
362.39	213.59
362.77	213.64
363.15	213.63
363.53	213.64
363.91	213.62
364.29	213.70
364.67	213.53
365.05	213.60
365.43	213.61
365.81	213.79
366.19	213.84
366.57	213.83
366.95	213.78
367.33	213.64
367.71	213.69
368.09	213.76
368.47	213.71
368.85	213.67
369.23	213.74
369.61	213.70
369.99	213.77
370.37	213.77
370.75	213.84
371.13	213.81
371.51	213.77
371.89	213.80
372.27	213.76
372.65	213.71
373.03	213.62
373.41	213.63
373.78	213.47
374.16	213.38
374.54	213.28
374.92	213.23
375.30	213.16
375.68	212.96
376.06	212.85
376.44	212.80
376.82	212.82
377.19	212.71
377.57	212.65
377.95	212.51
378.33	212.42
378.71	212.29
379.09	212.22
379.47	212.23
379.84	212.24
380.22	212.16
380.60	212.19
380.98	212.20
381.36	212.06
381.73	211.97
382.11	211.96
382.49	211.94
382.87	211.86
383.25	211.86
383.62	212.11
384.00	212.05
384.38	211.99
384.76	211.94
385.13	212.02
385.51	211.94
385.89	211.95
386.27	211.91
386.64	211.88
387.02	211.89
387.40	211.77
387.78	211.69
388.15	211.66
388.53	211.57
388.91	211.53
389.29	211.60
389.66	211.63
390.04	211.70
390.42	211.69
390.79	211.66
391.17	211.64
391.55	211.42
391.92	211.48
392.30	211.52
392.68	211.52
393.05	211.48
393.43	211.52
393.81	211.49
394.18	211.50
394.56	211.54
394.94	211.55
395.31	211.58
395.69	211.64
396.06	211.74
396.44	211.80
396.82	211.82
397.19	211.92
397.57	211.89
397.95	211.81
398.32	211.81
398.70	211.90
399.07	211.99
399.45	212.12
399.82	212.10
400.20	212.12
400.58	212.16
400.95	212.12
401.33	212.26
401.70	212.41
402.08	212.42
402.45	212.40
402.83	212.53
403.20	212.65
403.58	212.66
403.95	212.76
404.33	212.92
404.71	213.02
405.08	213.27
405.46	213.43
405.83	213.55
406.21	213.64
406.58	213.81
406.96	213.94
407.33	214.06
407.70	214.34
408.08	214.66
408.45	214.92
408.83	215.17
409.20	215.30
409.58	215.49
409.95	215.85
410.33	216.19
410.70	216.41
411.08	216.70
411.45	217.10
411.82	217.49
412.20	217.87
412.57	218.49
412.95	218.66
413.32	219.22
413.69	219.78
414.07	220.31
414.44	220.93
414.82	221.56
415.19	222.19
415.56	222.86
415.94	223.59
416.31	224.45
416.68	225.34
417.06	226.34
417.43	227.24
417.81	228.31
418.18	229.42
418.55	230.68
418.93	231.97
419.30	233.30
419.67	234.63
420.04	235.92
420.42	237.30
420.79	239.20
421.16	240.92
421.54	242.74
421.91	244.70
422.28	246.65
422.66	248.66
423.03	250.79
423.40	252.89
423.77	255.03
424.15	257.26
424.52	259.63
424.89	262.19
425.26	264.71
425.64	267.02
426.01	269.63
426.38	272.33
426.75	275.06
427.13	277.83
427.50	280.80
427.87	283.88
428.24	286.89
428.61	289.70
428.99	292.92
429.36	296.37
429.73	299.76
430.10	303.10
430.47	306.63
430.85	310.25
431.22	314.08
431.59	318.37
431.96	322.27
432.33	326.59
432.70	330.77
433.08	335.70
433.45	340.35
433.82	344.96
434.19	350.05
434.56	355.06
434.93	359.73
435.30	364.42
435.68	369.69
436.05	374.92
436.42	379.96
436.79	384.63
437.16	389.61
437.53	395.00
437.90	400.31
438.27	405.42
438.64	410.73
439.01	415.73
439.38	420.02
439.75	424.21
440.13	428.97
440.50	433.40
440.87	436.95
441.24	440.79
441.61	445.03
441.98	448.10
442.35	451.67
442.72	455.47
443.09	458.94
443.46	461.19
443.83	462.45
444.20	463.67
444.57	465.41
444.94	466.23
445.31	466.82
445.68	467.58
446.05	467.85
446.42	467.26
446.79	466.37
447.16	465.42
447.53	464.82
447.90	462.62
448.27	460.65
448.64	457.77
449.01	455.61
449.37	451.88
449.74	448.26
450.11	444.15
450.48	439.56
450.85	435.11
451.22	431.05
451.59	427.42
451.96	423.96
452.33	419.25
452.70	414.94
453.07	410.00
453.43	404.65
453.80	399.69
454.17	394.82
454.54	390.36
454.91	385.62
455.28	381.02
455.65	376.77
456.02	372.41
456.38	368.78
456.75	364.23
457.12	360.41
457.49	356.60
457.86	352.84
458.23	349.72
458.59	346.20
458.96	342.76
459.33	339.60
459.70	336.44
460.07	333.90
460.43	331.06
460.80	328.29
461.17	326.00
461.54	323.54
461.91	321.21
462.27	318.85
462.64	316.81
463.01	314.48
463.38	312.34
463.74	310.10
464.11	308.22
464.48	306.50
464.85	304.69
465.21	303.39
465.58	301.91
465.95	300.16
466.32	298.75
466.68	297.31
467.05	295.81
467.42	294.38
467.78	292.91
468.15	291.55
468.52	290.59
468.88	289.32
469.25	288.18
469.62	287.31
469.98	286.33
470.35	285.40
470.72	284.60
471.08	283.68
471.45	282.94
471.82	282.20
472.18	281.45
472.55	280.88
472.92	280.18
473.28	279.62
473.65	279.09
474.02	278.47
474.38	277.99
474.75	277.67
475.11	277.27
475.48	277.02
475.85	276.80
476.21	276.64
476.58	276.54
476.94	276.50
477.31	276.35
477.67	276.30
478.04	276.37
478.41	276.49
478.77	276.84
479.14	276.92
479.50	277.25
479.87	277.55
480.23	278.00
480.60	278.32
480.96	278.79
481.33	279.48
481.69	280.12
482.06	280.80
482.42	281.60
482.79	282.39
483.15	283.22
483.52	284.24
483.88	285.13
484.25	286.14
484.61	287.23
484.98	288.44
485.34	289.74
485.71	291.07
486.07	292.43
486.44	293.64
486.80	295.16
487.17	296.69
487.53	298.40
487.90	300.17
488.26	302.20
488.62	304.26
488.99	306.23
489.35	308.49
489.72	310.77
490.08	313.08
490.44	315.55
490.81	318.26
491.17	320.88
491.54	323.87
491.90	326.81
492.26	330.03
492.63	333.41
492.99	336.90
493.36	340.50
493.72	344.42
494.08	348.54
494.45	352.89
494.81	357.34
495.17	361.99
495.54	366.83
495.90	371.84
496.26	377.14
496.63	382.69
496.99	388.37
497.35	394.43
497.72	400.73
498.08	407.13
498.44	413.88
498.80	421.15
499.17	428.42
499.53	436.13
499.89	444.19
500.26	452.28
500.62	460.74
500.98	469.63
501.34	478.60
501.71	488.07
502.07	497.75
502.43	507.71
502.79	517.92
503.16	528.63
503.52	539.42
503.88	550.54
504.24	561.97
504.60	573.88
504.97	586.18
505.33	598.59
505.69	612.02
506.05	625.39
506.41	638.93
506.78	652.61
507.14	666.87
507.50	681.20
507.86	696.23
508.22	711.52
508.59	727.05
508.95	743.04
509.31	759.01
509.67	775.56
510.03	792.37
510.39	809.82
510.75	827.43
511.12	845.71
511.48	864.14
511.84	882.61
512.20	901.10
512.56	920.14
512.92	939.50
513.28	958.79
513.64	978.40
514.00	998.21
514.37	1018.68
514.73	1039.25
515.09	1060.28
515.45	1081.09
515.81	1102.33
516.17	1123.58
516.53	1144.82
516.89	1166.53
517.25	1188.19
517.61	1209.67
517.97	1231.23
518.33	1252.67
518.69	1273.99
519.05	1295.85
519.41	1317.92
519.77	1340.59
520.13	1362.72
520.49	1384.73
520.85	1407.16
521.21	1429.64
521.57	1452.31
521.93	1474.07
522.29	1496.91
522.65	1519.25
523.01	1541.77
523.37	1563.39
523.73	1585.36
524.09	1607.54
524.45	1629.78
524.81	1651.85
525.17	1674.32
525.53	1696.68
525.89	1718.91
526.25	1741.35
526.61	1762.77
526.97	1784.28
527.33	1805.15
527.68	1826.58
528.04	1847.93
528.40	1868.32
528.76	1889.05
529.12	1909.67
529.48	1931.71
529.84	1952.06
530.20	1972.11
530.56	1992.21
530.91	2012.94
531.27	2033.57
531.63	2053.65
531.99	2073.43
532.35	2092.59
532.71	2111.60
533.07	2131.05
533.42	2149.53
533.78	2168.15
534.14	2186.76
534.50	2204.22
534.86	2222.50
535.21	2239.00
535.57	2256.57
535.93	2273.77
536.29	2290.30
536.65	2307.10
537.00	2321.78
537.36	2336.65
537.72	2351.59
538.08	2366.76
538.44	2381.93
538.79	2397.06
539.15	2411.62
539.51	2426.15
539.87	2441.21
540.22	2455.42
540.58	2469.97
540.94	2484.12
541.29	2497.06
541.65	2508.82
542.01	2521.99
542.37	2533.88
542.72	2546.32
543.08	2557.30
543.44	2569.26
543.79	2579.53
544.15	2589.41
544.51	2600.70
544.87	2611.99
545.22	2621.60
545.58	2630.05
545.94	2637.39
546.29	2643.77
546.65	2650.22
547.01	2656.19
547.36	2661.91
547.72	2667.58
548.07	2671.38
548.43	2675.39
548.79	2679.34
549.14	2683.95
549.50	2688.11
549.86	2691.71
550.21	2695.69
550.57	2699.70
550.92	2702.17
551.28	2704.89
551.64	2707.23
551.99	2709.50
552.35	2710.81
552.70	2713.45
553.06	2716.44
553.41	2719.28
553.77	2722.19
554.13	2724.56
554.48	2726.76
554.84	2728.23
555.19	2728.76
555.55	2729.30
555.90	2729.72
556.26	2730.19
556.61	2730.29
556.97	2728.94
557.32	2728.77
557.68	2726.77
558.03	2725.21
558.39	2723.87
558.74	2723.65
559.10	2722.76
559.45	2721.12
559.81	2719.93
560.16	2717.46
560.52	2714.29
560.87	2711.34
561.23	2707.66
561.58	2705.03
561.94	2701.57
562.29	2697.83
562.64	2695.56
563.00	2693.12
563.35	2691.29
563.71	2689.04
564.06	2687.02
564.42	2685.41
564.77	2682.55
565.12	2680.72
565.48	2677.51
565.83	2674.28
566.19	2670.79
566.54	2666.44
566.89	2662.62
567.25	2658.78
567.60	2655.34
567.96	2652.42
568.31	2649.01
568.66	2645.05
569.02	2640.25
569.37	2635.08
569.72	2631.52
570.08	2626.37
570.43	2620.64
570.78	2614.59
571.14	2608.39
571.49	2601.36
571.84	2595.30
572.20	2588.85
572.55	2582.60
572.90	2576.04
573.26	2568.82
573.61	2561.66
573.96	2555.00
574.31	2546.99
574.67	2539.18
575.02	2530.46
575.37	2521.54
575.72	2512.53
576.08	2504.83
576.43	2496.50
576.78	2488.78
577.13	2480.17
577.49	2471.85
577.84	2464.20
578.19	2456.76
578.54	2449.65
578.90	2442.93
579.25	2434.22
579.60	2424.63
579.95	2415.15
580.30	2406.99
580.66	2399.19
581.01	2390.15
581.36	2381.08
581.71	2372.85
582.06	2364.13
582.42	2356.13
582.77	2346.92
583.12	2338.07
583.47	2329.43
583.82	2321.02
584.17	2311.89
584.53	2302.91
584.88	2294.24
585.23	2285.09
585.58	2275.51
585.93	2265.21
586.28	2255.90
586.63	2247.00
586.98	2239.23
587.34	2231.24
587.69	2222.28
588.04	2212.95
588.39	2204.62
588.74	2195.69
589.09	2186.83
589.44	2177.04
589.79	2168.60
590.14	2161.04
590.49	2152.59
590.84	2143.72
591.19	2135.88
591.54	2127.20
591.89	2117.42
592.25	2108.28
592.60	2099.03
592.95	2089.68
593.30	2080.56
593.65	2070.68
594.00	2061.00
594.35	2052.82
594.70	2043.45
595.05	2034.53
595.40	2026.10
595.75	2016.62
596.10	2008.34
596.45	1999.97
596.80	1992.43
597.15	1984.27
597.50	1975.11
597.85	1966.93
598.19	1958.37
598.54	1949.25
598.89	1941.70
599.24	1935.01
599.59	1927.66
599.94	1920.43
600.29	1912.83
600.64	1904.99
600.99	1896.76
601.34	1889.78
601.69	1880.81
602.04	1872.61
602.39	1864.37
602.74	1856.72
603.08	1850.25
603.43	1843.53
603.78	1835.32
604.13	1827.20
604.48	1818.76
604.83	1811.93
605.18	1804.75
605.53	1797.10
605.87	1789.85
606.22	1782.68
606.57	1774.66
606.92	1766.38
607.27	1758.60
607.62	1751.31
607.96	1744.63
608.31	1738.31
608.66	1730.45
609.01	1723.04
609.36	1715.53
609.70	1707.97
610.05	1700.02
610.40	1691.76
610.75	1683.15
611.10	1675.85
611.44	1667.02
611.79	1658.30
612.14	1648.97
612.49	1639.40
612.83	1630.76
613.18	1620.84
613.53	1611.35
613.88	1601.63
614.22	1592.90
614.57	1583.60
614.92	1574.12
615.27	1564.53
615.61	1554.97
615.96	1546.25
616.31	1537.77
616.65	1529.98
617.00	1521.55
617.35	1512.86
617.70	1503.84
618.04	1494.91
618.39	1485.41
618.74	1477.06
619.08	1468.65
619.43	1460.34
619.78	1452.70
620.12	1444.55
620.47	1437.20
620.82	1428.60
621.16	1420.59
621.51	1412.35
621.85	1404.05
622.20	1395.72
622.55	1387.45
622.89	1379.31
623.24	1371.08
623.59	1362.36
623.93	1353.51
624.28	1345.26
624.62	1337.20
624.97	1329.23
625.32	1321.35
625.66	1314.01
626.01	1306.71
626.35	1299.43
626.70	1291.69
627.04	1284.17
627.39	1276.63
627.73	1268.91
628.08	1261.98
628.43	1254.54
628.77	1247.07
629.12	1239.53
629.46	1232.89
629.81	1225.66
630.15	1218.10
630.50	1210.84
630.84	1203.80
631.19	1196.87
631.53	1190.00
631.88	1182.45
632.22	1174.75
632.57	1167.68
632.91	1160.08
633.26	1152.51
633.60	1145.39
633.95	1138.68
634.29	1131.34
634.64	1124.82
634.98	1117.84
635.32	1110.74
635.67	1104.42
636.01	1097.78
636.36	1091.30
636.70	1084.58
637.05	1078.26
637.39	1072.29
637.73	1065.88
638.08	1059.98
638.42	1054.01
638.77	1047.42
639.11	1041.18
639.45	1035.33
639.80	1028.88
640.14	1022.67
640.49	1016.56
640.83	1010.29
641.17	1003.90
641.52	997.89
641.86	991.28
642.20	985.06
642.55	978.40
642.89	971.89
643.23	965.44
643.58	959.47
643.92	953.05
644.26	946.70
644.61	940.49
644.95	934.41
645.29	928.14
645.64	921.45
645.98	915.54
646.32	909.55
646.66	903.25
647.01	897.19
647.35	891.32
647.69	885.03
648.04	879.13
648.38	873.29
648.72	867.36
649.06	861.30
649.41	855.36
649.75	849.79
650.09	844.01
650.43	838.25
650.78	832.09
651.12	825.98
651.46	820.15
651.80	814.25
652.14	808.42
652.49	802.55
652.83	796.88
653.17	790.83
653.51	785.03
653.85	779.73
654.20	774.06
654.54	768.31
654.88	763.00
655.22	757.02
655.56	751.19
655.90	745.28
656.25	739.61
656.59	734.09
656.93	728.98
657.27	723.81
657.61	718.45
657.95	713.31
658.29	708.27
658.64	703.25
658.98	698.20
659.32	692.87
659.66	687.81
660.00	682.52
660.34	677.31
660.68	672.16
661.02	666.96
661.36	662.23
661.70	657.57
662.05	652.85
662.39	648.52
662.73	644.25
663.07	639.92
663.41	635.55
663.75	631.13
664.09	626.38
664.43	621.56
664.77	617.08
665.11	612.65
665.45	608.29
665.79	603.88
666.13	599.42
666.47	595.30
666.81	591.05
667.15	586.99
667.49	583.19
667.83	579.36
668.17	575.55
668.51	571.61
668.85	567.87
669.19	564.12
669.53	560.13
669.87	555.99
670.21	552.16
670.55	548.25
670.89	544.83
671.23	541.40
671.57	538.12
671.91	534.57
672.25	531.02
672.58	527.63
672.92	524.11
673.26	520.93
673.60	517.69
673.94	514.40
674.28	511.18
674.62	508.05
674.96	504.85
675.30	501.74
675.64	498.66
675.97	495.35
676.31	492.38
676.65	489.56
676.99	487.07
677.33	484.12
677.67	481.40
678.01	478.16
678.34	475.13
678.68	472.18
679.02	469.13
679.36	466.45
679.70	463.48
680.04	460.74
680.37	457.80
680.71	454.97
681.05	452.23
681.39	449.55
681.73	446.84
682.06	444.32
682.40	441.60
682.74	438.95
683.08	436.57
683.42	433.83
683.75	431.25
684.09	428.49
684.43	426.04
684.77	423.34
685.10	420.91
685.44	418.49
685.78	416.02
686.12	413.94
686.45	411.50
686.79	409.33
687.13	407.16
687.46	404.99
687.80	402.84
688.14	400.52
688.48	398.47
688.81	396.24
689.15	394.07
689.49	391.87
689.82	389.66
690.16	387.28
690.50	385.04
690.83	382.75
691.17	380.46
691.51	378.28
691.84	376.28
692.18	374.24
692.52	372.31
692.85	370.47
693.19	368.55
693.52	366.57
693.86	364.65
694.20	362.77
694.53	360.90
694.87	358.78
695.21	356.91
695.54	354.92
695.88	352.95
696.21	351.07
696.55	349.42
696.88	347.77
697.22	346.08
697.56	344.53
697.89	343.00
698.23	341.44
698.56	339.85
698.90	338.33
699.23	336.68
699.57	335.01
699.90	333.21
700.24	331.53
700.58	330.00
700.91	328.43
701.25	326.95
701.58	325.50
701.92	324.25
702.25	322.84
702.59	321.45
702.92	320.21
703.26	318.88
703.59	317.58
703.93	316.41
704.26	315.06
704.60	313.79
704.93	312.45
705.26	311.18
705.60	310.05
705.93	308.83
706.27	307.71
706.60	306.62
706.94	305.57
707.27	304.42
707.61	303.28
707.94	302.10
708.27	300.86
708.61	299.69
708.94	298.53
709.28	297.34
709.61	296.25
709.94	295.17
710.28	294.12
710.61	293.00
710.95	291.73
711.28	290.85
711.61	289.82
711.95	288.88
712.28	288.00
712.61	286.91
712.95	285.91
713.28	285.06
713.61	284.11
713.95	283.30
714.28	282.48
714.61	281.51
714.95	280.71
715.28	279.85
715.61	278.87
715.95	277.99
716.28	277.25
716.61	276.39
716.95	275.53
717.28	274.66
717.61	273.91
717.94	273.19
718.28	272.37
718.61	271.64
718.94	270.85
719.27	270.02
719.61	269.36
719.94	268.64
720.27	267.74
720.60	267.00
720.94	266.21
721.27	265.47
721.60	264.97
721.93	264.31
722.27	263.70
722.60	263.12
722.93	262.53
723.26	261.93
723.59	261.27
723.93	260.67
724.26	260.03
724.59	259.41
724.92	258.80
725.25	258.18
725.59	257.59
725.92	257.10
726.25	256.56
726.58	255.98
726.91	255.47
727.24	255.07
727.57	254.66
727.91	254.11
728.24	253.66
728.57	253.12
728.90	252.59
729.23	252.10
729.56	251.80
729.89	251.33
730.22	250.89
730.55	250.52
730.89	250.03
731.22	249.61
731.55	249.20
731.88	248.82
732.21	248.45
732.54	248.00
732.87	247.54
733.20	247.12
733.53	246.75
733.86	246.42
734.19	245.97
734.52	245.54
734.85	245.37
735.18	244.83
735.51	244.51
735.84	244.17
736.17	243.84
736.50	243.35
736.83	243.14
737.16	242.76
737.49	242.40
737.82	242.12
738.15	241.84
738.48	241.48
738.81	241.10
739.14	240.67
739.47	240.34
739.80	239.96
740.13	239.66
740.46	239.27
740.79	238.86
741.12	238.62
741.45	238.23
741.78	237.73
742.11	237.58
742.44	237.23
742.77	236.99
743.10	236.70
743.43	236.41
743.75	235.96
744.08	235.80
744.41	235.50
744.74	235.20
745.07	234.86
745.40	234.67
745.73	234.42
746.06	234.23
746.39	233.96
746.71	233.66
747.04	233.31
747.37	233.13
747.70	232.85
748.03	232.52
748.36	232.24
748.68	231.98
749.01	231.69
749.34	231.41
749.67	231.13
750.00	230.90
750.33	230.79
750.65	230.54
750.98	230.13
751.31	229.88
751.64	229.62
751.97	229.56
752.29	229.22
752.62	228.96
752.95	228.67
753.28	228.45
753.60	228.30
753.93	228.22
754.26	228.00
754.59	227.82
754.91	227.57
755.24	227.40
755.57	227.20
755.90	226.94
756.22	226.74
756.55	226.52
756.88	226.23
757.20	225.91
757.53	225.71
757.86	225.51
758.19	225.32
758.51	225.17
758.84	224.87
759.17	224.75
759.49	224.54
759.82	224.51
760.15	224.36
760.47	224.18
760.80	223.88
761.13	223.74
761.45	223.57
761.78	223.50
762.11	223.44
762.43	223.33
762.76	223.20
763.08	223.11
763.41	223.05
763.74	223.00
764.06	222.85
764.39	222.70
764.71	222.65
765.04	222.52
765.37	222.36
765.69	222.25
766.02	222.12
766.34	222.05
766.67	221.83
767.00	221.73
767.32	221.71
767.65	221.77
767.97	221.60
768.30	221.51
768.62	221.37
768.95	221.21
769.27	221.07
769.60	221.11
769.92	220.94
770.25	220.80
770.57	220.63
770.90	220.46
771.22	220.34
771.55	220.20
771.87	220.15
772.20	220.04
772.52	220.05
772.85	220.18
773.17	220.05
773.50	219.95
773.82	219.84
774.15	219.65
774.47	219.40
774.80	219.32
775.12	219.18
775.45	219.03
775.77	218.93
776.09	218.92
776.42	218.70
776.74	218.69
777.07	218.55
777.39	218.49
777.72	218.53
778.04	218.53
778.36	218.45
778.69	218.39
779.01	218.35
779.33	218.20
779.66	217.89
779.98	217.82
780.31	217.79
780.63	217.74
780.95	217.65
781.28	217.60
781.60	217.48
781.92	217.36
782.25	217.33
782.57	217.30
782.89	217.17
783.22	217.11
783.54	216.99
783.86	216.90
784.19	216.89
784.51	216.91
784.83	216.73
785.16	216.67
785.48	216.60
785.80	216.48
786.12	216.35
786.45	216.30
