SpectraSuite Data File
++++++++++++++++++++++++++++++++++++
Date: Mon Feb 25 17:35:14 EST 2013
User: group
Dark Spectrum Present: No
Reference Spectrum Present: No
Number of Sampled Component Spectra: 1
Spectrometers: USB2E7196
Integration Time (usec): 52000 (USB2E7196)
Spectra Averaged: 20 (USB2E7196)
Boxcar Smoothing: 10 (USB2E7196)
Correct for Electrical Dark: No (USB2E7196)
Strobe/Lamp Enabled: No (USB2E7196)
Correct for Detector Non-linearity: No (USB2E7196)
Correct for Stray Light: No (USB2E7196)
Number of Pixels in Processed Spectrum: 2048
>>>>>Begin Processed Spectral Data<<<<<
339.09	0.00
339.48	198.05
339.86	200.10
340.24	200.90
340.63	202.80
341.01	207.00
341.39	205.70
341.78	206.90
342.16	208.55
342.54	208.55
342.93	197.84
343.31	207.87
343.69	208.52
344.07	209.03
344.46	209.48
344.84	209.97
345.22	210.16
345.60	210.42
345.99	210.67
346.37	210.76
346.75	210.89
347.13	210.96
347.52	211.00
347.90	211.23
348.28	211.34
348.66	211.48
349.05	211.47
349.43	211.65
349.81	211.72
350.19	211.84
350.57	211.90
350.96	212.05
351.34	212.11
351.72	212.15
352.10	212.25
352.48	212.34
352.87	212.34
353.25	212.44
353.63	212.50
354.01	212.61
354.39	212.74
354.77	212.81
355.15	213.03
355.54	213.07
355.92	213.06
356.30	213.14
356.68	213.27
357.06	213.36
357.44	213.30
357.82	213.37
358.20	213.42
358.58	213.48
358.97	213.49
359.35	213.60
359.73	213.76
360.11	213.78
360.49	213.84
360.87	213.90
361.25	213.95
361.63	214.03
362.01	214.00
362.39	214.03
362.77	214.04
363.15	214.02
363.53	214.03
363.91	214.05
364.29	213.99
364.67	213.88
365.05	213.82
365.43	213.89
365.81	213.87
366.19	213.95
366.57	214.00
366.95	213.97
367.33	213.90
367.71	213.88
368.09	213.92
368.47	213.97
368.85	213.88
369.23	213.93
369.61	213.87
369.99	213.86
370.37	213.82
370.75	213.92
371.13	213.84
371.51	213.77
371.89	213.73
372.27	213.78
372.65	213.67
373.03	213.62
373.41	213.57
373.78	213.60
374.16	213.45
374.54	213.35
374.92	213.34
375.30	213.37
375.68	213.18
376.06	213.11
376.44	213.03
376.82	212.99
377.19	212.88
377.57	212.80
377.95	212.75
378.33	212.70
378.71	212.51
379.09	212.45
379.47	212.55
379.84	212.49
380.22	212.40
380.60	212.39
380.98	212.36
381.36	212.30
381.73	212.10
382.11	212.08
382.49	212.03
382.87	211.87
383.25	211.80
383.62	211.96
384.00	211.90
384.38	211.82
384.76	211.79
385.13	211.86
385.51	211.85
385.89	211.75
386.27	211.79
386.64	211.79
387.02	211.77
387.40	211.67
387.78	211.66
388.15	211.64
388.53	211.65
388.91	211.69
389.29	211.60
389.66	211.67
390.04	211.55
390.42	211.56
390.79	211.63
391.17	211.56
391.55	211.32
391.92	211.29
392.30	211.29
392.68	211.28
393.05	211.16
393.43	211.11
393.81	211.20
394.18	211.10
394.56	211.07
394.94	211.10
395.31	211.12
395.69	211.11
396.06	211.20
396.44	211.23
396.82	211.20
397.19	211.29
397.57	211.29
397.95	211.44
398.32	211.41
398.70	211.44
399.07	211.55
399.45	211.64
399.82	211.73
400.20	211.80
400.58	211.89
400.95	211.95
401.33	212.07
401.70	212.22
402.08	212.36
402.45	212.50
402.83	212.63
403.20	212.67
403.58	212.75
403.95	212.78
404.33	212.87
404.71	212.90
405.08	213.21
405.46	213.38
405.83	213.47
406.21	213.60
406.58	213.75
406.96	213.90
407.33	214.05
407.70	214.25
408.08	214.58
408.45	214.78
408.83	214.99
409.20	215.26
409.58	215.41
409.95	215.66
410.33	215.92
410.70	216.12
411.08	216.49
411.45	216.91
411.82	217.31
412.20	217.72
412.57	218.30
412.95	218.51
413.32	219.03
413.69	219.49
414.07	220.09
414.44	220.80
414.82	221.41
415.19	222.20
415.56	222.91
415.94	223.63
416.31	224.56
416.68	225.42
417.06	226.44
417.43	227.46
417.81	228.61
418.18	229.72
418.55	230.99
418.93	232.29
419.30	233.57
419.67	234.94
420.04	236.35
420.42	237.86
420.79	239.68
421.16	241.48
421.54	243.39
421.91	245.29
422.28	247.17
422.66	249.22
423.03	251.28
423.40	253.40
423.77	255.64
424.15	257.92
424.52	260.39
424.89	262.90
425.26	265.33
425.64	267.63
426.01	270.29
426.38	272.91
426.75	275.64
427.13	278.49
427.50	281.58
427.87	284.71
428.24	287.72
428.61	290.64
428.99	293.87
429.36	297.33
429.73	300.80
430.10	304.28
430.47	307.90
430.85	311.64
431.22	315.53
431.59	319.71
431.96	323.59
432.33	327.95
432.70	332.11
433.08	337.05
433.45	341.67
433.82	346.27
434.19	351.57
434.56	356.59
434.93	361.38
435.30	366.11
435.68	371.39
436.05	376.72
436.42	381.84
436.79	386.50
437.16	391.73
437.53	397.05
437.90	402.36
438.27	407.54
438.64	412.83
439.01	417.94
439.38	422.35
439.75	426.67
440.13	431.55
440.50	436.14
440.87	439.92
441.24	443.90
441.61	448.11
441.98	451.11
442.35	454.78
442.72	458.61
443.09	462.15
443.46	464.28
443.83	465.61
444.20	466.88
444.57	468.63
444.94	469.28
445.31	470.20
445.68	470.93
446.05	471.06
446.42	470.31
446.79	469.50
447.16	468.65
447.53	468.03
447.90	465.86
448.27	463.80
448.64	460.91
449.01	458.82
449.37	455.18
449.74	451.74
450.11	447.63
450.48	442.96
450.85	438.31
451.22	434.37
451.59	430.66
451.96	427.05
452.33	422.23
452.70	417.89
453.07	412.49
453.43	407.13
453.80	402.19
454.17	397.48
454.54	392.91
454.91	387.98
455.28	383.21
455.65	378.72
456.02	374.29
456.38	370.42
456.75	365.77
457.12	361.84
457.49	357.96
457.86	354.13
458.23	350.90
458.59	347.32
458.96	343.78
459.33	340.49
459.70	337.32
460.07	334.86
460.43	331.97
460.80	329.40
461.17	327.15
461.54	324.67
461.91	322.23
462.27	319.80
462.64	317.76
463.01	315.46
463.38	313.36
463.74	311.16
464.11	309.30
464.48	307.62
464.85	305.97
465.21	304.58
465.58	303.18
465.95	301.48
466.32	300.05
466.68	298.60
467.05	297.18
467.42	295.78
467.78	294.29
468.15	292.93
468.52	291.85
468.88	290.55
469.25	289.40
469.62	288.50
469.98	287.48
470.35	286.58
470.72	285.76
471.08	284.78
471.45	284.01
471.82	283.30
472.18	282.37
472.55	281.75
472.92	280.95
473.28	280.33
473.65	279.76
474.02	279.13
474.38	278.66
474.75	278.44
475.11	278.02
475.48	277.78
475.85	277.55
476.21	277.39
476.58	277.18
476.94	277.16
477.31	277.20
477.67	277.12
478.04	277.08
478.41	277.13
478.77	277.47
479.14	277.66
479.50	277.90
479.87	278.34
480.23	278.70
480.60	279.10
480.96	279.46
481.33	280.11
481.69	280.81
482.06	281.46
482.42	282.00
482.79	282.74
483.15	283.62
483.52	284.57
483.88	285.51
484.25	286.56
484.61	287.56
484.98	288.60
485.34	289.96
485.71	291.36
486.07	292.79
486.44	294.16
486.80	295.65
487.17	297.17
487.53	298.92
487.90	300.73
488.26	302.67
488.62	304.89
488.99	306.85
489.35	309.05
489.72	311.25
490.08	313.72
490.44	316.17
490.81	318.82
491.17	321.49
491.54	324.36
491.90	327.46
492.26	330.71
492.63	334.14
492.99	337.55
493.36	341.27
493.72	345.18
494.08	349.08
494.45	353.39
494.81	357.86
495.17	362.43
495.54	367.21
495.90	372.23
496.26	377.33
496.63	382.88
496.99	388.64
497.35	394.74
497.72	401.01
498.08	407.58
498.44	414.26
498.80	421.54
499.17	429.06
499.53	436.65
499.89	444.72
500.26	452.85
500.62	461.16
500.98	469.90
501.34	478.97
501.71	488.52
502.07	498.20
502.43	508.26
502.79	518.50
503.16	529.30
503.52	540.19
503.88	551.46
504.24	563.00
504.60	574.89
504.97	587.22
505.33	599.88
505.69	613.32
506.05	626.84
506.41	640.35
506.78	654.11
507.14	668.36
507.50	682.98
507.86	697.99
508.22	713.45
508.59	729.02
508.95	745.06
509.31	761.45
509.67	778.16
510.03	795.14
510.39	812.73
510.75	830.59
511.12	848.96
511.48	867.25
511.84	885.98
512.20	904.63
512.56	923.81
512.92	943.14
513.28	962.64
513.64	982.51
514.00	1002.71
514.37	1023.33
514.73	1044.03
515.09	1064.71
515.45	1085.77
515.81	1107.07
516.17	1128.55
516.53	1149.76
516.89	1171.36
517.25	1193.20
517.61	1215.22
517.97	1236.65
518.33	1258.30
518.69	1280.19
519.05	1302.55
519.41	1325.12
519.77	1347.96
520.13	1370.31
520.49	1392.83
520.85	1415.69
521.21	1438.27
521.57	1461.19
521.93	1483.04
522.29	1506.14
522.65	1528.70
523.01	1551.34
523.37	1573.60
523.73	1595.91
524.09	1618.40
524.45	1640.65
524.81	1662.99
525.17	1685.08
525.53	1707.66
525.89	1730.19
526.25	1752.17
526.61	1773.59
526.97	1795.11
527.33	1816.39
527.68	1837.93
528.04	1859.22
528.40	1879.58
528.76	1900.54
529.12	1921.34
529.48	1943.34
529.84	1963.86
530.20	1984.53
530.56	2004.99
530.91	2026.30
531.27	2047.11
531.63	2067.45
531.99	2087.67
532.35	2107.10
532.71	2126.65
533.07	2146.53
533.42	2165.21
533.78	2184.76
534.14	2203.61
534.50	2221.17
534.86	2239.96
535.21	2256.95
535.57	2275.25
535.93	2293.04
536.29	2310.25
536.65	2327.26
537.00	2343.02
537.36	2358.59
537.72	2374.05
538.08	2389.79
538.44	2405.00
538.79	2420.38
539.15	2435.62
539.51	2450.43
539.87	2466.14
540.22	2481.05
540.58	2496.27
540.94	2511.06
541.29	2523.89
541.65	2536.48
542.01	2549.88
542.37	2561.55
542.72	2574.25
543.08	2585.06
543.44	2596.97
543.79	2607.38
544.15	2617.75
544.51	2628.94
544.87	2640.39
545.22	2649.91
545.58	2658.55
545.94	2665.91
546.29	2672.53
546.65	2679.15
547.01	2685.59
547.36	2691.27
547.72	2696.99
548.07	2700.93
548.43	2704.85
548.79	2709.27
549.14	2714.09
549.50	2718.50
549.86	2722.86
550.21	2727.20
550.57	2731.64
550.92	2734.56
551.28	2737.42
551.64	2740.13
551.99	2742.64
552.35	2744.13
552.70	2746.90
553.06	2749.65
553.41	2752.77
553.77	2756.12
554.13	2758.40
554.48	2760.65
554.84	2762.06
555.19	2762.44
555.55	2763.14
555.90	2763.71
556.26	2764.02
556.61	2764.10
556.97	2763.08
557.32	2762.74
557.68	2760.83
558.03	2759.30
558.39	2757.61
558.74	2757.21
559.10	2756.17
559.45	2754.68
559.81	2753.51
560.16	2750.94
560.52	2748.78
560.87	2745.92
561.23	2741.98
561.58	2739.66
561.94	2736.40
562.29	2733.14
562.64	2731.18
563.00	2728.88
563.35	2726.55
563.71	2724.89
564.06	2722.52
564.42	2720.80
564.77	2718.29
565.12	2716.85
565.48	2713.93
565.83	2711.07
566.19	2708.07
566.54	2703.98
566.89	2699.84
567.25	2696.24
567.60	2693.25
567.96	2689.69
568.31	2686.48
568.66	2683.02
569.02	2678.55
569.37	2673.34
569.72	2669.29
570.08	2663.80
570.43	2658.19
570.78	2652.70
571.14	2646.20
571.49	2639.42
571.84	2633.72
572.20	2626.93
572.55	2620.30
572.90	2613.02
573.26	2606.21
573.61	2598.91
573.96	2592.29
574.31	2584.38
574.67	2576.08
575.02	2567.52
575.37	2558.79
575.72	2549.36
576.08	2541.41
576.43	2532.23
576.78	2524.55
577.13	2516.56
577.49	2508.60
577.84	2500.88
578.19	2493.20
578.54	2485.83
578.90	2479.04
579.25	2469.51
579.60	2460.24
579.95	2450.90
580.30	2443.39
580.66	2434.88
581.01	2425.64
581.36	2416.12
581.71	2407.80
582.06	2399.09
582.42	2390.90
582.77	2381.52
583.12	2372.68
583.47	2364.01
583.82	2355.78
584.17	2346.54
584.53	2337.10
584.88	2328.10
585.23	2318.74
585.58	2309.23
585.93	2299.40
586.28	2290.22
586.63	2281.76
586.98	2273.58
587.34	2265.11
587.69	2255.79
588.04	2246.72
588.39	2238.72
588.74	2229.87
589.09	2220.82
589.44	2211.30
589.79	2202.75
590.14	2195.07
590.49	2186.55
590.84	2177.38
591.19	2169.40
591.54	2160.33
591.89	2150.07
592.25	2140.74
592.60	2131.20
592.95	2121.77
593.30	2112.20
593.65	2102.17
594.00	2092.34
594.35	2083.77
594.70	2074.36
595.05	2065.32
595.40	2056.35
595.75	2046.10
596.10	2037.71
596.45	2029.25
596.80	2021.38
597.15	2012.58
597.50	2003.38
597.85	1994.74
598.19	1985.95
598.54	1977.10
598.89	1969.44
599.24	1962.88
599.59	1955.53
599.94	1948.02
600.29	1940.10
600.64	1931.85
600.99	1923.38
601.34	1916.34
601.69	1907.23
602.04	1898.82
602.39	1890.36
602.74	1882.50
603.08	1876.02
603.43	1868.55
603.78	1860.47
604.13	1852.13
604.48	1844.19
604.83	1836.71
605.18	1829.51
605.53	1821.82
605.87	1814.09
606.22	1806.56
606.57	1798.35
606.92	1790.11
607.27	1782.11
607.62	1774.57
607.96	1767.80
608.31	1761.59
608.66	1753.07
609.01	1745.64
609.36	1737.70
609.70	1729.82
610.05	1721.78
610.40	1713.36
610.75	1704.90
611.10	1696.98
611.44	1688.16
611.79	1678.99
612.14	1669.80
612.49	1660.19
612.83	1651.19
613.18	1641.28
613.53	1631.59
613.88	1621.67
614.22	1612.53
614.57	1603.10
614.92	1593.53
615.27	1584.12
615.61	1574.24
615.96	1565.51
616.31	1556.85
616.65	1549.07
617.00	1540.62
617.35	1531.82
617.70	1522.90
618.04	1513.60
618.39	1504.12
618.74	1495.35
619.08	1486.66
619.43	1478.20
619.78	1470.25
620.12	1462.03
620.47	1454.34
620.82	1445.95
621.16	1437.59
621.51	1428.85
621.85	1420.60
622.20	1412.26
622.55	1403.52
622.89	1395.19
623.24	1387.17
623.59	1378.48
623.93	1369.95
624.28	1361.69
624.62	1353.51
624.97	1344.99
625.32	1337.21
625.66	1329.72
626.01	1322.45
626.35	1315.29
626.70	1307.57
627.04	1300.20
627.39	1292.71
627.73	1284.87
628.08	1277.75
628.43	1270.41
628.77	1263.12
629.12	1255.66
629.46	1248.54
629.81	1241.26
630.15	1233.73
630.50	1226.01
630.84	1218.65
631.19	1211.23
631.53	1204.01
631.88	1196.23
632.22	1188.60
632.57	1181.61
632.91	1174.09
633.26	1166.53
633.60	1158.88
633.95	1152.06
634.29	1144.41
634.64	1137.63
634.98	1130.65
635.32	1123.66
635.67	1117.11
636.01	1110.48
636.36	1103.69
636.70	1097.14
637.05	1090.70
637.39	1084.14
637.73	1077.90
638.08	1072.04
638.42	1065.94
638.77	1059.65
639.11	1053.50
639.45	1047.50
639.80	1040.67
640.14	1034.34
640.49	1028.02
640.83	1021.84
641.17	1015.34
641.52	1009.43
641.86	1002.80
642.20	996.61
642.55	989.82
642.89	983.25
643.23	976.80
643.58	970.87
643.92	964.23
644.26	957.82
644.61	951.91
644.95	945.61
645.29	939.16
645.64	932.38
645.98	925.91
646.32	920.13
646.66	914.07
647.01	908.08
647.35	902.04
647.69	895.71
648.04	889.62
648.38	883.55
648.72	877.54
649.06	871.37
649.41	865.09
649.75	859.26
650.09	853.42
650.43	847.42
650.78	841.14
651.12	835.19
651.46	829.57
651.80	823.49
652.14	817.52
652.49	811.49
652.83	805.93
653.17	800.00
653.51	793.86
653.85	788.02
654.20	782.15
654.54	776.36
654.88	770.85
655.22	765.11
655.56	759.16
655.90	753.12
656.25	747.52
656.59	742.08
656.93	736.79
657.27	731.52
657.61	726.00
657.95	720.67
658.29	715.33
658.64	709.97
658.98	704.66
659.32	699.18
659.66	694.05
660.00	688.57
660.34	683.36
660.68	678.20
661.02	673.17
661.36	668.38
661.70	663.48
662.05	658.68
662.39	654.05
662.73	649.63
663.07	645.18
663.41	640.60
663.75	635.90
664.09	631.20
664.43	626.44
664.77	621.99
665.11	617.52
665.45	613.35
665.79	608.79
666.13	604.40
666.47	600.35
666.81	596.25
667.15	592.25
667.49	588.35
667.83	584.43
668.17	580.46
668.51	576.70
668.85	572.99
669.19	569.12
669.53	565.21
669.87	561.31
670.21	557.47
670.55	553.57
670.89	550.16
671.23	546.79
671.57	543.28
671.91	539.64
672.25	535.97
672.58	532.31
672.92	528.88
673.26	525.72
673.60	522.37
673.94	518.78
674.28	515.47
674.62	512.15
674.96	508.87
675.30	505.71
675.64	502.39
675.97	499.17
676.31	496.29
676.65	493.35
676.99	490.53
677.33	487.58
677.67	484.73
678.01	481.59
678.34	478.53
678.68	475.59
679.02	472.63
679.36	469.87
679.70	467.10
680.04	464.20
680.37	461.16
680.71	458.33
681.05	455.75
681.39	452.93
681.73	450.31
682.06	447.69
682.40	445.04
682.74	442.34
683.08	439.88
683.42	437.16
683.75	434.57
684.09	431.95
684.43	429.43
684.77	426.86
685.10	424.38
685.44	421.95
685.78	419.55
686.12	417.26
686.45	414.82
686.79	412.42
687.13	410.34
687.46	408.11
687.80	405.98
688.14	403.61
688.48	401.58
688.81	399.23
689.15	396.95
689.49	394.70
689.82	392.57
690.16	390.12
690.50	387.76
690.83	385.52
691.17	383.26
691.51	381.06
691.84	379.02
692.18	376.97
692.52	374.91
692.85	373.02
693.19	371.21
693.52	369.37
693.86	367.31
694.20	365.28
694.53	363.38
694.87	361.26
695.21	359.26
695.54	357.29
695.88	355.37
696.21	353.66
696.55	351.86
696.88	350.07
697.22	348.35
697.56	346.79
697.89	345.10
698.23	343.39
698.56	341.64
698.90	340.07
699.23	338.48
699.57	336.83
699.90	335.04
700.24	333.21
700.58	331.51
700.91	330.04
701.25	328.61
701.58	327.15
701.92	325.74
702.25	324.44
702.59	323.01
702.92	321.65
703.26	320.24
703.59	318.95
703.93	317.82
704.26	316.54
704.60	315.26
704.93	313.95
705.26	312.73
705.60	311.56
705.93	310.27
706.27	309.03
706.60	307.82
706.94	306.78
707.27	305.65
707.61	304.55
707.94	303.39
708.27	302.14
708.61	300.91
708.94	299.81
709.28	298.68
709.61	297.54
709.94	296.50
710.28	295.44
710.61	294.41
710.95	293.06
711.28	292.15
711.61	291.12
711.95	290.25
712.28	289.24
712.61	288.21
712.95	287.23
713.28	286.30
713.61	285.35
713.95	284.30
714.28	283.41
714.61	282.51
714.95	281.64
715.28	280.72
715.61	279.82
715.95	278.95
716.28	278.07
716.61	277.31
716.95	276.40
717.28	275.56
717.61	274.72
717.94	274.09
718.28	273.16
718.61	272.39
718.94	271.51
719.27	270.74
719.61	269.97
719.94	269.17
720.27	268.35
720.60	267.64
720.94	267.08
721.27	266.36
721.60	265.67
721.93	265.01
722.27	264.44
722.60	263.90
722.93	263.25
723.26	262.67
723.59	261.95
723.93	261.36
724.26	260.81
724.59	260.19
724.92	259.50
725.25	259.00
725.59	258.39
725.92	257.98
726.25	257.44
726.58	256.95
726.91	256.46
727.24	256.00
727.57	255.52
727.91	254.90
728.24	254.46
728.57	253.96
728.90	253.49
729.23	252.94
729.56	252.53
729.89	252.13
730.22	251.65
730.55	251.23
730.89	250.78
731.22	250.28
731.55	249.87
731.88	249.47
732.21	249.00
732.54	248.55
732.87	248.10
733.20	247.66
733.53	247.28
733.86	246.85
734.19	246.37
734.52	245.96
734.85	245.73
735.18	245.33
735.51	245.04
735.84	244.71
736.17	244.41
736.50	243.91
736.83	243.62
737.16	243.22
737.49	242.83
737.82	242.49
738.15	242.10
738.48	241.74
738.81	241.38
739.14	241.00
739.47	240.63
739.80	240.19
740.13	239.85
740.46	239.46
740.79	239.12
741.12	238.80
741.45	238.42
741.78	238.00
742.11	237.71
742.44	237.30
742.77	236.95
743.10	236.57
743.43	236.32
743.75	235.83
744.08	235.78
744.41	235.42
744.74	235.09
745.07	234.75
745.40	234.46
745.73	234.20
746.06	233.92
746.39	233.61
746.71	233.41
747.04	233.12
747.37	232.80
747.70	232.57
748.03	232.31
748.36	232.09
748.68	231.79
749.01	231.40
749.34	231.17
749.67	230.93
750.00	230.75
750.33	230.57
750.65	230.37
750.98	229.86
751.31	229.70
751.64	229.50
751.97	229.38
752.29	229.10
752.62	228.79
752.95	228.58
753.28	228.40
753.60	228.14
753.93	227.95
754.26	227.80
754.59	227.55
754.91	227.36
755.24	227.15
755.57	226.97
755.90	226.83
756.22	226.71
756.55	226.45
756.88	226.14
757.20	225.82
757.53	225.60
757.86	225.41
758.19	225.24
758.51	225.03
758.84	224.79
759.17	224.71
759.49	224.63
759.82	224.49
760.15	224.30
760.47	224.08
760.80	223.95
761.13	223.90
761.45	223.72
761.78	223.59
762.11	223.45
762.43	223.28
762.76	223.06
763.08	222.84
763.41	222.79
763.74	222.67
764.06	222.54
764.39	222.41
764.71	222.31
765.04	222.13
765.37	222.02
765.69	221.85
766.02	221.70
766.34	221.53
766.67	221.41
767.00	221.33
767.32	221.37
767.65	221.30
767.97	221.11
768.30	220.95
768.62	220.81
768.95	220.72
769.27	220.63
769.60	220.63
769.92	220.50
770.25	220.33
770.57	220.21
770.90	220.10
771.22	220.00
771.55	219.93
771.87	219.89
772.20	219.81
772.52	219.93
772.85	220.03
773.17	219.98
773.50	219.88
773.82	219.79
774.15	219.57
774.47	219.40
774.80	219.36
775.12	219.30
775.45	219.21
775.77	219.13
776.09	219.11
776.42	218.99
776.74	218.95
777.07	218.90
777.39	218.86
777.72	218.81
778.04	218.72
778.36	218.62
778.69	218.57
779.01	218.45
779.33	218.24
779.66	218.00
779.98	217.94
780.31	217.85
780.63	217.86
780.95	217.86
781.28	217.82
781.60	217.69
781.92	217.68
782.25	217.67
782.57	217.63
782.89	217.51
783.22	217.40
783.54	217.34
783.86	217.32
784.19	217.26
784.51	217.22
784.83	217.17
785.16	217.07
785.48	217.03
785.80	217.03
786.12	216.96
786.45	216.86
