SpectraSuite Data File
++++++++++++++++++++++++++++++++++++
Date: Mon Feb 25 17:34:35 EST 2013
User: group
Dark Spectrum Present: No
Reference Spectrum Present: No
Number of Sampled Component Spectra: 1
Spectrometers: USB2E7196
Integration Time (usec): 52000 (USB2E7196)
Spectra Averaged: 20 (USB2E7196)
Boxcar Smoothing: 10 (USB2E7196)
Correct for Electrical Dark: No (USB2E7196)
Strobe/Lamp Enabled: No (USB2E7196)
Correct for Detector Non-linearity: No (USB2E7196)
Correct for Stray Light: No (USB2E7196)
Number of Pixels in Processed Spectrum: 2048
>>>>>Begin Processed Spectral Data<<<<<
339.09	0.00
339.48	199.45
339.86	200.45
340.24	201.35
340.63	204.15
341.01	207.85
341.39	205.50
341.78	207.55
342.16	210.00
342.54	209.35
342.93	198.50
343.31	208.45
343.69	208.96
344.07	209.40
344.46	209.87
344.84	210.21
345.22	210.41
345.60	210.71
345.99	210.87
346.37	211.03
346.75	211.07
347.13	211.21
347.52	211.29
347.90	211.29
348.28	211.33
348.66	211.45
349.05	211.44
349.43	211.44
349.81	211.50
350.19	211.52
350.57	211.63
350.96	211.72
351.34	211.90
351.72	212.03
352.10	212.14
352.48	212.17
352.87	212.17
353.25	212.21
353.63	212.23
354.01	212.34
354.39	212.26
354.77	212.35
355.15	212.31
355.54	212.34
355.92	212.35
356.30	212.39
356.68	212.49
357.06	212.59
357.44	212.71
357.82	212.74
358.20	212.85
358.58	212.78
358.97	212.80
359.35	212.81
359.73	212.97
360.11	213.03
360.49	213.11
360.87	213.20
361.25	213.22
361.63	213.31
362.01	213.35
362.39	213.39
362.77	213.50
363.15	213.55
363.53	213.60
363.91	213.71
364.29	213.76
364.67	213.68
365.05	213.61
365.43	213.63
365.81	213.67
366.19	213.76
366.57	213.91
366.95	213.91
367.33	213.96
367.71	213.82
368.09	213.85
368.47	213.80
368.85	213.80
369.23	213.87
369.61	213.81
369.99	213.79
370.37	213.81
370.75	213.86
371.13	213.74
371.51	213.71
371.89	213.63
372.27	213.55
372.65	213.49
373.03	213.45
373.41	213.39
373.78	213.31
374.16	213.20
374.54	213.10
374.92	213.11
375.30	213.00
375.68	212.91
376.06	212.93
376.44	212.91
376.82	212.82
377.19	212.70
377.57	212.71
377.95	212.64
378.33	212.55
378.71	212.41
379.09	212.52
379.47	212.42
379.84	212.39
380.22	212.26
380.60	212.20
380.98	212.18
381.36	212.15
381.73	212.06
382.11	212.08
382.49	211.99
382.87	211.89
383.25	211.92
383.62	212.10
384.00	212.02
384.38	211.96
384.76	211.95
385.13	212.00
385.51	211.95
385.89	211.90
386.27	211.92
386.64	211.91
387.02	211.79
387.40	211.81
387.78	211.76
388.15	211.83
388.53	211.78
388.91	211.73
389.29	211.68
389.66	211.78
390.04	211.66
390.42	211.69
390.79	211.63
391.17	211.61
391.55	211.43
391.92	211.33
392.30	211.37
392.68	211.40
393.05	211.37
393.43	211.32
393.81	211.37
394.18	211.34
394.56	211.28
394.94	211.32
395.31	211.35
395.69	211.45
396.06	211.48
396.44	211.49
396.82	211.51
397.19	211.67
397.57	211.63
397.95	211.70
398.32	211.75
398.70	211.79
399.07	211.80
399.45	211.86
399.82	211.95
400.20	211.95
400.58	212.00
400.95	212.00
401.33	212.14
401.70	212.28
402.08	212.33
402.45	212.44
402.83	212.59
403.20	212.65
403.58	212.68
403.95	212.76
404.33	212.89
404.71	213.00
405.08	213.09
405.46	213.21
405.83	213.42
406.21	213.51
406.58	213.72
406.96	213.87
407.33	214.03
407.70	214.27
408.08	214.63
408.45	214.83
408.83	215.11
409.20	215.26
409.58	215.46
409.95	215.75
410.33	216.04
410.70	216.28
411.08	216.59
411.45	216.97
411.82	217.36
412.20	217.80
412.57	218.35
412.95	218.79
413.32	219.26
413.69	219.70
414.07	220.27
414.44	220.95
414.82	221.59
415.19	222.36
415.56	223.14
415.94	223.85
416.31	224.81
416.68	225.70
417.06	226.72
417.43	227.66
417.81	228.79
418.18	229.93
418.55	231.13
418.93	232.42
419.30	233.75
419.67	235.14
420.04	236.61
420.42	238.02
420.79	239.70
421.16	241.48
421.54	243.30
421.91	245.17
422.28	247.07
422.66	249.14
423.03	251.21
423.40	253.16
423.77	255.33
424.15	257.48
424.52	259.81
424.89	262.34
425.26	264.85
425.64	267.13
426.01	269.71
426.38	272.49
426.75	275.24
427.13	278.04
427.50	281.01
427.87	284.03
428.24	287.17
428.61	290.16
428.99	293.44
429.36	296.84
429.73	300.32
430.10	303.72
430.47	307.30
430.85	310.92
431.22	314.95
431.59	319.18
431.96	323.17
432.33	327.48
432.70	331.70
433.08	336.67
433.45	341.42
433.82	346.04
434.19	351.06
434.56	356.12
434.93	360.89
435.30	365.62
435.68	370.95
436.05	376.26
436.42	381.38
436.79	386.07
437.16	391.21
437.53	396.49
437.90	401.79
438.27	407.07
438.64	412.45
439.01	417.46
439.38	421.93
439.75	426.29
440.13	431.12
440.50	435.80
440.87	439.44
441.24	443.16
441.61	447.47
441.98	450.52
442.35	454.15
442.72	457.77
443.09	461.40
443.46	463.54
443.83	464.88
444.20	466.09
444.57	467.87
444.94	468.86
445.31	469.69
445.68	470.46
446.05	470.59
446.42	469.87
446.79	469.14
447.16	468.22
447.53	467.57
447.90	465.45
448.27	463.28
448.64	460.40
449.01	458.37
449.37	454.72
449.74	451.27
450.11	447.20
450.48	442.70
450.85	438.10
451.22	434.13
451.59	430.39
451.96	426.77
452.33	422.07
452.70	417.62
453.07	412.56
453.43	407.44
453.80	402.43
454.17	397.64
454.54	393.02
454.91	388.17
455.28	383.34
455.65	378.99
456.02	374.61
456.38	370.89
456.75	366.26
457.12	362.34
457.49	358.49
457.86	354.67
458.23	351.48
458.59	347.97
458.96	344.35
459.33	341.20
459.70	337.97
460.07	335.37
460.43	332.41
460.80	329.62
461.17	327.18
461.54	324.75
461.91	322.48
462.27	320.11
462.64	318.07
463.01	315.93
463.38	313.83
463.74	311.69
464.11	309.75
464.48	308.04
464.85	306.26
465.21	304.91
465.58	303.40
465.95	301.69
466.32	300.27
466.68	298.86
467.05	297.35
467.42	296.10
467.78	294.63
468.15	293.31
468.52	292.36
468.88	291.05
469.25	289.81
469.62	288.93
469.98	287.80
470.35	286.88
470.72	285.85
471.08	284.87
471.45	283.96
471.82	283.25
472.18	282.42
472.55	281.91
472.92	281.24
473.28	280.59
473.65	279.97
474.02	279.36
474.38	278.97
474.75	278.72
475.11	278.22
475.48	277.96
475.85	277.73
476.21	277.43
476.58	277.20
476.94	277.16
477.31	276.97
477.67	276.94
478.04	276.95
478.41	277.23
478.77	277.46
479.14	277.63
479.50	277.88
479.87	278.26
480.23	278.55
480.60	278.85
480.96	279.38
481.33	279.93
481.69	280.48
482.06	281.03
482.42	281.55
482.79	282.27
483.15	283.05
483.52	283.98
483.88	285.02
484.25	286.16
484.61	287.24
484.98	288.33
485.34	289.68
485.71	290.95
486.07	292.25
486.44	293.63
486.80	295.18
487.17	296.73
487.53	298.41
487.90	300.21
488.26	302.20
488.62	304.30
488.99	306.42
489.35	308.52
489.72	310.80
490.08	313.16
490.44	315.64
490.81	318.42
491.17	321.16
491.54	324.02
491.90	326.90
492.26	330.12
492.63	333.47
492.99	336.88
493.36	340.72
493.72	344.59
494.08	348.50
494.45	352.77
494.81	357.20
495.17	361.86
495.54	366.77
495.90	371.79
496.26	376.97
496.63	382.48
496.99	388.41
497.35	394.53
497.72	400.84
498.08	407.34
498.44	414.18
498.80	421.32
499.17	428.80
499.53	436.55
499.89	444.45
500.26	452.72
500.62	461.19
500.98	469.94
501.34	479.07
501.71	488.68
502.07	498.28
502.43	508.27
502.79	518.55
503.16	529.22
503.52	540.21
503.88	551.45
504.24	563.10
504.60	574.81
504.97	587.20
505.33	599.78
505.69	613.10
506.05	626.47
506.41	640.06
506.78	653.84
507.14	667.96
507.50	682.67
507.86	697.54
508.22	712.92
508.59	728.26
508.95	744.28
509.31	760.48
509.67	777.21
510.03	794.25
510.39	811.63
510.75	829.51
511.12	847.55
511.48	865.84
511.84	884.43
512.20	903.32
512.56	922.52
512.92	942.28
513.28	961.74
513.64	981.52
514.00	1001.62
514.37	1022.25
514.73	1043.10
515.09	1063.82
515.45	1084.81
515.81	1106.04
516.17	1127.65
516.53	1149.03
516.89	1170.63
517.25	1192.43
517.61	1214.23
517.97	1235.95
518.33	1257.50
518.69	1279.38
519.05	1301.74
519.41	1323.93
519.77	1346.72
520.13	1368.79
520.49	1390.56
520.85	1413.47
521.21	1436.13
521.57	1459.02
521.93	1480.97
522.29	1503.95
522.65	1526.75
523.01	1549.23
523.37	1571.32
523.73	1593.79
524.09	1616.09
524.45	1638.29
524.81	1660.96
525.17	1683.38
525.53	1706.00
525.89	1728.47
526.25	1750.56
526.61	1771.97
526.97	1793.96
527.33	1815.37
527.68	1836.95
528.04	1858.51
528.40	1879.00
528.76	1899.74
529.12	1920.66
529.48	1942.68
529.84	1963.10
530.20	1983.39
530.56	2004.16
530.91	2025.22
531.27	2045.63
531.63	2065.65
531.99	2086.05
532.35	2105.09
532.71	2124.22
533.07	2143.77
533.42	2162.57
533.78	2181.70
534.14	2200.49
534.50	2217.78
534.86	2235.95
535.21	2253.49
535.57	2271.76
535.93	2289.13
536.29	2306.15
536.65	2322.89
537.00	2338.10
537.36	2353.62
537.72	2369.10
538.08	2384.43
538.44	2399.57
538.79	2415.13
539.15	2430.66
539.51	2445.08
539.87	2460.46
540.22	2475.29
540.58	2490.38
540.94	2504.87
541.29	2518.19
541.65	2530.48
542.01	2543.82
542.37	2555.65
542.72	2567.60
543.08	2578.41
543.44	2590.40
543.79	2601.01
544.15	2611.26
544.51	2622.64
544.87	2633.93
545.22	2643.50
545.58	2652.14
545.94	2659.85
546.29	2666.47
546.65	2672.63
547.01	2679.17
547.36	2684.91
547.72	2690.60
548.07	2694.85
548.43	2698.86
548.79	2702.70
549.14	2707.74
549.50	2712.27
549.86	2716.88
550.21	2721.06
550.57	2725.45
550.92	2728.42
551.28	2731.50
551.64	2734.50
551.99	2737.03
552.35	2738.91
552.70	2741.84
553.06	2744.53
553.41	2747.57
553.77	2750.68
554.13	2753.07
554.48	2755.31
554.84	2757.34
555.19	2757.95
555.55	2758.31
555.90	2758.88
556.26	2759.51
556.61	2759.30
556.97	2758.17
557.32	2757.60
557.68	2756.11
558.03	2754.66
558.39	2753.45
558.74	2752.99
559.10	2751.70
559.45	2750.10
559.81	2748.72
560.16	2746.05
560.52	2744.10
560.87	2741.25
561.23	2737.52
561.58	2735.34
561.94	2732.19
562.29	2728.57
562.64	2726.45
563.00	2724.24
563.35	2722.28
563.71	2720.81
564.06	2718.61
564.42	2717.25
564.77	2714.94
565.12	2713.42
565.48	2710.21
565.83	2706.93
566.19	2703.70
566.54	2699.70
566.89	2695.53
567.25	2691.86
567.60	2688.83
567.96	2685.24
568.31	2681.65
568.66	2677.77
569.02	2673.19
569.37	2668.10
569.72	2663.88
570.08	2658.75
570.43	2652.85
570.78	2646.75
571.14	2639.86
571.49	2633.19
571.84	2626.98
572.20	2619.78
572.55	2612.86
572.90	2606.07
573.26	2599.24
573.61	2592.17
573.96	2585.56
574.31	2577.93
574.67	2569.42
575.02	2560.49
575.37	2551.59
575.72	2542.82
576.08	2535.27
576.43	2526.42
576.78	2518.42
577.13	2510.31
577.49	2502.19
577.84	2494.39
578.19	2486.99
578.54	2479.87
578.90	2473.06
579.25	2464.14
579.60	2455.28
579.95	2445.90
580.30	2437.96
580.66	2429.66
581.01	2420.21
581.36	2410.78
581.71	2402.00
582.06	2393.67
582.42	2385.56
582.77	2376.42
583.12	2367.26
583.47	2358.62
583.82	2350.16
584.17	2341.01
584.53	2331.93
584.88	2322.91
585.23	2313.70
585.58	2304.13
585.93	2294.12
586.28	2284.80
586.63	2275.89
586.98	2267.25
587.34	2258.93
587.69	2249.52
588.04	2240.23
588.39	2232.05
588.74	2223.15
589.09	2214.57
589.44	2204.88
589.79	2196.29
590.14	2188.28
590.49	2180.10
590.84	2170.77
591.19	2162.81
591.54	2154.05
591.89	2143.85
592.25	2134.40
592.60	2124.98
592.95	2115.40
593.30	2106.31
593.65	2096.31
594.00	2086.61
594.35	2078.52
594.70	2069.27
595.05	2060.32
595.40	2051.68
595.75	2041.88
596.10	2033.26
596.45	2024.62
596.80	2016.75
597.15	2008.31
597.50	1999.20
597.85	1990.62
598.19	1981.90
598.54	1973.05
598.89	1964.97
599.24	1958.09
599.59	1950.65
599.94	1943.60
600.29	1935.59
600.64	1927.41
600.99	1919.10
601.34	1911.66
601.69	1902.62
602.04	1894.33
602.39	1886.34
602.74	1878.03
603.08	1871.24
603.43	1863.87
603.78	1855.59
604.13	1847.53
604.48	1839.34
604.83	1832.25
605.18	1825.03
605.53	1817.36
605.87	1809.63
606.22	1802.48
606.57	1794.69
606.92	1786.42
607.27	1778.17
607.62	1770.84
607.96	1763.81
608.31	1757.61
608.66	1749.78
609.01	1742.22
609.36	1734.55
609.70	1726.45
610.05	1718.82
610.40	1710.49
610.75	1702.12
611.10	1694.62
611.44	1685.34
611.79	1676.19
612.14	1666.74
612.49	1656.95
612.83	1648.28
613.18	1638.47
613.53	1628.99
613.88	1618.78
614.22	1609.96
614.57	1600.75
614.92	1591.39
615.27	1582.08
615.61	1571.82
615.96	1562.83
616.31	1554.19
616.65	1546.15
617.00	1537.77
617.35	1528.93
617.70	1519.97
618.04	1510.69
618.39	1501.00
618.74	1492.50
619.08	1483.67
619.43	1475.57
619.78	1467.57
620.12	1459.36
620.47	1451.69
620.82	1442.81
621.16	1434.84
621.51	1426.16
621.85	1417.60
622.20	1409.13
622.55	1400.60
622.89	1392.47
623.24	1384.35
623.59	1375.56
623.93	1366.60
624.28	1358.28
624.62	1350.09
624.97	1341.80
625.32	1334.05
625.66	1326.86
626.01	1319.56
626.35	1312.69
626.70	1304.62
627.04	1297.27
627.39	1289.29
627.73	1281.57
628.08	1274.96
628.43	1267.29
628.77	1259.90
629.12	1252.39
629.46	1245.78
629.81	1238.32
630.15	1230.95
630.50	1223.49
630.84	1216.19
631.19	1209.27
631.53	1202.23
631.88	1194.69
632.22	1187.21
632.57	1180.25
632.91	1172.51
633.26	1164.93
633.60	1157.49
633.95	1150.74
634.29	1143.20
634.64	1136.52
634.98	1129.35
635.32	1122.06
635.67	1115.65
636.01	1109.12
636.36	1102.37
636.70	1095.30
637.05	1088.76
637.39	1082.22
637.73	1075.78
638.08	1069.93
638.42	1063.91
638.77	1057.53
639.11	1050.89
639.45	1044.80
639.80	1038.01
640.14	1031.77
640.49	1025.61
640.83	1019.40
641.17	1012.94
641.52	1006.98
641.86	1000.44
642.20	994.23
642.55	987.55
642.89	981.20
643.23	974.60
643.58	968.67
643.92	962.19
644.26	955.73
644.61	949.79
644.95	943.72
645.29	937.18
645.64	930.35
645.98	923.95
646.32	918.31
646.66	912.02
647.01	906.07
647.35	900.08
647.69	893.85
648.04	887.74
648.38	881.90
648.72	875.79
649.06	869.81
649.41	863.81
649.75	858.09
650.09	852.12
650.43	846.22
650.78	839.91
651.12	833.86
651.46	828.15
651.80	822.08
652.14	816.05
652.49	810.20
652.83	804.60
653.17	798.49
653.51	792.36
653.85	786.64
654.20	780.88
654.54	775.13
654.88	769.55
655.22	763.80
655.56	757.76
655.90	751.79
656.25	745.92
656.59	740.35
656.93	735.10
657.27	729.77
657.61	724.27
657.95	719.30
658.29	714.11
658.64	708.91
658.98	703.65
659.32	698.09
659.66	693.01
660.00	687.44
660.34	682.33
660.68	677.28
661.02	672.22
661.36	667.35
661.70	662.44
662.05	657.65
662.39	653.04
662.73	648.72
663.07	644.43
663.41	640.04
663.75	635.48
664.09	630.62
664.43	625.86
664.77	621.52
665.11	617.01
665.45	612.71
665.79	608.24
666.13	603.99
666.47	599.96
666.81	595.64
667.15	591.61
667.49	587.70
667.83	583.74
668.17	579.81
668.51	575.91
668.85	572.16
669.19	568.44
669.53	564.47
669.87	560.42
670.21	556.53
670.55	552.53
670.89	549.14
671.23	545.85
671.57	542.47
671.91	538.87
672.25	535.13
672.58	531.55
672.92	528.19
673.26	524.87
673.60	521.54
673.94	518.22
674.28	514.94
674.62	511.80
674.96	508.60
675.30	505.49
675.64	502.24
675.97	498.94
676.31	495.97
676.65	493.00
676.99	490.28
677.33	487.11
677.67	484.30
678.01	481.00
678.34	477.85
678.68	474.84
679.02	471.72
679.36	468.92
679.70	466.17
680.04	463.19
680.37	460.19
680.71	457.36
681.05	454.59
681.39	451.86
681.73	449.07
682.06	446.46
682.40	443.85
682.74	441.25
683.08	438.75
683.42	435.89
683.75	433.38
684.09	430.74
684.43	428.42
684.77	425.90
685.10	423.47
685.44	420.87
685.78	418.44
686.12	416.31
686.45	414.01
686.79	411.66
687.13	409.55
687.46	407.43
687.80	405.25
688.14	403.02
688.48	400.90
688.81	398.61
689.15	396.28
689.49	394.06
689.82	391.82
690.16	389.38
690.50	387.23
690.83	384.93
691.17	382.65
691.51	380.42
691.84	378.39
692.18	376.33
692.52	374.46
692.85	372.63
693.19	370.66
693.52	368.75
693.86	366.79
694.20	364.84
694.53	362.95
694.87	361.05
695.21	359.12
695.54	357.17
695.88	355.36
696.21	353.66
696.55	351.90
696.88	350.15
697.22	348.63
697.56	347.01
697.89	345.42
698.23	343.67
698.56	342.05
698.90	340.47
699.23	338.85
699.57	337.25
699.90	335.43
700.24	333.76
700.58	332.05
700.91	330.58
701.25	329.14
701.58	327.70
701.92	326.18
702.25	324.79
702.59	323.41
702.92	322.09
703.26	320.63
703.59	319.29
703.93	318.24
704.26	316.86
704.60	315.54
704.93	314.24
705.26	313.01
705.60	311.77
705.93	310.34
706.27	309.15
706.60	307.97
706.94	307.00
707.27	305.79
707.61	304.65
707.94	303.39
708.27	302.17
708.61	301.01
708.94	299.85
709.28	298.71
709.61	297.63
709.94	296.55
710.28	295.58
710.61	294.47
710.95	293.19
711.28	292.28
711.61	291.21
711.95	290.16
712.28	289.24
712.61	288.17
712.95	287.37
713.28	286.48
713.61	285.50
713.95	284.51
714.28	283.60
714.61	282.67
714.95	281.78
715.28	280.74
715.61	279.64
715.95	278.83
716.28	277.88
716.61	276.99
716.95	276.06
717.28	275.16
717.61	274.33
717.94	273.52
718.28	272.61
718.61	271.85
718.94	271.15
719.27	270.38
719.61	269.70
719.94	268.94
720.27	268.12
720.60	267.38
720.94	266.60
721.27	265.87
721.60	265.23
721.93	264.64
722.27	264.21
722.60	263.68
722.93	263.01
723.26	262.44
723.59	261.83
723.93	261.22
724.26	260.70
724.59	260.15
724.92	259.56
725.25	259.04
725.59	258.51
725.92	257.95
726.25	257.40
726.58	256.88
726.91	256.31
727.24	255.82
727.57	255.35
727.91	254.85
728.24	254.40
728.57	253.84
728.90	253.37
729.23	252.73
729.56	252.43
729.89	251.91
730.22	251.39
730.55	250.97
730.89	250.51
731.22	250.01
731.55	249.56
731.88	249.13
732.21	248.65
732.54	248.19
732.87	247.87
733.20	247.48
733.53	247.07
733.86	246.69
734.19	246.16
734.52	245.78
734.85	245.52
735.18	245.17
735.51	244.89
735.84	244.55
736.17	244.23
736.50	243.73
736.83	243.67
737.16	243.42
737.49	243.08
737.82	242.78
738.15	242.38
738.48	242.05
738.81	241.69
739.14	241.33
739.47	240.92
739.80	240.49
740.13	240.16
740.46	239.71
740.79	239.35
741.12	239.09
741.45	238.74
741.78	238.31
742.11	237.93
742.44	237.63
742.77	237.29
743.10	236.96
743.43	236.61
743.75	236.07
744.08	235.89
744.41	235.57
744.74	235.21
745.07	234.93
745.40	234.65
745.73	234.51
746.06	234.26
746.39	234.00
746.71	233.69
747.04	233.36
747.37	233.18
747.70	232.90
748.03	232.55
748.36	232.29
748.68	232.02
749.01	231.74
749.34	231.45
749.67	231.15
750.00	230.88
750.33	230.78
750.65	230.59
750.98	230.24
751.31	229.97
751.64	229.72
751.97	229.67
752.29	229.42
752.62	229.14
752.95	228.85
753.28	228.64
753.60	228.37
753.93	228.19
754.26	227.91
754.59	227.65
754.91	227.56
755.24	227.31
755.57	227.10
755.90	226.95
756.22	226.73
756.55	226.53
756.88	226.31
757.20	226.02
757.53	225.76
757.86	225.50
758.19	225.28
758.51	225.11
758.84	224.70
759.17	224.48
759.49	224.19
759.82	224.15
760.15	223.93
760.47	223.80
760.80	223.60
761.13	223.55
761.45	223.40
761.78	223.18
762.11	223.07
762.43	222.98
762.76	222.83
763.08	222.70
763.41	222.57
763.74	222.50
764.06	222.30
764.39	222.17
764.71	222.05
765.04	221.94
765.37	221.79
765.69	221.69
766.02	221.56
766.34	221.51
766.67	221.28
767.00	221.22
767.32	221.25
767.65	221.25
767.97	221.13
768.30	221.07
768.62	220.96
768.95	220.87
769.27	220.71
769.60	220.68
769.92	220.52
770.25	220.40
770.57	220.30
770.90	220.23
771.22	220.06
771.55	219.98
771.87	219.84
772.20	219.81
772.52	219.88
772.85	220.13
773.17	220.03
773.50	219.97
773.82	219.88
774.15	219.66
774.47	219.41
774.80	219.28
775.12	219.14
775.45	219.04
775.77	218.95
776.09	218.89
776.42	218.75
776.74	218.77
777.07	218.62
777.39	218.60
777.72	218.49
778.04	218.52
778.36	218.39
778.69	218.36
779.01	218.30
779.33	218.18
779.66	217.82
779.98	217.65
780.31	217.58
780.63	217.58
780.95	217.56
781.28	217.48
781.60	217.44
781.92	217.40
782.25	217.37
782.57	217.26
782.89	217.15
783.22	217.09
783.54	216.99
783.86	216.98
784.19	216.83
784.51	216.88
784.83	216.69
785.16	216.64
785.48	216.55
785.80	216.51
786.12	216.42
786.45	216.42
