SpectraSuite Data File
++++++++++++++++++++++++++++++++++++
Date: Mon Feb 25 17:34:49 EST 2013
User: group
Dark Spectrum Present: No
Reference Spectrum Present: No
Number of Sampled Component Spectra: 1
Spectrometers: USB2E7196
Integration Time (usec): 52000 (USB2E7196)
Spectra Averaged: 20 (USB2E7196)
Boxcar Smoothing: 10 (USB2E7196)
Correct for Electrical Dark: No (USB2E7196)
Strobe/Lamp Enabled: No (USB2E7196)
Correct for Detector Non-linearity: No (USB2E7196)
Correct for Stray Light: No (USB2E7196)
Number of Pixels in Processed Spectrum: 2048
>>>>>Begin Processed Spectral Data<<<<<
339.09	0.00
339.48	198.80
339.86	199.25
340.24	202.80
340.63	202.60
341.01	206.75
341.39	205.75
341.78	206.60
342.16	207.80
342.54	208.25
342.93	197.93
343.31	207.94
343.69	208.43
344.07	208.89
344.46	209.26
344.84	209.72
345.22	209.85
345.60	210.09
345.99	210.30
346.37	210.43
346.75	210.61
347.13	210.68
347.52	210.71
347.90	210.88
348.28	211.00
348.66	211.02
349.05	210.99
349.43	211.11
349.81	211.22
350.19	211.16
350.57	211.30
350.96	211.32
351.34	211.41
351.72	211.56
352.10	211.68
352.48	211.76
352.87	211.72
353.25	211.87
353.63	211.98
354.01	212.07
354.39	212.22
354.77	212.22
355.15	212.29
355.54	212.42
355.92	212.39
356.30	212.45
356.68	212.67
357.06	212.79
357.44	212.81
357.82	212.90
358.20	213.12
358.58	213.11
358.97	213.25
359.35	213.31
359.73	213.41
360.11	213.54
360.49	213.58
360.87	213.70
361.25	213.71
361.63	213.87
362.01	213.90
362.39	213.89
362.77	214.01
363.15	214.12
363.53	214.12
363.91	214.17
364.29	214.16
364.67	214.07
365.05	214.10
365.43	214.11
365.81	214.13
366.19	214.20
366.57	214.34
366.95	214.28
367.33	214.30
367.71	214.29
368.09	214.31
368.47	214.35
368.85	214.32
369.23	214.43
369.61	214.27
369.99	214.38
370.37	214.40
370.75	214.50
371.13	214.45
371.51	214.42
371.89	214.40
372.27	214.43
372.65	214.31
373.03	214.30
373.41	214.23
373.78	214.23
374.16	214.09
374.54	213.93
374.92	213.93
375.30	213.94
375.68	213.89
376.06	213.81
376.44	213.73
376.82	213.78
377.19	213.64
377.57	213.64
377.95	213.52
378.33	213.50
378.71	213.26
379.09	213.24
379.47	213.22
379.84	213.14
380.22	213.10
380.60	212.97
380.98	212.85
381.36	212.83
381.73	212.75
382.11	212.70
382.49	212.75
382.87	212.65
383.25	212.54
383.62	212.67
384.00	212.59
384.38	212.56
384.76	212.48
385.13	212.56
385.51	212.49
385.89	212.42
386.27	212.31
386.64	212.38
387.02	212.30
387.40	212.20
387.78	212.16
388.15	212.17
388.53	212.20
388.91	212.15
389.29	212.10
389.66	212.02
390.04	211.94
390.42	211.94
390.79	211.87
391.17	211.89
391.55	211.74
391.92	211.68
392.30	211.68
392.68	211.60
393.05	211.56
393.43	211.54
393.81	211.51
394.18	211.52
394.56	211.51
394.94	211.54
395.31	211.61
395.69	211.73
396.06	211.67
396.44	211.66
396.82	211.74
397.19	211.90
397.57	211.93
397.95	212.02
398.32	211.97
398.70	212.07
399.07	212.10
399.45	212.07
399.82	212.15
400.20	212.20
400.58	212.22
400.95	212.12
401.33	212.24
401.70	212.40
402.08	212.49
402.45	212.50
402.83	212.57
403.20	212.58
403.58	212.60
403.95	212.71
404.33	212.91
404.71	212.98
405.08	213.10
405.46	213.23
405.83	213.31
406.21	213.41
406.58	213.56
406.96	213.69
407.33	213.97
407.70	214.13
408.08	214.45
408.45	214.75
408.83	215.12
409.20	215.26
409.58	215.49
409.95	215.79
410.33	216.10
410.70	216.41
411.08	216.80
411.45	217.13
411.82	217.51
412.20	217.86
412.57	218.40
412.95	218.75
413.32	219.34
413.69	219.87
414.07	220.48
414.44	221.12
414.82	221.82
415.19	222.45
415.56	223.18
415.94	223.88
416.31	224.86
416.68	225.68
417.06	226.72
417.43	227.61
417.81	228.66
418.18	229.82
418.55	231.01
418.93	232.34
419.30	233.66
419.67	235.04
420.04	236.51
420.42	238.00
420.79	239.79
421.16	241.43
421.54	243.30
421.91	245.15
422.28	247.08
422.66	249.15
423.03	251.20
423.40	253.39
423.77	255.59
424.15	257.72
424.52	260.10
424.89	262.71
425.26	265.23
425.64	267.65
426.01	270.25
426.38	272.90
426.75	275.59
427.13	278.35
427.50	281.36
427.87	284.44
428.24	287.58
428.61	290.50
428.99	293.73
429.36	297.21
429.73	300.79
430.10	304.24
430.47	307.68
430.85	311.46
431.22	315.35
431.59	319.56
431.96	323.51
432.33	327.83
432.70	331.98
433.08	336.94
433.45	341.59
433.82	346.16
434.19	351.33
434.56	356.38
434.93	361.32
435.30	366.09
435.68	371.43
436.05	376.52
436.42	381.74
436.79	386.44
437.16	391.58
437.53	396.96
437.90	402.26
438.27	407.53
438.64	412.73
439.01	417.67
439.38	422.02
439.75	426.36
440.13	431.23
440.50	435.79
440.87	439.52
441.24	443.26
441.61	447.56
441.98	450.70
442.35	454.40
442.72	457.93
443.09	461.35
443.46	463.47
443.83	464.88
444.20	466.09
444.57	467.87
444.94	468.65
445.31	469.38
445.68	470.17
446.05	470.35
446.42	469.83
446.79	469.01
447.16	468.28
447.53	467.52
447.90	465.56
448.27	463.47
448.64	460.53
449.01	458.45
449.37	454.76
449.74	451.16
450.11	446.98
450.48	442.50
450.85	438.01
451.22	433.84
451.59	430.18
451.96	426.45
452.33	421.77
452.70	417.28
453.07	412.01
453.43	406.69
453.80	401.66
454.17	396.89
454.54	392.41
454.91	387.45
455.28	382.75
455.65	378.24
456.02	373.97
456.38	370.23
456.75	365.59
457.12	361.76
457.49	357.94
457.86	354.13
458.23	350.88
458.59	347.33
458.96	343.88
459.33	340.68
459.70	337.57
460.07	334.97
460.43	332.01
460.80	329.40
461.17	327.06
461.54	324.56
461.91	322.14
462.27	319.83
462.64	317.76
463.01	315.52
463.38	313.44
463.74	311.13
464.11	309.20
464.48	307.54
464.85	305.72
465.21	304.41
465.58	303.03
465.95	301.37
466.32	299.96
466.68	298.53
467.05	297.06
467.42	295.74
467.78	294.31
468.15	293.11
468.52	292.11
468.88	290.80
469.25	289.67
469.62	288.76
469.98	287.72
470.35	286.86
470.72	285.98
471.08	284.89
471.45	284.15
471.82	283.36
472.18	282.57
472.55	281.98
472.92	281.22
473.28	280.56
473.65	279.97
474.02	279.43
474.38	278.98
474.75	278.67
475.11	278.21
475.48	277.93
475.85	277.61
476.21	277.35
476.58	277.28
476.94	277.25
477.31	277.17
477.67	277.13
478.04	277.11
478.41	277.28
478.77	277.61
479.14	277.84
479.50	278.14
479.87	278.56
480.23	278.95
480.60	279.34
480.96	279.77
481.33	280.41
481.69	281.03
482.06	281.61
482.42	282.29
482.79	283.02
483.15	283.93
483.52	285.03
483.88	286.00
484.25	286.95
484.61	288.05
484.98	289.17
485.34	290.44
485.71	291.87
486.07	293.26
486.44	294.57
486.80	295.97
487.17	297.61
487.53	299.25
487.90	301.00
488.26	302.95
488.62	305.02
488.99	307.00
489.35	309.09
489.72	311.43
490.08	313.87
490.44	316.32
490.81	318.92
491.17	321.60
491.54	324.56
491.90	327.55
492.26	330.67
492.63	333.97
492.99	337.41
493.36	340.94
493.72	344.72
494.08	348.76
494.45	353.12
494.81	357.55
495.17	362.20
495.54	367.14
495.90	372.18
496.26	377.35
496.63	382.90
496.99	388.65
497.35	394.65
497.72	400.86
498.08	407.37
498.44	414.14
498.80	421.16
499.17	428.43
499.53	436.20
499.89	444.21
500.26	452.40
500.62	460.73
500.98	469.60
501.34	478.74
501.71	488.16
502.07	497.84
502.43	507.91
502.79	518.13
503.16	528.79
503.52	539.67
503.88	550.92
504.24	562.59
504.60	574.64
504.97	586.95
505.33	599.38
505.69	612.73
506.05	626.23
506.41	639.81
506.78	653.72
507.14	667.98
507.50	682.51
507.86	697.53
508.22	712.98
508.59	728.51
508.95	744.62
509.31	760.84
509.67	777.39
510.03	794.29
510.39	812.00
510.75	829.87
511.12	847.91
511.48	866.37
511.84	885.07
512.20	903.90
512.56	923.28
512.92	943.03
513.28	962.48
513.64	982.20
514.00	1002.37
514.37	1022.84
514.73	1043.47
515.09	1064.37
515.45	1085.30
515.81	1106.62
516.17	1128.07
516.53	1149.38
516.89	1171.21
517.25	1192.82
517.61	1214.54
517.97	1236.24
518.33	1257.57
518.69	1279.63
519.05	1301.92
519.41	1324.13
519.77	1346.71
520.13	1368.94
520.49	1391.13
520.85	1414.19
521.21	1436.89
521.57	1459.88
521.93	1482.09
522.29	1505.26
522.65	1528.05
523.01	1550.88
523.37	1573.08
523.73	1595.48
524.09	1618.10
524.45	1640.27
524.81	1662.88
525.17	1685.50
525.53	1707.78
525.89	1730.59
526.25	1752.73
526.61	1773.86
526.97	1795.72
527.33	1817.11
527.68	1838.76
528.04	1860.04
528.40	1880.50
528.76	1901.25
529.12	1922.22
529.48	1944.42
529.84	1964.81
530.20	1985.32
530.56	2005.73
530.91	2026.76
531.27	2047.18
531.63	2067.34
531.99	2087.60
532.35	2107.27
532.71	2126.65
533.07	2146.68
533.42	2165.39
533.78	2184.71
534.14	2203.73
534.50	2220.92
534.86	2238.82
535.21	2255.95
535.57	2273.94
535.93	2291.27
536.29	2308.59
536.65	2325.24
537.00	2340.42
537.36	2355.92
537.72	2371.21
538.08	2386.58
538.44	2401.82
538.79	2417.65
539.15	2432.97
539.51	2447.61
539.87	2463.16
540.22	2477.74
540.58	2492.52
540.94	2507.12
541.29	2520.00
541.65	2532.14
542.01	2545.65
542.37	2558.24
542.72	2570.80
543.08	2581.67
543.44	2594.11
543.79	2604.45
544.15	2614.89
544.51	2626.04
544.87	2637.38
545.22	2646.90
545.58	2655.51
545.94	2663.22
546.29	2669.73
546.65	2675.89
547.01	2682.50
547.36	2688.06
547.72	2693.78
548.07	2697.89
548.43	2701.94
548.79	2706.07
549.14	2711.40
549.50	2716.08
549.86	2720.03
550.21	2724.07
550.57	2728.47
550.92	2731.05
551.28	2733.90
551.64	2736.54
551.99	2739.23
552.35	2740.71
552.70	2743.41
553.06	2746.40
553.41	2749.30
553.77	2752.49
554.13	2755.03
554.48	2757.20
554.84	2758.82
555.19	2759.52
555.55	2760.25
555.90	2761.04
556.26	2761.64
556.61	2761.35
556.97	2760.11
557.32	2759.91
557.68	2758.22
558.03	2756.95
558.39	2755.47
558.74	2755.00
559.10	2754.19
559.45	2752.32
559.81	2751.38
560.16	2748.90
560.52	2746.44
560.87	2743.65
561.23	2739.67
561.58	2737.36
561.94	2734.16
562.29	2730.78
562.64	2728.61
563.00	2726.13
563.35	2723.88
563.71	2722.29
564.06	2720.50
564.42	2718.84
564.77	2716.27
565.12	2714.79
565.48	2711.75
565.83	2708.61
566.19	2705.46
566.54	2700.88
566.89	2697.36
567.25	2693.54
567.60	2690.51
567.96	2687.16
568.31	2683.80
568.66	2680.10
569.02	2675.15
569.37	2669.99
569.72	2665.82
570.08	2660.53
570.43	2654.70
570.78	2648.75
571.14	2642.17
571.49	2634.99
571.84	2628.79
572.20	2621.87
572.55	2614.93
572.90	2608.15
573.26	2601.06
573.61	2593.84
573.96	2587.44
574.31	2579.15
574.67	2570.82
575.02	2562.17
575.37	2553.53
575.72	2544.18
576.08	2536.64
576.43	2527.96
576.78	2520.38
577.13	2512.63
577.49	2504.43
577.84	2497.05
578.19	2489.32
578.54	2481.82
578.90	2475.04
579.25	2466.23
579.60	2457.40
579.95	2448.20
580.30	2440.01
580.66	2431.83
581.01	2422.86
581.36	2413.68
581.71	2405.47
582.06	2396.93
582.42	2388.76
582.77	2379.67
583.12	2370.94
583.47	2362.39
583.82	2353.94
584.17	2344.38
584.53	2334.68
584.88	2325.60
585.23	2315.79
585.58	2306.05
585.93	2296.26
586.28	2286.73
586.63	2277.91
586.98	2269.40
587.34	2260.75
587.69	2251.63
588.04	2242.46
588.39	2233.93
588.74	2224.87
589.09	2215.85
589.44	2206.21
589.79	2197.47
590.14	2189.45
590.49	2180.62
590.84	2171.26
591.19	2163.24
591.54	2154.53
591.89	2144.50
592.25	2135.23
592.60	2125.96
592.95	2116.75
593.30	2107.10
593.65	2097.24
594.00	2087.38
594.35	2078.91
594.70	2069.64
595.05	2060.52
595.40	2051.73
595.75	2042.07
596.10	2033.57
596.45	2024.91
596.80	2016.91
597.15	2008.35
597.50	1998.89
597.85	1990.71
598.19	1981.85
598.54	1973.07
598.89	1965.06
599.24	1958.18
599.59	1950.84
599.94	1943.39
600.29	1935.35
600.64	1927.49
600.99	1919.23
601.34	1912.20
601.69	1903.03
602.04	1894.79
602.39	1886.82
602.74	1878.59
603.08	1871.86
603.43	1864.63
603.78	1856.49
604.13	1848.36
604.48	1840.47
604.83	1833.44
605.18	1826.13
605.53	1818.49
605.87	1810.64
606.22	1803.29
606.57	1795.56
606.92	1787.28
607.27	1779.26
607.62	1771.91
607.96	1765.11
608.31	1758.85
608.66	1750.84
609.01	1743.40
609.36	1735.70
609.70	1727.50
610.05	1719.90
610.40	1711.84
610.75	1703.00
611.10	1695.64
611.44	1686.53
611.79	1677.27
612.14	1667.92
612.49	1658.13
612.83	1649.19
613.18	1639.42
613.53	1629.75
613.88	1619.72
614.22	1610.43
614.57	1600.95
614.92	1591.70
615.27	1582.19
615.61	1572.34
615.96	1563.22
616.31	1554.70
616.65	1546.82
617.00	1538.56
617.35	1529.74
617.70	1520.50
618.04	1511.29
618.39	1501.46
618.74	1493.07
619.08	1484.32
619.43	1476.03
619.78	1468.34
620.12	1460.20
620.47	1452.64
620.82	1443.98
621.16	1435.75
621.51	1427.61
621.85	1419.55
622.20	1410.90
622.55	1402.26
622.89	1394.00
623.24	1385.95
623.59	1377.02
623.93	1368.44
624.28	1359.90
624.62	1351.72
624.97	1343.42
625.32	1335.92
625.66	1328.60
626.01	1321.28
626.35	1314.06
626.70	1306.33
627.04	1298.72
627.39	1291.03
627.73	1283.30
628.08	1276.47
628.43	1268.93
628.77	1261.34
629.12	1253.84
629.46	1247.17
629.81	1239.69
630.15	1232.22
630.50	1224.59
630.84	1217.40
631.19	1209.90
631.53	1203.01
631.88	1195.48
632.22	1187.91
632.57	1180.68
632.91	1173.16
633.26	1165.40
633.60	1158.13
633.95	1151.20
634.29	1143.63
634.64	1136.93
634.98	1129.83
635.32	1122.61
635.67	1116.23
636.01	1109.66
636.36	1102.82
636.70	1096.16
637.05	1089.62
637.39	1083.15
637.73	1076.73
638.08	1070.87
638.42	1064.96
638.77	1058.45
639.11	1052.00
639.45	1046.09
639.80	1039.33
640.14	1032.87
640.49	1026.79
640.83	1020.38
641.17	1013.82
641.52	1007.91
641.86	1001.42
642.20	995.12
642.55	988.55
642.89	981.86
643.23	975.33
643.58	969.25
643.92	962.46
644.26	956.28
644.61	950.20
644.95	944.25
645.29	937.81
645.64	930.97
645.98	924.72
646.32	918.82
646.66	912.42
647.01	906.55
647.35	900.56
647.69	894.14
648.04	888.35
648.38	882.35
648.72	876.26
649.06	869.96
649.41	863.98
649.75	858.20
650.09	852.33
650.43	846.32
650.78	840.11
651.12	834.11
651.46	828.31
651.80	822.42
652.14	816.47
652.49	810.56
652.83	804.92
653.17	798.92
653.51	792.92
653.85	787.36
654.20	781.44
654.54	775.63
654.88	770.20
655.22	764.28
655.56	758.51
655.90	752.58
656.25	746.98
656.59	741.36
656.93	736.02
657.27	730.75
657.61	725.21
657.95	720.04
658.29	714.94
658.64	709.59
658.98	704.32
659.32	698.79
659.66	693.69
660.00	688.20
660.34	683.01
660.68	677.93
661.02	672.65
661.36	667.94
661.70	663.05
662.05	658.29
662.39	653.80
662.73	649.33
663.07	645.06
663.41	640.62
663.75	636.12
664.09	631.35
664.43	626.70
664.77	622.42
665.11	618.13
665.45	613.75
665.79	609.46
666.13	605.07
666.47	600.79
666.81	596.42
667.15	592.48
667.49	588.55
667.83	584.54
668.17	580.71
668.51	576.85
668.85	573.10
669.19	569.34
669.53	565.39
669.87	561.24
670.21	557.32
670.55	553.46
670.89	550.05
671.23	546.80
671.57	543.25
671.91	539.66
672.25	535.93
672.58	532.29
672.92	528.78
673.26	525.35
673.60	522.12
673.94	518.79
674.28	515.42
674.62	512.20
674.96	508.88
675.30	505.74
675.64	502.54
675.97	499.38
676.31	496.46
676.65	493.51
676.99	490.88
677.33	487.81
677.67	484.94
678.01	481.68
678.34	478.58
678.68	475.59
679.02	472.60
679.36	469.69
679.70	466.94
680.04	464.02
680.37	461.25
680.71	458.41
681.05	455.80
681.39	453.11
681.73	450.44
682.06	447.96
682.40	445.26
682.74	442.68
683.08	440.16
683.42	437.29
683.75	434.62
684.09	431.90
684.43	429.45
684.77	426.73
685.10	424.12
685.44	421.58
685.78	419.22
686.12	416.88
686.45	414.63
686.79	412.28
687.13	410.16
687.46	407.81
687.80	405.59
688.14	403.16
688.48	400.94
688.81	398.62
689.15	396.43
689.49	394.20
689.82	391.88
690.16	389.52
690.50	387.27
690.83	385.09
691.17	382.93
691.51	380.67
691.84	378.64
692.18	376.70
692.52	374.70
692.85	372.69
693.19	370.85
693.52	368.79
693.86	366.66
694.20	364.72
694.53	362.82
694.87	360.87
695.21	359.00
695.54	357.05
695.88	355.15
696.21	353.26
696.55	351.53
696.88	349.81
697.22	348.11
697.56	346.56
697.89	344.84
698.23	343.13
698.56	341.60
698.90	340.06
699.23	338.34
699.57	336.64
699.90	335.01
700.24	333.29
700.58	331.67
700.91	330.25
701.25	328.70
701.58	327.34
701.92	325.95
702.25	324.52
702.59	323.15
702.92	321.83
703.26	320.38
703.59	319.13
703.93	317.95
704.26	316.60
704.60	315.28
704.93	314.00
705.26	312.86
705.60	311.58
705.93	310.31
706.27	309.20
706.60	308.11
706.94	307.07
707.27	305.85
707.61	304.81
707.94	303.69
708.27	302.52
708.61	301.34
708.94	300.22
709.28	299.12
709.61	298.01
709.94	296.98
710.28	295.99
710.61	294.98
710.95	293.80
711.28	292.88
711.61	291.84
711.95	290.92
712.28	289.79
712.61	288.78
712.95	287.93
713.28	287.03
713.61	286.09
713.95	285.13
714.28	284.35
714.61	283.36
714.95	282.42
715.28	281.52
715.61	280.57
715.95	279.63
716.28	278.71
716.61	277.85
716.95	276.94
717.28	276.07
717.61	275.10
717.94	274.30
718.28	273.37
718.61	272.58
718.94	271.85
719.27	271.17
719.61	270.55
719.94	269.77
720.27	268.90
720.60	268.12
720.94	267.40
721.27	266.64
721.60	266.04
721.93	265.40
722.27	264.77
722.60	264.20
722.93	263.61
723.26	263.10
723.59	262.48
723.93	261.88
724.26	261.33
724.59	260.78
724.92	260.26
725.25	259.74
725.59	259.18
725.92	258.56
726.25	258.05
726.58	257.46
726.91	256.85
727.24	256.33
727.57	255.87
727.91	255.32
728.24	254.88
728.57	254.39
728.90	253.90
729.23	253.38
729.56	252.94
729.89	252.51
730.22	251.91
730.55	251.46
730.89	251.00
731.22	250.49
731.55	250.07
731.88	249.61
732.21	249.08
732.54	248.65
732.87	248.16
733.20	247.70
733.53	247.19
733.86	246.79
734.19	246.40
734.52	245.98
734.85	245.68
735.18	245.24
735.51	244.91
735.84	244.53
736.17	244.19
736.50	243.71
736.83	243.45
737.16	243.13
737.49	242.79
737.82	242.41
738.15	242.13
738.48	241.69
738.81	241.31
739.14	241.08
739.47	240.69
739.80	240.31
740.13	239.94
740.46	239.59
740.79	239.28
741.12	238.87
741.45	238.57
741.78	238.09
742.11	237.76
742.44	237.40
742.77	237.17
743.10	236.84
743.43	236.50
743.75	235.98
744.08	235.90
744.41	235.49
744.74	235.15
745.07	234.76
745.40	234.52
745.73	234.28
746.06	233.97
746.39	233.77
746.71	233.50
747.04	233.20
747.37	232.95
747.70	232.73
748.03	232.52
748.36	232.23
748.68	232.02
749.01	231.69
749.34	231.41
749.67	231.02
750.00	230.81
750.33	230.64
750.65	230.43
750.98	229.99
751.31	229.72
751.64	229.48
751.97	229.31
752.29	229.02
752.62	228.64
752.95	228.45
753.28	228.17
753.60	227.97
753.93	227.87
754.26	227.63
754.59	227.30
754.91	227.05
755.24	226.89
755.57	226.68
755.90	226.53
756.22	226.33
756.55	226.18
756.88	225.92
757.20	225.61
757.53	225.45
757.86	225.25
758.19	225.20
758.51	225.06
758.84	224.82
759.17	224.68
759.49	224.62
759.82	224.55
760.15	224.37
760.47	224.17
760.80	223.90
761.13	223.82
761.45	223.65
761.78	223.55
762.11	223.31
762.43	223.15
762.76	222.97
763.08	222.88
763.41	222.77
763.74	222.70
764.06	222.55
764.39	222.39
764.71	222.27
765.04	222.11
765.37	221.89
765.69	221.78
766.02	221.69
766.34	221.52
766.67	221.20
767.00	221.15
767.32	221.18
767.65	221.17
767.97	221.00
768.30	220.90
768.62	220.80
768.95	220.68
769.27	220.65
769.60	220.61
769.92	220.41
770.25	220.21
770.57	220.02
770.90	219.99
771.22	219.88
771.55	219.77
771.87	219.72
772.20	219.74
772.52	219.79
772.85	219.82
773.17	219.72
773.50	219.73
773.82	219.55
774.15	219.31
774.47	219.08
774.80	218.99
775.12	218.96
775.45	218.82
775.77	218.75
776.09	218.62
776.42	218.55
776.74	218.55
777.07	218.49
777.39	218.40
777.72	218.29
778.04	218.20
778.36	218.10
778.69	218.05
779.01	217.95
779.33	217.72
779.66	217.50
779.98	217.40
780.31	217.28
780.63	217.29
780.95	217.30
781.28	217.26
781.60	217.20
781.92	217.07
782.25	217.03
782.57	216.94
782.89	216.91
783.22	216.78
783.54	216.68
783.86	216.65
784.19	216.68
784.51	216.69
784.83	216.64
785.16	216.57
785.48	216.49
785.80	216.46
786.12	216.48
786.45	216.43
