SpectraSuite Data File
++++++++++++++++++++++++++++++++++++
Date: Mon Feb 25 17:33:19 EST 2013
User: group
Dark Spectrum Present: No
Reference Spectrum Present: No
Number of Sampled Component Spectra: 1
Spectrometers: USB2E7196
Integration Time (usec): 52000 (USB2E7196)
Spectra Averaged: 20 (USB2E7196)
Boxcar Smoothing: 10 (USB2E7196)
Correct for Electrical Dark: No (USB2E7196)
Strobe/Lamp Enabled: No (USB2E7196)
Correct for Detector Non-linearity: No (USB2E7196)
Correct for Stray Light: No (USB2E7196)
Number of Pixels in Processed Spectrum: 2048
>>>>>Begin Processed Spectral Data<<<<<
339.09	0.00
339.48	198.70
339.86	200.75
340.24	201.85
340.63	202.55
341.01	207.55
341.39	206.75
341.78	209.05
342.16	210.00
342.54	209.15
342.93	198.88
343.31	208.96
343.69	209.55
344.07	209.95
344.46	210.44
344.84	210.92
345.22	211.09
345.60	211.32
345.99	211.39
346.37	211.47
346.75	211.58
347.13	211.60
347.52	211.70
347.90	211.77
348.28	211.75
348.66	211.77
349.05	211.69
349.43	211.72
349.81	211.76
350.19	211.83
350.57	211.81
350.96	211.82
351.34	211.85
351.72	211.91
352.10	212.01
352.48	211.99
352.87	212.00
353.25	212.05
353.63	212.06
354.01	212.15
354.39	212.23
354.77	212.27
355.15	212.45
355.54	212.43
355.92	212.40
356.30	212.49
356.68	212.57
357.06	212.58
357.44	212.70
357.82	212.68
358.20	212.69
358.58	212.74
358.97	212.76
359.35	212.86
359.73	212.90
360.11	213.02
360.49	213.09
360.87	213.03
361.25	213.08
361.63	213.15
362.01	213.18
362.39	213.15
362.77	213.20
363.15	213.18
363.53	213.23
363.91	213.25
364.29	213.28
364.67	213.21
365.05	213.25
365.43	213.29
365.81	213.40
366.19	213.59
366.57	213.66
366.95	213.68
367.33	213.58
367.71	213.61
368.09	213.61
368.47	213.63
368.85	213.66
369.23	213.71
369.61	213.74
369.99	213.73
370.37	213.78
370.75	213.85
371.13	213.83
371.51	213.79
371.89	213.80
372.27	213.80
372.65	213.80
373.03	213.78
373.41	213.70
373.78	213.59
374.16	213.41
374.54	213.33
374.92	213.31
375.30	213.31
375.68	213.23
376.06	213.22
376.44	213.16
376.82	213.13
377.19	213.05
377.57	212.91
377.95	212.87
378.33	212.82
378.71	212.72
379.09	212.64
379.47	212.65
379.84	212.60
380.22	212.52
380.60	212.40
380.98	212.33
381.36	212.19
381.73	212.09
382.11	212.02
382.49	211.94
382.87	211.81
383.25	211.78
383.62	211.98
384.00	211.91
384.38	211.93
384.76	211.96
385.13	211.98
385.51	211.99
385.89	211.92
386.27	211.85
386.64	211.77
387.02	211.75
387.40	211.69
387.78	211.68
388.15	211.65
388.53	211.66
388.91	211.65
389.29	211.70
389.66	211.78
390.04	211.77
390.42	211.80
390.79	211.87
391.17	211.86
391.55	211.64
391.92	211.60
392.30	211.53
392.68	211.53
393.05	211.49
393.43	211.51
393.81	211.54
394.18	211.56
394.56	211.64
394.94	211.68
395.31	211.70
395.69	211.75
396.06	211.79
396.44	211.84
396.82	211.81
397.19	211.89
397.57	211.86
397.95	211.92
398.32	211.89
398.70	211.93
399.07	211.99
399.45	212.04
399.82	212.10
400.20	212.13
400.58	212.17
400.95	212.22
401.33	212.29
401.70	212.54
402.08	212.56
402.45	212.57
402.83	212.63
403.20	212.71
403.58	212.78
403.95	212.81
404.33	212.90
404.71	213.05
405.08	213.19
405.46	213.34
405.83	213.46
406.21	213.61
406.58	213.66
406.96	213.80
407.33	213.92
407.70	214.04
408.08	214.38
408.45	214.65
408.83	214.93
409.20	215.12
409.58	215.21
409.95	215.63
410.33	216.00
410.70	216.30
411.08	216.60
411.45	216.89
411.82	217.34
412.20	217.76
412.57	218.31
412.95	218.68
413.32	219.20
413.69	219.74
414.07	220.32
414.44	221.00
414.82	221.67
415.19	222.47
415.56	223.21
415.94	223.95
416.31	224.75
416.68	225.57
417.06	226.64
417.43	227.71
417.81	228.72
418.18	229.81
418.55	231.00
418.93	232.29
419.30	233.67
419.67	235.08
420.04	236.50
420.42	237.95
420.79	239.78
421.16	241.49
421.54	243.31
421.91	245.21
422.28	247.17
422.66	249.14
423.03	251.19
423.40	253.37
423.77	255.51
424.15	257.74
424.52	260.19
424.89	262.74
425.26	265.13
425.64	267.44
426.01	269.98
426.38	272.58
426.75	275.33
427.13	278.10
427.50	281.05
427.87	284.12
428.24	287.18
428.61	290.07
428.99	293.34
429.36	296.73
429.73	300.28
430.10	303.71
430.47	307.36
430.85	310.90
431.22	314.75
431.59	319.03
431.96	322.97
432.33	327.24
432.70	331.30
433.08	336.19
433.45	340.85
433.82	345.54
434.19	350.77
434.56	355.75
434.93	360.54
435.30	365.31
435.68	370.55
436.05	375.67
436.42	380.83
436.79	385.52
437.16	390.59
437.53	395.88
437.90	401.01
438.27	406.16
438.64	411.57
439.01	416.43
439.38	420.67
439.75	425.03
440.13	429.82
440.50	434.37
440.87	438.17
441.24	441.97
441.61	446.13
441.98	449.13
442.35	452.66
442.72	456.30
443.09	459.69
443.46	461.70
443.83	463.19
444.20	464.33
444.57	465.97
444.94	466.80
445.31	467.57
445.68	468.51
446.05	468.72
446.42	468.16
446.79	467.55
447.16	466.73
447.53	465.92
447.90	463.82
448.27	461.81
448.64	458.89
449.01	456.82
449.37	453.16
449.74	449.70
450.11	445.68
450.48	441.19
450.85	436.60
451.22	432.79
451.59	429.05
451.96	425.40
452.33	420.69
452.70	416.35
453.07	411.16
453.43	405.84
453.80	400.88
454.17	395.97
454.54	391.37
454.91	386.49
455.28	381.79
455.65	377.35
456.02	372.94
456.38	369.13
456.75	364.48
457.12	360.66
457.49	356.83
457.86	353.07
458.23	349.92
458.59	346.53
458.96	342.94
459.33	339.75
459.70	336.64
460.07	334.12
460.43	331.17
460.80	328.48
461.17	326.15
461.54	323.61
461.91	321.27
462.27	318.92
462.64	316.91
463.01	314.86
463.38	312.82
463.74	310.60
464.11	308.74
464.48	307.05
464.85	305.26
465.21	303.91
465.58	302.42
465.95	300.62
466.32	299.15
466.68	297.75
467.05	296.33
467.42	294.98
467.78	293.52
468.15	292.25
468.52	291.27
468.88	289.97
469.25	288.87
469.62	287.91
469.98	286.91
470.35	286.06
470.72	285.09
471.08	284.03
471.45	283.37
471.82	282.59
472.18	281.69
472.55	281.13
472.92	280.40
473.28	279.83
473.65	279.26
474.02	278.67
474.38	278.24
474.75	277.86
475.11	277.52
475.48	277.30
475.85	277.04
476.21	276.78
476.58	276.65
476.94	276.60
477.31	276.55
477.67	276.44
478.04	276.46
478.41	276.55
478.77	276.98
479.14	277.04
479.50	277.26
479.87	277.62
480.23	278.05
480.60	278.50
480.96	278.94
481.33	279.64
481.69	280.34
482.06	281.08
482.42	281.70
482.79	282.46
483.15	283.35
483.52	284.50
483.88	285.56
484.25	286.56
484.61	287.67
484.98	288.87
485.34	290.30
485.71	291.62
486.07	293.08
486.44	294.38
486.80	295.97
487.17	297.66
487.53	299.41
487.90	301.22
488.26	303.15
488.62	305.11
488.99	307.07
489.35	309.20
489.72	311.37
490.08	313.85
490.44	316.22
490.81	318.81
491.17	321.33
491.54	324.14
491.90	327.17
492.26	330.36
492.63	333.61
492.99	336.94
493.36	340.60
493.72	344.45
494.08	348.46
494.45	352.73
494.81	357.14
495.17	361.70
495.54	366.45
495.90	371.36
496.26	376.76
496.63	382.30
496.99	388.13
497.35	394.12
497.72	400.34
498.08	406.78
498.44	413.54
498.80	420.73
499.17	428.23
499.53	435.81
499.89	443.72
500.26	451.97
500.62	460.32
500.98	469.18
501.34	478.31
501.71	487.73
502.07	497.45
502.43	507.43
502.79	517.73
503.16	528.47
503.52	539.48
503.88	550.72
504.24	562.17
504.60	574.09
504.97	586.52
505.33	599.15
505.69	612.62
506.05	626.02
506.41	639.48
506.78	653.24
507.14	667.29
507.50	681.79
507.86	696.62
508.22	711.94
508.59	727.42
508.95	743.55
509.31	759.71
509.67	776.37
510.03	793.40
510.39	810.88
510.75	828.64
511.12	846.64
511.48	865.01
511.84	883.80
512.20	902.27
512.56	921.43
512.92	940.74
513.28	960.11
513.64	979.84
514.00	999.96
514.37	1020.40
514.73	1041.48
515.09	1062.23
515.45	1083.07
515.81	1104.32
516.17	1125.70
516.53	1146.83
516.89	1168.50
517.25	1190.05
517.61	1211.67
517.97	1233.21
518.33	1254.67
518.69	1276.54
519.05	1298.72
519.41	1321.01
519.77	1343.77
520.13	1365.88
520.49	1388.18
520.85	1410.91
521.21	1433.34
521.57	1456.25
521.93	1477.96
522.29	1500.88
522.65	1523.72
523.01	1546.30
523.37	1568.56
523.73	1591.16
524.09	1613.53
524.45	1635.94
524.81	1658.30
525.17	1681.07
525.53	1703.41
525.89	1725.88
526.25	1747.90
526.61	1768.90
526.97	1790.26
527.33	1811.76
527.68	1833.42
528.04	1854.65
528.40	1874.93
528.76	1895.95
529.12	1916.62
529.48	1938.82
529.84	1959.01
530.20	1979.18
530.56	1999.89
530.91	2020.65
531.27	2040.80
531.63	2060.51
531.99	2080.37
532.35	2099.53
532.71	2118.30
533.07	2138.18
533.42	2156.75
533.78	2175.89
534.14	2194.72
534.50	2212.19
534.86	2230.24
535.21	2246.80
535.57	2264.70
535.93	2281.96
536.29	2298.60
536.65	2315.07
537.00	2330.45
537.36	2345.80
537.72	2360.92
538.08	2375.94
538.44	2391.14
538.79	2406.50
539.15	2421.90
539.51	2436.56
539.87	2451.95
540.22	2466.33
540.58	2481.33
540.94	2495.89
541.29	2508.70
541.65	2520.77
542.01	2533.81
542.37	2545.33
542.72	2557.73
543.08	2568.46
543.44	2580.56
543.79	2591.23
544.15	2601.44
544.51	2612.56
544.87	2623.72
545.22	2633.34
545.58	2642.07
545.94	2649.42
546.29	2655.81
546.65	2661.92
547.01	2668.05
547.36	2673.68
547.72	2679.20
548.07	2682.61
548.43	2686.47
548.79	2690.45
549.14	2695.16
549.50	2699.72
549.86	2703.85
550.21	2708.02
550.57	2712.27
550.92	2714.50
551.28	2716.90
551.64	2719.70
551.99	2721.90
552.35	2723.45
552.70	2726.06
553.06	2728.63
553.41	2731.55
553.77	2734.31
554.13	2736.53
554.48	2738.37
554.84	2739.55
555.19	2740.20
555.55	2741.26
555.90	2741.92
556.26	2742.45
556.61	2742.81
556.97	2741.70
557.32	2741.60
557.68	2739.87
558.03	2738.51
558.39	2737.55
558.74	2737.58
559.10	2736.23
559.45	2734.44
559.81	2732.80
560.16	2730.27
560.52	2728.09
560.87	2725.18
561.23	2721.52
561.58	2719.75
561.94	2716.80
562.29	2713.42
562.64	2711.57
563.00	2708.63
563.35	2706.47
563.71	2704.62
564.06	2702.33
564.42	2700.41
564.77	2697.65
565.12	2695.54
565.48	2692.54
565.83	2689.17
566.19	2685.27
566.54	2681.12
566.89	2677.03
567.25	2673.67
567.60	2670.40
567.96	2666.64
568.31	2663.40
568.66	2660.04
569.02	2655.14
569.37	2650.17
569.72	2646.46
570.08	2640.95
570.43	2635.27
570.78	2629.16
571.14	2622.70
571.49	2615.75
571.84	2609.78
572.20	2603.08
572.55	2596.97
572.90	2590.16
573.26	2583.61
573.61	2576.58
573.96	2570.03
574.31	2562.30
574.67	2554.01
575.02	2545.31
575.37	2536.56
575.72	2527.16
576.08	2519.31
576.43	2510.26
576.78	2502.35
577.13	2494.11
577.49	2485.84
577.84	2478.57
578.19	2471.11
578.54	2463.83
578.90	2456.99
579.25	2448.63
579.60	2439.37
579.95	2430.12
580.30	2421.81
580.66	2413.46
581.01	2404.41
581.36	2395.34
581.71	2386.96
582.06	2378.29
582.42	2370.07
582.77	2361.29
583.12	2352.64
583.47	2343.80
583.82	2335.47
584.17	2326.36
584.53	2317.42
584.88	2308.65
585.23	2299.28
585.58	2289.53
585.93	2279.72
586.28	2270.31
586.63	2261.01
586.98	2252.79
587.34	2244.13
587.69	2234.96
588.04	2225.69
588.39	2217.48
588.74	2208.50
589.09	2199.99
589.44	2190.58
589.79	2182.26
590.14	2174.04
590.49	2165.62
590.84	2156.60
591.19	2148.57
591.54	2139.85
591.89	2129.60
592.25	2120.17
592.60	2110.54
592.95	2101.30
593.30	2091.76
593.65	2082.07
594.00	2072.34
594.35	2063.95
594.70	2054.53
595.05	2045.85
595.40	2037.16
595.75	2027.70
596.10	2019.43
596.45	2010.65
596.80	2002.99
597.15	1994.46
597.50	1985.32
597.85	1976.81
598.19	1968.14
598.54	1959.27
598.89	1951.10
599.24	1944.55
599.59	1937.19
599.94	1930.33
600.29	1922.76
600.64	1914.97
600.99	1906.39
601.34	1899.31
601.69	1890.85
602.04	1883.13
602.39	1874.90
602.74	1866.95
603.08	1860.35
603.43	1853.12
603.78	1845.17
604.13	1837.34
604.48	1829.51
604.83	1822.51
605.18	1815.55
605.53	1808.02
605.87	1800.38
606.22	1793.08
606.57	1784.69
606.92	1776.58
607.27	1768.39
607.62	1760.74
607.96	1753.98
608.31	1748.13
608.66	1740.28
609.01	1732.70
609.36	1724.97
609.70	1717.23
610.05	1709.45
610.40	1701.08
610.75	1692.23
611.10	1684.52
611.44	1674.92
611.79	1665.69
612.14	1656.50
612.49	1646.66
612.83	1637.74
613.18	1628.15
613.53	1618.79
613.88	1609.28
614.22	1600.47
614.57	1591.00
614.92	1581.66
615.27	1572.35
615.61	1562.22
615.96	1553.29
616.31	1544.55
616.65	1536.44
617.00	1527.87
617.35	1519.32
617.70	1510.45
618.04	1501.55
618.39	1492.27
618.74	1484.14
619.08	1475.69
619.43	1467.39
619.78	1459.84
620.12	1451.84
620.47	1444.29
620.82	1435.79
621.16	1427.66
621.51	1419.10
621.85	1411.08
622.20	1402.75
622.55	1394.20
622.89	1385.99
623.24	1377.96
623.59	1369.17
623.93	1360.42
624.28	1352.37
624.62	1344.18
624.97	1335.67
625.32	1327.86
625.66	1320.46
626.01	1313.05
626.35	1305.55
626.70	1297.99
627.04	1290.27
627.39	1282.87
627.73	1275.29
628.08	1268.50
628.43	1261.16
628.77	1253.62
629.12	1246.22
629.46	1239.47
629.81	1232.21
630.15	1225.13
630.50	1217.61
630.84	1210.42
631.19	1203.40
631.53	1196.40
631.88	1188.60
632.22	1181.20
632.57	1174.28
632.91	1166.60
633.26	1159.00
633.60	1151.94
633.95	1144.81
634.29	1137.53
634.64	1130.76
634.98	1123.63
635.32	1116.45
635.67	1109.88
636.01	1103.41
636.36	1096.65
636.70	1090.02
637.05	1083.34
637.39	1076.97
637.73	1070.48
638.08	1064.70
638.42	1058.65
638.77	1052.02
639.11	1045.83
639.45	1039.82
639.80	1033.19
640.14	1027.12
640.49	1021.00
640.83	1014.60
641.17	1008.45
641.52	1002.45
641.86	995.77
642.20	989.62
642.55	983.00
642.89	976.56
643.23	970.15
643.58	964.12
643.92	957.51
644.26	951.24
644.61	945.07
644.95	939.11
645.29	932.74
645.64	926.23
645.98	920.11
646.32	914.21
646.66	908.28
647.01	902.51
647.35	896.37
647.69	890.04
648.04	884.30
648.38	878.33
648.72	872.20
649.06	866.19
649.41	860.15
649.75	854.37
650.09	848.61
650.43	842.67
650.78	836.49
651.12	830.40
651.46	824.65
651.80	818.69
652.14	812.82
652.49	806.89
652.83	801.02
653.17	794.99
653.51	789.28
653.85	783.40
654.20	777.51
654.54	771.83
654.88	766.60
655.22	760.71
655.56	754.82
655.90	748.96
656.25	743.20
656.59	737.69
656.93	732.46
657.27	727.30
657.61	721.93
657.95	716.76
658.29	711.70
658.64	706.61
658.98	701.33
659.32	695.93
659.66	690.66
660.00	685.37
660.34	680.10
660.68	674.90
661.02	669.91
661.36	664.97
661.70	659.94
662.05	655.02
662.39	650.73
662.73	646.26
663.07	642.04
663.41	637.58
663.75	632.88
664.09	628.11
664.43	623.21
664.77	618.80
665.11	614.19
665.45	609.80
665.79	605.20
666.13	600.89
666.47	596.82
666.81	592.80
667.15	588.88
667.49	585.07
667.83	581.09
668.17	577.13
668.51	573.51
668.85	569.80
669.19	566.04
669.53	561.83
669.87	557.87
670.21	553.92
670.55	550.03
670.89	546.72
671.23	543.32
671.57	539.90
671.91	536.47
672.25	533.00
672.58	529.40
672.92	526.04
673.26	522.93
673.60	519.45
673.94	516.07
674.28	512.71
674.62	509.52
674.96	506.30
675.30	503.18
675.64	499.88
675.97	496.75
676.31	493.85
676.65	491.11
676.99	488.35
677.33	485.34
677.67	482.62
678.01	479.47
678.34	476.42
678.68	473.49
679.02	470.44
679.36	467.67
679.70	464.89
680.04	461.98
680.37	459.03
680.71	456.31
681.05	453.56
681.39	450.83
681.73	448.04
682.06	445.70
682.40	443.14
682.74	440.50
683.08	437.95
683.42	435.20
683.75	432.51
684.09	429.98
684.43	427.48
684.77	424.94
685.10	422.47
685.44	419.94
685.78	417.35
686.12	415.05
686.45	412.80
686.79	410.63
687.13	408.53
687.46	406.29
687.80	404.05
688.14	401.76
688.48	399.66
688.81	397.48
689.15	395.07
689.49	392.87
689.82	390.61
690.16	388.25
690.50	386.06
690.83	383.79
691.17	381.56
691.51	379.34
691.84	377.16
692.18	375.11
692.52	373.33
692.85	371.60
693.19	369.76
693.52	367.79
693.86	365.75
694.20	363.89
694.53	361.95
694.87	359.98
695.21	358.17
695.54	356.22
695.88	354.33
696.21	352.46
696.55	350.70
696.88	348.98
697.22	347.41
697.56	345.83
697.89	344.26
698.23	342.60
698.56	341.05
698.90	339.64
699.23	337.93
699.57	336.20
699.90	334.50
700.24	332.71
700.58	331.07
700.91	329.56
701.25	328.18
701.58	326.81
701.92	325.38
702.25	323.95
702.59	322.49
702.92	321.23
703.26	319.90
703.59	318.60
703.93	317.52
704.26	316.19
704.60	314.88
704.93	313.56
705.26	312.25
705.60	311.11
705.93	309.83
706.27	308.66
706.60	307.55
706.94	306.47
707.27	305.45
707.61	304.33
707.94	303.19
708.27	301.86
708.61	300.65
708.94	299.57
709.28	298.39
709.61	297.32
709.94	296.26
710.28	295.15
710.61	294.01
710.95	292.77
711.28	291.84
711.61	290.83
711.95	289.83
712.28	288.83
712.61	287.71
712.95	286.72
713.28	285.87
713.61	284.91
713.95	283.96
714.28	282.98
714.61	282.00
714.95	281.18
715.28	280.25
715.61	279.27
715.95	278.31
716.28	277.46
716.61	276.64
716.95	275.79
717.28	274.96
717.61	274.15
717.94	273.47
718.28	272.60
718.61	271.79
718.94	271.07
719.27	270.32
719.61	269.58
719.94	268.86
720.27	268.10
720.60	267.37
720.94	266.66
721.27	265.99
721.60	265.45
721.93	264.72
722.27	264.09
722.60	263.50
722.93	262.93
723.26	262.44
723.59	261.82
723.93	261.33
724.26	260.83
724.59	260.25
724.92	259.60
725.25	259.12
725.59	258.61
725.92	258.12
726.25	257.65
726.58	257.15
726.91	256.65
727.24	256.14
727.57	255.63
727.91	255.02
728.24	254.59
728.57	254.02
728.90	253.61
729.23	253.16
729.56	252.76
729.89	252.35
730.22	251.83
730.55	251.39
730.89	250.85
731.22	250.37
731.55	249.99
731.88	249.58
732.21	249.07
732.54	248.62
732.87	248.13
733.20	247.71
733.53	247.27
733.86	246.86
734.19	246.43
734.52	246.08
734.85	245.93
735.18	245.49
735.51	245.09
735.84	244.74
736.17	244.40
736.50	243.97
736.83	243.79
737.16	243.46
737.49	243.09
737.82	242.76
738.15	242.38
738.48	241.98
738.81	241.59
739.14	241.20
739.47	240.76
739.80	240.33
740.13	239.91
740.46	239.58
740.79	239.23
741.12	238.91
741.45	238.49
741.78	238.02
742.11	237.77
742.44	237.46
742.77	237.15
743.10	236.81
743.43	236.57
743.75	236.05
744.08	235.93
744.41	235.68
744.74	235.33
745.07	234.91
745.40	234.70
745.73	234.45
746.06	234.17
746.39	233.92
746.71	233.75
747.04	233.50
747.37	233.20
747.70	232.98
748.03	232.73
748.36	232.54
748.68	232.23
749.01	231.92
749.34	231.69
749.67	231.40
750.00	231.13
750.33	230.90
750.65	230.70
750.98	230.21
751.31	229.91
751.64	229.69
751.97	229.59
752.29	229.27
752.62	229.03
752.95	228.81
753.28	228.49
753.60	228.19
753.93	228.03
754.26	227.87
754.59	227.58
754.91	227.35
755.24	227.11
755.57	226.97
755.90	226.79
756.22	226.57
756.55	226.42
756.88	226.20
757.20	225.95
757.53	225.64
757.86	225.43
758.19	225.29
758.51	225.10
758.84	224.92
759.17	224.80
759.49	224.70
759.82	224.70
760.15	224.63
760.47	224.50
760.80	224.29
761.13	224.17
761.45	224.00
761.78	223.83
762.11	223.69
762.43	223.50
762.76	223.24
763.08	223.08
763.41	222.89
763.74	222.78
764.06	222.64
764.39	222.57
764.71	222.44
765.04	222.24
765.37	222.12
765.69	222.01
766.02	221.81
766.34	221.61
766.67	221.36
767.00	221.27
767.32	221.22
767.65	221.20
767.97	221.02
768.30	220.92
768.62	220.82
768.95	220.77
769.27	220.71
769.60	220.71
769.92	220.62
770.25	220.48
770.57	220.36
770.90	220.28
771.22	220.19
771.55	220.12
771.87	220.05
772.20	219.89
772.52	219.92
772.85	220.11
773.17	220.05
773.50	219.92
773.82	219.76
774.15	219.62
774.47	219.42
774.80	219.30
775.12	219.18
775.45	219.10
775.77	218.95
776.09	218.84
776.42	218.79
776.74	218.71
777.07	218.74
777.39	218.65
777.72	218.54
778.04	218.47
778.36	218.42
778.69	218.38
779.01	218.34
779.33	218.08
779.66	217.82
779.98	217.72
780.31	217.68
780.63	217.71
780.95	217.65
781.28	217.64
781.60	217.55
781.92	217.56
782.25	217.50
782.57	217.50
782.89	217.41
783.22	217.35
783.54	217.30
783.86	217.23
784.19	217.23
784.51	217.19
784.83	217.14
785.16	217.10
785.48	217.06
785.80	217.01
786.12	217.01
786.45	216.99
