SpectraSuite Data File
++++++++++++++++++++++++++++++++++++
Date: Mon Feb 25 17:34:14 EST 2013
User: group
Dark Spectrum Present: No
Reference Spectrum Present: No
Number of Sampled Component Spectra: 1
Spectrometers: USB2E7196
Integration Time (usec): 52000 (USB2E7196)
Spectra Averaged: 20 (USB2E7196)
Boxcar Smoothing: 10 (USB2E7196)
Correct for Electrical Dark: No (USB2E7196)
Strobe/Lamp Enabled: No (USB2E7196)
Correct for Detector Non-linearity: No (USB2E7196)
Correct for Stray Light: No (USB2E7196)
Number of Pixels in Processed Spectrum: 2048
>>>>>Begin Processed Spectral Data<<<<<
339.09	0.00
339.48	198.40
339.86	200.75
340.24	201.00
340.63	203.15
341.01	206.40
341.39	206.05
341.78	205.80
342.16	208.30
342.54	208.85
342.93	197.94
343.31	207.92
343.69	208.52
344.07	208.97
344.46	209.39
344.84	209.76
345.22	209.97
345.60	210.23
345.99	210.48
346.37	210.58
346.75	210.65
347.13	210.75
347.52	210.82
347.90	211.00
348.28	211.00
348.66	211.01
349.05	210.98
349.43	211.10
349.81	211.14
350.19	211.12
350.57	211.15
350.96	211.20
351.34	211.34
351.72	211.39
352.10	211.50
352.48	211.64
352.87	211.73
353.25	211.77
353.63	211.87
354.01	211.96
354.39	212.11
354.77	212.24
355.15	212.37
355.54	212.53
355.92	212.56
356.30	212.69
356.68	212.99
357.06	213.13
357.44	213.12
357.82	213.26
358.20	213.36
358.58	213.41
358.97	213.56
359.35	213.67
359.73	213.78
360.11	213.85
360.49	213.89
360.87	213.88
361.25	214.01
361.63	214.06
362.01	214.10
362.39	214.13
362.77	214.19
363.15	214.23
363.53	214.22
363.91	214.25
364.29	214.23
364.67	214.03
365.05	214.05
365.43	214.11
365.81	214.10
366.19	214.10
366.57	214.18
366.95	214.17
367.33	214.06
367.71	214.05
368.09	214.04
368.47	214.05
368.85	214.18
369.23	214.22
369.61	214.17
369.99	214.23
370.37	214.21
370.75	214.21
371.13	214.12
371.51	214.04
371.89	213.96
372.27	213.96
372.65	213.98
373.03	213.95
373.41	213.96
373.78	213.87
374.16	213.82
374.54	213.78
374.92	213.66
375.30	213.65
375.68	213.49
376.06	213.45
376.44	213.36
376.82	213.27
377.19	213.15
377.57	213.08
377.95	213.05
378.33	212.94
378.71	212.83
379.09	212.85
379.47	212.84
379.84	212.81
380.22	212.69
380.60	212.65
380.98	212.62
381.36	212.47
381.73	212.38
382.11	212.40
382.49	212.32
382.87	212.30
383.25	212.30
383.62	212.57
384.00	212.53
384.38	212.50
384.76	212.46
385.13	212.50
385.51	212.43
385.89	212.26
386.27	212.25
386.64	212.28
387.02	212.15
387.40	212.11
387.78	212.03
388.15	212.05
388.53	212.03
388.91	211.98
389.29	211.94
389.66	211.94
390.04	211.89
390.42	211.92
390.79	211.89
391.17	211.89
391.55	211.63
391.92	211.60
392.30	211.55
392.68	211.52
393.05	211.48
393.43	211.55
393.81	211.55
394.18	211.54
394.56	211.56
394.94	211.66
395.31	211.67
395.69	211.80
396.06	211.78
396.44	211.72
396.82	211.71
397.19	211.84
397.57	211.80
397.95	211.84
398.32	211.83
398.70	211.91
399.07	211.89
399.45	211.96
399.82	211.97
400.20	212.02
400.58	212.01
400.95	211.96
401.33	212.06
401.70	212.26
402.08	212.33
402.45	212.33
402.83	212.41
403.20	212.41
403.58	212.47
403.95	212.63
404.33	212.75
404.71	212.82
405.08	212.98
405.46	213.15
405.83	213.24
406.21	213.34
406.58	213.41
406.96	213.52
407.33	213.63
407.70	213.83
408.08	214.27
408.45	214.54
408.83	214.86
409.20	215.00
409.58	215.12
409.95	215.42
410.33	215.71
410.70	216.01
411.08	216.46
411.45	216.80
411.82	217.12
412.20	217.58
412.57	218.14
412.95	218.48
413.32	219.01
413.69	219.48
414.07	220.09
414.44	220.79
414.82	221.45
415.19	222.25
415.56	223.07
415.94	223.74
416.31	224.56
416.68	225.39
417.06	226.41
417.43	227.48
417.81	228.54
418.18	229.69
418.55	230.79
418.93	231.96
419.30	233.19
419.67	234.56
420.04	236.04
420.42	237.50
420.79	239.26
421.16	241.01
421.54	242.88
421.91	244.69
422.28	246.62
422.66	248.68
423.03	250.71
423.40	252.78
423.77	254.95
424.15	257.22
424.52	259.52
424.89	262.07
425.26	264.41
425.64	266.77
426.01	269.38
426.38	272.13
426.75	274.95
427.13	277.86
427.50	280.86
427.87	283.85
428.24	286.97
428.61	289.93
428.99	293.16
429.36	296.68
429.73	300.16
430.10	303.60
430.47	307.23
430.85	310.89
431.22	314.81
431.59	318.93
431.96	322.87
432.33	327.24
432.70	331.51
433.08	336.55
433.45	341.20
433.82	345.86
434.19	350.95
434.56	355.98
434.93	360.89
435.30	365.69
435.68	370.95
436.05	376.15
436.42	381.28
436.79	386.10
437.16	391.27
437.53	396.71
437.90	401.98
438.27	407.11
438.64	412.54
439.01	417.37
439.38	421.84
439.75	426.21
440.13	431.17
440.50	435.69
440.87	439.36
441.24	443.20
441.61	447.40
441.98	450.62
442.35	454.22
442.72	457.78
443.09	461.27
443.46	463.49
443.83	464.88
444.20	466.07
444.57	467.67
444.94	468.34
445.31	469.07
445.68	469.78
446.05	470.08
446.42	469.31
446.79	468.65
447.16	467.94
447.53	467.20
447.90	465.07
448.27	463.11
448.64	460.31
449.01	458.24
449.37	454.60
449.74	451.00
450.11	446.87
450.48	442.39
450.85	437.89
451.22	433.75
451.59	429.99
451.96	426.42
452.33	421.63
452.70	417.36
453.07	412.29
453.43	407.08
453.80	401.93
454.17	397.25
454.54	392.76
454.91	387.82
455.28	383.10
455.65	378.60
456.02	374.09
456.38	370.29
456.75	365.66
457.12	361.71
457.49	357.93
457.86	354.13
458.23	350.97
458.59	347.39
458.96	343.97
459.33	340.82
459.70	337.62
460.07	335.22
460.43	332.28
460.80	329.55
461.17	327.20
461.54	324.81
461.91	322.38
462.27	319.94
462.64	317.89
463.01	315.64
463.38	313.60
463.74	311.40
464.11	309.47
464.48	307.84
464.85	306.11
465.21	304.72
465.58	303.38
465.95	301.53
466.32	300.10
466.68	298.68
467.05	297.21
467.42	295.85
467.78	294.34
468.15	292.96
468.52	291.86
468.88	290.49
469.25	289.32
469.62	288.48
469.98	287.40
470.35	286.34
470.72	285.54
471.08	284.49
471.45	283.67
471.82	282.95
472.18	282.00
472.55	281.37
472.92	280.60
473.28	279.92
473.65	279.32
474.02	278.68
474.38	278.17
474.75	277.88
475.11	277.48
475.48	277.20
475.85	277.05
476.21	276.87
476.58	276.88
476.94	276.75
477.31	276.60
477.67	276.64
478.04	276.76
478.41	276.85
478.77	277.19
479.14	277.30
479.50	277.49
479.87	277.90
480.23	278.29
480.60	278.70
480.96	279.06
481.33	279.70
481.69	280.42
482.06	281.06
482.42	281.63
482.79	282.34
483.15	283.21
483.52	284.16
483.88	285.16
484.25	286.09
484.61	287.26
484.98	288.28
485.34	289.57
485.71	290.85
486.07	292.30
486.44	293.62
486.80	295.27
487.17	296.95
487.53	298.67
487.90	300.53
488.26	302.47
488.62	304.57
488.99	306.55
489.35	308.60
489.72	310.95
490.08	313.36
490.44	315.87
490.81	318.46
491.17	321.10
491.54	324.00
491.90	327.00
492.26	330.14
492.63	333.59
492.99	337.07
493.36	340.72
493.72	344.56
494.08	348.53
494.45	352.67
494.81	357.07
495.17	361.60
495.54	366.48
495.90	371.62
496.26	376.87
496.63	382.50
496.99	388.33
497.35	394.33
497.72	400.57
498.08	407.05
498.44	413.90
498.80	421.03
499.17	428.50
499.53	436.22
499.89	444.20
500.26	452.35
500.62	460.64
500.98	469.52
501.34	478.55
501.71	488.13
502.07	497.89
502.43	507.89
502.79	518.16
503.16	528.74
503.52	539.61
503.88	550.82
504.24	562.25
504.60	574.08
504.97	586.17
505.33	598.73
505.69	612.16
506.05	625.53
506.41	639.10
506.78	652.93
507.14	667.03
507.50	681.70
507.86	696.88
508.22	712.30
508.59	727.80
508.95	743.92
509.31	760.10
509.67	776.77
510.03	793.70
510.39	811.43
510.75	829.44
511.12	847.58
511.48	865.90
511.84	884.64
512.20	903.43
512.56	922.90
512.92	942.55
513.28	962.06
513.64	981.96
514.00	1002.10
514.37	1022.34
514.73	1043.25
515.09	1064.20
515.45	1084.91
515.81	1106.21
516.17	1127.72
516.53	1149.19
516.89	1170.77
517.25	1192.44
517.61	1214.30
517.97	1235.63
518.33	1257.00
518.69	1278.78
519.05	1301.00
519.41	1323.37
519.77	1345.95
520.13	1367.93
520.49	1390.01
520.85	1412.67
521.21	1434.97
521.57	1457.96
521.93	1480.02
522.29	1502.77
522.65	1525.34
523.01	1548.04
523.37	1570.06
523.73	1592.54
524.09	1614.76
524.45	1637.23
524.81	1659.78
525.17	1682.17
525.53	1704.89
525.89	1727.52
526.25	1749.84
526.61	1771.14
526.97	1792.90
527.33	1814.31
527.68	1836.29
528.04	1857.72
528.40	1878.15
528.76	1899.36
529.12	1920.19
529.48	1942.10
529.84	1962.56
530.20	1983.10
530.56	2003.55
530.91	2024.44
531.27	2044.96
531.63	2065.17
531.99	2085.05
532.35	2104.33
532.71	2123.84
533.07	2143.48
533.42	2162.02
533.78	2181.02
534.14	2199.81
534.50	2217.13
534.86	2235.65
535.21	2252.48
535.57	2270.54
535.93	2288.05
536.29	2305.00
536.65	2321.88
537.00	2337.17
537.36	2352.45
537.72	2367.99
538.08	2383.69
538.44	2399.04
538.79	2414.56
539.15	2429.72
539.51	2444.63
539.87	2460.05
540.22	2474.20
540.58	2489.18
540.94	2504.02
541.29	2517.00
541.65	2529.27
542.01	2542.63
542.37	2554.20
542.72	2566.60
543.08	2577.62
543.44	2589.41
543.79	2599.94
544.15	2609.95
544.51	2621.59
544.87	2632.98
545.22	2642.00
545.58	2650.66
545.94	2658.03
546.29	2664.42
546.65	2670.39
547.01	2676.94
547.36	2682.50
547.72	2688.43
548.07	2692.38
548.43	2695.97
548.79	2700.10
549.14	2705.37
549.50	2709.77
549.86	2714.21
550.21	2718.26
550.57	2722.69
550.92	2725.57
551.28	2728.24
551.64	2730.92
551.99	2733.22
552.35	2734.86
552.70	2737.70
553.06	2740.42
553.41	2743.62
553.77	2746.85
554.13	2749.34
554.48	2751.39
554.84	2753.09
555.19	2753.75
555.55	2754.37
555.90	2754.97
556.26	2755.48
556.61	2755.20
556.97	2753.90
557.32	2753.69
557.68	2751.95
558.03	2750.51
558.39	2749.22
558.74	2748.99
559.10	2747.89
559.45	2746.01
559.81	2745.10
560.16	2742.55
560.52	2740.19
560.87	2737.49
561.23	2733.35
561.58	2731.34
561.94	2727.73
562.29	2724.08
562.64	2721.94
563.00	2719.43
563.35	2717.58
563.71	2715.69
564.06	2713.56
564.42	2711.98
564.77	2709.36
565.12	2707.83
565.48	2704.28
565.83	2701.31
566.19	2697.79
566.54	2693.49
566.89	2689.56
567.25	2685.93
567.60	2682.65
567.96	2678.70
568.31	2675.32
568.66	2671.92
569.02	2667.20
569.37	2662.71
569.72	2658.94
570.08	2653.70
570.43	2648.31
570.78	2642.26
571.14	2635.95
571.49	2629.16
571.84	2622.92
572.20	2615.87
572.55	2609.16
572.90	2602.23
573.26	2595.12
573.61	2587.70
573.96	2581.18
574.31	2573.54
574.67	2565.25
575.02	2556.58
575.37	2548.08
575.72	2538.59
576.08	2530.67
576.43	2521.75
576.78	2513.54
577.13	2505.24
577.49	2496.74
577.84	2488.87
578.19	2481.51
578.54	2473.93
578.90	2467.07
579.25	2458.36
579.60	2449.41
579.95	2440.37
580.30	2432.59
580.66	2424.51
581.01	2415.98
581.36	2406.70
581.71	2398.10
582.06	2389.46
582.42	2381.58
582.77	2372.43
583.12	2363.47
583.47	2354.75
583.82	2346.60
584.17	2337.32
584.53	2328.21
584.88	2319.41
585.23	2310.03
585.58	2300.27
585.93	2290.70
586.28	2281.41
586.63	2272.59
586.98	2263.86
587.34	2255.16
587.69	2245.86
588.04	2236.57
588.39	2228.23
588.74	2219.35
589.09	2210.49
589.44	2200.63
589.79	2191.73
590.14	2183.91
590.49	2175.71
590.84	2166.67
591.19	2158.36
591.54	2149.67
591.89	2139.60
592.25	2130.46
592.60	2121.08
592.95	2111.52
593.30	2101.96
593.65	2092.26
594.00	2082.63
594.35	2074.36
594.70	2065.20
595.05	2056.42
595.40	2047.51
595.75	2037.59
596.10	2029.28
596.45	2020.88
596.80	2013.20
597.15	2004.94
597.50	1995.53
597.85	1986.89
598.19	1978.39
598.54	1969.68
598.89	1961.63
599.24	1954.88
599.59	1947.45
599.94	1940.28
600.29	1932.39
600.64	1924.19
600.99	1915.63
601.34	1908.40
601.69	1899.66
602.04	1891.35
602.39	1883.02
602.74	1875.13
603.08	1868.40
603.43	1861.14
603.78	1852.87
604.13	1844.97
604.48	1836.73
604.83	1829.90
605.18	1822.78
605.53	1814.73
605.87	1806.92
606.22	1799.74
606.57	1791.74
606.92	1783.31
607.27	1775.28
607.62	1767.94
607.96	1761.27
608.31	1755.03
608.66	1747.07
609.01	1739.42
609.36	1731.85
609.70	1723.76
610.05	1715.95
610.40	1707.73
610.75	1699.08
611.10	1691.66
611.44	1682.28
611.79	1673.26
612.14	1663.53
612.49	1654.01
612.83	1645.46
613.18	1635.67
613.53	1626.26
613.88	1616.27
614.22	1607.28
614.57	1597.82
614.92	1588.49
615.27	1579.02
615.61	1569.10
615.96	1559.88
616.31	1551.29
616.65	1543.22
617.00	1535.08
617.35	1526.27
617.70	1517.11
618.04	1507.83
618.39	1498.12
618.74	1489.40
619.08	1480.70
619.43	1472.66
619.78	1464.82
620.12	1456.90
620.47	1449.21
620.82	1440.29
621.16	1432.22
621.51	1423.96
621.85	1415.58
622.20	1406.88
622.55	1398.41
622.89	1390.23
623.24	1382.42
623.59	1373.77
623.93	1365.08
624.28	1356.98
624.62	1348.92
624.97	1340.78
625.32	1333.04
625.66	1325.76
626.01	1318.49
626.35	1311.26
626.70	1303.34
627.04	1295.82
627.39	1287.84
627.73	1280.29
628.08	1273.75
628.43	1266.23
628.77	1258.74
629.12	1251.23
629.46	1244.57
629.81	1237.23
630.15	1229.75
630.50	1222.20
630.84	1214.80
631.19	1207.67
631.53	1200.55
631.88	1192.63
632.22	1185.18
632.57	1178.32
632.91	1170.90
633.26	1163.49
633.60	1156.22
633.95	1149.47
634.29	1141.97
634.64	1135.23
634.98	1128.01
635.32	1120.73
635.67	1114.44
636.01	1107.69
636.36	1101.08
636.70	1094.28
637.05	1087.71
637.39	1081.29
637.73	1074.85
638.08	1069.16
638.42	1063.07
638.77	1056.55
639.11	1050.31
639.45	1044.17
639.80	1037.44
640.14	1030.80
640.49	1024.76
640.83	1018.44
641.17	1012.11
641.52	1006.04
641.86	999.31
642.20	993.13
642.55	986.40
642.89	979.84
643.23	973.29
643.58	967.53
643.92	961.13
644.26	954.92
644.61	948.86
644.95	942.88
645.29	936.40
645.64	929.83
645.98	923.52
646.32	917.66
646.66	911.59
647.01	905.68
647.35	899.85
647.69	893.51
648.04	887.57
648.38	881.59
648.72	875.50
649.06	869.62
649.41	863.59
649.75	857.73
650.09	851.73
650.43	845.91
650.78	839.48
651.12	833.41
651.46	827.47
651.80	821.44
652.14	815.38
652.49	809.50
652.83	803.52
653.17	797.47
653.51	791.45
653.85	785.69
654.20	779.62
654.54	773.80
654.88	768.26
655.22	762.38
655.56	756.43
655.90	750.55
656.25	744.75
656.59	739.24
656.93	734.15
657.27	729.04
657.61	723.61
657.95	718.49
658.29	713.45
658.64	708.43
658.98	703.22
659.32	697.92
659.66	692.86
660.00	687.62
660.34	682.45
660.68	677.45
661.02	672.38
661.36	667.74
661.70	662.95
662.05	658.05
662.39	653.67
662.73	649.25
663.07	644.98
663.41	640.64
663.75	636.12
664.09	631.32
664.43	626.52
664.77	622.26
665.11	617.68
665.45	613.26
665.79	608.69
666.13	604.31
666.47	600.08
666.81	595.69
667.15	591.46
667.49	587.57
667.83	583.60
668.17	579.65
668.51	575.83
668.85	572.11
669.19	568.48
669.53	564.40
669.87	560.35
670.21	556.47
670.55	552.61
670.89	549.03
671.23	545.63
671.57	542.02
671.91	538.31
672.25	534.84
672.58	531.21
672.92	527.71
673.26	524.52
673.60	521.27
673.94	517.99
674.28	514.84
674.62	511.60
674.96	508.45
675.30	505.28
675.64	501.98
675.97	498.61
676.31	495.52
676.65	492.68
676.99	490.00
677.33	487.00
677.67	483.95
678.01	480.93
678.34	477.75
678.68	474.88
679.02	471.87
679.36	468.96
679.70	466.20
680.04	463.33
680.37	460.26
680.71	457.36
681.05	454.65
681.39	452.00
681.73	449.36
682.06	446.81
682.40	444.27
682.74	441.83
683.08	439.39
683.42	436.80
683.75	434.29
684.09	431.65
684.43	429.20
684.77	426.68
685.10	424.01
685.44	421.63
685.78	419.07
686.12	416.71
686.45	414.43
686.79	412.14
687.13	410.03
687.46	407.91
687.80	405.70
688.14	403.35
688.48	401.16
688.81	398.85
689.15	396.64
689.49	394.25
689.82	391.82
690.16	389.46
690.50	387.08
690.83	384.70
691.17	382.39
691.51	380.13
691.84	377.97
692.18	375.91
692.52	373.87
692.85	371.99
693.19	370.15
693.52	368.00
693.86	366.00
694.20	364.05
694.53	362.01
694.87	360.00
695.21	358.18
695.54	356.13
695.88	354.18
696.21	352.15
696.55	350.45
696.88	348.78
697.22	347.10
697.56	345.57
697.89	343.93
698.23	342.31
698.56	340.68
698.90	339.18
699.23	337.59
699.57	335.92
699.90	334.29
700.24	332.66
700.58	331.19
700.91	329.66
701.25	328.23
701.58	326.82
701.92	325.40
702.25	323.93
702.59	322.58
702.92	321.26
703.26	319.91
703.59	318.55
703.93	317.35
704.26	316.15
704.60	314.84
704.93	313.63
705.26	312.33
705.60	311.10
705.93	309.85
706.27	308.75
706.60	307.71
706.94	306.64
707.27	305.48
707.61	304.32
707.94	303.15
708.27	301.84
708.61	300.63
708.94	299.55
709.28	298.42
709.61	297.30
709.94	296.25
710.28	295.22
710.61	294.24
710.95	292.96
711.28	291.86
711.61	290.83
711.95	289.83
712.28	288.91
712.61	287.94
712.95	287.11
713.28	286.10
713.61	285.11
713.95	284.03
714.28	283.14
714.61	282.16
714.95	281.25
715.28	280.38
715.61	279.44
715.95	278.50
716.28	277.65
716.61	276.82
716.95	275.95
717.28	275.15
717.61	274.33
717.94	273.62
718.28	272.86
718.61	272.09
718.94	271.25
719.27	270.44
719.61	269.70
719.94	268.89
720.27	268.18
720.60	267.43
720.94	266.75
721.27	265.99
721.60	265.37
721.93	264.74
722.27	264.15
722.60	263.56
722.93	262.99
723.26	262.41
723.59	261.85
723.93	261.29
724.26	260.73
724.59	260.07
724.92	259.51
725.25	258.95
725.59	258.39
725.92	257.91
726.25	257.39
726.58	256.82
726.91	256.32
727.24	255.79
727.57	255.25
727.91	254.79
728.24	254.31
728.57	253.89
728.90	253.38
729.23	252.86
729.56	252.52
729.89	252.04
730.22	251.57
730.55	251.11
730.89	250.64
731.22	250.13
731.55	249.72
731.88	249.29
732.21	248.82
732.54	248.38
732.87	247.96
733.20	247.57
733.53	247.13
733.86	246.71
734.19	246.37
734.52	246.01
734.85	245.72
735.18	245.30
735.51	244.84
735.84	244.49
736.17	244.11
736.50	243.60
736.83	243.47
737.16	243.03
737.49	242.65
737.82	242.30
738.15	241.94
738.48	241.63
738.81	241.29
739.14	240.94
739.47	240.56
739.80	240.18
740.13	239.78
740.46	239.51
740.79	239.08
741.12	238.67
741.45	238.33
741.78	237.96
742.11	237.77
742.44	237.45
742.77	237.15
743.10	236.84
743.43	236.60
743.75	236.17
744.08	236.10
744.41	235.76
744.74	235.47
745.07	235.25
745.40	235.00
745.73	234.79
746.06	234.51
746.39	234.32
746.71	234.00
747.04	233.72
747.37	233.44
747.70	233.20
748.03	232.97
748.36	232.76
748.68	232.47
749.01	232.07
749.34	231.90
749.67	231.77
750.00	231.58
750.33	231.39
750.65	231.04
750.98	230.58
751.31	230.32
751.64	230.03
751.97	229.81
752.29	229.53
752.62	229.25
752.95	229.00
753.28	228.63
753.60	228.39
753.93	228.21
754.26	227.98
754.59	227.77
754.91	227.53
755.24	227.40
755.57	227.22
755.90	227.08
756.22	226.82
756.55	226.50
756.88	226.26
757.20	225.97
757.53	225.71
757.86	225.60
758.19	225.45
758.51	225.34
758.84	225.07
759.17	224.87
759.49	224.64
759.82	224.63
760.15	224.49
760.47	224.35
760.80	224.20
761.13	224.09
761.45	223.81
761.78	223.64
762.11	223.38
762.43	223.20
762.76	223.05
763.08	222.97
763.41	222.85
763.74	222.71
764.06	222.63
764.39	222.53
764.71	222.34
765.04	222.26
765.37	222.10
765.69	221.98
766.02	221.92
766.34	221.85
766.67	221.61
767.00	221.58
767.32	221.51
767.65	221.43
767.97	221.26
768.30	221.25
768.62	221.14
768.95	221.09
769.27	220.99
769.60	220.95
769.92	220.77
770.25	220.59
770.57	220.47
770.90	220.31
771.22	220.13
771.55	220.01
771.87	219.81
772.20	219.65
772.52	219.65
772.85	219.68
773.17	219.57
773.50	219.48
773.82	219.39
774.15	219.20
774.47	218.99
774.80	218.91
775.12	218.87
775.45	218.83
775.77	218.69
776.09	218.55
776.42	218.43
776.74	218.38
777.07	218.35
777.39	218.32
777.72	218.27
778.04	218.24
778.36	218.23
778.69	218.19
779.01	218.27
779.33	218.04
779.66	217.80
779.98	217.67
780.31	217.61
780.63	217.52
780.95	217.56
781.28	217.55
781.60	217.47
781.92	217.30
782.25	217.25
782.57	217.26
782.89	217.29
783.22	217.24
783.54	217.14
783.86	217.15
784.19	217.03
784.51	217.03
784.83	217.05
785.16	216.98
785.48	216.93
785.80	216.83
786.12	216.84
786.45	216.76
