SpectraSuite Data File
++++++++++++++++++++++++++++++++++++
Date: Mon Feb 25 17:30:10 EST 2013
User: group
Dark Spectrum Present: No
Reference Spectrum Present: No
Number of Sampled Component Spectra: 1
Spectrometers: USB2E7196
Integration Time (usec): 52000 (USB2E7196)
Spectra Averaged: 20 (USB2E7196)
Boxcar Smoothing: 10 (USB2E7196)
Correct for Electrical Dark: No (USB2E7196)
Strobe/Lamp Enabled: No (USB2E7196)
Correct for Detector Non-linearity: No (USB2E7196)
Correct for Stray Light: No (USB2E7196)
Number of Pixels in Processed Spectrum: 2048
>>>>>Begin Processed Spectral Data<<<<<
339.09	0.00
339.48	198.35
339.86	199.75
340.24	201.15
340.63	204.85
341.01	207.20
341.39	206.40
341.78	206.35
342.16	209.35
342.54	208.85
342.93	198.09
343.31	208.08
343.69	208.61
344.07	209.10
344.46	209.55
344.84	209.85
345.22	210.02
345.60	210.22
345.99	210.40
346.37	210.48
346.75	210.59
347.13	210.60
347.52	210.69
347.90	210.76
348.28	210.79
348.66	210.91
349.05	210.86
349.43	210.97
349.81	211.07
350.19	211.10
350.57	211.18
350.96	211.31
351.34	211.47
351.72	211.62
352.10	211.74
352.48	211.85
352.87	211.95
353.25	211.98
353.63	212.11
354.01	212.23
354.39	212.32
354.77	212.38
355.15	212.51
355.54	212.56
355.92	212.63
356.30	212.72
356.68	212.90
357.06	212.99
357.44	212.93
357.82	212.95
358.20	213.02
358.58	213.08
358.97	213.09
359.35	213.09
359.73	213.17
360.11	213.24
360.49	213.27
360.87	213.26
361.25	213.34
361.63	213.46
362.01	213.55
362.39	213.61
362.77	213.72
363.15	213.78
363.53	213.87
363.91	213.98
364.29	214.01
364.67	213.90
365.05	213.97
365.43	214.03
365.81	214.12
366.19	214.22
366.57	214.32
366.95	214.32
367.33	214.36
367.71	214.41
368.09	214.45
368.47	214.44
368.85	214.41
369.23	214.45
369.61	214.36
369.99	214.43
370.37	214.43
370.75	214.50
371.13	214.43
371.51	214.34
371.89	214.25
372.27	214.19
372.65	214.13
373.03	214.06
373.41	214.06
373.78	213.98
374.16	213.87
374.54	213.73
374.92	213.74
375.30	213.64
375.68	213.52
376.06	213.42
376.44	213.42
376.82	213.48
377.19	213.51
377.57	213.41
377.95	213.26
378.33	213.24
378.71	213.05
379.09	213.08
379.47	213.10
379.84	213.06
380.22	213.08
380.60	213.00
380.98	212.96
381.36	212.90
381.73	212.88
382.11	212.81
382.49	212.82
382.87	212.77
383.25	212.74
383.62	212.86
384.00	212.82
384.38	212.77
384.76	212.69
385.13	212.66
385.51	212.65
385.89	212.59
386.27	212.56
386.64	212.60
387.02	212.45
387.40	212.38
387.78	212.33
388.15	212.33
388.53	212.35
388.91	212.35
389.29	212.25
389.66	212.25
390.04	212.21
390.42	212.21
390.79	212.11
391.17	212.09
391.55	211.94
391.92	211.88
392.30	211.86
392.68	211.85
393.05	211.73
393.43	211.77
393.81	211.74
394.18	211.64
394.56	211.58
394.94	211.62
395.31	211.63
395.69	211.65
396.06	211.64
396.44	211.63
396.82	211.54
397.19	211.62
397.57	211.59
397.95	211.62
398.32	211.59
398.70	211.63
399.07	211.66
399.45	211.62
399.82	211.69
400.20	211.65
400.58	211.60
400.95	211.66
401.33	211.73
401.70	211.92
402.08	212.00
402.45	212.06
402.83	212.24
403.20	212.25
403.58	212.31
403.95	212.39
404.33	212.53
404.71	212.60
405.08	212.82
405.46	212.90
405.83	213.00
406.21	213.15
406.58	213.35
406.96	213.52
407.33	213.76
407.70	213.92
408.08	214.32
408.45	214.58
408.83	214.84
409.20	214.98
409.58	215.19
409.95	215.51
410.33	215.79
410.70	215.98
411.08	216.26
411.45	216.63
411.82	217.01
412.20	217.43
412.57	218.02
412.95	218.34
413.32	218.84
413.69	219.45
414.07	220.03
414.44	220.57
414.82	221.17
415.19	221.82
415.56	222.56
415.94	223.20
416.31	224.10
416.68	224.89
417.06	225.92
417.43	226.83
417.81	227.86
418.18	228.93
418.55	230.05
418.93	231.37
419.30	232.69
419.67	234.00
420.04	235.32
420.42	236.75
420.79	238.45
421.16	240.14
421.54	241.79
421.91	243.51
422.28	245.38
422.66	247.38
423.03	249.31
423.40	251.30
423.77	253.53
424.15	255.66
424.52	257.94
424.89	260.37
425.26	262.71
425.64	264.90
426.01	267.36
426.38	269.89
426.75	272.50
427.13	275.13
427.50	278.06
427.87	281.00
428.24	283.95
428.61	286.77
428.99	289.97
429.36	293.32
429.73	296.58
430.10	299.87
430.47	303.24
430.85	306.90
431.22	310.76
431.59	314.76
431.96	318.56
432.33	322.71
432.70	326.75
433.08	331.49
433.45	336.12
433.82	340.58
434.19	345.60
434.56	350.47
434.93	355.20
435.30	359.77
435.68	364.90
436.05	369.90
436.42	374.83
436.79	379.30
437.16	384.18
437.53	389.45
437.90	394.52
438.27	399.61
438.64	404.69
439.01	409.37
439.38	413.43
439.75	417.54
440.13	422.33
440.50	426.54
440.87	430.19
441.24	433.85
441.61	437.94
441.98	440.98
442.35	444.43
442.72	447.91
443.09	451.24
443.46	453.22
443.83	454.53
444.20	455.76
444.57	457.51
444.94	458.30
445.31	459.01
445.68	459.87
446.05	460.08
446.42	459.47
446.79	458.81
447.16	458.08
447.53	457.54
447.90	455.45
448.27	453.57
448.64	450.72
449.01	448.60
449.37	445.17
449.74	441.77
450.11	437.77
450.48	433.43
450.85	429.01
451.22	425.26
451.59	421.69
451.96	418.14
452.33	413.57
452.70	409.44
453.07	404.59
453.43	399.43
453.80	394.55
454.17	389.94
454.54	385.56
454.91	380.94
455.28	376.30
455.65	372.00
456.02	367.84
456.38	364.33
456.75	359.92
457.12	356.17
457.49	352.47
457.86	348.90
458.23	345.79
458.59	342.37
458.96	338.89
459.33	335.83
459.70	332.91
460.07	330.43
460.43	327.64
460.80	325.01
461.17	322.85
461.54	320.46
461.91	318.17
462.27	315.78
462.64	313.82
463.01	311.71
463.38	309.79
463.74	307.71
464.11	305.84
464.48	304.25
464.85	302.55
465.21	301.31
465.58	300.05
465.95	298.35
466.32	297.06
466.68	295.82
467.05	294.48
467.42	293.06
467.78	291.68
468.15	290.36
468.52	289.43
468.88	288.10
469.25	287.02
469.62	286.09
469.98	285.20
470.35	284.27
470.72	283.46
471.08	282.52
471.45	281.79
471.82	280.96
472.18	280.16
472.55	279.56
472.92	278.83
473.28	278.19
473.65	277.65
474.02	277.06
474.38	276.64
474.75	276.32
475.11	275.92
475.48	275.66
475.85	275.53
476.21	275.30
476.58	275.22
476.94	275.21
477.31	275.17
477.67	275.23
478.04	275.30
478.41	275.38
478.77	275.73
479.14	275.84
479.50	276.15
479.87	276.57
480.23	276.99
480.60	277.35
480.96	277.68
481.33	278.39
481.69	279.03
482.06	279.64
482.42	280.28
482.79	281.14
483.15	281.94
483.52	282.89
483.88	283.90
484.25	284.88
484.61	285.98
484.98	287.21
485.34	288.47
485.71	289.81
486.07	291.30
486.44	292.51
486.80	294.08
487.17	295.70
487.53	297.36
487.90	299.20
488.26	301.18
488.62	303.25
488.99	305.27
489.35	307.33
489.72	309.67
490.08	312.07
490.44	314.52
490.81	317.11
491.17	319.77
491.54	322.56
491.90	325.61
492.26	328.77
492.63	332.13
492.99	335.50
493.36	339.11
493.72	342.79
494.08	346.74
494.45	350.96
494.81	355.46
495.17	360.06
495.54	364.85
495.90	369.75
496.26	374.83
496.63	380.21
496.99	385.91
497.35	391.69
497.72	397.83
498.08	404.18
498.44	410.89
498.80	417.90
499.17	425.19
499.53	432.85
499.89	440.78
500.26	448.80
500.62	457.01
500.98	465.80
501.34	474.85
501.71	484.24
502.07	493.80
502.43	503.71
502.79	513.80
503.16	524.40
503.52	535.18
503.88	546.33
504.24	557.92
504.60	569.54
504.97	581.89
505.33	594.34
505.69	607.56
506.05	621.00
506.41	634.49
506.78	648.10
507.14	661.90
507.50	676.15
507.86	690.90
508.22	706.16
508.59	721.44
508.95	737.30
509.31	753.48
509.67	769.93
510.03	786.58
510.39	803.75
510.75	821.27
511.12	839.28
511.48	857.20
511.84	875.52
512.20	893.95
512.56	912.89
512.92	931.97
513.28	951.01
513.64	970.30
514.00	990.07
514.37	1010.26
514.73	1030.73
515.09	1051.20
515.45	1071.60
515.81	1092.33
516.17	1113.29
516.53	1134.18
516.89	1155.15
517.25	1176.05
517.61	1197.04
517.97	1218.07
518.33	1238.98
518.69	1259.82
519.05	1281.55
519.41	1302.99
519.77	1325.45
520.13	1346.93
520.49	1368.55
520.85	1390.71
521.21	1412.53
521.57	1434.71
521.93	1455.89
522.29	1478.31
522.65	1500.20
523.01	1522.31
523.37	1543.95
523.73	1565.56
524.09	1587.12
524.45	1608.81
524.81	1630.66
525.17	1652.45
525.53	1674.54
525.89	1696.31
526.25	1718.07
526.61	1738.60
526.97	1759.73
527.33	1780.05
527.68	1800.80
528.04	1821.47
528.40	1841.01
528.76	1861.08
529.12	1880.96
529.48	1902.44
529.84	1921.97
530.20	1941.66
530.56	1960.83
530.91	1980.75
531.27	2000.50
531.63	2019.81
531.99	2038.78
532.35	2057.14
532.71	2075.30
533.07	2093.59
533.42	2111.27
533.78	2129.36
534.14	2147.42
534.50	2164.03
534.86	2181.12
535.21	2196.93
535.57	2213.68
535.93	2230.17
536.29	2246.07
536.65	2261.84
537.00	2276.06
537.36	2290.59
537.72	2305.09
538.08	2319.87
538.44	2334.08
538.79	2348.59
539.15	2362.44
539.51	2376.47
539.87	2391.13
540.22	2404.93
540.58	2419.36
540.94	2433.20
541.29	2445.29
541.65	2456.78
542.01	2469.14
542.37	2480.58
542.72	2492.24
543.08	2502.56
543.44	2513.71
543.79	2523.50
544.15	2533.16
544.51	2543.59
544.87	2553.93
545.22	2562.33
545.58	2570.36
545.94	2577.03
546.29	2582.84
546.65	2588.68
547.01	2594.28
547.36	2599.29
547.72	2604.32
548.07	2607.19
548.43	2610.51
548.79	2613.85
549.14	2617.84
549.50	2621.29
549.86	2624.69
550.21	2628.36
550.57	2632.07
550.92	2634.03
551.28	2635.95
551.64	2637.77
551.99	2639.50
552.35	2640.46
552.70	2642.56
553.06	2644.85
553.41	2647.25
553.77	2649.61
554.13	2651.69
554.48	2652.91
554.84	2654.02
555.19	2654.13
555.55	2654.40
555.90	2654.50
556.26	2654.75
556.61	2654.35
556.97	2652.97
557.32	2652.13
557.68	2650.26
558.03	2648.36
558.39	2646.80
558.74	2646.40
559.10	2645.24
559.45	2643.20
559.81	2641.75
560.16	2639.26
560.52	2636.47
560.87	2633.75
561.23	2629.91
561.58	2627.07
561.94	2623.83
562.29	2619.90
562.64	2617.36
563.00	2614.92
563.35	2612.18
563.71	2609.88
564.06	2607.43
564.42	2605.44
564.77	2602.76
565.12	2600.80
565.48	2597.66
565.83	2594.67
566.19	2591.08
566.54	2586.34
566.89	2582.32
567.25	2578.35
567.60	2574.88
567.96	2571.31
568.31	2567.67
568.66	2563.97
569.02	2559.44
569.37	2554.38
569.72	2550.80
570.08	2545.82
570.43	2540.41
570.78	2535.10
571.14	2529.15
571.49	2522.65
571.84	2516.67
572.20	2510.01
572.55	2503.39
572.90	2496.70
573.26	2489.88
573.61	2483.04
573.96	2476.90
574.31	2469.32
574.67	2461.45
575.02	2453.34
575.37	2444.80
575.72	2435.70
576.08	2428.09
576.43	2419.78
576.78	2412.17
577.13	2404.19
577.49	2396.60
577.84	2388.56
578.19	2380.81
578.54	2373.65
578.90	2367.15
579.25	2358.72
579.60	2350.20
579.95	2341.09
580.30	2333.37
580.66	2325.58
581.01	2317.11
581.36	2308.19
581.71	2300.34
582.06	2292.08
582.42	2284.15
582.77	2275.28
583.12	2267.21
583.47	2258.82
583.82	2250.69
584.17	2242.00
584.53	2233.00
584.88	2224.28
585.23	2215.86
585.58	2206.87
585.93	2197.36
586.28	2188.38
586.63	2179.97
586.98	2172.00
587.34	2164.35
587.69	2155.44
588.04	2146.46
588.39	2138.28
588.74	2129.86
589.09	2121.29
589.44	2112.17
589.79	2104.00
590.14	2096.70
590.49	2088.67
590.84	2079.95
591.19	2072.21
591.54	2063.98
591.89	2054.37
592.25	2045.51
592.60	2036.59
592.95	2027.85
593.30	2018.90
593.65	2009.53
594.00	2000.48
594.35	1992.25
594.70	1983.23
595.05	1974.72
595.40	1966.56
595.75	1957.57
596.10	1949.53
596.45	1941.56
596.80	1934.33
597.15	1926.40
597.50	1917.47
597.85	1909.19
598.19	1901.10
598.54	1893.00
598.89	1885.60
599.24	1879.12
599.59	1872.16
599.94	1865.23
600.29	1857.65
600.64	1850.14
600.99	1842.51
601.34	1835.57
601.69	1827.23
602.04	1819.62
602.39	1811.99
602.74	1804.25
603.08	1797.84
603.43	1791.08
603.78	1783.19
604.13	1775.43
604.48	1767.85
604.83	1761.40
605.18	1754.55
605.53	1747.34
605.87	1740.20
606.22	1733.22
606.57	1725.79
606.92	1718.10
607.27	1710.57
607.62	1703.52
607.96	1696.87
608.31	1690.35
608.66	1682.72
609.01	1675.41
609.36	1668.02
609.70	1660.45
610.05	1653.00
610.40	1645.07
610.75	1636.75
611.10	1629.37
611.44	1620.72
611.79	1611.90
612.14	1602.79
612.49	1593.77
612.83	1585.42
613.18	1575.90
613.53	1566.69
613.88	1557.32
614.22	1548.48
614.57	1539.61
614.92	1531.02
615.27	1521.98
615.61	1512.89
615.96	1504.32
616.31	1496.28
616.65	1488.82
617.00	1480.95
617.35	1472.85
617.70	1464.31
618.04	1455.86
618.39	1446.96
618.74	1439.16
619.08	1430.78
619.43	1422.88
619.78	1415.41
620.12	1407.65
620.47	1400.10
620.82	1391.99
621.16	1383.95
621.51	1375.77
621.85	1367.57
622.20	1359.02
622.55	1351.20
622.89	1343.14
623.24	1335.49
623.59	1327.07
623.93	1318.41
624.28	1310.28
624.62	1302.15
624.97	1293.97
625.32	1286.25
625.66	1279.18
626.01	1271.94
626.35	1265.11
626.70	1257.60
627.04	1250.14
627.39	1242.65
627.73	1235.28
628.08	1228.53
628.43	1221.50
628.77	1214.56
629.12	1207.31
629.46	1201.04
629.81	1193.86
630.15	1186.89
630.50	1179.66
630.84	1172.85
631.19	1166.12
631.53	1159.59
631.88	1152.24
632.22	1145.21
632.57	1138.59
632.91	1131.39
633.26	1123.90
633.60	1116.66
633.95	1110.38
634.29	1103.52
634.64	1097.13
634.98	1090.37
635.32	1083.62
635.67	1077.57
636.01	1071.20
636.36	1064.86
636.70	1058.39
637.05	1052.17
637.39	1045.95
637.73	1040.02
638.08	1034.40
638.42	1028.51
638.77	1022.38
639.11	1016.52
639.45	1010.84
639.80	1004.55
640.14	998.38
640.49	992.54
640.83	986.77
641.17	980.40
641.52	974.32
641.86	967.76
642.20	961.77
642.55	955.21
642.89	948.79
643.23	942.60
643.58	937.13
643.92	930.81
644.26	924.69
644.61	918.98
644.95	912.95
645.29	906.80
645.64	900.51
645.98	894.25
646.32	888.59
646.66	882.66
647.01	876.93
647.35	871.34
647.69	865.25
648.04	859.38
648.38	853.62
648.72	847.86
649.06	842.20
649.41	836.31
649.75	830.76
650.09	825.28
650.43	819.59
650.78	813.36
651.12	807.54
651.46	801.99
651.80	796.19
652.14	790.58
652.49	784.76
652.83	779.04
653.17	773.29
653.51	767.62
653.85	762.03
654.20	756.35
654.54	750.78
654.88	745.63
655.22	740.06
655.56	734.49
655.90	728.80
656.25	723.36
656.59	718.22
656.93	713.28
657.27	708.12
657.61	702.76
657.95	697.82
658.29	692.83
658.64	687.79
658.98	682.80
659.32	677.61
659.66	672.64
660.00	667.79
660.34	662.92
660.68	657.93
661.02	653.02
661.36	648.39
661.70	643.55
662.05	638.84
662.39	634.48
662.73	630.27
663.07	626.30
663.41	622.15
663.75	617.71
664.09	613.19
664.43	608.52
664.77	604.35
665.11	600.08
665.45	595.96
665.79	591.68
666.13	587.30
666.47	583.18
666.81	579.10
667.15	575.01
667.49	571.26
667.83	567.46
668.17	563.68
668.51	559.98
668.85	556.52
669.19	552.91
669.53	549.30
669.87	545.35
670.21	541.59
670.55	537.73
670.89	534.40
671.23	531.05
671.57	527.94
671.91	524.44
672.25	520.97
672.58	517.61
672.92	514.21
673.26	511.19
673.60	508.04
673.94	504.74
674.28	501.50
674.62	498.33
674.96	495.25
675.30	492.30
675.64	489.19
675.97	486.06
676.31	483.12
676.65	480.17
676.99	477.54
677.33	474.68
677.67	471.88
678.01	468.84
678.34	465.96
678.68	463.17
679.02	460.40
679.36	457.67
679.70	454.90
680.04	452.24
680.37	449.49
680.71	446.82
681.05	444.43
681.39	441.97
681.73	439.32
682.06	436.91
682.40	434.42
682.74	431.96
683.08	429.53
683.42	426.96
683.75	424.42
684.09	421.94
684.43	419.58
684.77	417.17
685.10	414.74
685.44	412.36
685.78	409.91
686.12	407.69
686.45	405.50
686.79	403.26
687.13	401.27
687.46	399.13
687.80	396.96
688.14	394.70
688.48	392.61
688.81	390.46
689.15	388.30
689.49	386.14
689.82	383.97
690.16	381.65
690.50	379.51
690.83	377.44
691.17	375.26
691.51	373.00
691.84	370.95
692.18	369.06
692.52	367.20
692.85	365.34
693.19	363.53
693.52	361.55
693.86	359.62
694.20	357.71
694.53	355.88
694.87	354.10
695.21	352.33
695.54	350.55
695.88	348.76
696.21	346.91
696.55	345.23
696.88	343.61
697.22	341.94
697.56	340.49
697.89	338.87
698.23	337.31
698.56	335.90
698.90	334.42
699.23	332.84
699.57	331.23
699.90	329.66
700.24	328.07
700.58	326.51
700.91	325.10
701.25	323.72
701.58	322.27
701.92	320.91
702.25	319.61
702.59	318.22
702.92	316.93
703.26	315.70
703.59	314.40
703.93	313.25
704.26	312.16
704.60	310.83
704.93	309.73
705.26	308.51
705.60	307.32
705.93	306.22
706.27	305.12
706.60	304.04
706.94	303.02
707.27	301.88
707.61	300.85
707.94	299.82
708.27	298.62
708.61	297.53
708.94	296.38
709.28	295.29
709.61	294.16
709.94	293.25
710.28	292.23
710.61	291.29
710.95	290.14
711.28	289.17
711.61	288.21
711.95	287.24
712.28	286.25
712.61	285.32
712.95	284.26
713.28	283.40
713.61	282.44
713.95	281.50
714.28	280.65
714.61	279.83
714.95	278.81
715.28	277.95
715.61	277.08
715.95	276.26
716.28	275.42
716.61	274.64
716.95	273.73
717.28	272.90
717.61	272.05
717.94	271.32
718.28	270.50
718.61	269.78
718.94	269.07
719.27	268.39
719.61	267.65
719.94	267.04
720.27	266.31
720.60	265.64
720.94	264.95
721.27	264.32
721.60	263.68
721.93	263.15
722.27	262.61
722.60	262.03
722.93	261.44
723.26	260.85
723.59	260.30
723.93	259.75
724.26	259.18
724.59	258.64
724.92	258.05
725.25	257.64
725.59	257.09
725.92	256.51
726.25	255.97
726.58	255.44
726.91	254.92
727.24	254.36
727.57	253.93
727.91	253.38
728.24	252.89
728.57	252.36
728.90	251.88
729.23	251.40
729.56	251.04
729.89	250.58
730.22	250.12
730.55	249.65
730.89	249.19
731.22	248.81
731.55	248.40
731.88	248.00
732.21	247.46
732.54	246.96
732.87	246.53
733.20	246.14
733.53	245.84
733.86	245.42
734.19	245.06
734.52	244.70
734.85	244.42
735.18	243.95
735.51	243.62
735.84	243.26
736.17	242.87
736.50	242.35
736.83	242.18
737.16	241.84
737.49	241.48
737.82	241.07
738.15	240.63
738.48	240.22
738.81	239.90
739.14	239.62
739.47	239.26
739.80	238.96
740.13	238.67
740.46	238.23
740.79	237.94
741.12	237.67
741.45	237.33
741.78	237.06
742.11	236.91
742.44	236.56
742.77	236.31
743.10	236.03
743.43	235.79
743.75	235.36
744.08	235.27
744.41	234.95
744.74	234.67
745.07	234.37
745.40	234.10
745.73	233.85
746.06	233.53
746.39	233.38
746.71	233.09
747.04	232.77
747.37	232.55
747.70	232.23
748.03	231.93
748.36	231.66
748.68	231.38
749.01	231.14
749.34	230.96
749.67	230.70
750.00	230.42
750.33	230.26
750.65	229.97
750.98	229.54
751.31	229.30
751.64	229.15
751.97	229.02
752.29	228.83
752.62	228.55
752.95	228.30
753.28	228.05
753.60	227.80
753.93	227.61
754.26	227.44
754.59	227.27
754.91	227.03
755.24	226.84
755.57	226.58
755.90	226.28
756.22	226.04
756.55	225.81
756.88	225.69
757.20	225.41
757.53	225.13
757.86	224.96
758.19	224.85
758.51	224.68
758.84	224.40
759.17	224.30
759.49	224.14
759.82	224.08
760.15	223.89
760.47	223.74
760.80	223.62
761.13	223.42
761.45	223.18
761.78	223.05
762.11	222.87
762.43	222.70
762.76	222.61
763.08	222.53
763.41	222.41
763.74	222.25
764.06	222.05
764.39	221.98
764.71	221.84
765.04	221.67
765.37	221.47
765.69	221.38
766.02	221.17
766.34	221.02
766.67	220.80
767.00	220.76
767.32	220.80
767.65	220.74
767.97	220.67
768.30	220.61
768.62	220.50
768.95	220.43
769.27	220.33
769.60	220.24
769.92	219.99
770.25	219.86
770.57	219.73
770.90	219.69
771.22	219.63
771.55	219.52
771.87	219.49
772.20	219.39
772.52	219.56
772.85	219.70
773.17	219.65
773.50	219.52
773.82	219.42
774.15	219.15
774.47	218.96
774.80	218.83
775.12	218.68
775.45	218.63
775.77	218.52
776.09	218.51
776.42	218.41
776.74	218.40
777.07	218.33
777.39	218.36
777.72	218.32
778.04	218.25
778.36	218.25
778.69	218.15
779.01	218.13
779.33	217.88
779.66	217.62
779.98	217.57
780.31	217.54
780.63	217.54
780.95	217.57
781.28	217.53
781.60	217.47
781.92	217.50
782.25	217.43
782.57	217.33
782.89	217.23
783.22	217.17
783.54	217.10
783.86	217.00
784.19	216.81
784.51	216.79
784.83	216.72
785.16	216.57
785.48	216.55
785.80	216.46
786.12	216.45
786.45	216.36
786.77	216.29
