SpectraSuite Data File
++++++++++++++++++++++++++++++++++++
Date: Mon Feb 25 17:32:51 EST 2013
User: group
Dark Spectrum Present: No
Reference Spectrum Present: No
Number of Sampled Component Spectra: 1
Spectrometers: USB2E7196
Integration Time (usec): 52000 (USB2E7196)
Spectra Averaged: 20 (USB2E7196)
Boxcar Smoothing: 10 (USB2E7196)
Correct for Electrical Dark: No (USB2E7196)
Strobe/Lamp Enabled: No (USB2E7196)
Correct for Detector Non-linearity: No (USB2E7196)
Correct for Stray Light: No (USB2E7196)
Number of Pixels in Processed Spectrum: 2048
>>>>>Begin Processed Spectral Data<<<<<
339.09	0.00
339.48	199.50
339.86	200.20
340.24	202.20
340.63	202.80
341.01	209.30
341.39	204.95
341.78	207.10
342.16	210.55
342.54	209.30
342.93	198.24
343.31	208.23
343.69	208.74
344.07	209.23
344.46	209.70
344.84	210.11
345.22	210.18
345.60	210.50
345.99	210.70
346.37	210.76
346.75	210.85
347.13	210.93
347.52	211.01
347.90	211.06
348.28	211.14
348.66	211.20
349.05	211.20
349.43	211.24
349.81	211.32
350.19	211.40
350.57	211.56
350.96	211.66
351.34	211.77
351.72	211.86
352.10	211.94
352.48	211.99
352.87	212.07
353.25	212.21
353.63	212.26
354.01	212.36
354.39	212.42
354.77	212.57
355.15	212.74
355.54	212.82
355.92	212.90
356.30	212.88
356.68	213.00
357.06	213.15
357.44	213.24
357.82	213.30
358.20	213.38
358.58	213.41
358.97	213.44
359.35	213.54
359.73	213.62
360.11	213.68
360.49	213.68
360.87	213.70
361.25	213.65
361.63	213.75
362.01	213.79
362.39	213.80
362.77	213.66
363.15	213.62
363.53	213.59
363.91	213.55
364.29	213.59
364.67	213.48
365.05	213.50
365.43	213.53
365.81	213.54
366.19	213.63
366.57	213.69
366.95	213.72
367.33	213.71
367.71	213.72
368.09	213.76
368.47	213.76
368.85	213.74
369.23	213.81
369.61	213.72
369.99	213.77
370.37	213.73
370.75	213.90
371.13	213.83
371.51	213.80
371.89	213.80
372.27	213.74
372.65	213.77
373.03	213.72
373.41	213.55
373.78	213.49
374.16	213.40
374.54	213.33
374.92	213.30
375.30	213.25
375.68	213.16
376.06	213.12
376.44	213.08
376.82	213.10
377.19	213.02
377.57	212.94
377.95	212.81
378.33	212.75
378.71	212.59
379.09	212.60
379.47	212.58
379.84	212.55
380.22	212.51
380.60	212.46
380.98	212.41
381.36	212.51
381.73	212.51
382.11	212.44
382.49	212.31
382.87	212.15
383.25	212.10
383.62	212.26
384.00	212.16
384.38	212.18
384.76	212.17
385.13	212.25
385.51	212.25
385.89	212.23
386.27	212.30
386.64	212.29
387.02	212.26
387.40	212.27
387.78	212.22
388.15	212.25
388.53	212.15
388.91	212.09
389.29	212.00
389.66	211.95
390.04	211.94
390.42	212.02
390.79	212.07
391.17	211.99
391.55	211.83
391.92	211.80
392.30	211.77
392.68	211.71
393.05	211.66
393.43	211.68
393.81	211.65
394.18	211.58
394.56	211.56
394.94	211.55
395.31	211.49
395.69	211.65
396.06	211.67
396.44	211.74
396.82	211.77
397.19	211.83
397.57	211.77
397.95	211.83
398.32	211.73
398.70	211.75
399.07	211.85
399.45	211.88
399.82	211.94
400.20	211.90
400.58	211.91
400.95	211.87
401.33	211.92
401.70	212.11
402.08	212.21
402.45	212.28
402.83	212.43
403.20	212.53
403.58	212.53
403.95	212.61
404.33	212.72
404.71	212.84
405.08	213.01
405.46	213.18
405.83	213.31
406.21	213.48
406.58	213.69
406.96	213.81
407.33	213.98
407.70	214.19
408.08	214.53
408.45	214.78
408.83	215.06
409.20	215.26
409.58	215.44
409.95	215.73
410.33	216.01
410.70	216.28
411.08	216.63
411.45	216.91
411.82	217.29
412.20	217.66
412.57	218.24
412.95	218.55
413.32	219.11
413.69	219.62
414.07	220.25
414.44	220.89
414.82	221.60
415.19	222.34
415.56	223.11
415.94	223.78
416.31	224.60
416.68	225.51
417.06	226.55
417.43	227.52
417.81	228.54
418.18	229.69
418.55	230.90
418.93	232.15
419.30	233.44
419.67	234.74
420.04	236.16
420.42	237.59
420.79	239.40
421.16	241.10
421.54	242.91
421.91	244.69
422.28	246.66
422.66	248.59
423.03	250.65
423.40	252.69
423.77	255.02
424.15	257.29
424.52	259.54
424.89	262.05
425.26	264.47
425.64	266.79
426.01	269.32
426.38	271.95
426.75	274.68
427.13	277.53
427.50	280.60
427.87	283.74
428.24	286.85
428.61	289.73
428.99	292.97
429.36	296.41
429.73	299.84
430.10	303.22
430.47	306.82
430.85	310.44
431.22	314.29
431.59	318.37
431.96	322.26
432.33	326.69
432.70	330.91
433.08	335.95
433.45	340.70
433.82	345.40
434.19	350.47
434.56	355.37
434.93	360.15
435.30	364.88
435.68	370.09
436.05	375.23
436.42	380.45
436.79	385.15
437.16	390.12
437.53	395.46
437.90	400.67
438.27	405.74
438.64	411.07
439.01	415.91
439.38	420.15
439.75	424.46
440.13	429.21
440.50	433.70
440.87	437.14
441.24	440.90
441.61	445.07
441.98	448.21
442.35	451.85
442.72	455.50
443.09	458.93
443.46	460.92
443.83	462.33
444.20	463.46
444.57	465.15
444.94	466.01
445.31	466.72
445.68	467.54
446.05	467.84
446.42	467.13
446.79	466.50
447.16	465.79
447.53	465.11
447.90	463.00
448.27	460.95
448.64	458.21
449.01	456.04
449.37	452.51
449.74	448.92
450.11	444.87
450.48	440.41
450.85	435.90
451.22	431.92
451.59	428.16
451.96	424.50
452.33	419.78
452.70	415.45
453.07	410.46
453.43	405.25
453.80	400.32
454.17	395.66
454.54	391.21
454.91	386.37
455.28	381.73
455.65	377.41
456.02	373.03
456.38	369.32
456.75	364.73
457.12	360.78
457.49	356.97
457.86	353.13
458.23	349.95
458.59	346.46
458.96	343.09
459.33	339.93
459.70	336.80
460.07	334.29
460.43	331.49
460.80	328.83
461.17	326.43
461.54	323.93
461.91	321.58
462.27	319.12
462.64	317.17
463.01	314.91
463.38	312.85
463.74	310.74
464.11	308.85
464.48	307.30
464.85	305.57
465.21	304.34
465.58	302.97
465.95	301.20
466.32	299.82
466.68	298.41
467.05	297.07
467.42	295.80
467.78	294.31
468.15	292.95
468.52	291.95
468.88	290.56
469.25	289.39
469.62	288.40
469.98	287.46
470.35	286.41
470.72	285.61
471.08	284.62
471.45	283.71
471.82	282.87
472.18	282.03
472.55	281.40
472.92	280.67
473.28	280.13
473.65	279.56
474.02	278.98
474.38	278.44
474.75	278.07
475.11	277.58
475.48	277.33
475.85	277.11
476.21	276.85
476.58	276.73
476.94	276.65
477.31	276.62
477.67	276.53
478.04	276.54
478.41	276.57
478.77	276.80
479.14	276.96
479.50	277.27
479.87	277.51
480.23	277.90
480.60	278.22
480.96	278.62
481.33	279.26
481.69	279.88
482.06	280.61
482.42	281.31
482.79	282.10
483.15	283.04
483.52	284.09
483.88	285.02
484.25	286.11
484.61	287.25
484.98	288.37
485.34	289.58
485.71	291.02
486.07	292.37
486.44	293.66
486.80	295.23
487.17	296.78
487.53	298.55
487.90	300.31
488.26	302.25
488.62	304.28
488.99	306.36
489.35	308.50
489.72	310.75
490.08	313.06
490.44	315.55
490.81	318.17
491.17	320.70
491.54	323.62
491.90	326.60
492.26	329.71
492.63	333.02
492.99	336.59
493.36	340.16
493.72	344.04
494.08	348.12
494.45	352.47
494.81	357.00
495.17	361.56
495.54	366.47
495.90	371.48
496.26	376.82
496.63	382.20
496.99	388.03
497.35	393.98
497.72	400.07
498.08	406.58
498.44	413.32
498.80	420.61
499.17	428.04
499.53	435.72
499.89	443.75
500.26	451.84
500.62	460.22
500.98	469.13
501.34	478.40
501.71	487.75
502.07	497.22
502.43	507.18
502.79	517.35
503.16	527.98
503.52	538.88
503.88	549.77
504.24	561.38
504.60	573.10
504.97	585.44
505.33	597.96
505.69	611.11
506.05	624.53
506.41	638.04
506.78	651.85
507.14	665.81
507.50	680.40
507.86	695.54
508.22	710.81
508.59	726.13
508.95	742.02
509.31	758.40
509.67	775.22
510.03	792.12
510.39	809.78
510.75	827.51
511.12	845.68
511.48	864.27
511.84	882.90
512.20	901.44
512.56	920.77
512.92	940.31
513.28	959.88
513.64	979.62
514.00	999.52
514.37	1019.74
514.73	1040.71
515.09	1061.39
515.45	1082.07
515.81	1103.09
516.17	1124.63
516.53	1145.85
516.89	1167.26
517.25	1188.77
517.61	1210.69
517.97	1232.28
518.33	1253.78
518.69	1275.67
519.05	1297.68
519.41	1319.71
519.77	1342.35
520.13	1364.36
520.49	1386.60
520.85	1409.28
521.21	1431.76
521.57	1454.68
521.93	1476.60
522.29	1499.33
522.65	1521.89
523.01	1544.37
523.37	1566.42
523.73	1588.63
524.09	1610.85
524.45	1633.32
524.81	1655.86
525.17	1678.14
525.53	1700.52
525.89	1722.91
526.25	1744.71
526.61	1765.88
526.97	1787.81
527.33	1808.92
527.68	1830.54
528.04	1851.63
528.40	1871.93
528.76	1892.65
529.12	1913.17
529.48	1935.31
529.84	1955.55
530.20	1975.89
530.56	1996.38
530.91	2017.28
531.27	2037.61
531.63	2057.94
531.99	2077.61
532.35	2096.57
532.71	2115.56
533.07	2134.95
533.42	2153.21
533.78	2172.01
534.14	2190.27
534.50	2207.30
534.86	2225.71
535.21	2242.45
535.57	2260.25
535.93	2277.71
536.29	2294.67
536.65	2311.25
537.00	2326.20
537.36	2341.54
537.72	2356.80
538.08	2371.95
538.44	2387.31
538.79	2402.73
539.15	2417.30
539.51	2431.99
539.87	2447.21
540.22	2461.36
540.58	2475.92
540.94	2490.52
541.29	2503.21
541.65	2515.53
542.01	2528.83
542.37	2540.49
542.72	2552.78
543.08	2563.96
543.44	2575.77
543.79	2585.90
544.15	2596.42
544.51	2607.55
544.87	2618.50
545.22	2627.80
545.58	2636.15
545.94	2643.45
546.29	2649.84
546.65	2656.05
547.01	2661.84
547.36	2667.40
547.72	2673.17
548.07	2677.12
548.43	2680.85
548.79	2685.03
549.14	2689.85
549.50	2694.12
549.86	2698.01
550.21	2701.85
550.57	2705.56
550.92	2707.99
551.28	2710.47
551.64	2712.76
551.99	2715.16
552.35	2716.74
552.70	2719.44
553.06	2722.52
553.41	2725.41
553.77	2728.30
554.13	2730.48
554.48	2732.71
554.84	2734.01
555.19	2734.60
555.55	2735.35
555.90	2735.91
556.26	2736.18
556.61	2736.25
556.97	2735.09
557.32	2734.82
557.68	2733.36
558.03	2732.14
558.39	2730.63
558.74	2730.45
559.10	2729.26
559.45	2727.43
559.81	2726.32
560.16	2723.51
560.52	2720.78
560.87	2717.61
561.23	2713.99
561.58	2711.68
561.94	2708.57
562.29	2705.17
562.64	2702.70
563.00	2700.18
563.35	2697.95
563.71	2696.49
564.06	2694.01
564.42	2692.45
564.77	2689.87
565.12	2687.89
565.48	2684.50
565.83	2681.55
566.19	2678.31
566.54	2673.92
566.89	2670.04
567.25	2666.08
567.60	2663.13
567.96	2659.77
568.31	2656.46
568.66	2652.60
569.02	2647.99
569.37	2643.07
569.72	2639.14
570.08	2633.80
570.43	2628.10
570.78	2622.53
571.14	2615.96
571.49	2609.43
571.84	2602.94
572.20	2595.87
572.55	2589.27
572.90	2582.31
573.26	2575.55
573.61	2568.30
573.96	2562.19
574.31	2554.36
574.67	2546.07
575.02	2537.42
575.37	2528.36
575.72	2519.44
576.08	2511.88
576.43	2503.18
576.78	2495.17
577.13	2487.04
577.49	2479.19
577.84	2471.48
578.19	2464.00
578.54	2456.54
578.90	2449.89
579.25	2441.27
579.60	2432.38
579.95	2423.35
580.30	2415.46
580.66	2407.07
581.01	2397.92
581.36	2388.34
581.71	2379.81
582.06	2371.35
582.42	2363.21
582.77	2354.33
583.12	2345.15
583.47	2336.33
583.82	2327.97
584.17	2319.00
584.53	2309.75
584.88	2300.78
585.23	2291.62
585.58	2281.87
585.93	2272.11
586.28	2262.52
586.63	2253.83
586.98	2245.76
587.34	2237.14
587.69	2228.30
588.04	2219.28
588.39	2211.04
588.74	2202.29
589.09	2193.55
589.44	2184.30
589.79	2175.55
590.14	2167.65
590.49	2159.56
590.84	2150.47
591.19	2142.55
591.54	2133.58
591.89	2123.77
592.25	2114.61
592.60	2105.04
592.95	2095.74
593.30	2086.49
593.65	2076.82
594.00	2067.24
594.35	2058.98
594.70	2050.07
595.05	2040.95
595.40	2032.10
595.75	2022.52
596.10	2014.09
596.45	2005.86
596.80	1998.00
597.15	1989.81
597.50	1980.61
597.85	1971.94
598.19	1963.08
598.54	1954.31
598.89	1946.63
599.24	1940.02
599.59	1932.88
599.94	1926.06
600.29	1918.46
600.64	1910.73
600.99	1902.63
601.34	1895.44
601.69	1886.40
602.04	1878.14
602.39	1870.32
602.74	1862.14
603.08	1855.61
603.43	1848.42
603.78	1840.02
604.13	1831.89
604.48	1824.06
604.83	1817.44
605.18	1810.37
605.53	1803.05
605.87	1795.50
606.22	1788.14
606.57	1780.07
606.92	1771.83
607.27	1763.61
607.62	1756.04
607.96	1749.08
608.31	1742.77
608.66	1734.56
609.01	1727.30
609.36	1719.48
609.70	1711.53
610.05	1704.16
610.40	1695.96
610.75	1687.40
611.10	1680.09
611.44	1671.06
611.79	1661.87
612.14	1652.36
612.49	1642.94
612.83	1634.27
613.18	1624.78
613.53	1615.50
613.88	1606.06
614.22	1597.18
614.57	1587.81
614.92	1578.49
615.27	1569.08
615.61	1559.31
615.96	1550.43
616.31	1541.72
616.65	1533.87
617.00	1525.56
617.35	1516.72
617.70	1507.71
618.04	1498.69
618.39	1489.31
618.74	1480.82
619.08	1472.12
619.43	1463.89
619.78	1455.91
620.12	1447.66
620.47	1439.87
620.82	1431.24
621.16	1422.61
621.51	1414.23
621.85	1406.19
622.20	1397.91
622.55	1389.62
622.89	1381.60
623.24	1373.83
623.59	1365.08
623.93	1356.48
624.28	1348.13
624.62	1340.03
624.97	1331.84
625.32	1324.09
625.66	1316.58
626.01	1309.63
626.35	1302.40
626.70	1294.72
627.04	1287.40
627.39	1279.89
627.73	1271.95
628.08	1265.18
628.43	1257.81
628.77	1250.24
629.12	1242.86
629.46	1236.13
629.81	1228.76
630.15	1221.28
630.50	1213.84
630.84	1206.91
631.19	1199.74
631.53	1192.83
631.88	1185.33
632.22	1177.84
632.57	1170.99
632.91	1163.74
633.26	1156.11
633.60	1148.94
633.95	1142.16
634.29	1134.80
634.64	1128.04
634.98	1121.32
635.32	1114.18
635.67	1108.19
636.01	1101.51
636.36	1094.77
636.70	1088.25
637.05	1081.79
637.39	1075.61
637.73	1069.19
638.08	1063.36
638.42	1057.56
638.77	1051.29
639.11	1045.15
639.45	1039.21
639.80	1032.53
640.14	1025.98
640.49	1019.88
640.83	1013.67
641.17	1007.20
641.52	1001.16
641.86	994.55
642.20	988.19
642.55	981.51
642.89	974.85
643.23	968.70
643.58	962.62
643.92	955.85
644.26	949.61
644.61	943.37
644.95	937.28
645.29	930.78
645.64	924.15
645.98	917.83
646.32	911.80
646.66	905.65
647.01	900.03
647.35	894.14
647.69	887.82
648.04	881.91
648.38	876.10
648.72	870.16
649.06	864.25
649.41	858.34
649.75	852.76
650.09	846.87
650.43	840.91
650.78	835.05
651.12	829.04
651.46	823.31
651.80	817.38
652.14	811.42
652.49	805.67
652.83	799.75
653.17	793.64
653.51	787.77
653.85	782.19
654.20	776.02
654.54	770.30
654.88	764.80
655.22	758.96
655.56	753.25
655.90	747.36
656.25	741.64
656.59	736.20
656.93	730.93
657.27	725.65
657.61	720.23
657.95	714.97
658.29	709.94
658.64	704.65
658.98	699.48
659.32	694.02
659.66	688.79
660.00	683.59
660.34	678.49
660.68	673.40
661.02	668.28
661.36	663.60
661.70	658.77
662.05	654.20
662.39	649.72
662.73	645.28
663.07	641.08
663.41	636.74
663.75	632.21
664.09	627.48
664.43	622.75
664.77	618.38
665.11	613.87
665.45	609.45
665.79	605.01
666.13	600.56
666.47	596.53
666.81	592.35
667.15	588.24
667.49	584.36
667.83	580.35
668.17	576.46
668.51	572.61
668.85	568.97
669.19	565.14
669.53	561.20
669.87	557.17
670.21	553.09
670.55	549.20
670.89	545.81
671.23	542.43
671.57	538.95
671.91	535.36
672.25	531.85
672.58	528.47
672.92	525.14
673.26	522.06
673.60	518.76
673.94	515.40
674.28	512.12
674.62	508.87
674.96	505.87
675.30	502.78
675.64	499.65
675.97	496.34
676.31	493.40
676.65	490.52
676.99	487.85
677.33	484.98
677.67	482.09
678.01	478.76
678.34	475.57
678.68	472.77
679.02	469.75
679.36	467.05
679.70	464.17
680.04	461.36
680.37	458.39
680.71	455.68
681.05	453.13
681.39	450.45
681.73	447.83
682.06	445.18
682.40	442.58
682.74	439.99
683.08	437.57
683.42	434.83
683.75	432.24
684.09	429.50
684.43	427.08
684.77	424.58
685.10	422.23
685.44	419.86
685.78	417.27
686.12	415.06
686.45	412.53
686.79	410.26
687.13	408.04
687.46	405.86
687.80	403.66
688.14	401.21
688.48	399.04
688.81	396.69
689.15	394.49
689.49	392.22
689.82	389.95
690.16	387.56
690.50	385.25
690.83	383.05
691.17	380.76
691.51	378.55
691.84	376.37
692.18	374.36
692.52	372.35
692.85	370.66
693.19	368.80
693.52	366.85
693.86	364.91
694.20	363.03
694.53	361.20
694.87	359.20
695.21	357.40
695.54	355.55
695.88	353.70
696.21	351.80
696.55	350.06
696.88	348.25
697.22	346.62
697.56	345.08
697.89	343.35
698.23	341.85
698.56	340.27
698.90	338.85
699.23	337.17
699.57	335.63
699.90	333.83
700.24	332.11
700.58	330.57
700.91	329.01
701.25	327.56
701.58	326.05
701.92	324.65
702.25	323.20
702.59	321.80
702.92	320.53
703.26	319.22
703.59	317.91
703.93	316.90
704.26	315.62
704.60	314.35
704.93	313.18
705.26	311.83
705.60	310.55
705.93	309.18
706.27	308.10
706.60	306.99
706.94	305.97
707.27	304.82
707.61	303.65
707.94	302.49
708.27	301.26
708.61	300.07
708.94	298.97
709.28	297.85
709.61	296.72
709.94	295.67
710.28	294.57
710.61	293.50
710.95	292.21
711.28	291.21
711.61	290.12
711.95	289.14
712.28	288.21
712.61	287.25
712.95	286.47
713.28	285.56
713.61	284.61
713.95	283.61
714.28	282.66
714.61	281.75
714.95	280.88
715.28	279.93
715.61	278.95
715.95	277.95
716.28	277.06
716.61	276.16
716.95	275.33
717.28	274.52
717.61	273.78
717.94	273.07
718.28	272.22
718.61	271.52
718.94	270.75
719.27	269.99
719.61	269.25
719.94	268.50
720.27	267.74
720.60	266.99
720.94	266.26
721.27	265.61
721.60	265.07
721.93	264.41
722.27	263.88
722.60	263.39
722.93	262.88
723.26	262.34
723.59	261.74
723.93	261.14
724.26	260.55
724.59	259.91
724.92	259.27
725.25	258.78
725.59	258.19
725.92	257.68
726.25	257.18
726.58	256.71
726.91	256.24
727.24	255.62
727.57	255.15
727.91	254.66
728.24	254.22
728.57	253.70
728.90	253.28
729.23	252.74
729.56	252.29
729.89	251.85
730.22	251.38
730.55	251.00
730.89	250.57
731.22	250.09
731.55	249.61
731.88	249.21
732.21	248.75
732.54	248.30
732.87	247.89
733.20	247.43
733.53	246.96
733.86	246.49
734.19	246.10
734.52	245.72
734.85	245.50
735.18	245.12
735.51	244.73
735.84	244.33
736.17	243.93
736.50	243.45
736.83	243.26
737.16	242.83
737.49	242.40
737.82	242.03
738.15	241.75
738.48	241.40
738.81	241.00
739.14	240.61
739.47	240.32
739.80	239.90
740.13	239.62
740.46	239.27
740.79	238.86
741.12	238.50
741.45	238.14
741.78	237.63
742.11	237.36
742.44	237.03
742.77	236.84
743.10	236.55
743.43	236.31
743.75	235.79
744.08	235.81
744.41	235.54
744.74	235.30
745.07	234.91
745.40	234.70
745.73	234.58
746.06	234.35
746.39	234.09
746.71	233.79
747.04	233.46
747.37	233.22
747.70	232.95
748.03	232.74
748.36	232.49
748.68	232.27
749.01	231.96
749.34	231.71
749.67	231.31
750.00	231.11
750.33	231.02
750.65	230.87
750.98	230.37
751.31	230.09
751.64	229.71
751.97	229.65
752.29	229.35
752.62	229.07
752.95	228.84
753.28	228.49
753.60	228.37
753.93	228.22
754.26	228.00
754.59	227.82
754.91	227.57
755.24	227.42
755.57	227.22
755.90	227.01
756.22	226.79
756.55	226.63
756.88	226.47
757.20	226.07
757.53	225.76
757.86	225.57
758.19	225.49
758.51	225.35
758.84	225.07
759.17	224.92
759.49	224.72
759.82	224.57
760.15	224.47
760.47	224.29
760.80	224.05
761.13	223.89
761.45	223.77
761.78	223.61
762.11	223.42
762.43	223.24
762.76	222.98
763.08	222.86
763.41	222.75
763.74	222.53
764.06	222.43
764.39	222.30
764.71	222.15
765.04	221.91
765.37	221.83
765.69	221.64
766.02	221.50
766.34	221.41
766.67	221.25
767.00	221.22
767.32	221.17
767.65	221.14
767.97	221.00
768.30	220.86
768.62	220.73
768.95	220.58
769.27	220.50
769.60	220.54
769.92	220.46
770.25	220.31
770.57	220.20
770.90	220.08
771.22	219.97
771.55	219.87
771.87	219.83
772.20	219.74
772.52	219.78
772.85	219.94
773.17	219.75
773.50	219.63
773.82	219.44
774.15	219.27
774.47	219.14
774.80	219.02
775.12	218.85
775.45	218.73
775.77	218.67
776.09	218.51
776.42	218.40
776.74	218.32
777.07	218.18
777.39	218.15
777.72	218.15
778.04	218.05
778.36	217.93
778.69	217.80
779.01	217.70
779.33	217.56
779.66	217.26
779.98	217.21
780.31	217.09
780.63	217.10
780.95	217.00
781.28	216.85
781.60	216.75
781.92	216.75
782.25	216.80
782.57	216.73
782.89	216.71
783.22	216.59
783.54	216.52
783.86	216.50
784.19	216.36
784.51	216.25
784.83	216.15
785.16	216.13
785.48	216.09
785.80	215.95
786.12	215.85
786.45	215.76
