SpectraSuite Data File
++++++++++++++++++++++++++++++++++++
Date: Mon Feb 25 17:30:06 EST 2013
User: group
Dark Spectrum Present: No
Reference Spectrum Present: No
Number of Sampled Component Spectra: 1
Spectrometers: USB2E7196
Integration Time (usec): 52000 (USB2E7196)
Spectra Averaged: 20 (USB2E7196)
Boxcar Smoothing: 10 (USB2E7196)
Correct for Electrical Dark: No (USB2E7196)
Strobe/Lamp Enabled: No (USB2E7196)
Correct for Detector Non-linearity: No (USB2E7196)
Correct for Stray Light: No (USB2E7196)
Number of Pixels in Processed Spectrum: 2048
>>>>>Begin Processed Spectral Data<<<<<
339.09	0.00
339.48	199.45
339.86	199.85
340.24	202.15
340.63	202.60
341.01	206.20
341.39	205.00
341.78	207.90
342.16	207.70
342.54	209.10
342.93	197.96
343.31	208.00
343.69	208.51
344.07	208.98
344.46	209.45
344.84	209.87
345.22	210.09
345.60	210.39
345.99	210.53
346.37	210.66
346.75	210.78
347.13	210.92
347.52	210.94
347.90	211.12
348.28	211.19
348.66	211.25
349.05	211.20
349.43	211.23
349.81	211.33
350.19	211.39
350.57	211.44
350.96	211.59
351.34	211.73
351.72	211.81
352.10	211.95
352.48	212.01
352.87	212.09
353.25	212.20
353.63	212.24
354.01	212.31
354.39	212.45
354.77	212.50
355.15	212.58
355.54	212.70
355.92	212.70
356.30	212.75
356.68	212.95
357.06	213.08
357.44	213.15
357.82	213.20
358.20	213.34
358.58	213.45
358.97	213.45
359.35	213.55
359.73	213.59
360.11	213.61
360.49	213.66
360.87	213.72
361.25	213.81
361.63	213.96
362.01	214.05
362.39	214.06
362.77	214.18
363.15	214.22
363.53	214.26
363.91	214.34
364.29	214.41
364.67	214.24
365.05	214.22
365.43	214.29
365.81	214.33
366.19	214.36
366.57	214.48
366.95	214.55
367.33	214.48
367.71	214.55
368.09	214.68
368.47	214.68
368.85	214.60
369.23	214.60
369.61	214.54
369.99	214.60
370.37	214.63
370.75	214.70
371.13	214.64
371.51	214.53
371.89	214.50
372.27	214.41
372.65	214.41
373.03	214.38
373.41	214.32
373.78	214.26
374.16	214.14
374.54	213.91
374.92	213.84
375.30	213.80
375.68	213.77
376.06	213.67
376.44	213.60
376.82	213.56
377.19	213.52
377.57	213.44
377.95	213.36
378.33	213.25
378.71	213.06
379.09	213.00
379.47	213.03
379.84	213.00
380.22	212.98
380.60	212.87
380.98	212.82
381.36	212.75
381.73	212.66
382.11	212.61
382.49	212.67
382.87	212.57
383.25	212.52
383.62	212.63
384.00	212.51
384.38	212.49
384.76	212.53
385.13	212.52
385.51	212.48
385.89	212.37
386.27	212.33
386.64	212.32
387.02	212.27
387.40	212.25
387.78	212.14
388.15	212.08
388.53	212.12
388.91	212.14
389.29	212.14
389.66	212.15
390.04	212.20
390.42	212.18
390.79	212.20
391.17	212.14
391.55	211.89
391.92	211.94
392.30	211.89
392.68	211.83
393.05	211.81
393.43	211.80
393.81	211.82
394.18	211.81
394.56	211.78
394.94	211.84
395.31	211.77
395.69	211.84
396.06	211.92
396.44	211.90
396.82	211.84
397.19	211.88
397.57	211.85
397.95	211.87
398.32	211.90
398.70	211.94
399.07	212.01
399.45	212.09
399.82	212.05
400.20	212.07
400.58	212.09
400.95	212.12
401.33	212.18
401.70	212.29
402.08	212.37
402.45	212.41
402.83	212.46
403.20	212.54
403.58	212.53
403.95	212.56
404.33	212.74
404.71	212.81
405.08	213.03
405.46	213.17
405.83	213.30
406.21	213.38
406.58	213.45
406.96	213.63
407.33	213.79
407.70	213.99
408.08	214.35
408.45	214.55
408.83	214.75
409.20	215.00
409.58	215.13
409.95	215.41
410.33	215.71
410.70	216.03
411.08	216.45
411.45	216.88
411.82	217.29
412.20	217.66
412.57	218.13
412.95	218.43
413.32	218.88
413.69	219.33
414.07	219.89
414.44	220.55
414.82	221.07
415.19	221.72
415.56	222.42
415.94	223.08
416.31	223.93
416.68	224.79
417.06	225.78
417.43	226.78
417.81	227.85
418.18	228.93
418.55	230.02
418.93	231.15
419.30	232.39
419.67	233.70
420.04	235.03
420.42	236.49
420.79	238.24
421.16	239.91
421.54	241.72
421.91	243.45
422.28	245.22
422.66	247.25
423.03	249.31
423.40	251.41
423.77	253.53
424.15	255.70
424.52	257.83
424.89	260.23
425.26	262.58
425.64	264.84
426.01	267.28
426.38	269.88
426.75	272.49
427.13	275.18
427.50	278.04
427.87	281.05
428.24	284.02
428.61	286.74
428.99	289.90
429.36	293.24
429.73	296.58
430.10	299.93
430.47	303.33
430.85	306.79
431.22	310.50
431.59	314.60
431.96	318.48
432.33	322.70
432.70	326.72
433.08	331.43
433.45	335.81
433.82	340.35
434.19	345.32
434.56	350.25
434.93	354.91
435.30	359.56
435.68	364.57
436.05	369.57
436.42	374.60
436.79	379.05
437.16	383.92
437.53	389.04
437.90	394.23
438.27	399.22
438.64	404.47
439.01	409.23
439.38	413.20
439.75	417.23
440.13	422.00
440.50	426.55
440.87	430.06
441.24	433.85
441.61	438.00
441.98	440.95
442.35	444.34
442.72	447.81
443.09	451.21
443.46	453.28
443.83	454.57
444.20	455.75
444.57	457.56
444.94	458.25
445.31	459.03
445.68	459.74
446.05	459.96
446.42	459.23
446.79	458.45
447.16	457.70
447.53	457.00
447.90	454.83
448.27	452.71
448.64	450.06
449.01	447.98
449.37	444.38
449.74	441.04
450.11	437.09
450.48	432.62
450.85	428.15
451.22	424.25
451.59	420.71
451.96	417.27
452.33	412.66
452.70	408.59
453.07	403.70
453.43	398.60
453.80	393.81
454.17	389.22
454.54	384.90
454.91	380.32
455.28	375.81
455.65	371.65
456.02	367.43
456.38	363.81
456.75	359.30
457.12	355.69
457.49	352.00
457.86	348.43
458.23	345.49
458.59	342.10
458.96	338.75
459.33	335.64
459.70	332.46
460.07	329.99
460.43	327.12
460.80	324.53
461.17	322.28
461.54	319.90
461.91	317.58
462.27	315.25
462.64	313.33
463.01	311.28
463.38	309.31
463.74	307.17
464.11	305.31
464.48	303.79
464.85	302.03
465.21	300.77
465.58	299.42
465.95	297.71
466.32	296.41
466.68	295.07
467.05	293.77
467.42	292.58
467.78	291.23
468.15	290.03
468.52	289.07
468.88	287.81
469.25	286.72
469.62	285.93
469.98	285.03
470.35	284.12
470.72	283.30
471.08	282.34
471.45	281.64
471.82	280.94
472.18	280.04
472.55	279.47
472.92	278.68
473.28	278.05
473.65	277.58
474.02	277.02
474.38	276.57
474.75	276.24
475.11	275.87
475.48	275.66
475.85	275.53
476.21	275.40
476.58	275.31
476.94	275.26
477.31	275.19
477.67	275.18
478.04	275.25
478.41	275.38
478.77	275.76
479.14	275.92
479.50	276.20
479.87	276.62
480.23	277.05
480.60	277.40
480.96	277.81
481.33	278.51
481.69	279.11
482.06	279.78
482.42	280.44
482.79	281.15
483.15	281.94
483.52	282.84
483.88	283.70
484.25	284.72
484.61	285.70
484.98	286.82
485.34	288.07
485.71	289.35
486.07	290.75
486.44	291.98
486.80	293.57
487.17	295.20
487.53	297.00
487.90	298.75
488.26	300.79
488.62	302.79
488.99	304.73
489.35	306.80
489.72	309.09
490.08	311.48
490.44	313.98
490.81	316.55
491.17	319.22
491.54	322.15
491.90	325.04
492.26	328.25
492.63	331.60
492.99	335.10
493.36	338.75
493.72	342.54
494.08	346.60
494.45	350.80
494.81	355.21
495.17	359.70
495.54	364.58
495.90	369.53
496.26	374.79
496.63	380.34
496.99	386.22
497.35	392.23
497.72	398.50
498.08	404.83
498.44	411.57
498.80	418.67
499.17	426.01
499.53	433.63
499.89	441.55
500.26	449.52
500.62	457.69
500.98	466.39
501.34	475.49
501.71	484.88
502.07	494.45
502.43	504.34
502.79	514.49
503.16	524.93
503.52	535.74
503.88	546.80
504.24	558.13
504.60	569.80
504.97	581.95
505.33	594.25
505.69	607.58
506.05	620.72
506.41	634.07
506.78	647.62
507.14	661.64
507.50	675.95
507.86	690.72
508.22	705.92
508.59	721.17
508.95	736.89
509.31	752.76
509.67	769.17
510.03	785.88
510.39	803.18
510.75	820.76
511.12	838.59
511.48	856.68
511.84	875.01
512.20	893.36
512.56	912.25
512.92	931.42
513.28	950.34
513.64	969.92
514.00	989.38
514.37	1009.22
514.73	1029.61
515.09	1049.84
515.45	1070.28
515.81	1091.04
516.17	1111.96
516.53	1132.75
516.89	1153.61
517.25	1174.70
517.61	1195.76
517.97	1216.39
518.33	1237.52
518.69	1258.76
519.05	1280.06
519.41	1301.55
519.77	1323.63
520.13	1345.13
520.49	1366.63
520.85	1388.66
521.21	1410.43
521.57	1432.75
521.93	1454.42
522.29	1476.55
522.65	1498.28
523.01	1520.28
523.37	1541.68
523.73	1563.57
524.09	1584.96
524.45	1606.47
524.81	1628.28
525.17	1649.94
525.53	1672.12
525.89	1693.63
526.25	1714.93
526.61	1735.66
526.97	1756.57
527.33	1776.80
527.68	1797.55
528.04	1818.00
528.40	1837.44
528.76	1857.29
529.12	1877.21
529.48	1898.12
529.84	1917.48
530.20	1937.41
530.56	1956.79
530.91	1976.74
531.27	1995.89
531.63	2015.21
531.99	2034.78
532.35	2052.92
532.71	2071.09
533.07	2089.45
533.42	2106.89
533.78	2124.77
534.14	2142.58
534.50	2159.04
534.86	2176.27
535.21	2191.85
535.57	2208.80
535.93	2225.36
536.29	2241.42
536.65	2257.29
537.00	2271.77
537.36	2286.30
537.72	2300.59
538.08	2314.75
538.44	2329.15
538.79	2343.91
539.15	2358.10
539.51	2371.85
539.87	2386.48
540.22	2400.25
540.58	2414.57
540.94	2428.68
541.29	2441.14
541.65	2452.73
542.01	2465.51
542.37	2476.70
542.72	2488.55
543.08	2498.79
543.44	2510.03
543.79	2519.80
544.15	2529.45
544.51	2539.60
544.87	2549.95
545.22	2558.56
545.58	2566.91
545.94	2573.49
546.29	2579.54
546.65	2585.16
547.01	2590.50
547.36	2595.51
547.72	2600.45
548.07	2603.60
548.43	2606.60
548.79	2609.72
549.14	2613.58
549.50	2617.28
549.86	2620.47
550.21	2623.85
550.57	2627.45
550.92	2629.46
551.28	2631.44
551.64	2633.11
551.99	2635.21
552.35	2636.20
552.70	2638.56
553.06	2640.95
553.41	2643.55
553.77	2645.75
554.13	2647.32
554.48	2648.99
554.84	2649.87
555.19	2650.07
555.55	2650.29
555.90	2650.53
556.26	2650.57
556.61	2650.13
556.97	2648.24
557.32	2647.83
557.68	2646.09
558.03	2644.19
558.39	2642.26
558.74	2641.63
559.10	2640.38
559.45	2638.05
559.81	2636.79
560.16	2633.95
560.52	2631.26
560.87	2628.06
561.23	2623.72
561.58	2621.28
561.94	2617.85
562.29	2614.02
562.64	2611.25
563.00	2608.49
563.35	2606.15
563.71	2604.35
564.06	2602.34
564.42	2600.48
564.77	2597.51
565.12	2595.29
565.48	2592.16
565.83	2589.42
566.19	2585.92
566.54	2581.28
566.89	2577.57
567.25	2573.56
567.60	2570.29
567.96	2566.33
568.31	2562.64
568.66	2559.13
569.02	2554.42
569.37	2549.09
569.72	2545.21
570.08	2540.08
570.43	2534.40
570.78	2528.37
571.14	2521.95
571.49	2515.19
571.84	2509.06
572.20	2502.60
572.55	2496.17
572.90	2489.43
573.26	2482.27
573.61	2475.16
573.96	2468.89
574.31	2461.13
574.67	2453.25
575.02	2444.81
575.37	2436.29
575.72	2427.51
576.08	2420.23
576.43	2411.84
576.78	2404.60
577.13	2396.80
577.49	2389.15
577.84	2381.87
578.19	2374.70
578.54	2367.61
578.90	2360.71
579.25	2352.35
579.60	2343.44
579.95	2334.29
580.30	2326.65
580.66	2319.11
581.01	2310.46
581.36	2301.81
581.71	2293.71
582.06	2285.45
582.42	2277.58
582.77	2269.06
583.12	2260.78
583.47	2252.25
583.82	2244.54
584.17	2235.51
584.53	2226.61
584.88	2218.15
585.23	2209.31
585.58	2200.03
585.93	2190.72
586.28	2181.85
586.63	2173.87
586.98	2166.19
587.34	2158.49
587.69	2149.76
588.04	2140.70
588.39	2132.91
588.74	2124.09
589.09	2115.80
589.44	2106.67
589.79	2098.56
590.14	2091.08
590.49	2083.05
590.84	2074.49
591.19	2066.68
591.54	2058.52
591.89	2048.81
592.25	2040.08
592.60	2031.11
592.95	2022.25
593.30	2013.22
593.65	2003.74
594.00	1994.14
594.35	1986.36
594.70	1977.60
595.05	1969.17
595.40	1961.16
595.75	1951.94
596.10	1944.16
596.45	1936.09
596.80	1928.51
597.15	1920.32
597.50	1911.55
597.85	1903.32
598.19	1895.11
598.54	1886.60
598.89	1879.15
599.24	1872.82
599.59	1865.45
599.94	1858.80
600.29	1851.49
600.64	1843.77
600.99	1836.35
601.34	1829.75
601.69	1821.11
602.04	1813.39
602.39	1805.70
602.74	1798.07
603.08	1791.81
603.43	1785.13
603.78	1777.45
604.13	1770.23
604.48	1762.89
604.83	1756.31
605.18	1749.77
605.53	1742.56
605.87	1735.44
606.22	1728.61
606.57	1721.26
606.92	1713.82
607.27	1706.15
607.62	1699.30
607.96	1692.89
608.31	1686.49
608.66	1679.05
609.01	1671.87
609.36	1664.36
609.70	1656.78
610.05	1649.42
610.40	1641.54
610.75	1633.06
611.10	1625.79
611.44	1616.99
611.79	1608.33
612.14	1599.35
612.49	1590.05
612.83	1581.69
613.18	1572.36
613.53	1563.18
613.88	1553.95
614.22	1545.39
614.57	1536.16
614.92	1526.99
615.27	1518.15
615.61	1508.91
615.96	1500.02
616.31	1492.21
616.65	1484.78
617.00	1476.57
617.35	1468.25
617.70	1459.69
618.04	1451.41
618.39	1442.35
618.74	1434.26
619.08	1425.77
619.43	1418.20
619.78	1410.75
620.12	1403.10
620.47	1395.74
620.82	1387.58
621.16	1379.56
621.51	1371.52
621.85	1363.86
622.20	1355.84
622.55	1347.91
622.89	1340.08
623.24	1332.62
623.59	1324.05
623.93	1315.45
624.28	1307.80
624.62	1299.76
624.97	1292.00
625.32	1284.40
625.66	1277.37
626.01	1270.57
626.35	1263.65
626.70	1255.78
627.04	1248.53
627.39	1241.09
627.73	1233.71
628.08	1227.22
628.43	1219.90
628.77	1212.77
629.12	1205.56
629.46	1199.15
629.81	1192.14
630.15	1185.01
630.50	1177.80
630.84	1170.87
631.19	1164.22
631.53	1157.47
631.88	1150.23
632.22	1142.96
632.57	1136.15
632.91	1128.91
633.26	1121.55
633.60	1114.78
633.95	1108.52
634.29	1101.48
634.64	1094.82
634.98	1088.36
635.32	1081.41
635.67	1075.57
636.01	1068.92
636.36	1062.30
636.70	1055.76
637.05	1049.19
637.39	1043.17
637.73	1036.94
638.08	1031.30
638.42	1025.77
638.77	1019.61
639.11	1013.62
639.45	1007.99
639.80	1001.80
640.14	995.65
640.49	989.59
640.83	983.52
641.17	977.40
641.52	971.53
641.86	965.45
642.20	959.29
642.55	952.71
642.89	946.30
643.23	940.38
643.58	934.85
643.92	928.58
644.26	922.62
644.61	916.84
644.95	911.06
645.29	904.79
645.64	898.27
645.98	892.19
646.32	886.63
646.66	880.62
647.01	874.88
647.35	869.40
647.69	863.53
648.04	857.88
648.38	851.98
648.72	846.13
649.06	840.30
649.41	834.53
649.75	828.95
650.09	823.27
650.43	817.52
650.78	811.49
651.12	805.79
651.46	800.39
651.80	794.65
652.14	788.92
652.49	783.44
652.83	777.81
653.17	771.91
653.51	766.31
653.85	760.75
654.20	754.98
654.54	749.27
654.88	743.90
655.22	738.22
655.56	732.58
655.90	726.97
656.25	721.40
656.59	716.21
656.93	711.47
657.27	706.44
657.61	701.19
657.95	696.27
658.29	691.35
658.64	686.29
658.98	681.24
659.32	676.15
659.66	671.04
660.00	666.19
660.34	661.29
660.68	656.23
661.02	651.35
661.36	646.88
661.70	642.22
662.05	637.58
662.39	633.40
662.73	629.22
663.07	625.07
663.41	620.90
663.75	616.55
664.09	611.87
664.43	607.47
664.77	603.38
665.11	599.21
665.45	594.95
665.79	590.74
666.13	586.64
666.47	582.60
666.81	578.74
667.15	574.80
667.49	571.17
667.83	567.41
668.17	563.75
668.51	560.15
668.85	556.51
669.19	553.04
669.53	549.25
669.87	545.36
670.21	541.70
670.55	538.01
670.89	534.63
671.23	531.47
671.57	528.18
671.91	524.72
672.25	521.13
672.58	517.77
672.92	514.37
673.26	511.18
673.60	508.08
673.94	504.85
674.28	501.62
674.62	498.55
674.96	495.58
675.30	492.54
675.64	489.41
675.97	486.35
676.31	483.38
676.65	480.54
676.99	478.03
677.33	475.25
677.67	472.39
678.01	469.23
678.34	466.33
678.68	463.40
679.02	460.53
679.36	457.73
679.70	455.12
680.04	452.44
680.37	449.61
680.71	446.89
681.05	444.21
681.39	441.49
681.73	438.81
682.06	436.28
682.40	433.89
682.74	431.40
683.08	428.98
683.42	426.44
683.75	423.91
684.09	421.25
684.43	418.87
684.77	416.41
685.10	414.11
685.44	411.66
685.78	409.29
686.12	407.19
686.45	405.01
686.79	402.66
687.13	400.60
687.46	398.47
687.80	396.30
688.14	394.08
688.48	392.07
688.81	389.85
689.15	387.71
689.49	385.49
689.82	383.33
690.16	381.02
690.50	378.78
690.83	376.62
691.17	374.51
691.51	372.33
691.84	370.39
692.18	368.45
692.52	366.60
692.85	364.87
693.19	362.95
693.52	361.10
693.86	359.23
694.20	357.37
694.53	355.64
694.87	353.82
695.21	352.02
695.54	350.14
695.88	348.39
696.21	346.50
696.55	344.78
696.88	343.19
697.22	341.63
697.56	340.17
697.89	338.79
698.23	337.24
698.56	335.67
698.90	334.24
699.23	332.66
699.57	331.12
699.90	329.50
700.24	327.87
700.58	326.32
700.91	324.90
701.25	323.51
701.58	322.09
701.92	320.75
702.25	319.50
702.59	318.21
702.92	316.96
703.26	315.71
703.59	314.47
703.93	313.33
704.26	312.06
704.60	310.74
704.93	309.46
705.26	308.27
705.60	307.15
705.93	305.83
706.27	304.72
706.60	303.62
706.94	302.67
707.27	301.58
707.61	300.49
707.94	299.32
708.27	298.16
708.61	297.07
708.94	295.87
709.28	294.72
709.61	293.56
709.94	292.59
710.28	291.61
710.61	290.61
710.95	289.45
711.28	288.59
711.61	287.63
711.95	286.62
712.28	285.58
712.61	284.60
712.95	283.76
713.28	282.93
713.61	282.05
713.95	281.00
714.28	280.18
714.61	279.25
714.95	278.50
715.28	277.52
715.61	276.52
715.95	275.72
716.28	274.84
716.61	274.14
716.95	273.22
717.28	272.43
717.61	271.61
717.94	270.80
718.28	269.92
718.61	269.24
718.94	268.49
719.27	267.85
719.61	267.30
719.94	266.61
720.27	265.80
720.60	265.06
720.94	264.35
721.27	263.64
721.60	263.11
721.93	262.44
722.27	261.93
722.60	261.44
722.93	260.88
723.26	260.33
723.59	259.70
723.93	259.19
724.26	258.56
724.59	258.03
724.92	257.55
725.25	257.15
725.59	256.61
725.92	256.15
726.25	255.65
726.58	255.02
726.91	254.51
727.24	254.14
727.57	253.66
727.91	253.18
728.24	252.72
728.57	252.24
728.90	251.82
729.23	251.31
729.56	251.04
729.89	250.54
730.22	250.14
730.55	249.69
730.89	249.21
731.22	248.90
731.55	248.46
731.88	248.01
732.21	247.49
732.54	247.07
732.87	246.59
733.20	246.17
733.53	245.76
733.86	245.36
734.19	244.87
734.52	244.50
734.85	244.37
735.18	244.04
735.51	243.74
735.84	243.35
736.17	242.99
736.50	242.41
736.83	242.33
737.16	241.94
737.49	241.65
737.82	241.28
738.15	240.85
738.48	240.52
738.81	240.14
739.14	239.81
739.47	239.45
739.80	239.07
740.13	238.70
740.46	238.33
740.79	238.00
741.12	237.67
741.45	237.36
741.78	236.94
742.11	236.59
742.44	236.28
742.77	236.05
743.10	235.79
743.43	235.50
743.75	234.93
744.08	234.97
744.41	234.66
744.74	234.45
745.07	234.17
745.40	233.93
745.73	233.78
746.06	233.55
746.39	233.28
746.71	233.00
747.04	232.79
747.37	232.63
747.70	232.40
748.03	232.15
748.36	231.91
748.68	231.58
749.01	231.29
749.34	230.95
749.67	230.68
750.00	230.43
750.33	230.37
750.65	230.21
750.98	229.64
751.31	229.47
751.64	229.27
751.97	229.19
752.29	228.90
752.62	228.58
752.95	228.30
753.28	228.07
753.60	227.90
753.93	227.75
754.26	227.50
754.59	227.23
754.91	227.07
755.24	226.84
755.57	226.63
755.90	226.43
756.22	226.25
756.55	226.02
756.88	225.85
757.20	225.48
757.53	225.20
757.86	225.07
758.19	224.78
758.51	224.63
758.84	224.31
759.17	224.15
759.49	224.12
759.82	224.06
760.15	223.87
760.47	223.69
760.80	223.45
761.13	223.35
761.45	223.15
761.78	222.95
762.11	222.87
762.43	222.75
762.76	222.64
763.08	222.52
763.41	222.45
763.74	222.24
764.06	222.09
764.39	222.00
764.71	221.87
765.04	221.77
765.37	221.55
765.69	221.47
766.02	221.36
766.34	221.09
766.67	220.88
767.00	220.86
767.32	220.81
767.65	220.80
767.97	220.67
768.30	220.56
768.62	220.47
768.95	220.35
769.27	220.32
769.60	220.26
769.92	220.19
770.25	220.03
770.57	219.93
770.90	219.83
771.22	219.75
771.55	219.62
771.87	219.56
772.20	219.42
772.52	219.47
772.85	219.52
773.17	219.45
773.50	219.41
773.82	219.31
774.15	219.13
774.47	218.96
774.80	218.87
775.12	218.85
775.45	218.77
775.77	218.68
776.09	218.48
776.42	218.36
776.74	218.30
777.07	218.18
777.39	218.07
777.72	218.03
778.04	217.94
778.36	217.90
778.69	217.86
779.01	217.83
779.33	217.62
779.66	217.39
779.98	217.31
780.31	217.14
780.63	217.11
780.95	217.13
781.28	217.00
781.60	216.97
781.92	216.85
782.25	216.82
782.57	216.73
782.89	216.67
783.22	216.62
783.54	216.50
783.86	216.50
784.19	216.50
784.51	216.55
784.83	216.56
785.16	216.49
785.48	216.46
785.80	216.47
786.12	216.39
786.45	216.37
786.77	216.39
