SpectraSuite Data File
++++++++++++++++++++++++++++++++++++
Date: Mon Feb 25 17:36:14 EST 2013
User: group
Dark Spectrum Present: No
Reference Spectrum Present: No
Number of Sampled Component Spectra: 1
Spectrometers: USB2E7196
Integration Time (usec): 52000 (USB2E7196)
Spectra Averaged: 20 (USB2E7196)
Boxcar Smoothing: 10 (USB2E7196)
Correct for Electrical Dark: No (USB2E7196)
Strobe/Lamp Enabled: No (USB2E7196)
Correct for Detector Non-linearity: No (USB2E7196)
Correct for Stray Light: No (USB2E7196)
Number of Pixels in Processed Spectrum: 2048
>>>>>Begin Processed Spectral Data<<<<<
339.09	0.00
339.48	199.60
339.86	199.55
340.24	202.75
340.63	202.60
341.01	206.80
341.39	206.75
341.78	208.40
342.16	208.95
342.54	207.75
342.93	198.29
343.31	208.35
343.69	208.90
344.07	209.40
344.46	209.75
344.84	210.24
345.22	210.54
345.60	210.87
345.99	211.10
346.37	211.34
346.75	211.63
347.13	211.87
347.52	212.06
347.90	212.21
348.28	212.31
348.66	212.55
349.05	212.57
349.43	212.77
349.81	212.89
350.19	212.95
350.57	213.11
350.96	213.39
351.34	213.59
351.72	213.78
352.10	213.96
352.48	214.21
352.87	214.30
353.25	214.37
353.63	214.48
354.01	214.61
354.39	214.64
354.77	214.73
355.15	214.83
355.54	214.86
355.92	214.88
356.30	214.97
356.68	215.06
357.06	215.18
357.44	215.21
357.82	215.30
358.20	215.45
358.58	215.57
358.97	215.53
359.35	215.51
359.73	215.55
360.11	215.64
360.49	215.62
360.87	215.65
361.25	215.69
361.63	215.78
362.01	215.85
362.39	215.96
362.77	216.01
363.15	216.00
363.53	216.06
363.91	216.15
364.29	216.19
364.67	216.13
365.05	216.08
365.43	216.12
365.81	216.17
366.19	216.24
366.57	216.24
366.95	216.24
367.33	216.26
367.71	216.27
368.09	216.26
368.47	216.32
368.85	216.30
369.23	216.33
369.61	216.16
369.99	216.13
370.37	216.05
370.75	216.11
371.13	216.08
371.51	216.05
371.89	216.03
372.27	216.05
372.65	216.07
373.03	216.05
373.41	215.97
373.78	215.95
374.16	215.81
374.54	215.71
374.92	215.71
375.30	215.68
375.68	215.63
376.06	215.56
376.44	215.49
376.82	215.49
377.19	215.43
377.57	215.43
377.95	215.36
378.33	215.35
378.71	215.14
379.09	215.14
379.47	215.12
379.84	215.10
380.22	215.04
380.60	214.93
380.98	214.90
381.36	214.89
381.73	214.79
382.11	214.78
382.49	214.80
382.87	214.68
383.25	214.71
383.62	214.91
384.00	214.91
384.38	214.90
384.76	214.95
385.13	215.01
385.51	215.05
385.89	215.03
386.27	214.97
386.64	215.01
387.02	214.99
387.40	214.94
387.78	214.88
388.15	214.89
388.53	214.84
388.91	214.87
389.29	214.86
389.66	214.94
390.04	214.97
390.42	214.98
390.79	215.07
391.17	215.02
391.55	214.86
391.92	214.94
392.30	215.00
392.68	214.94
393.05	214.99
393.43	214.97
393.81	215.01
394.18	215.10
394.56	215.18
394.94	215.30
395.31	215.38
395.69	215.51
396.06	215.53
396.44	215.68
396.82	215.78
397.19	215.97
397.57	215.99
397.95	216.17
398.32	216.30
398.70	216.39
399.07	216.68
399.45	216.74
399.82	216.92
400.20	217.12
400.58	217.46
400.95	217.65
401.33	218.00
401.70	218.38
402.08	218.72
402.45	219.09
402.83	219.46
403.20	219.88
403.58	220.32
403.95	220.95
404.33	221.48
404.71	221.97
405.08	222.67
405.46	223.51
405.83	224.22
406.21	225.01
406.58	226.01
406.96	226.94
407.33	228.03
407.70	229.20
408.08	230.54
408.45	231.86
408.83	233.30
409.20	234.71
409.58	236.20
409.95	237.98
410.33	239.92
410.70	241.85
411.08	243.98
411.45	246.21
411.82	248.57
412.20	251.20
412.57	254.21
412.95	257.11
413.32	260.24
413.69	263.70
414.07	267.41
414.44	271.34
414.82	275.33
415.19	279.98
415.56	284.87
415.94	290.10
416.31	295.79
416.68	301.46
417.06	307.90
417.43	314.03
417.81	321.24
418.18	328.52
418.55	336.58
418.93	345.08
419.30	353.84
419.67	363.00
420.04	372.66
420.42	382.96
420.79	394.15
421.16	405.94
421.54	417.62
421.91	430.27
422.28	443.35
422.66	457.31
423.03	470.63
423.40	484.75
423.77	500.06
424.15	515.70
424.52	532.05
424.89	549.88
425.26	567.49
425.64	584.16
426.01	602.70
426.38	621.94
426.75	641.23
427.13	661.53
427.50	683.28
427.87	705.84
428.24	728.45
428.61	750.44
428.99	773.64
429.36	799.92
429.73	825.13
430.10	850.54
430.47	876.81
430.85	904.71
431.22	933.69
431.59	963.90
431.96	993.60
432.33	1026.58
432.70	1058.44
433.08	1095.65
433.45	1130.66
433.82	1165.61
434.19	1204.50
434.56	1242.74
434.93	1279.99
435.30	1316.86
435.68	1357.68
436.05	1398.53
436.42	1439.23
436.79	1477.01
437.16	1517.55
437.53	1560.72
437.90	1603.13
438.27	1644.69
438.64	1688.49
439.01	1729.39
439.38	1766.73
439.75	1802.31
440.13	1842.25
440.50	1880.54
440.87	1912.47
441.24	1946.29
441.61	1982.68
441.98	2010.53
442.35	2042.67
442.72	2074.54
443.09	2105.23
443.46	2125.73
443.83	2140.57
444.20	2154.37
444.57	2172.74
444.94	2182.85
445.31	2193.10
445.68	2202.47
446.05	2209.31
446.42	2208.96
446.79	2207.34
447.16	2205.25
447.53	2204.37
447.90	2192.76
448.27	2181.00
448.64	2162.94
449.01	2149.93
449.37	2125.57
449.74	2102.08
450.11	2072.47
450.48	2041.48
450.85	2010.03
451.22	1982.44
451.59	1955.81
451.96	1930.32
452.33	1895.21
452.70	1863.97
453.07	1826.12
453.43	1787.95
453.80	1750.72
454.17	1714.43
454.54	1680.64
454.91	1643.87
455.28	1608.28
455.65	1575.08
456.02	1539.56
456.38	1510.76
456.75	1474.67
457.12	1444.85
457.49	1415.27
457.86	1387.57
458.23	1362.10
458.59	1334.39
458.96	1306.50
459.33	1282.04
459.70	1257.07
460.07	1237.46
460.43	1214.79
460.80	1193.20
461.17	1174.60
461.54	1155.05
461.91	1136.42
462.27	1117.33
462.64	1101.43
463.01	1083.38
463.38	1065.59
463.74	1050.00
464.11	1035.12
464.48	1022.07
464.85	1007.56
465.21	996.19
465.58	984.00
465.95	969.99
466.32	957.98
466.68	946.36
467.05	934.40
467.42	922.79
467.78	910.57
468.15	899.05
468.52	890.24
468.88	879.29
469.25	869.26
469.62	861.09
469.98	852.56
470.35	844.45
470.72	837.04
471.08	829.07
471.45	821.94
471.82	814.40
472.18	806.64
472.55	801.00
472.92	794.30
473.28	788.61
473.65	783.16
474.02	777.74
474.38	773.07
474.75	769.25
475.11	764.97
475.48	761.53
475.85	758.62
476.21	755.94
476.58	753.57
476.94	751.87
477.31	749.81
477.67	747.86
478.04	746.41
478.41	745.41
478.77	744.70
479.14	743.96
479.50	743.90
479.87	744.55
480.23	745.28
480.60	745.45
480.96	745.74
481.33	747.13
481.69	748.73
482.06	750.17
482.42	751.10
482.79	752.73
483.15	755.62
483.52	759.11
483.88	762.27
484.25	765.46
484.61	768.60
484.98	772.29
485.34	776.59
485.71	781.04
486.07	785.94
486.44	791.29
486.80	796.75
487.17	802.68
487.53	809.09
487.90	815.77
488.26	823.29
488.62	831.20
488.99	839.08
489.35	847.16
489.72	856.32
490.08	866.45
490.44	876.31
490.81	886.31
491.17	895.90
491.54	906.70
491.90	917.44
492.26	929.12
492.63	941.22
492.99	953.77
493.36	966.42
493.72	980.22
494.08	993.89
494.45	1008.64
494.81	1023.81
495.17	1039.43
495.54	1055.56
495.90	1072.60
496.26	1089.70
496.63	1107.29
496.99	1125.23
497.35	1143.26
497.72	1161.47
498.08	1180.40
498.44	1199.36
498.80	1220.01
499.17	1240.22
499.53	1261.15
499.89	1282.58
500.26	1303.92
500.62	1324.96
500.98	1347.71
501.34	1370.02
501.71	1393.04
502.07	1416.31
502.43	1439.92
502.79	1463.21
503.16	1486.86
503.52	1510.30
503.88	1533.66
504.24	1557.34
504.60	1581.66
504.97	1606.30
505.33	1631.15
505.69	1656.87
506.05	1682.26
506.41	1706.93
506.78	1731.82
507.14	1756.73
507.50	1782.02
507.86	1807.45
508.22	1833.58
508.59	1858.59
508.95	1884.10
509.31	1909.65
509.67	1935.09
510.03	1960.60
510.39	1986.97
510.75	2012.61
511.12	2037.50
511.48	2062.63
511.84	2087.74
512.20	2112.23
512.56	2137.07
512.92	2161.76
513.28	2186.16
513.64	2210.53
514.00	2234.21
514.37	2258.16
514.73	2282.39
515.09	2305.13
515.45	2328.09
515.81	2351.04
516.17	2374.00
516.53	2395.95
516.89	2417.43
517.25	2437.94
517.61	2457.95
517.97	2477.29
518.33	2496.31
518.69	2516.17
519.05	2536.25
519.41	2556.05
519.77	2575.65
520.13	2594.17
520.49	2611.88
520.85	2629.44
521.21	2646.79
521.57	2665.13
521.93	2682.06
522.29	2699.30
522.65	2716.49
523.01	2733.11
523.37	2748.86
523.73	2764.93
524.09	2780.00
524.45	2795.06
524.81	2809.90
525.17	2825.43
525.53	2840.81
525.89	2856.27
526.25	2871.34
526.61	2883.89
526.97	2896.72
527.33	2909.46
527.68	2923.07
528.04	2936.13
528.40	2948.15
528.76	2960.68
529.12	2971.98
529.48	2983.68
529.84	2993.30
530.20	3003.80
530.56	3014.50
530.91	3025.50
531.27	3035.63
531.63	3046.75
531.99	3056.74
532.35	3066.58
532.71	3075.84
533.07	3086.29
533.42	3095.51
533.78	3105.00
534.14	3114.81
534.50	3123.29
534.86	3132.70
535.21	3139.14
535.57	3147.77
535.93	3155.40
536.29	3162.10
536.65	3170.36
537.00	3176.74
537.36	3184.56
537.72	3191.34
538.08	3198.07
538.44	3204.12
538.79	3210.04
539.15	3216.30
539.51	3223.05
539.87	3230.34
540.22	3236.54
540.58	3242.18
540.94	3247.91
541.29	3252.46
541.65	3255.42
542.01	3259.49
542.37	3262.61
542.72	3268.02
543.08	3271.01
543.44	3275.35
543.79	3278.44
544.15	3280.15
544.51	3283.97
544.87	3287.26
545.22	3289.61
545.58	3290.79
545.94	3292.10
546.29	3293.28
546.65	3293.44
547.01	3293.56
547.36	3294.33
547.72	3294.83
548.07	3293.69
548.43	3292.90
548.79	3290.99
549.14	3291.81
549.50	3292.49
549.86	3293.14
550.21	3291.85
550.57	3291.62
550.92	3289.83
551.28	3288.45
551.64	3287.37
551.99	3286.65
552.35	3285.75
552.70	3285.31
553.06	3284.71
553.41	3284.14
553.77	3283.09
554.13	3282.06
554.48	3282.38
554.84	3281.06
555.19	3279.22
555.55	3278.75
555.90	3278.21
556.26	3277.74
556.61	3276.19
556.97	3272.99
557.32	3269.24
557.68	3266.68
558.03	3263.32
558.39	3260.75
558.74	3260.59
559.10	3259.50
559.45	3257.62
559.81	3255.53
560.16	3252.66
560.52	3251.22
560.87	3249.07
561.23	3245.52
561.58	3241.94
561.94	3236.74
562.29	3231.88
562.64	3228.03
563.00	3223.42
563.35	3218.07
563.71	3214.55
564.06	3211.62
564.42	3208.64
564.77	3205.88
565.12	3202.43
565.48	3199.22
565.83	3196.01
566.19	3192.26
566.54	3188.51
566.89	3183.17
567.25	3177.72
567.60	3174.01
567.96	3168.42
568.31	3163.15
568.66	3159.20
569.02	3155.85
569.37	3152.62
569.72	3148.96
570.08	3144.19
570.43	3138.34
570.78	3134.21
571.14	3129.25
571.49	3123.52
571.84	3118.72
572.20	3112.71
572.55	3108.05
572.90	3102.50
573.26	3096.49
573.61	3088.75
573.96	3081.02
574.31	3073.91
574.67	3067.30
575.02	3059.18
575.37	3051.42
575.72	3044.09
576.08	3037.01
576.43	3028.45
576.78	3019.75
577.13	3011.82
577.49	3004.63
577.84	2997.55
578.19	2989.34
578.54	2981.00
578.90	2973.00
579.25	2963.41
579.60	2954.26
579.95	2944.35
580.30	2935.35
580.66	2925.99
581.01	2916.46
581.36	2906.23
581.71	2897.60
582.06	2888.35
582.42	2880.60
582.77	2871.21
583.12	2861.31
583.47	2851.93
583.82	2842.50
584.17	2832.90
584.53	2823.34
584.88	2813.74
585.23	2803.54
585.58	2793.92
585.93	2783.68
586.28	2774.66
586.63	2765.85
586.98	2757.46
587.34	2748.65
587.69	2738.60
588.04	2729.39
588.39	2720.71
588.74	2711.37
589.09	2702.27
589.44	2691.89
589.79	2680.95
590.14	2671.36
590.49	2660.69
590.84	2650.35
591.19	2641.25
591.54	2630.76
591.89	2619.36
592.25	2608.69
592.60	2597.80
592.95	2586.88
593.30	2576.71
593.65	2565.97
594.00	2555.97
594.35	2546.29
594.70	2535.81
595.05	2525.91
595.40	2515.04
595.75	2503.71
596.10	2493.47
596.45	2482.36
596.80	2472.79
597.15	2462.45
597.50	2451.96
597.85	2442.73
598.19	2431.14
598.54	2419.48
598.89	2408.99
599.24	2399.31
599.59	2388.66
599.94	2379.35
600.29	2369.18
600.64	2358.47
600.99	2346.39
601.34	2335.82
601.69	2323.66
602.04	2312.35
602.39	2301.85
602.74	2292.96
603.08	2284.21
603.43	2275.63
603.78	2265.64
604.13	2255.23
604.48	2244.41
604.83	2235.19
605.18	2225.20
605.53	2216.06
605.87	2206.95
606.22	2197.87
606.57	2187.50
606.92	2176.45
607.27	2165.64
607.62	2155.40
607.96	2145.73
608.31	2137.10
608.66	2126.34
609.01	2116.57
609.36	2106.41
609.70	2095.85
610.05	2083.93
610.40	2072.00
610.75	2059.64
611.10	2048.81
611.44	2037.06
611.79	2026.71
612.14	2015.13
612.49	2003.04
612.83	1991.57
613.18	1979.33
613.53	1967.74
613.88	1955.85
614.22	1944.94
614.57	1933.36
614.92	1922.12
615.27	1910.87
615.61	1898.95
615.96	1887.72
616.31	1876.66
616.65	1866.09
617.00	1855.39
617.35	1844.74
617.70	1833.71
618.04	1822.53
618.39	1810.82
618.74	1800.06
619.08	1788.34
619.43	1776.99
619.78	1766.92
620.12	1757.00
620.47	1747.36
620.82	1736.95
621.16	1726.87
621.51	1716.75
621.85	1706.58
622.20	1695.80
622.55	1684.33
622.89	1673.82
623.24	1663.19
623.59	1652.60
623.93	1641.92
624.28	1631.36
624.62	1621.04
624.97	1611.02
625.32	1601.62
625.66	1592.41
626.01	1583.16
626.35	1574.79
626.70	1566.08
627.04	1556.47
627.39	1546.06
627.73	1536.01
628.08	1526.65
628.43	1517.52
628.77	1508.68
629.12	1499.74
629.46	1490.69
629.81	1481.45
630.15	1471.68
630.50	1462.46
630.84	1452.67
631.19	1442.78
631.53	1433.43
631.88	1423.78
632.22	1414.80
632.57	1406.13
632.91	1397.05
633.26	1388.01
633.60	1378.38
633.95	1369.31
634.29	1360.58
634.64	1352.65
634.98	1343.66
635.32	1335.01
635.67	1326.91
636.01	1318.24
636.36	1309.28
636.70	1300.75
637.05	1292.90
637.39	1285.18
637.73	1277.20
638.08	1270.47
638.42	1263.48
638.77	1255.88
639.11	1248.42
639.45	1240.34
639.80	1232.02
640.14	1224.28
640.49	1216.22
640.83	1207.97
641.17	1199.85
641.52	1191.98
641.86	1183.69
642.20	1175.99
642.55	1167.54
642.89	1158.94
643.23	1150.65
643.58	1143.21
643.92	1135.13
644.26	1127.15
644.61	1119.22
644.95	1111.06
645.29	1102.63
645.64	1094.54
645.98	1086.61
646.32	1078.91
646.66	1071.40
647.01	1063.93
647.35	1056.15
647.69	1048.48
648.04	1041.41
648.38	1033.91
648.72	1026.50
649.06	1019.18
649.41	1011.59
649.75	1003.84
650.09	996.97
650.43	990.29
650.78	983.12
651.12	976.21
651.46	969.47
651.80	962.75
652.14	956.39
652.49	949.37
652.83	942.35
653.17	935.03
653.51	928.01
653.85	921.60
654.20	915.03
654.54	908.33
654.88	901.61
655.22	894.60
655.56	887.37
655.90	879.88
656.25	872.68
656.59	866.36
656.93	860.17
657.27	853.65
657.61	846.73
657.95	840.28
658.29	834.14
658.64	827.98
658.98	821.98
659.32	815.77
659.66	810.02
660.00	804.30
660.34	799.12
660.68	793.66
661.02	787.39
661.36	781.58
661.70	775.99
662.05	770.79
662.39	765.68
662.73	760.78
663.07	756.23
663.41	751.74
663.75	746.67
664.09	741.81
664.43	736.61
664.77	731.62
665.11	726.72
665.45	721.99
665.79	717.16
666.13	712.32
666.47	707.73
666.81	702.93
667.15	698.09
667.49	693.38
667.83	688.61
668.17	684.28
668.51	680.07
668.85	675.60
669.19	671.11
669.53	666.54
669.87	661.86
670.21	657.38
670.55	652.66
670.89	648.32
671.23	644.21
671.57	640.02
671.91	635.99
672.25	631.80
672.58	627.52
672.92	623.28
673.26	619.21
673.60	615.21
673.94	611.40
674.28	607.90
674.62	604.04
674.96	600.11
675.30	596.54
675.64	592.67
675.97	589.26
676.31	585.99
676.65	582.46
676.99	579.52
677.33	576.29
677.67	573.12
678.01	569.78
678.34	566.17
678.68	562.86
679.02	559.46
679.36	556.15
679.70	552.71
680.04	549.44
680.37	546.21
680.71	542.88
681.05	539.72
681.39	536.49
681.73	533.38
682.06	530.55
682.40	527.24
682.74	524.05
683.08	520.74
683.42	517.35
683.75	514.42
684.09	511.09
684.43	507.73
684.77	504.43
685.10	501.21
685.44	498.07
685.78	494.94
686.12	491.86
686.45	488.86
686.79	486.20
687.13	483.41
687.46	480.61
687.80	477.71
688.14	474.85
688.48	471.91
688.81	468.94
689.15	466.12
689.49	463.31
689.82	460.45
690.16	457.45
690.50	454.59
690.83	451.71
691.17	448.98
691.51	446.33
691.84	443.83
692.18	441.35
692.52	439.08
692.85	436.67
693.19	434.31
693.52	431.86
693.86	429.14
694.20	426.72
694.53	424.10
694.87	421.62
695.21	419.02
695.54	416.66
695.88	414.23
696.21	411.89
696.55	409.75
696.88	407.61
697.22	405.67
697.56	403.66
697.89	401.76
698.23	399.68
698.56	397.78
698.90	395.82
699.23	393.78
699.57	391.60
699.90	389.62
700.24	387.50
700.58	385.47
700.91	383.64
701.25	381.68
701.58	379.89
701.92	378.10
702.25	376.42
702.59	374.62
702.92	373.03
703.26	371.27
703.59	369.55
703.93	368.03
704.26	366.39
704.60	364.71
704.93	362.82
705.26	361.19
705.60	359.50
705.93	357.84
706.27	356.25
706.60	354.77
706.94	353.25
707.27	351.68
707.61	350.07
707.94	348.49
708.27	346.83
708.61	345.33
708.94	343.80
709.28	342.20
709.61	340.58
709.94	338.98
710.28	337.39
710.61	335.91
710.95	334.16
711.28	332.67
711.61	331.22
711.95	329.83
712.28	328.48
712.61	327.20
712.95	325.94
713.28	324.70
713.61	323.41
713.95	322.08
714.28	320.92
714.61	319.82
714.95	318.60
715.28	317.50
715.61	316.23
715.95	314.96
716.28	313.76
716.61	312.60
716.95	311.47
717.28	310.42
717.61	309.23
717.94	308.21
718.28	306.94
718.61	305.89
718.94	304.85
719.27	303.76
719.61	302.63
719.94	301.53
720.27	300.35
720.60	299.38
720.94	298.42
721.27	297.50
721.60	296.58
721.93	295.73
722.27	294.76
722.60	293.88
722.93	293.06
723.26	292.36
723.59	291.53
723.93	290.68
724.26	289.88
724.59	289.06
724.92	288.25
725.25	287.59
725.59	286.78
725.92	286.12
726.25	285.43
726.58	284.70
726.91	283.95
727.24	283.23
727.57	282.33
727.91	281.50
728.24	280.74
728.57	279.99
728.90	279.28
729.23	278.52
729.56	277.90
729.89	277.18
730.22	276.38
730.55	275.64
730.89	274.99
731.22	274.24
731.55	273.63
731.88	272.93
732.21	272.24
732.54	271.53
732.87	270.78
733.20	270.04
733.53	269.42
733.86	268.75
734.19	268.13
734.52	267.63
734.85	267.27
735.18	266.67
735.51	266.16
735.84	265.61
736.17	265.09
736.50	264.43
736.83	264.12
737.16	263.54
737.49	263.09
737.82	262.54
738.15	262.03
738.48	261.45
738.81	260.91
739.14	260.36
739.47	259.84
739.80	259.36
740.13	258.82
740.46	258.20
740.79	257.76
741.12	257.28
741.45	256.78
741.78	256.05
742.11	255.63
742.44	255.12
742.77	254.59
743.10	254.14
743.43	253.62
743.75	252.88
744.08	252.61
744.41	252.10
744.74	251.64
745.07	251.20
745.40	250.72
745.73	250.32
746.06	249.95
746.39	249.54
746.71	249.08
747.04	248.70
747.37	248.36
747.70	247.90
748.03	247.50
748.36	247.09
748.68	246.72
749.01	246.25
749.34	245.78
749.67	245.36
750.00	244.95
750.33	244.69
750.65	244.33
750.98	243.77
751.31	243.36
751.64	242.90
751.97	242.57
752.29	242.24
752.62	241.90
752.95	241.53
753.28	241.16
753.60	240.78
753.93	240.48
754.26	240.18
754.59	239.89
754.91	239.55
755.24	239.24
755.57	238.97
755.90	238.69
756.22	238.36
756.55	238.03
756.88	237.68
757.20	237.34
757.53	237.04
757.86	236.73
758.19	236.47
758.51	236.23
758.84	235.85
759.17	235.53
759.49	235.23
759.82	235.00
760.15	234.81
760.47	234.63
760.80	234.30
761.13	234.03
761.45	233.68
761.78	233.42
762.11	233.11
762.43	232.83
762.76	232.54
763.08	232.36
763.41	232.18
763.74	231.92
764.06	231.64
764.39	231.35
764.71	231.10
765.04	230.82
765.37	230.66
765.69	230.39
766.02	230.21
766.34	230.00
766.67	229.69
767.00	229.38
767.32	229.26
767.65	229.16
767.97	228.92
768.30	228.70
768.62	228.49
768.95	228.32
769.27	228.13
769.60	228.05
769.92	227.85
770.25	227.57
770.57	227.46
770.90	227.31
771.22	227.17
771.55	227.05
771.87	226.96
772.20	226.72
772.52	226.77
772.85	226.78
773.17	226.64
773.50	226.42
773.82	226.27
774.15	225.99
774.47	225.74
774.80	225.51
775.12	225.42
775.45	225.26
775.77	225.11
776.09	224.99
776.42	224.76
776.74	224.67
777.07	224.54
777.39	224.42
777.72	224.20
778.04	224.05
778.36	223.85
778.69	223.72
779.01	223.67
779.33	223.40
779.66	223.09
779.98	222.92
780.31	222.86
780.63	222.78
780.95	222.69
781.28	222.56
781.60	222.51
781.92	222.44
782.25	222.39
782.57	222.27
782.89	222.12
