SpectraSuite Data File
++++++++++++++++++++++++++++++++++++
Date: Mon Feb 25 17:32:46 EST 2013
User: group
Dark Spectrum Present: No
Reference Spectrum Present: No
Number of Sampled Component Spectra: 1
Spectrometers: USB2E7196
Integration Time (usec): 52000 (USB2E7196)
Spectra Averaged: 20 (USB2E7196)
Boxcar Smoothing: 10 (USB2E7196)
Correct for Electrical Dark: No (USB2E7196)
Strobe/Lamp Enabled: No (USB2E7196)
Correct for Detector Non-linearity: No (USB2E7196)
Correct for Stray Light: No (USB2E7196)
Number of Pixels in Processed Spectrum: 2048
>>>>>Begin Processed Spectral Data<<<<<
339.09	0.00
339.48	198.80
339.86	199.60
340.24	200.55
340.63	202.60
341.01	207.40
341.39	206.05
341.78	205.80
342.16	208.90
342.54	208.65
342.93	197.98
343.31	207.98
343.69	208.53
344.07	209.00
344.46	209.51
344.84	209.95
345.22	210.11
345.60	210.34
345.99	210.57
346.37	210.70
346.75	210.82
347.13	210.86
347.52	210.90
347.90	211.06
348.28	211.11
348.66	211.22
349.05	211.28
349.43	211.38
349.81	211.50
350.19	211.51
350.57	211.51
350.96	211.65
351.34	211.70
351.72	211.76
352.10	211.91
352.48	211.98
352.87	212.10
353.25	212.19
353.63	212.31
354.01	212.48
354.39	212.56
354.77	212.64
355.15	212.74
355.54	212.76
355.92	212.70
356.30	212.85
356.68	213.03
357.06	213.08
357.44	213.07
357.82	213.15
358.20	213.26
358.58	213.38
358.97	213.45
359.35	213.58
359.73	213.72
360.11	213.80
360.49	213.90
360.87	213.90
361.25	213.96
361.63	214.05
362.01	214.09
362.39	214.12
362.77	214.24
363.15	214.35
363.53	214.44
363.91	214.53
364.29	214.52
364.67	214.35
365.05	214.40
365.43	214.49
365.81	214.54
366.19	214.61
366.57	214.74
366.95	214.74
367.33	214.70
367.71	214.76
368.09	214.75
368.47	214.71
368.85	214.68
369.23	214.79
369.61	214.72
369.99	214.71
370.37	214.73
370.75	214.72
371.13	214.61
371.51	214.49
371.89	214.53
372.27	214.45
372.65	214.44
373.03	214.39
373.41	214.34
373.78	214.31
374.16	214.17
374.54	214.09
374.92	214.06
375.30	214.09
375.68	213.95
376.06	213.95
376.44	213.89
376.82	213.84
377.19	213.73
377.57	213.72
377.95	213.65
378.33	213.57
378.71	213.43
379.09	213.39
379.47	213.42
379.84	213.29
380.22	213.29
380.60	213.23
380.98	213.18
381.36	213.10
381.73	212.90
382.11	212.91
382.49	212.83
382.87	212.72
383.25	212.59
383.62	212.77
384.00	212.67
384.38	212.73
384.76	212.75
385.13	212.77
385.51	212.73
385.89	212.60
386.27	212.60
386.64	212.56
387.02	212.48
387.40	212.39
387.78	212.37
388.15	212.29
388.53	212.22
388.91	212.15
389.29	212.17
389.66	212.23
390.04	212.15
390.42	212.20
390.79	212.20
391.17	212.26
391.55	212.03
391.92	211.99
392.30	211.86
392.68	211.77
393.05	211.68
393.43	211.62
393.81	211.61
394.18	211.51
394.56	211.55
394.94	211.63
395.31	211.67
395.69	211.74
396.06	211.82
396.44	211.88
396.82	211.85
397.19	211.90
397.57	211.88
397.95	212.00
398.32	211.90
398.70	211.91
399.07	211.89
399.45	211.85
399.82	211.85
400.20	211.86
400.58	211.87
400.95	211.93
401.33	212.03
401.70	212.22
402.08	212.32
402.45	212.34
402.83	212.41
403.20	212.42
403.58	212.41
403.95	212.45
404.33	212.55
404.71	212.70
405.08	212.90
405.46	213.04
405.83	213.11
406.21	213.24
406.58	213.39
406.96	213.60
407.33	213.80
407.70	214.10
408.08	214.43
408.45	214.67
408.83	214.85
409.20	215.05
409.58	215.24
409.95	215.51
410.33	215.84
410.70	216.10
411.08	216.45
411.45	216.89
411.82	217.30
412.20	217.69
412.57	218.22
412.95	218.47
413.32	219.02
413.69	219.49
414.07	220.04
414.44	220.64
414.82	221.35
415.19	222.15
415.56	222.83
415.94	223.48
416.31	224.32
416.68	225.23
417.06	226.25
417.43	227.18
417.81	228.27
418.18	229.35
418.55	230.49
418.93	231.78
419.30	233.05
419.67	234.48
420.04	235.91
420.42	237.37
420.79	239.25
421.16	240.95
421.54	242.83
421.91	244.73
422.28	246.64
422.66	248.57
423.03	250.53
423.40	252.56
423.77	254.87
424.15	257.25
424.52	259.59
424.89	262.08
425.26	264.59
425.64	266.98
426.01	269.57
426.38	272.27
426.75	275.04
427.13	277.80
427.50	280.72
427.87	283.79
428.24	286.90
428.61	289.76
428.99	293.03
429.36	296.47
429.73	299.92
430.10	303.44
430.47	306.96
430.85	310.67
431.22	314.57
431.59	318.72
431.96	322.57
432.33	326.93
432.70	331.13
433.08	335.93
433.45	340.55
433.82	345.15
434.19	350.34
434.56	355.18
434.93	359.94
435.30	364.67
435.68	369.98
436.05	375.20
436.42	380.35
436.79	384.99
437.16	390.12
437.53	395.52
437.90	400.70
438.27	406.04
438.64	411.32
439.01	416.34
439.38	420.60
439.75	424.77
440.13	429.54
440.50	434.07
440.87	437.82
441.24	441.56
441.61	445.68
441.98	448.70
442.35	452.45
442.72	456.17
443.09	459.75
443.46	461.78
443.83	463.04
444.20	464.27
444.57	466.01
444.94	466.71
445.31	467.27
445.68	468.08
446.05	468.18
446.42	467.59
446.79	466.81
447.16	465.98
447.53	465.38
447.90	463.22
448.27	461.15
448.64	458.22
449.01	456.13
449.37	452.52
449.74	449.03
450.11	444.81
450.48	440.19
450.85	435.54
451.22	431.59
451.59	427.98
451.96	424.30
452.33	419.55
452.70	415.24
453.07	410.23
453.43	404.93
453.80	399.90
454.17	395.12
454.54	390.56
454.91	385.77
455.28	381.04
455.65	376.60
456.02	372.25
456.38	368.63
456.75	364.03
457.12	360.33
457.49	356.53
457.86	352.80
458.23	349.68
458.59	346.14
458.96	342.59
459.33	339.34
459.70	336.15
460.07	333.64
460.43	330.82
460.80	328.20
461.17	325.87
461.54	323.36
461.91	320.94
462.27	318.61
462.64	316.65
463.01	314.53
463.38	312.51
463.74	310.34
464.11	308.43
464.48	306.74
464.85	304.99
465.21	303.68
465.58	302.30
465.95	300.61
466.32	299.19
466.68	297.90
467.05	296.49
467.42	295.26
467.78	293.75
468.15	292.37
468.52	291.37
468.88	290.06
469.25	288.99
469.62	288.16
469.98	287.16
470.35	286.15
470.72	285.26
471.08	284.33
471.45	283.56
471.82	282.81
472.18	282.04
472.55	281.37
472.92	280.57
473.28	279.94
473.65	279.32
474.02	278.77
474.38	278.32
474.75	278.11
475.11	277.58
475.48	277.43
475.85	277.19
476.21	276.91
476.58	276.81
476.94	276.77
477.31	276.67
477.67	276.64
478.04	276.68
478.41	276.85
478.77	277.18
479.14	277.39
479.50	277.60
479.87	277.87
480.23	278.30
480.60	278.64
480.96	279.03
481.33	279.75
481.69	280.40
482.06	281.02
482.42	281.54
482.79	282.28
483.15	283.09
483.52	284.10
483.88	285.04
484.25	286.06
484.61	287.15
484.98	288.18
485.34	289.51
485.71	290.86
486.07	292.12
486.44	293.37
486.80	294.83
487.17	296.51
487.53	298.30
487.90	299.98
488.26	302.09
488.62	304.11
488.99	306.14
489.35	308.23
489.72	310.47
490.08	312.80
490.44	315.33
490.81	318.03
491.17	320.69
491.54	323.57
491.90	326.52
492.26	329.69
492.63	333.05
492.99	336.43
493.36	340.11
493.72	344.04
494.08	348.02
494.45	352.21
494.81	356.61
495.17	361.19
495.54	366.14
495.90	371.08
496.26	376.32
496.63	381.80
496.99	387.64
497.35	393.59
497.72	399.86
498.08	406.31
498.44	412.93
498.80	420.07
499.17	427.59
499.53	435.29
499.89	443.23
500.26	451.43
500.62	459.87
500.98	468.70
501.34	477.72
501.71	487.31
502.07	497.02
502.43	507.05
502.79	517.36
503.16	527.97
503.52	538.85
503.88	550.08
504.24	561.58
504.60	573.40
504.97	585.81
505.33	598.37
505.69	611.68
506.05	625.26
506.41	638.78
506.78	652.59
507.14	666.70
507.50	681.19
507.86	696.09
508.22	711.40
508.59	726.90
508.95	742.87
509.31	759.02
509.67	775.70
510.03	792.63
510.39	810.13
510.75	827.85
511.12	845.85
511.48	864.24
511.84	882.69
512.20	901.30
512.56	920.37
512.92	939.94
513.28	959.40
513.64	978.96
514.00	999.02
514.37	1019.18
514.73	1039.87
515.09	1060.61
515.45	1081.48
515.81	1102.83
516.17	1124.06
516.53	1145.47
516.89	1166.97
517.25	1188.39
517.61	1209.77
517.97	1231.41
518.33	1253.00
518.69	1274.88
519.05	1297.04
519.41	1319.38
519.77	1341.98
520.13	1364.23
520.49	1386.25
520.85	1408.80
521.21	1431.21
521.57	1453.98
521.93	1476.25
522.29	1499.32
522.65	1521.63
523.01	1543.99
523.37	1565.76
523.73	1587.99
524.09	1610.08
524.45	1632.36
524.81	1654.70
525.17	1677.15
525.53	1699.41
525.89	1721.68
526.25	1743.41
526.61	1764.63
526.97	1786.24
527.33	1807.31
527.68	1828.71
528.04	1849.71
528.40	1870.09
528.76	1891.00
529.12	1912.07
529.48	1933.56
529.84	1953.60
530.20	1973.94
530.56	1994.62
530.91	2015.49
531.27	2035.78
531.63	2055.80
531.99	2075.66
532.35	2095.12
532.71	2114.08
533.07	2133.26
533.42	2151.55
533.78	2170.60
534.14	2188.93
534.50	2206.01
534.86	2224.22
535.21	2240.93
535.57	2258.81
535.93	2276.15
536.29	2293.07
536.65	2309.14
537.00	2324.39
537.36	2339.55
537.72	2354.88
538.08	2369.80
538.44	2384.96
538.79	2400.42
539.15	2414.97
539.51	2429.63
539.87	2444.75
540.22	2459.59
540.58	2474.57
540.94	2489.20
541.29	2502.50
541.65	2514.73
542.01	2528.15
542.37	2539.81
542.72	2551.98
543.08	2562.83
543.44	2574.72
543.79	2584.66
544.15	2595.15
544.51	2606.60
544.87	2617.82
545.22	2627.33
545.58	2635.98
545.94	2643.20
546.29	2649.72
546.65	2656.39
547.01	2662.37
547.36	2668.05
547.72	2673.16
548.07	2677.16
548.43	2680.79
548.79	2684.38
549.14	2689.06
549.50	2693.15
549.86	2697.13
550.21	2701.43
550.57	2705.55
550.92	2708.14
551.28	2710.98
551.64	2713.38
551.99	2715.53
552.35	2716.80
552.70	2719.51
553.06	2722.30
553.41	2725.33
553.77	2728.06
554.13	2730.31
554.48	2732.48
554.84	2733.71
555.19	2734.57
555.55	2735.17
555.90	2735.88
556.26	2736.37
556.61	2736.29
556.97	2735.19
557.32	2734.98
557.68	2732.85
558.03	2731.57
558.39	2730.20
558.74	2729.99
559.10	2728.54
559.45	2726.39
559.81	2725.28
560.16	2722.65
560.52	2720.05
560.87	2716.95
561.23	2713.51
561.58	2711.22
561.94	2707.90
562.29	2704.24
562.64	2701.89
563.00	2699.20
563.35	2697.21
563.71	2695.11
564.06	2693.36
564.42	2691.58
564.77	2689.04
565.12	2687.43
565.48	2683.97
565.83	2680.90
566.19	2677.35
566.54	2673.19
566.89	2669.33
567.25	2665.38
567.60	2662.04
567.96	2658.34
568.31	2654.94
568.66	2650.79
569.02	2645.83
569.37	2640.89
569.72	2637.09
570.08	2631.57
570.43	2625.85
570.78	2619.71
571.14	2613.56
571.49	2606.39
571.84	2600.38
572.20	2593.61
572.55	2587.27
572.90	2580.45
573.26	2573.25
573.61	2566.24
573.96	2559.68
574.31	2551.99
574.67	2544.14
575.02	2535.43
575.37	2526.88
575.72	2517.87
576.08	2510.52
576.43	2501.86
576.78	2493.78
577.13	2485.58
577.49	2477.60
577.84	2470.12
578.19	2462.88
578.54	2455.61
578.90	2448.79
579.25	2439.90
579.60	2430.75
579.95	2421.16
580.30	2413.17
580.66	2405.03
581.01	2395.55
581.36	2386.04
581.71	2377.83
582.06	2369.19
582.42	2361.26
582.77	2352.25
583.12	2343.33
583.47	2334.41
583.82	2326.17
584.17	2317.04
584.53	2308.03
584.88	2299.36
585.23	2290.08
585.58	2280.19
585.93	2270.20
586.28	2260.72
586.63	2251.97
586.98	2243.63
587.34	2235.58
587.69	2226.61
588.04	2217.40
588.39	2209.49
588.74	2201.14
589.09	2192.26
589.44	2182.73
589.79	2174.02
590.14	2166.14
590.49	2158.07
590.84	2149.15
591.19	2141.08
591.54	2132.46
591.89	2122.39
592.25	2112.96
592.60	2103.54
592.95	2094.29
593.30	2084.75
593.65	2075.14
594.00	2065.60
594.35	2057.51
594.70	2048.08
595.05	2039.19
595.40	2030.55
595.75	2020.96
596.10	2012.62
596.45	2004.20
596.80	1996.54
597.15	1988.43
597.50	1979.42
597.85	1970.78
598.19	1961.92
598.54	1953.20
598.89	1945.35
599.24	1938.73
599.59	1931.56
599.94	1924.71
600.29	1916.84
600.64	1909.33
600.99	1901.18
601.34	1893.92
601.69	1884.85
602.04	1876.78
602.39	1868.53
602.74	1860.97
603.08	1854.34
603.43	1846.96
603.78	1839.06
604.13	1831.15
604.48	1822.88
604.83	1815.89
605.18	1808.87
605.53	1801.55
605.87	1794.01
606.22	1786.88
606.57	1779.02
606.92	1770.93
607.27	1762.51
607.62	1755.12
607.96	1748.29
608.31	1742.23
608.66	1734.40
609.01	1726.91
609.36	1719.02
609.70	1711.39
610.05	1703.62
610.40	1695.38
610.75	1687.11
611.10	1679.12
611.44	1670.03
611.79	1661.24
612.14	1651.81
612.49	1642.14
612.83	1633.09
613.18	1623.45
613.53	1613.95
613.88	1604.23
614.22	1595.03
614.57	1585.88
614.92	1576.84
615.27	1567.38
615.61	1557.29
615.96	1548.56
616.31	1540.35
616.65	1532.74
617.00	1524.48
617.35	1515.68
617.70	1506.82
618.04	1497.46
618.39	1488.19
618.74	1479.69
619.08	1470.90
619.43	1462.61
619.78	1454.90
620.12	1447.09
620.47	1439.49
620.82	1430.89
621.16	1422.62
621.51	1414.23
621.85	1405.95
622.20	1397.36
622.55	1388.79
622.89	1380.74
623.24	1372.59
623.59	1363.80
623.93	1355.23
624.28	1347.04
624.62	1338.81
624.97	1330.72
625.32	1322.86
625.66	1315.61
626.01	1308.42
626.35	1301.32
626.70	1293.88
627.04	1286.45
627.39	1278.76
627.73	1271.21
628.08	1264.62
628.43	1257.17
628.77	1250.11
629.12	1242.75
629.46	1236.03
629.81	1228.99
630.15	1221.55
630.50	1214.19
630.84	1206.91
631.19	1199.75
631.53	1192.76
631.88	1185.19
632.22	1177.72
632.57	1171.07
632.91	1163.47
633.26	1155.91
633.60	1148.86
633.95	1141.95
634.29	1134.64
634.64	1128.00
634.98	1120.97
635.32	1113.92
635.67	1107.70
636.01	1100.98
636.36	1094.31
636.70	1087.82
637.05	1081.29
637.39	1075.40
637.73	1069.13
638.08	1063.47
638.42	1057.59
638.77	1051.06
639.11	1044.90
639.45	1038.72
639.80	1032.11
640.14	1025.83
640.49	1019.56
640.83	1013.13
641.17	1006.89
641.52	1000.95
641.86	994.35
642.20	988.03
642.55	981.23
642.89	974.60
643.23	968.31
643.58	962.43
643.92	955.80
644.26	949.55
644.61	943.23
644.95	937.14
645.29	930.78
645.64	924.00
645.98	917.91
646.32	911.96
646.66	906.00
647.01	900.12
647.35	894.34
647.69	888.14
648.04	882.20
648.38	876.20
648.72	869.99
649.06	864.02
649.41	858.07
649.75	852.22
650.09	846.41
650.43	840.35
650.78	834.07
651.12	828.25
651.46	822.47
651.80	816.33
652.14	810.19
652.49	804.21
652.83	798.51
653.17	792.41
653.51	786.60
653.85	780.76
654.20	774.90
654.54	769.17
654.88	763.81
655.22	758.02
655.56	751.96
655.90	746.21
656.25	740.52
656.59	735.03
656.93	729.90
657.27	724.77
657.61	719.49
657.95	714.34
658.29	709.09
658.64	703.89
658.98	698.80
659.32	693.43
659.66	688.38
660.00	683.09
660.34	677.97
660.68	672.83
661.02	667.78
661.36	663.11
661.70	658.15
662.05	653.44
662.39	649.15
662.73	644.88
663.07	640.55
663.41	636.18
663.75	631.63
664.09	627.00
664.43	622.13
664.77	617.77
665.11	613.42
665.45	609.20
665.79	604.78
666.13	600.50
666.47	596.31
666.81	592.09
667.15	587.97
667.49	584.14
667.83	580.23
668.17	576.33
668.51	572.50
668.85	568.81
669.19	565.16
669.53	561.13
669.87	557.06
670.21	553.05
670.55	549.11
670.89	545.72
671.23	542.27
671.57	538.90
671.91	535.20
672.25	531.60
672.58	528.00
672.92	524.74
673.26	521.48
673.60	518.35
673.94	514.84
674.28	511.52
674.62	508.26
674.96	505.00
675.30	501.88
675.64	498.54
675.97	495.37
676.31	492.15
676.65	489.23
676.99	486.75
677.33	483.84
677.67	481.02
678.01	477.84
678.34	474.80
678.68	471.96
679.02	469.11
679.36	466.29
679.70	463.55
680.04	460.62
680.37	457.63
680.71	454.80
681.05	452.31
681.39	449.73
681.73	447.13
682.06	444.62
682.40	442.06
682.74	439.53
683.08	436.83
683.42	434.20
683.75	431.63
684.09	428.86
684.43	426.38
684.77	423.82
685.10	421.29
685.44	418.70
685.78	416.15
686.12	413.84
686.45	411.73
686.79	409.43
687.13	407.37
687.46	405.13
687.80	403.01
688.14	400.62
688.48	398.46
688.81	396.25
689.15	394.08
689.49	391.82
689.82	389.65
690.16	387.42
690.50	385.25
690.83	382.98
691.17	380.69
691.51	378.58
691.84	376.54
692.18	374.62
692.52	372.76
692.85	370.78
693.19	368.85
693.52	366.67
693.86	364.63
694.20	362.64
694.53	360.88
694.87	358.86
695.21	357.00
695.54	355.03
695.88	353.13
696.21	351.24
696.55	349.54
696.88	347.83
697.22	346.10
697.56	344.55
697.89	342.93
698.23	341.30
698.56	339.71
698.90	338.31
699.23	336.74
699.57	335.20
699.90	333.58
700.24	331.99
700.58	330.38
700.91	328.92
701.25	327.39
701.58	325.96
701.92	324.68
702.25	323.33
702.59	322.02
702.92	320.69
703.26	319.35
703.59	318.09
703.93	316.90
704.26	315.83
704.60	314.49
704.93	313.25
705.26	312.06
705.60	310.87
705.93	309.50
706.27	308.33
706.60	307.18
706.94	306.21
707.27	305.02
707.61	303.94
707.94	302.89
708.27	301.64
708.61	300.48
708.94	299.31
709.28	298.18
709.61	297.07
709.94	295.95
710.28	294.85
710.61	293.87
710.95	292.59
711.28	291.48
711.61	290.39
711.95	289.40
712.28	288.40
712.61	287.34
712.95	286.39
713.28	285.38
713.61	284.38
713.95	283.35
714.28	282.55
714.61	281.65
714.95	280.61
715.28	279.73
715.61	278.73
715.95	277.80
716.28	276.89
716.61	276.08
716.95	275.16
717.28	274.46
717.61	273.53
717.94	272.91
718.28	272.06
718.61	271.39
718.94	270.65
719.27	269.97
719.61	269.21
719.94	268.49
720.27	267.78
720.60	267.07
720.94	266.43
721.27	265.75
721.60	265.16
721.93	264.57
722.27	264.03
722.60	263.56
722.93	263.02
723.26	262.54
723.59	261.84
723.93	261.42
724.26	260.76
724.59	260.12
724.92	259.54
725.25	259.13
725.59	258.55
725.92	258.00
726.25	257.47
726.58	257.02
726.91	256.58
727.24	256.10
727.57	255.64
727.91	255.05
728.24	254.61
728.57	254.17
728.90	253.72
729.23	253.22
729.56	252.84
729.89	252.35
730.22	251.81
730.55	251.40
730.89	250.85
731.22	250.40
731.55	250.04
731.88	249.61
732.21	249.09
732.54	248.62
732.87	248.17
733.20	247.65
733.53	247.25
733.86	246.76
734.19	246.29
734.52	245.88
734.85	245.65
735.18	245.19
735.51	244.87
735.84	244.55
736.17	244.23
736.50	243.66
736.83	243.58
737.16	243.25
737.49	242.91
737.82	242.54
738.15	242.21
738.48	241.79
738.81	241.36
739.14	240.98
739.47	240.56
739.80	240.24
740.13	239.96
740.46	239.50
740.79	239.18
741.12	238.90
741.45	238.56
741.78	238.15
742.11	237.80
742.44	237.36
742.77	237.06
743.10	236.73
743.43	236.48
743.75	235.80
744.08	235.71
744.41	235.47
744.74	235.12
745.07	234.75
745.40	234.55
745.73	234.35
746.06	234.03
746.39	233.93
746.71	233.65
747.04	233.30
747.37	233.13
747.70	232.87
748.03	232.58
748.36	232.35
748.68	232.11
749.01	231.86
749.34	231.70
749.67	231.40
750.00	231.20
750.33	231.02
750.65	230.80
750.98	230.29
751.31	230.00
751.64	229.88
751.97	229.80
752.29	229.58
752.62	229.26
752.95	229.07
753.28	228.78
753.60	228.48
753.93	228.44
754.26	228.19
754.59	227.87
754.91	227.72
755.24	227.49
755.57	227.20
755.90	226.98
756.22	226.72
756.55	226.51
756.88	226.23
757.20	225.90
757.53	225.75
757.86	225.56
758.19	225.37
758.51	225.15
758.84	224.93
759.17	224.71
759.49	224.59
759.82	224.52
760.15	224.38
760.47	224.25
760.80	223.99
761.13	223.87
761.45	223.72
761.78	223.46
762.11	223.35
762.43	223.24
762.76	223.14
763.08	222.90
763.41	222.82
763.74	222.63
764.06	222.51
764.39	222.31
764.71	222.18
765.04	222.03
765.37	221.89
765.69	221.73
766.02	221.60
766.34	221.42
766.67	221.27
767.00	221.12
767.32	221.07
767.65	221.05
767.97	220.95
768.30	220.94
768.62	220.91
768.95	220.74
769.27	220.63
769.60	220.50
769.92	220.44
770.25	220.26
770.57	220.15
770.90	220.10
771.22	220.02
771.55	220.01
771.87	219.98
772.20	219.94
772.52	219.94
772.85	220.12
773.17	220.06
773.50	219.98
773.82	219.95
774.15	219.77
774.47	219.63
774.80	219.49
775.12	219.42
775.45	219.27
775.77	219.18
776.09	219.12
776.42	219.08
776.74	219.03
777.07	218.95
777.39	218.96
777.72	218.86
778.04	218.78
778.36	218.66
778.69	218.51
779.01	218.49
779.33	218.29
779.66	217.95
779.98	217.92
780.31	217.84
780.63	217.86
780.95	217.92
781.28	217.75
781.60	217.69
781.92	217.58
782.25	217.56
782.57	217.52
782.89	217.45
783.22	217.38
783.54	217.25
783.86	217.25
784.19	217.08
784.51	217.03
784.83	216.98
785.16	216.90
785.48	216.90
785.80	216.73
786.12	216.69
786.45	216.64
