SpectraSuite Data File
++++++++++++++++++++++++++++++++++++
Date: Mon Feb 25 17:36:08 EST 2013
User: group
Dark Spectrum Present: No
Reference Spectrum Present: No
Number of Sampled Component Spectra: 1
Spectrometers: USB2E7196
Integration Time (usec): 52000 (USB2E7196)
Spectra Averaged: 20 (USB2E7196)
Boxcar Smoothing: 10 (USB2E7196)
Correct for Electrical Dark: No (USB2E7196)
Strobe/Lamp Enabled: No (USB2E7196)
Correct for Detector Non-linearity: No (USB2E7196)
Correct for Stray Light: No (USB2E7196)
Number of Pixels in Processed Spectrum: 2048
>>>>>Begin Processed Spectral Data<<<<<
339.09	0.00
339.48	198.15
339.86	200.65
340.24	201.25
340.63	203.60
341.01	207.85
341.39	206.75
341.78	206.95
342.16	208.80
342.54	208.90
342.93	198.47
343.31	208.47
343.69	209.10
344.07	209.60
344.46	210.12
344.84	210.55
345.22	210.78
345.60	211.08
345.99	211.41
346.37	211.64
346.75	211.85
347.13	212.02
347.52	212.13
347.90	212.31
348.28	212.53
348.66	212.68
349.05	212.78
349.43	212.94
349.81	213.06
350.19	213.20
350.57	213.36
350.96	213.52
351.34	213.74
351.72	213.87
352.10	214.09
352.48	214.26
352.87	214.36
353.25	214.47
353.63	214.54
354.01	214.62
354.39	214.68
354.77	214.83
355.15	214.95
355.54	215.00
355.92	215.06
356.30	215.11
356.68	215.30
357.06	215.35
357.44	215.31
357.82	215.35
358.20	215.42
358.58	215.52
358.97	215.53
359.35	215.68
359.73	215.81
360.11	215.84
360.49	215.84
360.87	215.85
361.25	215.91
361.63	216.00
362.01	216.04
362.39	216.10
362.77	216.05
363.15	216.07
363.53	216.11
363.91	216.12
364.29	216.13
364.67	215.94
365.05	216.03
365.43	216.14
365.81	216.24
366.19	216.37
366.57	216.34
366.95	216.43
367.33	216.38
367.71	216.36
368.09	216.38
368.47	216.41
368.85	216.45
369.23	216.43
369.61	216.34
369.99	216.41
370.37	216.37
370.75	216.44
371.13	216.37
371.51	216.34
371.89	216.33
372.27	216.26
372.65	216.31
373.03	216.20
373.41	216.19
373.78	216.07
374.16	215.95
374.54	215.93
374.92	215.81
375.30	215.73
375.68	215.66
376.06	215.63
376.44	215.55
376.82	215.51
377.19	215.49
377.57	215.48
377.95	215.38
378.33	215.38
378.71	215.30
379.09	215.30
379.47	215.30
379.84	215.26
380.22	215.27
380.60	215.17
380.98	215.18
381.36	215.10
381.73	215.05
382.11	215.09
382.49	215.06
382.87	215.06
383.25	215.10
383.62	215.22
384.00	215.11
384.38	215.15
384.76	215.22
385.13	215.29
385.51	215.31
385.89	215.26
386.27	215.22
386.64	215.20
387.02	215.19
387.40	215.17
387.78	215.13
388.15	215.18
388.53	215.20
388.91	215.14
389.29	215.17
389.66	215.21
390.04	215.17
390.42	215.18
390.79	215.11
391.17	215.12
391.55	215.07
391.92	215.18
392.30	215.20
392.68	215.17
393.05	215.26
393.43	215.39
393.81	215.48
394.18	215.54
394.56	215.65
394.94	215.79
395.31	215.92
395.69	216.11
396.06	216.21
396.44	216.32
396.82	216.44
397.19	216.64
397.57	216.76
397.95	216.96
398.32	217.15
398.70	217.44
399.07	217.66
399.45	217.75
399.82	217.92
400.20	218.17
400.58	218.47
400.95	218.66
401.33	218.94
401.70	219.35
402.08	219.76
402.45	220.12
402.83	220.55
403.20	220.98
403.58	221.38
403.95	221.94
404.33	222.57
404.71	223.15
405.08	223.86
405.46	224.65
405.83	225.42
406.21	226.22
406.58	227.22
406.96	228.18
407.33	229.32
407.70	230.64
408.08	232.00
408.45	233.42
408.83	234.97
409.20	236.52
409.58	238.05
409.95	239.96
410.33	241.98
410.70	243.98
411.08	246.17
411.45	248.63
411.82	251.21
412.20	254.00
412.57	257.37
412.95	260.36
413.32	263.79
413.69	267.48
414.07	271.40
414.44	275.53
414.82	280.01
415.19	285.07
415.56	290.21
415.94	295.86
416.31	301.92
416.68	307.97
417.06	314.83
417.43	321.48
417.81	329.01
418.18	336.88
418.55	345.38
418.93	354.44
419.30	363.79
419.67	373.64
420.04	383.93
420.42	394.60
420.79	406.64
421.16	419.17
421.54	431.71
421.91	445.10
422.28	459.17
422.66	474.13
423.03	488.35
423.40	503.45
423.77	519.79
424.15	536.49
424.52	554.03
424.89	573.05
425.26	591.82
425.64	609.63
426.01	629.25
426.38	649.65
426.75	670.34
427.13	692.15
427.50	714.95
427.87	739.23
428.24	763.42
428.61	786.81
428.99	811.76
429.36	839.80
429.73	867.09
430.10	894.11
430.47	921.91
430.85	951.59
431.22	982.35
431.59	1014.49
431.96	1046.17
432.33	1081.11
432.70	1115.11
433.08	1154.80
433.45	1192.26
433.82	1229.53
434.19	1271.00
434.56	1311.67
434.93	1351.38
435.30	1390.88
435.68	1434.32
436.05	1477.56
436.42	1521.14
436.79	1560.84
437.16	1603.38
437.53	1648.72
437.90	1693.80
438.27	1737.93
438.64	1784.64
439.01	1827.68
439.38	1867.25
439.75	1904.65
440.13	1947.19
440.50	1987.86
440.87	2021.41
441.24	2056.91
441.61	2095.76
441.98	2125.64
442.35	2159.99
442.72	2193.64
443.09	2226.43
443.46	2248.16
443.83	2264.16
444.20	2278.30
444.57	2298.00
444.94	2309.20
445.31	2320.28
445.68	2330.28
446.05	2337.66
446.42	2336.86
446.79	2335.23
447.16	2332.71
447.53	2331.99
447.90	2319.79
448.27	2307.49
448.64	2288.24
449.01	2274.70
449.37	2248.45
449.74	2223.42
450.11	2191.85
450.48	2158.67
450.85	2125.10
451.22	2095.69
451.59	2067.24
451.96	2040.54
452.33	2003.51
452.70	1970.24
453.07	1930.24
453.43	1889.59
453.80	1849.80
454.17	1811.67
454.54	1776.30
454.91	1737.85
455.28	1700.45
455.65	1665.05
456.02	1626.97
456.38	1596.65
456.75	1558.41
457.12	1527.19
457.49	1495.53
457.86	1466.14
458.23	1439.50
458.59	1410.10
458.96	1380.79
459.33	1354.97
459.70	1328.39
460.07	1307.37
460.43	1283.31
460.80	1260.50
461.17	1241.06
461.54	1220.18
461.91	1200.34
462.27	1180.27
462.64	1163.21
463.01	1143.99
463.38	1125.16
463.74	1108.94
464.11	1093.06
464.48	1079.06
464.85	1063.36
465.21	1051.28
465.58	1038.11
465.95	1023.16
466.32	1010.51
466.68	997.90
467.05	985.24
467.42	972.85
467.78	959.96
468.15	947.77
468.52	938.24
468.88	926.53
469.25	916.19
469.62	907.62
469.98	898.21
470.35	889.58
470.72	881.45
471.08	872.93
471.45	865.09
471.82	857.20
472.18	849.07
472.55	843.32
472.92	836.58
473.28	830.93
473.65	824.95
474.02	819.21
474.38	814.30
474.75	810.35
475.11	806.07
475.48	802.45
475.85	799.57
476.21	796.87
476.58	794.30
476.94	792.43
477.31	789.98
477.67	787.95
478.04	786.53
478.41	785.78
478.77	785.03
479.14	784.24
479.50	784.26
479.87	784.79
480.23	785.46
480.60	785.67
480.96	785.84
481.33	787.42
481.69	789.05
482.06	790.28
482.42	791.23
482.79	792.79
483.15	795.96
483.52	799.79
483.88	802.88
484.25	806.30
484.61	809.84
484.98	813.69
485.34	818.33
485.71	823.12
486.07	828.29
486.44	833.90
486.80	839.89
487.17	846.29
487.53	853.53
487.90	860.70
488.26	868.64
488.62	877.03
488.99	885.50
489.35	894.20
489.72	904.27
490.08	914.89
490.44	925.48
490.81	935.97
491.17	946.16
491.54	957.80
491.90	969.35
492.26	981.95
492.63	995.04
492.99	1008.47
493.36	1022.18
493.72	1036.50
494.08	1051.32
494.45	1067.15
494.81	1083.46
495.17	1100.05
495.54	1117.18
495.90	1135.33
496.26	1153.50
496.63	1171.98
496.99	1191.16
497.35	1210.29
497.72	1229.83
498.08	1249.89
498.44	1270.07
498.80	1291.84
499.17	1313.63
499.53	1335.74
499.89	1358.38
500.26	1380.80
500.62	1403.22
500.98	1426.99
501.34	1450.60
501.71	1474.47
502.07	1498.57
502.43	1522.96
502.79	1547.11
503.16	1572.20
503.52	1596.63
503.88	1621.26
504.24	1646.18
504.60	1671.23
504.97	1697.18
505.33	1722.80
505.69	1749.88
506.05	1776.39
506.41	1802.25
506.78	1828.23
507.14	1854.52
507.50	1880.62
507.86	1907.23
508.22	1934.43
508.59	1960.91
508.95	1987.89
509.31	2014.93
509.67	2041.66
510.03	2068.17
510.39	2095.44
510.75	2121.74
511.12	2147.54
511.48	2173.80
511.84	2199.93
512.20	2225.50
512.56	2251.35
512.92	2277.64
513.28	2302.71
513.64	2327.95
514.00	2352.60
514.37	2376.86
514.73	2401.50
515.09	2425.00
515.45	2448.85
515.81	2472.05
516.17	2495.62
516.53	2518.36
516.89	2540.70
517.25	2562.02
517.61	2583.15
517.97	2603.50
518.33	2623.66
518.69	2644.23
519.05	2664.57
519.41	2684.82
519.77	2705.46
520.13	2724.71
520.49	2742.55
520.85	2760.74
521.21	2778.71
521.57	2797.50
521.93	2815.08
522.29	2832.67
522.65	2850.22
523.01	2867.10
523.37	2883.10
523.73	2898.97
524.09	2914.16
524.45	2928.95
524.81	2943.92
525.17	2959.25
525.53	2974.60
525.89	2989.85
526.25	3004.60
526.61	3017.17
526.97	3030.69
527.33	3043.57
527.68	3057.01
528.04	3070.56
528.40	3082.71
528.76	3095.06
529.12	3106.49
529.48	3118.72
529.84	3128.50
530.20	3139.57
530.56	3150.39
530.91	3162.20
531.27	3173.32
531.63	3184.71
531.99	3195.53
532.35	3205.85
532.71	3215.73
533.07	3226.92
533.42	3237.02
533.78	3247.65
534.14	3258.17
534.50	3267.35
534.86	3277.27
535.21	3284.17
535.57	3292.71
535.93	3300.60
536.29	3307.74
536.65	3316.26
537.00	3323.03
537.36	3331.33
537.72	3338.02
538.08	3345.45
538.44	3351.64
538.79	3357.36
539.15	3363.18
539.51	3370.18
539.87	3377.59
540.22	3383.83
540.58	3389.20
540.94	3394.75
541.29	3398.83
541.65	3401.29
542.01	3404.71
542.37	3407.83
542.72	3412.73
543.08	3415.52
543.44	3419.27
543.79	3422.31
544.15	3424.22
544.51	3428.11
544.87	3431.42
545.22	3434.02
545.58	3435.41
545.94	3436.72
546.29	3437.86
546.65	3438.36
547.01	3438.32
547.36	3438.55
547.72	3438.92
548.07	3438.19
548.43	3437.37
548.79	3436.05
549.14	3437.76
549.50	3438.64
549.86	3439.29
550.21	3438.10
550.57	3438.40
550.92	3437.82
551.28	3437.13
551.64	3436.13
551.99	3435.44
552.35	3434.80
552.70	3434.17
553.06	3433.69
553.41	3433.26
553.77	3432.44
554.13	3431.87
554.48	3432.69
554.84	3431.75
555.19	3429.87
555.55	3429.43
555.90	3429.06
556.26	3428.55
556.61	3427.08
556.97	3424.25
557.32	3421.01
557.68	3419.23
558.03	3416.59
558.39	3414.33
558.74	3413.82
559.10	3412.58
559.45	3410.38
559.81	3408.59
560.16	3406.79
560.52	3405.51
560.87	3403.44
561.23	3400.06
561.58	3397.31
561.94	3392.40
562.29	3388.20
562.64	3385.38
563.00	3380.88
563.35	3375.66
563.71	3372.66
564.06	3369.94
564.42	3367.55
564.77	3364.68
565.12	3361.70
565.48	3358.54
565.83	3355.70
566.19	3352.59
566.54	3349.24
566.89	3344.92
567.25	3339.77
567.60	3335.56
567.96	3329.32
568.31	3324.34
568.66	3320.64
569.02	3316.71
569.37	3313.24
569.72	3309.89
570.08	3305.54
570.43	3300.21
570.78	3296.71
571.14	3292.42
571.49	3287.29
571.84	3283.14
572.20	3277.50
572.55	3272.83
572.90	3266.92
573.26	3260.65
573.61	3252.81
573.96	3245.08
574.31	3238.15
574.67	3231.77
575.02	3224.64
575.37	3217.97
575.72	3211.12
576.08	3203.90
576.43	3195.57
576.78	3187.31
577.13	3180.16
577.49	3172.91
577.84	3166.29
578.19	3157.98
578.54	3149.49
578.90	3141.67
579.25	3131.12
579.60	3121.76
579.95	3111.97
580.30	3103.54
580.66	3094.59
581.01	3085.78
581.36	3076.12
581.71	3066.95
582.06	3057.82
582.42	3049.37
582.77	3039.81
583.12	3030.14
583.47	3020.78
583.82	3011.95
584.17	3002.30
584.53	2992.45
584.88	2982.92
585.23	2972.92
585.58	2963.59
585.93	2953.38
586.28	2943.78
586.63	2935.25
586.98	2926.80
587.34	2918.09
587.69	2907.70
588.04	2898.39
588.39	2889.39
588.74	2879.53
589.09	2870.05
589.44	2859.23
589.79	2848.66
590.14	2839.38
590.49	2828.72
590.84	2818.85
591.19	2809.34
591.54	2798.61
591.89	2786.65
592.25	2776.09
592.60	2764.46
592.95	2752.89
593.30	2741.97
593.65	2730.35
594.00	2719.90
594.35	2709.82
594.70	2698.71
595.05	2688.85
595.40	2677.83
595.75	2665.78
596.10	2655.75
596.45	2644.93
596.80	2635.21
597.15	2624.99
597.50	2614.33
597.85	2604.50
598.19	2592.81
598.54	2580.98
598.89	2570.58
599.24	2560.81
599.59	2549.22
599.94	2539.38
600.29	2529.07
600.64	2518.16
600.99	2506.75
601.34	2496.51
601.69	2484.44
602.04	2473.10
602.39	2462.67
602.74	2453.30
603.08	2445.02
603.43	2436.28
603.78	2425.86
604.13	2415.44
604.48	2404.07
604.83	2394.43
605.18	2384.56
605.53	2375.27
605.87	2365.58
606.22	2356.29
606.57	2346.42
606.92	2335.82
607.27	2325.40
607.62	2315.32
607.96	2306.00
608.31	2297.30
608.66	2285.85
609.01	2275.66
609.36	2265.02
609.70	2254.05
610.05	2241.80
610.40	2229.81
610.75	2217.60
611.10	2206.91
611.44	2194.85
611.79	2183.83
612.14	2171.41
612.49	2158.73
612.83	2146.50
613.18	2133.81
613.53	2121.26
613.88	2107.99
614.22	2095.98
614.57	2083.83
614.92	2071.75
615.27	2059.77
615.61	2046.88
615.96	2035.04
616.31	2023.94
616.65	2013.54
617.00	2002.17
617.35	1991.09
617.70	1979.19
618.04	1966.89
618.39	1954.72
618.74	1943.50
619.08	1931.46
619.43	1919.81
619.78	1909.15
620.12	1898.92
620.47	1888.84
620.82	1878.12
621.16	1867.67
621.51	1857.27
621.85	1846.11
622.20	1834.95
622.55	1822.78
622.89	1811.74
623.24	1800.66
623.59	1788.94
623.93	1777.36
624.28	1766.31
624.62	1755.44
624.97	1744.92
625.32	1735.28
625.66	1725.08
626.01	1715.29
626.35	1706.44
626.70	1697.16
627.04	1687.09
627.39	1676.17
627.73	1665.76
628.08	1656.12
628.43	1646.29
628.77	1636.97
629.12	1627.50
629.46	1617.66
629.81	1607.86
630.15	1597.57
630.50	1587.83
630.84	1577.74
631.19	1567.34
631.53	1557.38
631.88	1547.05
632.22	1537.20
632.57	1527.62
632.91	1518.18
633.26	1508.34
633.60	1497.79
633.95	1488.12
634.29	1478.71
634.64	1470.06
634.98	1460.58
635.32	1451.06
635.67	1442.28
636.01	1433.10
636.36	1423.99
636.70	1414.99
637.05	1406.42
637.39	1398.20
637.73	1389.75
638.08	1382.00
638.42	1374.06
638.77	1365.92
639.11	1357.79
639.45	1349.33
639.80	1340.46
640.14	1331.68
640.49	1322.83
640.83	1314.01
641.17	1305.15
641.52	1296.65
641.86	1287.62
642.20	1279.40
642.55	1270.30
642.89	1261.20
643.23	1251.85
643.58	1243.36
643.92	1234.69
644.26	1226.42
644.61	1217.90
644.95	1209.40
645.29	1200.80
645.64	1192.05
645.98	1183.37
646.32	1175.15
646.66	1166.89
647.01	1158.77
647.35	1150.62
647.69	1142.53
648.04	1135.02
648.38	1126.73
648.72	1118.59
649.06	1110.69
649.41	1102.32
649.75	1094.06
650.09	1086.35
650.43	1079.12
650.78	1071.53
651.12	1064.02
651.46	1056.46
651.80	1049.24
652.14	1041.87
652.49	1033.99
652.83	1026.55
653.17	1018.51
653.51	1010.92
653.85	1003.74
654.20	996.46
654.54	989.14
654.88	981.67
655.22	973.85
655.56	966.26
655.90	958.28
656.25	950.58
656.59	943.68
656.93	936.74
657.27	929.93
657.61	922.51
657.95	915.48
658.29	908.54
658.64	901.77
658.98	895.04
659.32	888.01
659.66	881.54
660.00	875.09
660.34	869.42
660.68	863.22
661.02	856.47
661.36	850.19
661.70	843.88
662.05	838.10
662.39	832.52
662.73	827.08
663.07	821.89
663.41	816.70
663.75	811.05
664.09	805.56
664.43	799.67
664.77	794.23
665.11	788.92
665.45	783.54
665.79	778.28
666.13	773.03
666.47	768.12
666.81	763.33
667.15	758.19
667.49	752.71
667.83	747.38
668.17	742.43
668.51	737.29
668.85	732.33
669.19	727.21
669.53	721.88
669.87	716.69
670.21	711.73
670.55	706.52
670.89	701.71
671.23	697.05
671.57	692.22
671.91	687.74
672.25	682.96
672.58	678.40
672.92	673.60
673.26	668.95
673.60	664.42
673.94	660.03
674.28	655.89
674.62	651.96
674.96	647.77
675.30	643.91
675.64	639.96
675.97	636.34
676.31	632.93
676.65	629.40
676.99	626.17
677.33	622.68
677.67	619.02
678.01	615.02
678.34	611.28
678.68	607.54
679.02	603.61
679.36	599.99
679.70	596.25
680.04	592.65
680.37	588.95
680.71	585.14
681.05	581.61
681.39	578.06
681.73	574.32
682.06	571.03
682.40	567.33
682.74	563.60
683.08	559.64
683.42	555.85
683.75	552.13
684.09	548.38
684.43	544.54
684.77	540.96
685.10	537.64
685.44	533.99
685.78	530.67
686.12	527.36
686.45	523.97
686.79	520.90
687.13	517.83
687.46	514.79
687.80	511.80
688.14	508.34
688.48	505.18
688.81	502.03
689.15	499.04
689.49	496.01
689.82	493.00
690.16	489.98
690.50	486.83
690.83	483.98
691.17	480.84
691.51	477.85
691.84	475.11
692.18	472.28
692.52	469.69
692.85	466.96
693.19	464.28
693.52	461.56
693.86	458.62
694.20	455.87
694.53	453.04
694.87	450.11
695.21	447.30
695.54	444.56
695.88	441.99
696.21	439.16
696.55	436.56
696.88	434.14
697.22	431.77
697.56	429.65
697.89	427.32
698.23	425.16
698.56	422.86
698.90	420.61
699.23	418.27
699.57	416.00
699.90	413.65
700.24	411.20
700.58	408.84
700.91	406.55
701.25	404.42
701.58	402.48
701.92	400.53
702.25	398.76
702.59	396.83
702.92	394.82
703.26	392.86
703.59	391.06
703.93	389.35
704.26	387.52
704.60	385.45
704.93	383.42
705.26	381.38
705.60	379.62
705.93	377.59
706.27	375.85
706.60	374.15
706.94	372.53
707.27	370.81
707.61	369.10
707.94	367.54
708.27	365.69
708.61	363.85
708.94	362.26
709.28	360.56
709.61	358.78
709.94	356.99
710.28	355.27
710.61	353.48
710.95	351.58
711.28	349.94
711.61	348.20
711.95	346.68
712.28	345.19
712.61	343.67
712.95	342.28
713.28	340.82
713.61	339.22
713.95	337.71
714.28	336.36
714.61	335.11
714.95	333.84
715.28	332.48
715.61	330.99
715.95	329.44
716.28	327.87
716.61	326.38
716.95	325.07
717.28	323.73
717.61	322.54
717.94	321.34
718.28	320.00
718.61	318.91
718.94	317.61
719.27	316.38
719.61	315.25
719.94	314.08
720.27	312.77
720.60	311.66
720.94	310.65
721.27	309.62
721.60	308.60
721.93	307.45
722.27	306.46
722.60	305.51
722.93	304.57
723.26	303.75
723.59	302.85
723.93	301.90
724.26	301.00
724.59	299.95
724.92	299.04
725.25	298.14
725.59	297.24
725.92	296.55
726.25	295.69
726.58	294.69
726.91	293.80
727.24	292.96
727.57	292.20
727.91	291.25
728.24	290.44
728.57	289.42
728.90	288.58
729.23	287.76
729.56	286.98
729.89	286.23
730.22	285.44
730.55	284.66
730.89	283.85
731.22	283.08
731.55	282.27
731.88	281.42
732.21	280.63
732.54	279.81
732.87	279.00
733.20	278.24
733.53	277.61
733.86	277.02
734.19	276.32
734.52	275.65
734.85	275.08
735.18	274.34
735.51	273.82
735.84	273.13
736.17	272.49
736.50	271.82
736.83	271.33
737.16	270.70
737.49	270.07
737.82	269.49
738.15	268.83
738.48	268.33
738.81	267.70
739.14	267.10
739.47	266.45
739.80	265.91
740.13	265.32
740.46	264.64
740.79	263.95
741.12	263.50
741.45	262.81
741.78	262.15
742.11	261.65
742.44	261.01
742.77	260.48
743.10	259.85
743.43	259.17
743.75	258.43
744.08	258.04
744.41	257.45
744.74	256.86
745.07	256.30
745.40	255.73
745.73	255.22
746.06	254.74
746.39	254.25
746.71	253.61
747.04	253.09
747.37	252.60
747.70	252.18
748.03	251.66
748.36	251.27
748.68	250.83
749.01	250.34
749.34	249.90
749.67	249.54
750.00	249.10
750.33	248.89
750.65	248.54
750.98	247.89
751.31	247.51
751.64	247.15
751.97	246.88
752.29	246.49
752.62	246.07
752.95	245.69
753.28	245.32
753.60	244.95
753.93	244.69
754.26	244.34
754.59	243.92
754.91	243.48
755.24	243.10
755.57	242.66
755.90	242.30
756.22	241.89
756.55	241.42
756.88	241.08
757.20	240.59
757.53	240.13
757.86	239.80
758.19	239.47
758.51	239.17
758.84	238.74
759.17	238.38
759.49	238.08
759.82	237.85
760.15	237.57
760.47	237.30
760.80	236.89
761.13	236.59
761.45	236.27
761.78	235.97
762.11	235.64
762.43	235.42
762.76	235.12
763.08	234.90
763.41	234.67
763.74	234.39
764.06	234.13
764.39	233.89
764.71	233.56
765.04	233.35
765.37	233.00
765.69	232.79
766.02	232.58
766.34	232.33
766.67	231.99
767.00	231.84
767.32	231.71
767.65	231.58
767.97	231.39
768.30	231.20
768.62	230.99
768.95	230.78
769.27	230.54
769.60	230.31
769.92	230.03
770.25	229.83
770.57	229.61
770.90	229.44
771.22	229.15
771.55	229.00
771.87	228.74
772.20	228.61
772.52	228.46
772.85	228.49
773.17	228.28
773.50	228.07
773.82	227.79
774.15	227.46
774.47	227.15
774.80	227.01
775.12	226.81
775.45	226.60
775.77	226.46
776.09	226.30
776.42	226.13
776.74	226.01
777.07	225.83
777.39	225.65
777.72	225.49
778.04	225.38
778.36	225.22
778.69	225.10
779.01	224.90
779.33	224.72
779.66	224.31
779.98	224.18
780.31	224.09
780.63	224.06
780.95	223.94
781.28	223.85
781.60	223.72
781.92	223.62
782.25	223.56
782.57	223.40
