SpectraSuite Data File
++++++++++++++++++++++++++++++++++++
Date: Mon Feb 25 17:33:47 EST 2013
User: group
Dark Spectrum Present: No
Reference Spectrum Present: No
Number of Sampled Component Spectra: 1
Spectrometers: USB2E7196
Integration Time (usec): 52000 (USB2E7196)
Spectra Averaged: 20 (USB2E7196)
Boxcar Smoothing: 10 (USB2E7196)
Correct for Electrical Dark: No (USB2E7196)
Strobe/Lamp Enabled: No (USB2E7196)
Correct for Detector Non-linearity: No (USB2E7196)
Correct for Stray Light: No (USB2E7196)
Number of Pixels in Processed Spectrum: 2048
>>>>>Begin Processed Spectral Data<<<<<
339.09	0.00
339.48	198.05
339.86	199.95
340.24	201.90
340.63	204.00
341.01	206.70
341.39	205.50
341.78	207.40
342.16	208.70
342.54	208.65
342.93	198.06
343.31	208.08
343.69	208.69
344.07	209.15
344.46	209.61
344.84	209.97
345.22	210.20
345.60	210.46
345.99	210.64
346.37	210.75
346.75	210.88
347.13	211.00
347.52	211.14
347.90	211.31
348.28	211.42
348.66	211.40
349.05	211.33
349.43	211.39
349.81	211.50
350.19	211.60
350.57	211.70
350.96	211.81
351.34	211.94
351.72	212.05
352.10	212.15
352.48	212.18
352.87	212.31
353.25	212.39
353.63	212.42
354.01	212.48
354.39	212.53
354.77	212.60
355.15	212.70
355.54	212.66
355.92	212.67
356.30	212.81
356.68	213.00
357.06	213.10
357.44	213.13
357.82	213.16
358.20	213.20
358.58	213.28
358.97	213.29
359.35	213.34
359.73	213.41
360.11	213.53
360.49	213.55
360.87	213.53
361.25	213.58
361.63	213.73
362.01	213.85
362.39	213.89
362.77	213.97
363.15	213.91
363.53	213.97
363.91	213.98
364.29	213.89
364.67	213.79
365.05	213.85
365.43	213.94
365.81	213.92
366.19	214.01
366.57	214.11
366.95	214.09
367.33	214.11
367.71	214.11
368.09	214.08
368.47	214.08
368.85	214.06
369.23	214.11
369.61	213.98
369.99	213.99
370.37	214.00
370.75	214.03
371.13	214.05
371.51	214.04
371.89	214.00
372.27	213.97
372.65	213.93
373.03	213.87
373.41	213.76
373.78	213.78
374.16	213.64
374.54	213.44
374.92	213.34
375.30	213.24
375.68	213.11
376.06	213.11
376.44	213.04
376.82	213.04
377.19	212.96
377.57	212.95
377.95	212.83
378.33	212.82
378.71	212.64
379.09	212.62
379.47	212.52
379.84	212.48
380.22	212.42
380.60	212.32
380.98	212.24
381.36	212.25
381.73	212.15
382.11	212.15
382.49	212.15
382.87	212.07
383.25	212.04
383.62	212.26
384.00	212.19
384.38	212.20
384.76	212.15
385.13	212.14
385.51	212.12
385.89	212.11
386.27	212.07
386.64	212.10
387.02	211.94
387.40	211.89
387.78	211.84
388.15	211.88
388.53	211.87
388.91	211.85
389.29	211.75
389.66	211.75
390.04	211.70
390.42	211.74
390.79	211.84
391.17	211.81
391.55	211.51
391.92	211.48
392.30	211.54
392.68	211.46
393.05	211.43
393.43	211.38
393.81	211.32
394.18	211.27
394.56	211.23
394.94	211.37
395.31	211.44
395.69	211.48
396.06	211.51
396.44	211.56
396.82	211.55
397.19	211.64
397.57	211.67
397.95	211.69
398.32	211.61
398.70	211.57
399.07	211.64
399.45	211.72
399.82	211.73
400.20	211.71
400.58	211.83
400.95	211.81
401.33	211.98
401.70	212.17
402.08	212.23
402.45	212.39
402.83	212.46
403.20	212.48
403.58	212.55
403.95	212.65
404.33	212.70
404.71	212.86
405.08	213.12
405.46	213.20
405.83	213.34
406.21	213.50
406.58	213.68
406.96	213.81
407.33	213.98
407.70	214.20
408.08	214.47
408.45	214.68
408.83	214.94
409.20	215.13
409.58	215.25
409.95	215.60
410.33	215.88
410.70	216.20
411.08	216.59
411.45	216.91
411.82	217.31
412.20	217.81
412.57	218.31
412.95	218.66
413.32	219.14
413.69	219.70
414.07	220.23
414.44	220.88
414.82	221.53
415.19	222.33
415.56	223.06
415.94	223.86
416.31	224.79
416.68	225.66
417.06	226.70
417.43	227.71
417.81	228.78
418.18	229.90
418.55	231.04
418.93	232.35
419.30	233.71
419.67	235.13
420.04	236.58
420.42	238.02
420.79	239.78
421.16	241.56
421.54	243.34
421.91	245.30
422.28	247.22
422.66	249.30
423.03	251.30
423.40	253.40
423.77	255.64
424.15	257.87
424.52	260.25
424.89	262.78
425.26	265.17
425.64	267.55
426.01	270.06
426.38	272.79
426.75	275.47
427.13	278.27
427.50	281.20
427.87	284.26
428.24	287.36
428.61	290.28
428.99	293.56
429.36	297.00
429.73	300.45
430.10	303.91
430.47	307.50
430.85	311.13
431.22	315.07
431.59	319.26
431.96	323.10
432.33	327.48
432.70	331.60
433.08	336.59
433.45	341.26
433.82	345.92
434.19	351.11
434.56	356.11
434.93	360.85
435.30	365.56
435.68	370.80
436.05	376.01
436.42	381.13
436.79	385.79
437.16	390.94
437.53	396.24
437.90	401.54
438.27	406.68
438.64	412.00
439.01	416.89
439.38	421.14
439.75	425.41
440.13	430.33
440.50	434.86
440.87	438.52
441.24	442.25
441.61	446.50
441.98	449.53
442.35	453.15
442.72	457.00
443.09	460.61
443.46	462.64
443.83	464.05
444.20	465.25
444.57	467.00
444.94	467.82
445.31	468.65
445.68	469.36
446.05	469.56
446.42	468.91
446.79	468.20
447.16	467.40
447.53	466.78
447.90	464.51
448.27	462.46
448.64	459.76
449.01	457.77
449.37	454.08
449.74	450.47
450.11	446.35
450.48	441.75
450.85	437.00
451.22	433.08
451.59	429.28
451.96	425.69
452.33	420.83
452.70	416.40
453.07	411.19
453.43	406.02
453.80	400.97
454.17	396.27
454.54	391.72
454.91	386.83
455.28	382.12
455.65	377.82
456.02	373.54
456.38	369.65
456.75	364.97
457.12	361.12
457.49	357.43
457.86	353.72
458.23	350.42
458.59	346.96
458.96	343.52
459.33	340.38
459.70	337.20
460.07	334.81
460.43	331.99
460.80	329.40
461.17	326.95
461.54	324.58
461.91	322.18
462.27	319.73
462.64	317.69
463.01	315.43
463.38	313.23
463.74	310.99
464.11	309.01
464.48	307.27
464.85	305.44
465.21	304.11
465.58	302.61
465.95	300.98
466.32	299.57
466.68	298.00
467.05	296.61
467.42	295.26
467.78	293.82
468.15	292.51
468.52	291.41
468.88	290.16
469.25	288.92
469.62	288.02
469.98	287.05
470.35	286.19
470.72	285.40
471.08	284.41
471.45	283.62
471.82	282.96
472.18	282.11
472.55	281.48
472.92	280.72
473.28	280.15
473.65	279.50
474.02	278.86
474.38	278.47
474.75	278.01
475.11	277.55
475.48	277.24
475.85	276.99
476.21	276.85
476.58	276.69
476.94	276.66
477.31	276.49
477.67	276.46
478.04	276.55
478.41	276.65
478.77	276.99
479.14	277.15
479.50	277.34
479.87	277.83
480.23	278.36
480.60	278.70
480.96	279.16
481.33	279.89
481.69	280.61
482.06	281.21
482.42	281.82
482.79	282.63
483.15	283.50
483.52	284.45
483.88	285.34
484.25	286.37
484.61	287.40
484.98	288.66
485.34	289.88
485.71	291.18
486.07	292.46
486.44	293.75
486.80	295.25
487.17	296.94
487.53	298.60
487.90	300.30
488.26	302.22
488.62	304.21
488.99	306.23
489.35	308.44
489.72	310.78
490.08	313.36
490.44	315.80
490.81	318.39
491.17	321.01
491.54	323.89
491.90	326.75
492.26	329.92
492.63	333.13
492.99	336.65
493.36	340.28
493.72	344.10
494.08	348.22
494.45	352.50
494.81	356.95
495.17	361.58
495.54	366.52
495.90	371.62
496.26	376.83
496.63	382.23
496.99	387.97
497.35	393.92
497.72	400.21
498.08	406.82
498.44	413.60
498.80	420.83
499.17	428.25
499.53	436.00
499.89	444.00
500.26	452.07
500.62	460.52
500.98	469.40
501.34	478.56
501.71	487.95
502.07	497.55
502.43	507.42
502.79	517.78
503.16	528.30
503.52	539.15
503.88	550.39
504.24	561.93
504.60	573.84
504.97	586.20
505.33	598.66
505.69	611.86
506.05	625.38
506.41	638.97
506.78	652.73
507.14	666.95
507.50	681.51
507.86	696.81
508.22	712.05
508.59	727.50
508.95	743.59
509.31	759.78
509.67	776.30
510.03	793.48
510.39	810.91
510.75	828.86
511.12	847.10
511.48	865.62
511.84	884.21
512.20	902.78
512.56	922.25
512.92	941.82
513.28	961.24
513.64	980.99
514.00	1001.10
514.37	1021.75
514.73	1042.44
515.09	1063.38
515.45	1084.21
515.81	1105.69
516.17	1127.04
516.53	1148.49
516.89	1170.22
517.25	1192.03
517.61	1213.53
517.97	1234.84
518.33	1256.32
518.69	1277.89
519.05	1299.92
519.41	1322.37
519.77	1344.94
520.13	1367.15
520.49	1389.28
520.85	1412.43
521.21	1434.87
521.57	1457.75
521.93	1479.66
522.29	1502.55
522.65	1525.31
523.01	1547.70
523.37	1569.61
523.73	1592.08
524.09	1614.49
524.45	1637.04
524.81	1659.56
525.17	1682.15
525.53	1704.93
525.89	1727.37
526.25	1749.69
526.61	1770.99
526.97	1793.03
527.33	1814.52
527.68	1835.91
528.04	1857.33
528.40	1877.50
528.76	1898.58
529.12	1919.42
529.48	1941.25
529.84	1961.71
530.20	1981.88
530.56	2002.61
530.91	2023.64
531.27	2044.14
531.63	2064.07
531.99	2083.92
532.35	2103.19
532.71	2122.23
533.07	2141.78
533.42	2160.70
533.78	2179.69
534.14	2198.42
534.50	2215.07
534.86	2233.23
535.21	2249.99
535.57	2267.72
535.93	2285.27
536.29	2301.93
536.65	2318.41
537.00	2333.84
537.36	2349.37
537.72	2364.81
538.08	2379.90
538.44	2395.06
538.79	2410.34
539.15	2425.33
539.51	2439.72
539.87	2455.01
540.22	2469.30
540.58	2484.08
540.94	2498.54
541.29	2511.52
541.65	2523.84
542.01	2537.36
542.37	2549.26
542.72	2561.65
543.08	2572.60
543.44	2584.14
543.79	2594.67
544.15	2605.25
544.51	2616.38
544.87	2627.64
545.22	2636.94
545.58	2645.55
545.94	2652.87
546.29	2659.48
546.65	2665.84
547.01	2672.24
547.36	2677.69
547.72	2683.71
548.07	2688.01
548.43	2691.81
548.79	2696.03
549.14	2701.00
549.50	2705.51
549.86	2709.78
550.21	2714.17
550.57	2718.40
550.92	2721.47
551.28	2724.58
551.64	2727.04
551.99	2729.31
552.35	2730.51
552.70	2733.01
553.06	2736.01
553.41	2739.39
553.77	2742.53
554.13	2744.74
554.48	2747.06
554.84	2748.96
555.19	2749.51
555.55	2750.05
555.90	2750.51
556.26	2750.69
556.61	2750.30
556.97	2748.82
557.32	2748.26
557.68	2746.61
558.03	2745.34
558.39	2743.77
558.74	2743.20
559.10	2741.81
559.45	2740.22
559.81	2739.35
560.16	2737.34
560.52	2734.99
560.87	2731.70
561.23	2727.96
561.58	2725.59
561.94	2722.30
562.29	2718.48
562.64	2716.20
563.00	2713.68
563.35	2711.26
563.71	2709.71
564.06	2707.73
564.42	2706.54
564.77	2704.39
565.12	2702.35
565.48	2699.10
565.83	2696.01
566.19	2692.61
566.54	2688.71
566.89	2684.83
567.25	2681.12
567.60	2677.58
567.96	2673.79
568.31	2670.58
568.66	2666.73
569.02	2662.19
569.37	2657.20
569.72	2653.57
570.08	2648.21
570.43	2642.35
570.78	2636.91
571.14	2630.44
571.49	2623.65
571.84	2617.50
572.20	2610.38
572.55	2603.74
572.90	2596.78
573.26	2589.95
573.61	2582.94
573.96	2576.15
574.31	2568.31
574.67	2559.86
575.02	2551.27
575.37	2542.89
575.72	2533.83
576.08	2526.02
576.43	2517.29
576.78	2509.20
577.13	2500.96
577.49	2493.05
577.84	2485.80
578.19	2477.93
578.54	2470.77
578.90	2464.05
579.25	2455.45
579.60	2446.35
579.95	2437.00
580.30	2428.99
580.66	2420.61
581.01	2411.34
581.36	2402.28
581.71	2394.05
582.06	2385.65
582.42	2377.43
582.77	2368.12
583.12	2359.30
583.47	2350.96
583.82	2342.80
584.17	2333.76
584.53	2324.71
584.88	2315.90
585.23	2306.48
585.58	2296.90
585.93	2286.84
586.28	2277.35
586.63	2268.00
586.98	2259.74
587.34	2251.47
587.69	2242.34
588.04	2232.99
588.39	2224.77
588.74	2215.82
589.09	2206.89
589.44	2197.33
589.79	2188.82
590.14	2180.83
590.49	2172.37
590.84	2163.19
591.19	2154.94
591.54	2146.32
591.89	2135.97
592.25	2126.67
592.60	2117.01
592.95	2107.72
593.30	2098.14
593.65	2088.16
594.00	2078.70
594.35	2070.38
594.70	2061.22
595.05	2052.39
595.40	2043.63
595.75	2034.22
596.10	2025.73
596.45	2017.10
596.80	2009.35
597.15	2000.94
597.50	1991.89
597.85	1983.24
598.19	1974.46
598.54	1965.80
598.89	1957.75
599.24	1951.23
599.59	1943.62
599.94	1936.76
600.29	1928.90
600.64	1921.10
600.99	1912.69
601.34	1905.34
601.69	1896.50
602.04	1888.20
602.39	1880.02
602.74	1872.32
603.08	1865.44
603.43	1858.35
603.78	1850.40
604.13	1842.30
604.48	1834.05
604.83	1827.14
605.18	1820.17
605.53	1812.30
605.87	1804.50
606.22	1797.23
606.57	1789.07
606.92	1780.85
607.27	1772.60
607.62	1765.45
607.96	1758.56
608.31	1752.46
608.66	1744.68
609.01	1736.97
609.36	1729.55
609.70	1721.51
610.05	1713.71
610.40	1705.45
610.75	1696.77
611.10	1689.11
611.44	1679.72
611.79	1670.85
612.14	1661.30
612.49	1651.58
612.83	1642.88
613.18	1633.33
613.53	1623.81
613.88	1614.11
614.22	1605.26
614.57	1595.78
614.92	1586.26
615.27	1576.74
615.61	1566.78
615.96	1557.80
616.31	1549.36
616.65	1541.21
617.00	1533.10
617.35	1524.24
617.70	1514.96
618.04	1505.70
618.39	1496.24
618.74	1487.78
619.08	1478.91
619.43	1470.60
619.78	1462.70
620.12	1454.76
620.47	1447.01
620.82	1438.36
621.16	1430.14
621.51	1421.80
621.85	1413.56
622.20	1405.04
622.55	1396.71
622.89	1388.42
623.24	1380.35
623.59	1371.48
623.93	1362.67
624.28	1354.23
624.62	1346.14
624.97	1338.18
625.32	1330.44
625.66	1323.03
626.01	1316.00
626.35	1308.84
626.70	1301.21
627.04	1293.54
627.39	1285.79
627.73	1277.83
628.08	1270.98
628.43	1263.39
628.77	1255.69
629.12	1248.20
629.46	1241.65
629.81	1234.49
630.15	1227.44
630.50	1219.71
630.84	1212.60
631.19	1205.27
631.53	1198.19
631.88	1190.69
632.22	1182.93
632.57	1176.06
632.91	1168.49
633.26	1161.02
633.60	1153.84
633.95	1146.95
634.29	1139.68
634.64	1132.83
634.98	1125.97
635.32	1118.92
635.67	1112.50
636.01	1105.97
636.36	1099.27
636.70	1092.43
637.05	1085.84
637.39	1079.41
637.73	1073.25
638.08	1067.42
638.42	1061.74
638.77	1055.36
639.11	1049.08
639.45	1043.01
639.80	1036.38
640.14	1029.88
640.49	1023.51
640.83	1017.40
641.17	1010.89
641.52	1004.84
641.86	998.25
642.20	991.85
642.55	985.15
642.89	978.70
643.23	972.22
643.58	966.33
643.92	959.64
644.26	953.44
644.61	947.24
644.95	941.27
645.29	934.78
645.64	928.05
645.98	921.73
646.32	915.73
646.66	909.62
647.01	903.81
647.35	898.12
647.69	891.79
648.04	885.67
648.38	879.76
648.72	873.77
649.06	867.70
649.41	861.80
649.75	855.93
650.09	850.14
650.43	844.25
650.78	837.97
651.12	832.14
651.46	826.17
651.80	820.28
652.14	814.08
652.49	808.25
652.83	802.46
653.17	796.59
653.51	790.63
653.85	784.91
654.20	778.79
654.54	772.81
654.88	767.37
655.22	761.59
655.56	755.75
655.90	749.80
656.25	744.21
656.59	738.68
656.93	733.46
657.27	728.12
657.61	722.69
657.95	717.67
658.29	712.42
658.64	707.22
658.98	701.94
659.32	696.61
659.66	691.26
660.00	685.80
660.34	680.53
660.68	675.35
661.02	670.40
661.36	665.70
661.70	660.98
662.05	656.28
662.39	651.80
662.73	647.42
663.07	643.05
663.41	638.67
663.75	634.20
664.09	629.50
664.43	624.77
664.77	620.38
665.11	615.79
665.45	611.41
665.79	606.95
666.13	602.58
666.47	598.52
666.81	594.50
667.15	590.56
667.49	586.61
667.83	582.72
668.17	578.80
668.51	574.97
668.85	571.19
669.19	567.43
669.53	563.52
669.87	559.46
670.21	555.68
670.55	551.73
670.89	548.28
671.23	544.96
671.57	541.54
671.91	537.93
672.25	534.42
672.58	530.93
672.92	527.49
673.26	524.42
673.60	520.99
673.94	517.37
674.28	514.10
674.62	510.95
674.96	507.68
675.30	504.56
675.64	501.37
675.97	498.09
676.31	495.03
676.65	491.99
676.99	489.28
677.33	486.27
677.67	483.40
678.01	480.18
678.34	477.09
678.68	474.12
679.02	471.28
679.36	468.44
679.70	465.63
680.04	462.85
680.37	459.76
680.71	457.15
681.05	454.66
681.39	451.88
681.73	449.25
682.06	446.81
682.40	444.20
682.74	441.53
683.08	439.04
683.42	436.30
683.75	433.63
684.09	431.00
684.43	428.44
684.77	425.85
685.10	423.36
685.44	420.84
685.78	418.36
686.12	416.15
686.45	413.77
686.79	411.41
687.13	409.17
687.46	406.96
687.80	404.71
688.14	402.44
688.48	400.43
688.81	398.13
689.15	395.93
689.49	393.71
689.82	391.50
690.16	389.18
690.50	386.88
690.83	384.73
691.17	382.52
691.51	380.24
691.84	378.10
692.18	376.11
692.52	374.15
692.85	372.26
693.19	370.22
693.52	368.28
693.86	366.37
694.20	364.41
694.53	362.50
694.87	360.38
695.21	358.44
695.54	356.40
695.88	354.55
696.21	352.63
696.55	350.80
696.88	349.12
697.22	347.40
697.56	345.90
697.89	344.29
698.23	342.67
698.56	341.15
698.90	339.74
699.23	338.09
699.57	336.45
699.90	334.74
700.24	333.16
700.58	331.47
700.91	329.96
701.25	328.62
701.58	327.22
701.92	325.95
702.25	324.52
702.59	323.24
702.92	321.83
703.26	320.48
703.59	319.23
703.93	318.08
704.26	316.81
704.60	315.53
704.93	314.24
705.26	312.95
705.60	311.84
705.93	310.54
706.27	309.40
706.60	308.27
706.94	307.30
707.27	306.02
707.61	304.94
707.94	303.83
708.27	302.44
708.61	301.18
708.94	300.03
709.28	298.87
709.61	297.70
709.94	296.66
710.28	295.59
710.61	294.48
710.95	293.21
711.28	292.31
711.61	291.27
711.95	290.28
712.28	289.23
712.61	288.18
712.95	287.25
713.28	286.36
713.61	285.44
713.95	284.51
714.28	283.71
714.61	282.76
714.95	281.74
715.28	280.84
715.61	279.97
715.95	279.00
716.28	278.14
716.61	277.27
716.95	276.43
717.28	275.55
717.61	274.70
717.94	273.95
718.28	273.09
718.61	272.29
718.94	271.56
719.27	270.78
719.61	270.12
719.94	269.35
720.27	268.60
720.60	267.81
720.94	266.95
721.27	266.28
721.60	265.69
721.93	265.11
722.27	264.55
722.60	263.94
722.93	263.35
723.26	262.83
723.59	262.20
723.93	261.64
724.26	261.09
724.59	260.60
724.92	260.01
725.25	259.42
725.59	258.92
725.92	258.36
726.25	257.85
726.58	257.23
726.91	256.75
727.24	256.12
727.57	255.70
727.91	255.18
728.24	254.68
728.57	254.18
728.90	253.72
729.23	253.26
729.56	252.90
729.89	252.52
730.22	252.06
730.55	251.63
730.89	251.18
731.22	250.75
731.55	250.19
731.88	249.74
732.21	249.26
732.54	248.74
732.87	248.32
733.20	247.95
733.53	247.59
733.86	247.14
734.19	246.73
734.52	246.32
734.85	246.21
735.18	245.77
735.51	245.38
735.84	244.98
736.17	244.73
736.50	244.25
736.83	244.03
737.16	243.63
737.49	243.24
737.82	242.85
738.15	242.52
738.48	242.20
738.81	241.86
739.14	241.51
739.47	241.15
739.80	240.67
740.13	240.32
740.46	239.95
740.79	239.51
741.12	239.23
741.45	238.85
741.78	238.34
742.11	238.07
742.44	237.67
742.77	237.38
743.10	236.95
743.43	236.60
743.75	236.01
744.08	235.90
744.41	235.62
744.74	235.36
745.07	234.96
745.40	234.77
745.73	234.63
746.06	234.36
746.39	234.07
746.71	233.91
747.04	233.64
747.37	233.33
747.70	233.17
748.03	232.90
748.36	232.70
748.68	232.47
749.01	232.20
749.34	232.05
749.67	231.85
750.00	231.62
750.33	231.49
750.65	231.31
750.98	230.85
751.31	230.60
751.64	230.25
751.97	230.09
752.29	229.71
752.62	229.32
752.95	229.04
753.28	228.86
753.60	228.61
753.93	228.43
754.26	228.20
754.59	227.89
754.91	227.54
755.24	227.26
755.57	226.97
755.90	226.70
756.22	226.43
756.55	226.11
756.88	225.90
757.20	225.63
757.53	225.36
757.86	225.20
758.19	224.97
758.51	224.89
758.84	224.64
759.17	224.55
759.49	224.39
759.82	224.30
760.15	224.13
760.47	223.93
760.80	223.73
761.13	223.61
761.45	223.43
761.78	223.40
762.11	223.24
762.43	223.11
762.76	222.96
763.08	222.87
763.41	222.78
763.74	222.62
764.06	222.42
764.39	222.35
764.71	222.11
765.04	221.98
765.37	221.85
765.69	221.74
766.02	221.59
766.34	221.44
766.67	221.32
767.00	221.19
767.32	221.11
767.65	221.09
767.97	220.99
768.30	220.91
768.62	220.75
768.95	220.58
769.27	220.51
769.60	220.41
769.92	220.24
770.25	220.09
770.57	219.95
770.90	219.88
771.22	219.71
771.55	219.64
771.87	219.51
772.20	219.40
772.52	219.43
772.85	219.54
773.17	219.40
773.50	219.26
773.82	219.14
774.15	219.00
774.47	218.76
774.80	218.62
775.12	218.55
775.45	218.46
775.77	218.43
776.09	218.31
776.42	218.16
776.74	218.08
777.07	218.05
777.39	217.99
777.72	217.86
778.04	217.84
778.36	217.75
778.69	217.73
779.01	217.63
779.33	217.42
779.66	217.14
779.98	217.10
780.31	217.01
780.63	216.99
780.95	217.03
781.28	216.96
781.60	216.83
781.92	216.80
782.25	216.76
782.57	216.68
782.89	216.57
783.22	216.53
783.54	216.54
783.86	216.46
784.19	216.35
784.51	216.38
784.83	216.24
785.16	216.21
785.48	216.10
785.80	216.05
786.12	216.00
786.45	215.88
