SpectraSuite Data File
++++++++++++++++++++++++++++++++++++
Date: Mon Feb 25 17:35:13 EST 2013
User: group
Dark Spectrum Present: No
Reference Spectrum Present: No
Number of Sampled Component Spectra: 1
Spectrometers: USB2E7196
Integration Time (usec): 52000 (USB2E7196)
Spectra Averaged: 20 (USB2E7196)
Boxcar Smoothing: 10 (USB2E7196)
Correct for Electrical Dark: No (USB2E7196)
Strobe/Lamp Enabled: No (USB2E7196)
Correct for Detector Non-linearity: No (USB2E7196)
Correct for Stray Light: No (USB2E7196)
Number of Pixels in Processed Spectrum: 2048
>>>>>Begin Processed Spectral Data<<<<<
339.09	0.00
339.48	196.85
339.86	200.15
340.24	200.75
340.63	202.50
341.01	207.15
341.39	205.50
341.78	207.75
342.16	207.35
342.54	207.25
342.93	197.63
343.31	207.62
343.69	208.26
344.07	208.80
344.46	209.23
344.84	209.60
345.22	209.80
345.60	210.09
345.99	210.31
346.37	210.44
346.75	210.63
347.13	210.71
347.52	210.82
347.90	210.96
348.28	211.01
348.66	211.10
349.05	211.04
349.43	211.06
349.81	211.14
350.19	211.16
350.57	211.25
350.96	211.36
351.34	211.51
351.72	211.62
352.10	211.62
352.48	211.80
352.87	211.89
353.25	211.93
353.63	211.95
354.01	212.02
354.39	212.15
354.77	212.24
355.15	212.33
355.54	212.33
355.92	212.39
356.30	212.53
356.68	212.70
357.06	212.81
357.44	212.92
357.82	213.02
358.20	213.10
358.58	213.15
358.97	213.22
359.35	213.24
359.73	213.32
360.11	213.42
360.49	213.43
360.87	213.48
361.25	213.59
361.63	213.76
362.01	213.84
362.39	213.84
362.77	213.85
363.15	213.91
363.53	213.99
363.91	213.99
364.29	214.07
364.67	213.96
365.05	214.00
365.43	214.04
365.81	214.14
366.19	214.31
366.57	214.36
366.95	214.37
367.33	214.34
367.71	214.36
368.09	214.38
368.47	214.45
368.85	214.46
369.23	214.49
369.61	214.34
369.99	214.33
370.37	214.44
370.75	214.56
371.13	214.54
371.51	214.47
371.89	214.51
372.27	214.42
372.65	214.42
373.03	214.31
373.41	214.26
373.78	214.18
374.16	214.02
374.54	213.91
374.92	213.77
375.30	213.76
375.68	213.64
376.06	213.56
376.44	213.45
376.82	213.44
377.19	213.35
377.57	213.35
377.95	213.20
378.33	213.11
378.71	212.98
379.09	212.90
379.47	212.90
379.84	212.80
380.22	212.75
380.60	212.60
380.98	212.65
381.36	212.61
381.73	212.49
382.11	212.53
382.49	212.52
382.87	212.55
383.25	212.52
383.62	212.68
384.00	212.65
384.38	212.62
384.76	212.55
385.13	212.62
385.51	212.60
385.89	212.60
386.27	212.52
386.64	212.50
387.02	212.47
387.40	212.39
387.78	212.38
388.15	212.35
388.53	212.35
388.91	212.35
389.29	212.26
389.66	212.30
390.04	212.24
390.42	212.21
390.79	212.21
391.17	212.22
391.55	212.08
391.92	212.11
392.30	212.09
392.68	212.07
393.05	211.98
393.43	212.00
393.81	211.98
394.18	212.00
394.56	212.03
394.94	212.02
395.31	211.98
395.69	212.04
396.06	212.07
396.44	212.04
396.82	211.94
397.19	212.09
397.57	212.05
397.95	212.06
398.32	212.04
398.70	212.05
399.07	212.04
399.45	212.00
399.82	211.99
400.20	211.98
400.58	212.00
400.95	211.97
401.33	212.01
401.70	212.15
402.08	212.16
402.45	212.18
402.83	212.30
403.20	212.43
403.58	212.43
403.95	212.56
404.33	212.71
404.71	212.90
405.08	213.01
405.46	213.10
405.83	213.19
406.21	213.28
406.58	213.46
406.96	213.60
407.33	213.79
407.70	214.05
408.08	214.41
408.45	214.69
408.83	214.99
409.20	215.11
409.58	215.30
409.95	215.58
410.33	215.88
410.70	216.10
411.08	216.48
411.45	216.90
411.82	217.32
412.20	217.74
412.57	218.29
412.95	218.68
413.32	219.21
413.69	219.82
414.07	220.42
414.44	221.03
414.82	221.66
415.19	222.40
415.56	223.07
415.94	223.71
416.31	224.51
416.68	225.38
417.06	226.50
417.43	227.51
417.81	228.66
418.18	229.76
418.55	231.02
418.93	232.32
419.30	233.60
419.67	234.91
420.04	236.41
420.42	237.81
420.79	239.58
421.16	241.35
421.54	243.15
421.91	245.01
422.28	246.94
422.66	249.00
423.03	251.02
423.40	253.14
423.77	255.43
424.15	257.84
424.52	260.26
424.89	262.77
425.26	265.16
425.64	267.49
426.01	270.09
426.38	272.87
426.75	275.68
427.13	278.48
427.50	281.50
427.87	284.61
428.24	287.69
428.61	290.61
428.99	293.90
429.36	297.34
429.73	300.89
430.10	304.36
430.47	308.00
430.85	311.72
431.22	315.66
431.59	319.79
431.96	323.60
432.33	327.99
432.70	332.29
433.08	337.31
433.45	342.06
433.82	346.76
434.19	351.85
434.56	356.89
434.93	361.73
435.30	366.52
435.68	371.72
436.05	376.91
436.42	382.16
436.79	386.87
437.16	392.06
437.53	397.40
437.90	402.66
438.27	407.81
438.64	413.18
439.01	418.15
439.38	422.72
439.75	427.03
440.13	431.83
440.50	436.32
440.87	440.01
441.24	443.89
441.61	448.05
441.98	451.13
442.35	454.73
442.72	458.38
443.09	462.00
443.46	464.04
443.83	465.48
444.20	466.63
444.57	468.35
444.94	469.07
445.31	469.91
445.68	470.71
446.05	470.97
446.42	470.33
446.79	469.51
447.16	468.48
447.53	467.98
447.90	465.79
448.27	463.78
448.64	460.92
449.01	458.75
449.37	455.10
449.74	451.53
450.11	447.20
450.48	442.61
450.85	437.80
451.22	433.90
451.59	430.13
451.96	426.47
452.33	421.62
452.70	417.28
453.07	411.97
453.43	406.67
453.80	401.60
454.17	396.78
454.54	392.21
454.91	387.39
455.28	382.51
455.65	378.06
456.02	373.62
456.38	369.88
456.75	365.14
457.12	361.31
457.49	357.62
457.86	353.93
458.23	350.83
458.59	347.35
458.96	343.77
459.33	340.58
459.70	337.43
460.07	335.01
460.43	332.07
460.80	329.41
461.17	326.98
461.54	324.54
461.91	322.17
462.27	319.84
462.64	317.77
463.01	315.50
463.38	313.34
463.74	311.06
464.11	309.11
464.48	307.39
464.85	305.56
465.21	304.05
465.58	302.69
465.95	300.91
466.32	299.47
466.68	298.10
467.05	296.72
467.42	295.30
467.78	293.80
468.15	292.48
468.52	291.53
468.88	290.27
469.25	289.11
469.62	288.15
469.98	287.10
470.35	286.18
470.72	285.36
471.08	284.50
471.45	283.81
471.82	282.98
472.18	282.18
472.55	281.60
472.92	280.89
473.28	280.16
473.65	279.60
474.02	279.11
474.38	278.74
474.75	278.47
475.11	278.06
475.48	277.78
475.85	277.53
476.21	277.28
476.58	277.15
476.94	277.08
477.31	277.01
477.67	277.03
478.04	277.10
478.41	277.16
478.77	277.47
479.14	277.60
479.50	277.90
479.87	278.26
480.23	278.58
480.60	278.97
480.96	279.43
481.33	280.06
481.69	280.63
482.06	281.15
482.42	281.70
482.79	282.47
483.15	283.38
483.52	284.46
483.88	285.39
484.25	286.43
484.61	287.49
484.98	288.61
485.34	289.87
485.71	291.19
486.07	292.65
486.44	293.94
486.80	295.43
487.17	297.01
487.53	298.79
487.90	300.68
488.26	302.58
488.62	304.67
488.99	306.65
489.35	308.79
489.72	311.11
490.08	313.50
490.44	316.02
490.81	318.64
491.17	321.19
491.54	324.20
491.90	327.14
492.26	330.38
492.63	333.71
492.99	337.14
493.36	340.85
493.72	344.72
494.08	348.81
494.45	353.15
494.81	357.62
495.17	362.21
495.54	367.01
495.90	372.22
496.26	377.37
496.63	382.95
496.99	388.77
497.35	394.77
497.72	401.13
498.08	407.61
498.44	414.19
498.80	421.53
499.17	428.88
499.53	436.59
499.89	444.54
500.26	452.66
500.62	461.07
500.98	469.88
501.34	479.03
501.71	488.45
502.07	498.19
502.43	508.35
502.79	518.64
503.16	529.40
503.52	540.34
503.88	551.55
504.24	563.17
504.60	575.00
504.97	587.25
505.33	599.77
505.69	613.01
506.05	626.78
506.41	640.20
506.78	653.91
507.14	668.11
507.50	682.63
507.86	697.67
508.22	713.06
508.59	728.72
508.95	744.75
509.31	761.23
509.67	777.80
510.03	794.70
510.39	812.28
510.75	830.02
511.12	848.11
511.48	866.71
511.84	885.46
512.20	904.35
512.56	923.78
512.92	943.40
513.28	963.20
513.64	982.90
514.00	1003.00
514.37	1023.52
514.73	1044.45
515.09	1065.40
515.45	1086.65
515.81	1107.90
516.17	1129.29
516.53	1150.55
516.89	1171.93
517.25	1193.72
517.61	1215.58
517.97	1237.33
518.33	1258.98
518.69	1280.62
519.05	1302.79
519.41	1324.80
519.77	1347.31
520.13	1369.36
520.49	1391.47
520.85	1414.19
521.21	1436.85
521.57	1460.00
521.93	1482.47
522.29	1505.26
522.65	1527.99
523.01	1550.48
523.37	1572.73
523.73	1595.27
524.09	1618.08
524.45	1640.75
524.81	1663.20
525.17	1685.57
525.53	1708.21
525.89	1730.76
526.25	1753.18
526.61	1774.75
526.97	1796.85
527.33	1818.30
527.68	1840.06
528.04	1861.61
528.40	1882.11
528.76	1902.95
529.12	1923.82
529.48	1945.59
529.84	1966.23
530.20	1986.78
530.56	2007.29
530.91	2028.61
531.27	2049.18
531.63	2069.31
531.99	2089.26
532.35	2108.68
532.71	2128.06
533.07	2147.70
533.42	2166.55
533.78	2185.36
534.14	2204.18
534.50	2221.65
534.86	2240.08
535.21	2256.92
535.57	2275.13
535.93	2292.73
536.29	2309.91
536.65	2326.55
537.00	2342.22
537.36	2357.70
537.72	2373.31
538.08	2389.00
538.44	2403.99
538.79	2419.53
539.15	2434.68
539.51	2449.60
539.87	2465.19
540.22	2479.93
540.58	2494.78
540.94	2509.15
541.29	2522.63
541.65	2534.72
542.01	2548.35
542.37	2560.18
542.72	2572.98
543.08	2583.99
543.44	2596.08
543.79	2606.63
544.15	2617.48
544.51	2628.60
544.87	2640.08
545.22	2649.44
545.58	2657.86
545.94	2665.47
546.29	2671.81
546.65	2678.29
547.01	2684.79
547.36	2690.60
547.72	2696.38
548.07	2700.59
548.43	2705.01
548.79	2709.20
549.14	2714.46
549.50	2718.65
549.86	2723.14
550.21	2727.40
550.57	2731.64
550.92	2734.28
551.28	2736.98
551.64	2739.39
551.99	2742.22
552.35	2743.52
552.70	2746.56
553.06	2749.77
553.41	2753.06
553.77	2756.42
554.13	2758.37
554.48	2760.33
554.84	2762.13
555.19	2762.77
555.55	2763.65
555.90	2764.25
556.26	2764.71
556.61	2764.72
556.97	2763.57
557.32	2763.12
557.68	2761.38
558.03	2759.90
558.39	2758.38
558.74	2758.46
559.10	2757.62
559.45	2755.33
559.81	2754.39
560.16	2751.60
560.52	2749.22
560.87	2746.46
561.23	2742.71
561.58	2741.04
561.94	2737.86
562.29	2733.85
562.64	2731.84
563.00	2729.12
563.35	2726.93
563.71	2725.55
564.06	2723.39
564.42	2721.90
564.77	2719.70
565.12	2718.08
565.48	2715.09
565.83	2712.22
566.19	2708.71
566.54	2704.05
566.89	2700.49
567.25	2696.85
567.60	2693.43
567.96	2689.59
568.31	2686.32
568.66	2682.44
569.02	2677.43
569.37	2672.45
569.72	2668.73
570.08	2663.15
570.43	2657.68
570.78	2651.87
571.14	2645.34
571.49	2638.76
571.84	2632.36
572.20	2625.37
572.55	2618.98
572.90	2612.14
573.26	2605.34
573.61	2597.95
573.96	2591.59
574.31	2583.66
574.67	2575.36
575.02	2567.04
575.37	2558.47
575.72	2549.41
576.08	2542.01
576.43	2533.32
576.78	2525.31
577.13	2517.26
577.49	2509.41
577.84	2501.61
578.19	2493.77
578.54	2486.35
578.90	2479.25
579.25	2470.55
579.60	2461.33
579.95	2451.57
580.30	2443.41
580.66	2434.97
581.01	2426.08
581.36	2416.73
581.71	2408.37
582.06	2399.83
582.42	2391.67
582.77	2382.37
583.12	2373.33
583.47	2364.33
583.82	2355.93
584.17	2346.66
584.53	2337.28
584.88	2328.25
585.23	2318.87
585.58	2309.03
585.93	2299.10
586.28	2289.70
586.63	2280.50
586.98	2272.21
587.34	2263.88
587.69	2254.55
588.04	2245.58
588.39	2237.29
588.74	2228.28
589.09	2219.17
589.44	2209.56
589.79	2200.98
590.14	2193.14
590.49	2184.47
590.84	2175.40
591.19	2167.28
591.54	2158.71
591.89	2148.70
592.25	2139.33
592.60	2129.97
592.95	2120.76
593.30	2111.08
593.65	2101.06
594.00	2091.53
594.35	2083.22
594.70	2073.63
595.05	2065.11
595.40	2055.72
595.75	2045.75
596.10	2037.47
596.45	2028.89
596.80	2021.05
597.15	2012.16
597.50	2002.79
597.85	1993.95
598.19	1984.90
598.54	1975.94
598.89	1967.61
599.24	1960.66
599.59	1952.82
599.94	1945.57
600.29	1937.75
600.64	1929.80
600.99	1921.73
601.34	1914.42
601.69	1905.44
602.04	1897.38
602.39	1888.88
602.74	1881.18
603.08	1874.53
603.43	1867.21
603.78	1858.93
604.13	1850.67
604.48	1842.67
604.83	1835.60
605.18	1828.55
605.53	1821.01
605.87	1813.24
606.22	1805.94
606.57	1798.03
606.92	1790.06
607.27	1781.72
607.62	1774.47
607.96	1767.55
608.31	1761.18
608.66	1753.33
609.01	1745.77
609.36	1738.12
609.70	1730.18
610.05	1722.05
610.40	1713.82
610.75	1705.00
611.10	1697.46
611.44	1688.29
611.79	1679.12
612.14	1669.55
612.49	1659.91
612.83	1651.30
613.18	1641.81
613.53	1632.39
613.88	1622.49
614.22	1612.99
614.57	1603.80
614.92	1594.36
615.27	1584.60
615.61	1574.31
615.96	1565.15
616.31	1556.53
616.65	1548.47
617.00	1540.25
617.35	1531.62
617.70	1522.37
618.04	1513.21
618.39	1503.66
618.74	1495.13
619.08	1486.40
619.43	1478.25
619.78	1470.33
620.12	1462.08
620.47	1454.30
620.82	1445.90
621.16	1437.60
621.51	1429.39
621.85	1420.76
622.20	1412.02
622.55	1403.63
622.89	1395.53
623.24	1387.66
623.59	1378.88
623.93	1370.22
624.28	1361.65
624.62	1353.64
624.97	1345.32
625.32	1337.58
625.66	1330.25
626.01	1322.74
626.35	1315.56
626.70	1307.78
627.04	1300.10
627.39	1292.23
627.73	1284.54
628.08	1277.44
628.43	1270.02
628.77	1262.53
629.12	1255.28
629.46	1248.68
629.81	1241.21
630.15	1233.83
630.50	1226.14
630.84	1218.75
631.19	1211.30
631.53	1204.29
631.88	1196.40
632.22	1188.77
632.57	1181.65
632.91	1173.94
633.26	1166.49
633.60	1159.21
633.95	1152.37
634.29	1145.08
634.64	1138.40
634.98	1130.98
635.32	1123.80
635.67	1117.07
636.01	1110.33
636.36	1103.53
636.70	1096.69
637.05	1090.26
637.39	1083.81
637.73	1077.50
638.08	1071.65
638.42	1065.91
638.77	1059.35
639.11	1053.13
639.45	1047.26
639.80	1040.66
640.14	1034.39
640.49	1028.26
640.83	1022.05
641.17	1015.53
641.52	1009.35
641.86	1002.75
642.20	996.55
642.55	989.74
642.89	983.32
643.23	976.93
643.58	970.90
643.92	964.23
644.26	957.88
644.61	951.66
644.95	945.41
645.29	939.02
645.64	932.16
645.98	925.97
646.32	919.95
646.66	913.74
647.01	907.84
647.35	901.94
647.69	895.59
648.04	889.55
648.38	883.62
648.72	877.66
649.06	871.53
649.41	865.41
649.75	859.65
650.09	853.79
650.43	847.95
650.78	841.50
651.12	835.49
651.46	829.90
651.80	823.84
652.14	818.05
652.49	811.93
652.83	806.07
653.17	799.70
653.51	793.71
653.85	787.94
654.20	781.91
654.54	776.04
654.88	770.47
655.22	764.49
655.56	758.54
655.90	752.44
656.25	746.74
656.59	741.23
656.93	736.09
657.27	730.84
657.61	725.41
657.95	720.38
658.29	715.28
658.64	709.99
658.98	704.85
659.32	699.37
659.66	694.11
660.00	688.55
660.34	683.55
660.68	678.50
661.02	673.38
661.36	668.65
661.70	663.63
662.05	658.93
662.39	654.53
662.73	650.05
663.07	645.68
663.41	641.16
663.75	636.50
664.09	631.73
664.43	626.91
664.77	622.52
665.11	618.18
665.45	613.64
665.79	609.00
666.13	604.61
666.47	600.24
666.81	596.13
667.15	592.24
667.49	588.34
667.83	584.34
668.17	580.44
668.51	576.51
668.85	572.87
669.19	569.03
669.53	565.03
669.87	560.94
670.21	557.06
670.55	553.16
670.89	549.82
671.23	546.31
671.57	542.84
671.91	539.08
672.25	535.43
672.58	531.90
672.92	528.57
673.26	525.39
673.60	522.21
673.94	518.82
674.28	515.59
674.62	512.43
674.96	509.18
675.30	506.01
675.64	502.76
675.97	499.55
676.31	496.51
676.65	493.65
676.99	491.05
677.33	488.10
677.67	485.24
678.01	481.94
678.34	478.92
678.68	475.99
679.02	473.06
679.36	470.18
679.70	467.36
680.04	464.43
680.37	461.43
680.71	458.63
681.05	456.03
681.39	453.32
681.73	450.46
682.06	447.98
682.40	445.40
682.74	442.90
683.08	440.41
683.42	437.65
683.75	434.95
684.09	432.17
684.43	429.62
684.77	426.99
685.10	424.66
685.44	422.06
685.78	419.55
686.12	417.28
686.45	414.93
686.79	412.59
687.13	410.42
687.46	408.25
687.80	405.94
688.14	403.50
688.48	401.37
688.81	399.12
689.15	396.81
689.49	394.47
689.82	392.07
690.16	389.58
690.50	387.37
690.83	385.09
691.17	382.90
691.51	380.70
691.84	378.61
692.18	376.45
692.52	374.50
692.85	372.59
693.19	370.70
693.52	368.62
693.86	366.63
694.20	364.64
694.53	362.60
694.87	360.76
695.21	358.86
695.54	356.81
695.88	354.95
696.21	353.12
696.55	351.33
696.88	349.64
697.22	347.91
697.56	346.33
697.89	344.68
698.23	343.06
698.56	341.46
698.90	339.97
699.23	338.35
699.57	336.70
699.90	335.05
700.24	333.31
700.58	331.84
700.91	330.35
701.25	328.92
701.58	327.46
701.92	325.95
702.25	324.61
702.59	323.30
702.92	321.94
703.26	320.58
703.59	319.28
703.93	318.14
704.26	316.90
704.60	315.52
704.93	314.31
705.26	313.03
705.60	311.89
705.93	310.53
706.27	309.38
706.60	308.28
706.94	307.12
707.27	305.92
707.61	304.73
707.94	303.59
708.27	302.30
708.61	301.12
708.94	299.98
709.28	298.68
709.61	297.55
709.94	296.57
710.28	295.45
710.61	294.44
710.95	293.12
711.28	292.24
711.61	291.25
711.95	290.27
712.28	289.33
712.61	288.26
712.95	287.39
713.28	286.42
713.61	285.40
713.95	284.47
714.28	283.67
714.61	282.80
714.95	281.86
715.28	280.95
715.61	280.05
715.95	279.14
716.28	278.37
716.61	277.45
716.95	276.43
717.28	275.62
717.61	274.75
717.94	274.12
718.28	273.13
718.61	272.31
718.94	271.46
719.27	270.69
719.61	269.98
719.94	269.25
720.27	268.46
720.60	267.71
720.94	266.95
721.27	266.20
721.60	265.45
721.93	264.79
722.27	264.17
722.60	263.59
722.93	262.94
723.26	262.34
723.59	261.82
723.93	261.28
724.26	260.71
724.59	260.22
724.92	259.60
725.25	259.07
725.59	258.53
725.92	258.01
726.25	257.57
726.58	257.06
726.91	256.52
727.24	256.19
727.57	255.74
727.91	255.22
728.24	254.78
728.57	254.29
728.90	253.89
729.23	253.42
729.56	253.07
729.89	252.58
730.22	252.10
730.55	251.54
730.89	250.98
731.22	250.56
731.55	250.02
731.88	249.58
732.21	249.10
732.54	248.69
732.87	248.23
733.20	247.75
733.53	247.30
733.86	246.92
734.19	246.47
734.52	246.09
734.85	245.91
735.18	245.45
735.51	245.13
735.84	244.73
736.17	244.36
736.50	243.85
736.83	243.73
737.16	243.35
737.49	242.97
737.82	242.65
738.15	242.25
738.48	241.93
738.81	241.57
739.14	241.23
739.47	240.83
739.80	240.54
740.13	240.18
740.46	239.73
740.79	239.35
741.12	238.87
741.45	238.50
741.78	238.03
742.11	237.77
742.44	237.40
742.77	237.10
743.10	236.80
743.43	236.51
743.75	236.08
744.08	236.03
744.41	235.80
744.74	235.56
745.07	235.24
745.40	235.04
745.73	234.81
746.06	234.54
746.39	234.30
746.71	233.98
747.04	233.71
747.37	233.50
747.70	233.23
748.03	233.06
748.36	232.90
748.68	232.65
749.01	232.30
749.34	232.04
749.67	231.81
750.00	231.57
750.33	231.40
750.65	231.12
750.98	230.65
751.31	230.42
751.64	230.25
751.97	230.11
752.29	229.84
752.62	229.57
752.95	229.39
753.28	229.06
753.60	228.83
753.93	228.61
754.26	228.40
754.59	228.24
754.91	227.94
755.24	227.70
755.57	227.46
755.90	227.27
756.22	227.15
756.55	226.95
756.88	226.68
757.20	226.37
757.53	226.12
757.86	225.87
758.19	225.69
758.51	225.46
758.84	225.20
759.17	224.98
759.49	224.80
759.82	224.66
760.15	224.57
760.47	224.41
760.80	224.22
761.13	224.05
761.45	223.87
761.78	223.75
762.11	223.63
762.43	223.49
762.76	223.35
763.08	223.12
763.41	222.98
763.74	222.84
764.06	222.67
764.39	222.58
764.71	222.49
765.04	222.29
765.37	222.14
765.69	222.00
766.02	221.87
766.34	221.70
766.67	221.55
767.00	221.41
767.32	221.44
767.65	221.40
767.97	221.27
768.30	221.16
768.62	221.00
768.95	220.80
769.27	220.70
769.60	220.59
769.92	220.46
770.25	220.30
770.57	220.21
770.90	220.17
771.22	220.02
771.55	219.86
771.87	219.84
772.20	219.77
772.52	219.84
772.85	219.93
773.17	219.85
773.50	219.74
773.82	219.69
774.15	219.38
774.47	219.27
774.80	219.18
775.12	219.06
775.45	218.98
775.77	218.88
776.09	218.73
776.42	218.73
776.74	218.71
777.07	218.65
777.39	218.51
777.72	218.35
778.04	218.30
778.36	218.27
778.69	218.14
779.01	218.05
779.33	217.81
779.66	217.50
779.98	217.38
780.31	217.30
780.63	217.25
780.95	217.25
781.28	217.11
781.60	217.02
781.92	216.90
782.25	216.78
782.57	216.72
782.89	216.67
783.22	216.60
783.54	216.51
783.86	216.41
784.19	216.40
784.51	216.36
784.83	216.24
785.16	216.17
785.48	216.15
785.80	216.09
786.12	216.01
786.45	215.99
