SpectraSuite Data File
++++++++++++++++++++++++++++++++++++
Date: Mon Feb 25 17:30:42 EST 2013
User: group
Dark Spectrum Present: No
Reference Spectrum Present: No
Number of Sampled Component Spectra: 1
Spectrometers: USB2E7196
Integration Time (usec): 52000 (USB2E7196)
Spectra Averaged: 20 (USB2E7196)
Boxcar Smoothing: 10 (USB2E7196)
Correct for Electrical Dark: No (USB2E7196)
Strobe/Lamp Enabled: No (USB2E7196)
Correct for Detector Non-linearity: No (USB2E7196)
Correct for Stray Light: No (USB2E7196)
Number of Pixels in Processed Spectrum: 2048
>>>>>Begin Processed Spectral Data<<<<<
339.09	0.00
339.48	198.40
339.86	199.65
340.24	202.05
340.63	202.55
341.01	206.00
341.39	206.05
341.78	207.70
342.16	208.70
342.54	209.05
342.93	198.33
343.31	208.33
343.69	208.91
344.07	209.39
344.46	209.85
344.84	210.26
345.22	210.46
345.60	210.72
345.99	210.87
346.37	211.03
346.75	211.09
347.13	211.20
347.52	211.21
347.90	211.33
348.28	211.34
348.66	211.36
349.05	211.35
349.43	211.48
349.81	211.50
350.19	211.52
350.57	211.51
350.96	211.53
351.34	211.66
351.72	211.70
352.10	211.84
352.48	211.90
352.87	211.97
353.25	212.04
353.63	212.13
354.01	212.19
354.39	212.26
354.77	212.37
355.15	212.38
355.54	212.43
355.92	212.43
356.30	212.47
356.68	212.69
357.06	212.80
357.44	212.80
357.82	212.89
358.20	212.89
358.58	212.98
358.97	213.00
359.35	213.08
359.73	213.22
360.11	213.23
360.49	213.23
360.87	213.34
361.25	213.44
361.63	213.52
362.01	213.60
362.39	213.65
362.77	213.72
363.15	213.80
363.53	213.88
363.91	213.95
364.29	214.00
364.67	213.87
365.05	213.84
365.43	213.92
365.81	213.96
366.19	214.18
366.57	214.31
366.95	214.38
367.33	214.33
367.71	214.33
368.09	214.46
368.47	214.47
368.85	214.39
369.23	214.38
369.61	214.33
369.99	214.40
370.37	214.36
370.75	214.35
371.13	214.34
371.51	214.21
371.89	214.13
372.27	214.16
372.65	214.10
373.03	214.08
373.41	214.04
373.78	214.01
374.16	213.82
374.54	213.76
374.92	213.67
375.30	213.65
375.68	213.64
376.06	213.55
376.44	213.52
376.82	213.46
377.19	213.41
377.57	213.37
377.95	213.17
378.33	213.10
378.71	213.02
379.09	212.96
379.47	212.98
379.84	212.93
380.22	212.91
380.60	212.85
380.98	212.75
381.36	212.67
381.73	212.54
382.11	212.54
382.49	212.44
382.87	212.37
383.25	212.33
383.62	212.41
384.00	212.35
384.38	212.34
384.76	212.39
385.13	212.47
385.51	212.43
385.89	212.37
386.27	212.37
386.64	212.32
387.02	212.34
387.40	212.30
387.78	212.31
388.15	212.19
388.53	212.22
388.91	212.20
389.29	212.24
389.66	212.34
390.04	212.28
390.42	212.29
390.79	212.25
391.17	212.25
391.55	212.07
391.92	211.99
392.30	211.97
392.68	211.91
393.05	211.83
393.43	211.79
393.81	211.83
394.18	211.80
394.56	211.81
394.94	211.78
395.31	211.78
395.69	211.85
396.06	211.89
396.44	211.83
396.82	211.85
397.19	211.93
397.57	211.85
397.95	211.97
398.32	211.86
398.70	211.97
399.07	212.03
399.45	212.04
399.82	212.13
400.20	212.11
400.58	212.10
400.95	212.07
401.33	212.18
401.70	212.46
402.08	212.51
402.45	212.59
402.83	212.71
403.20	212.80
403.58	212.80
403.95	212.92
404.33	213.03
404.71	213.16
405.08	213.25
405.46	213.42
405.83	213.48
406.21	213.67
406.58	213.80
406.96	214.00
407.33	214.17
407.70	214.32
408.08	214.65
408.45	214.94
408.83	215.25
409.20	215.45
409.58	215.50
409.95	215.83
410.33	216.11
410.70	216.38
411.08	216.67
411.45	217.11
411.82	217.44
412.20	217.90
412.57	218.52
412.95	218.87
413.32	219.38
413.69	219.84
414.07	220.43
414.44	221.01
414.82	221.60
415.19	222.31
415.56	223.07
415.94	223.80
416.31	224.65
416.68	225.45
417.06	226.37
417.43	227.32
417.81	228.35
418.18	229.50
418.55	230.65
418.93	231.85
419.30	233.06
419.67	234.47
420.04	235.85
420.42	237.14
420.79	238.89
421.16	240.55
421.54	242.35
421.91	244.09
422.28	245.93
422.66	247.89
423.03	249.86
423.40	251.84
423.77	253.91
424.15	256.08
424.52	258.43
424.89	260.95
425.26	263.37
425.64	265.68
426.01	268.11
426.38	270.76
426.75	273.56
427.13	276.29
427.50	279.11
427.87	282.16
428.24	285.08
428.61	287.97
428.99	291.12
429.36	294.63
429.73	298.03
430.10	301.47
430.47	304.90
430.85	308.49
431.22	312.44
431.59	316.49
431.96	320.37
432.33	324.54
432.70	328.59
433.08	333.40
433.45	337.81
433.82	342.32
434.19	347.30
434.56	352.10
434.93	356.79
435.30	361.44
435.68	366.46
436.05	371.50
436.42	376.48
436.79	381.14
437.16	386.03
437.53	391.22
437.90	396.38
438.27	401.34
438.64	406.49
439.01	411.26
439.38	415.72
439.75	419.85
440.13	424.62
440.50	429.05
440.87	432.69
441.24	436.55
441.61	440.75
441.98	443.70
442.35	447.20
442.72	450.77
443.09	454.28
443.46	456.39
443.83	457.89
444.20	459.06
444.57	460.78
444.94	461.52
445.31	462.34
445.68	463.06
446.05	463.35
446.42	462.80
446.79	461.92
447.16	460.97
447.53	460.26
447.90	458.20
448.27	456.20
448.64	453.29
449.01	451.38
449.37	447.80
449.74	444.45
450.11	440.50
450.48	436.12
450.85	431.60
451.22	427.70
451.59	423.99
451.96	420.44
452.33	415.77
452.70	411.53
453.07	406.44
453.43	401.30
453.80	396.54
454.17	391.71
454.54	387.40
454.91	382.71
455.28	378.11
455.65	373.80
456.02	369.62
456.38	365.97
456.75	361.22
457.12	357.51
457.49	353.72
457.86	350.04
458.23	346.90
458.59	343.47
458.96	339.95
459.33	336.92
459.70	333.89
460.07	331.30
460.43	328.50
460.80	325.93
461.17	323.61
461.54	321.16
461.91	318.88
462.27	316.52
462.64	314.53
463.01	312.44
463.38	310.32
463.74	308.18
464.11	306.31
464.48	304.77
464.85	302.96
465.21	301.73
465.58	300.32
465.95	298.65
466.32	297.22
466.68	295.91
467.05	294.50
467.42	293.16
467.78	291.86
468.15	290.55
468.52	289.60
468.88	288.31
469.25	287.24
469.62	286.45
469.98	285.54
470.35	284.60
470.72	283.75
471.08	282.83
471.45	282.01
471.82	281.35
472.18	280.54
472.55	279.99
472.92	279.21
473.28	278.58
473.65	278.02
474.02	277.51
474.38	277.10
474.75	276.80
475.11	276.37
475.48	276.11
475.85	275.85
476.21	275.62
476.58	275.56
476.94	275.43
477.31	275.44
477.67	275.38
478.04	275.43
478.41	275.55
478.77	275.84
479.14	276.00
479.50	276.26
479.87	276.67
480.23	277.03
480.60	277.43
480.96	277.84
481.33	278.45
481.69	279.10
482.06	279.75
482.42	280.35
482.79	281.13
483.15	281.93
483.52	282.90
483.88	283.89
484.25	284.82
484.61	285.86
484.98	286.82
485.34	288.15
485.71	289.50
486.07	290.86
486.44	292.24
486.80	293.72
487.17	295.39
487.53	297.06
487.90	298.81
488.26	300.79
488.62	302.84
488.99	304.88
489.35	307.03
489.72	309.41
490.08	311.85
490.44	314.24
490.81	316.91
491.17	319.66
491.54	322.51
491.90	325.52
492.26	328.71
492.63	332.17
492.99	335.61
493.36	339.28
493.72	343.12
494.08	347.03
494.45	351.35
494.81	355.76
495.17	360.36
495.54	365.27
495.90	370.24
496.26	375.39
496.63	380.78
496.99	386.49
497.35	392.39
497.72	398.59
498.08	405.07
498.44	411.82
498.80	418.89
499.17	426.25
499.53	434.00
499.89	442.04
500.26	450.04
500.62	458.16
500.98	466.86
501.34	475.98
501.71	485.36
502.07	494.76
502.43	504.59
502.79	514.72
503.16	525.29
503.52	536.03
503.88	547.30
504.24	558.98
504.60	570.73
504.97	582.86
505.33	595.19
505.69	608.43
506.05	621.76
506.41	635.16
506.78	648.67
507.14	662.60
507.50	676.96
507.86	691.72
508.22	707.23
508.59	722.61
508.95	738.52
509.31	754.58
509.67	771.21
510.03	788.03
510.39	805.33
510.75	823.01
511.12	840.88
511.48	858.96
511.84	877.47
512.20	896.16
512.56	915.23
512.92	934.60
513.28	953.77
513.64	973.34
514.00	993.20
514.37	1013.42
514.73	1033.90
515.09	1054.46
515.45	1074.97
515.81	1095.47
516.17	1116.62
516.53	1137.59
516.89	1158.89
517.25	1180.18
517.61	1201.54
517.97	1222.77
518.33	1243.81
518.69	1265.36
519.05	1286.88
519.41	1308.58
519.77	1330.77
520.13	1352.46
520.49	1374.08
520.85	1396.38
521.21	1418.36
521.57	1440.92
521.93	1462.63
522.29	1484.94
522.65	1507.17
523.01	1529.34
523.37	1551.28
523.73	1572.92
524.09	1594.66
524.45	1616.78
524.81	1638.80
525.17	1660.92
525.53	1683.10
525.89	1705.03
526.25	1726.57
526.61	1747.34
526.97	1768.52
527.33	1789.13
527.68	1810.03
528.04	1830.82
528.40	1850.53
528.76	1870.70
529.12	1890.81
529.48	1912.18
529.84	1932.14
530.20	1951.84
530.56	1971.83
530.91	1991.95
531.27	2012.01
531.63	2031.46
531.99	2050.65
532.35	2069.15
532.71	2087.39
533.07	2106.26
533.42	2124.17
533.78	2142.65
534.14	2161.01
534.50	2177.66
534.86	2194.92
535.21	2211.37
535.57	2228.85
535.93	2245.88
536.29	2262.21
536.65	2278.16
537.00	2292.86
537.36	2307.60
537.72	2322.43
538.08	2337.29
538.44	2351.89
538.79	2366.79
539.15	2381.23
539.51	2395.34
539.87	2410.39
540.22	2424.69
540.58	2438.79
540.94	2452.80
541.29	2465.07
541.65	2476.81
542.01	2489.70
542.37	2501.03
542.72	2512.80
543.08	2523.13
543.44	2534.44
543.79	2544.14
544.15	2554.01
544.51	2564.28
544.87	2574.87
545.22	2583.38
545.58	2591.32
545.94	2598.15
546.29	2603.89
546.65	2609.63
547.01	2615.20
547.36	2620.07
547.72	2625.11
548.07	2628.53
548.43	2631.84
548.79	2635.17
549.14	2639.33
549.50	2642.79
549.86	2646.45
550.21	2649.94
550.57	2653.50
550.92	2655.80
551.28	2658.43
551.64	2660.65
551.99	2662.92
552.35	2664.15
552.70	2666.59
553.06	2669.00
553.41	2671.77
553.77	2674.69
554.13	2677.03
554.48	2678.87
554.84	2680.19
555.19	2680.44
555.55	2681.20
555.90	2681.59
556.26	2681.99
556.61	2681.68
556.97	2680.62
557.32	2680.19
557.68	2678.23
558.03	2676.45
558.39	2674.48
558.74	2674.01
559.10	2672.60
559.45	2670.49
559.81	2669.44
560.16	2667.09
560.52	2664.50
560.87	2661.33
561.23	2657.04
561.58	2654.23
561.94	2650.77
562.29	2646.90
562.64	2644.44
563.00	2641.53
563.35	2639.14
563.71	2637.18
564.06	2635.15
564.42	2632.94
564.77	2630.66
565.12	2628.68
565.48	2625.60
565.83	2622.67
566.19	2618.92
566.54	2614.59
566.89	2610.71
567.25	2606.18
567.60	2602.57
567.96	2598.82
568.31	2595.40
568.66	2591.93
569.02	2587.40
569.37	2582.53
569.72	2578.68
570.08	2573.47
570.43	2567.85
570.78	2562.09
571.14	2555.94
571.49	2549.06
571.84	2543.37
572.20	2536.25
572.55	2529.92
572.90	2523.34
573.26	2516.55
573.61	2509.71
573.96	2503.23
574.31	2495.44
574.67	2487.91
575.02	2479.35
575.37	2470.69
575.72	2461.74
576.08	2454.41
576.43	2445.68
576.78	2438.12
577.13	2430.13
577.49	2422.19
577.84	2414.58
578.19	2407.41
578.54	2400.01
578.90	2393.21
579.25	2384.81
579.60	2375.98
579.95	2366.79
580.30	2358.83
580.66	2351.04
581.01	2342.35
581.36	2333.01
581.71	2324.99
582.06	2316.71
582.42	2309.11
582.77	2300.83
583.12	2292.23
583.47	2283.61
583.82	2275.65
584.17	2266.35
584.53	2257.56
584.88	2248.69
585.23	2239.75
585.58	2230.14
585.93	2220.59
586.28	2211.69
586.63	2202.85
586.98	2195.05
587.34	2187.03
587.69	2178.09
588.04	2168.90
588.39	2160.59
588.74	2152.22
589.09	2143.80
589.44	2134.14
589.79	2125.60
590.14	2117.66
590.49	2109.81
590.84	2100.99
591.19	2093.26
591.54	2085.10
591.89	2075.01
592.25	2066.50
592.60	2057.50
592.95	2048.49
593.30	2039.59
593.65	2029.97
594.00	2020.66
594.35	2012.40
594.70	2003.80
595.05	1995.25
595.40	1986.92
595.75	1977.60
596.10	1969.51
596.45	1960.95
596.80	1953.60
597.15	1945.71
597.50	1936.64
597.85	1928.34
598.19	1919.96
598.54	1911.27
598.89	1903.63
599.24	1897.30
599.59	1889.66
599.94	1882.78
600.29	1875.41
600.64	1867.47
600.99	1859.53
601.34	1852.51
601.69	1844.12
602.04	1835.79
602.39	1828.11
602.74	1820.39
603.08	1814.19
603.43	1807.44
603.78	1799.80
604.13	1792.04
604.48	1784.17
604.83	1777.57
605.18	1770.73
605.53	1763.34
605.87	1755.95
606.22	1749.13
606.57	1741.62
606.92	1734.07
607.27	1726.18
607.62	1719.25
607.96	1712.95
608.31	1706.96
608.66	1699.62
609.01	1692.26
609.36	1684.94
609.70	1677.32
610.05	1669.78
610.40	1661.60
610.75	1653.13
611.10	1645.84
611.44	1636.99
611.79	1628.30
612.14	1619.37
612.49	1609.97
612.83	1601.44
613.18	1592.23
613.53	1582.64
613.88	1573.09
614.22	1564.40
614.57	1555.21
614.92	1545.94
615.27	1536.49
615.61	1526.99
615.96	1518.04
616.31	1509.59
616.65	1502.04
617.00	1493.93
617.35	1485.71
617.70	1477.10
618.04	1468.43
618.39	1459.22
618.74	1451.10
619.08	1442.62
619.43	1434.65
619.78	1427.17
620.12	1419.40
620.47	1411.64
620.82	1403.51
621.16	1395.61
621.51	1387.50
621.85	1379.63
622.20	1371.46
622.55	1363.50
622.89	1355.40
623.24	1347.65
623.59	1339.38
623.93	1330.86
624.28	1322.69
624.62	1314.67
624.97	1306.69
625.32	1298.96
625.66	1291.75
626.01	1284.62
626.35	1277.55
626.70	1270.01
627.04	1262.81
627.39	1255.33
627.73	1248.17
628.08	1241.47
628.43	1234.12
628.77	1226.73
629.12	1219.58
629.46	1212.94
629.81	1206.02
630.15	1198.90
630.50	1191.72
630.84	1184.58
631.19	1177.74
631.53	1171.08
631.88	1163.73
632.22	1156.30
632.57	1149.62
632.91	1142.53
633.26	1135.25
633.60	1128.33
633.95	1121.52
634.29	1114.27
634.64	1107.70
634.98	1100.85
635.32	1093.88
635.67	1087.58
636.01	1081.20
636.36	1074.47
636.70	1067.94
637.05	1061.43
637.39	1055.16
637.73	1049.03
638.08	1043.53
638.42	1037.80
638.77	1031.50
639.11	1025.27
639.45	1019.45
639.80	1012.94
640.14	1006.69
640.49	1000.61
640.83	994.44
641.17	988.29
641.52	982.25
641.86	975.81
642.20	969.81
642.55	963.34
642.89	957.06
643.23	950.96
643.58	945.39
643.92	939.21
644.26	933.00
644.61	927.07
644.95	921.04
645.29	914.59
645.64	907.98
645.98	902.05
646.32	896.14
646.66	890.29
647.01	884.71
647.35	878.89
647.69	872.79
648.04	866.78
648.38	860.94
648.72	855.09
649.06	849.23
649.41	843.29
649.75	837.70
650.09	832.10
650.43	826.16
650.78	820.05
651.12	814.06
651.46	808.47
651.80	802.83
652.14	796.95
652.49	791.16
652.83	785.62
653.17	779.62
653.51	774.17
653.85	768.41
654.20	762.57
654.54	756.91
654.88	751.56
655.22	746.06
655.56	740.34
655.90	734.59
656.25	729.04
656.59	723.56
656.93	718.40
657.27	713.24
657.61	707.92
657.95	702.90
658.29	697.90
658.64	692.96
658.98	687.85
659.32	682.64
659.66	677.66
660.00	672.33
660.34	667.28
660.68	662.20
661.02	657.22
661.36	652.51
661.70	647.79
662.05	643.13
662.39	638.76
662.73	634.58
663.07	630.49
663.41	626.31
663.75	621.96
664.09	617.42
664.43	612.73
664.77	608.46
665.11	603.98
665.45	599.69
665.79	595.27
666.13	591.00
666.47	586.87
666.81	582.76
667.15	578.88
667.49	575.11
667.83	571.20
668.17	567.49
668.51	563.83
668.85	560.26
669.19	556.77
669.53	552.86
669.87	548.90
670.21	545.01
670.55	541.09
670.89	537.80
671.23	534.50
671.57	531.12
671.91	527.66
672.25	524.27
672.58	520.82
672.92	517.46
673.26	514.41
673.60	511.35
673.94	508.09
674.28	504.91
674.62	501.75
674.96	498.74
675.30	495.69
675.64	492.57
675.97	489.40
676.31	486.27
676.65	483.49
676.99	480.85
677.33	478.05
677.67	475.34
678.01	472.14
678.34	469.06
678.68	466.29
679.02	463.45
679.36	460.68
679.70	458.05
680.04	455.32
680.37	452.38
680.71	449.70
681.05	447.19
681.39	444.62
681.73	442.12
682.06	439.62
682.40	437.17
682.74	434.52
683.08	432.08
683.42	429.54
683.75	426.95
684.09	424.39
684.43	422.01
684.77	419.45
685.10	417.02
685.44	414.70
685.78	412.26
686.12	409.96
686.45	407.80
686.79	405.49
687.13	403.46
687.46	401.32
687.80	399.12
688.14	396.86
688.48	394.82
688.81	392.57
689.15	390.36
689.49	388.20
689.82	386.07
690.16	383.79
690.50	381.67
690.83	379.50
691.17	377.35
691.51	375.12
691.84	373.05
692.18	371.21
692.52	369.24
692.85	367.53
693.19	365.67
693.52	363.74
693.86	361.85
694.20	359.93
694.53	358.10
694.87	356.22
695.21	354.41
695.54	352.45
695.88	350.50
696.21	348.63
696.55	346.93
696.88	345.26
697.22	343.53
697.56	341.98
697.89	340.46
698.23	338.82
698.56	337.28
698.90	335.89
699.23	334.29
699.57	332.74
699.90	331.04
700.24	329.36
700.58	327.73
700.91	326.29
701.25	324.96
701.58	323.50
701.92	322.08
702.25	320.72
702.59	319.38
702.92	318.17
703.26	317.00
703.59	315.77
703.93	314.59
704.26	313.48
704.60	312.23
704.93	310.93
705.26	309.79
705.60	308.58
705.93	307.30
706.27	306.04
706.60	305.04
706.94	304.03
707.27	302.94
707.61	301.85
707.94	300.71
708.27	299.40
708.61	298.32
708.94	297.23
709.28	296.07
709.61	294.90
709.94	293.83
710.28	292.76
710.61	291.65
710.95	290.57
711.28	289.64
711.61	288.57
711.95	287.67
712.28	286.69
712.61	285.80
712.95	284.94
713.28	284.11
713.61	283.13
713.95	282.19
714.28	281.44
714.61	280.52
714.95	279.60
715.28	278.69
715.61	277.77
715.95	276.90
716.28	275.97
716.61	275.20
716.95	274.37
717.28	273.55
717.61	272.76
717.94	271.99
718.28	271.12
718.61	270.45
718.94	269.75
719.27	268.97
719.61	268.14
719.94	267.42
720.27	266.60
720.60	265.86
720.94	265.09
721.27	264.42
721.60	263.90
721.93	263.30
722.27	262.77
722.60	262.14
722.93	261.54
723.26	261.03
723.59	260.44
723.93	259.80
724.26	259.19
724.59	258.59
724.92	258.06
725.25	257.51
725.59	256.96
725.92	256.33
726.25	255.86
726.58	255.38
726.91	254.90
727.24	254.51
727.57	254.10
727.91	253.59
728.24	253.04
728.57	252.50
728.90	252.02
729.23	251.45
729.56	251.15
729.89	250.67
730.22	250.20
730.55	249.74
730.89	249.33
731.22	248.80
731.55	248.33
731.88	247.89
732.21	247.48
732.54	247.05
732.87	246.68
733.20	246.19
733.53	245.85
733.86	245.38
734.19	244.89
734.52	244.52
734.85	244.32
735.18	243.93
735.51	243.61
735.84	243.23
736.17	242.94
736.50	242.44
736.83	242.27
737.16	241.96
737.49	241.55
737.82	241.20
738.15	240.94
738.48	240.59
738.81	240.25
739.14	239.90
739.47	239.49
739.80	239.15
740.13	238.89
740.46	238.48
740.79	238.14
741.12	237.87
741.45	237.48
741.78	237.06
742.11	236.89
742.44	236.56
742.77	236.34
743.10	236.07
743.43	235.81
743.75	235.35
744.08	235.29
744.41	235.03
744.74	234.79
745.07	234.47
745.40	234.30
745.73	234.10
746.06	233.80
746.39	233.54
746.71	233.29
747.04	233.00
747.37	232.80
747.70	232.54
748.03	232.33
748.36	232.14
748.68	231.87
749.01	231.54
749.34	231.26
749.67	230.99
750.00	230.76
750.33	230.61
750.65	230.43
750.98	230.02
751.31	229.85
751.64	229.64
751.97	229.50
752.29	229.25
752.62	228.95
752.95	228.69
753.28	228.46
753.60	228.30
753.93	228.19
754.26	227.95
754.59	227.74
754.91	227.50
755.24	227.22
755.57	227.04
755.90	226.81
756.22	226.64
756.55	226.41
756.88	226.17
757.20	225.92
757.53	225.61
757.86	225.41
758.19	225.25
758.51	225.05
758.84	224.82
759.17	224.60
759.49	224.45
759.82	224.39
760.15	224.32
760.47	224.08
760.80	223.85
761.13	223.72
761.45	223.55
761.78	223.38
762.11	223.23
762.43	223.10
762.76	223.00
763.08	222.80
763.41	222.70
763.74	222.59
764.06	222.39
764.39	222.29
764.71	222.12
765.04	221.84
765.37	221.65
765.69	221.54
766.02	221.35
766.34	221.19
766.67	220.96
767.00	220.81
767.32	220.79
767.65	220.72
767.97	220.56
768.30	220.48
768.62	220.34
768.95	220.24
769.27	220.14
769.60	220.03
769.92	219.94
770.25	219.81
770.57	219.67
770.90	219.61
771.22	219.50
771.55	219.46
771.87	219.47
772.20	219.40
772.52	219.42
772.85	219.64
773.17	219.56
773.50	219.40
773.82	219.36
774.15	219.13
774.47	218.96
774.80	218.88
775.12	218.73
775.45	218.71
775.77	218.67
776.09	218.57
776.42	218.44
776.74	218.44
777.07	218.37
777.39	218.27
777.72	218.18
778.04	218.05
778.36	217.93
778.69	217.86
779.01	217.82
779.33	217.62
779.66	217.35
779.98	217.32
780.31	217.32
780.63	217.26
780.95	217.28
781.28	217.26
781.60	217.15
781.92	217.20
782.25	217.12
782.57	217.05
782.89	217.03
783.22	216.99
783.54	216.90
783.86	216.83
784.19	216.78
784.51	216.78
784.83	216.79
785.16	216.72
785.48	216.64
785.80	216.55
786.12	216.53
786.45	216.44
