SpectraSuite Data File
++++++++++++++++++++++++++++++++++++
Date: Mon Feb 25 17:33:27 EST 2013
User: group
Dark Spectrum Present: No
Reference Spectrum Present: No
Number of Sampled Component Spectra: 1
Spectrometers: USB2E7196
Integration Time (usec): 52000 (USB2E7196)
Spectra Averaged: 20 (USB2E7196)
Boxcar Smoothing: 10 (USB2E7196)
Correct for Electrical Dark: No (USB2E7196)
Strobe/Lamp Enabled: No (USB2E7196)
Correct for Detector Non-linearity: No (USB2E7196)
Correct for Stray Light: No (USB2E7196)
Number of Pixels in Processed Spectrum: 2048
>>>>>Begin Processed Spectral Data<<<<<
339.09	0.00
339.48	200.20
339.86	200.95
340.24	202.65
340.63	203.30
341.01	207.80
341.39	206.35
341.78	208.15
342.16	208.60
342.54	209.80
342.93	199.04
343.31	209.07
343.69	209.57
344.07	210.09
344.46	210.58
344.84	210.95
345.22	211.16
345.60	211.42
345.99	211.59
346.37	211.78
346.75	211.85
347.13	211.83
347.52	211.89
347.90	211.91
348.28	211.94
348.66	211.97
349.05	211.91
349.43	212.04
349.81	212.08
350.19	212.07
350.57	212.15
350.96	212.27
351.34	212.40
351.72	212.50
352.10	212.58
352.48	212.58
352.87	212.69
353.25	212.75
353.63	212.78
354.01	212.81
354.39	212.83
354.77	212.88
355.15	212.97
355.54	212.97
355.92	213.02
356.30	213.05
356.68	213.22
357.06	213.26
357.44	213.24
357.82	213.28
358.20	213.38
358.58	213.38
358.97	213.41
359.35	213.46
359.73	213.56
360.11	213.58
360.49	213.59
360.87	213.57
361.25	213.56
361.63	213.62
362.01	213.69
362.39	213.72
362.77	213.79
363.15	213.81
363.53	213.85
363.91	213.78
364.29	213.75
364.67	213.66
365.05	213.62
365.43	213.67
365.81	213.67
366.19	213.73
366.57	213.80
366.95	213.76
367.33	213.65
367.71	213.53
368.09	213.48
368.47	213.49
368.85	213.48
369.23	213.55
369.61	213.48
369.99	213.44
370.37	213.49
370.75	213.56
371.13	213.50
371.51	213.46
371.89	213.54
372.27	213.61
372.65	213.53
373.03	213.53
373.41	213.39
373.78	213.28
374.16	213.11
374.54	213.02
374.92	212.95
375.30	212.92
375.68	212.95
376.06	212.98
376.44	212.92
376.82	212.91
377.19	212.82
377.57	212.81
377.95	212.79
378.33	212.68
378.71	212.55
379.09	212.55
379.47	212.51
379.84	212.41
380.22	212.35
380.60	212.26
380.98	212.25
381.36	212.34
381.73	212.35
382.11	212.40
382.49	212.35
382.87	212.31
383.25	212.33
383.62	212.53
384.00	212.42
384.38	212.43
384.76	212.44
385.13	212.49
385.51	212.48
385.89	212.45
386.27	212.35
386.64	212.31
387.02	212.29
387.40	212.25
387.78	212.24
388.15	212.20
388.53	212.20
388.91	212.16
389.29	212.10
389.66	212.12
390.04	212.09
390.42	212.16
390.79	212.19
391.17	212.15
391.55	211.86
391.92	211.82
392.30	211.77
392.68	211.69
393.05	211.67
393.43	211.60
393.81	211.55
394.18	211.60
394.56	211.62
394.94	211.59
395.31	211.58
395.69	211.62
396.06	211.62
396.44	211.65
396.82	211.67
397.19	211.81
397.57	211.79
397.95	211.83
398.32	211.76
398.70	211.83
399.07	211.90
399.45	211.92
399.82	211.96
400.20	212.02
400.58	212.14
400.95	212.11
401.33	212.24
401.70	212.48
402.08	212.55
402.45	212.62
402.83	212.75
403.20	212.84
403.58	212.90
403.95	213.03
404.33	213.13
404.71	213.24
405.08	213.34
405.46	213.50
405.83	213.61
406.21	213.77
406.58	213.84
406.96	214.00
407.33	214.19
407.70	214.44
408.08	214.78
408.45	214.92
408.83	215.19
409.20	215.43
409.58	215.58
409.95	215.84
410.33	216.17
410.70	216.43
411.08	216.76
411.45	217.12
411.82	217.42
412.20	217.85
412.57	218.39
412.95	218.71
413.32	219.26
413.69	219.77
414.07	220.30
414.44	220.90
414.82	221.51
415.19	222.27
415.56	223.11
415.94	223.75
416.31	224.69
416.68	225.59
417.06	226.64
417.43	227.50
417.81	228.56
418.18	229.61
418.55	230.81
418.93	232.11
419.30	233.52
419.67	234.94
420.04	236.46
420.42	237.92
420.79	239.76
421.16	241.46
421.54	243.36
421.91	245.30
422.28	247.29
422.66	249.45
423.03	251.52
423.40	253.50
423.77	255.78
424.15	258.05
424.52	260.36
424.89	262.83
425.26	265.43
425.64	267.75
426.01	270.35
426.38	273.10
426.75	275.84
427.13	278.56
427.50	281.50
427.87	284.54
428.24	287.59
428.61	290.53
428.99	293.75
429.36	297.11
429.73	300.57
430.10	303.97
430.47	307.49
430.85	311.06
431.22	314.89
431.59	319.11
431.96	323.01
432.33	327.31
432.70	331.43
433.08	336.32
433.45	341.02
433.82	345.66
434.19	350.69
434.56	355.63
434.93	360.38
435.30	365.14
435.68	370.49
436.05	375.74
436.42	380.85
436.79	385.51
437.16	390.76
437.53	396.09
437.90	401.50
438.27	406.65
438.64	412.08
439.01	417.11
439.38	421.40
439.75	425.68
440.13	430.46
440.50	435.11
440.87	438.84
441.24	442.71
441.61	446.98
441.98	450.11
442.35	453.77
442.72	457.46
443.09	461.04
443.46	462.99
443.83	464.43
444.20	465.50
444.57	467.24
444.94	467.85
445.31	468.48
445.68	469.12
446.05	469.18
446.42	468.52
446.79	467.75
447.16	466.92
447.53	466.35
447.90	464.34
448.27	462.25
448.64	459.34
449.01	457.29
449.37	453.62
449.74	450.17
450.11	446.04
450.48	441.55
450.85	436.88
451.22	432.98
451.59	429.05
451.96	425.51
452.33	420.74
452.70	416.39
453.07	411.35
453.43	406.03
453.80	401.14
454.17	396.38
454.54	391.85
454.91	386.99
455.28	382.19
455.65	377.65
456.02	373.24
456.38	369.52
456.75	364.79
457.12	360.96
457.49	357.16
457.86	353.37
458.23	350.06
458.59	346.51
458.96	342.85
459.33	339.81
459.70	336.69
460.07	334.16
460.43	331.34
460.80	328.74
461.17	326.33
461.54	323.80
461.91	321.40
462.27	318.94
462.64	316.86
463.01	314.65
463.38	312.54
463.74	310.32
464.11	308.34
464.48	306.69
464.85	304.92
465.21	303.38
465.58	301.97
465.95	300.38
466.32	299.02
466.68	297.72
467.05	296.28
467.42	294.82
467.78	293.45
468.15	292.08
468.52	290.95
468.88	289.78
469.25	288.55
469.62	287.68
469.98	286.71
470.35	285.76
470.72	284.85
471.08	283.92
471.45	283.26
471.82	282.59
472.18	281.73
472.55	281.02
472.92	280.36
473.28	279.73
473.65	279.14
474.02	278.53
474.38	278.12
474.75	277.75
475.11	277.42
475.48	277.22
475.85	277.02
476.21	276.77
476.58	276.63
476.94	276.79
477.31	276.67
477.67	276.64
478.04	276.67
478.41	276.93
478.77	277.33
479.14	277.40
479.50	277.65
479.87	278.05
480.23	278.49
480.60	278.95
480.96	279.40
481.33	280.05
481.69	280.78
482.06	281.28
482.42	281.93
482.79	282.69
483.15	283.47
483.52	284.48
483.88	285.42
484.25	286.45
484.61	287.48
484.98	288.66
485.34	289.98
485.71	291.42
486.07	292.75
486.44	294.10
486.80	295.62
487.17	297.22
487.53	298.96
487.90	300.79
488.26	302.65
488.62	304.73
488.99	306.70
489.35	308.70
489.72	310.95
490.08	313.39
490.44	315.85
490.81	318.34
491.17	320.95
491.54	323.90
491.90	326.94
492.26	330.19
492.63	333.55
492.99	337.05
493.36	340.57
493.72	344.42
494.08	348.40
494.45	352.64
494.81	357.01
495.17	361.65
495.54	366.58
495.90	371.68
496.26	376.93
496.63	382.43
496.99	388.20
497.35	394.32
497.72	400.56
498.08	407.03
498.44	413.84
498.80	421.02
499.17	428.55
499.53	436.22
499.89	444.14
500.26	452.11
500.62	460.44
500.98	469.42
501.34	478.46
501.71	487.88
502.07	497.72
502.43	507.73
502.79	517.80
503.16	528.33
503.52	539.18
503.88	550.38
504.24	561.86
504.60	574.02
504.97	586.38
505.33	598.75
505.69	612.04
506.05	625.55
506.41	639.02
506.78	652.74
507.14	666.81
507.50	681.25
507.86	696.46
508.22	711.90
508.59	727.43
508.95	743.51
509.31	759.66
509.67	776.16
510.03	793.15
510.39	810.80
510.75	828.63
511.12	846.83
511.48	865.26
511.84	883.92
512.20	902.54
512.56	921.73
512.92	941.48
513.28	961.00
513.64	980.98
514.00	1001.08
514.37	1021.43
514.73	1042.16
515.09	1063.07
515.45	1083.70
515.81	1104.88
516.17	1126.09
516.53	1147.40
516.89	1169.03
517.25	1190.50
517.61	1212.42
517.97	1233.87
518.33	1255.46
518.69	1277.29
519.05	1299.50
519.41	1321.90
519.77	1344.34
520.13	1366.30
520.49	1388.46
520.85	1411.48
521.21	1433.91
521.57	1457.00
521.93	1478.89
522.29	1501.69
522.65	1524.01
523.01	1546.59
523.37	1568.68
523.73	1591.01
524.09	1613.18
524.45	1635.67
524.81	1657.95
525.17	1680.32
525.53	1702.58
525.89	1725.00
526.25	1746.59
526.61	1767.64
526.97	1788.96
527.33	1810.36
527.68	1832.04
528.04	1853.16
528.40	1873.25
528.76	1893.91
529.12	1914.49
529.48	1936.35
529.84	1956.98
530.20	1977.52
530.56	1998.17
530.91	2019.28
531.27	2039.92
531.63	2060.28
531.99	2079.88
532.35	2099.55
532.71	2118.48
533.07	2138.14
533.42	2156.57
533.78	2176.20
534.14	2194.87
534.50	2212.25
534.86	2230.41
535.21	2247.35
535.57	2265.41
535.93	2283.07
536.29	2300.12
536.65	2316.73
537.00	2331.93
537.36	2346.90
537.72	2362.15
538.08	2377.39
538.44	2392.18
538.79	2407.48
539.15	2422.05
539.51	2437.05
539.87	2452.23
540.22	2467.09
540.58	2482.15
540.94	2496.92
541.29	2509.52
541.65	2521.94
542.01	2535.21
542.37	2547.00
542.72	2559.36
543.08	2569.96
543.44	2581.72
543.79	2592.02
544.15	2602.29
544.51	2613.50
544.87	2624.77
545.22	2634.06
545.58	2642.45
545.94	2650.24
546.29	2656.65
546.65	2663.23
547.01	2669.24
547.36	2674.86
547.72	2680.07
548.07	2684.33
548.43	2688.05
548.79	2692.22
549.14	2696.86
549.50	2701.55
549.86	2705.61
550.21	2709.73
550.57	2714.30
550.92	2716.89
551.28	2719.46
551.64	2722.04
551.99	2724.45
552.35	2725.96
552.70	2728.86
553.06	2731.95
553.41	2734.67
553.77	2737.65
554.13	2739.71
554.48	2742.09
554.84	2743.90
555.19	2744.74
555.55	2745.23
555.90	2745.79
556.26	2746.26
556.61	2746.25
556.97	2744.96
557.32	2744.77
557.68	2742.93
558.03	2741.20
558.39	2739.65
558.74	2739.39
559.10	2737.99
559.45	2736.17
559.81	2735.15
560.16	2732.52
560.52	2730.00
560.87	2726.87
561.23	2723.44
561.58	2721.25
561.94	2717.82
562.29	2713.92
562.64	2711.36
563.00	2708.65
563.35	2706.37
563.71	2704.62
564.06	2702.36
564.42	2700.56
564.77	2698.01
565.12	2696.18
565.48	2693.20
565.83	2690.08
566.19	2686.98
566.54	2682.84
566.89	2679.12
567.25	2675.07
567.60	2671.75
567.96	2668.32
568.31	2665.02
568.66	2661.09
569.02	2656.30
569.37	2651.29
569.72	2647.37
570.08	2642.31
570.43	2636.67
570.78	2630.87
571.14	2624.35
571.49	2617.77
571.84	2612.00
572.20	2605.05
572.55	2598.66
572.90	2591.65
573.26	2585.05
573.61	2577.76
573.96	2571.22
574.31	2563.14
574.67	2555.05
575.02	2546.56
575.37	2537.88
575.72	2528.71
576.08	2521.09
576.43	2512.52
576.78	2504.65
577.13	2496.40
577.49	2488.18
577.84	2480.67
578.19	2473.15
578.54	2465.65
578.90	2458.79
579.25	2449.64
579.60	2440.56
579.95	2431.15
580.30	2423.16
580.66	2414.47
581.01	2405.25
581.36	2395.96
581.71	2387.73
582.06	2379.40
582.42	2371.21
582.77	2361.85
583.12	2353.16
583.47	2344.29
583.82	2335.95
584.17	2326.94
584.53	2317.93
584.88	2309.02
585.23	2299.48
585.58	2289.56
585.93	2279.96
586.28	2270.72
586.63	2261.91
586.98	2253.81
587.34	2245.55
587.69	2236.37
588.04	2227.61
588.39	2219.20
588.74	2210.56
589.09	2201.89
589.44	2192.52
589.79	2183.90
590.14	2176.19
590.49	2167.81
590.84	2158.71
591.19	2150.55
591.54	2141.93
591.89	2131.77
592.25	2122.53
592.60	2113.33
592.95	2104.31
593.30	2094.92
593.65	2085.03
594.00	2075.12
594.35	2066.68
594.70	2057.15
595.05	2048.44
595.40	2039.42
595.75	2030.16
596.10	2021.83
596.45	2013.29
596.80	2005.29
597.15	1997.14
597.50	1987.61
597.85	1979.12
598.19	1970.43
598.54	1961.86
598.89	1953.46
599.24	1947.00
599.59	1939.71
599.94	1932.45
600.29	1924.35
600.64	1916.07
600.99	1907.48
601.34	1900.59
601.69	1891.54
602.04	1883.66
602.39	1875.47
602.74	1867.72
603.08	1860.97
603.43	1853.77
603.78	1845.72
604.13	1837.78
604.48	1829.60
604.83	1822.73
605.18	1815.60
605.53	1808.09
605.87	1800.47
606.22	1793.67
606.57	1785.46
606.92	1777.34
607.27	1769.23
607.62	1762.48
607.96	1755.92
608.31	1749.96
608.66	1741.99
609.01	1734.49
609.36	1726.71
609.70	1718.95
610.05	1710.85
610.40	1702.09
610.75	1693.42
611.10	1685.90
611.44	1676.48
611.79	1667.55
612.14	1658.42
612.49	1648.90
612.83	1640.02
613.18	1630.28
613.53	1620.74
613.88	1610.94
614.22	1602.08
614.57	1592.89
614.92	1583.27
615.27	1573.89
615.61	1564.00
615.96	1555.08
616.31	1546.75
616.65	1538.66
617.00	1530.49
617.35	1522.05
617.70	1513.50
618.04	1504.60
618.39	1495.11
618.74	1486.95
619.08	1478.28
619.43	1470.01
619.78	1462.03
620.12	1454.07
620.47	1446.22
620.82	1437.52
621.16	1429.49
621.51	1420.80
621.85	1412.47
622.20	1403.90
622.55	1395.23
622.89	1386.92
623.24	1379.01
623.59	1370.17
623.93	1361.55
624.28	1352.93
624.62	1344.61
624.97	1336.44
625.32	1328.51
625.66	1321.07
626.01	1313.94
626.35	1306.53
626.70	1298.66
627.04	1291.31
627.39	1283.35
627.73	1275.67
628.08	1269.03
628.43	1261.47
628.77	1254.21
629.12	1246.64
629.46	1239.95
629.81	1232.84
630.15	1225.47
630.50	1218.05
630.84	1210.92
631.19	1203.82
631.53	1197.09
631.88	1189.63
632.22	1181.81
632.57	1174.93
632.91	1167.46
633.26	1159.55
633.60	1152.73
633.95	1146.08
634.29	1138.65
634.64	1132.10
634.98	1125.19
635.32	1117.86
635.67	1111.54
636.01	1104.82
636.36	1098.12
636.70	1091.43
637.05	1084.92
637.39	1078.68
637.73	1072.28
638.08	1066.54
638.42	1060.71
638.77	1054.08
639.11	1047.70
639.45	1042.02
639.80	1035.17
640.14	1028.52
640.49	1022.60
640.83	1015.95
641.17	1009.24
641.52	1003.07
641.86	996.55
642.20	990.26
642.55	983.60
642.89	977.12
643.23	970.54
643.58	964.67
643.92	958.14
644.26	951.74
644.61	945.64
644.95	939.45
645.29	932.78
645.64	926.12
645.98	919.89
646.32	914.13
646.66	907.64
647.01	901.96
647.35	896.40
647.69	889.92
648.04	884.00
648.38	878.15
648.72	872.41
649.06	866.29
649.41	860.23
649.75	854.33
650.09	848.47
650.43	842.73
650.78	836.45
651.12	830.54
651.46	824.85
651.80	818.92
652.14	812.96
652.49	807.12
652.83	801.12
653.17	795.10
653.51	789.22
653.85	783.71
654.20	777.87
654.54	772.04
654.88	766.67
655.22	760.88
655.56	755.11
655.90	749.02
656.25	743.36
656.59	737.90
656.93	732.88
657.27	727.79
657.61	722.42
657.95	717.35
658.29	712.04
658.64	706.94
658.98	701.68
659.32	696.34
659.66	691.17
660.00	685.87
660.34	680.53
660.68	675.44
661.02	670.29
661.36	665.48
661.70	660.66
662.05	655.98
662.39	651.58
662.73	647.28
663.07	643.00
663.41	638.62
663.75	634.09
664.09	629.25
664.43	624.30
664.77	619.85
665.11	615.42
665.45	611.10
665.79	606.61
666.13	602.19
666.47	598.09
666.81	593.95
667.15	590.05
667.49	586.21
667.83	582.29
668.17	578.45
668.51	574.50
668.85	570.80
669.19	566.94
669.53	563.00
669.87	558.87
670.21	555.10
670.55	551.23
670.89	547.66
671.23	544.39
671.57	540.91
671.91	537.30
672.25	533.74
672.58	530.19
672.92	526.63
673.26	523.46
673.60	520.15
673.94	516.84
674.28	513.36
674.62	510.20
674.96	506.76
675.30	503.61
675.64	500.48
675.97	497.17
676.31	494.14
676.65	491.09
676.99	488.34
677.33	485.19
677.67	482.25
678.01	479.10
678.34	475.98
678.68	473.07
679.02	470.13
679.36	467.31
679.70	464.60
680.04	461.77
680.37	458.83
680.71	455.95
681.05	453.32
681.39	450.78
681.73	448.06
682.06	445.62
682.40	443.05
682.74	440.37
683.08	437.77
683.42	435.10
683.75	432.53
684.09	429.86
684.43	427.43
684.77	424.95
685.10	422.64
685.44	420.06
685.78	417.67
686.12	415.40
686.45	413.01
686.79	410.58
687.13	408.50
687.46	406.30
687.80	404.10
688.14	401.74
688.48	399.58
688.81	397.30
689.15	395.09
689.49	392.89
689.82	390.68
690.16	388.36
690.50	386.06
690.83	383.82
691.17	381.57
691.51	379.34
691.84	377.19
692.18	375.13
692.52	373.31
692.85	371.36
693.19	369.48
693.52	367.55
693.86	365.56
694.20	363.60
694.53	361.65
694.87	359.70
695.21	357.69
695.54	355.84
695.88	354.05
696.21	352.11
696.55	350.28
696.88	348.55
697.22	346.91
697.56	345.39
697.89	343.80
698.23	342.37
698.56	340.79
698.90	339.38
699.23	337.76
699.57	336.09
699.90	334.39
700.24	332.69
700.58	331.13
700.91	329.64
701.25	328.12
701.58	326.69
701.92	325.27
702.25	324.03
702.59	322.46
702.92	321.07
703.26	319.84
703.59	318.56
703.93	317.35
704.26	316.10
704.60	314.79
704.93	313.55
705.26	312.17
705.60	310.90
705.93	309.49
706.27	308.28
706.60	307.09
706.94	306.08
707.27	304.91
707.61	303.71
707.94	302.64
708.27	301.51
708.61	300.26
708.94	299.10
709.28	297.94
709.61	296.95
709.94	295.88
710.28	294.76
710.61	293.73
710.95	292.62
711.28	291.70
711.61	290.67
711.95	289.62
712.28	288.62
712.61	287.72
712.95	286.83
713.28	285.98
713.61	285.00
713.95	283.98
714.28	283.11
714.61	282.16
714.95	281.26
715.28	280.25
715.61	279.42
715.95	278.58
716.28	277.76
716.61	276.91
716.95	276.07
717.28	275.25
717.61	274.41
717.94	273.60
718.28	272.67
718.61	271.90
718.94	271.16
719.27	270.48
719.61	269.73
719.94	269.01
720.27	268.19
720.60	267.47
720.94	266.81
721.27	266.09
721.60	265.53
721.93	264.86
722.27	264.33
722.60	263.77
722.93	263.09
723.26	262.46
723.59	261.84
723.93	261.22
724.26	260.65
724.59	260.07
724.92	259.48
725.25	259.05
725.59	258.38
725.92	257.84
726.25	257.29
726.58	256.74
726.91	256.14
727.24	255.65
727.57	255.16
727.91	254.58
728.24	254.11
728.57	253.58
728.90	253.11
729.23	252.63
729.56	252.16
729.89	251.80
730.22	251.30
730.55	250.90
730.89	250.51
731.22	250.01
731.55	249.49
731.88	249.10
732.21	248.53
732.54	248.23
732.87	247.84
733.20	247.39
733.53	246.92
733.86	246.56
734.19	246.12
734.52	245.75
734.85	245.50
735.18	245.09
735.51	244.76
735.84	244.38
736.17	244.01
736.50	243.51
736.83	243.35
737.16	242.99
737.49	242.65
737.82	242.21
738.15	241.88
738.48	241.49
738.81	241.14
739.14	240.75
739.47	240.40
739.80	240.07
740.13	239.73
740.46	239.39
740.79	239.03
741.12	238.71
741.45	238.42
741.78	238.06
742.11	237.84
742.44	237.52
742.77	237.28
743.10	236.87
743.43	236.71
743.75	236.17
744.08	236.04
744.41	235.61
744.74	235.31
745.07	235.00
745.40	234.87
745.73	234.66
746.06	234.51
746.39	234.29
746.71	234.01
747.04	233.71
747.37	233.44
747.70	233.20
748.03	233.01
748.36	232.69
748.68	232.38
749.01	232.01
749.34	231.71
749.67	231.45
750.00	231.29
750.33	231.04
750.65	230.78
750.98	230.38
751.31	230.21
751.64	230.10
751.97	230.03
752.29	229.73
752.62	229.41
752.95	229.05
753.28	228.75
753.60	228.50
753.93	228.42
754.26	228.27
754.59	228.02
754.91	227.75
755.24	227.63
755.57	227.45
755.90	227.30
756.22	227.16
756.55	226.94
756.88	226.75
757.20	226.46
757.53	226.25
757.86	226.07
758.19	225.91
758.51	225.69
758.84	225.38
759.17	225.21
759.49	225.02
759.82	225.00
760.15	224.86
760.47	224.70
760.80	224.42
761.13	224.29
761.45	224.07
761.78	223.87
762.11	223.68
762.43	223.58
762.76	223.36
763.08	223.23
763.41	223.01
763.74	222.86
764.06	222.78
764.39	222.68
764.71	222.53
765.04	222.33
765.37	222.14
765.69	221.98
766.02	221.78
766.34	221.67
766.67	221.51
767.00	221.38
767.32	221.30
767.65	221.20
767.97	221.05
768.30	220.94
768.62	220.85
768.95	220.70
769.27	220.57
769.60	220.49
769.92	220.35
770.25	220.27
770.57	220.17
770.90	220.04
771.22	219.87
771.55	219.70
771.87	219.70
772.20	219.69
772.52	219.79
772.85	219.99
773.17	219.97
773.50	219.86
773.82	219.83
774.15	219.69
774.47	219.59
774.80	219.51
775.12	219.50
775.45	219.40
775.77	219.36
776.09	219.27
776.42	219.23
776.74	219.17
777.07	219.11
777.39	219.02
777.72	218.95
778.04	218.94
778.36	218.89
778.69	218.74
779.01	218.62
779.33	218.39
779.66	218.13
779.98	218.02
780.31	217.91
780.63	217.91
780.95	217.87
781.28	217.82
781.60	217.79
781.92	217.71
782.25	217.72
782.57	217.70
782.89	217.58
783.22	217.55
783.54	217.46
783.86	217.44
784.19	217.31
784.51	217.26
784.83	217.18
785.16	217.08
785.48	217.06
785.80	217.05
786.12	217.03
786.45	217.01
