SpectraSuite Data File
++++++++++++++++++++++++++++++++++++
Date: Mon Feb 25 17:36:01 EST 2013
User: group
Dark Spectrum Present: No
Reference Spectrum Present: No
Number of Sampled Component Spectra: 1
Spectrometers: USB2E7196
Integration Time (usec): 52000 (USB2E7196)
Spectra Averaged: 20 (USB2E7196)
Boxcar Smoothing: 10 (USB2E7196)
Correct for Electrical Dark: No (USB2E7196)
Strobe/Lamp Enabled: No (USB2E7196)
Correct for Detector Non-linearity: No (USB2E7196)
Correct for Stray Light: No (USB2E7196)
Number of Pixels in Processed Spectrum: 2048
>>>>>Begin Processed Spectral Data<<<<<
339.09	0.00
339.48	198.10
339.86	200.30
340.24	201.25
340.63	201.65
341.01	206.40
341.39	205.60
341.78	206.95
342.16	207.70
342.54	209.45
342.93	197.86
343.31	207.84
343.69	208.36
344.07	208.82
344.46	209.29
344.84	209.79
345.22	210.06
345.60	210.41
345.99	210.70
346.37	210.91
346.75	211.12
347.13	211.28
347.52	211.50
347.90	211.65
348.28	211.79
348.66	212.06
349.05	212.16
349.43	212.26
349.81	212.49
350.19	212.70
350.57	212.87
350.96	213.01
351.34	213.27
351.72	213.51
352.10	213.69
352.48	213.85
352.87	213.94
353.25	214.10
353.63	214.18
354.01	214.28
354.39	214.43
354.77	214.52
355.15	214.69
355.54	214.71
355.92	214.74
356.30	214.81
356.68	214.91
357.06	214.93
357.44	215.00
357.82	214.97
358.20	215.02
358.58	215.11
358.97	215.20
359.35	215.27
359.73	215.41
360.11	215.51
360.49	215.55
360.87	215.54
361.25	215.60
361.63	215.69
362.01	215.75
362.39	215.80
362.77	215.80
363.15	215.80
363.53	215.88
363.91	215.90
364.29	215.94
364.67	215.86
365.05	215.95
365.43	216.02
365.81	216.13
366.19	216.28
366.57	216.38
366.95	216.32
367.33	216.31
367.71	216.28
368.09	216.33
368.47	216.37
368.85	216.38
369.23	216.40
369.61	216.30
369.99	216.32
370.37	216.33
370.75	216.39
371.13	216.31
371.51	216.23
371.89	216.25
372.27	216.27
372.65	216.28
373.03	216.20
373.41	216.12
373.78	216.14
374.16	215.98
374.54	215.88
374.92	215.92
375.30	215.90
375.68	215.89
376.06	215.88
376.44	215.75
376.82	215.75
377.19	215.73
377.57	215.75
377.95	215.66
378.33	215.64
378.71	215.55
379.09	215.52
379.47	215.56
379.84	215.49
380.22	215.41
380.60	215.35
380.98	215.35
381.36	215.32
381.73	215.19
382.11	215.19
382.49	215.15
382.87	215.04
383.25	215.01
383.62	215.09
384.00	214.96
384.38	215.01
384.76	215.10
385.13	215.11
385.51	215.12
385.89	215.05
386.27	214.97
386.64	215.01
387.02	215.06
387.40	215.05
387.78	215.09
388.15	215.19
388.53	215.16
388.91	215.15
389.29	215.15
389.66	215.20
390.04	215.24
390.42	215.23
390.79	215.33
391.17	215.32
391.55	215.19
391.92	215.26
392.30	215.30
392.68	215.25
393.05	215.20
393.43	215.17
393.81	215.25
394.18	215.33
394.56	215.34
394.94	215.45
395.31	215.44
395.69	215.53
396.06	215.60
396.44	215.74
396.82	215.86
397.19	216.07
397.57	216.23
397.95	216.33
398.32	216.53
398.70	216.68
399.07	216.89
399.45	217.07
399.82	217.26
400.20	217.56
400.58	217.80
400.95	218.03
401.33	218.38
401.70	218.82
402.08	219.17
402.45	219.54
402.83	219.95
403.20	220.43
403.58	220.89
403.95	221.34
404.33	221.93
404.71	222.51
405.08	223.23
405.46	223.89
405.83	224.64
406.21	225.40
406.58	226.28
406.96	227.28
407.33	228.29
407.70	229.42
408.08	230.77
408.45	232.18
408.83	233.71
409.20	235.21
409.58	236.75
409.95	238.53
410.33	240.46
410.70	242.36
411.08	244.48
411.45	246.79
411.82	249.23
412.20	251.77
412.57	254.79
412.95	257.65
413.32	260.90
413.69	264.39
414.07	268.03
414.44	272.05
414.82	276.20
415.19	280.97
415.56	285.89
415.94	291.14
416.31	296.87
416.68	302.64
417.06	309.26
417.43	315.46
417.81	322.61
418.18	330.04
418.55	338.16
418.93	346.67
419.30	355.54
419.67	364.81
420.04	374.65
420.42	384.91
420.79	396.20
421.16	407.94
421.54	419.80
421.91	432.46
422.28	445.70
422.66	459.84
423.03	473.36
423.40	487.79
423.77	503.17
424.15	519.02
424.52	535.47
424.89	553.26
425.26	570.99
425.64	587.89
426.01	606.42
426.38	625.94
426.75	645.73
427.13	666.42
427.50	688.32
427.87	711.19
428.24	734.31
428.61	756.65
428.99	780.40
429.36	806.81
429.73	832.56
430.10	858.01
430.47	884.28
430.85	912.34
431.22	941.41
431.59	972.04
431.96	1002.10
432.33	1035.40
432.70	1067.83
433.08	1105.58
433.45	1141.17
433.82	1176.98
434.19	1216.21
434.56	1254.93
434.93	1292.75
435.30	1330.51
435.68	1372.40
436.05	1414.04
436.42	1455.70
436.79	1493.93
437.16	1535.34
437.53	1579.43
437.90	1623.04
438.27	1665.94
438.64	1710.59
439.01	1752.14
439.38	1790.23
439.75	1826.56
440.13	1868.06
440.50	1907.42
440.87	1940.23
441.24	1974.97
441.61	2012.57
441.98	2041.79
442.35	2075.15
442.72	2107.73
443.09	2139.28
443.46	2160.42
443.83	2175.99
444.20	2190.17
444.57	2209.44
444.94	2220.57
445.31	2231.51
445.68	2241.35
446.05	2248.91
446.42	2249.30
446.79	2248.41
447.16	2247.15
447.53	2247.21
447.90	2235.50
448.27	2223.80
448.64	2205.81
449.01	2193.26
449.37	2168.54
449.74	2144.72
450.11	2114.55
450.48	2083.52
450.85	2051.82
451.22	2024.28
451.59	1997.26
451.96	1971.85
452.33	1936.67
452.70	1904.98
453.07	1866.61
453.43	1828.36
453.80	1790.34
454.17	1753.84
454.54	1720.14
454.91	1682.80
455.28	1646.72
455.65	1613.30
456.02	1577.60
456.38	1548.62
456.75	1512.02
457.12	1482.04
457.49	1451.95
457.86	1424.09
458.23	1398.18
458.59	1370.17
458.96	1341.81
459.33	1317.04
459.70	1291.73
460.07	1271.85
460.43	1248.84
460.80	1226.84
461.17	1207.77
461.54	1187.71
461.91	1168.68
462.27	1149.27
462.64	1133.00
463.01	1114.39
463.38	1096.32
463.74	1080.36
464.11	1065.01
464.48	1051.38
464.85	1036.35
465.21	1024.90
465.58	1012.44
465.95	998.23
466.32	986.09
466.68	973.76
467.05	961.70
467.42	949.66
467.78	936.92
468.15	924.91
468.52	915.91
468.88	904.70
469.25	894.45
469.62	885.98
469.98	877.10
470.35	868.82
470.72	861.16
471.08	852.81
471.45	845.35
471.82	837.68
472.18	829.76
472.55	824.08
472.92	817.34
473.28	811.49
473.65	805.63
474.02	799.84
474.38	795.07
474.75	790.87
475.11	786.65
475.48	783.13
475.85	780.24
476.21	777.54
476.58	775.00
476.94	773.20
477.31	771.02
477.67	768.74
478.04	766.99
478.41	766.02
478.77	765.22
479.14	764.14
479.50	763.91
479.87	764.57
480.23	765.12
480.60	765.27
480.96	765.50
481.33	767.14
481.69	768.84
482.06	770.19
482.42	771.10
482.79	772.61
483.15	775.46
483.52	779.03
483.88	782.00
484.25	785.30
484.61	788.66
484.98	792.37
485.34	796.65
485.71	801.35
486.07	806.26
486.44	811.51
486.80	817.36
487.17	823.53
487.53	830.21
487.90	837.15
488.26	844.67
488.62	852.84
488.99	860.57
489.35	868.63
489.72	877.88
490.08	888.04
490.44	898.14
490.81	908.16
491.17	917.98
491.54	929.18
491.90	940.26
492.26	952.28
492.63	964.73
492.99	977.86
493.36	991.02
493.72	1004.85
494.08	1018.91
494.45	1033.75
494.81	1049.30
495.17	1065.02
495.54	1081.42
495.90	1098.53
496.26	1115.87
496.63	1134.00
496.99	1152.25
497.35	1170.62
497.72	1189.35
498.08	1208.25
498.44	1227.79
498.80	1248.20
499.17	1268.52
499.53	1289.64
499.89	1311.34
500.26	1332.82
500.62	1353.84
500.98	1376.57
501.34	1399.35
501.71	1422.57
502.07	1446.26
502.43	1469.68
502.79	1492.93
503.16	1516.53
503.52	1540.10
503.88	1563.45
504.24	1586.96
504.60	1611.32
504.97	1636.28
505.33	1660.87
505.69	1686.87
506.05	1712.23
506.41	1737.10
506.78	1762.27
507.14	1787.09
507.50	1811.87
507.86	1837.20
508.22	1863.28
508.59	1888.20
508.95	1913.51
509.31	1938.65
509.67	1964.05
510.03	1989.34
510.39	2015.59
510.75	2041.30
511.12	2065.88
511.48	2090.71
511.84	2115.30
512.20	2139.52
512.56	2163.99
512.92	2188.84
513.28	2212.57
513.64	2236.64
514.00	2260.28
514.37	2283.60
514.73	2307.24
515.09	2330.12
515.45	2352.85
515.81	2375.29
516.17	2397.92
516.53	2419.61
516.89	2441.35
517.25	2461.02
517.61	2481.04
517.97	2500.51
518.33	2518.87
518.69	2538.64
519.05	2558.30
519.41	2577.40
519.77	2596.88
520.13	2615.12
520.49	2632.37
520.85	2649.40
521.21	2665.92
521.57	2683.42
521.93	2699.09
522.29	2716.25
522.65	2732.93
523.01	2749.06
523.37	2764.32
523.73	2779.34
524.09	2793.49
524.45	2807.58
524.81	2822.37
525.17	2837.18
525.53	2851.24
525.89	2865.99
526.25	2879.78
526.61	2891.70
526.97	2904.88
527.33	2917.05
527.68	2929.73
528.04	2942.41
528.40	2954.70
528.76	2966.82
529.12	2978.22
529.48	2990.84
529.84	3000.10
530.20	3010.49
530.56	3020.70
530.91	3031.99
531.27	3042.94
531.63	3053.93
531.99	3063.79
532.35	3073.20
532.71	3082.15
533.07	3092.77
533.42	3102.65
533.78	3112.80
534.14	3122.52
534.50	3131.11
534.86	3140.44
535.21	3147.50
535.57	3155.70
535.93	3162.79
536.29	3169.55
536.65	3177.33
537.00	3184.11
537.36	3191.81
537.72	3198.32
538.08	3205.27
538.44	3211.62
538.79	3217.74
539.15	3224.14
539.51	3231.10
539.87	3239.20
540.22	3245.61
540.58	3251.21
540.94	3256.63
541.29	3260.33
541.65	3263.48
542.01	3267.71
542.37	3271.35
542.72	3276.13
543.08	3279.75
543.44	3284.03
543.79	3287.35
544.15	3289.92
544.51	3294.15
544.87	3298.19
545.22	3300.79
545.58	3302.30
545.94	3303.47
546.29	3304.14
546.65	3304.87
547.01	3305.27
547.36	3305.71
547.72	3306.42
548.07	3305.94
548.43	3305.12
548.79	3304.71
549.14	3306.33
549.50	3306.35
549.86	3306.33
550.21	3306.08
550.57	3306.29
550.92	3305.33
551.28	3304.33
551.64	3302.68
551.99	3301.32
552.35	3299.75
552.70	3299.00
553.06	3298.92
553.41	3298.69
553.77	3298.49
554.13	3297.95
554.48	3299.08
554.84	3297.91
555.19	3296.62
555.55	3296.62
555.90	3296.19
556.26	3296.01
556.61	3295.42
556.97	3293.70
557.32	3291.31
557.68	3288.60
558.03	3285.51
558.39	3283.46
558.74	3283.70
559.10	3283.87
559.45	3282.86
559.81	3282.25
560.16	3280.75
560.52	3279.46
560.87	3277.53
561.23	3274.22
561.58	3271.40
561.94	3267.15
562.29	3263.39
562.64	3260.54
563.00	3256.22
563.35	3252.12
563.71	3249.04
564.06	3245.77
564.42	3243.27
564.77	3240.46
565.12	3237.92
565.48	3235.45
565.83	3233.51
566.19	3230.98
566.54	3227.80
566.89	3223.27
567.25	3218.52
567.60	3215.19
567.96	3210.44
568.31	3206.06
568.66	3202.84
569.02	3199.88
569.37	3196.39
569.72	3193.65
570.08	3190.60
570.43	3186.45
570.78	3183.66
571.14	3180.36
571.49	3176.52
571.84	3173.85
572.20	3169.99
572.55	3166.53
572.90	3161.75
573.26	3156.52
573.61	3150.08
573.96	3143.34
574.31	3137.34
574.67	3131.98
575.02	3125.61
575.37	3118.70
575.72	3112.13
576.08	3105.50
576.43	3098.25
576.78	3091.05
577.13	3084.21
577.49	3077.02
577.84	3070.53
578.19	3063.20
578.54	3054.80
578.90	3047.20
579.25	3037.85
579.60	3028.95
579.95	3020.01
580.30	3012.72
580.66	3004.46
581.01	2995.89
581.36	2986.76
581.71	2978.86
582.06	2970.75
582.42	2963.35
582.77	2955.20
583.12	2946.70
583.47	2937.72
583.82	2928.96
584.17	2919.48
584.53	2910.16
584.88	2900.61
585.23	2891.15
585.58	2882.25
585.93	2873.35
586.28	2864.86
586.63	2856.59
586.98	2849.00
587.34	2841.11
587.69	2831.05
588.04	2822.39
588.39	2813.73
588.74	2804.75
589.09	2795.09
589.44	2783.79
589.79	2773.21
590.14	2764.59
590.49	2754.45
590.84	2745.63
591.19	2736.70
591.54	2727.31
591.89	2716.99
592.25	2707.50
592.60	2697.37
592.95	2686.12
593.30	2675.50
593.65	2664.50
594.00	2653.87
594.35	2643.94
594.70	2632.96
595.05	2623.51
595.40	2612.60
595.75	2601.08
596.10	2590.69
596.45	2580.36
596.80	2571.41
597.15	2561.35
597.50	2550.51
597.85	2541.03
598.19	2529.46
598.54	2518.15
598.89	2507.88
599.24	2497.53
599.59	2486.91
599.94	2476.58
600.29	2465.94
600.64	2455.40
600.99	2443.95
601.34	2433.33
601.69	2421.18
602.04	2410.16
602.39	2399.32
602.74	2389.80
603.08	2381.39
603.43	2373.40
603.78	2364.01
604.13	2354.10
604.48	2343.10
604.83	2333.50
605.18	2323.48
605.53	2313.86
605.87	2303.74
606.22	2293.97
606.57	2283.53
606.92	2272.24
607.27	2261.78
607.62	2252.54
607.96	2243.29
608.31	2234.70
608.66	2224.70
609.01	2215.16
609.36	2204.48
609.70	2193.18
610.05	2181.42
610.40	2169.30
610.75	2156.59
611.10	2144.87
611.44	2131.99
611.79	2121.45
612.14	2109.39
612.49	2097.08
612.83	2085.55
613.18	2073.75
613.53	2061.64
613.88	2049.09
614.22	2037.61
614.57	2025.64
614.92	2013.02
615.27	2000.91
615.61	1987.20
615.96	1974.97
616.31	1963.13
616.65	1952.69
617.00	1941.83
617.35	1930.30
617.70	1918.69
618.04	1907.33
618.39	1896.39
618.74	1885.63
619.08	1873.06
619.43	1861.16
619.78	1850.33
620.12	1839.98
620.47	1829.42
620.82	1818.30
621.16	1808.06
621.51	1797.36
621.85	1786.75
622.20	1776.25
622.55	1764.58
622.89	1754.88
623.24	1744.46
623.59	1733.48
623.93	1722.49
624.28	1711.88
624.62	1701.45
624.97	1691.22
625.32	1680.94
625.66	1670.15
626.01	1660.34
626.35	1651.72
626.70	1642.97
627.04	1632.95
627.39	1622.60
627.73	1612.81
628.08	1603.71
628.43	1594.12
628.77	1585.16
629.12	1575.20
629.46	1565.41
629.81	1555.54
630.15	1545.30
630.50	1534.72
630.84	1524.65
631.19	1513.86
631.53	1503.95
631.88	1494.23
632.22	1484.47
632.57	1474.97
632.91	1465.26
633.26	1455.70
633.60	1445.57
633.95	1435.59
634.29	1426.49
634.64	1417.58
634.98	1408.17
635.32	1398.78
635.67	1389.79
636.01	1380.50
636.36	1371.53
636.70	1362.89
637.05	1354.67
637.39	1346.36
637.73	1338.11
638.08	1330.38
638.42	1322.78
638.77	1314.83
639.11	1306.40
639.45	1298.06
639.80	1289.76
640.14	1281.39
640.49	1272.83
640.83	1264.39
641.17	1256.29
641.52	1247.86
641.86	1238.97
642.20	1230.51
642.55	1221.60
642.89	1213.20
643.23	1204.50
643.58	1196.36
643.92	1187.67
644.26	1179.14
644.61	1170.40
644.95	1162.02
645.29	1153.50
645.64	1144.98
645.98	1136.40
646.32	1128.45
646.66	1120.38
647.01	1112.27
647.35	1104.25
647.69	1096.08
648.04	1088.23
648.38	1079.73
648.72	1071.84
649.06	1063.99
649.41	1055.86
649.75	1047.61
650.09	1040.05
650.43	1032.69
650.78	1025.16
651.12	1017.75
651.46	1010.65
651.80	1003.82
652.14	997.00
652.49	989.66
652.83	982.49
653.17	974.45
653.51	966.83
653.85	959.61
654.20	952.51
654.54	945.55
654.88	938.63
655.22	931.43
655.56	924.16
655.90	916.33
656.25	909.07
656.59	902.52
656.93	896.29
657.27	889.40
657.61	882.54
657.95	876.06
658.29	869.54
658.64	863.00
658.98	856.55
659.32	849.56
659.66	843.11
660.00	836.61
660.34	831.02
660.68	824.99
661.02	818.53
661.36	812.25
661.70	806.27
662.05	800.54
662.39	794.86
662.73	789.57
663.07	784.73
663.41	779.63
663.75	774.02
664.09	768.38
664.43	762.58
664.77	757.18
665.11	751.64
665.45	746.37
665.79	741.05
666.13	735.84
666.47	731.10
666.81	726.25
667.15	721.30
667.49	716.33
667.83	711.51
668.17	707.16
668.51	702.48
668.85	697.50
669.19	692.55
669.53	687.76
669.87	682.70
670.21	677.86
670.55	672.88
670.89	668.17
671.23	663.69
671.57	659.24
671.91	654.40
672.25	650.03
672.58	645.51
672.92	641.05
673.26	636.66
673.60	632.27
673.94	628.20
674.28	624.30
674.62	620.31
674.96	616.19
675.30	611.99
675.64	608.23
675.97	604.64
676.31	601.09
676.65	597.60
676.99	594.47
677.33	591.02
677.67	587.66
678.01	584.04
678.34	580.43
678.68	577.02
679.02	573.57
679.36	569.75
679.70	566.20
680.04	562.71
680.37	559.32
680.71	556.00
681.05	552.48
681.39	549.06
681.73	545.78
682.06	542.61
682.40	539.40
682.74	536.04
683.08	532.70
683.42	529.28
683.75	525.77
684.09	522.07
684.43	518.54
684.77	515.14
685.10	511.88
685.44	508.61
685.78	505.44
686.12	502.33
686.45	499.36
686.79	496.50
687.13	493.65
687.46	490.58
687.80	487.54
688.14	484.50
688.48	481.56
688.81	478.57
689.15	475.74
689.49	472.73
689.82	469.78
690.16	466.65
690.50	463.78
690.83	461.10
691.17	458.46
691.51	455.70
691.84	452.99
692.18	450.42
692.52	447.94
692.85	445.38
693.19	442.90
693.52	440.35
693.86	437.75
694.20	435.18
694.53	432.60
694.87	429.86
695.21	427.22
695.54	424.62
695.88	422.08
696.21	419.57
696.55	417.33
696.88	414.99
697.22	412.79
697.56	410.66
697.89	408.36
698.23	406.29
698.56	404.22
698.90	402.16
699.23	399.80
699.57	397.46
699.90	395.21
700.24	393.07
700.58	390.93
700.91	388.89
701.25	386.89
701.58	385.00
701.92	383.35
702.25	381.66
702.59	379.71
702.92	377.90
703.26	376.05
703.59	374.28
703.93	372.65
704.26	370.84
704.60	368.94
704.93	367.03
705.26	365.06
705.60	363.30
705.93	361.63
706.27	360.26
706.60	358.88
706.94	357.44
707.27	355.76
707.61	354.06
707.94	352.26
708.27	350.52
708.61	348.87
708.94	347.25
709.28	345.69
709.61	344.30
709.94	342.72
710.28	341.10
710.61	339.57
710.95	337.79
711.28	336.40
711.61	334.90
711.95	333.56
712.28	332.23
712.61	330.90
712.95	329.47
713.28	328.11
713.61	326.55
713.95	325.13
714.28	323.88
714.61	322.81
714.95	321.75
715.28	320.53
715.61	319.22
715.95	317.95
716.28	316.53
716.61	315.19
716.95	313.85
717.28	312.78
717.61	311.50
717.94	310.43
718.28	309.25
718.61	308.13
718.94	307.03
719.27	305.93
719.61	304.84
719.94	303.85
720.27	302.65
720.60	301.71
720.94	300.73
721.27	299.77
721.60	298.94
721.93	297.90
722.27	296.97
722.60	295.99
722.93	295.05
723.26	294.30
723.59	293.45
723.93	292.66
724.26	291.74
724.59	290.87
724.92	290.07
725.25	289.38
725.59	288.69
725.92	287.97
726.25	287.26
726.58	286.41
726.91	285.50
727.24	284.75
727.57	283.95
727.91	283.12
728.24	282.40
728.57	281.44
728.90	280.81
729.23	280.11
729.56	279.57
729.89	278.88
730.22	278.02
730.55	277.32
730.89	276.56
731.22	275.90
731.55	275.21
731.88	274.56
732.21	273.82
732.54	273.16
732.87	272.35
733.20	271.64
733.53	271.06
733.86	270.51
734.19	269.98
734.52	269.45
734.85	269.06
735.18	268.42
735.51	268.00
735.84	267.39
736.17	266.80
736.50	266.15
736.83	265.70
737.16	265.29
737.49	264.80
737.82	264.28
738.15	263.68
738.48	263.13
738.81	262.45
739.14	261.89
739.47	261.22
739.80	260.80
740.13	260.28
740.46	259.73
740.79	259.21
741.12	258.63
741.45	258.06
741.78	257.43
742.11	256.94
742.44	256.33
742.77	255.76
743.10	255.21
743.43	254.64
743.75	253.95
744.08	253.70
744.41	253.16
744.74	252.77
745.07	252.27
745.40	251.97
745.73	251.68
746.06	251.15
746.39	250.70
746.71	250.13
747.04	249.69
747.37	249.22
747.70	248.75
748.03	248.27
748.36	247.87
748.68	247.45
749.01	246.98
749.34	246.51
749.67	246.11
750.00	245.76
750.33	245.47
750.65	245.19
750.98	244.54
751.31	244.19
751.64	243.85
751.97	243.56
752.29	243.07
752.62	242.56
752.95	242.17
753.28	241.85
753.60	241.55
753.93	241.21
754.26	240.92
754.59	240.50
754.91	240.23
755.24	239.90
755.57	239.43
755.90	239.11
756.22	238.81
756.55	238.51
756.88	238.15
757.20	237.84
757.53	237.43
757.86	237.14
758.19	236.81
758.51	236.39
758.84	236.02
759.17	235.80
759.49	235.63
759.82	235.49
760.15	235.21
760.47	234.97
760.80	234.68
761.13	234.35
761.45	234.15
761.78	233.89
762.11	233.57
762.43	233.37
762.76	233.12
763.08	232.91
763.41	232.64
763.74	232.37
764.06	232.10
764.39	231.84
764.71	231.54
765.04	231.28
765.37	231.03
765.69	230.80
766.02	230.52
766.34	230.27
766.67	229.96
767.00	229.75
767.32	229.56
767.65	229.40
767.97	229.30
768.30	229.10
768.62	228.89
768.95	228.75
769.27	228.60
769.60	228.42
769.92	228.22
770.25	228.05
770.57	227.85
770.90	227.63
771.22	227.47
771.55	227.37
771.87	227.16
772.20	226.99
772.52	227.01
772.85	227.00
773.17	226.77
773.50	226.55
773.82	226.31
774.15	226.06
774.47	225.84
774.80	225.58
775.12	225.44
775.45	225.25
775.77	225.07
776.09	224.90
776.42	224.78
776.74	224.67
777.07	224.50
777.39	224.38
777.72	224.25
778.04	224.10
778.36	223.90
778.69	223.78
779.01	223.65
779.33	223.36
779.66	223.08
779.98	222.91
780.31	222.83
780.63	222.85
780.95	222.81
781.28	222.70
781.60	222.60
781.92	222.44
782.25	222.39
782.57	222.30
