SpectraSuite Data File
++++++++++++++++++++++++++++++++++++
Date: Mon Feb 25 17:33:56 EST 2013
User: group
Dark Spectrum Present: No
Reference Spectrum Present: No
Number of Sampled Component Spectra: 1
Spectrometers: USB2E7196
Integration Time (usec): 52000 (USB2E7196)
Spectra Averaged: 20 (USB2E7196)
Boxcar Smoothing: 10 (USB2E7196)
Correct for Electrical Dark: No (USB2E7196)
Strobe/Lamp Enabled: No (USB2E7196)
Correct for Detector Non-linearity: No (USB2E7196)
Correct for Stray Light: No (USB2E7196)
Number of Pixels in Processed Spectrum: 2048
>>>>>Begin Processed Spectral Data<<<<<
339.09	0.00
339.48	199.45
339.86	199.85
340.24	200.70
340.63	203.95
341.01	207.15
341.39	204.85
341.78	207.45
342.16	208.65
342.54	208.85
342.93	198.00
343.31	208.06
343.69	208.60
344.07	209.12
344.46	209.62
344.84	209.95
345.22	210.10
345.60	210.41
345.99	210.60
346.37	210.77
346.75	210.87
347.13	210.96
347.52	211.08
347.90	211.19
348.28	211.23
348.66	211.26
349.05	211.25
349.43	211.31
349.81	211.40
350.19	211.47
350.57	211.58
350.96	211.64
351.34	211.63
351.72	211.77
352.10	211.82
352.48	211.86
352.87	212.04
353.25	212.18
353.63	212.25
354.01	212.31
354.39	212.35
354.77	212.45
355.15	212.60
355.54	212.58
355.92	212.63
356.30	212.79
356.68	212.98
357.06	213.05
357.44	213.09
357.82	213.06
358.20	213.17
358.58	213.27
358.97	213.33
359.35	213.47
359.73	213.50
360.11	213.62
360.49	213.70
360.87	213.63
361.25	213.68
361.63	213.80
362.01	213.91
362.39	213.92
362.77	213.94
363.15	213.92
363.53	213.97
363.91	214.00
364.29	213.96
364.67	213.87
365.05	213.86
365.43	213.89
365.81	214.03
366.19	214.05
366.57	214.09
366.95	214.16
367.33	214.13
367.71	214.11
368.09	214.11
368.47	214.15
368.85	214.20
369.23	214.24
369.61	214.11
369.99	214.11
370.37	214.19
370.75	214.30
371.13	214.21
371.51	214.15
371.89	214.04
372.27	214.02
372.65	213.94
373.03	213.95
373.41	213.94
373.78	213.86
374.16	213.80
374.54	213.73
374.92	213.67
375.30	213.63
375.68	213.52
376.06	213.50
376.44	213.47
376.82	213.39
377.19	213.29
377.57	213.22
377.95	213.09
378.33	212.97
378.71	212.75
379.09	212.80
379.47	212.79
379.84	212.80
380.22	212.69
380.60	212.65
380.98	212.61
381.36	212.57
381.73	212.45
382.11	212.46
382.49	212.39
382.87	212.30
383.25	212.31
383.62	212.49
384.00	212.32
384.38	212.22
384.76	212.26
385.13	212.32
385.51	212.36
385.89	212.32
386.27	212.30
386.64	212.31
387.02	212.23
387.40	212.16
387.78	212.23
388.15	212.24
388.53	212.23
388.91	212.17
389.29	212.04
389.66	212.10
390.04	212.00
390.42	212.04
390.79	212.03
391.17	211.97
391.55	211.75
391.92	211.83
392.30	211.81
392.68	211.71
393.05	211.67
393.43	211.61
393.81	211.68
394.18	211.65
394.56	211.69
394.94	211.76
395.31	211.70
395.69	211.60
396.06	211.64
396.44	211.61
396.82	211.61
397.19	211.77
397.57	211.76
397.95	211.80
398.32	211.80
398.70	211.87
399.07	211.95
399.45	212.06
399.82	212.08
400.20	212.07
400.58	212.10
400.95	212.03
401.33	212.16
401.70	212.28
402.08	212.35
402.45	212.42
402.83	212.44
403.20	212.59
403.58	212.67
403.95	212.79
404.33	212.96
404.71	213.07
405.08	213.21
405.46	213.39
405.83	213.54
406.21	213.63
406.58	213.74
406.96	213.84
407.33	213.99
407.70	214.14
408.08	214.42
408.45	214.69
408.83	214.96
409.20	215.21
409.58	215.34
409.95	215.57
410.33	215.81
410.70	216.12
411.08	216.57
411.45	216.95
411.82	217.31
412.20	217.72
412.57	218.24
412.95	218.55
413.32	219.02
413.69	219.49
414.07	220.09
414.44	220.67
414.82	221.26
415.19	221.92
415.56	222.65
415.94	223.50
416.31	224.37
416.68	225.30
417.06	226.18
417.43	227.17
417.81	228.34
418.18	229.49
418.55	230.64
418.93	231.84
419.30	233.23
419.67	234.59
420.04	235.97
420.42	237.46
420.79	239.31
421.16	241.02
421.54	242.81
421.91	244.63
422.28	246.60
422.66	248.75
423.03	250.81
423.40	252.95
423.77	255.11
424.15	257.34
424.52	259.70
424.89	262.32
425.26	264.76
425.64	267.15
426.01	269.80
426.38	272.53
426.75	275.31
427.13	278.02
427.50	280.99
427.87	284.12
428.24	287.15
428.61	290.03
428.99	293.38
429.36	296.86
429.73	300.35
430.10	303.73
430.47	307.26
430.85	310.92
431.22	314.84
431.59	319.05
431.96	323.06
432.33	327.38
432.70	331.53
433.08	336.39
433.45	341.02
433.82	345.59
434.19	350.71
434.56	355.67
434.93	360.63
435.30	365.40
435.68	370.73
436.05	375.96
436.42	381.14
436.79	385.81
437.16	391.07
437.53	396.43
437.90	401.76
438.27	406.98
438.64	412.43
439.01	417.50
439.38	421.79
439.75	426.04
440.13	430.97
440.50	435.58
440.87	439.38
441.24	443.29
441.61	447.62
441.98	450.79
442.35	454.39
442.72	457.96
443.09	461.70
443.46	463.69
443.83	465.26
444.20	466.43
444.57	468.11
444.94	468.87
445.31	469.73
445.68	470.47
446.05	470.72
446.42	469.98
446.79	469.07
447.16	468.17
447.53	467.48
447.90	465.15
448.27	463.00
448.64	460.08
449.01	457.89
449.37	454.15
449.74	450.57
450.11	446.53
450.48	442.00
450.85	437.11
451.22	433.17
451.59	429.22
451.96	425.62
452.33	420.95
452.70	416.43
453.07	411.23
453.43	406.05
453.80	401.01
454.17	396.28
454.54	391.77
454.91	387.08
455.28	382.38
455.65	378.02
456.02	373.66
456.38	369.94
456.75	365.25
457.12	361.33
457.49	357.47
457.86	353.63
458.23	350.45
458.59	347.06
458.96	343.55
459.33	340.40
459.70	337.20
460.07	334.59
460.43	331.72
460.80	329.02
461.17	326.72
461.54	324.23
461.91	321.89
462.27	319.51
462.64	317.40
463.01	315.10
463.38	312.98
463.74	310.74
464.11	308.89
464.48	307.28
464.85	305.58
465.21	304.24
465.58	302.82
465.95	301.02
466.32	299.53
466.68	298.02
467.05	296.65
467.42	295.29
467.78	293.79
468.15	292.50
468.52	291.51
468.88	290.09
469.25	288.91
469.62	287.97
469.98	286.91
470.35	286.01
470.72	285.19
471.08	284.30
471.45	283.61
471.82	282.80
472.18	281.91
472.55	281.32
472.92	280.54
473.28	279.88
473.65	279.32
474.02	278.76
474.38	278.41
474.75	278.04
475.11	277.63
475.48	277.41
475.85	277.23
476.21	277.01
476.58	276.87
476.94	276.87
477.31	276.77
477.67	276.86
478.04	276.83
478.41	277.00
478.77	277.26
479.14	277.36
479.50	277.68
479.87	278.04
480.23	278.48
480.60	278.92
480.96	279.35
481.33	280.06
481.69	280.68
482.06	281.35
482.42	281.99
482.79	282.72
483.15	283.60
483.52	284.54
483.88	285.46
484.25	286.50
484.61	287.49
484.98	288.67
485.34	289.94
485.71	291.34
486.07	292.69
486.44	293.96
486.80	295.46
487.17	297.06
487.53	298.77
487.90	300.55
488.26	302.53
488.62	304.65
488.99	306.59
489.35	308.77
489.72	311.05
490.08	313.38
490.44	315.80
490.81	318.53
491.17	321.31
491.54	324.22
491.90	327.18
492.26	330.32
492.63	333.55
492.99	336.96
493.36	340.62
493.72	344.45
494.08	348.50
494.45	352.77
494.81	357.20
495.17	361.77
495.54	366.57
495.90	371.50
496.26	376.73
496.63	382.25
496.99	387.98
497.35	393.94
497.72	400.22
498.08	406.89
498.44	413.53
498.80	420.69
499.17	428.12
499.53	435.87
499.89	444.08
500.26	452.26
500.62	460.66
500.98	469.55
501.34	478.68
501.71	488.15
502.07	497.83
502.43	507.88
502.79	518.20
503.16	528.95
503.52	540.04
503.88	551.42
504.24	563.04
504.60	574.98
504.97	587.32
505.33	599.95
505.69	613.13
506.05	626.65
506.41	640.14
506.78	653.93
507.14	668.07
507.50	682.43
507.86	697.51
508.22	712.86
508.59	728.30
508.95	744.32
509.31	760.53
509.67	777.35
510.03	794.41
510.39	811.94
510.75	829.71
511.12	847.62
511.48	865.73
511.84	884.65
512.20	903.31
512.56	922.66
512.92	942.13
513.28	961.63
513.64	981.37
514.00	1001.32
514.37	1021.70
514.73	1042.53
515.09	1063.55
515.45	1084.33
515.81	1105.57
516.17	1126.86
516.53	1148.34
516.89	1170.12
517.25	1191.69
517.61	1213.42
517.97	1235.02
518.33	1256.54
518.69	1278.43
519.05	1300.51
519.41	1322.67
519.77	1345.38
520.13	1367.39
520.49	1389.76
520.85	1412.52
521.21	1435.10
521.57	1458.14
521.93	1480.10
522.29	1502.87
522.65	1525.40
523.01	1547.96
523.37	1570.48
523.73	1593.11
524.09	1615.27
524.45	1637.53
524.81	1660.01
525.17	1682.30
525.53	1704.61
525.89	1726.89
526.25	1748.84
526.61	1770.32
526.97	1791.91
527.33	1813.29
527.68	1834.84
528.04	1856.11
528.40	1876.58
528.76	1897.35
529.12	1918.03
529.48	1940.20
529.84	1960.59
530.20	1981.05
530.56	2001.59
530.91	2022.26
531.27	2042.49
531.63	2062.59
531.99	2082.68
532.35	2102.15
532.71	2121.26
533.07	2140.95
533.42	2159.93
533.78	2179.23
534.14	2198.04
534.50	2215.18
534.86	2233.26
535.21	2250.38
535.57	2268.16
535.93	2285.45
536.29	2302.54
536.65	2319.49
537.00	2334.79
537.36	2350.07
537.72	2365.45
538.08	2380.92
538.44	2395.92
538.79	2411.62
539.15	2426.69
539.51	2441.35
539.87	2456.61
540.22	2471.25
540.58	2486.68
540.94	2500.79
541.29	2513.70
541.65	2525.75
542.01	2539.08
542.37	2551.16
542.72	2563.65
543.08	2574.90
543.44	2587.18
543.79	2597.35
544.15	2607.53
544.51	2618.64
544.87	2629.99
545.22	2638.98
545.58	2647.46
545.94	2654.86
546.29	2661.11
546.65	2667.36
547.01	2673.67
547.36	2679.26
547.72	2685.04
548.07	2688.77
548.43	2692.92
548.79	2696.85
549.14	2701.92
549.50	2706.80
549.86	2710.72
550.21	2714.60
550.57	2718.82
550.92	2721.38
551.28	2724.40
551.64	2727.16
551.99	2729.45
552.35	2731.05
552.70	2734.23
553.06	2737.22
553.41	2740.70
553.77	2743.80
554.13	2746.33
554.48	2748.62
554.84	2750.07
555.19	2750.55
555.55	2750.95
555.90	2751.70
556.26	2752.33
556.61	2752.24
556.97	2750.67
557.32	2750.45
557.68	2748.91
558.03	2747.46
558.39	2745.96
558.74	2745.40
559.10	2744.21
559.45	2742.66
559.81	2741.51
560.16	2738.82
560.52	2736.15
560.87	2732.79
561.23	2729.31
561.58	2726.79
561.94	2723.38
562.29	2719.90
562.64	2717.95
563.00	2715.61
563.35	2713.60
563.71	2712.02
564.06	2710.00
564.42	2708.38
564.77	2705.85
565.12	2704.09
565.48	2700.84
565.83	2698.02
566.19	2694.75
566.54	2690.45
566.89	2686.54
567.25	2682.95
567.60	2679.76
567.96	2676.30
568.31	2672.77
568.66	2669.00
569.02	2664.76
569.37	2659.56
569.72	2655.74
570.08	2650.15
570.43	2644.33
570.78	2638.32
571.14	2631.97
571.49	2625.21
571.84	2619.07
572.20	2612.35
572.55	2605.76
572.90	2599.03
573.26	2591.94
573.61	2584.86
573.96	2578.55
574.31	2570.65
574.67	2562.40
575.02	2553.90
575.37	2545.18
575.72	2536.10
576.08	2528.43
576.43	2519.74
576.78	2512.00
577.13	2503.65
577.49	2495.42
577.84	2487.81
578.19	2480.31
578.54	2472.74
578.90	2465.79
579.25	2457.21
579.60	2447.92
579.95	2438.64
580.30	2430.26
580.66	2421.81
581.01	2412.92
581.36	2403.49
581.71	2395.27
582.06	2386.77
582.42	2378.53
582.77	2369.37
583.12	2360.68
583.47	2351.85
583.82	2343.15
584.17	2334.12
584.53	2325.33
584.88	2316.45
585.23	2307.36
585.58	2297.69
585.93	2287.87
586.28	2278.36
586.63	2269.40
586.98	2260.88
587.34	2252.31
587.69	2243.36
588.04	2234.44
588.39	2225.86
588.74	2216.94
589.09	2208.10
589.44	2198.19
589.79	2189.42
590.14	2181.74
590.49	2173.39
590.84	2164.16
591.19	2156.12
591.54	2147.14
591.89	2136.91
592.25	2127.70
592.60	2118.38
592.95	2108.80
593.30	2099.25
593.65	2089.51
594.00	2080.09
594.35	2071.97
594.70	2062.45
595.05	2053.62
595.40	2044.50
595.75	2034.73
596.10	2026.22
596.45	2017.45
596.80	2009.80
597.15	2001.50
597.50	1992.04
597.85	1983.45
598.19	1974.84
598.54	1966.06
598.89	1958.17
599.24	1951.32
599.59	1944.02
599.94	1936.51
600.29	1929.08
600.64	1921.00
600.99	1912.56
601.34	1904.92
601.69	1896.02
602.04	1887.98
602.39	1879.58
602.74	1871.80
603.08	1865.39
603.43	1857.91
603.78	1849.93
604.13	1841.69
604.48	1833.87
604.83	1826.91
605.18	1819.72
605.53	1812.29
605.87	1804.59
606.22	1797.29
606.57	1789.24
606.92	1780.86
607.27	1772.74
607.62	1765.14
607.96	1758.36
608.31	1751.98
608.66	1744.05
609.01	1736.46
609.36	1729.03
609.70	1721.29
610.05	1713.66
610.40	1705.49
610.75	1697.16
611.10	1689.59
611.44	1680.70
611.79	1671.54
612.14	1662.26
612.49	1652.82
612.83	1643.74
613.18	1634.24
613.53	1624.68
613.88	1614.91
614.22	1605.92
614.57	1596.64
614.92	1587.19
615.27	1577.50
615.61	1567.80
615.96	1558.79
616.31	1550.35
616.65	1542.29
617.00	1533.96
617.35	1525.00
617.70	1515.71
618.04	1506.62
618.39	1497.19
618.74	1488.87
619.08	1480.06
619.43	1471.74
619.78	1463.79
620.12	1455.69
620.47	1447.61
620.82	1439.01
621.16	1430.82
621.51	1422.47
621.85	1414.39
622.20	1405.97
622.55	1397.77
622.89	1389.54
623.24	1381.64
623.59	1372.73
623.93	1363.93
624.28	1355.34
624.62	1347.20
624.97	1338.95
625.32	1330.89
625.66	1323.32
626.01	1315.72
626.35	1308.40
626.70	1300.68
627.04	1293.15
627.39	1285.56
627.73	1278.06
628.08	1271.10
628.43	1263.33
628.77	1255.74
629.12	1248.00
629.46	1241.28
629.81	1233.84
630.15	1226.53
630.50	1218.95
630.84	1211.94
631.19	1204.68
631.53	1197.93
631.88	1190.41
632.22	1182.92
632.57	1176.17
632.91	1168.72
633.26	1161.07
633.60	1153.87
633.95	1147.02
634.29	1139.54
634.64	1132.83
634.98	1125.60
635.32	1118.64
635.67	1112.51
636.01	1105.95
636.36	1099.30
636.70	1092.58
637.05	1086.20
637.39	1079.60
637.73	1073.33
638.08	1067.40
638.42	1061.46
638.77	1055.02
639.11	1048.69
639.45	1042.54
639.80	1035.94
640.14	1029.46
640.49	1023.48
640.83	1017.30
641.17	1010.83
641.52	1004.77
641.86	998.14
642.20	992.07
642.55	985.33
642.89	978.74
643.23	972.35
643.58	966.35
643.92	959.57
644.26	953.27
644.61	947.27
644.95	941.27
645.29	934.87
645.64	928.25
645.98	921.84
646.32	915.97
646.66	909.97
647.01	904.03
647.35	898.15
647.69	891.89
648.04	885.79
648.38	879.90
648.72	873.86
649.06	867.76
649.41	861.70
649.75	855.89
650.09	850.11
650.43	844.20
650.78	838.05
651.12	832.20
651.46	826.37
651.80	820.50
652.14	814.42
652.49	808.40
652.83	802.52
653.17	796.49
653.51	790.61
653.85	785.05
654.20	779.17
654.54	773.35
654.88	767.76
655.22	762.03
655.56	756.20
655.90	750.44
656.25	744.65
656.59	739.15
656.93	733.92
657.27	728.60
657.61	723.16
657.95	718.01
658.29	712.88
658.64	707.71
658.98	702.47
659.32	697.08
659.66	692.09
660.00	686.81
660.34	681.55
660.68	676.19
661.02	671.00
661.36	666.23
661.70	661.40
662.05	656.73
662.39	652.24
662.73	647.78
663.07	643.45
663.41	639.22
663.75	634.60
664.09	629.88
664.43	625.12
664.77	620.75
665.11	616.29
665.45	611.87
665.79	607.35
666.13	602.88
666.47	598.64
666.81	594.36
667.15	590.31
667.49	586.54
667.83	582.88
668.17	578.95
668.51	575.10
668.85	571.39
669.19	567.66
669.53	563.60
669.87	559.49
670.21	555.53
670.55	551.66
670.89	548.28
671.23	544.90
671.57	541.38
671.91	537.87
672.25	534.26
672.58	530.63
672.92	527.25
673.26	524.10
673.60	520.95
673.94	517.63
674.28	514.30
674.62	511.16
674.96	507.76
675.30	504.67
675.64	501.46
675.97	498.21
676.31	495.07
676.65	492.27
676.99	489.64
677.33	486.71
677.67	483.62
678.01	480.49
678.34	477.49
678.68	474.63
679.02	471.53
679.36	468.65
679.70	465.81
680.04	462.93
680.37	459.90
680.71	456.97
681.05	454.32
681.39	451.68
681.73	448.87
682.06	446.40
682.40	443.68
682.74	440.92
683.08	438.32
683.42	435.72
683.75	433.14
684.09	430.45
684.43	428.03
684.77	425.47
685.10	422.83
685.44	420.32
685.78	417.81
686.12	415.50
686.45	413.17
686.79	410.94
687.13	408.76
687.46	406.68
687.80	404.63
688.14	402.29
688.48	400.23
688.81	398.03
689.15	395.78
689.49	393.65
689.82	391.49
690.16	389.24
690.50	386.96
690.83	384.64
691.17	382.50
691.51	380.16
691.84	378.12
692.18	376.20
692.52	374.27
692.85	372.38
693.19	370.56
693.52	368.61
693.86	366.58
694.20	364.72
694.53	362.75
694.87	360.66
695.21	358.73
695.54	356.63
695.88	354.73
696.21	352.77
696.55	350.99
696.88	349.25
697.22	347.43
697.56	345.77
697.89	344.14
698.23	342.42
698.56	340.87
698.90	339.38
699.23	337.72
699.57	336.00
699.90	334.32
700.24	332.57
700.58	331.01
700.91	329.60
701.25	328.10
701.58	326.61
701.92	325.19
702.25	323.80
702.59	322.40
702.92	321.06
703.26	319.76
703.59	318.47
703.93	317.36
704.26	316.13
704.60	314.89
704.93	313.61
705.26	312.38
705.60	311.16
705.93	309.82
706.27	308.65
706.60	307.58
706.94	306.51
707.27	305.39
707.61	304.33
707.94	303.16
708.27	301.91
708.61	300.78
708.94	299.75
709.28	298.64
709.61	297.60
709.94	296.54
710.28	295.47
710.61	294.32
710.95	293.06
711.28	292.16
711.61	291.08
711.95	290.14
712.28	289.10
712.61	288.06
712.95	287.18
713.28	286.30
713.61	285.27
713.95	284.35
714.28	283.52
714.61	282.50
714.95	281.57
715.28	280.67
715.61	279.71
715.95	278.74
716.28	277.76
716.61	276.97
716.95	276.20
717.28	275.39
717.61	274.60
717.94	273.91
718.28	272.99
718.61	272.28
718.94	271.46
719.27	270.73
719.61	270.03
719.94	269.25
720.27	268.43
720.60	267.70
720.94	266.95
721.27	266.22
721.60	265.59
721.93	264.99
722.27	264.46
722.60	263.81
722.93	263.25
723.26	262.75
723.59	262.05
723.93	261.34
724.26	260.75
724.59	260.15
724.92	259.57
725.25	259.12
725.59	258.52
725.92	257.98
726.25	257.46
726.58	256.91
726.91	256.38
727.24	255.91
727.57	255.45
727.91	254.87
728.24	254.47
728.57	253.92
728.90	253.49
729.23	252.92
729.56	252.64
729.89	252.10
730.22	251.55
730.55	251.12
730.89	250.72
731.22	250.22
731.55	249.75
731.88	249.33
732.21	248.81
732.54	248.40
732.87	247.94
733.20	247.54
733.53	247.14
733.86	246.75
734.19	246.29
734.52	245.91
734.85	245.69
735.18	245.30
735.51	245.00
735.84	244.60
736.17	244.36
736.50	243.87
736.83	243.76
737.16	243.43
737.49	243.05
737.82	242.62
738.15	242.30
738.48	242.01
738.81	241.55
739.14	241.16
739.47	240.82
739.80	240.53
740.13	240.21
740.46	239.82
740.79	239.51
741.12	239.11
741.45	238.80
741.78	238.41
742.11	238.08
742.44	237.76
742.77	237.46
743.10	237.11
743.43	236.79
743.75	236.23
744.08	236.15
744.41	235.81
744.74	235.54
745.07	235.20
745.40	234.86
745.73	234.69
746.06	234.38
746.39	234.06
746.71	233.70
747.04	233.28
747.37	233.05
747.70	232.76
748.03	232.65
748.36	232.41
748.68	232.10
749.01	231.84
749.34	231.52
749.67	231.20
750.00	230.96
750.33	230.88
750.65	230.74
750.98	230.30
751.31	230.08
751.64	229.93
751.97	229.83
752.29	229.62
752.62	229.28
752.95	229.09
753.28	228.91
753.60	228.69
753.93	228.56
754.26	228.34
754.59	228.05
754.91	227.71
755.24	227.45
755.57	227.29
755.90	227.02
756.22	226.83
756.55	226.64
756.88	226.36
757.20	226.01
757.53	225.75
757.86	225.55
758.19	225.46
758.51	225.18
758.84	224.85
759.17	224.63
759.49	224.51
759.82	224.41
760.15	224.24
760.47	224.11
760.80	223.88
761.13	223.70
761.45	223.59
761.78	223.45
762.11	223.27
762.43	223.09
762.76	222.94
763.08	222.84
763.41	222.68
763.74	222.46
764.06	222.26
764.39	222.03
764.71	221.85
765.04	221.60
765.37	221.42
765.69	221.25
766.02	221.13
766.34	220.97
766.67	220.78
767.00	220.69
767.32	220.70
767.65	220.74
767.97	220.62
768.30	220.51
768.62	220.42
768.95	220.37
769.27	220.25
769.60	220.16
769.92	219.98
770.25	219.86
770.57	219.82
770.90	219.79
771.22	219.78
771.55	219.75
771.87	219.63
772.20	219.63
772.52	219.75
772.85	219.89
773.17	219.83
773.50	219.75
773.82	219.59
774.15	219.36
774.47	219.13
774.80	219.07
775.12	218.90
775.45	218.86
775.77	218.79
776.09	218.73
776.42	218.67
776.74	218.62
777.07	218.55
777.39	218.40
777.72	218.31
778.04	218.28
778.36	218.12
778.69	218.05
779.01	217.94
779.33	217.70
779.66	217.38
779.98	217.27
780.31	217.18
780.63	217.20
780.95	217.25
781.28	217.18
781.60	217.09
781.92	217.11
782.25	217.01
782.57	216.91
782.89	216.82
783.22	216.73
783.54	216.64
783.86	216.62
784.19	216.63
784.51	216.55
784.83	216.41
785.16	216.41
785.48	216.44
785.80	216.41
786.12	216.39
786.45	216.42
