SpectraSuite Data File
++++++++++++++++++++++++++++++++++++
Date: Mon Feb 25 17:30:38 EST 2013
User: group
Dark Spectrum Present: No
Reference Spectrum Present: No
Number of Sampled Component Spectra: 1
Spectrometers: USB2E7196
Integration Time (usec): 52000 (USB2E7196)
Spectra Averaged: 20 (USB2E7196)
Boxcar Smoothing: 10 (USB2E7196)
Correct for Electrical Dark: No (USB2E7196)
Strobe/Lamp Enabled: No (USB2E7196)
Correct for Detector Non-linearity: No (USB2E7196)
Correct for Stray Light: No (USB2E7196)
Number of Pixels in Processed Spectrum: 2048
>>>>>Begin Processed Spectral Data<<<<<
339.09	0.00
339.48	198.95
339.86	200.10
340.24	201.10
340.63	202.95
341.01	207.10
341.39	206.85
341.78	208.20
342.16	207.90
342.54	210.20
342.93	198.43
343.31	208.49
343.69	209.06
344.07	209.60
344.46	210.11
344.84	210.53
345.22	210.74
345.60	211.00
345.99	211.21
346.37	211.40
346.75	211.43
347.13	211.52
347.52	211.58
347.90	211.73
348.28	211.68
348.66	211.78
349.05	211.79
349.43	211.80
349.81	211.83
350.19	211.89
350.57	211.93
350.96	212.05
351.34	212.13
351.72	212.19
352.10	212.30
352.48	212.37
352.87	212.50
353.25	212.60
353.63	212.59
354.01	212.67
354.39	212.69
354.77	212.77
355.15	212.87
355.54	212.98
355.92	212.98
356.30	213.07
356.68	213.20
357.06	213.26
357.44	213.37
357.82	213.46
358.20	213.53
358.58	213.55
358.97	213.59
359.35	213.65
359.73	213.74
360.11	213.75
360.49	213.73
360.87	213.71
361.25	213.70
361.63	213.87
362.01	213.92
362.39	213.98
362.77	214.02
363.15	214.07
363.53	214.05
363.91	214.06
364.29	214.11
364.67	214.02
365.05	214.01
365.43	214.02
365.81	214.02
366.19	214.06
366.57	214.10
366.95	214.11
367.33	214.06
367.71	214.09
368.09	214.09
368.47	214.11
368.85	214.07
369.23	214.14
369.61	214.04
369.99	214.02
370.37	214.03
370.75	214.11
371.13	214.05
371.51	214.06
371.89	214.06
372.27	214.04
372.65	213.98
373.03	213.99
373.41	213.92
373.78	213.90
374.16	213.83
374.54	213.85
374.92	213.76
375.30	213.76
375.68	213.62
376.06	213.61
376.44	213.61
376.82	213.60
377.19	213.49
377.57	213.44
377.95	213.33
378.33	213.25
378.71	213.12
379.09	213.00
379.47	212.93
379.84	212.83
380.22	212.79
380.60	212.73
380.98	212.62
381.36	212.54
381.73	212.49
382.11	212.52
382.49	212.46
382.87	212.38
383.25	212.24
383.62	212.42
384.00	212.30
384.38	212.20
384.76	212.12
385.13	212.19
385.51	212.12
385.89	212.04
386.27	212.03
386.64	211.95
387.02	211.90
387.40	211.86
387.78	211.82
388.15	211.75
388.53	211.72
388.91	211.72
389.29	211.72
389.66	211.70
390.04	211.58
390.42	211.61
390.79	211.58
391.17	211.66
391.55	211.50
391.92	211.51
392.30	211.53
392.68	211.48
393.05	211.46
393.43	211.50
393.81	211.52
394.18	211.51
394.56	211.58
394.94	211.70
395.31	211.73
395.69	211.71
396.06	211.71
396.44	211.71
396.82	211.73
397.19	211.88
397.57	211.92
397.95	211.96
398.32	211.93
398.70	212.02
399.07	212.05
399.45	212.00
399.82	212.00
400.20	212.03
400.58	212.07
400.95	212.04
401.33	212.14
401.70	212.31
402.08	212.39
402.45	212.46
402.83	212.54
403.20	212.60
403.58	212.70
403.95	212.82
404.33	212.90
404.71	212.95
405.08	213.10
405.46	213.17
405.83	213.28
406.21	213.33
406.58	213.47
406.96	213.58
407.33	213.75
407.70	213.92
408.08	214.24
408.45	214.55
408.83	214.82
409.20	214.93
409.58	215.03
409.95	215.26
410.33	215.58
410.70	215.88
411.08	216.23
411.45	216.59
411.82	216.98
412.20	217.51
412.57	218.10
412.95	218.46
413.32	218.96
413.69	219.53
414.07	220.23
414.44	220.74
414.82	221.40
415.19	222.05
415.56	222.78
415.94	223.44
416.31	224.30
416.68	225.12
417.06	226.17
417.43	227.22
417.81	228.27
418.18	229.32
418.55	230.43
418.93	231.64
419.30	233.02
419.67	234.37
420.04	235.65
420.42	237.04
420.79	238.77
421.16	240.42
421.54	242.18
421.91	243.91
422.28	245.89
422.66	247.97
423.03	250.06
423.40	252.10
423.77	254.27
424.15	256.36
424.52	258.62
424.89	261.07
425.26	263.43
425.64	265.67
426.01	268.18
426.38	270.74
426.75	273.38
427.13	276.15
427.50	278.99
427.87	281.95
428.24	284.95
428.61	287.74
428.99	290.88
429.36	294.25
429.73	297.62
430.10	301.00
430.47	304.30
430.85	307.83
431.22	311.74
431.59	315.78
431.96	319.65
432.33	323.85
432.70	327.97
433.08	332.72
433.45	337.33
433.82	341.78
434.19	346.87
434.56	351.78
434.93	356.43
435.30	361.09
435.68	366.35
436.05	371.32
436.42	376.20
436.79	380.77
437.16	385.76
437.53	390.90
437.90	396.04
438.27	401.21
438.64	406.55
439.01	411.35
439.38	415.57
439.75	419.77
440.13	424.47
440.50	428.93
440.87	432.47
441.24	436.32
441.61	440.43
441.98	443.46
442.35	447.02
442.72	450.51
443.09	453.90
443.46	455.92
443.83	457.31
444.20	458.55
444.57	460.27
444.94	460.85
445.31	461.65
445.68	462.39
446.05	462.50
446.42	461.98
446.79	461.07
447.16	460.27
447.53	459.71
447.90	457.62
448.27	455.48
448.64	452.72
449.01	450.53
449.37	447.08
449.74	443.46
450.11	439.39
450.48	434.96
450.85	430.47
451.22	426.64
451.59	423.03
451.96	419.53
452.33	414.94
452.70	410.88
453.07	405.90
453.43	400.76
453.80	395.87
454.17	390.95
454.54	386.65
454.91	381.96
455.28	377.33
455.65	373.10
456.02	368.97
456.38	365.37
456.75	360.81
457.12	357.01
457.49	353.45
457.86	349.77
458.23	346.72
458.59	343.39
458.96	339.96
459.33	336.83
459.70	333.78
460.07	331.44
460.43	328.70
460.80	326.03
461.17	323.74
461.54	321.36
461.91	319.05
462.27	316.75
462.64	314.80
463.01	312.66
463.38	310.62
463.74	308.42
464.11	306.57
464.48	304.91
464.85	303.19
465.21	301.91
465.58	300.47
465.95	298.75
466.32	297.35
466.68	295.90
467.05	294.56
467.42	293.25
467.78	291.75
468.15	290.33
468.52	289.43
468.88	288.18
469.25	287.07
469.62	286.26
469.98	285.30
470.35	284.35
470.72	283.35
471.08	282.47
471.45	281.80
471.82	281.10
472.18	280.41
472.55	279.85
472.92	279.04
473.28	278.57
473.65	278.00
474.02	277.49
474.38	277.04
474.75	276.72
475.11	276.28
475.48	276.01
475.85	275.85
476.21	275.67
476.58	275.56
476.94	275.59
477.31	275.55
477.67	275.47
478.04	275.49
478.41	275.69
478.77	275.99
479.14	276.05
479.50	276.34
479.87	276.66
480.23	277.00
480.60	277.40
480.96	277.89
481.33	278.55
481.69	279.15
482.06	279.84
482.42	280.49
482.79	281.25
483.15	282.14
483.52	283.13
483.88	284.01
484.25	284.88
484.61	285.86
484.98	286.97
485.34	288.28
485.71	289.73
486.07	291.12
486.44	292.47
486.80	294.03
487.17	295.58
487.53	297.34
487.90	299.24
488.26	301.19
488.62	303.17
488.99	305.18
489.35	307.25
489.72	309.53
490.08	311.92
490.44	314.40
490.81	316.88
491.17	319.49
491.54	322.37
491.90	325.48
492.26	328.69
492.63	331.98
492.99	335.46
493.36	339.06
493.72	342.96
494.08	346.90
494.45	351.11
494.81	355.51
495.17	360.05
495.54	364.91
495.90	369.88
496.26	375.03
496.63	380.59
496.99	386.39
497.35	392.33
497.72	398.59
498.08	405.13
498.44	411.95
498.80	419.10
499.17	426.49
499.53	434.07
499.89	442.01
500.26	450.08
500.62	458.31
500.98	467.06
501.34	475.96
501.71	485.29
502.07	494.91
502.43	504.74
502.79	514.82
503.16	525.32
503.52	536.07
503.88	547.13
504.24	558.59
504.60	570.40
504.97	582.65
505.33	595.07
505.69	608.24
506.05	621.69
506.41	635.23
506.78	648.80
507.14	662.91
507.50	677.26
507.86	692.05
508.22	707.40
508.59	722.61
508.95	738.51
509.31	754.60
509.67	771.16
510.03	787.99
510.39	805.47
510.75	822.97
511.12	840.80
511.48	859.11
511.84	877.60
512.20	895.95
512.56	915.00
512.92	934.20
513.28	953.30
513.64	972.61
514.00	992.37
514.37	1012.50
514.73	1033.04
515.09	1053.66
515.45	1074.22
515.81	1095.05
516.17	1116.18
516.53	1137.44
516.89	1158.66
517.25	1179.65
517.61	1201.06
517.97	1222.16
518.33	1243.30
518.69	1264.81
519.05	1286.41
519.41	1307.82
519.77	1330.28
520.13	1351.71
520.49	1373.49
520.85	1395.83
521.21	1418.11
521.57	1440.60
521.93	1462.20
522.29	1484.54
522.65	1506.63
523.01	1528.84
523.37	1550.23
523.73	1572.05
524.09	1593.55
524.45	1615.67
524.81	1637.80
525.17	1659.85
525.53	1681.70
525.89	1703.53
526.25	1725.30
526.61	1745.98
526.97	1767.50
527.33	1787.99
527.68	1809.07
528.04	1829.74
528.40	1849.45
528.76	1869.56
529.12	1889.43
529.48	1910.76
529.84	1930.44
530.20	1950.20
530.56	1969.99
530.91	1990.37
531.27	2010.15
531.63	2029.49
531.99	2048.59
532.35	2066.97
532.71	2085.28
533.07	2104.39
533.42	2122.54
533.78	2140.67
534.14	2158.92
534.50	2175.35
534.86	2192.89
535.21	2209.09
535.57	2226.65
535.93	2243.34
536.29	2259.43
536.65	2275.46
537.00	2289.88
537.36	2304.54
537.72	2319.09
538.08	2333.69
538.44	2348.35
538.79	2363.30
539.15	2377.63
539.51	2391.66
539.87	2406.72
540.22	2420.44
540.58	2434.26
540.94	2448.22
541.29	2460.60
541.65	2472.28
542.01	2485.25
542.37	2496.38
542.72	2508.23
543.08	2518.58
543.44	2530.08
543.79	2540.06
544.15	2550.24
544.51	2561.18
544.87	2571.57
545.22	2580.63
545.58	2588.70
545.94	2595.53
546.29	2601.55
546.65	2607.67
547.01	2613.29
547.36	2618.17
547.72	2623.46
548.07	2627.30
548.43	2630.53
548.79	2634.03
549.14	2638.67
549.50	2642.47
549.86	2646.43
550.21	2650.12
550.57	2653.74
550.92	2655.99
551.28	2658.17
551.64	2659.94
551.99	2661.66
552.35	2663.28
552.70	2665.48
553.06	2667.69
553.41	2670.22
553.77	2672.73
554.13	2674.74
554.48	2676.65
554.84	2677.97
555.19	2678.49
555.55	2678.51
555.90	2679.15
556.26	2679.37
556.61	2678.64
556.97	2676.91
557.32	2676.01
557.68	2673.94
558.03	2671.95
558.39	2670.32
558.74	2669.81
559.10	2668.65
559.45	2666.60
559.81	2665.12
560.16	2662.63
560.52	2660.22
560.87	2657.35
561.23	2653.52
561.58	2650.77
561.94	2647.57
562.29	2643.57
562.64	2641.07
563.00	2638.96
563.35	2635.95
563.71	2634.05
564.06	2631.72
564.42	2629.90
564.77	2627.39
565.12	2625.92
565.48	2622.90
565.83	2619.58
566.19	2616.27
566.54	2611.97
566.89	2608.18
567.25	2604.37
567.60	2601.04
567.96	2597.57
568.31	2594.08
568.66	2590.46
569.02	2585.96
569.37	2580.87
569.72	2577.40
570.08	2572.20
570.43	2566.29
570.78	2560.83
571.14	2554.44
571.49	2547.75
571.84	2542.00
572.20	2535.19
572.55	2528.57
572.90	2522.01
573.26	2515.29
573.61	2508.07
573.96	2501.91
574.31	2494.39
574.67	2486.25
575.02	2477.58
575.37	2468.97
575.72	2459.86
576.08	2452.30
576.43	2443.94
576.78	2435.96
577.13	2428.31
577.49	2420.38
577.84	2412.63
578.19	2405.24
578.54	2398.33
578.90	2391.95
579.25	2383.59
579.60	2374.83
579.95	2365.60
580.30	2357.88
580.66	2350.05
581.01	2341.42
581.36	2331.82
581.71	2323.56
582.06	2315.10
582.42	2307.35
582.77	2298.68
583.12	2290.39
583.47	2281.61
583.82	2273.47
584.17	2264.64
584.53	2255.10
584.88	2246.27
585.23	2237.63
585.58	2228.31
585.93	2218.62
586.28	2209.50
586.63	2200.80
586.98	2192.91
587.34	2184.70
587.69	2175.30
588.04	2166.35
588.39	2158.01
588.74	2149.51
589.09	2140.81
589.44	2131.53
589.79	2123.03
590.14	2115.21
590.49	2106.99
590.84	2098.46
591.19	2090.56
591.54	2082.21
591.89	2072.46
592.25	2063.79
592.60	2054.65
592.95	2045.93
593.30	2037.17
593.65	2027.70
594.00	2018.12
594.35	2010.02
594.70	2001.22
595.05	1993.06
595.40	1984.44
595.75	1975.42
596.10	1967.52
596.45	1959.44
596.80	1952.41
597.15	1944.62
597.50	1935.88
597.85	1927.63
598.19	1919.07
598.54	1910.61
598.89	1902.75
599.24	1896.34
599.59	1889.04
599.94	1881.94
600.29	1873.92
600.64	1865.84
600.99	1857.74
601.34	1851.08
601.69	1842.68
602.04	1835.02
602.39	1826.99
602.74	1819.50
603.08	1812.90
603.43	1806.13
603.78	1798.61
604.13	1790.68
604.48	1782.58
604.83	1775.85
605.18	1768.94
605.53	1761.72
605.87	1754.22
606.22	1747.62
606.57	1740.20
606.92	1732.51
607.27	1724.72
607.62	1718.00
607.96	1711.46
608.31	1705.51
608.66	1697.52
609.01	1690.02
609.36	1682.74
609.70	1675.16
610.05	1667.73
610.40	1660.01
610.75	1651.41
611.10	1643.76
611.44	1635.04
611.79	1626.55
612.14	1617.51
612.49	1608.29
612.83	1599.80
613.18	1590.49
613.53	1581.15
613.88	1571.53
614.22	1562.65
614.57	1553.76
614.92	1544.67
615.27	1535.51
615.61	1525.93
615.96	1517.16
616.31	1508.91
616.65	1500.93
617.00	1493.05
617.35	1484.70
617.70	1475.90
618.04	1467.22
618.39	1458.05
618.74	1449.86
619.08	1441.50
619.43	1433.63
619.78	1426.06
620.12	1418.28
620.47	1410.92
620.82	1402.87
621.16	1394.94
621.51	1387.02
621.85	1378.97
622.20	1370.63
622.55	1362.64
622.89	1354.56
623.24	1347.27
623.59	1338.85
623.93	1330.34
624.28	1322.11
624.62	1314.20
624.97	1306.14
625.32	1298.53
625.66	1291.56
626.01	1284.40
626.35	1277.49
626.70	1269.85
627.04	1262.59
627.39	1255.25
627.73	1247.79
628.08	1240.88
628.43	1233.86
628.77	1226.52
629.12	1219.39
629.46	1212.87
629.81	1205.92
630.15	1198.81
630.50	1191.50
630.84	1184.37
631.19	1177.55
631.53	1170.73
631.88	1163.17
632.22	1156.08
632.57	1149.30
632.91	1141.90
633.26	1134.68
633.60	1127.36
633.95	1120.94
634.29	1113.68
634.64	1106.90
634.98	1100.23
635.32	1093.15
635.67	1086.75
636.01	1080.19
636.36	1073.64
636.70	1067.13
637.05	1060.39
637.39	1054.20
637.73	1047.94
638.08	1042.21
638.42	1036.35
638.77	1030.00
639.11	1024.05
639.45	1018.10
639.80	1011.76
640.14	1005.45
640.49	999.34
640.83	993.26
641.17	986.76
641.52	980.76
641.86	974.48
642.20	968.33
642.55	961.99
642.89	955.69
643.23	949.36
643.58	943.70
643.92	937.48
644.26	931.41
644.61	925.43
644.95	919.44
645.29	913.44
645.64	907.00
645.98	900.94
646.32	895.14
646.66	888.97
647.01	883.03
647.35	877.55
647.69	871.30
648.04	865.54
648.38	859.79
648.72	853.97
649.06	847.97
649.41	841.93
649.75	836.22
650.09	830.56
650.43	824.90
650.78	818.88
651.12	813.19
651.46	807.50
651.80	801.92
652.14	796.18
652.49	790.39
652.83	784.81
653.17	779.03
653.51	773.44
653.85	767.96
654.20	762.52
654.54	756.72
654.88	751.57
655.22	745.90
655.56	740.00
655.90	734.28
656.25	728.77
656.59	723.45
656.93	718.45
657.27	713.26
657.61	708.04
657.95	702.92
658.29	697.70
658.64	692.87
658.98	687.63
659.32	682.28
659.66	677.24
660.00	671.96
660.34	666.89
660.68	661.64
661.02	656.62
661.36	651.90
661.70	647.34
662.05	642.58
662.39	638.24
662.73	634.15
663.07	630.15
663.41	625.98
663.75	621.47
664.09	616.91
664.43	612.25
664.77	607.90
665.11	603.65
665.45	599.46
665.79	595.06
666.13	590.76
666.47	586.72
666.81	582.47
667.15	578.57
667.49	574.78
667.83	570.99
668.17	567.40
668.51	563.74
668.85	560.00
669.19	556.47
669.53	552.73
669.87	548.83
670.21	545.02
670.55	541.18
670.89	537.92
671.23	534.51
671.57	531.16
671.91	527.65
672.25	524.10
672.58	520.63
672.92	517.25
673.26	514.18
673.60	511.06
673.94	507.88
674.28	504.67
674.62	501.61
674.96	498.54
675.30	495.48
675.64	492.22
675.97	488.97
676.31	486.05
676.65	483.02
676.99	480.41
677.33	477.45
677.67	474.58
678.01	471.43
678.34	468.56
678.68	465.80
679.02	462.98
679.36	460.18
679.70	457.42
680.04	454.67
680.37	451.80
680.71	448.96
681.05	446.49
681.39	443.76
681.73	441.14
682.06	438.61
682.40	436.03
682.74	433.46
683.08	431.06
683.42	428.44
683.75	425.95
684.09	423.30
684.43	420.95
684.77	418.58
685.10	416.22
685.44	413.91
685.78	411.55
686.12	409.38
686.45	407.24
686.79	405.09
687.13	403.02
687.46	400.90
687.80	398.83
688.14	396.43
688.48	394.43
688.81	392.27
689.15	390.16
689.49	387.99
689.82	385.80
690.16	383.54
690.50	381.41
690.83	379.35
691.17	377.25
691.51	375.05
691.84	372.95
692.18	370.94
692.52	368.95
692.85	367.04
693.19	365.16
693.52	363.14
693.86	361.12
694.20	359.25
694.53	357.41
694.87	355.59
695.21	353.89
695.54	352.02
695.88	350.15
696.21	348.25
696.55	346.52
696.88	344.88
697.22	343.20
697.56	341.53
697.89	339.91
698.23	338.22
698.56	336.63
698.90	335.05
699.23	333.55
699.57	331.90
699.90	330.33
700.24	328.68
700.58	327.21
700.91	325.78
701.25	324.35
701.58	323.06
701.92	321.63
702.25	320.21
702.59	318.95
702.92	317.65
703.26	316.41
703.59	315.20
703.93	314.04
704.26	312.87
704.60	311.63
704.93	310.41
705.26	309.22
705.60	308.11
705.93	306.95
706.27	305.82
706.60	304.77
706.94	303.75
707.27	302.68
707.61	301.47
707.94	300.37
708.27	299.15
708.61	297.92
708.94	296.87
709.28	295.75
709.61	294.66
709.94	293.67
710.28	292.64
710.61	291.57
710.95	290.43
711.28	289.47
711.61	288.50
711.95	287.51
712.28	286.66
712.61	285.69
712.95	284.86
713.28	283.95
713.61	283.01
713.95	282.01
714.28	281.11
714.61	280.26
714.95	279.35
715.28	278.45
715.61	277.49
715.95	276.70
716.28	275.87
716.61	275.00
716.95	274.03
717.28	273.27
717.61	272.45
717.94	271.75
718.28	270.96
718.61	270.21
718.94	269.44
719.27	268.60
719.61	267.95
719.94	267.18
720.27	266.42
720.60	265.75
720.94	265.04
721.27	264.49
721.60	263.93
721.93	263.36
722.27	262.83
722.60	262.35
722.93	261.71
723.26	261.22
723.59	260.66
723.93	260.21
724.26	259.54
724.59	258.97
724.92	258.45
725.25	257.95
725.59	257.46
725.92	256.96
726.25	256.51
726.58	255.97
726.91	255.49
727.24	255.05
727.57	254.59
727.91	254.13
728.24	253.65
728.57	253.16
728.90	252.68
729.23	252.22
729.56	251.90
729.89	251.38
730.22	250.84
730.55	250.37
730.89	249.92
731.22	249.52
731.55	249.15
731.88	248.67
732.21	248.25
732.54	247.85
732.87	247.40
733.20	247.01
733.53	246.55
733.86	246.18
734.19	245.71
734.52	245.33
734.85	245.15
735.18	244.73
735.51	244.44
735.84	244.14
736.17	243.78
736.50	243.24
736.83	243.14
737.16	242.83
737.49	242.46
737.82	242.14
738.15	241.82
738.48	241.52
738.81	241.19
739.14	240.88
739.47	240.45
739.80	240.14
740.13	239.83
740.46	239.50
740.79	239.24
741.12	238.87
741.45	238.55
741.78	238.13
742.11	237.82
742.44	237.42
742.77	237.11
743.10	236.80
743.43	236.49
743.75	235.96
744.08	235.94
744.41	235.62
744.74	235.30
745.07	235.02
745.40	234.69
745.73	234.47
746.06	234.11
746.39	233.78
746.71	233.52
747.04	233.23
747.37	232.91
747.70	232.61
748.03	232.37
748.36	232.10
748.68	231.80
749.01	231.54
749.34	231.31
749.67	231.04
750.00	230.81
750.33	230.70
750.65	230.38
750.98	229.89
751.31	229.70
751.64	229.49
751.97	229.27
752.29	229.09
752.62	228.84
752.95	228.62
753.28	228.47
753.60	228.23
753.93	228.03
754.26	227.90
754.59	227.62
754.91	227.44
755.24	227.19
755.57	226.98
755.90	226.71
756.22	226.49
756.55	226.19
756.88	225.97
757.20	225.67
757.53	225.55
757.86	225.36
758.19	225.13
758.51	224.98
758.84	224.82
759.17	224.62
759.49	224.32
759.82	224.23
760.15	224.11
760.47	223.92
760.80	223.73
761.13	223.62
761.45	223.47
761.78	223.28
762.11	223.16
762.43	222.95
762.76	222.84
763.08	222.70
763.41	222.65
763.74	222.49
764.06	222.31
764.39	222.22
764.71	222.08
765.04	222.03
765.37	221.84
765.69	221.61
766.02	221.39
766.34	221.38
766.67	221.14
767.00	221.07
767.32	221.04
767.65	221.06
767.97	220.87
768.30	220.73
768.62	220.61
768.95	220.45
769.27	220.39
769.60	220.26
769.92	220.21
770.25	220.11
770.57	219.99
770.90	219.88
771.22	219.67
771.55	219.59
771.87	219.45
772.20	219.29
772.52	219.38
772.85	219.54
773.17	219.35
773.50	219.28
773.82	219.13
774.15	218.92
774.47	218.66
774.80	218.61
775.12	218.57
775.45	218.50
775.77	218.43
776.09	218.37
776.42	218.31
776.74	218.15
777.07	218.03
777.39	218.00
777.72	217.95
778.04	217.90
778.36	217.82
778.69	217.76
779.01	217.76
779.33	217.55
779.66	217.28
779.98	217.25
780.31	217.19
780.63	217.18
780.95	217.16
781.28	217.10
781.60	216.96
781.92	216.85
782.25	216.81
782.57	216.73
782.89	216.64
783.22	216.61
783.54	216.57
783.86	216.60
784.19	216.44
784.51	216.43
784.83	216.32
785.16	216.22
785.48	216.11
785.80	216.06
786.12	215.96
786.45	215.96
