SpectraSuite Data File
++++++++++++++++++++++++++++++++++++
Date: Mon Feb 25 17:33:48 EST 2013
User: group
Dark Spectrum Present: No
Reference Spectrum Present: No
Number of Sampled Component Spectra: 1
Spectrometers: USB2E7196
Integration Time (usec): 52000 (USB2E7196)
Spectra Averaged: 20 (USB2E7196)
Boxcar Smoothing: 10 (USB2E7196)
Correct for Electrical Dark: No (USB2E7196)
Strobe/Lamp Enabled: No (USB2E7196)
Correct for Detector Non-linearity: No (USB2E7196)
Correct for Stray Light: No (USB2E7196)
Number of Pixels in Processed Spectrum: 2048
>>>>>Begin Processed Spectral Data<<<<<
339.09	0.00
339.48	199.50
339.86	200.95
340.24	203.00
340.63	201.90
341.01	207.20
341.39	205.70
341.78	207.80
342.16	208.00
342.54	209.25
342.93	198.53
343.31	208.51
343.69	209.05
344.07	209.47
344.46	209.84
344.84	210.25
345.22	210.42
345.60	210.70
345.99	210.82
346.37	211.00
346.75	211.09
347.13	211.06
347.52	211.10
347.90	211.21
348.28	211.23
348.66	211.38
349.05	211.34
349.43	211.47
349.81	211.47
350.19	211.53
350.57	211.60
350.96	211.62
351.34	211.73
351.72	211.85
352.10	211.93
352.48	212.03
352.87	212.15
353.25	212.30
353.63	212.35
354.01	212.48
354.39	212.54
354.77	212.61
355.15	212.77
355.54	212.78
355.92	212.68
356.30	212.72
356.68	212.84
357.06	212.89
357.44	212.95
357.82	212.95
358.20	213.11
358.58	213.16
358.97	213.20
359.35	213.30
359.73	213.32
360.11	213.42
360.49	213.43
360.87	213.46
361.25	213.44
361.63	213.52
362.01	213.62
362.39	213.57
362.77	213.57
363.15	213.59
363.53	213.65
363.91	213.68
364.29	213.71
364.67	213.56
365.05	213.59
365.43	213.59
365.81	213.71
366.19	213.74
366.57	213.83
366.95	213.83
367.33	213.80
367.71	213.82
368.09	213.81
368.47	213.78
368.85	213.73
369.23	213.76
369.61	213.70
369.99	213.64
370.37	213.71
370.75	213.83
371.13	213.80
371.51	213.72
371.89	213.75
372.27	213.77
372.65	213.66
373.03	213.65
373.41	213.56
373.78	213.47
374.16	213.31
374.54	213.18
374.92	213.14
375.30	213.09
375.68	213.02
376.06	213.05
376.44	213.05
376.82	213.03
377.19	212.95
377.57	212.90
377.95	212.84
378.33	212.78
378.71	212.66
379.09	212.58
379.47	212.59
379.84	212.46
380.22	212.38
380.60	212.40
380.98	212.40
381.36	212.45
381.73	212.38
382.11	212.36
382.49	212.36
382.87	212.28
383.25	212.34
383.62	212.46
384.00	212.35
384.38	212.33
384.76	212.31
385.13	212.40
385.51	212.30
385.89	212.31
386.27	212.24
386.64	212.22
387.02	212.14
387.40	212.09
387.78	212.10
388.15	212.12
388.53	212.05
388.91	211.99
389.29	211.88
389.66	211.82
390.04	211.87
390.42	211.90
390.79	211.88
391.17	211.76
391.55	211.56
391.92	211.56
392.30	211.51
392.68	211.47
393.05	211.37
393.43	211.34
393.81	211.29
394.18	211.28
394.56	211.24
394.94	211.34
395.31	211.29
395.69	211.39
396.06	211.34
396.44	211.37
396.82	211.31
397.19	211.47
397.57	211.56
397.95	211.60
398.32	211.55
398.70	211.61
399.07	211.66
399.45	211.66
399.82	211.69
400.20	211.78
400.58	211.79
400.95	211.90
401.33	211.98
401.70	212.12
402.08	212.25
402.45	212.38
402.83	212.44
403.20	212.56
403.58	212.57
403.95	212.71
404.33	212.82
404.71	212.90
405.08	213.02
405.46	213.10
405.83	213.15
406.21	213.27
406.58	213.46
406.96	213.68
407.33	213.93
407.70	214.10
408.08	214.41
408.45	214.70
408.83	214.92
409.20	215.24
409.58	215.40
409.95	215.69
410.33	215.96
410.70	216.25
411.08	216.57
411.45	217.00
411.82	217.38
412.20	217.79
412.57	218.40
412.95	218.77
413.32	219.31
413.69	219.85
414.07	220.42
414.44	220.96
414.82	221.58
415.19	222.32
415.56	223.10
415.94	223.77
416.31	224.67
416.68	225.50
417.06	226.48
417.43	227.46
417.81	228.46
418.18	229.58
418.55	230.80
418.93	232.09
419.30	233.39
419.67	234.70
420.04	236.23
420.42	237.65
420.79	239.44
421.16	241.22
421.54	243.04
421.91	244.97
422.28	246.92
422.66	248.90
423.03	250.87
423.40	252.90
423.77	255.15
424.15	257.36
424.52	259.73
424.89	262.33
425.26	264.78
425.64	267.18
426.01	269.75
426.38	272.35
426.75	275.14
427.13	277.85
427.50	280.81
427.87	283.81
428.24	286.95
428.61	289.82
428.99	293.13
429.36	296.68
429.73	300.10
430.10	303.50
430.47	307.10
430.85	310.77
431.22	314.66
431.59	318.85
431.96	322.69
432.33	327.02
432.70	331.14
433.08	336.01
433.45	340.69
433.82	345.38
434.19	350.58
434.56	355.59
434.93	360.48
435.30	365.25
435.68	370.55
436.05	375.72
436.42	380.90
436.79	385.52
437.16	390.62
437.53	396.02
437.90	401.39
438.27	406.61
438.64	411.97
439.01	416.95
439.38	421.24
439.75	425.58
440.13	430.38
440.50	434.98
440.87	438.77
441.24	442.65
441.61	446.77
441.98	449.85
442.35	453.38
442.72	457.20
443.09	460.68
443.46	462.84
443.83	464.19
444.20	465.35
444.57	467.05
444.94	467.64
445.31	468.27
445.68	469.05
446.05	469.29
446.42	468.47
446.79	467.73
447.16	467.02
447.53	466.49
447.90	464.45
448.27	462.45
448.64	459.50
449.01	457.23
449.37	453.61
449.74	450.17
450.11	446.08
450.48	441.41
450.85	436.94
451.22	432.88
451.59	429.05
451.96	425.41
452.33	420.71
452.70	416.56
453.07	411.48
453.43	406.10
453.80	401.06
454.17	396.49
454.54	391.87
454.91	386.99
455.28	382.10
455.65	377.64
456.02	373.25
456.38	369.57
456.75	365.07
457.12	361.24
457.49	357.25
457.86	353.47
458.23	350.30
458.59	346.77
458.96	343.29
459.33	340.28
459.70	337.20
460.07	334.65
460.43	331.66
460.80	329.06
461.17	326.74
461.54	324.23
461.91	321.86
462.27	319.58
462.64	317.51
463.01	315.33
463.38	313.27
463.74	311.00
464.11	309.07
464.48	307.37
464.85	305.60
465.21	304.30
465.58	302.91
465.95	301.13
466.32	299.72
466.68	298.31
467.05	296.80
467.42	295.39
467.78	293.96
468.15	292.63
468.52	291.57
468.88	290.35
469.25	289.20
469.62	288.24
469.98	287.23
470.35	286.30
470.72	285.47
471.08	284.45
471.45	283.65
471.82	282.88
472.18	281.94
472.55	281.37
472.92	280.69
473.28	280.13
473.65	279.50
474.02	278.92
474.38	278.46
474.75	278.15
475.11	277.69
475.48	277.47
475.85	277.25
476.21	277.00
476.58	276.73
476.94	276.70
477.31	276.67
477.67	276.62
478.04	276.65
478.41	276.82
478.77	277.22
479.14	277.35
479.50	277.70
479.87	278.10
480.23	278.45
480.60	278.79
480.96	279.14
481.33	279.82
481.69	280.47
482.06	281.05
482.42	281.74
482.79	282.53
483.15	283.29
483.52	284.31
483.88	285.28
484.25	286.38
484.61	287.43
484.98	288.55
485.34	289.85
485.71	291.26
486.07	292.50
486.44	293.70
486.80	295.22
487.17	296.69
487.53	298.50
487.90	300.24
488.26	302.25
488.62	304.38
488.99	306.40
489.35	308.48
489.72	310.87
490.08	313.26
490.44	315.81
490.81	318.50
491.17	321.16
491.54	323.99
491.90	326.95
492.26	330.17
492.63	333.54
492.99	336.94
493.36	340.53
493.72	344.47
494.08	348.53
494.45	352.80
494.81	357.27
495.17	361.85
495.54	366.86
495.90	371.83
496.26	376.93
496.63	382.39
496.99	388.09
497.35	394.00
497.72	400.30
498.08	406.74
498.44	413.32
498.80	420.47
499.17	427.97
499.53	435.66
499.89	443.61
500.26	451.67
500.62	460.01
500.98	468.73
501.34	477.84
501.71	487.37
502.07	497.09
502.43	507.11
502.79	517.31
503.16	527.71
503.52	538.62
503.88	549.77
504.24	561.41
504.60	573.46
504.97	585.79
505.33	598.19
505.69	611.43
506.05	625.19
506.41	638.82
506.78	652.59
507.14	666.76
507.50	681.29
507.86	696.28
508.22	711.87
508.59	727.49
508.95	743.48
509.31	759.76
509.67	776.41
510.03	793.30
510.39	810.82
510.75	828.64
511.12	846.62
511.48	865.35
511.84	883.94
512.20	902.58
512.56	921.81
512.92	941.53
513.28	961.14
513.64	980.81
514.00	1000.70
514.37	1020.99
514.73	1041.95
515.09	1062.65
515.45	1083.70
515.81	1104.56
516.17	1125.92
516.53	1147.42
516.89	1168.94
517.25	1190.52
517.61	1212.41
517.97	1234.20
518.33	1255.87
518.69	1277.85
519.05	1299.80
519.41	1322.11
519.77	1344.63
520.13	1366.64
520.49	1388.54
520.85	1411.34
521.21	1433.76
521.57	1456.87
521.93	1479.43
522.29	1502.02
522.65	1524.65
523.01	1547.10
523.37	1569.52
523.73	1591.84
524.09	1613.91
524.45	1636.12
524.81	1658.65
525.17	1681.13
525.53	1703.58
525.89	1725.96
526.25	1747.92
526.61	1769.43
526.97	1791.00
527.33	1812.37
527.68	1834.23
528.04	1855.78
528.40	1876.10
528.76	1896.96
529.12	1917.71
529.48	1939.15
529.84	1959.65
530.20	1980.35
530.56	2001.08
530.91	2022.16
531.27	2042.64
531.63	2062.75
531.99	2082.77
532.35	2102.11
532.71	2121.36
533.07	2140.88
533.42	2159.60
533.78	2178.75
534.14	2197.06
534.50	2214.55
534.86	2233.01
535.21	2249.77
535.57	2267.49
535.93	2284.82
536.29	2301.87
536.65	2318.63
537.00	2334.32
537.36	2349.74
537.72	2364.96
538.08	2380.12
538.44	2395.22
538.79	2410.98
539.15	2426.09
539.51	2440.82
539.87	2456.29
540.22	2470.65
540.58	2485.60
540.94	2500.19
541.29	2513.14
541.65	2525.49
542.01	2538.92
542.37	2550.61
542.72	2563.22
543.08	2574.42
543.44	2586.64
543.79	2596.96
544.15	2607.11
544.51	2618.20
544.87	2629.50
545.22	2639.04
545.58	2647.64
545.94	2655.13
546.29	2661.20
546.65	2667.89
547.01	2674.23
547.36	2679.75
547.72	2685.61
548.07	2689.36
548.43	2693.14
548.79	2696.83
549.14	2701.76
549.50	2705.99
549.86	2710.31
550.21	2714.46
550.57	2718.61
550.92	2721.39
551.28	2724.15
551.64	2726.72
551.99	2729.43
552.35	2730.89
552.70	2733.59
553.06	2736.77
553.41	2739.80
553.77	2742.89
554.13	2744.58
554.48	2746.67
554.84	2748.26
555.19	2748.53
555.55	2749.28
555.90	2749.96
556.26	2750.87
556.61	2751.22
556.97	2750.26
557.32	2749.72
557.68	2747.81
558.03	2746.48
558.39	2745.10
558.74	2744.73
559.10	2743.67
559.45	2741.53
559.81	2740.87
560.16	2738.15
560.52	2735.23
560.87	2732.04
561.23	2728.39
561.58	2726.78
561.94	2723.60
562.29	2720.01
562.64	2718.14
563.00	2715.74
563.35	2713.78
563.71	2711.96
564.06	2709.80
564.42	2707.84
564.77	2705.49
565.12	2703.59
565.48	2700.47
565.83	2697.12
566.19	2693.80
566.54	2689.60
566.89	2685.64
567.25	2681.52
567.60	2678.47
567.96	2674.82
568.31	2671.74
568.66	2668.23
569.02	2663.22
569.37	2658.19
569.72	2654.49
570.08	2648.81
570.43	2643.40
570.78	2637.36
571.14	2630.90
571.49	2624.05
571.84	2618.25
572.20	2611.38
572.55	2604.89
572.90	2598.00
573.26	2591.01
573.61	2584.11
573.96	2577.35
574.31	2569.43
574.67	2561.14
575.02	2552.34
575.37	2544.18
575.72	2534.83
576.08	2527.13
576.43	2518.54
576.78	2510.86
577.13	2502.45
577.49	2494.35
577.84	2486.52
578.19	2479.10
578.54	2471.79
578.90	2464.61
579.25	2455.46
579.60	2446.24
579.95	2437.24
580.30	2428.98
580.66	2420.77
581.01	2411.57
581.36	2402.56
581.71	2394.21
582.06	2385.55
582.42	2377.63
582.77	2368.27
583.12	2359.63
583.47	2350.54
583.82	2342.43
584.17	2333.16
584.53	2324.04
584.88	2315.55
585.23	2306.29
585.58	2296.33
585.93	2286.52
586.28	2277.40
586.63	2268.95
586.98	2260.57
587.34	2252.05
587.69	2242.87
588.04	2233.47
588.39	2225.24
588.74	2216.51
589.09	2208.00
589.44	2198.57
589.79	2189.53
590.14	2181.61
590.49	2173.13
590.84	2164.34
591.19	2155.80
591.54	2147.01
591.89	2136.77
592.25	2127.35
592.60	2117.80
592.95	2108.55
593.30	2099.01
593.65	2089.06
594.00	2079.22
594.35	2071.22
594.70	2061.97
595.05	2053.29
595.40	2044.45
595.75	2034.66
596.10	2025.97
596.45	2017.01
596.80	2009.24
597.15	2000.98
597.50	1991.52
597.85	1983.19
598.19	1974.37
598.54	1965.85
598.89	1957.75
599.24	1951.16
599.59	1943.61
599.94	1936.47
600.29	1928.88
600.64	1921.25
600.99	1912.88
601.34	1905.65
601.69	1896.44
602.04	1888.21
602.39	1880.17
602.74	1872.48
603.08	1865.76
603.43	1858.54
603.78	1850.63
604.13	1842.43
604.48	1834.41
604.83	1827.83
605.18	1820.28
605.53	1812.63
605.87	1804.83
606.22	1797.76
606.57	1789.45
606.92	1781.27
607.27	1773.03
607.62	1765.50
607.96	1758.42
608.31	1752.06
608.66	1744.18
609.01	1736.95
609.36	1729.06
609.70	1721.10
610.05	1713.54
610.40	1705.30
610.75	1696.73
611.10	1688.93
611.44	1679.90
611.79	1670.66
612.14	1661.15
612.49	1651.62
612.83	1642.98
613.18	1633.11
613.53	1623.52
613.88	1614.10
614.22	1605.25
614.57	1596.03
614.92	1586.51
615.27	1576.99
615.61	1567.33
615.96	1558.31
616.31	1549.58
616.65	1541.63
617.00	1532.99
617.35	1524.23
617.70	1515.32
618.04	1506.26
618.39	1497.00
618.74	1488.58
619.08	1480.25
619.43	1472.04
619.78	1464.24
620.12	1455.99
620.47	1448.41
620.82	1439.90
621.16	1431.40
621.51	1422.98
621.85	1414.73
622.20	1406.34
622.55	1398.03
622.89	1389.57
623.24	1381.48
623.59	1372.72
623.93	1364.11
624.28	1356.07
624.62	1347.68
624.97	1339.18
625.32	1331.37
625.66	1324.14
626.01	1316.65
626.35	1309.42
626.70	1301.55
627.04	1294.15
627.39	1286.39
627.73	1278.64
628.08	1271.82
628.43	1264.51
628.77	1257.03
629.12	1249.45
629.46	1242.76
629.81	1235.50
630.15	1228.10
630.50	1220.56
630.84	1213.24
631.19	1206.07
631.53	1199.01
631.88	1191.45
632.22	1184.09
632.57	1177.15
632.91	1169.41
633.26	1161.96
633.60	1154.48
633.95	1147.83
634.29	1140.23
634.64	1133.61
634.98	1126.50
635.32	1119.37
635.67	1112.99
636.01	1106.35
636.36	1099.80
636.70	1093.01
637.05	1086.35
637.39	1080.11
637.73	1073.91
638.08	1068.25
638.42	1062.18
638.77	1055.65
639.11	1049.47
639.45	1043.23
639.80	1036.37
640.14	1030.00
640.49	1023.80
640.83	1017.66
641.17	1010.96
641.52	1005.01
641.86	998.32
642.20	992.29
642.55	985.55
642.89	978.95
643.23	972.58
643.58	966.44
643.92	960.22
644.26	953.97
644.61	948.02
644.95	941.92
645.29	935.36
645.64	928.75
645.98	922.79
646.32	916.79
646.66	910.79
647.01	904.99
647.35	899.14
647.69	892.94
648.04	886.78
648.38	880.89
648.72	874.84
649.06	868.87
649.41	862.57
649.75	856.64
650.09	850.79
650.43	844.82
650.78	838.67
651.12	832.24
651.46	826.37
651.80	820.27
652.14	814.14
652.49	808.13
652.83	802.23
653.17	795.99
653.51	790.04
653.85	784.20
654.20	778.24
654.54	772.35
654.88	766.73
655.22	760.98
655.56	755.07
655.90	749.11
656.25	743.29
656.59	737.81
656.93	732.49
657.27	727.26
657.61	721.72
657.95	716.47
658.29	711.44
658.64	706.36
658.98	701.05
659.32	695.82
659.66	690.75
660.00	685.43
660.34	680.10
660.68	674.96
661.02	670.02
661.36	665.31
661.70	660.41
662.05	655.59
662.39	651.12
662.73	646.70
663.07	642.37
663.41	638.07
663.75	633.62
664.09	629.14
664.43	624.28
664.77	619.95
665.11	615.50
665.45	611.10
665.79	606.57
666.13	602.22
666.47	597.95
666.81	593.69
667.15	589.64
667.49	585.95
667.83	582.10
668.17	578.28
668.51	574.53
668.85	570.82
669.19	567.28
669.53	563.45
669.87	559.38
670.21	555.61
670.55	551.74
670.89	548.29
671.23	544.81
671.57	541.43
671.91	537.88
672.25	534.37
672.58	530.87
672.92	527.40
673.26	524.25
673.60	521.06
673.94	517.67
674.28	514.38
674.62	511.16
674.96	507.97
675.30	504.78
675.64	501.55
675.97	498.29
676.31	495.11
676.65	492.07
676.99	489.46
677.33	486.34
677.67	483.42
678.01	480.28
678.34	477.16
678.68	474.32
679.02	471.24
679.36	468.41
679.70	465.56
680.04	462.74
680.37	459.79
680.71	456.82
681.05	454.26
681.39	451.71
681.73	448.98
682.06	446.40
682.40	443.71
682.74	440.97
683.08	438.45
683.42	435.75
683.75	433.23
684.09	430.48
684.43	428.09
684.77	425.58
685.10	423.11
685.44	420.70
685.78	418.21
686.12	416.00
686.45	413.57
686.79	411.24
687.13	409.13
687.46	406.93
687.80	404.87
688.14	402.35
688.48	400.10
688.81	397.72
689.15	395.38
689.49	393.17
689.82	391.01
690.16	388.73
690.50	386.48
690.83	384.28
691.17	382.08
691.51	379.84
691.84	377.71
692.18	375.67
692.52	373.71
692.85	371.79
693.19	369.85
693.52	368.02
693.86	366.03
694.20	364.00
694.53	361.99
694.87	359.94
695.21	358.24
695.54	356.33
695.88	354.46
696.21	352.60
696.55	350.81
696.88	349.11
697.22	347.38
697.56	345.86
697.89	344.18
698.23	342.58
698.56	340.93
698.90	339.36
699.23	337.71
699.57	336.06
699.90	334.39
700.24	332.68
700.58	331.04
700.91	329.60
701.25	328.25
701.58	326.77
701.92	325.35
702.25	323.91
702.59	322.47
702.92	321.08
703.26	319.80
703.59	318.51
703.93	317.30
704.26	316.04
704.60	314.71
704.93	313.38
705.26	312.15
705.60	310.99
705.93	309.76
706.27	308.59
706.60	307.40
706.94	306.34
707.27	305.30
707.61	304.10
707.94	302.88
708.27	301.50
708.61	300.42
708.94	299.31
709.28	298.16
709.61	297.06
709.94	296.09
710.28	295.00
710.61	294.02
710.95	292.80
711.28	291.89
711.61	290.89
711.95	289.95
712.28	288.92
712.61	287.91
712.95	286.99
713.28	286.08
713.61	285.20
713.95	284.20
714.28	283.21
714.61	282.29
714.95	281.46
715.28	280.61
715.61	279.64
715.95	278.73
716.28	277.88
716.61	277.05
716.95	276.15
717.28	275.27
717.61	274.39
717.94	273.68
718.28	272.74
718.61	271.89
718.94	271.17
719.27	270.44
719.61	269.72
719.94	268.99
720.27	268.23
720.60	267.40
720.94	266.77
721.27	266.04
721.60	265.43
721.93	264.74
722.27	264.18
722.60	263.64
722.93	263.00
723.26	262.42
723.59	261.82
723.93	261.22
724.26	260.72
724.59	260.12
724.92	259.50
725.25	258.97
725.59	258.44
725.92	257.89
726.25	257.32
726.58	256.79
726.91	256.27
727.24	255.72
727.57	255.24
727.91	254.66
728.24	254.14
728.57	253.67
728.90	253.27
729.23	252.69
729.56	252.25
729.89	251.77
730.22	251.26
730.55	250.76
730.89	250.30
731.22	249.79
731.55	249.35
731.88	248.94
732.21	248.48
732.54	248.02
732.87	247.59
733.20	247.19
733.53	246.76
733.86	246.27
734.19	245.83
734.52	245.41
734.85	245.15
735.18	244.81
735.51	244.45
735.84	244.03
736.17	243.81
736.50	243.37
736.83	243.22
737.16	242.86
737.49	242.55
737.82	242.19
738.15	241.82
738.48	241.44
738.81	241.04
739.14	240.66
739.47	240.43
739.80	240.02
740.13	239.70
740.46	239.30
740.79	238.92
741.12	238.54
741.45	238.22
741.78	237.77
742.11	237.50
742.44	237.12
742.77	236.83
743.10	236.44
743.43	236.06
743.75	235.45
744.08	235.36
744.41	235.09
744.74	234.75
745.07	234.49
745.40	234.24
745.73	234.10
746.06	233.85
746.39	233.51
746.71	233.29
747.04	232.98
747.37	232.77
747.70	232.56
748.03	232.43
748.36	232.20
748.68	231.94
749.01	231.66
749.34	231.47
749.67	231.25
750.00	230.98
750.33	230.89
750.65	230.77
750.98	230.35
751.31	230.04
751.64	229.90
751.97	229.80
752.29	229.49
752.62	229.22
752.95	229.00
753.28	228.73
753.60	228.49
753.93	228.35
754.26	228.14
754.59	227.88
754.91	227.56
755.24	227.39
755.57	227.24
755.90	227.06
756.22	226.80
756.55	226.57
756.88	226.35
757.20	226.04
757.53	225.80
757.86	225.57
758.19	225.55
758.51	225.30
758.84	224.97
759.17	224.85
759.49	224.54
759.82	224.43
760.15	224.35
760.47	224.14
760.80	223.85
761.13	223.74
761.45	223.60
761.78	223.52
762.11	223.35
762.43	223.20
762.76	222.96
763.08	222.87
763.41	222.79
763.74	222.65
764.06	222.57
764.39	222.46
764.71	222.35
765.04	222.04
765.37	221.91
765.69	221.75
766.02	221.64
766.34	221.57
766.67	221.35
767.00	221.24
767.32	221.24
767.65	221.22
767.97	221.01
768.30	220.92
768.62	220.72
768.95	220.58
769.27	220.50
769.60	220.50
769.92	220.28
770.25	220.06
770.57	219.96
770.90	219.79
771.22	219.74
771.55	219.62
771.87	219.62
772.20	219.57
772.52	219.60
772.85	219.75
773.17	219.70
773.50	219.72
773.82	219.60
774.15	219.43
774.47	219.28
774.80	219.20
775.12	219.15
775.45	219.05
775.77	219.02
776.09	218.86
776.42	218.69
776.74	218.77
777.07	218.70
777.39	218.59
777.72	218.51
778.04	218.41
778.36	218.35
778.69	218.18
779.01	218.12
779.33	217.93
779.66	217.58
779.98	217.47
780.31	217.33
780.63	217.36
780.95	217.32
781.28	217.26
781.60	217.16
781.92	217.10
782.25	217.06
782.57	217.01
782.89	216.94
783.22	216.94
783.54	216.84
783.86	216.81
784.19	216.80
784.51	216.83
784.83	216.68
785.16	216.58
785.48	216.58
785.80	216.53
786.12	216.52
786.45	216.55
