SpectraSuite Data File
++++++++++++++++++++++++++++++++++++
Date: Mon Feb 25 17:35:20 EST 2013
User: group
Dark Spectrum Present: No
Reference Spectrum Present: No
Number of Sampled Component Spectra: 1
Spectrometers: USB2E7196
Integration Time (usec): 52000 (USB2E7196)
Spectra Averaged: 20 (USB2E7196)
Boxcar Smoothing: 10 (USB2E7196)
Correct for Electrical Dark: No (USB2E7196)
Strobe/Lamp Enabled: No (USB2E7196)
Correct for Detector Non-linearity: No (USB2E7196)
Correct for Stray Light: No (USB2E7196)
Number of Pixels in Processed Spectrum: 2048
>>>>>Begin Processed Spectral Data<<<<<
339.09	0.00
339.48	198.20
339.86	201.10
340.24	201.05
340.63	203.35
341.01	207.00
341.39	205.60
341.78	206.30
342.16	209.40
342.54	208.50
342.93	197.82
343.31	207.80
343.69	208.39
344.07	208.76
344.46	209.23
344.84	209.53
345.22	209.70
345.60	209.97
345.99	210.18
346.37	210.25
346.75	210.34
347.13	210.40
347.52	210.45
347.90	210.56
348.28	210.54
348.66	210.61
349.05	210.59
349.43	210.68
349.81	210.72
350.19	210.77
350.57	210.89
350.96	210.98
351.34	211.09
351.72	211.10
352.10	211.28
352.48	211.30
352.87	211.40
353.25	211.45
353.63	211.53
354.01	211.45
354.39	211.51
354.77	211.61
355.15	211.73
355.54	211.85
355.92	211.89
356.30	212.01
356.68	212.22
357.06	212.33
357.44	212.28
357.82	212.31
358.20	212.40
358.58	212.52
358.97	212.55
359.35	212.67
359.73	212.81
360.11	212.85
360.49	212.96
360.87	213.07
361.25	213.19
361.63	213.30
362.01	213.57
362.39	213.64
362.77	213.70
363.15	213.74
363.53	213.80
363.91	213.82
364.29	213.85
364.67	213.68
365.05	213.72
365.43	213.84
365.81	213.94
366.19	214.10
366.57	214.21
366.95	214.25
367.33	214.25
367.71	214.33
368.09	214.39
368.47	214.41
368.85	214.44
369.23	214.41
369.61	214.37
369.99	214.43
370.37	214.44
370.75	214.56
371.13	214.45
371.51	214.47
371.89	214.49
372.27	214.49
372.65	214.50
373.03	214.50
373.41	214.46
373.78	214.37
374.16	214.22
374.54	214.13
374.92	214.12
375.30	214.04
375.68	213.92
376.06	213.86
376.44	213.80
376.82	213.64
377.19	213.64
377.57	213.54
377.95	213.38
378.33	213.30
378.71	213.15
379.09	213.21
379.47	213.14
379.84	213.06
380.22	213.02
380.60	212.95
380.98	212.87
381.36	212.78
381.73	212.73
382.11	212.75
382.49	212.68
382.87	212.62
383.25	212.58
383.62	212.72
384.00	212.66
384.38	212.62
384.76	212.66
385.13	212.71
385.51	212.67
385.89	212.58
386.27	212.54
386.64	212.50
387.02	212.38
387.40	212.35
387.78	212.36
388.15	212.37
388.53	212.30
388.91	212.26
389.29	212.26
389.66	212.30
390.04	212.19
390.42	212.15
390.79	212.14
391.17	212.13
391.55	211.92
391.92	211.87
392.30	211.85
392.68	211.83
393.05	211.76
393.43	211.74
393.81	211.77
394.18	211.72
394.56	211.70
394.94	211.69
395.31	211.62
395.69	211.60
396.06	211.53
396.44	211.59
396.82	211.63
397.19	211.66
397.57	211.68
397.95	211.70
398.32	211.67
398.70	211.68
399.07	211.73
399.45	211.72
399.82	211.77
400.20	211.77
400.58	211.78
400.95	211.75
401.33	211.90
401.70	212.03
402.08	212.16
402.45	212.26
402.83	212.44
403.20	212.60
403.58	212.67
403.95	212.80
404.33	212.90
404.71	212.97
405.08	213.20
405.46	213.22
405.83	213.33
406.21	213.49
406.58	213.60
406.96	213.75
407.33	214.00
407.70	214.22
408.08	214.59
408.45	214.85
408.83	215.12
409.20	215.30
409.58	215.48
409.95	215.71
410.33	215.99
410.70	216.20
411.08	216.50
411.45	216.88
411.82	217.27
412.20	217.66
412.57	218.15
412.95	218.48
413.32	219.03
413.69	219.60
414.07	220.19
414.44	220.81
414.82	221.50
415.19	222.21
415.56	222.88
415.94	223.54
416.31	224.45
416.68	225.31
417.06	226.35
417.43	227.30
417.81	228.42
418.18	229.58
418.55	230.76
418.93	232.06
419.30	233.31
419.67	234.71
420.04	236.19
420.42	237.68
420.79	239.53
421.16	241.30
421.54	243.15
421.91	245.01
422.28	246.95
422.66	249.02
423.03	251.13
423.40	253.29
423.77	255.56
424.15	257.72
424.52	260.12
424.89	262.72
425.26	265.23
425.64	267.61
426.01	270.15
426.38	272.86
426.75	275.68
427.13	278.60
427.50	281.56
427.87	284.67
428.24	287.76
428.61	290.63
428.99	293.91
429.36	297.39
429.73	300.89
430.10	304.46
430.47	307.91
430.85	311.50
431.22	315.46
431.59	319.69
431.96	323.75
432.33	328.17
432.70	332.25
433.08	337.25
433.45	341.94
433.82	346.64
434.19	351.82
434.56	356.74
434.93	361.54
435.30	366.31
435.68	371.67
436.05	377.05
436.42	382.25
436.79	387.02
437.16	392.16
437.53	397.49
437.90	402.90
438.27	408.18
438.64	413.55
439.01	418.49
439.38	422.90
439.75	427.19
440.13	431.95
440.50	436.63
440.87	440.34
441.24	444.15
441.61	448.42
441.98	451.54
442.35	455.24
442.72	458.92
443.09	462.60
443.46	464.56
443.83	465.75
444.20	466.95
444.57	468.72
444.94	469.50
445.31	470.23
445.68	470.87
446.05	471.03
446.42	470.40
446.79	469.54
447.16	468.68
447.53	467.97
447.90	465.97
448.27	463.85
448.64	460.95
449.01	458.96
449.37	455.25
449.74	451.59
450.11	447.36
450.48	442.78
450.85	437.98
451.22	434.04
451.59	430.38
451.96	426.87
452.33	421.99
452.70	417.60
453.07	412.52
453.43	407.26
453.80	402.25
454.17	397.46
454.54	393.00
454.91	388.07
455.28	383.32
455.65	378.73
456.02	374.37
456.38	370.63
456.75	365.80
457.12	361.91
457.49	358.17
457.86	354.43
458.23	351.17
458.59	347.73
458.96	344.20
459.33	340.98
459.70	337.62
460.07	335.11
460.43	332.20
460.80	329.42
461.17	327.01
461.54	324.54
461.91	322.15
462.27	319.76
462.64	317.70
463.01	315.42
463.38	313.40
463.74	311.14
464.11	309.13
464.48	307.54
464.85	305.76
465.21	304.43
465.58	303.03
465.95	301.31
466.32	299.79
466.68	298.36
467.05	296.99
467.42	295.67
467.78	294.14
468.15	292.75
468.52	291.81
468.88	290.50
469.25	289.36
469.62	288.43
469.98	287.43
470.35	286.50
470.72	285.71
471.08	284.74
471.45	283.95
471.82	283.23
472.18	282.36
472.55	281.76
472.92	280.94
473.28	280.30
473.65	279.68
474.02	279.24
474.38	278.82
474.75	278.45
475.11	277.99
475.48	277.75
475.85	277.54
476.21	277.34
476.58	277.15
476.94	277.11
477.31	277.11
477.67	276.99
478.04	277.08
478.41	277.09
478.77	277.36
479.14	277.50
479.50	277.78
479.87	278.20
480.23	278.59
480.60	279.06
480.96	279.45
481.33	280.19
481.69	280.74
482.06	281.38
482.42	282.01
482.79	282.75
483.15	283.60
483.52	284.61
483.88	285.50
484.25	286.45
484.61	287.49
484.98	288.52
485.34	289.90
485.71	291.22
486.07	292.70
486.44	293.95
486.80	295.46
487.17	297.07
487.53	298.75
487.90	300.65
488.26	302.64
488.62	304.73
488.99	306.64
489.35	308.80
489.72	310.96
490.08	313.42
490.44	315.91
490.81	318.56
491.17	321.19
491.54	324.07
491.90	327.10
492.26	330.30
492.63	333.71
492.99	337.19
493.36	340.79
493.72	344.67
494.08	348.73
494.45	353.00
494.81	357.43
495.17	362.06
495.54	366.85
495.90	371.83
496.26	377.02
496.63	382.65
496.99	388.31
497.35	394.41
497.72	400.63
498.08	407.25
498.44	414.03
498.80	421.26
499.17	428.63
499.53	436.38
499.89	444.32
500.26	452.39
500.62	460.56
500.98	469.53
501.34	478.56
501.71	488.11
502.07	497.74
502.43	507.78
502.79	517.99
503.16	528.67
503.52	539.65
503.88	550.91
504.24	562.40
504.60	574.43
504.97	586.77
505.33	599.46
505.69	612.73
506.05	626.16
506.41	639.73
506.78	653.60
507.14	667.83
507.50	682.42
507.86	697.53
508.22	713.21
508.59	728.89
508.95	744.80
509.31	760.99
509.67	777.74
510.03	794.78
510.39	812.57
510.75	830.31
511.12	848.48
511.48	867.13
511.84	885.97
512.20	904.78
512.56	924.24
512.92	943.67
513.28	963.18
513.64	983.04
514.00	1003.02
514.37	1023.67
514.73	1044.60
515.09	1065.66
515.45	1086.57
515.81	1107.65
516.17	1128.83
516.53	1150.38
516.89	1172.23
517.25	1193.96
517.61	1215.85
517.97	1237.28
518.33	1258.95
518.69	1280.86
519.05	1302.94
519.41	1325.06
519.77	1347.71
520.13	1369.59
520.49	1391.86
520.85	1414.67
521.21	1437.60
521.57	1460.92
521.93	1482.73
522.29	1505.50
522.65	1528.12
523.01	1551.01
523.37	1573.56
523.73	1596.22
524.09	1618.62
524.45	1640.96
524.81	1663.44
525.17	1685.95
525.53	1708.64
525.89	1731.36
526.25	1753.63
526.61	1775.22
526.97	1797.25
527.33	1818.69
527.68	1840.65
528.04	1861.99
528.40	1882.71
528.76	1903.44
529.12	1923.94
529.48	1946.35
529.84	1967.05
530.20	1987.44
530.56	2008.06
530.91	2028.88
531.27	2049.49
531.63	2069.55
531.99	2089.68
532.35	2109.32
532.71	2128.49
533.07	2148.19
533.42	2167.06
533.78	2186.30
534.14	2204.99
534.50	2222.41
534.86	2240.82
535.21	2257.81
535.57	2275.92
535.93	2293.29
536.29	2310.22
536.65	2327.45
537.00	2342.49
537.36	2358.02
537.72	2373.55
538.08	2388.97
538.44	2404.28
538.79	2419.66
539.15	2435.06
539.51	2449.81
539.87	2465.36
540.22	2479.99
540.58	2494.98
540.94	2509.54
541.29	2522.32
541.65	2534.92
542.01	2548.44
542.37	2560.33
542.72	2573.16
543.08	2584.38
543.44	2596.65
543.79	2607.41
544.15	2617.68
544.51	2629.52
544.87	2640.93
545.22	2650.58
545.58	2659.24
545.94	2666.65
546.29	2673.18
546.65	2679.81
547.01	2686.13
547.36	2691.77
547.72	2697.45
548.07	2701.46
548.43	2705.33
548.79	2709.45
549.14	2714.11
549.50	2718.55
549.86	2723.03
550.21	2726.91
550.57	2731.33
550.92	2733.93
551.28	2736.80
551.64	2739.41
551.99	2742.04
552.35	2743.62
552.70	2746.57
553.06	2749.46
553.41	2752.51
553.77	2755.95
554.13	2758.31
554.48	2760.58
554.84	2762.37
555.19	2763.20
555.55	2764.18
555.90	2764.89
556.26	2765.45
556.61	2765.60
556.97	2764.46
557.32	2764.16
557.68	2762.72
558.03	2761.21
558.39	2759.89
558.74	2759.59
559.10	2758.58
559.45	2756.36
559.81	2755.06
560.16	2752.26
560.52	2750.08
560.87	2747.73
561.23	2743.99
561.58	2741.64
561.94	2738.44
562.29	2734.85
562.64	2732.71
563.00	2730.07
563.35	2728.17
563.71	2726.66
564.06	2724.77
564.42	2723.06
564.77	2720.69
565.12	2718.58
565.48	2715.21
565.83	2712.27
566.19	2708.93
566.54	2704.53
566.89	2700.65
567.25	2697.03
567.60	2693.88
567.96	2690.05
568.31	2686.45
568.66	2682.76
569.02	2678.06
569.37	2673.12
569.72	2668.89
570.08	2663.41
570.43	2658.00
570.78	2651.98
571.14	2645.50
571.49	2638.30
571.84	2632.30
572.20	2625.03
572.55	2618.53
572.90	2611.64
573.26	2604.53
573.61	2597.35
573.96	2590.90
574.31	2583.30
574.67	2575.08
575.02	2566.58
575.37	2558.10
575.72	2549.28
576.08	2541.41
576.43	2532.81
576.78	2525.12
577.13	2517.13
577.49	2508.94
577.84	2500.86
578.19	2493.10
578.54	2485.76
578.90	2479.15
579.25	2470.40
579.60	2461.17
579.95	2451.99
580.30	2444.23
580.66	2435.89
581.01	2426.37
581.36	2416.96
581.71	2408.40
582.06	2399.96
582.42	2391.55
582.77	2381.97
583.12	2372.50
583.47	2363.73
583.82	2355.15
584.17	2345.48
584.53	2336.25
584.88	2327.30
585.23	2318.09
585.58	2308.42
585.93	2298.25
586.28	2288.75
586.63	2279.65
586.98	2271.43
587.34	2262.82
587.69	2253.60
588.04	2244.55
588.39	2236.53
588.74	2227.56
589.09	2218.80
589.44	2209.24
589.79	2200.53
590.14	2192.84
590.49	2184.24
590.84	2175.03
591.19	2166.64
591.54	2157.85
591.89	2147.64
592.25	2138.42
592.60	2129.05
592.95	2119.59
593.30	2110.10
593.65	2100.20
594.00	2090.73
594.35	2082.04
594.70	2072.72
595.05	2063.87
595.40	2054.88
595.75	2045.08
596.10	2036.90
596.45	2028.19
596.80	2020.11
597.15	2011.72
597.50	2002.44
597.85	1993.74
598.19	1984.88
598.54	1976.21
598.89	1968.58
599.24	1961.90
599.59	1954.47
599.94	1947.26
600.29	1939.49
600.64	1931.63
600.99	1923.06
601.34	1915.62
601.69	1906.78
602.04	1898.65
602.39	1890.30
602.74	1882.14
603.08	1875.52
603.43	1867.93
603.78	1859.68
604.13	1851.63
604.48	1843.53
604.83	1836.56
605.18	1829.83
605.53	1822.14
605.87	1814.67
606.22	1807.20
606.57	1799.25
606.92	1791.05
607.27	1782.63
607.62	1775.21
607.96	1768.32
608.31	1762.12
608.66	1754.02
609.01	1746.70
609.36	1738.79
609.70	1730.80
610.05	1723.05
610.40	1714.50
610.75	1705.89
611.10	1698.26
611.44	1688.79
611.79	1679.55
612.14	1669.83
612.49	1660.27
612.83	1651.45
613.18	1641.34
613.53	1631.71
613.88	1621.79
614.22	1612.78
614.57	1603.55
614.92	1594.09
615.27	1584.60
615.61	1574.54
615.96	1565.45
616.31	1556.54
616.65	1548.56
617.00	1540.06
617.35	1531.30
617.70	1522.36
618.04	1513.36
618.39	1504.05
618.74	1495.54
619.08	1486.91
619.43	1478.82
619.78	1470.55
620.12	1462.38
620.47	1454.76
620.82	1446.25
621.16	1437.97
621.51	1429.36
621.85	1420.92
622.20	1412.09
622.55	1403.49
622.89	1395.37
623.24	1387.40
623.59	1378.58
623.93	1369.69
624.28	1361.36
624.62	1353.16
624.97	1344.65
625.32	1336.73
625.66	1328.95
626.01	1321.76
626.35	1314.36
626.70	1306.52
627.04	1299.30
627.39	1291.72
627.73	1283.98
628.08	1276.96
628.43	1269.42
628.77	1261.90
629.12	1254.64
629.46	1248.09
629.81	1240.88
630.15	1233.23
630.50	1225.73
630.84	1218.70
631.19	1211.42
631.53	1204.45
631.88	1196.75
632.22	1189.36
632.57	1182.45
632.91	1175.02
633.26	1167.54
633.60	1160.38
633.95	1153.28
634.29	1145.63
634.64	1138.76
634.98	1131.44
635.32	1124.28
635.67	1117.73
636.01	1111.13
636.36	1104.04
636.70	1097.19
637.05	1090.48
637.39	1084.23
637.73	1077.87
638.08	1071.95
638.42	1066.30
638.77	1059.73
639.11	1053.39
639.45	1047.37
639.80	1040.66
640.14	1034.17
640.49	1027.69
640.83	1021.33
641.17	1014.81
641.52	1008.60
641.86	1001.92
642.20	995.77
642.55	988.89
642.89	982.26
643.23	975.90
643.58	970.03
643.92	963.54
644.26	957.32
644.61	951.15
644.95	944.85
645.29	938.37
645.64	931.51
645.98	925.16
646.32	919.20
646.66	912.77
647.01	906.83
647.35	900.95
647.69	894.75
648.04	888.93
648.38	883.13
648.72	877.13
649.06	871.03
649.41	864.93
649.75	859.26
650.09	853.48
650.43	847.33
650.78	841.17
651.12	834.99
651.46	829.05
651.80	823.01
652.14	817.11
652.49	811.09
652.83	805.24
653.17	799.05
653.51	793.21
653.85	787.64
654.20	781.68
654.54	775.67
654.88	770.08
655.22	763.94
655.56	758.05
655.90	752.23
656.25	746.60
656.59	741.18
656.93	735.94
657.27	730.78
657.61	725.43
657.95	720.13
658.29	715.12
658.64	709.84
658.98	704.59
659.32	699.07
659.66	694.01
660.00	688.65
660.34	683.49
660.68	678.38
661.02	673.25
661.36	668.51
661.70	663.83
662.05	659.08
662.39	654.73
662.73	650.30
663.07	645.80
663.41	641.45
663.75	636.83
664.09	632.03
664.43	627.02
664.77	622.61
665.11	618.04
665.45	613.59
665.79	609.20
666.13	604.76
666.47	600.54
666.81	596.38
667.15	592.23
667.49	588.53
667.83	584.46
668.17	580.57
668.51	576.58
668.85	572.67
669.19	568.92
669.53	564.78
669.87	560.76
670.21	556.89
670.55	552.80
670.89	549.31
671.23	545.92
671.57	542.60
671.91	538.91
672.25	535.43
672.58	531.66
672.92	528.35
673.26	525.15
673.60	521.95
673.94	518.46
674.28	515.36
674.62	511.91
674.96	508.71
675.30	505.52
675.64	502.25
675.97	499.18
676.31	496.16
676.65	493.34
676.99	490.56
677.33	487.59
677.67	484.73
678.01	481.58
678.34	478.53
678.68	475.52
679.02	472.49
679.36	469.76
679.70	467.21
680.04	464.20
680.37	461.22
680.71	458.35
681.05	455.70
681.39	452.87
681.73	450.29
682.06	447.90
682.40	445.34
682.74	442.78
683.08	440.12
683.42	437.36
683.75	434.81
684.09	432.15
684.43	429.62
684.77	427.12
685.10	424.54
685.44	421.94
685.78	419.52
686.12	417.41
686.45	414.97
686.79	412.61
687.13	410.40
687.46	408.17
687.80	405.95
688.14	403.58
688.48	401.41
688.81	399.18
689.15	396.86
689.49	394.56
689.82	392.32
690.16	389.99
690.50	387.76
690.83	385.48
691.17	383.20
691.51	381.02
691.84	378.90
692.18	376.95
692.52	375.13
692.85	373.11
693.19	371.09
693.52	369.06
693.86	366.95
694.20	365.23
694.53	363.28
694.87	361.32
695.21	359.47
695.54	357.47
695.88	355.51
696.21	353.62
696.55	351.88
696.88	350.07
697.22	348.26
697.56	346.68
697.89	345.06
698.23	343.36
698.56	341.81
698.90	340.27
699.23	338.65
699.57	336.84
699.90	335.28
700.24	333.55
700.58	331.97
700.91	330.63
701.25	329.07
701.58	327.66
701.92	326.20
702.25	324.76
702.59	323.36
702.92	322.02
703.26	320.67
703.59	319.42
703.93	318.24
704.26	317.04
704.60	315.73
704.93	314.37
705.26	313.22
705.60	312.02
705.93	310.68
706.27	309.48
706.60	308.38
706.94	307.16
707.27	306.09
707.61	304.99
707.94	303.67
708.27	302.38
708.61	301.23
708.94	300.11
709.28	298.89
709.61	297.83
709.94	296.83
710.28	295.74
710.61	294.64
710.95	293.51
711.28	292.55
711.61	291.42
711.95	290.45
712.28	289.39
712.61	288.33
712.95	287.47
713.28	286.52
713.61	285.58
713.95	284.69
714.28	283.76
714.61	282.80
714.95	281.89
715.28	280.88
715.61	279.90
715.95	279.02
716.28	278.25
716.61	277.46
716.95	276.58
717.28	275.74
717.61	274.83
717.94	274.00
718.28	273.14
718.61	272.42
718.94	271.60
719.27	270.85
719.61	270.06
719.94	269.27
720.27	268.45
720.60	267.70
720.94	266.94
721.27	266.22
721.60	265.55
721.93	264.96
722.27	264.42
722.60	263.83
722.93	263.15
723.26	262.58
723.59	261.87
723.93	261.22
724.26	260.64
724.59	260.06
724.92	259.52
725.25	258.97
725.59	258.32
725.92	257.91
726.25	257.42
726.58	256.97
726.91	256.43
727.24	255.99
727.57	255.49
727.91	255.01
728.24	254.55
728.57	254.03
728.90	253.57
729.23	253.07
729.56	252.62
729.89	252.19
730.22	251.67
730.55	251.29
730.89	250.86
731.22	250.36
731.55	249.90
731.88	249.46
732.21	248.99
732.54	248.68
732.87	248.18
733.20	247.73
733.53	247.28
733.86	246.86
734.19	246.34
734.52	245.95
734.85	245.65
735.18	245.27
735.51	244.94
735.84	244.49
736.17	244.09
736.50	243.70
736.83	243.53
737.16	243.14
737.49	242.74
737.82	242.35
738.15	242.00
738.48	241.68
738.81	241.33
739.14	241.00
739.47	240.59
739.80	240.25
740.13	239.85
740.46	239.53
740.79	239.15
741.12	238.86
741.45	238.57
741.78	238.15
742.11	237.81
742.44	237.50
742.77	237.25
743.10	236.95
743.43	236.59
743.75	236.05
744.08	236.04
744.41	235.63
744.74	235.38
745.07	235.06
745.40	234.84
745.73	234.61
746.06	234.31
746.39	234.08
746.71	233.74
747.04	233.51
747.37	233.18
747.70	232.99
748.03	232.75
748.36	232.47
748.68	232.22
749.01	231.90
749.34	231.66
749.67	231.43
750.00	231.24
750.33	231.15
750.65	230.93
750.98	230.44
751.31	230.32
751.64	229.99
751.97	229.86
752.29	229.64
752.62	229.31
752.95	229.09
753.28	228.88
753.60	228.76
753.93	228.58
754.26	228.35
754.59	228.12
754.91	227.90
755.24	227.66
755.57	227.42
755.90	227.26
756.22	226.97
756.55	226.77
756.88	226.49
757.20	226.18
757.53	226.02
757.86	225.86
758.19	225.64
758.51	225.54
758.84	225.21
759.17	224.95
759.49	224.79
759.82	224.66
760.15	224.41
760.47	224.15
760.80	223.90
761.13	223.79
761.45	223.58
761.78	223.41
762.11	223.25
762.43	223.09
762.76	222.86
763.08	222.78
763.41	222.67
763.74	222.56
764.06	222.41
764.39	222.20
764.71	222.07
765.04	221.93
765.37	221.82
765.69	221.74
766.02	221.66
766.34	221.50
766.67	221.32
767.00	221.24
767.32	221.24
767.65	221.32
767.97	221.21
768.30	221.10
768.62	221.02
768.95	220.87
769.27	220.80
769.60	220.75
769.92	220.64
770.25	220.46
770.57	220.31
770.90	220.20
771.22	220.08
771.55	219.94
771.87	219.77
772.20	219.65
772.52	219.74
772.85	219.85
773.17	219.76
773.50	219.70
773.82	219.58
774.15	219.35
774.47	219.14
774.80	219.00
775.12	218.90
775.45	218.82
775.77	218.73
776.09	218.62
776.42	218.58
776.74	218.52
777.07	218.44
777.39	218.37
777.72	218.27
778.04	218.28
778.36	218.17
778.69	218.19
779.01	218.04
779.33	217.81
779.66	217.50
779.98	217.40
780.31	217.32
780.63	217.40
780.95	217.37
781.28	217.20
781.60	217.20
781.92	217.18
782.25	217.11
782.57	217.09
782.89	216.98
783.22	216.88
783.54	216.73
783.86	216.69
784.19	216.71
784.51	216.68
784.83	216.58
785.16	216.56
785.48	216.48
785.80	216.48
786.12	216.42
786.45	216.38
