SpectraSuite Data File
++++++++++++++++++++++++++++++++++++
Date: Mon Feb 25 17:35:57 EST 2013
User: group
Dark Spectrum Present: No
Reference Spectrum Present: No
Number of Sampled Component Spectra: 1
Spectrometers: USB2E7196
Integration Time (usec): 52000 (USB2E7196)
Spectra Averaged: 20 (USB2E7196)
Boxcar Smoothing: 10 (USB2E7196)
Correct for Electrical Dark: No (USB2E7196)
Strobe/Lamp Enabled: No (USB2E7196)
Correct for Detector Non-linearity: No (USB2E7196)
Correct for Stray Light: No (USB2E7196)
Number of Pixels in Processed Spectrum: 2048
>>>>>Begin Processed Spectral Data<<<<<
339.09	0.00
339.48	198.50
339.86	199.90
340.24	201.40
340.63	202.15
341.01	206.65
341.39	206.35
341.78	207.70
342.16	207.85
342.54	209.35
342.93	197.98
343.31	208.02
343.69	208.52
344.07	209.02
344.46	209.54
344.84	210.16
345.22	210.47
345.60	210.78
345.99	211.05
346.37	211.37
346.75	211.55
347.13	211.76
347.52	211.91
347.90	212.10
348.28	212.23
348.66	212.44
349.05	212.57
349.43	212.72
349.81	212.97
350.19	213.19
350.57	213.40
350.96	213.57
351.34	213.79
351.72	214.08
352.10	214.33
352.48	214.46
352.87	214.46
353.25	214.55
353.63	214.64
354.01	214.78
354.39	214.81
354.77	214.94
355.15	215.05
355.54	215.07
355.92	215.05
356.30	215.17
356.68	215.33
357.06	215.43
357.44	215.49
357.82	215.60
358.20	215.69
358.58	215.82
358.97	215.96
359.35	216.06
359.73	216.21
360.11	216.21
360.49	216.30
360.87	216.38
361.25	216.57
361.63	216.76
362.01	216.78
362.39	216.85
362.77	216.90
363.15	216.93
363.53	217.06
363.91	217.14
364.29	217.20
364.67	217.08
365.05	217.12
365.43	217.21
365.81	217.21
366.19	217.26
366.57	217.38
366.95	217.39
367.33	217.38
367.71	217.30
368.09	217.35
368.47	217.30
368.85	217.28
369.23	217.26
369.61	217.17
369.99	217.20
370.37	217.21
370.75	217.32
371.13	217.37
371.51	217.29
371.89	217.24
372.27	217.19
372.65	217.14
373.03	217.13
373.41	217.10
373.78	217.08
374.16	216.97
374.54	216.78
374.92	216.81
375.30	216.76
375.68	216.75
376.06	216.80
376.44	216.85
376.82	216.80
377.19	216.75
377.57	216.69
377.95	216.64
378.33	216.57
378.71	216.38
379.09	216.32
379.47	216.34
379.84	216.26
380.22	216.25
380.60	216.24
380.98	216.17
381.36	216.05
381.73	215.96
382.11	216.00
382.49	215.98
382.87	215.80
383.25	215.70
383.62	215.81
384.00	215.70
384.38	215.58
384.76	215.60
385.13	215.59
385.51	215.53
385.89	215.49
386.27	215.50
386.64	215.49
387.02	215.42
387.40	215.35
387.78	215.37
388.15	215.37
388.53	215.39
388.91	215.40
389.29	215.52
389.66	215.56
390.04	215.45
390.42	215.50
390.79	215.56
391.17	215.66
391.55	215.50
391.92	215.50
392.30	215.53
392.68	215.53
393.05	215.54
393.43	215.58
393.81	215.62
394.18	215.57
394.56	215.66
394.94	215.70
395.31	215.75
395.69	215.90
396.06	216.05
396.44	216.13
396.82	216.18
397.19	216.35
397.57	216.43
397.95	216.64
398.32	216.77
398.70	216.94
399.07	217.09
399.45	217.33
399.82	217.58
400.20	217.80
400.58	218.14
400.95	218.33
401.33	218.71
401.70	219.15
402.08	219.57
402.45	219.98
402.83	220.54
403.20	221.02
403.58	221.53
403.95	222.10
404.33	222.71
404.71	223.41
405.08	224.12
405.46	224.81
405.83	225.67
406.21	226.42
406.58	227.44
406.96	228.46
407.33	229.53
407.70	230.74
408.08	232.17
408.45	233.59
408.83	235.17
409.20	236.63
409.58	238.31
409.95	240.18
410.33	242.15
410.70	244.23
411.08	246.48
411.45	248.88
411.82	251.44
412.20	254.23
412.57	257.40
412.95	260.53
413.32	264.06
413.69	267.66
414.07	271.60
414.44	275.95
414.82	280.35
415.19	285.40
415.56	290.58
415.94	296.13
416.31	302.34
416.68	308.49
417.06	315.50
417.43	322.10
417.81	329.83
418.18	337.72
418.55	346.34
418.93	355.36
419.30	364.69
419.67	374.60
420.04	385.13
420.42	396.11
420.79	408.00
421.16	420.66
421.54	433.42
421.91	447.08
422.28	461.19
422.66	476.42
423.03	490.85
423.40	506.31
423.77	522.90
424.15	539.72
424.52	557.63
424.89	576.95
425.26	596.11
425.64	614.17
426.01	634.31
426.38	655.38
426.75	676.47
427.13	698.67
427.50	722.01
427.87	746.20
428.24	770.63
428.61	794.54
428.99	820.02
429.36	848.58
429.73	876.26
430.10	903.80
430.47	932.18
430.85	962.26
431.22	993.76
431.59	1026.67
431.96	1058.93
432.33	1094.41
432.70	1129.09
433.08	1169.36
433.45	1207.50
433.82	1245.56
434.19	1287.37
434.56	1328.90
434.93	1369.43
435.30	1409.54
435.68	1454.09
436.05	1498.63
436.42	1543.25
436.79	1583.82
437.16	1627.67
437.53	1674.31
437.90	1720.66
438.27	1766.12
438.64	1814.24
439.01	1858.21
439.38	1899.00
439.75	1937.69
440.13	1982.04
440.50	2023.81
440.87	2058.84
441.24	2095.56
441.61	2136.03
441.98	2167.35
442.35	2203.21
442.72	2237.98
443.09	2271.93
443.46	2294.75
443.83	2311.14
444.20	2325.82
444.57	2346.14
444.94	2357.85
445.31	2369.46
445.68	2379.54
446.05	2387.41
446.42	2387.07
446.79	2385.94
447.16	2384.25
447.53	2384.05
447.90	2371.59
448.27	2359.34
448.64	2340.10
449.01	2326.81
449.37	2299.78
449.74	2274.16
450.11	2241.64
450.48	2207.96
450.85	2173.60
451.22	2144.16
451.59	2115.53
451.96	2088.72
452.33	2051.23
452.70	2017.53
453.07	1976.97
453.43	1936.41
453.80	1896.09
454.17	1857.13
454.54	1821.23
454.91	1781.36
455.28	1743.02
455.65	1706.91
456.02	1668.52
456.38	1637.34
456.75	1598.34
457.12	1566.50
457.49	1534.67
457.86	1504.83
458.23	1477.61
458.59	1447.97
458.96	1417.76
459.33	1391.54
459.70	1364.62
460.07	1343.26
460.43	1318.65
460.80	1294.90
461.17	1274.31
461.54	1252.63
461.91	1232.25
462.27	1211.49
462.64	1193.96
463.01	1174.19
463.38	1154.64
463.74	1137.50
464.11	1121.25
464.48	1106.67
464.85	1090.57
465.21	1077.68
465.58	1064.34
465.95	1048.90
466.32	1035.88
466.68	1022.75
467.05	1009.59
467.42	996.36
467.78	982.85
468.15	970.08
468.52	960.57
468.88	948.69
469.25	937.91
469.62	928.87
469.98	919.12
470.35	910.27
470.72	901.87
471.08	893.23
471.45	885.25
471.82	876.70
472.18	868.26
472.55	862.01
472.92	854.96
473.28	848.57
473.65	842.65
474.02	836.57
474.38	831.35
474.75	826.87
475.11	822.40
475.48	818.88
475.85	815.85
476.21	812.74
476.58	809.86
476.94	807.76
477.31	805.46
477.67	803.20
478.04	801.40
478.41	800.39
478.77	799.32
479.14	798.38
479.50	798.27
479.87	798.79
480.23	799.38
480.60	799.55
480.96	799.97
481.33	801.45
481.69	803.18
482.06	804.52
482.42	805.34
482.79	806.99
483.15	809.79
483.52	813.19
483.88	816.42
484.25	819.84
484.61	823.47
484.98	827.32
485.34	831.83
485.71	836.85
486.07	842.30
486.44	848.06
486.80	854.08
487.17	860.60
487.53	867.53
487.90	875.26
488.26	883.20
488.62	891.78
488.99	900.25
489.35	908.89
489.72	918.57
490.08	929.52
490.44	940.36
490.81	951.05
491.17	961.55
491.54	973.33
491.90	985.17
492.26	997.71
492.63	1010.88
492.99	1024.72
493.36	1038.73
493.72	1053.11
494.08	1067.88
494.45	1084.00
494.81	1100.72
495.17	1117.59
495.54	1134.56
495.90	1152.59
496.26	1170.53
496.63	1189.14
496.99	1208.26
497.35	1228.01
497.72	1247.63
498.08	1267.65
498.44	1288.09
498.80	1309.85
499.17	1331.67
499.53	1353.86
499.89	1376.71
500.26	1399.31
500.62	1421.74
500.98	1445.40
501.34	1469.05
501.71	1493.70
502.07	1518.31
502.43	1542.84
502.79	1567.49
503.16	1592.25
503.52	1617.12
503.88	1641.81
504.24	1667.17
504.60	1692.90
504.97	1719.10
505.33	1745.26
505.69	1772.56
506.05	1799.58
506.41	1825.85
506.78	1852.20
507.14	1878.42
507.50	1905.23
507.86	1932.39
508.22	1959.65
508.59	1986.11
508.95	2013.43
509.31	2039.83
509.67	2066.65
510.03	2093.78
510.39	2121.45
510.75	2148.67
511.12	2175.11
511.48	2201.91
511.84	2228.08
512.20	2254.06
512.56	2280.39
512.92	2306.46
513.28	2331.95
513.64	2357.74
514.00	2382.94
514.37	2407.97
514.73	2433.52
515.09	2457.50
515.45	2481.27
515.81	2505.18
516.17	2529.15
516.53	2551.78
516.89	2574.95
517.25	2596.51
517.61	2617.72
517.97	2638.22
518.33	2657.97
518.69	2678.59
519.05	2699.30
519.41	2719.94
519.77	2740.43
520.13	2759.29
520.49	2778.09
520.85	2796.56
521.21	2814.39
521.57	2833.61
521.93	2851.00
522.29	2869.13
522.65	2887.03
523.01	2905.03
523.37	2921.10
523.73	2937.10
524.09	2952.72
524.45	2967.61
524.81	2983.03
525.17	2998.57
525.53	3013.89
525.89	3030.11
526.25	3045.35
526.61	3058.86
526.97	3072.96
527.33	3086.62
527.68	3100.94
528.04	3115.02
528.40	3128.05
528.76	3140.61
529.12	3152.89
529.48	3166.06
529.84	3176.67
530.20	3188.77
530.56	3199.94
530.91	3212.86
531.27	3224.91
531.63	3237.43
531.99	3248.92
532.35	3259.26
532.71	3270.01
533.07	3282.10
533.42	3292.89
533.78	3304.17
534.14	3314.73
534.50	3324.00
534.86	3333.57
535.21	3341.20
535.57	3350.33
535.93	3358.20
536.29	3366.20
536.65	3374.59
537.00	3382.25
537.36	3390.37
537.72	3397.20
538.08	3404.55
538.44	3411.53
538.79	3418.46
539.15	3424.86
539.51	3432.36
539.87	3440.85
540.22	3447.18
540.58	3453.82
540.94	3460.66
541.29	3464.85
541.65	3468.14
542.01	3473.14
542.37	3477.90
542.72	3483.34
543.08	3486.98
543.44	3492.42
543.79	3496.61
544.15	3499.80
544.51	3504.34
544.87	3509.02
545.22	3512.21
545.58	3514.59
545.94	3516.41
546.29	3517.94
546.65	3519.30
547.01	3520.20
547.36	3521.21
547.72	3522.26
548.07	3520.92
548.43	3519.83
548.79	3519.66
549.14	3522.36
549.50	3523.45
549.86	3524.43
550.21	3524.46
550.57	3525.69
550.92	3525.83
551.28	3525.54
551.64	3524.46
551.99	3523.18
552.35	3522.67
552.70	3522.53
553.06	3522.29
553.41	3522.30
553.77	3522.39
554.13	3522.92
554.48	3524.72
554.84	3524.86
555.19	3524.95
555.55	3526.01
555.90	3526.19
556.26	3526.82
556.61	3525.68
556.97	3523.14
557.32	3520.05
557.68	3517.24
558.03	3513.77
558.39	3510.70
558.74	3510.12
559.10	3509.73
559.45	3508.61
559.81	3506.96
560.16	3504.69
560.52	3503.40
560.87	3501.48
561.23	3498.05
561.58	3494.88
561.94	3490.16
562.29	3485.74
562.64	3482.13
563.00	3477.72
563.35	3473.75
563.71	3470.85
564.06	3468.04
564.42	3466.20
564.77	3464.64
565.12	3462.82
565.48	3460.80
565.83	3458.55
566.19	3456.06
566.54	3453.35
566.89	3449.79
567.25	3446.05
567.60	3443.47
567.96	3439.10
568.31	3434.97
568.66	3432.41
569.02	3428.95
569.37	3425.10
569.72	3421.79
570.08	3417.78
570.43	3413.27
570.78	3409.74
571.14	3404.98
571.49	3400.84
571.84	3397.24
572.20	3391.98
572.55	3388.66
572.90	3383.47
573.26	3377.90
573.61	3370.74
573.96	3362.86
574.31	3356.00
574.67	3349.72
575.02	3342.02
575.37	3334.89
575.72	3327.12
576.08	3319.45
576.43	3311.87
576.78	3304.48
577.13	3297.19
577.49	3290.24
577.84	3283.02
578.19	3274.63
578.54	3266.20
578.90	3258.44
579.25	3248.25
579.60	3238.40
579.95	3228.06
580.30	3219.60
580.66	3211.28
581.01	3202.58
581.36	3193.11
581.71	3183.69
582.06	3174.55
582.42	3166.54
582.77	3157.55
583.12	3148.90
583.47	3138.94
583.82	3128.84
584.17	3118.30
584.53	3108.39
584.88	3097.75
585.23	3087.91
585.58	3078.79
585.93	3069.09
586.28	3059.15
586.63	3050.58
586.98	3041.70
587.34	3032.95
587.69	3022.23
588.04	3012.48
588.39	3003.40
588.74	2993.11
589.09	2983.37
589.44	2971.34
589.79	2959.85
590.14	2949.55
590.49	2937.82
590.84	2928.11
591.19	2919.12
591.54	2909.02
591.89	2897.60
592.25	2887.30
592.60	2875.42
592.95	2862.83
593.30	2851.08
593.65	2839.48
594.00	2827.70
594.35	2817.17
594.70	2805.06
595.05	2794.17
595.40	2781.78
595.75	2768.74
596.10	2757.99
596.45	2746.42
596.80	2736.64
597.15	2726.52
597.50	2715.51
597.85	2706.01
598.19	2693.91
598.54	2681.82
598.89	2671.17
599.24	2660.90
599.59	2649.31
599.94	2639.02
600.29	2627.72
600.64	2616.56
600.99	2604.25
601.34	2593.48
601.69	2581.41
602.04	2569.95
602.39	2558.79
602.74	2548.64
603.08	2539.35
603.43	2529.95
603.78	2519.75
604.13	2508.45
604.48	2496.42
604.83	2486.24
605.18	2475.16
605.53	2464.30
605.87	2452.70
606.22	2441.45
606.57	2429.65
606.92	2418.00
607.27	2406.19
607.62	2396.20
607.96	2386.15
608.31	2377.05
608.66	2365.62
609.01	2354.77
609.36	2343.22
609.70	2331.18
610.05	2318.40
610.40	2305.86
610.75	2292.60
611.10	2279.75
611.44	2266.81
611.79	2254.99
612.14	2241.50
612.49	2228.01
612.83	2215.55
613.18	2202.88
613.53	2190.15
613.88	2176.82
614.22	2164.30
614.57	2151.57
614.92	2138.30
615.27	2124.81
615.61	2109.77
615.96	2095.57
616.31	2082.40
616.65	2070.38
617.00	2058.53
617.35	2046.79
617.70	2034.42
618.04	2022.56
618.39	2010.94
618.74	1999.32
619.08	1985.53
619.43	1972.21
619.78	1960.49
620.12	1949.39
620.47	1938.20
620.82	1925.68
621.16	1914.45
621.51	1902.60
621.85	1890.79
622.20	1878.55
622.55	1866.12
622.89	1854.94
623.24	1844.26
623.59	1832.64
623.93	1820.97
624.28	1809.52
624.62	1798.10
624.97	1786.29
625.32	1774.63
625.66	1762.91
626.01	1751.86
626.35	1742.58
626.70	1732.99
627.04	1722.15
627.39	1710.57
627.73	1699.50
628.08	1689.94
628.43	1679.73
628.77	1670.00
629.12	1660.12
629.46	1650.34
629.81	1640.64
630.15	1630.16
630.50	1619.72
630.84	1609.23
631.19	1598.03
631.53	1587.09
631.88	1575.97
632.22	1565.56
632.57	1555.97
632.91	1545.97
633.26	1535.81
633.60	1524.97
633.95	1514.89
634.29	1505.17
634.64	1495.87
634.98	1485.90
635.32	1476.25
635.67	1466.69
636.01	1457.08
636.36	1447.60
636.70	1438.30
637.05	1429.29
637.39	1420.87
637.73	1411.93
638.08	1403.74
638.42	1396.34
638.77	1388.54
639.11	1380.48
639.45	1372.42
639.80	1363.44
640.14	1354.71
640.49	1345.62
640.83	1336.68
641.17	1327.89
641.52	1319.27
641.86	1310.18
642.20	1301.49
642.55	1292.05
642.89	1282.77
643.23	1273.38
643.58	1264.30
643.92	1255.01
644.26	1245.80
644.61	1236.56
644.95	1227.66
645.29	1218.77
645.64	1209.04
645.98	1200.19
646.32	1191.53
646.66	1182.66
647.01	1173.76
647.35	1165.01
647.69	1156.17
648.04	1147.89
648.38	1139.33
648.72	1130.96
649.06	1122.60
649.41	1113.98
649.75	1105.37
650.09	1097.49
650.43	1089.85
650.78	1082.03
651.12	1074.09
651.46	1066.19
651.80	1058.53
652.14	1051.08
652.49	1043.07
652.83	1035.20
653.17	1026.23
653.51	1018.12
653.85	1010.54
654.20	1003.36
654.54	995.90
654.88	988.89
655.22	981.71
655.56	973.91
655.90	965.90
656.25	958.40
656.59	951.42
656.93	944.35
657.27	937.27
657.61	929.96
657.95	922.91
658.29	916.07
658.64	909.17
658.98	902.25
659.32	894.88
659.66	888.19
660.00	881.58
660.34	875.74
660.68	869.19
661.02	862.01
661.36	855.35
661.70	849.03
662.05	842.75
662.39	836.58
662.73	831.01
663.07	825.55
663.41	820.14
663.75	814.68
664.09	809.02
664.43	802.75
664.77	796.86
665.11	790.94
665.45	785.39
665.79	779.84
666.13	774.43
666.47	769.54
666.81	764.33
667.15	759.14
667.49	753.95
667.83	749.00
668.17	744.37
668.51	739.57
668.85	734.27
669.19	729.13
669.53	723.92
669.87	718.49
670.21	713.26
670.55	707.70
670.89	702.53
671.23	697.83
671.57	693.04
671.91	688.33
672.25	683.70
672.58	678.90
672.92	674.23
673.26	669.69
673.60	665.00
673.94	660.56
674.28	656.40
674.62	651.83
674.96	647.38
675.30	643.13
675.64	638.85
675.97	635.23
676.31	631.60
676.65	627.89
676.99	624.64
677.33	620.98
677.67	617.40
678.01	613.40
678.34	609.34
678.68	605.59
679.02	601.75
679.36	597.92
679.70	594.05
680.04	590.22
680.37	586.39
680.71	582.61
681.05	578.98
681.39	575.28
681.73	571.80
682.06	568.34
682.40	564.70
682.74	561.14
683.08	557.40
683.42	553.56
683.75	549.76
684.09	545.79
684.43	542.21
684.77	538.72
685.10	535.11
685.44	531.71
685.78	528.28
686.12	524.84
686.45	521.64
686.79	518.64
687.13	515.76
687.46	512.71
687.80	509.73
688.14	506.47
688.48	503.38
688.81	500.11
689.15	496.97
689.49	493.92
689.82	490.73
690.16	487.59
690.50	484.52
690.83	481.73
691.17	478.72
691.51	475.56
691.84	472.72
692.18	470.20
692.52	467.50
692.85	464.90
693.19	462.29
693.52	459.51
693.86	456.60
694.20	453.86
694.53	451.05
694.87	448.09
695.21	445.21
695.54	442.42
695.88	439.82
696.21	437.21
696.55	434.67
696.88	432.15
697.22	429.80
697.56	427.39
697.89	424.89
698.23	422.69
698.56	420.46
698.90	418.06
699.23	415.57
699.57	413.34
699.90	411.03
700.24	408.76
700.58	406.48
700.91	404.33
701.25	402.06
701.58	399.93
701.92	398.02
702.25	396.27
702.59	394.37
702.92	392.46
703.26	390.61
703.59	388.85
703.93	387.12
704.26	385.16
704.60	383.29
704.93	381.28
705.26	379.28
705.60	377.51
705.93	375.81
706.27	374.19
706.60	372.46
706.94	370.79
707.27	369.09
707.61	367.37
707.94	365.80
708.27	363.99
708.61	362.31
708.94	360.56
709.28	358.84
709.61	357.10
709.94	355.39
710.28	353.58
710.61	351.80
710.95	350.04
711.28	348.44
711.61	346.86
711.95	345.47
712.28	344.06
712.61	342.65
712.95	341.23
713.28	339.78
713.61	338.35
713.95	336.88
714.28	335.39
714.61	334.06
714.95	332.67
715.28	331.39
715.61	329.84
715.95	328.40
716.28	327.00
716.61	325.60
716.95	324.29
717.28	323.02
717.61	321.72
717.94	320.50
718.28	319.19
718.61	318.04
718.94	316.82
719.27	315.57
719.61	314.24
719.94	312.99
720.27	311.67
720.60	310.52
720.94	309.41
721.27	308.49
721.60	307.52
721.93	306.42
722.27	305.45
722.60	304.65
722.93	303.74
723.26	302.86
723.59	301.94
723.93	301.11
724.26	300.25
724.59	299.39
724.92	298.53
725.25	297.75
725.59	296.93
725.92	296.11
726.25	295.30
726.58	294.55
726.91	293.69
727.24	292.90
727.57	292.03
727.91	291.10
728.24	290.24
728.57	289.37
728.90	288.62
729.23	287.79
729.56	287.04
729.89	286.28
730.22	285.40
730.55	284.66
730.89	283.86
731.22	283.06
731.55	282.31
731.88	281.51
732.21	280.79
732.54	280.04
732.87	279.33
733.20	278.61
733.53	277.87
733.86	277.21
734.19	276.57
734.52	275.93
734.85	275.48
735.18	274.77
735.51	274.25
735.84	273.55
736.17	272.91
736.50	272.25
736.83	271.85
737.16	271.33
737.49	270.70
737.82	270.04
738.15	269.40
738.48	268.75
738.81	268.15
739.14	267.49
739.47	266.80
739.80	266.17
740.13	265.55
740.46	264.96
740.79	264.36
741.12	263.68
741.45	263.10
741.78	262.37
742.11	261.78
742.44	260.98
742.77	260.43
743.10	259.80
743.43	259.14
743.75	258.35
744.08	258.00
744.41	257.44
744.74	256.96
745.07	256.40
745.40	255.96
745.73	255.47
746.06	254.95
746.39	254.48
746.71	254.03
747.04	253.53
747.37	253.06
747.70	252.64
748.03	252.22
748.36	251.85
748.68	251.39
749.01	250.96
749.34	250.58
749.67	250.22
750.00	249.79
750.33	249.55
750.65	249.17
750.98	248.48
751.31	248.04
751.64	247.56
751.97	247.22
752.29	246.85
752.62	246.47
752.95	246.06
753.28	245.66
753.60	245.21
753.93	244.88
754.26	244.45
754.59	243.96
754.91	243.54
755.24	243.03
755.57	242.64
755.90	242.21
756.22	241.86
756.55	241.37
756.88	241.05
757.20	240.63
757.53	240.27
757.86	240.02
758.19	239.77
758.51	239.44
758.84	239.07
759.17	238.62
759.49	238.37
759.82	238.14
760.15	237.87
760.47	237.64
760.80	237.30
761.13	237.04
761.45	236.69
761.78	236.47
762.11	236.20
762.43	235.95
762.76	235.70
763.08	235.43
763.41	235.18
763.74	234.87
764.06	234.53
764.39	234.28
764.71	233.96
765.04	233.62
765.37	233.33
765.69	233.12
766.02	232.91
766.34	232.59
766.67	232.21
767.00	232.01
767.32	231.80
767.65	231.72
767.97	231.51
768.30	231.32
768.62	231.04
768.95	230.77
769.27	230.53
769.60	230.36
769.92	230.06
770.25	229.82
770.57	229.59
770.90	229.39
771.22	229.10
771.55	228.86
771.87	228.75
772.20	228.58
772.52	228.50
772.85	228.49
773.17	228.26
773.50	228.14
773.82	227.91
774.15	227.66
774.47	227.40
774.80	227.22
775.12	227.04
775.45	226.93
775.77	226.80
776.09	226.67
776.42	226.54
776.74	226.45
777.07	226.35
777.39	226.23
777.72	226.06
778.04	225.99
778.36	225.85
778.69	225.63
779.01	225.53
779.33	225.27
779.66	224.96
779.98	224.79
780.31	224.75
780.63	224.72
780.95	224.61
781.28	224.43
781.60	224.20
781.92	224.05
782.25	223.89
