SpectraSuite Data File
++++++++++++++++++++++++++++++++++++
Date: Mon Feb 25 17:34:52 EST 2013
User: group
Dark Spectrum Present: No
Reference Spectrum Present: No
Number of Sampled Component Spectra: 1
Spectrometers: USB2E7196
Integration Time (usec): 52000 (USB2E7196)
Spectra Averaged: 20 (USB2E7196)
Boxcar Smoothing: 10 (USB2E7196)
Correct for Electrical Dark: No (USB2E7196)
Strobe/Lamp Enabled: No (USB2E7196)
Correct for Detector Non-linearity: No (USB2E7196)
Correct for Stray Light: No (USB2E7196)
Number of Pixels in Processed Spectrum: 2048
>>>>>Begin Processed Spectral Data<<<<<
339.09	0.00
339.48	197.65
339.86	202.05
340.24	202.05
340.63	202.85
341.01	207.25
341.39	204.90
341.78	206.95
342.16	208.10
342.54	209.00
342.93	198.02
343.31	208.05
343.69	208.63
344.07	209.00
344.46	209.45
344.84	209.82
345.22	210.02
345.60	210.31
345.99	210.47
346.37	210.56
346.75	210.70
347.13	210.74
347.52	210.73
347.90	210.94
348.28	210.97
348.66	211.03
349.05	211.02
349.43	211.06
349.81	211.08
350.19	211.17
350.57	211.28
350.96	211.40
351.34	211.56
351.72	211.71
352.10	211.79
352.48	211.82
352.87	211.90
353.25	211.97
353.63	212.08
354.01	212.20
354.39	212.33
354.77	212.38
355.15	212.54
355.54	212.63
355.92	212.53
356.30	212.67
356.68	212.80
357.06	212.93
357.44	213.00
357.82	213.14
358.20	213.24
358.58	213.29
358.97	213.35
359.35	213.38
359.73	213.42
360.11	213.50
360.49	213.62
360.87	213.67
361.25	213.72
361.63	213.74
362.01	213.87
362.39	213.88
362.77	213.95
363.15	213.97
363.53	214.02
363.91	214.07
364.29	214.05
364.67	214.02
365.05	214.00
365.43	214.00
365.81	214.03
366.19	214.01
366.57	214.09
366.95	214.06
367.33	213.97
367.71	213.98
368.09	214.01
368.47	214.00
368.85	213.93
369.23	213.98
369.61	213.92
369.99	213.85
370.37	213.88
370.75	213.91
371.13	213.82
371.51	213.75
371.89	213.65
372.27	213.66
372.65	213.60
373.03	213.56
373.41	213.52
373.78	213.41
374.16	213.37
374.54	213.25
374.92	213.24
375.30	213.23
375.68	213.10
376.06	213.07
376.44	212.98
376.82	212.97
377.19	212.89
377.57	212.84
377.95	212.73
378.33	212.65
378.71	212.50
379.09	212.50
379.47	212.55
379.84	212.53
380.22	212.42
380.60	212.33
380.98	212.25
381.36	212.26
381.73	212.21
382.11	212.11
382.49	212.02
382.87	211.89
383.25	211.82
383.62	211.99
384.00	211.95
384.38	211.86
384.76	211.89
385.13	211.97
385.51	211.95
385.89	211.93
386.27	211.90
386.64	211.84
387.02	211.83
387.40	211.75
387.78	211.75
388.15	211.72
388.53	211.59
388.91	211.66
389.29	211.57
389.66	211.65
390.04	211.62
390.42	211.59
390.79	211.58
391.17	211.60
391.55	211.47
391.92	211.40
392.30	211.47
392.68	211.37
393.05	211.24
393.43	211.25
393.81	211.29
394.18	211.22
394.56	211.28
394.94	211.28
395.31	211.30
395.69	211.28
396.06	211.36
396.44	211.46
396.82	211.33
397.19	211.43
397.57	211.39
397.95	211.47
398.32	211.48
398.70	211.53
399.07	211.58
399.45	211.55
399.82	211.56
400.20	211.58
400.58	211.68
400.95	211.69
401.33	211.73
401.70	211.81
402.08	211.90
402.45	212.01
402.83	212.05
403.20	212.15
403.58	212.18
403.95	212.23
404.33	212.40
404.71	212.56
405.08	212.68
405.46	212.74
405.83	212.83
406.21	212.98
406.58	213.12
406.96	213.28
407.33	213.45
407.70	213.66
408.08	214.00
408.45	214.24
408.83	214.48
409.20	214.73
409.58	214.88
409.95	215.23
410.33	215.45
410.70	215.69
411.08	216.02
411.45	216.48
411.82	216.90
412.20	217.27
412.57	217.79
412.95	218.16
413.32	218.68
413.69	219.25
414.07	219.85
414.44	220.53
414.82	221.21
415.19	221.93
415.56	222.68
415.94	223.30
416.31	224.14
416.68	225.06
417.06	226.07
417.43	227.19
417.81	228.28
418.18	229.37
418.55	230.61
418.93	231.88
419.30	233.20
419.67	234.52
420.04	235.94
420.42	237.38
420.79	239.25
421.16	241.07
421.54	242.87
421.91	244.72
422.28	246.60
422.66	248.64
423.03	250.72
423.40	252.86
423.77	255.12
424.15	257.37
424.52	259.68
424.89	262.22
425.26	264.67
425.64	267.05
426.01	269.70
426.38	272.48
426.75	275.19
427.13	277.96
427.50	280.96
427.87	284.19
428.24	287.39
428.61	290.31
428.99	293.53
429.36	297.08
429.73	300.60
430.10	304.12
430.47	307.59
430.85	311.26
431.22	315.18
431.59	319.42
431.96	323.36
432.33	327.72
432.70	332.02
433.08	336.98
433.45	341.72
433.82	346.40
434.19	351.54
434.56	356.73
434.93	361.69
435.30	366.46
435.68	371.67
436.05	376.88
436.42	382.06
436.79	386.83
437.16	391.82
437.53	397.19
437.90	402.43
438.27	407.73
438.64	413.14
439.01	418.15
439.38	422.51
439.75	426.98
440.13	431.90
440.50	436.42
440.87	440.20
441.24	443.91
441.61	448.22
441.98	451.29
442.35	454.84
442.72	458.46
443.09	461.94
443.46	464.10
443.83	465.40
444.20	466.63
444.57	468.37
444.94	469.25
445.31	470.07
445.68	470.89
446.05	471.08
446.42	470.35
446.79	469.59
447.16	468.71
447.53	467.98
447.90	465.94
448.27	463.89
448.64	460.88
449.01	458.81
449.37	455.09
449.74	451.50
450.11	447.38
450.48	442.81
450.85	438.18
451.22	434.20
451.59	430.49
451.96	426.91
452.33	422.10
452.70	417.64
453.07	412.39
453.43	407.15
453.80	402.19
454.17	397.36
454.54	392.78
454.91	387.99
455.28	383.24
455.65	378.71
456.02	374.28
456.38	370.40
456.75	365.75
457.12	361.92
457.49	358.13
457.86	354.30
458.23	351.07
458.59	347.71
458.96	344.05
459.33	340.95
459.70	337.61
460.07	335.17
460.43	332.29
460.80	329.66
461.17	327.31
461.54	324.77
461.91	322.53
462.27	320.13
462.64	318.04
463.01	315.72
463.38	313.53
463.74	311.39
464.11	309.63
464.48	307.97
464.85	306.10
465.21	304.76
465.58	303.34
465.95	301.64
466.32	300.16
466.68	298.77
467.05	297.28
467.42	295.93
467.78	294.41
468.15	293.10
468.52	291.98
468.88	290.52
469.25	289.32
469.62	288.37
469.98	287.42
470.35	286.53
470.72	285.73
471.08	284.85
471.45	284.02
471.82	283.15
472.18	282.29
472.55	281.71
472.92	280.93
473.28	280.24
473.65	279.58
474.02	278.95
474.38	278.49
474.75	278.10
475.11	277.71
475.48	277.45
475.85	277.26
476.21	277.17
476.58	277.18
476.94	277.18
477.31	277.00
477.67	276.83
478.04	276.87
478.41	276.97
478.77	277.16
479.14	277.27
479.50	277.56
479.87	277.92
480.23	278.37
480.60	278.66
480.96	279.14
481.33	279.87
481.69	280.49
482.06	281.07
482.42	281.79
482.79	282.53
483.15	283.37
483.52	284.25
483.88	285.10
484.25	286.00
484.61	287.12
484.98	288.27
485.34	289.56
485.71	290.79
486.07	292.14
486.44	293.46
486.80	295.04
487.17	296.66
487.53	298.35
487.90	300.10
488.26	302.11
488.62	304.14
488.99	306.13
489.35	308.30
489.72	310.71
490.08	313.09
490.44	315.57
490.81	318.21
491.17	320.98
491.54	323.98
491.90	326.97
492.26	330.10
492.63	333.35
492.99	336.83
493.36	340.53
493.72	344.43
494.08	348.55
494.45	352.76
494.81	357.18
495.17	361.78
495.54	366.75
495.90	371.93
496.26	377.17
496.63	382.70
496.99	388.56
497.35	394.43
497.72	400.77
498.08	407.32
498.44	413.92
498.80	421.03
499.17	428.38
499.53	436.17
499.89	444.14
500.26	452.44
500.62	460.81
500.98	469.65
501.34	478.89
501.71	488.27
502.07	497.94
502.43	507.99
502.79	518.18
503.16	528.78
503.52	539.60
503.88	550.79
504.24	562.38
504.60	574.34
504.97	586.87
505.33	599.28
505.69	612.71
506.05	626.25
506.41	640.04
506.78	653.73
507.14	667.98
507.50	682.67
507.86	697.71
508.22	713.29
508.59	728.94
508.95	744.98
509.31	761.36
509.67	778.06
510.03	795.04
510.39	812.94
510.75	830.87
511.12	849.12
511.48	867.45
511.84	886.03
512.20	904.61
512.56	923.60
512.92	943.14
513.28	962.57
513.64	982.64
514.00	1002.78
514.37	1023.25
514.73	1043.95
515.09	1064.68
515.45	1085.50
515.81	1106.71
516.17	1128.18
516.53	1149.49
516.89	1171.29
517.25	1192.96
517.61	1215.01
517.97	1236.27
518.33	1257.57
518.69	1279.61
519.05	1301.82
519.41	1324.34
519.77	1347.04
520.13	1369.51
520.49	1391.97
520.85	1414.69
521.21	1437.13
521.57	1459.85
521.93	1482.28
522.29	1505.44
522.65	1528.22
523.01	1550.97
523.37	1573.10
523.73	1595.65
524.09	1618.20
524.45	1640.47
524.81	1662.87
525.17	1685.27
525.53	1708.00
525.89	1730.87
526.25	1752.97
526.61	1774.38
526.97	1796.08
527.33	1817.73
527.68	1839.34
528.04	1860.72
528.40	1881.49
528.76	1902.38
529.12	1923.45
529.48	1945.40
529.84	1965.71
530.20	1986.32
530.56	2006.77
530.91	2027.59
531.27	2048.08
531.63	2068.03
531.99	2088.32
532.35	2107.98
532.71	2126.97
533.07	2146.65
533.42	2165.26
533.78	2184.34
534.14	2203.38
534.50	2220.78
534.86	2238.88
535.21	2256.05
535.57	2273.97
535.93	2291.30
536.29	2308.41
536.65	2325.22
537.00	2340.41
537.36	2355.86
537.72	2371.24
538.08	2386.82
538.44	2402.28
538.79	2417.87
539.15	2433.00
539.51	2447.43
539.87	2462.61
540.22	2477.47
540.58	2492.42
540.94	2507.03
541.29	2520.00
541.65	2532.27
542.01	2545.76
542.37	2557.66
542.72	2570.26
543.08	2581.13
543.44	2593.25
543.79	2603.82
544.15	2614.07
544.51	2625.68
544.87	2636.94
545.22	2646.35
545.58	2655.01
545.94	2662.69
546.29	2669.04
546.65	2675.70
547.01	2682.31
547.36	2688.20
547.72	2693.99
548.07	2698.13
548.43	2702.39
548.79	2706.16
549.14	2711.21
549.50	2715.65
549.86	2719.92
550.21	2723.75
550.57	2728.22
550.92	2730.87
551.28	2733.94
551.64	2736.85
551.99	2739.39
552.35	2741.11
552.70	2744.24
553.06	2747.26
553.41	2750.10
553.77	2753.17
554.13	2754.97
554.48	2757.25
554.84	2759.11
555.19	2759.95
555.55	2760.86
555.90	2761.56
556.26	2762.37
556.61	2762.18
556.97	2760.82
557.32	2760.60
557.68	2758.88
558.03	2757.49
558.39	2756.30
558.74	2755.71
559.10	2754.44
559.45	2752.46
559.81	2751.49
560.16	2748.53
560.52	2745.74
560.87	2743.15
561.23	2739.69
561.58	2737.65
561.94	2734.12
562.29	2730.58
562.64	2728.14
563.00	2725.66
563.35	2723.50
563.71	2722.06
564.06	2720.46
564.42	2718.74
564.77	2716.60
565.12	2714.85
565.48	2711.66
565.83	2708.36
566.19	2705.08
566.54	2701.17
566.89	2697.01
567.25	2693.27
567.60	2690.10
567.96	2686.59
568.31	2682.86
568.66	2679.12
569.02	2674.69
569.37	2669.79
569.72	2665.71
570.08	2660.46
570.43	2654.75
570.78	2648.73
571.14	2642.22
571.49	2635.12
571.84	2629.29
572.20	2621.96
572.55	2615.65
572.90	2609.06
573.26	2602.15
573.61	2595.15
573.96	2588.47
574.31	2580.97
574.67	2572.59
575.02	2564.07
575.37	2555.69
575.72	2546.61
576.08	2539.14
576.43	2530.39
576.78	2522.60
577.13	2514.52
577.49	2506.06
577.84	2498.41
578.19	2490.94
578.54	2483.27
578.90	2476.49
579.25	2467.69
579.60	2458.87
579.95	2449.34
580.30	2441.24
580.66	2433.09
581.01	2423.65
581.36	2414.03
581.71	2405.53
582.06	2397.10
582.42	2388.70
582.77	2379.40
583.12	2370.53
583.47	2361.60
583.82	2353.39
584.17	2344.06
584.53	2334.87
584.88	2326.06
585.23	2316.40
585.58	2306.41
585.93	2296.70
586.28	2287.21
586.63	2278.26
586.98	2269.74
587.34	2261.32
587.69	2251.99
588.04	2242.55
588.39	2234.29
588.74	2225.20
589.09	2216.54
589.44	2206.76
589.79	2198.18
590.14	2190.40
590.49	2182.14
590.84	2172.88
591.19	2164.62
591.54	2155.71
591.89	2145.47
592.25	2136.17
592.60	2126.83
592.95	2117.20
593.30	2107.59
593.65	2097.57
594.00	2087.83
594.35	2079.61
594.70	2070.26
595.05	2061.38
595.40	2052.68
595.75	2042.79
596.10	2034.56
596.45	2025.48
596.80	2017.68
597.15	2009.05
597.50	1999.61
597.85	1991.05
598.19	1982.30
598.54	1973.43
598.89	1965.69
599.24	1958.73
599.59	1951.27
599.94	1944.36
600.29	1936.70
600.64	1928.89
600.99	1920.39
601.34	1913.08
601.69	1903.95
602.04	1895.86
602.39	1887.71
602.74	1879.74
603.08	1873.21
603.43	1865.74
603.78	1857.74
604.13	1849.60
604.48	1841.60
604.83	1834.58
605.18	1827.41
605.53	1819.52
605.87	1811.68
606.22	1804.12
606.57	1796.27
606.92	1788.04
607.27	1779.45
607.62	1771.91
607.96	1764.94
608.31	1758.84
608.66	1750.98
609.01	1743.68
609.36	1735.78
609.70	1727.76
610.05	1720.12
610.40	1711.75
610.75	1703.30
611.10	1695.79
611.44	1686.56
611.79	1677.51
612.14	1668.25
612.49	1658.50
612.83	1649.57
613.18	1640.20
613.53	1630.55
613.88	1620.70
614.22	1611.80
614.57	1602.55
614.92	1593.25
615.27	1583.78
615.61	1573.81
615.96	1564.75
616.31	1555.84
616.65	1548.06
617.00	1539.59
617.35	1530.73
617.70	1521.79
618.04	1512.62
618.39	1503.10
618.74	1494.65
619.08	1485.99
619.43	1477.61
619.78	1469.84
620.12	1461.74
620.47	1453.65
620.82	1445.34
621.16	1436.93
621.51	1428.47
621.85	1420.18
622.20	1411.48
622.55	1402.93
622.89	1394.50
623.24	1386.40
623.59	1377.57
623.93	1368.60
624.28	1360.19
624.62	1351.79
624.97	1343.42
625.32	1335.37
625.66	1327.93
626.01	1320.51
626.35	1313.15
626.70	1305.40
627.04	1297.86
627.39	1290.37
627.73	1282.67
628.08	1275.66
628.43	1268.05
628.77	1260.41
629.12	1252.96
629.46	1246.28
629.81	1238.85
630.15	1231.50
630.50	1223.85
630.84	1216.60
631.19	1209.42
631.53	1202.37
631.88	1194.91
632.22	1187.29
632.57	1180.58
632.91	1173.00
633.26	1165.50
633.60	1158.40
633.95	1151.49
634.29	1143.92
634.64	1137.19
634.98	1130.07
635.32	1122.83
635.67	1116.96
636.01	1110.39
636.36	1103.40
636.70	1096.62
637.05	1090.10
637.39	1083.79
637.73	1077.44
638.08	1071.53
638.42	1065.50
638.77	1058.96
639.11	1052.57
639.45	1046.69
639.80	1039.92
640.14	1033.39
640.49	1027.25
640.83	1020.95
641.17	1014.32
641.52	1008.16
641.86	1001.32
642.20	995.23
642.55	988.57
642.89	981.68
643.23	975.21
643.58	969.34
643.92	962.87
644.26	956.69
644.61	950.40
644.95	944.35
645.29	937.98
645.64	931.49
645.98	925.38
646.32	919.44
646.66	912.89
647.01	906.87
647.35	901.15
647.69	894.81
648.04	888.73
648.38	882.82
648.72	876.80
649.06	870.70
649.41	864.50
649.75	858.71
650.09	852.68
650.43	846.80
650.78	840.49
651.12	834.45
651.46	828.57
651.80	822.78
652.14	816.75
652.49	810.72
652.83	804.82
653.17	798.57
653.51	792.61
653.85	787.03
654.20	781.09
654.54	775.11
654.88	769.49
655.22	763.72
655.56	757.83
655.90	751.96
656.25	746.32
656.59	740.60
656.93	735.30
657.27	730.15
657.61	724.63
657.95	719.52
658.29	714.40
658.64	709.26
658.98	703.97
659.32	698.63
659.66	693.35
660.00	688.03
660.34	682.96
660.68	677.75
661.02	672.73
661.36	667.98
661.70	663.17
662.05	658.43
662.39	653.97
662.73	649.62
663.07	645.08
663.41	640.86
663.75	636.48
664.09	631.81
664.43	626.95
664.77	622.53
665.11	618.17
665.45	613.69
665.79	609.09
666.13	604.58
666.47	600.16
666.81	596.10
667.15	591.91
667.49	588.01
667.83	584.00
668.17	580.13
668.51	576.15
668.85	572.35
669.19	568.63
669.53	564.70
669.87	560.53
670.21	556.79
670.55	552.68
670.89	549.22
671.23	545.76
671.57	542.26
671.91	538.64
672.25	534.87
672.58	531.38
672.92	527.98
673.26	524.78
673.60	521.70
673.94	518.36
674.28	515.13
674.62	512.00
674.96	508.84
675.30	505.68
675.64	502.62
675.97	499.38
676.31	496.28
676.65	493.06
676.99	490.41
677.33	487.38
677.67	484.50
678.01	481.29
678.34	478.33
678.68	475.46
679.02	472.53
679.36	469.72
679.70	466.94
680.04	464.20
680.37	461.20
680.71	458.35
681.05	455.50
681.39	452.78
681.73	449.96
682.06	447.38
682.40	444.70
682.74	441.98
683.08	439.42
683.42	436.73
683.75	434.34
684.09	431.70
684.43	429.19
684.77	426.60
685.10	424.10
685.44	421.40
685.78	418.97
686.12	416.71
686.45	414.38
686.79	412.01
687.13	409.66
687.46	407.43
687.80	405.23
688.14	403.03
688.48	400.80
688.81	398.51
689.15	396.32
689.49	394.17
689.82	392.01
690.16	389.66
690.50	387.39
690.83	385.04
691.17	382.72
691.51	380.47
691.84	378.35
692.18	376.37
692.52	374.55
692.85	372.59
693.19	370.71
693.52	368.80
693.86	366.81
694.20	364.85
694.53	362.99
694.87	360.98
695.21	359.08
695.54	357.21
695.88	355.32
696.21	353.49
696.55	351.60
696.88	349.83
697.22	348.19
697.56	346.66
697.89	344.94
698.23	343.36
698.56	341.83
698.90	340.33
699.23	338.62
699.57	336.97
699.90	335.31
700.24	333.54
700.58	331.80
700.91	330.31
701.25	328.90
701.58	327.39
701.92	325.99
702.25	324.59
702.59	323.15
702.92	321.81
703.26	320.36
703.59	319.13
703.93	317.92
704.26	316.62
704.60	315.28
704.93	314.09
705.26	312.74
705.60	311.57
705.93	310.30
706.27	309.17
706.60	307.99
706.94	306.89
707.27	305.83
707.61	304.69
707.94	303.46
708.27	302.20
708.61	301.11
708.94	300.05
709.28	298.85
709.61	297.81
709.94	296.78
710.28	295.72
710.61	294.63
710.95	293.48
711.28	292.50
711.61	291.46
711.95	290.50
712.28	289.56
712.61	288.50
712.95	287.53
713.28	286.53
713.61	285.54
713.95	284.63
714.28	283.65
714.61	282.70
714.95	281.81
715.28	280.93
715.61	280.04
715.95	279.13
716.28	278.32
716.61	277.45
716.95	276.50
717.28	275.69
717.61	274.82
717.94	274.07
718.28	273.22
718.61	272.46
718.94	271.70
719.27	270.94
719.61	270.20
719.94	269.47
720.27	268.74
720.60	267.95
720.94	267.16
721.27	266.48
721.60	265.96
721.93	265.35
722.27	264.79
722.60	264.17
722.93	263.55
723.26	262.97
723.59	262.32
723.93	261.76
724.26	261.15
724.59	260.54
724.92	259.95
725.25	259.39
725.59	258.85
725.92	258.26
726.25	257.72
726.58	257.23
726.91	256.75
727.24	256.28
727.57	255.79
727.91	255.28
728.24	254.81
728.57	254.26
728.90	253.78
729.23	253.30
729.56	252.85
729.89	252.31
730.22	251.78
730.55	251.30
730.89	250.80
731.22	250.32
731.55	249.89
731.88	249.43
732.21	249.03
732.54	248.51
732.87	248.01
733.20	247.59
733.53	247.15
733.86	246.70
734.19	246.28
734.52	245.93
734.85	245.68
735.18	245.25
735.51	244.96
735.84	244.52
736.17	244.13
736.50	243.70
736.83	243.57
737.16	243.19
737.49	242.91
737.82	242.58
738.15	242.38
738.48	242.12
738.81	241.76
739.14	241.32
739.47	241.00
739.80	240.71
740.13	240.39
740.46	239.99
740.79	239.60
741.12	239.18
741.45	238.79
741.78	238.41
742.11	238.12
742.44	237.73
742.77	237.47
743.10	237.13
743.43	236.84
743.75	236.30
744.08	236.26
744.41	235.85
744.74	235.61
745.07	235.21
745.40	234.84
745.73	234.67
746.06	234.43
746.39	234.18
746.71	233.85
747.04	233.56
747.37	233.25
747.70	233.03
748.03	232.78
748.36	232.58
748.68	232.25
749.01	231.93
749.34	231.68
749.67	231.49
750.00	231.27
750.33	231.18
750.65	231.00
750.98	230.56
751.31	230.34
751.64	230.04
751.97	229.87
752.29	229.69
752.62	229.38
752.95	229.18
753.28	228.91
753.60	228.75
753.93	228.62
754.26	228.50
754.59	228.23
754.91	228.10
755.24	227.95
755.57	227.81
755.90	227.68
756.22	227.49
756.55	227.17
756.88	226.94
757.20	226.53
757.53	226.29
757.86	226.00
758.19	225.89
758.51	225.73
758.84	225.46
759.17	225.29
759.49	225.05
759.82	225.01
760.15	224.83
760.47	224.62
760.80	224.32
761.13	224.16
761.45	224.08
761.78	223.85
762.11	223.65
762.43	223.42
762.76	223.25
763.08	223.03
763.41	222.98
763.74	222.89
764.06	222.79
764.39	222.62
764.71	222.57
765.04	222.38
765.37	222.28
765.69	222.15
766.02	222.03
766.34	221.95
766.67	221.64
767.00	221.57
767.32	221.55
767.65	221.48
767.97	221.30
768.30	221.15
768.62	221.03
768.95	220.88
769.27	220.77
769.60	220.69
769.92	220.59
770.25	220.44
770.57	220.21
770.90	220.10
771.22	219.97
771.55	219.83
771.87	219.74
772.20	219.67
772.52	219.69
772.85	219.75
773.17	219.60
773.50	219.55
773.82	219.46
774.15	219.20
774.47	219.03
774.80	218.96
775.12	218.83
775.45	218.73
775.77	218.71
776.09	218.65
776.42	218.51
776.74	218.45
777.07	218.36
777.39	218.31
777.72	218.19
778.04	218.15
778.36	218.04
778.69	218.03
779.01	217.88
779.33	217.71
779.66	217.43
779.98	217.39
780.31	217.34
780.63	217.28
780.95	217.36
781.28	217.30
781.60	217.15
781.92	217.00
782.25	216.95
782.57	216.79
782.89	216.69
783.22	216.62
783.54	216.59
783.86	216.47
784.19	216.42
784.51	216.42
784.83	216.40
785.16	216.28
785.48	216.21
785.80	216.19
786.12	216.15
786.45	216.17
