SpectraSuite Data File
++++++++++++++++++++++++++++++++++++
Date: Mon Feb 25 17:33:35 EST 2013
User: group
Dark Spectrum Present: No
Reference Spectrum Present: No
Number of Sampled Component Spectra: 1
Spectrometers: USB2E7196
Integration Time (usec): 52000 (USB2E7196)
Spectra Averaged: 20 (USB2E7196)
Boxcar Smoothing: 10 (USB2E7196)
Correct for Electrical Dark: No (USB2E7196)
Strobe/Lamp Enabled: No (USB2E7196)
Correct for Detector Non-linearity: No (USB2E7196)
Correct for Stray Light: No (USB2E7196)
Number of Pixels in Processed Spectrum: 2048
>>>>>Begin Processed Spectral Data<<<<<
339.09	0.00
339.48	200.45
339.86	200.65
340.24	202.85
340.63	202.85
341.01	207.30
341.39	206.55
341.78	207.50
342.16	208.90
342.54	210.00
342.93	198.53
343.31	208.55
343.69	209.01
344.07	209.50
344.46	209.91
344.84	210.28
345.22	210.46
345.60	210.71
345.99	210.88
346.37	211.02
346.75	211.05
347.13	211.26
347.52	211.34
347.90	211.46
348.28	211.44
348.66	211.46
349.05	211.43
349.43	211.57
349.81	211.64
350.19	211.70
350.57	211.80
350.96	211.91
351.34	212.00
351.72	212.10
352.10	212.20
352.48	212.25
352.87	212.35
353.25	212.41
353.63	212.46
354.01	212.53
354.39	212.58
354.77	212.70
355.15	212.75
355.54	212.75
355.92	212.72
356.30	212.82
356.68	213.01
357.06	213.16
357.44	213.23
357.82	213.22
358.20	213.27
358.58	213.34
358.97	213.43
359.35	213.55
359.73	213.65
360.11	213.68
360.49	213.74
360.87	213.79
361.25	213.94
361.63	214.06
362.01	214.16
362.39	214.22
362.77	214.29
363.15	214.29
363.53	214.41
363.91	214.52
364.29	214.58
364.67	214.49
365.05	214.47
365.43	214.43
365.81	214.52
366.19	214.60
366.57	214.65
366.95	214.68
367.33	214.63
367.71	214.70
368.09	214.79
368.47	214.80
368.85	214.82
369.23	214.77
369.61	214.73
369.99	214.76
370.37	214.75
370.75	214.79
371.13	214.74
371.51	214.68
371.89	214.70
372.27	214.66
372.65	214.59
373.03	214.53
373.41	214.50
373.78	214.47
374.16	214.34
374.54	214.20
374.92	214.06
375.30	214.01
375.68	213.84
376.06	213.78
376.44	213.69
376.82	213.62
377.19	213.56
377.57	213.50
377.95	213.37
378.33	213.33
378.71	213.16
379.09	213.13
379.47	213.11
379.84	212.97
380.22	212.94
380.60	212.89
380.98	212.91
381.36	212.87
381.73	212.77
382.11	212.79
382.49	212.80
382.87	212.75
383.25	212.72
383.62	212.93
384.00	212.82
384.38	212.79
384.76	212.78
385.13	212.78
385.51	212.68
385.89	212.65
386.27	212.64
386.64	212.63
387.02	212.60
387.40	212.52
387.78	212.58
388.15	212.49
388.53	212.47
388.91	212.39
389.29	212.34
389.66	212.36
390.04	212.27
390.42	212.23
390.79	212.18
391.17	212.15
391.55	211.88
391.92	211.90
392.30	211.92
392.68	211.88
393.05	211.84
393.43	211.88
393.81	211.85
394.18	211.75
394.56	211.79
394.94	211.82
395.31	211.79
395.69	211.75
396.06	211.77
396.44	211.71
396.82	211.64
397.19	211.75
397.57	211.67
397.95	211.74
398.32	211.73
398.70	211.84
399.07	211.93
399.45	212.00
399.82	212.02
400.20	212.04
400.58	212.08
400.95	212.08
401.33	212.16
401.70	212.35
402.08	212.54
402.45	212.55
402.83	212.65
403.20	212.74
403.58	212.80
403.95	212.95
404.33	213.11
404.71	213.24
405.08	213.36
405.46	213.55
405.83	213.69
406.21	213.83
406.58	213.94
406.96	214.07
407.33	214.24
407.70	214.42
408.08	214.77
408.45	215.00
408.83	215.27
409.20	215.50
409.58	215.70
409.95	215.96
410.33	216.33
410.70	216.53
411.08	216.88
411.45	217.29
411.82	217.68
412.20	218.12
412.57	218.69
412.95	219.03
413.32	219.53
413.69	220.02
414.07	220.57
414.44	221.16
414.82	221.80
415.19	222.48
415.56	223.26
415.94	223.92
416.31	224.83
416.68	225.70
417.06	226.72
417.43	227.67
417.81	228.72
418.18	229.83
418.55	230.99
418.93	232.22
419.30	233.52
419.67	234.85
420.04	236.19
420.42	237.75
420.79	239.60
421.16	241.39
421.54	243.24
421.91	245.20
422.28	247.14
422.66	249.15
423.03	251.26
423.40	253.30
423.77	255.49
424.15	257.73
424.52	260.01
424.89	262.58
425.26	264.99
425.64	267.36
426.01	269.91
426.38	272.69
426.75	275.53
427.13	278.38
427.50	281.29
427.87	284.51
428.24	287.56
428.61	290.47
428.99	293.69
429.36	297.17
429.73	300.54
430.10	304.03
430.47	307.63
430.85	311.19
431.22	315.15
431.59	319.38
431.96	323.31
432.33	327.81
432.70	331.86
433.08	336.82
433.45	341.35
433.82	346.05
434.19	351.26
434.56	356.29
434.93	361.08
435.30	365.90
435.68	371.05
436.05	376.25
436.42	381.37
436.79	386.12
437.16	391.16
437.53	396.48
437.90	401.71
438.27	406.96
438.64	412.51
439.01	417.34
439.38	421.70
439.75	425.93
440.13	430.72
440.50	435.35
440.87	439.06
441.24	442.96
441.61	447.15
441.98	450.11
442.35	453.67
442.72	457.28
443.09	460.92
443.46	463.14
443.83	464.48
444.20	465.63
444.57	467.26
444.94	468.02
445.31	468.75
445.68	469.40
446.05	469.55
446.42	468.72
446.79	468.09
447.16	467.14
447.53	466.46
447.90	464.29
448.27	462.08
448.64	459.18
449.01	457.11
449.37	453.36
449.74	449.80
450.11	445.60
450.48	441.04
450.85	436.30
451.22	432.15
451.59	428.34
451.96	424.78
452.33	420.01
452.70	415.56
453.07	410.49
453.43	405.35
453.80	400.31
454.17	395.58
454.54	390.98
454.91	386.21
455.28	381.50
455.65	377.08
456.02	372.84
456.38	369.03
456.75	364.37
457.12	360.51
457.49	356.82
457.86	353.10
458.23	349.92
458.59	346.46
458.96	343.04
459.33	339.91
459.70	336.71
460.07	334.25
460.43	331.53
460.80	328.81
461.17	326.42
461.54	323.91
461.91	321.48
462.27	319.09
462.64	317.13
463.01	314.87
463.38	312.72
463.74	310.51
464.11	308.64
464.48	306.91
464.85	305.17
465.21	303.79
465.58	302.34
465.95	300.63
466.32	299.16
466.68	297.69
467.05	296.27
467.42	294.94
467.78	293.57
468.15	292.13
468.52	291.19
468.88	289.89
469.25	288.75
469.62	287.89
469.98	286.89
470.35	285.93
470.72	285.15
471.08	284.23
471.45	283.52
471.82	282.76
472.18	281.98
472.55	281.38
472.92	280.62
473.28	279.98
473.65	279.34
474.02	278.80
474.38	278.40
474.75	278.08
475.11	277.64
475.48	277.31
475.85	277.20
476.21	276.95
476.58	276.92
476.94	276.94
477.31	276.92
477.67	276.84
478.04	276.83
478.41	277.04
478.77	277.31
479.14	277.31
479.50	277.58
479.87	277.98
480.23	278.38
480.60	278.75
480.96	279.20
481.33	279.85
481.69	280.49
482.06	281.21
482.42	281.82
482.79	282.52
483.15	283.45
483.52	284.39
483.88	285.31
484.25	286.20
484.61	287.10
484.98	288.24
485.34	289.66
485.71	290.96
486.07	292.23
486.44	293.61
486.80	295.25
487.17	296.82
487.53	298.51
487.90	300.35
488.26	302.27
488.62	304.35
488.99	306.36
489.35	308.51
489.72	310.73
490.08	313.19
490.44	315.69
490.81	318.23
491.17	320.88
491.54	323.79
491.90	326.84
492.26	330.18
492.63	333.39
492.99	336.73
493.36	340.45
493.72	344.32
494.08	348.27
494.45	352.50
494.81	356.94
495.17	361.52
495.54	366.38
495.90	371.40
496.26	376.59
496.63	382.11
496.99	387.83
497.35	393.79
497.72	400.01
498.08	406.54
498.44	413.29
498.80	420.47
499.17	427.92
499.53	435.55
499.89	443.44
500.26	451.53
500.62	459.81
500.98	468.53
501.34	477.56
501.71	487.08
502.07	496.79
502.43	506.89
502.79	517.00
503.16	527.68
503.52	538.65
503.88	549.88
504.24	561.54
504.60	573.20
504.97	585.58
505.33	598.22
505.69	611.43
506.05	624.97
506.41	638.50
506.78	652.21
507.14	666.34
507.50	680.90
507.86	696.07
508.22	711.54
508.59	727.17
508.95	743.33
509.31	759.55
509.67	776.31
510.03	793.32
510.39	811.10
510.75	828.83
511.12	846.90
511.48	865.34
511.84	883.83
512.20	902.73
512.56	922.02
512.92	941.43
513.28	961.08
513.64	980.91
514.00	1000.85
514.37	1021.36
514.73	1042.39
515.09	1063.11
515.45	1083.89
515.81	1105.25
516.17	1126.57
516.53	1147.79
516.89	1169.50
517.25	1190.82
517.61	1212.56
517.97	1233.73
518.33	1255.30
518.69	1277.07
519.05	1299.20
519.41	1321.63
519.77	1344.24
520.13	1366.17
520.49	1388.24
520.85	1410.80
521.21	1433.26
521.57	1456.34
521.93	1478.34
522.29	1501.10
522.65	1523.93
523.01	1546.56
523.37	1568.48
523.73	1590.93
524.09	1613.34
524.45	1635.45
524.81	1658.18
525.17	1680.51
525.53	1703.43
525.89	1725.84
526.25	1747.72
526.61	1768.87
526.97	1790.59
527.33	1811.91
527.68	1833.75
528.04	1855.32
528.40	1875.56
528.76	1896.30
529.12	1917.13
529.48	1938.97
529.84	1959.47
530.20	1979.73
530.56	2000.16
530.91	2021.13
531.27	2041.27
531.63	2061.37
531.99	2081.61
532.35	2100.65
532.71	2119.45
533.07	2138.83
533.42	2157.19
533.78	2176.30
534.14	2195.09
534.50	2212.19
534.86	2230.49
535.21	2247.20
535.57	2264.66
535.93	2282.49
536.29	2299.46
536.65	2315.98
537.00	2331.31
537.36	2346.45
537.72	2361.76
538.08	2377.25
538.44	2392.86
538.79	2408.91
539.15	2423.89
539.51	2438.49
539.87	2453.84
540.22	2468.53
540.58	2483.63
540.94	2498.54
541.29	2511.71
541.65	2524.01
542.01	2537.57
542.37	2549.06
542.72	2561.56
543.08	2572.91
543.44	2584.57
543.79	2595.03
544.15	2605.48
544.51	2616.71
544.87	2628.16
545.22	2637.53
545.58	2646.12
545.94	2653.31
546.29	2659.63
546.65	2665.79
547.01	2672.35
547.36	2677.78
547.72	2683.60
548.07	2687.16
548.43	2690.83
548.79	2694.77
549.14	2699.76
549.50	2703.72
549.86	2707.99
550.21	2711.89
550.57	2716.00
550.92	2718.65
551.28	2721.48
551.64	2723.88
551.99	2726.52
552.35	2727.84
552.70	2730.54
553.06	2733.32
553.41	2736.24
553.77	2738.98
554.13	2741.62
554.48	2743.27
554.84	2744.94
555.19	2745.43
555.55	2746.17
555.90	2747.03
556.26	2747.85
556.61	2747.60
556.97	2746.46
557.32	2746.01
557.68	2744.41
558.03	2743.03
558.39	2741.92
558.74	2741.73
559.10	2740.74
559.45	2738.70
559.81	2737.57
560.16	2734.91
560.52	2732.06
560.87	2728.88
561.23	2725.09
561.58	2722.72
561.94	2719.55
562.29	2715.88
562.64	2713.92
563.00	2711.71
563.35	2709.34
563.71	2707.11
564.06	2705.00
564.42	2703.32
564.77	2701.22
565.12	2699.43
565.48	2696.25
565.83	2693.15
566.19	2689.26
566.54	2684.73
566.89	2680.50
567.25	2676.84
567.60	2673.70
567.96	2670.18
568.31	2666.87
568.66	2663.13
569.02	2658.34
569.37	2653.31
569.72	2649.64
570.08	2644.24
570.43	2638.42
570.78	2632.30
571.14	2626.01
571.49	2618.95
571.84	2613.03
572.20	2606.20
572.55	2599.33
572.90	2592.55
573.26	2585.21
573.61	2578.26
573.96	2571.94
574.31	2564.49
574.67	2556.25
575.02	2547.83
575.37	2539.35
575.72	2530.32
576.08	2522.75
576.43	2514.11
576.78	2505.99
577.13	2497.88
577.49	2489.62
577.84	2482.05
578.19	2475.02
578.54	2467.68
578.90	2461.43
579.25	2452.55
579.60	2443.10
579.95	2434.05
580.30	2425.95
580.66	2417.64
581.01	2408.53
581.36	2399.15
581.71	2390.45
582.06	2382.03
582.42	2373.38
582.77	2364.34
583.12	2355.39
583.47	2346.55
583.82	2338.22
584.17	2329.25
584.53	2320.28
584.88	2311.30
585.23	2301.84
585.58	2291.81
585.93	2281.75
586.28	2272.17
586.63	2263.38
586.98	2255.28
587.34	2246.97
587.69	2237.47
588.04	2228.61
588.39	2220.25
588.74	2211.41
589.09	2203.05
589.44	2193.44
589.79	2185.36
590.14	2177.47
590.49	2168.84
590.84	2159.78
591.19	2151.62
591.54	2142.98
591.89	2132.79
592.25	2123.96
592.60	2114.65
592.95	2105.45
593.30	2096.27
593.65	2086.16
594.00	2076.59
594.35	2068.29
594.70	2058.84
595.05	2050.42
595.40	2041.40
595.75	2031.88
596.10	2023.68
596.45	2014.98
596.80	2007.01
597.15	1998.43
597.50	1989.08
597.85	1981.08
598.19	1972.13
598.54	1963.38
598.89	1955.50
599.24	1948.60
599.59	1940.92
599.94	1933.94
600.29	1925.90
600.64	1918.11
600.99	1910.00
601.34	1902.69
601.69	1893.82
602.04	1885.84
602.39	1877.58
602.74	1870.00
603.08	1863.50
603.43	1856.07
603.78	1847.86
604.13	1839.92
604.48	1831.90
604.83	1825.10
605.18	1817.73
605.53	1810.53
605.87	1802.73
606.22	1795.58
606.57	1787.68
606.92	1779.44
607.27	1771.18
607.62	1763.93
607.96	1756.93
608.31	1750.66
608.66	1742.99
609.01	1735.41
609.36	1727.48
609.70	1719.72
610.05	1711.62
610.40	1703.09
610.75	1694.34
611.10	1687.02
611.44	1677.88
611.79	1668.71
612.14	1659.31
612.49	1649.90
612.83	1640.88
613.18	1631.13
613.53	1621.60
613.88	1611.81
614.22	1602.83
614.57	1593.30
614.92	1583.96
615.27	1574.61
615.61	1564.83
615.96	1555.66
616.31	1547.19
616.65	1539.60
617.00	1530.98
617.35	1522.45
617.70	1513.73
618.04	1504.96
618.39	1495.14
618.74	1486.63
619.08	1478.10
619.43	1469.81
619.78	1461.76
620.12	1453.77
620.47	1446.13
620.82	1437.30
621.16	1428.89
621.51	1420.52
621.85	1412.41
622.20	1404.00
622.55	1395.48
622.89	1387.23
623.24	1379.36
623.59	1370.66
623.93	1361.84
624.28	1353.65
624.62	1345.37
624.97	1337.00
625.32	1329.12
625.66	1321.95
626.01	1314.72
626.35	1307.56
626.70	1299.78
627.04	1292.28
627.39	1284.64
627.73	1276.94
628.08	1270.17
628.43	1262.90
628.77	1255.55
629.12	1248.10
629.46	1241.45
629.81	1233.99
630.15	1226.45
630.50	1218.77
630.84	1211.20
631.19	1204.13
631.53	1197.15
631.88	1189.80
632.22	1182.34
632.57	1175.23
632.91	1167.68
633.26	1160.09
633.60	1152.92
633.95	1146.09
634.29	1138.86
634.64	1132.17
634.98	1125.07
635.32	1117.85
635.67	1111.54
636.01	1105.04
636.36	1098.23
636.70	1091.62
637.05	1085.25
637.39	1079.07
637.73	1072.95
638.08	1067.36
638.42	1061.47
638.77	1054.82
639.11	1048.49
639.45	1042.44
639.80	1035.80
640.14	1029.50
640.49	1023.29
640.83	1016.83
641.17	1010.41
641.52	1004.33
641.86	997.64
642.20	991.67
642.55	985.10
642.89	978.54
643.23	971.95
643.58	966.07
643.92	959.29
644.26	952.92
644.61	946.74
644.95	940.46
645.29	934.04
645.64	927.27
645.98	921.27
646.32	915.30
646.66	909.00
647.01	903.18
647.35	897.25
647.69	891.08
648.04	885.26
648.38	879.25
648.72	872.98
649.06	866.94
649.41	860.79
649.75	854.88
650.09	848.95
650.43	843.05
650.78	836.89
651.12	831.00
651.46	825.32
651.80	819.41
652.14	813.50
652.49	807.46
652.83	801.66
653.17	795.52
653.51	789.64
653.85	783.95
654.20	777.91
654.54	772.07
654.88	766.53
655.22	760.62
655.56	754.77
655.90	749.07
656.25	743.35
656.59	737.92
656.93	732.99
657.27	727.67
657.61	722.12
657.95	716.90
658.29	711.83
658.64	706.47
658.98	701.19
659.32	695.86
659.66	690.73
660.00	685.34
660.34	680.21
660.68	675.02
661.02	670.05
661.36	665.50
661.70	660.70
662.05	655.75
662.39	651.35
662.73	646.95
663.07	642.50
663.41	638.25
663.75	633.65
664.09	628.81
664.43	624.25
664.77	619.99
665.11	615.44
665.45	610.93
665.79	606.66
666.13	602.28
666.47	598.01
666.81	593.85
667.15	589.91
667.49	586.02
667.83	582.10
668.17	578.20
668.51	574.24
668.85	570.35
669.19	566.83
669.53	562.87
669.87	558.97
670.21	555.17
670.55	551.17
670.89	547.68
671.23	544.15
671.57	540.61
671.91	536.97
672.25	533.55
672.58	529.96
672.92	526.47
673.26	523.21
673.60	519.85
673.94	516.51
674.28	513.10
674.62	509.92
674.96	506.70
675.30	503.50
675.64	500.33
675.97	497.14
676.31	494.15
676.65	491.26
676.99	488.47
677.33	485.56
677.67	482.75
678.01	479.76
678.34	476.85
678.68	473.88
679.02	470.85
679.36	468.01
679.70	465.29
680.04	462.43
680.37	459.58
680.71	456.82
681.05	454.23
681.39	451.60
681.73	448.92
682.06	446.46
682.40	443.88
682.74	441.20
683.08	438.78
683.42	435.95
683.75	433.38
684.09	430.79
684.43	428.27
684.77	425.74
685.10	423.13
685.44	420.42
685.78	418.00
686.12	415.79
686.45	413.44
686.79	411.06
687.13	408.87
687.46	406.68
687.80	404.48
688.14	402.07
688.48	399.92
688.81	397.62
689.15	395.36
689.49	393.10
689.82	390.89
690.16	388.58
690.50	386.46
690.83	384.20
691.17	381.91
691.51	379.70
691.84	377.47
692.18	375.45
692.52	373.50
692.85	371.67
693.19	369.77
693.52	367.81
693.86	365.83
694.20	364.00
694.53	362.11
694.87	360.11
695.21	358.21
695.54	356.20
695.88	354.33
696.21	352.43
696.55	350.71
696.88	349.00
697.22	347.16
697.56	345.49
697.89	343.67
698.23	342.00
698.56	340.43
698.90	339.05
699.23	337.40
699.57	335.89
699.90	334.15
700.24	332.45
700.58	330.93
700.91	329.46
701.25	327.97
701.58	326.44
701.92	325.06
702.25	323.72
702.59	322.33
702.92	321.00
703.26	319.64
703.59	318.31
703.93	317.24
704.26	316.02
704.60	314.74
704.93	313.59
705.26	312.41
705.60	311.17
705.93	309.85
706.27	308.71
706.60	307.60
706.94	306.50
707.27	305.31
707.61	304.17
707.94	302.99
708.27	301.74
708.61	300.73
708.94	299.66
709.28	298.46
709.61	297.45
709.94	296.42
710.28	295.36
710.61	294.31
710.95	292.99
711.28	292.08
711.61	291.10
711.95	290.13
712.28	289.17
712.61	288.14
712.95	287.16
713.28	286.24
713.61	285.19
713.95	284.31
714.28	283.49
714.61	282.50
714.95	281.64
715.28	280.68
715.61	279.68
715.95	278.70
716.28	277.87
716.61	276.93
716.95	276.00
717.28	275.16
717.61	274.34
717.94	273.56
718.28	272.67
718.61	271.80
718.94	271.03
719.27	270.21
719.61	269.51
719.94	268.76
720.27	267.96
720.60	267.30
720.94	266.60
721.27	265.84
721.60	265.28
721.93	264.65
722.27	264.02
722.60	263.44
722.93	262.83
723.26	262.25
723.59	261.63
723.93	261.10
724.26	260.52
724.59	259.89
724.92	259.32
725.25	258.85
725.59	258.37
725.92	257.87
726.25	257.35
726.58	256.85
726.91	256.28
727.24	255.83
727.57	255.32
727.91	254.71
728.24	254.30
728.57	253.74
728.90	253.30
729.23	252.93
729.56	252.54
729.89	252.10
730.22	251.54
730.55	251.13
730.89	250.63
731.22	250.20
731.55	249.84
731.88	249.51
732.21	249.03
732.54	248.58
732.87	248.02
733.20	247.63
733.53	247.18
733.86	246.82
734.19	246.30
734.52	245.93
734.85	245.70
735.18	245.19
735.51	244.84
735.84	244.45
736.17	244.02
736.50	243.55
736.83	243.40
737.16	243.14
737.49	242.77
737.82	242.38
738.15	242.02
738.48	241.65
738.81	241.17
739.14	240.79
739.47	240.42
739.80	240.16
740.13	239.86
740.46	239.56
740.79	239.22
741.12	238.95
741.45	238.62
741.78	238.27
742.11	238.07
742.44	237.74
742.77	237.43
743.10	237.19
743.43	236.88
743.75	236.36
744.08	236.30
744.41	235.96
744.74	235.74
745.07	235.42
745.40	235.12
745.73	235.09
746.06	234.82
746.39	234.59
746.71	234.29
747.04	233.98
747.37	233.64
747.70	233.43
748.03	233.17
748.36	232.85
748.68	232.50
749.01	232.12
749.34	231.86
749.67	231.57
750.00	231.32
750.33	231.19
750.65	230.96
750.98	230.45
751.31	230.23
751.64	229.98
751.97	229.89
752.29	229.66
752.62	229.21
752.95	228.87
753.28	228.54
753.60	228.25
753.93	228.04
754.26	227.84
754.59	227.54
754.91	227.25
755.24	227.09
755.57	226.87
755.90	226.72
756.22	226.57
756.55	226.36
756.88	226.12
757.20	225.79
757.53	225.53
757.86	225.41
758.19	225.23
758.51	224.98
758.84	224.74
759.17	224.53
759.49	224.45
759.82	224.41
760.15	224.29
760.47	224.16
760.80	223.93
761.13	223.86
761.45	223.74
761.78	223.64
762.11	223.44
762.43	223.32
762.76	223.18
763.08	223.05
763.41	222.85
763.74	222.70
764.06	222.60
764.39	222.53
764.71	222.36
765.04	222.19
765.37	222.12
765.69	221.95
766.02	221.83
766.34	221.72
766.67	221.59
767.00	221.47
767.32	221.44
767.65	221.46
767.97	221.27
768.30	221.17
768.62	221.05
768.95	221.02
769.27	220.93
769.60	220.88
769.92	220.67
770.25	220.61
770.57	220.48
770.90	220.34
771.22	220.17
771.55	219.97
771.87	219.86
772.20	219.69
772.52	219.65
772.85	219.78
773.17	219.63
773.50	219.46
773.82	219.37
774.15	219.13
774.47	218.90
774.80	218.87
775.12	218.77
775.45	218.74
775.77	218.59
776.09	218.48
776.42	218.38
776.74	218.35
777.07	218.27
777.39	218.24
777.72	218.16
778.04	218.12
778.36	218.01
778.69	217.99
779.01	217.95
779.33	217.80
779.66	217.49
779.98	217.43
780.31	217.43
780.63	217.42
780.95	217.44
781.28	217.36
781.60	217.24
781.92	217.18
782.25	217.02
782.57	216.94
782.89	216.89
783.22	216.77
783.54	216.70
783.86	216.61
784.19	216.54
784.51	216.47
784.83	216.35
785.16	216.41
785.48	216.30
785.80	216.21
786.12	216.14
786.45	216.16
