SpectraSuite Data File
++++++++++++++++++++++++++++++++++++
Date: Mon Feb 25 17:34:40 EST 2013
User: group
Dark Spectrum Present: No
Reference Spectrum Present: No
Number of Sampled Component Spectra: 1
Spectrometers: USB2E7196
Integration Time (usec): 52000 (USB2E7196)
Spectra Averaged: 20 (USB2E7196)
Boxcar Smoothing: 10 (USB2E7196)
Correct for Electrical Dark: No (USB2E7196)
Strobe/Lamp Enabled: No (USB2E7196)
Correct for Detector Non-linearity: No (USB2E7196)
Correct for Stray Light: No (USB2E7196)
Number of Pixels in Processed Spectrum: 2048
>>>>>Begin Processed Spectral Data<<<<<
339.09	0.00
339.48	198.80
339.86	199.50
340.24	200.85
340.63	202.60
341.01	206.60
341.39	205.80
341.78	207.15
342.16	207.95
342.54	207.40
342.93	197.86
343.31	207.87
343.69	208.40
344.07	208.86
344.46	209.30
344.84	209.74
345.22	209.94
345.60	210.22
345.99	210.45
346.37	210.64
346.75	210.80
347.13	210.85
347.52	210.90
347.90	211.07
348.28	211.03
348.66	211.12
349.05	211.14
349.43	211.11
349.81	211.24
350.19	211.33
350.57	211.40
350.96	211.57
351.34	211.72
351.72	211.85
352.10	212.03
352.48	212.17
352.87	212.21
353.25	212.32
353.63	212.43
354.01	212.51
354.39	212.55
354.77	212.62
355.15	212.74
355.54	212.85
355.92	212.83
356.30	213.00
356.68	213.17
357.06	213.24
357.44	213.25
357.82	213.27
358.20	213.36
358.58	213.49
358.97	213.50
359.35	213.54
359.73	213.64
360.11	213.76
360.49	213.82
360.87	213.87
361.25	213.88
361.63	213.95
362.01	213.96
362.39	214.00
362.77	214.08
363.15	214.10
363.53	214.10
363.91	214.19
364.29	214.13
364.67	214.03
365.05	214.02
365.43	214.18
365.81	214.20
366.19	214.19
366.57	214.23
366.95	214.27
367.33	214.22
367.71	214.20
368.09	214.18
368.47	214.13
368.85	214.16
369.23	214.26
369.61	214.15
369.99	214.23
370.37	214.29
370.75	214.31
371.13	214.25
371.51	214.11
371.89	214.02
372.27	214.05
372.65	213.95
373.03	213.93
373.41	213.85
373.78	213.87
374.16	213.82
374.54	213.73
374.92	213.64
375.30	213.59
375.68	213.48
376.06	213.37
376.44	213.31
376.82	213.27
377.19	213.17
377.57	213.09
377.95	212.92
378.33	212.82
378.71	212.68
379.09	212.70
379.47	212.70
379.84	212.64
380.22	212.60
380.60	212.60
380.98	212.50
381.36	212.46
381.73	212.35
382.11	212.30
382.49	212.21
382.87	212.19
383.25	212.10
383.62	212.28
384.00	212.20
384.38	212.19
384.76	212.10
385.13	212.11
385.51	212.05
385.89	212.00
386.27	212.01
386.64	211.98
387.02	211.88
387.40	211.84
387.78	211.82
388.15	211.79
388.53	211.73
388.91	211.73
389.29	211.74
389.66	211.66
390.04	211.60
390.42	211.65
390.79	211.61
391.17	211.66
391.55	211.41
391.92	211.36
392.30	211.35
392.68	211.36
393.05	211.37
393.43	211.42
393.81	211.45
394.18	211.35
394.56	211.39
394.94	211.46
395.31	211.47
395.69	211.57
396.06	211.58
396.44	211.54
396.82	211.57
397.19	211.61
397.57	211.71
397.95	211.77
398.32	211.79
398.70	211.84
399.07	211.94
399.45	212.04
399.82	212.11
400.20	212.14
400.58	212.20
400.95	212.15
401.33	212.21
401.70	212.36
402.08	212.43
402.45	212.50
402.83	212.62
403.20	212.65
403.58	212.66
403.95	212.83
404.33	212.98
404.71	213.06
405.08	213.27
405.46	213.31
405.83	213.47
406.21	213.54
406.58	213.62
406.96	213.77
407.33	213.93
407.70	214.15
408.08	214.47
408.45	214.65
408.83	214.90
409.20	215.16
409.58	215.33
409.95	215.68
410.33	215.95
410.70	216.22
411.08	216.64
411.45	217.03
411.82	217.33
412.20	217.83
412.57	218.37
412.95	218.63
413.32	219.27
413.69	219.77
414.07	220.41
414.44	221.11
414.82	221.70
415.19	222.44
415.56	223.16
415.94	223.91
416.31	224.85
416.68	225.78
417.06	226.78
417.43	227.71
417.81	228.85
418.18	229.96
418.55	231.13
418.93	232.37
419.30	233.72
419.67	235.09
420.04	236.52
420.42	237.96
420.79	239.79
421.16	241.41
421.54	243.31
421.91	245.06
422.28	246.94
422.66	249.07
423.03	251.06
423.40	253.20
423.77	255.48
424.15	257.68
424.52	260.12
424.89	262.65
425.26	265.16
425.64	267.49
426.01	270.09
426.38	272.85
426.75	275.62
427.13	278.44
427.50	281.44
427.87	284.47
428.24	287.57
428.61	290.45
428.99	293.79
429.36	297.29
429.73	300.95
430.10	304.40
430.47	307.89
430.85	311.57
431.22	315.42
431.59	319.55
431.96	323.53
432.33	327.86
432.70	332.11
433.08	337.21
433.45	341.80
433.82	346.44
434.19	351.52
434.56	356.51
434.93	361.35
435.30	366.20
435.68	371.51
436.05	376.82
436.42	382.10
436.79	386.77
437.16	391.96
437.53	397.24
437.90	402.59
438.27	407.74
438.64	413.08
439.01	418.14
439.38	422.59
439.75	426.82
440.13	431.61
440.50	436.26
440.87	439.90
441.24	443.75
441.61	448.07
441.98	451.18
442.35	454.79
442.72	458.31
443.09	461.82
443.46	464.02
443.83	465.47
444.20	466.65
444.57	468.43
444.94	469.06
445.31	469.92
445.68	470.79
446.05	471.05
446.42	470.47
446.79	469.66
447.16	468.77
447.53	468.08
447.90	465.99
448.27	463.83
448.64	460.91
449.01	458.78
449.37	455.07
449.74	451.56
450.11	447.59
450.48	443.22
450.85	438.60
451.22	434.51
451.59	430.66
451.96	427.06
452.33	422.22
452.70	417.94
453.07	412.75
453.43	407.36
453.80	402.46
454.17	397.58
454.54	393.01
454.91	388.05
455.28	383.38
455.65	378.92
456.02	374.56
456.38	370.79
456.75	366.30
457.12	362.42
457.49	358.60
457.86	354.63
458.23	351.28
458.59	347.77
458.96	344.25
459.33	341.04
459.70	337.87
460.07	335.42
460.43	332.45
460.80	329.59
461.17	327.23
461.54	324.73
461.91	322.35
462.27	320.05
462.64	318.03
463.01	315.85
463.38	313.76
463.74	311.49
464.11	309.61
464.48	307.87
464.85	306.14
465.21	304.80
465.58	303.54
465.95	301.90
466.32	300.50
466.68	299.07
467.05	297.62
467.42	296.14
467.78	294.67
468.15	293.32
468.52	292.45
468.88	291.12
469.25	289.92
469.62	289.09
469.98	288.08
470.35	287.17
470.72	286.30
471.08	285.37
471.45	284.55
471.82	283.65
472.18	282.80
472.55	282.17
472.92	281.39
473.28	280.71
473.65	280.04
474.02	279.45
474.38	279.00
474.75	278.78
475.11	278.45
475.48	278.26
475.85	278.12
476.21	277.84
476.58	277.72
476.94	277.64
477.31	277.55
477.67	277.45
478.04	277.45
478.41	277.58
478.77	277.85
479.14	278.06
479.50	278.48
479.87	278.77
480.23	279.16
480.60	279.52
480.96	279.93
481.33	280.67
481.69	281.21
482.06	281.84
482.42	282.35
482.79	283.06
483.15	283.85
483.52	284.78
483.88	285.80
484.25	286.72
484.61	287.73
484.98	288.79
485.34	290.09
485.71	291.50
486.07	292.81
486.44	294.09
486.80	295.60
487.17	297.10
487.53	298.96
487.90	300.77
488.26	302.72
488.62	304.73
488.99	306.61
489.35	308.82
489.72	310.99
490.08	313.40
490.44	315.90
490.81	318.47
491.17	321.03
491.54	323.83
491.90	326.83
492.26	330.10
492.63	333.53
492.99	336.83
493.36	340.45
493.72	344.35
494.08	348.40
494.45	352.60
494.81	357.09
495.17	361.58
495.54	366.29
495.90	371.33
496.26	376.50
496.63	382.10
496.99	387.83
497.35	394.00
497.72	400.36
498.08	406.85
498.44	413.66
498.80	420.75
499.17	428.22
499.53	435.94
499.89	443.88
500.26	451.90
500.62	460.47
500.98	469.37
501.34	478.47
501.71	487.83
502.07	497.48
502.43	507.48
502.79	517.70
503.16	528.52
503.52	539.42
503.88	550.85
504.24	562.41
504.60	574.41
504.97	586.74
505.33	599.23
505.69	612.49
506.05	625.83
506.41	639.77
506.78	653.53
507.14	667.68
507.50	682.20
507.86	697.31
508.22	712.69
508.59	728.37
508.95	744.37
509.31	760.69
509.67	777.60
510.03	794.78
510.39	812.48
510.75	830.32
511.12	848.62
511.48	866.99
511.84	885.78
512.20	904.56
512.56	923.82
512.92	943.35
513.28	962.89
513.64	982.92
514.00	1002.69
514.37	1023.13
514.73	1044.13
515.09	1065.19
515.45	1086.11
515.81	1107.13
516.17	1128.41
516.53	1149.78
516.89	1171.41
517.25	1193.06
517.61	1214.52
517.97	1235.95
518.33	1257.44
518.69	1278.92
519.05	1301.07
519.41	1323.09
519.77	1345.48
520.13	1367.80
520.49	1390.03
520.85	1412.70
521.21	1435.26
521.57	1458.45
521.93	1480.82
522.29	1503.94
522.65	1526.67
523.01	1549.30
523.37	1571.62
523.73	1594.13
524.09	1616.58
524.45	1639.08
524.81	1661.42
525.17	1684.27
525.53	1706.99
525.89	1729.61
526.25	1751.85
526.61	1773.27
526.97	1795.28
527.33	1816.92
527.68	1838.37
528.04	1859.81
528.40	1880.44
528.76	1901.13
529.12	1921.85
529.48	1943.56
529.84	1963.69
530.20	1984.04
530.56	2004.88
530.91	2026.12
531.27	2046.64
531.63	2067.09
531.99	2086.94
532.35	2106.61
532.71	2125.55
533.07	2145.21
533.42	2163.73
533.78	2183.03
534.14	2201.72
534.50	2218.89
534.86	2237.17
535.21	2254.12
535.57	2272.17
535.93	2289.83
536.29	2307.09
536.65	2323.99
537.00	2339.48
537.36	2355.20
537.72	2370.73
538.08	2385.85
538.44	2401.25
538.79	2416.73
539.15	2431.56
539.51	2446.53
539.87	2462.14
540.22	2477.17
540.58	2492.33
540.94	2507.49
541.29	2520.92
541.65	2533.36
542.01	2547.05
542.37	2558.89
542.72	2571.51
543.08	2582.74
543.44	2594.55
543.79	2605.11
544.15	2615.51
544.51	2626.69
544.87	2637.70
545.22	2647.04
545.58	2655.94
545.94	2663.27
546.29	2669.96
546.65	2676.45
547.01	2682.85
547.36	2688.45
547.72	2693.74
548.07	2697.34
548.43	2701.06
548.79	2705.02
549.14	2710.15
549.50	2714.82
549.86	2719.33
550.21	2723.47
550.57	2727.39
550.92	2729.92
551.28	2732.63
551.64	2735.13
551.99	2737.71
552.35	2739.44
552.70	2742.45
553.06	2745.18
553.41	2748.28
553.77	2751.11
554.13	2753.41
554.48	2755.43
554.84	2756.50
555.19	2757.22
555.55	2758.31
555.90	2759.03
556.26	2759.18
556.61	2758.92
556.97	2757.35
557.32	2757.15
557.68	2755.52
558.03	2754.28
558.39	2753.20
558.74	2752.74
559.10	2751.69
559.45	2749.92
559.81	2748.87
560.16	2746.17
560.52	2743.84
560.87	2740.80
561.23	2737.14
561.58	2734.94
561.94	2731.88
562.29	2728.47
562.64	2726.27
563.00	2723.72
563.35	2721.57
563.71	2719.90
564.06	2717.67
564.42	2716.40
564.77	2713.59
565.12	2711.86
565.48	2708.90
565.83	2705.52
566.19	2702.45
566.54	2698.68
566.89	2694.76
567.25	2691.10
567.60	2688.03
567.96	2683.95
568.31	2680.53
568.66	2676.81
569.02	2672.21
569.37	2667.17
569.72	2663.20
570.08	2657.94
570.43	2652.18
570.78	2646.07
571.14	2639.51
571.49	2633.09
571.84	2626.89
572.20	2619.82
572.55	2613.52
572.90	2606.32
573.26	2599.80
573.61	2592.50
573.96	2585.61
574.31	2577.66
574.67	2569.28
575.02	2560.65
575.37	2552.45
575.72	2543.37
576.08	2535.77
576.43	2527.02
576.78	2518.87
577.13	2510.98
577.49	2502.95
577.84	2495.15
578.19	2487.70
578.54	2480.25
578.90	2473.07
579.25	2463.99
579.60	2454.90
579.95	2445.17
580.30	2437.30
580.66	2428.83
581.01	2419.69
581.36	2410.18
581.71	2401.90
582.06	2392.94
582.42	2384.58
582.77	2375.55
583.12	2366.64
583.47	2357.88
583.82	2349.34
584.17	2340.11
584.53	2330.74
584.88	2321.85
585.23	2312.63
585.58	2302.79
585.93	2293.14
586.28	2283.95
586.63	2275.27
586.98	2267.06
587.34	2258.58
587.69	2249.34
588.04	2240.46
588.39	2232.15
588.74	2223.34
589.09	2214.86
589.44	2205.61
589.79	2196.96
590.14	2188.79
590.49	2180.26
590.84	2171.09
591.19	2163.15
591.54	2154.48
591.89	2144.20
592.25	2134.68
592.60	2125.29
592.95	2115.84
593.30	2106.40
593.65	2096.42
594.00	2086.53
594.35	2078.35
594.70	2069.08
595.05	2060.12
595.40	2050.93
595.75	2041.45
596.10	2033.16
596.45	2024.25
596.80	2016.45
597.15	2007.83
597.50	1998.61
597.85	1990.19
598.19	1981.56
598.54	1972.55
598.89	1964.55
599.24	1957.98
599.59	1950.61
599.94	1943.57
600.29	1936.05
600.64	1927.94
600.99	1919.69
601.34	1912.73
601.69	1903.41
602.04	1895.31
602.39	1887.02
602.74	1879.09
603.08	1872.30
603.43	1864.88
603.78	1857.09
604.13	1848.78
604.48	1840.80
604.83	1833.67
605.18	1826.46
605.53	1818.65
605.87	1810.93
606.22	1803.95
606.57	1796.01
606.92	1787.74
607.27	1779.45
607.62	1771.80
607.96	1765.18
608.31	1758.83
608.66	1750.75
609.01	1743.39
609.36	1735.64
609.70	1727.59
610.05	1719.91
610.40	1711.40
610.75	1702.82
611.10	1694.77
611.44	1685.79
611.79	1677.03
612.14	1667.78
612.49	1658.01
612.83	1649.04
613.18	1639.47
613.53	1629.70
613.88	1619.87
614.22	1610.96
614.57	1601.47
614.92	1592.36
615.27	1582.70
615.61	1572.65
615.96	1563.57
616.31	1555.00
616.65	1546.81
617.00	1538.44
617.35	1529.81
617.70	1520.96
618.04	1511.70
618.39	1502.32
618.74	1493.83
619.08	1484.95
619.43	1476.60
619.78	1468.82
620.12	1460.70
620.47	1452.60
620.82	1444.05
621.16	1435.79
621.51	1427.23
621.85	1419.04
622.20	1410.19
622.55	1401.59
622.89	1393.33
623.24	1385.07
623.59	1376.25
623.93	1367.52
624.28	1359.38
624.62	1350.94
624.97	1342.45
625.32	1334.66
625.66	1327.05
626.01	1319.61
626.35	1312.22
626.70	1304.35
627.04	1296.83
627.39	1289.09
627.73	1281.80
628.08	1274.83
628.43	1267.16
628.77	1259.65
629.12	1252.23
629.46	1245.60
629.81	1238.43
630.15	1231.02
630.50	1223.70
630.84	1216.21
631.19	1209.17
631.53	1202.25
631.88	1194.62
632.22	1187.28
632.57	1180.27
632.91	1172.73
633.26	1165.27
633.60	1158.05
633.95	1151.18
634.29	1143.74
634.64	1137.03
634.98	1129.71
635.32	1122.41
635.67	1116.20
636.01	1109.42
636.36	1102.33
636.70	1095.42
637.05	1088.91
637.39	1082.84
637.73	1076.41
638.08	1070.71
638.42	1064.68
638.77	1058.23
639.11	1051.95
639.45	1045.73
639.80	1038.88
640.14	1032.68
640.49	1026.41
640.83	1020.15
641.17	1013.83
641.52	1007.50
641.86	1000.73
642.20	994.53
642.55	987.90
642.89	981.10
643.23	974.78
643.58	969.00
643.92	962.48
644.26	956.02
644.61	949.61
644.95	943.36
645.29	936.91
645.64	930.33
645.98	923.93
646.32	917.90
646.66	911.75
647.01	906.07
647.35	900.00
647.69	893.78
648.04	887.80
648.38	881.83
648.72	875.92
649.06	869.90
649.41	863.82
649.75	858.16
650.09	852.30
650.43	846.26
650.78	839.85
651.12	833.99
651.46	828.25
651.80	822.24
652.14	816.43
652.49	810.41
652.83	804.54
653.17	798.47
653.51	792.45
653.85	786.71
654.20	780.70
654.54	774.82
654.88	769.25
655.22	763.30
655.56	757.18
655.90	751.46
656.25	746.00
656.59	740.41
656.93	735.10
657.27	730.00
657.61	724.74
657.95	719.70
658.29	714.50
658.64	709.27
658.98	704.00
659.32	698.50
659.66	693.39
660.00	687.98
660.34	682.59
660.68	677.56
661.02	672.50
661.36	667.76
661.70	662.94
662.05	658.19
662.39	653.80
662.73	649.55
663.07	645.15
663.41	640.81
663.75	636.33
664.09	631.53
664.43	626.82
664.77	622.41
665.11	617.95
665.45	613.35
665.79	608.90
666.13	604.63
666.47	600.40
666.81	596.22
667.15	592.05
667.49	588.37
667.83	584.48
668.17	580.36
668.51	576.50
668.85	572.82
669.19	569.04
669.53	564.92
669.87	560.80
670.21	556.86
670.55	552.80
670.89	549.33
671.23	545.89
671.57	542.32
671.91	538.66
672.25	535.05
672.58	531.70
672.92	528.25
673.26	524.95
673.60	521.62
673.94	518.25
674.28	515.02
674.62	511.71
674.96	508.49
675.30	505.50
675.64	502.17
675.97	498.80
676.31	495.67
676.65	492.81
676.99	490.23
677.33	487.19
677.67	484.20
678.01	481.05
678.34	478.11
678.68	475.15
679.02	472.12
679.36	469.26
679.70	466.26
680.04	463.39
680.37	460.50
680.71	457.79
681.05	455.04
681.39	452.36
681.73	449.62
682.06	447.09
682.40	444.51
682.74	441.99
683.08	439.53
683.42	436.82
683.75	434.23
684.09	431.47
684.43	429.01
684.77	426.45
685.10	423.86
685.44	421.22
685.78	418.70
686.12	416.45
686.45	414.14
686.79	411.97
687.13	409.74
687.46	407.45
687.80	405.22
688.14	402.95
688.48	400.77
688.81	398.42
689.15	396.07
689.49	393.82
689.82	391.55
690.16	389.22
690.50	387.03
690.83	384.76
691.17	382.49
691.51	380.26
691.84	378.20
692.18	376.22
692.52	374.26
692.85	372.47
693.19	370.52
693.52	368.51
693.86	366.43
694.20	364.54
694.53	362.58
694.87	360.64
695.21	358.68
695.54	356.73
695.88	354.95
696.21	353.10
696.55	351.17
696.88	349.37
697.22	347.59
697.56	346.06
697.89	344.40
698.23	342.77
698.56	341.22
698.90	339.65
699.23	338.03
699.57	336.43
699.90	334.78
700.24	333.26
700.58	331.67
700.91	330.19
701.25	328.80
701.58	327.43
701.92	326.01
702.25	324.69
702.59	323.30
702.92	321.89
703.26	320.50
703.59	319.29
703.93	318.24
704.26	317.09
704.60	315.75
704.93	314.49
705.26	313.23
705.60	311.98
705.93	310.71
706.27	309.51
706.60	308.40
706.94	307.19
707.27	305.93
707.61	304.88
707.94	303.74
708.27	302.39
708.61	301.19
708.94	300.08
709.28	298.95
709.61	297.82
709.94	296.83
710.28	295.81
710.61	294.83
710.95	293.55
711.28	292.46
711.61	291.32
711.95	290.34
712.28	289.35
712.61	288.36
712.95	287.46
713.28	286.48
713.61	285.51
713.95	284.49
714.28	283.65
714.61	282.64
714.95	281.71
715.28	280.86
715.61	279.90
715.95	278.89
716.28	278.05
716.61	277.22
716.95	276.34
717.28	275.56
717.61	274.70
717.94	273.96
718.28	273.14
718.61	272.43
718.94	271.59
719.27	270.88
719.61	270.12
719.94	269.35
720.27	268.67
720.60	267.87
720.94	267.21
721.27	266.48
721.60	265.85
721.93	265.26
722.27	264.65
722.60	264.04
722.93	263.39
723.26	262.75
723.59	262.17
723.93	261.58
724.26	260.90
724.59	260.29
724.92	259.70
725.25	259.15
725.59	258.61
725.92	258.06
726.25	257.56
726.58	257.12
726.91	256.70
727.24	256.18
727.57	255.74
727.91	255.18
728.24	254.67
728.57	254.20
728.90	253.74
729.23	253.21
729.56	252.80
729.89	252.43
730.22	251.95
730.55	251.44
730.89	250.92
731.22	250.45
731.55	250.01
731.88	249.50
732.21	248.99
732.54	248.49
732.87	248.12
733.20	247.68
733.53	247.18
733.86	246.73
734.19	246.30
734.52	245.87
734.85	245.64
735.18	245.17
735.51	244.79
735.84	244.36
736.17	243.99
736.50	243.52
736.83	243.31
737.16	242.99
737.49	242.64
737.82	242.33
738.15	241.97
738.48	241.61
738.81	241.27
739.14	240.95
739.47	240.56
739.80	240.19
740.13	239.84
740.46	239.43
740.79	238.99
741.12	238.65
741.45	238.32
741.78	237.95
742.11	237.73
742.44	237.44
742.77	237.10
743.10	236.80
743.43	236.49
743.75	235.97
744.08	235.86
744.41	235.50
744.74	235.17
745.07	234.82
745.40	234.48
745.73	234.28
746.06	233.97
746.39	233.76
746.71	233.47
747.04	233.18
747.37	232.93
747.70	232.74
748.03	232.51
748.36	232.25
748.68	231.92
749.01	231.56
749.34	231.26
749.67	231.03
750.00	230.83
750.33	230.77
750.65	230.63
750.98	230.19
751.31	230.06
751.64	229.86
751.97	229.73
752.29	229.55
752.62	229.26
752.95	229.04
753.28	228.77
753.60	228.54
753.93	228.36
754.26	228.19
754.59	227.87
754.91	227.64
755.24	227.50
755.57	227.29
755.90	227.13
756.22	226.90
756.55	226.74
756.88	226.43
757.20	226.08
757.53	225.77
757.86	225.58
758.19	225.30
758.51	225.09
758.84	224.94
759.17	224.67
759.49	224.46
759.82	224.42
760.15	224.30
760.47	224.20
760.80	223.98
761.13	223.80
761.45	223.69
761.78	223.52
762.11	223.39
762.43	223.27
762.76	223.09
763.08	223.05
763.41	222.94
763.74	222.86
764.06	222.70
764.39	222.62
764.71	222.44
765.04	222.36
765.37	222.26
765.69	222.11
766.02	222.01
766.34	221.97
766.67	221.73
767.00	221.68
767.32	221.65
767.65	221.63
767.97	221.48
768.30	221.42
768.62	221.20
768.95	221.01
769.27	220.88
769.60	220.86
769.92	220.70
770.25	220.51
770.57	220.35
770.90	220.25
771.22	220.10
771.55	220.00
771.87	219.89
772.20	219.74
772.52	219.78
772.85	219.95
773.17	219.81
773.50	219.79
773.82	219.58
774.15	219.37
774.47	219.16
774.80	219.08
775.12	218.99
775.45	218.93
775.77	218.87
776.09	218.82
776.42	218.74
776.74	218.64
777.07	218.57
777.39	218.56
777.72	218.47
778.04	218.42
778.36	218.33
778.69	218.29
779.01	218.33
779.33	218.09
779.66	217.82
779.98	217.74
780.31	217.62
780.63	217.56
780.95	217.52
781.28	217.38
781.60	217.35
781.92	217.22
782.25	217.22
782.57	217.14
782.89	217.06
783.22	216.99
783.54	216.92
783.86	216.86
784.19	216.75
784.51	216.81
784.83	216.71
785.16	216.68
785.48	216.65
785.80	216.57
786.12	216.50
786.45	216.42
