SpectraSuite Data File
++++++++++++++++++++++++++++++++++++
Date: Mon Feb 25 17:36:00 EST 2013
User: group
Dark Spectrum Present: No
Reference Spectrum Present: No
Number of Sampled Component Spectra: 1
Spectrometers: USB2E7196
Integration Time (usec): 52000 (USB2E7196)
Spectra Averaged: 20 (USB2E7196)
Boxcar Smoothing: 10 (USB2E7196)
Correct for Electrical Dark: No (USB2E7196)
Strobe/Lamp Enabled: No (USB2E7196)
Correct for Detector Non-linearity: No (USB2E7196)
Correct for Stray Light: No (USB2E7196)
Number of Pixels in Processed Spectrum: 2048
>>>>>Begin Processed Spectral Data<<<<<
339.09	0.00
339.48	198.05
339.86	200.30
340.24	201.65
340.63	202.90
341.01	206.05
341.39	206.35
341.78	206.65
342.16	207.55
342.54	209.05
342.93	198.05
343.31	208.06
343.69	208.66
344.07	209.10
344.46	209.60
344.84	210.09
345.22	210.45
345.60	210.83
345.99	211.15
346.37	211.47
346.75	211.67
347.13	211.82
347.52	212.05
347.90	212.27
348.28	212.36
348.66	212.60
349.05	212.69
349.43	212.85
349.81	213.04
350.19	213.15
350.57	213.30
350.96	213.51
351.34	213.74
351.72	213.88
352.10	214.11
352.48	214.21
352.87	214.27
353.25	214.38
353.63	214.47
354.01	214.54
354.39	214.63
354.77	214.70
355.15	214.81
355.54	214.89
355.92	214.88
356.30	214.96
356.68	215.10
357.06	215.13
357.44	215.21
357.82	215.25
358.20	215.38
358.58	215.47
358.97	215.62
359.35	215.69
359.73	215.82
360.11	215.85
360.49	215.90
360.87	215.96
361.25	216.03
361.63	216.02
362.01	216.05
362.39	216.04
362.77	216.13
363.15	216.22
363.53	216.27
363.91	216.35
364.29	216.40
364.67	216.27
365.05	216.33
365.43	216.35
365.81	216.34
366.19	216.38
366.57	216.45
366.95	216.45
367.33	216.45
367.71	216.44
368.09	216.55
368.47	216.57
368.85	216.57
369.23	216.55
369.61	216.56
369.99	216.68
370.37	216.70
370.75	216.75
371.13	216.61
371.51	216.48
371.89	216.46
372.27	216.38
372.65	216.30
373.03	216.29
373.41	216.27
373.78	216.25
374.16	216.16
374.54	216.11
374.92	216.06
375.30	215.97
375.68	215.99
376.06	215.90
376.44	215.81
376.82	215.86
377.19	215.77
377.57	215.70
377.95	215.63
378.33	215.54
378.71	215.38
379.09	215.41
379.47	215.47
379.84	215.43
380.22	215.37
380.60	215.30
380.98	215.17
381.36	215.09
381.73	215.06
382.11	215.04
382.49	214.96
382.87	214.82
383.25	214.78
383.62	214.95
384.00	214.93
384.38	214.90
384.76	214.85
385.13	214.97
385.51	215.00
385.89	214.92
386.27	214.92
386.64	214.92
387.02	214.94
387.40	214.83
387.78	214.79
388.15	214.83
388.53	214.86
388.91	214.90
389.29	214.96
389.66	215.06
390.04	215.10
390.42	215.19
390.79	215.28
391.17	215.36
391.55	215.17
391.92	215.16
392.30	215.25
392.68	215.19
393.05	215.17
393.43	215.23
393.81	215.28
394.18	215.35
394.56	215.45
394.94	215.54
395.31	215.64
395.69	215.79
396.06	215.87
396.44	215.98
396.82	216.05
397.19	216.26
397.57	216.27
397.95	216.47
398.32	216.53
398.70	216.66
399.07	216.86
399.45	217.03
399.82	217.24
400.20	217.44
400.58	217.78
400.95	218.03
401.33	218.31
401.70	218.77
402.08	219.04
402.45	219.39
402.83	219.84
403.20	220.27
403.58	220.64
403.95	221.20
404.33	221.82
404.71	222.40
405.08	223.03
405.46	223.81
405.83	224.50
406.21	225.34
406.58	226.21
406.96	227.10
407.33	228.12
407.70	229.34
408.08	230.73
408.45	232.00
408.83	233.46
409.20	234.93
409.58	236.39
409.95	238.19
410.33	240.17
410.70	242.13
411.08	244.23
411.45	246.60
411.82	248.98
412.20	251.58
412.57	254.66
412.95	257.54
413.32	260.72
413.69	264.14
414.07	267.71
414.44	271.80
414.82	275.94
415.19	280.62
415.56	285.42
415.94	290.64
416.31	296.42
416.68	302.08
417.06	308.51
417.43	314.56
417.81	321.85
418.18	329.13
418.55	337.10
418.93	345.58
419.30	354.25
419.67	363.54
420.04	373.20
420.42	383.33
420.79	394.63
421.16	406.51
421.54	418.39
421.91	431.03
422.28	444.16
422.66	458.23
423.03	471.64
423.40	485.93
423.77	501.34
424.15	517.05
424.52	533.51
424.89	551.38
425.26	569.11
425.64	585.87
426.01	604.45
426.38	623.92
426.75	643.56
427.13	664.29
427.50	685.85
427.87	708.55
428.24	731.57
428.61	753.76
428.99	777.23
429.36	803.57
429.73	829.35
430.10	854.78
430.47	881.13
430.85	909.18
431.22	938.46
431.59	968.92
431.96	998.94
432.33	1032.18
432.70	1064.25
433.08	1101.97
433.45	1137.52
433.82	1173.14
434.19	1212.39
434.56	1250.85
434.93	1288.33
435.30	1325.97
435.68	1367.62
436.05	1408.87
436.42	1450.41
436.79	1488.51
437.16	1529.51
437.53	1572.91
437.90	1616.11
438.27	1658.50
438.64	1703.10
439.01	1744.37
439.38	1782.28
439.75	1818.11
440.13	1859.30
440.50	1898.40
440.87	1930.77
441.24	1965.05
441.61	2002.27
441.98	2031.20
442.35	2064.41
442.72	2097.20
443.09	2129.05
443.46	2150.30
443.83	2165.92
444.20	2180.25
444.57	2199.32
444.94	2210.45
445.31	2221.54
445.68	2231.10
446.05	2238.62
446.42	2238.64
446.79	2237.36
447.16	2235.83
447.53	2236.25
447.90	2224.74
448.27	2213.59
448.64	2195.90
449.01	2183.37
449.37	2158.43
449.74	2134.70
450.11	2104.86
450.48	2073.93
450.85	2041.86
451.22	2014.34
451.59	1987.50
451.96	1962.10
452.33	1926.77
452.70	1895.14
453.07	1857.06
453.43	1819.33
453.80	1781.66
454.17	1745.39
454.54	1711.99
454.91	1674.97
455.28	1639.00
455.65	1605.43
456.02	1569.49
456.38	1540.59
456.75	1504.09
457.12	1474.62
457.49	1444.71
457.86	1416.90
458.23	1391.07
458.59	1363.17
458.96	1334.91
459.33	1310.28
459.70	1284.83
460.07	1265.16
460.43	1242.38
460.80	1220.58
461.17	1201.55
461.54	1181.51
461.91	1162.54
462.27	1143.04
462.64	1126.80
463.01	1108.42
463.38	1090.18
463.74	1074.23
464.11	1058.77
464.48	1045.44
464.85	1030.42
465.21	1018.86
465.58	1006.26
465.95	991.82
466.32	979.80
466.68	967.48
467.05	955.21
467.42	943.22
467.78	930.62
468.15	918.77
468.52	909.65
468.88	898.40
469.25	888.20
469.62	879.85
469.98	871.01
470.35	862.94
470.72	855.07
471.08	847.20
471.45	840.02
471.82	832.48
472.18	824.45
472.55	818.76
472.92	811.87
473.28	806.20
473.65	800.61
474.02	794.89
474.38	790.40
474.75	786.29
475.11	782.01
475.48	778.58
475.85	775.56
476.21	772.79
476.58	770.26
476.94	768.53
477.31	766.21
477.67	764.10
478.04	762.35
478.41	761.25
478.77	760.17
479.14	759.08
479.50	759.15
479.87	759.74
480.23	760.30
480.60	760.51
480.96	760.82
481.33	762.10
481.69	763.83
482.06	764.94
482.42	766.06
482.79	767.60
483.15	770.44
483.52	773.99
483.88	776.98
484.25	780.29
484.61	783.60
484.98	787.20
485.34	791.63
485.71	796.29
486.07	801.45
486.44	806.87
486.80	812.53
487.17	818.35
487.53	825.08
487.90	832.06
488.26	839.57
488.62	847.29
488.99	855.36
489.35	863.55
489.72	872.74
490.08	882.66
490.44	892.53
490.81	902.23
491.17	911.85
491.54	922.89
491.90	933.65
492.26	945.48
492.63	957.72
492.99	970.39
493.36	983.54
493.72	997.03
494.08	1010.95
494.45	1026.03
494.81	1041.54
495.17	1056.94
495.54	1073.36
495.90	1090.74
496.26	1107.91
496.63	1125.51
496.99	1143.23
497.35	1161.47
497.72	1180.21
498.08	1199.19
498.44	1218.63
498.80	1238.98
499.17	1259.21
499.53	1280.34
499.89	1301.77
500.26	1323.25
500.62	1344.37
500.98	1366.60
501.34	1389.08
501.71	1411.75
502.07	1434.59
502.43	1457.62
502.79	1480.78
503.16	1504.03
503.52	1526.93
503.88	1550.27
504.24	1573.59
504.60	1597.93
504.97	1622.73
505.33	1646.76
505.69	1672.55
506.05	1697.71
506.41	1722.20
506.78	1746.88
507.14	1771.60
507.50	1796.47
507.86	1821.69
508.22	1847.41
508.59	1872.19
508.95	1897.15
509.31	1922.12
509.67	1947.58
510.03	1973.05
510.39	1998.87
510.75	2023.87
511.12	2048.27
511.48	2072.84
511.84	2097.41
512.20	2120.81
512.56	2144.79
512.92	2169.17
513.28	2192.92
513.64	2216.67
514.00	2240.33
514.37	2263.92
514.73	2287.20
515.09	2309.93
515.45	2332.39
515.81	2354.67
516.17	2377.44
516.53	2399.50
516.89	2421.23
517.25	2441.33
517.61	2461.01
517.97	2480.27
518.33	2499.27
518.69	2518.88
519.05	2538.80
519.41	2558.11
519.77	2577.91
520.13	2596.24
520.49	2613.63
520.85	2630.07
521.21	2646.92
521.57	2664.46
521.93	2679.84
522.29	2697.14
522.65	2713.05
523.01	2729.25
523.37	2744.35
523.73	2758.96
524.09	2772.84
524.45	2787.06
524.81	2800.93
525.17	2815.58
525.53	2830.00
525.89	2844.52
526.25	2858.69
526.61	2870.82
526.97	2883.80
527.33	2896.11
527.68	2908.93
528.04	2921.55
528.40	2933.88
528.76	2945.93
529.12	2957.14
529.48	2969.27
529.84	2978.30
530.20	2988.89
530.56	2998.96
530.91	3009.95
531.27	3020.40
531.63	3031.53
531.99	3041.29
532.35	3050.81
532.71	3060.03
533.07	3070.60
533.42	3080.20
533.78	3090.42
534.14	3100.44
534.50	3108.78
534.86	3117.99
535.21	3125.15
535.57	3133.39
535.93	3140.88
536.29	3147.80
536.65	3156.27
537.00	3163.32
537.36	3171.12
537.72	3177.99
538.08	3185.34
538.44	3192.17
538.79	3199.16
539.15	3205.62
539.51	3213.05
539.87	3221.44
540.22	3227.58
540.58	3233.35
540.94	3239.58
541.29	3243.40
541.65	3246.21
542.01	3250.24
542.37	3254.07
542.72	3258.82
543.08	3262.88
543.44	3267.21
543.79	3270.96
544.15	3273.22
544.51	3277.88
544.87	3282.16
545.22	3285.36
545.58	3286.83
545.94	3288.17
546.29	3289.15
546.65	3290.08
547.01	3290.64
547.36	3291.30
547.72	3292.80
548.07	3292.55
548.43	3291.37
548.79	3291.04
549.14	3292.95
549.50	3293.67
549.86	3294.49
550.21	3294.35
550.57	3294.58
550.92	3294.13
551.28	3292.84
551.64	3291.42
551.99	3289.96
552.35	3288.20
552.70	3287.37
553.06	3287.12
553.41	3286.88
553.77	3286.40
554.13	3285.79
554.48	3286.31
554.84	3285.52
555.19	3284.18
555.55	3284.58
555.90	3284.71
556.26	3284.74
556.61	3283.92
556.97	3282.08
557.32	3279.28
557.68	3277.09
558.03	3274.23
558.39	3272.24
558.74	3272.27
559.10	3272.08
559.45	3271.77
559.81	3271.48
560.16	3269.82
560.52	3268.70
560.87	3267.10
561.23	3263.87
561.58	3261.73
561.94	3257.86
562.29	3254.23
562.64	3251.53
563.00	3247.10
563.35	3242.90
563.71	3239.81
564.06	3236.40
564.42	3234.34
564.77	3231.81
565.12	3228.69
565.48	3226.20
565.83	3223.55
566.19	3221.54
566.54	3218.66
566.89	3214.36
567.25	3210.22
567.60	3207.23
567.96	3202.66
568.31	3197.97
568.66	3194.96
569.02	3191.49
569.37	3187.80
569.72	3184.73
570.08	3181.37
570.43	3176.80
570.78	3174.18
571.14	3170.35
571.49	3166.58
571.84	3163.45
572.20	3159.06
572.55	3156.14
572.90	3151.33
573.26	3146.45
573.61	3139.53
573.96	3132.74
574.31	3126.39
574.67	3120.55
575.02	3113.65
575.37	3106.95
575.72	3100.78
576.08	3094.29
576.43	3087.23
576.78	3080.05
577.13	3072.61
577.49	3065.09
577.84	3058.70
578.19	3050.20
578.54	3042.38
578.90	3035.09
579.25	3025.84
579.60	3016.84
579.95	3007.58
580.30	3000.35
580.66	2992.70
581.01	2984.63
581.36	2975.65
581.71	2967.28
582.06	2959.33
582.42	2952.10
582.77	2943.81
583.12	2935.13
583.47	2926.06
583.82	2916.90
584.17	2907.73
584.53	2899.37
584.88	2890.06
585.23	2881.13
585.58	2873.11
585.93	2864.11
586.28	2855.58
586.63	2847.84
586.98	2840.57
587.34	2832.14
587.69	2822.68
588.04	2813.16
588.39	2804.33
588.74	2795.02
589.09	2786.23
589.44	2775.12
589.79	2764.89
590.14	2756.03
590.49	2745.98
590.84	2737.25
591.19	2728.60
591.54	2719.44
591.89	2709.06
592.25	2699.78
592.60	2688.80
592.95	2677.45
593.30	2666.60
593.65	2655.28
594.00	2644.44
594.35	2634.45
594.70	2623.88
595.05	2613.59
595.40	2603.24
595.75	2591.76
596.10	2581.95
596.45	2571.23
596.80	2562.46
597.15	2552.45
597.50	2541.92
597.85	2532.58
598.19	2521.16
598.54	2510.31
598.89	2500.15
599.24	2489.99
599.59	2479.48
599.94	2469.90
600.29	2459.59
600.64	2449.33
600.99	2437.90
601.34	2427.48
601.69	2415.48
602.04	2404.79
602.39	2394.39
602.74	2384.88
603.08	2376.62
603.43	2368.18
603.78	2358.60
604.13	2347.77
604.48	2336.84
604.83	2327.20
605.18	2316.87
605.53	2307.17
605.87	2296.25
606.22	2286.16
606.57	2275.83
606.92	2264.25
607.27	2253.32
607.62	2243.80
607.96	2234.25
608.31	2225.59
608.66	2215.13
609.01	2205.18
609.36	2194.51
609.70	2183.36
610.05	2171.02
610.40	2158.50
610.75	2145.92
611.10	2134.21
611.44	2121.93
611.79	2111.11
612.14	2098.80
612.49	2086.48
612.83	2074.91
613.18	2063.03
613.53	2050.98
613.88	2037.93
614.22	2026.56
614.57	2015.06
614.92	2002.55
615.27	1990.23
615.61	1976.94
615.96	1964.42
616.31	1953.08
616.65	1942.42
617.00	1931.43
617.35	1920.32
617.70	1908.88
618.04	1897.78
618.39	1886.73
618.74	1876.13
619.08	1863.84
619.43	1852.15
619.78	1841.47
620.12	1831.08
620.47	1820.87
620.82	1809.70
621.16	1799.65
621.51	1789.16
621.85	1778.05
622.20	1767.21
622.55	1756.01
622.89	1746.00
623.24	1735.95
623.59	1724.85
623.93	1713.87
624.28	1703.26
624.62	1692.96
624.97	1682.56
625.32	1671.73
625.66	1660.85
626.01	1650.64
626.35	1641.66
626.70	1632.55
627.04	1622.69
627.39	1612.15
627.73	1602.24
628.08	1592.79
628.43	1583.23
628.77	1574.11
629.12	1564.86
629.46	1555.33
629.81	1545.91
630.15	1535.65
630.50	1525.33
630.84	1515.34
631.19	1504.70
631.53	1494.50
631.88	1484.38
632.22	1474.99
632.57	1465.80
632.91	1456.45
633.26	1447.16
633.60	1436.74
633.95	1427.03
634.29	1417.65
634.64	1408.69
634.98	1399.25
635.32	1390.26
635.67	1381.42
636.01	1372.24
636.36	1363.02
636.70	1354.18
637.05	1345.37
637.39	1337.07
637.73	1328.60
638.08	1320.86
638.42	1313.60
638.77	1305.87
639.11	1297.74
639.45	1289.60
639.80	1280.99
640.14	1272.79
640.49	1264.12
640.83	1256.06
641.17	1247.85
641.52	1239.60
641.86	1230.90
642.20	1222.66
642.55	1213.96
642.89	1205.12
643.23	1196.29
643.58	1187.98
643.92	1179.47
644.26	1170.93
644.61	1162.51
644.95	1154.25
645.29	1145.77
645.64	1136.86
645.98	1128.64
646.32	1120.71
646.66	1112.41
647.01	1104.64
647.35	1096.32
647.69	1088.05
648.04	1080.23
648.38	1071.98
648.72	1064.11
649.06	1056.28
649.41	1048.28
649.75	1040.00
650.09	1032.55
650.43	1025.45
650.78	1017.90
651.12	1010.63
651.46	1003.76
651.80	996.97
652.14	990.19
652.49	982.94
652.83	975.71
653.17	967.59
653.51	959.97
653.85	952.89
654.20	945.71
654.54	938.88
654.88	932.10
655.22	924.98
655.56	917.68
655.90	910.27
656.25	903.21
656.59	896.46
656.93	890.19
657.27	883.45
657.61	876.34
657.95	870.02
658.29	863.50
658.64	856.81
658.98	850.08
659.32	843.13
659.66	836.71
660.00	830.27
660.34	824.54
660.68	818.46
661.02	811.85
661.36	805.83
661.70	799.79
662.05	794.06
662.39	788.55
662.73	783.42
663.07	778.30
663.41	773.06
663.75	767.67
664.09	762.01
664.43	756.20
664.77	750.71
665.11	745.31
665.45	740.04
665.79	734.73
666.13	729.65
666.47	724.84
666.81	719.90
667.15	715.14
667.49	710.00
667.83	705.35
668.17	700.70
668.51	696.04
668.85	691.37
669.19	686.51
669.53	681.50
669.87	676.56
670.21	671.71
670.55	666.75
670.89	662.06
671.23	657.76
671.57	653.42
671.91	649.00
672.25	644.47
672.58	639.95
672.92	635.77
673.26	631.62
673.60	627.45
673.94	623.35
674.28	619.37
674.62	615.47
674.96	611.22
675.30	607.59
675.64	603.74
675.97	600.09
676.31	596.59
676.65	593.17
676.99	590.00
677.33	586.42
677.67	583.07
678.01	579.42
678.34	575.64
678.68	572.21
679.02	568.64
679.36	565.10
679.70	561.67
680.04	558.13
680.37	554.63
680.71	551.18
681.05	547.74
681.39	544.44
681.73	541.27
682.06	538.26
682.40	534.85
682.74	531.31
683.08	527.82
683.42	524.48
683.75	521.01
684.09	517.38
684.43	514.07
684.77	510.77
685.10	507.59
685.44	504.46
685.78	501.30
686.12	498.21
686.45	495.19
686.79	492.19
687.13	489.44
687.46	486.47
687.80	483.63
688.14	480.72
688.48	477.81
688.81	474.81
689.15	471.97
689.49	469.05
689.82	466.22
690.16	463.23
690.50	460.30
690.83	457.68
691.17	454.92
691.51	452.19
691.84	449.51
692.18	446.91
692.52	444.36
692.85	441.82
693.19	439.40
693.52	436.90
693.86	434.35
694.20	431.69
694.53	429.05
694.87	426.23
695.21	423.54
695.54	420.95
695.88	418.59
696.21	416.17
696.55	414.00
696.88	411.85
697.22	409.71
697.56	407.58
697.89	405.32
698.23	403.30
698.56	401.13
698.90	399.09
699.23	396.98
699.57	394.85
699.90	392.68
700.24	390.41
700.58	388.39
700.91	386.41
701.25	384.51
701.58	382.75
701.92	381.24
702.25	379.65
702.59	377.86
702.92	376.00
703.26	374.14
703.59	372.20
703.93	370.57
704.26	368.91
704.60	367.02
704.93	365.18
705.26	363.25
705.60	361.65
705.93	360.10
706.27	358.54
706.60	357.01
706.94	355.57
707.27	354.04
707.61	352.32
707.94	350.62
708.27	348.90
708.61	347.25
708.94	345.50
709.28	343.80
709.61	342.23
709.94	340.64
710.28	338.97
710.61	337.57
710.95	335.75
711.28	334.34
711.61	332.96
711.95	331.67
712.28	330.37
712.61	329.02
712.95	327.55
713.28	326.25
713.61	324.80
713.95	323.43
714.28	322.30
714.61	321.20
714.95	320.09
715.28	318.93
715.61	317.58
715.95	316.39
716.28	315.20
716.61	314.07
716.95	312.88
717.28	311.78
717.61	310.66
717.94	309.64
718.28	308.48
718.61	307.38
718.94	306.28
719.27	305.21
719.61	304.15
719.94	303.14
720.27	302.02
720.60	301.08
720.94	300.10
721.27	299.12
721.60	298.28
721.93	297.40
722.27	296.46
722.60	295.70
722.93	294.81
723.26	293.98
723.59	293.11
723.93	292.35
724.26	291.52
724.59	290.63
724.92	289.83
725.25	289.02
725.59	288.23
725.92	287.47
726.25	286.79
726.58	285.95
726.91	285.03
727.24	284.24
727.57	283.49
727.91	282.75
728.24	281.95
728.57	281.04
728.90	280.23
729.23	279.46
729.56	278.78
729.89	277.89
730.22	277.10
730.55	276.35
730.89	275.59
731.22	274.90
731.55	274.24
731.88	273.59
732.21	272.87
732.54	272.17
732.87	271.45
733.20	270.74
733.53	270.26
733.86	269.79
734.19	269.26
734.52	268.67
734.85	268.15
735.18	267.60
735.51	267.00
735.84	266.47
736.17	265.85
736.50	265.19
736.83	264.98
737.16	264.53
737.49	264.00
737.82	263.46
738.15	262.96
738.48	262.40
738.81	261.89
739.14	261.33
739.47	260.88
739.80	260.42
740.13	260.04
740.46	259.43
740.79	258.88
741.12	258.35
741.45	257.85
741.78	257.27
742.11	256.68
742.44	256.18
742.77	255.68
743.10	255.20
743.43	254.62
743.75	253.90
744.08	253.62
744.41	253.18
744.74	252.65
745.07	252.21
745.40	251.76
745.73	251.37
746.06	250.94
746.39	250.44
746.71	249.98
747.04	249.35
747.37	248.92
747.70	248.43
748.03	247.97
748.36	247.56
748.68	247.09
749.01	246.71
749.34	246.31
749.67	245.92
750.00	245.61
750.33	245.47
750.65	245.11
750.98	244.52
751.31	244.09
751.64	243.79
751.97	243.40
752.29	243.03
752.62	242.59
752.95	242.17
753.28	241.83
753.60	241.45
753.93	241.18
754.26	240.75
754.59	240.37
754.91	240.00
755.24	239.64
755.57	239.30
755.90	239.00
756.22	238.65
756.55	238.32
756.88	237.96
757.20	237.53
757.53	237.21
757.86	236.91
758.19	236.62
758.51	236.34
758.84	235.93
759.17	235.60
759.49	235.35
759.82	235.16
760.15	234.89
760.47	234.61
760.80	234.26
761.13	234.08
761.45	233.81
761.78	233.54
762.11	233.29
762.43	233.07
762.76	232.79
763.08	232.57
763.41	232.31
763.74	232.06
764.06	231.86
764.39	231.60
764.71	231.30
765.04	231.05
765.37	230.74
765.69	230.56
766.02	230.44
766.34	230.16
766.67	229.90
767.00	229.80
767.32	229.72
767.65	229.61
767.97	229.44
768.30	229.30
768.62	229.07
768.95	228.81
769.27	228.48
769.60	228.24
769.92	227.96
770.25	227.75
770.57	227.50
770.90	227.26
771.22	227.12
771.55	226.96
771.87	226.77
772.20	226.67
772.52	226.62
772.85	226.56
773.17	226.33
773.50	226.13
773.82	225.84
774.15	225.65
774.47	225.49
774.80	225.30
775.12	225.10
775.45	224.97
775.77	224.88
776.09	224.82
776.42	224.70
776.74	224.67
777.07	224.48
777.39	224.38
777.72	224.20
778.04	224.05
778.36	224.00
778.69	223.92
779.01	223.80
779.33	223.56
779.66	223.26
779.98	223.19
780.31	223.08
780.63	223.09
780.95	222.97
781.28	222.79
781.60	222.72
781.92	222.63
782.25	222.56
782.57	222.48
