SpectraSuite Data File
++++++++++++++++++++++++++++++++++++
Date: Mon Feb 25 17:31:16 EST 2013
User: group
Dark Spectrum Present: No
Reference Spectrum Present: No
Number of Sampled Component Spectra: 1
Spectrometers: USB2E7196
Integration Time (usec): 52000 (USB2E7196)
Spectra Averaged: 20 (USB2E7196)
Boxcar Smoothing: 10 (USB2E7196)
Correct for Electrical Dark: No (USB2E7196)
Strobe/Lamp Enabled: No (USB2E7196)
Correct for Detector Non-linearity: No (USB2E7196)
Correct for Stray Light: No (USB2E7196)
Number of Pixels in Processed Spectrum: 2048
>>>>>Begin Processed Spectral Data<<<<<
339.09	0.00
339.48	199.35
339.86	199.40
340.24	201.30
340.63	203.25
341.01	206.50
341.39	206.20
341.78	207.05
342.16	208.80
342.54	207.40
342.93	197.77
343.31	207.74
343.69	208.27
344.07	208.74
344.46	209.16
344.84	209.55
345.22	209.74
345.60	209.98
345.99	210.22
346.37	210.32
346.75	210.48
347.13	210.60
347.52	210.71
347.90	210.79
348.28	210.75
348.66	210.75
349.05	210.78
349.43	210.86
349.81	210.93
350.19	211.03
350.57	211.20
350.96	211.30
351.34	211.39
351.72	211.45
352.10	211.61
352.48	211.71
352.87	211.75
353.25	211.87
353.63	211.96
354.01	212.04
354.39	212.17
354.77	212.35
355.15	212.45
355.54	212.56
355.92	212.63
356.30	212.82
356.68	213.05
357.06	213.07
357.44	213.20
357.82	213.28
358.20	213.40
358.58	213.42
358.97	213.49
359.35	213.69
359.73	213.86
360.11	213.95
360.49	214.07
360.87	214.09
361.25	214.13
361.63	214.15
362.01	214.18
362.39	214.19
362.77	214.22
363.15	214.28
363.53	214.31
363.91	214.42
364.29	214.46
364.67	214.27
365.05	214.36
365.43	214.37
365.81	214.43
366.19	214.46
366.57	214.56
366.95	214.59
367.33	214.52
367.71	214.45
368.09	214.44
368.47	214.42
368.85	214.43
369.23	214.49
369.61	214.46
369.99	214.55
370.37	214.53
370.75	214.56
371.13	214.48
371.51	214.34
371.89	214.24
372.27	214.10
372.65	214.13
373.03	214.12
373.41	214.09
373.78	214.09
374.16	213.95
374.54	213.88
374.92	213.75
375.30	213.73
375.68	213.70
376.06	213.65
376.44	213.64
376.82	213.63
377.19	213.53
377.57	213.54
377.95	213.35
378.33	213.32
378.71	213.15
379.09	213.17
379.47	213.17
379.84	213.09
380.22	213.12
380.60	212.97
380.98	212.88
381.36	212.81
381.73	212.69
382.11	212.75
382.49	212.67
382.87	212.68
383.25	212.54
383.62	212.62
384.00	212.50
384.38	212.36
384.76	212.34
385.13	212.41
385.51	212.25
385.89	212.19
386.27	212.10
386.64	212.07
387.02	211.98
387.40	211.93
387.78	211.90
388.15	211.79
388.53	211.83
388.91	211.87
389.29	211.80
389.66	211.69
390.04	211.63
390.42	211.68
390.79	211.64
391.17	211.66
391.55	211.46
391.92	211.49
392.30	211.51
392.68	211.45
393.05	211.40
393.43	211.49
393.81	211.51
394.18	211.50
394.56	211.51
394.94	211.54
395.31	211.53
395.69	211.58
396.06	211.65
396.44	211.67
396.82	211.63
397.19	211.73
397.57	211.79
397.95	211.75
398.32	211.64
398.70	211.64
399.07	211.71
399.45	211.76
399.82	211.79
400.20	211.85
400.58	211.88
400.95	211.80
401.33	211.76
401.70	211.92
402.08	211.90
402.45	211.93
402.83	211.99
403.20	212.04
403.58	212.07
403.95	212.17
404.33	212.26
404.71	212.33
405.08	212.43
405.46	212.56
405.83	212.74
406.21	212.88
406.58	213.07
406.96	213.20
407.33	213.40
407.70	213.58
408.08	213.91
408.45	214.12
408.83	214.34
409.20	214.60
409.58	214.75
409.95	215.16
410.33	215.51
410.70	215.76
411.08	216.16
411.45	216.50
411.82	216.78
412.20	217.26
412.57	217.76
412.95	218.17
413.32	218.70
413.69	219.21
414.07	219.79
414.44	220.34
414.82	220.98
415.19	221.60
415.56	222.31
415.94	222.98
416.31	223.85
416.68	224.74
417.06	225.81
417.43	226.80
417.81	227.79
418.18	228.84
418.55	230.00
418.93	231.28
419.30	232.61
419.67	234.01
420.04	235.34
420.42	236.82
420.79	238.58
421.16	240.30
421.54	242.13
421.91	243.96
422.28	245.88
422.66	247.85
423.03	249.95
423.40	251.97
423.77	254.12
424.15	256.28
424.52	258.61
424.89	261.06
425.26	263.50
425.64	265.88
426.01	268.48
426.38	271.08
426.75	273.71
427.13	276.46
427.50	279.38
427.87	282.38
428.24	285.35
428.61	288.16
428.99	291.27
429.36	294.67
429.73	298.06
430.10	301.51
430.47	304.99
430.85	308.55
431.22	312.37
431.59	316.53
431.96	320.59
432.33	324.89
432.70	328.95
433.08	333.78
433.45	338.38
433.82	342.95
434.19	348.15
434.56	353.12
434.93	357.86
435.30	362.56
435.68	367.77
436.05	372.85
436.42	377.93
436.79	382.57
437.16	387.62
437.53	392.97
437.90	398.22
438.27	403.22
438.64	408.55
439.01	413.41
439.38	417.60
439.75	421.65
440.13	426.43
440.50	430.99
440.87	434.63
441.24	438.32
441.61	442.52
441.98	445.54
442.35	449.03
442.72	452.62
443.09	455.98
443.46	458.01
443.83	459.41
444.20	460.52
444.57	462.39
444.94	463.00
445.31	463.67
445.68	464.22
446.05	464.52
446.42	463.90
446.79	463.16
447.16	462.40
447.53	461.78
447.90	459.52
448.27	457.55
448.64	454.65
449.01	452.57
449.37	448.83
449.74	445.25
450.11	441.17
450.48	436.76
450.85	432.34
451.22	428.40
451.59	424.76
451.96	421.25
452.33	416.49
452.70	412.38
453.07	407.31
453.43	402.27
453.80	397.45
454.17	392.66
454.54	388.24
454.91	383.49
455.28	378.84
455.65	374.64
456.02	370.30
456.38	366.55
456.75	361.97
457.12	358.28
457.49	354.58
457.86	350.93
458.23	347.80
458.59	344.36
458.96	341.00
459.33	337.84
459.70	334.71
460.07	332.20
460.43	329.30
460.80	326.66
461.17	324.23
461.54	321.76
461.91	319.43
462.27	317.17
462.64	315.19
463.01	313.00
463.38	310.99
463.74	308.77
464.11	306.98
464.48	305.43
464.85	303.60
465.21	302.18
465.58	300.81
465.95	299.02
466.32	297.66
466.68	296.28
467.05	294.94
467.42	293.65
467.78	292.23
468.15	290.95
468.52	290.07
468.88	288.85
469.25	287.70
469.62	286.85
469.98	285.76
470.35	284.84
470.72	284.09
471.08	283.15
471.45	282.38
471.82	281.67
472.18	280.79
472.55	280.25
472.92	279.58
473.28	278.95
473.65	278.34
474.02	277.75
474.38	277.35
474.75	276.90
475.11	276.51
475.48	276.21
475.85	275.87
476.21	275.53
476.58	275.45
476.94	275.39
477.31	275.30
477.67	275.35
478.04	275.37
478.41	275.50
478.77	275.81
479.14	276.03
479.50	276.24
479.87	276.70
480.23	277.16
480.60	277.62
480.96	278.03
481.33	278.78
481.69	279.38
482.06	279.93
482.42	280.70
482.79	281.50
483.15	282.39
483.52	283.46
483.88	284.53
484.25	285.57
484.61	286.65
484.98	287.80
485.34	289.13
485.71	290.48
486.07	291.90
486.44	293.16
486.80	294.59
487.17	296.16
487.53	297.85
487.90	299.66
488.26	301.51
488.62	303.59
488.99	305.51
489.35	307.60
489.72	309.90
490.08	312.19
490.44	314.58
490.81	317.20
491.17	319.92
491.54	322.80
491.90	325.67
492.26	328.89
492.63	332.23
492.99	335.66
493.36	339.33
493.72	343.07
494.08	347.07
494.45	351.36
494.81	355.92
495.17	360.46
495.54	365.28
495.90	370.22
496.26	375.46
496.63	381.05
496.99	386.88
497.35	392.68
497.72	399.09
498.08	405.69
498.44	412.53
498.80	419.62
499.17	427.01
499.53	434.74
499.89	442.64
500.26	450.81
500.62	459.13
500.98	467.85
501.34	477.02
501.71	486.52
502.07	496.28
502.43	506.30
502.79	516.36
503.16	526.90
503.52	537.92
503.88	549.04
504.24	560.47
504.60	572.24
504.97	584.59
505.33	596.94
505.69	610.09
506.05	623.47
506.41	637.01
506.78	650.70
507.14	664.76
507.50	679.10
507.86	693.94
508.22	709.28
508.59	724.80
508.95	740.58
509.31	756.72
509.67	773.21
510.03	789.92
510.39	807.20
510.75	824.85
511.12	842.79
511.48	860.88
511.84	879.25
512.20	897.89
512.56	916.94
512.92	936.20
513.28	955.57
513.64	974.96
514.00	994.87
514.37	1014.95
514.73	1035.60
515.09	1056.36
515.45	1076.93
515.81	1097.73
516.17	1118.83
516.53	1139.95
516.89	1161.29
517.25	1182.70
517.61	1204.06
517.97	1225.60
518.33	1246.77
518.69	1268.08
519.05	1289.98
519.41	1311.92
519.77	1334.25
520.13	1356.17
520.49	1378.06
520.85	1400.40
521.21	1422.77
521.57	1445.24
521.93	1467.16
522.29	1489.68
522.65	1511.96
523.01	1534.41
523.37	1556.23
523.73	1578.23
524.09	1600.19
524.45	1622.10
524.81	1644.25
525.17	1666.40
525.53	1688.70
525.89	1710.68
526.25	1732.71
526.61	1753.69
526.97	1775.30
527.33	1796.17
527.68	1817.20
528.04	1838.24
528.40	1858.09
528.76	1878.42
529.12	1898.78
529.48	1920.21
529.84	1939.99
530.20	1959.80
530.56	1979.89
530.91	2000.49
531.27	2020.65
531.63	2040.31
531.99	2059.59
532.35	2078.21
532.71	2096.98
533.07	2116.04
533.42	2134.49
533.78	2153.03
534.14	2171.27
534.50	2188.55
534.86	2206.35
535.21	2223.00
535.57	2240.39
535.93	2257.61
536.29	2274.02
536.65	2290.55
537.00	2305.65
537.36	2320.55
537.72	2335.77
538.08	2350.53
538.44	2365.48
538.79	2380.26
539.15	2394.76
539.51	2409.31
539.87	2424.35
540.22	2438.40
540.58	2452.86
540.94	2467.05
541.29	2479.60
541.65	2491.37
542.01	2504.00
542.37	2515.45
542.72	2527.70
543.08	2538.45
543.44	2549.98
543.79	2559.99
544.15	2569.72
544.51	2580.28
544.87	2591.06
545.22	2600.25
545.58	2608.79
545.94	2615.72
546.29	2622.16
546.65	2628.20
547.01	2633.97
547.36	2639.29
547.72	2644.60
548.07	2648.21
548.43	2651.70
548.79	2655.24
549.14	2659.96
549.50	2663.91
549.86	2668.16
550.21	2671.61
550.57	2675.55
550.92	2677.77
551.28	2680.70
551.64	2682.97
551.99	2685.09
552.35	2686.43
552.70	2689.00
553.06	2691.30
553.41	2693.90
553.77	2696.38
554.13	2698.33
554.48	2700.25
554.84	2701.32
555.19	2701.58
555.55	2702.17
555.90	2702.83
556.26	2703.34
556.61	2702.87
556.97	2701.11
557.32	2700.02
557.68	2698.15
558.03	2696.23
558.39	2694.75
558.74	2694.04
559.10	2692.71
559.45	2690.50
559.81	2689.46
560.16	2686.50
560.52	2684.00
560.87	2681.01
561.23	2677.33
561.58	2674.91
561.94	2671.62
562.29	2667.91
562.64	2665.97
563.00	2663.46
563.35	2661.15
563.71	2659.28
564.06	2657.21
564.42	2655.45
564.77	2653.00
565.12	2651.34
565.48	2648.45
565.83	2645.09
566.19	2641.66
566.54	2637.25
566.89	2633.71
567.25	2629.90
567.60	2626.39
567.96	2622.79
568.31	2619.19
568.66	2615.41
569.02	2610.98
569.37	2605.87
569.72	2602.35
570.08	2596.86
570.43	2591.14
570.78	2584.82
571.14	2578.35
571.49	2571.54
571.84	2565.59
572.20	2558.60
572.55	2551.81
572.90	2545.03
573.26	2538.50
573.61	2531.23
573.96	2524.81
574.31	2516.89
574.67	2508.64
575.02	2500.00
575.37	2491.29
575.72	2482.48
576.08	2474.97
576.43	2466.53
576.78	2458.85
577.13	2450.58
577.49	2442.60
577.84	2434.83
578.19	2427.55
578.54	2420.38
578.90	2413.79
579.25	2405.39
579.60	2396.42
579.95	2387.35
580.30	2379.28
580.66	2371.29
581.01	2362.42
581.36	2353.37
581.71	2345.50
582.06	2337.25
582.42	2329.52
582.77	2320.69
583.12	2311.90
583.47	2303.19
583.82	2294.99
584.17	2285.98
584.53	2277.14
584.88	2268.52
585.23	2259.48
585.58	2250.24
585.93	2240.85
586.28	2231.61
586.63	2223.08
586.98	2215.26
587.34	2207.18
587.69	2198.14
588.04	2189.00
588.39	2180.98
588.74	2172.26
589.09	2163.42
589.44	2154.04
589.79	2145.47
590.14	2137.75
590.49	2129.47
590.84	2120.84
591.19	2112.98
591.54	2104.38
591.89	2094.57
592.25	2085.54
592.60	2076.46
592.95	2067.04
593.30	2057.37
593.65	2047.64
594.00	2038.02
594.35	2029.86
594.70	2020.55
595.05	2011.91
595.40	2003.37
595.75	1993.87
596.10	1985.71
596.45	1977.47
596.80	1970.02
597.15	1962.02
597.50	1952.86
597.85	1944.75
598.19	1935.75
598.54	1927.02
598.89	1919.28
599.24	1912.67
599.59	1905.19
599.94	1898.04
600.29	1890.70
600.64	1883.04
600.99	1875.10
601.34	1868.14
601.69	1859.52
602.04	1851.56
602.39	1843.87
602.74	1836.19
603.08	1829.92
603.43	1823.05
603.78	1814.87
604.13	1806.48
604.48	1798.41
604.83	1791.87
605.18	1785.02
605.53	1777.90
605.87	1770.34
606.22	1763.35
606.57	1755.53
606.92	1747.90
607.27	1740.02
607.62	1732.80
607.96	1726.11
608.31	1720.03
608.66	1712.17
609.01	1704.65
609.36	1697.43
609.70	1689.49
610.05	1681.62
610.40	1673.25
610.75	1664.69
611.10	1657.31
611.44	1648.88
611.79	1640.15
612.14	1630.95
612.49	1621.53
612.83	1612.89
613.18	1603.23
613.53	1593.93
613.88	1584.39
614.22	1575.28
614.57	1566.24
614.92	1557.22
615.27	1547.95
615.61	1538.15
615.96	1529.45
616.31	1521.25
616.65	1513.50
617.00	1505.22
617.35	1496.91
617.70	1488.16
618.04	1479.40
618.39	1470.20
618.74	1461.87
619.08	1453.45
619.43	1445.24
619.78	1437.47
620.12	1429.61
620.47	1422.26
620.82	1414.02
621.16	1405.84
621.51	1397.85
621.85	1389.65
622.20	1381.13
622.55	1372.96
622.89	1364.88
623.24	1357.00
623.59	1348.47
623.93	1339.74
624.28	1331.61
624.62	1323.49
624.97	1315.62
625.32	1307.76
625.66	1300.56
626.01	1293.32
626.35	1286.20
626.70	1278.46
627.04	1271.07
627.39	1263.61
627.73	1256.21
628.08	1249.64
628.43	1242.60
628.77	1235.25
629.12	1227.70
629.46	1221.15
629.81	1214.09
630.15	1206.93
630.50	1199.66
630.84	1192.40
631.19	1185.29
631.53	1178.66
631.88	1171.27
632.22	1163.79
632.57	1156.96
632.91	1149.57
633.26	1142.15
633.60	1135.14
633.95	1128.74
634.29	1121.58
634.64	1114.88
634.98	1107.95
635.32	1100.76
635.67	1094.29
636.01	1087.68
636.36	1081.38
636.70	1074.79
637.05	1068.37
637.39	1062.16
637.73	1056.04
638.08	1050.35
638.42	1044.73
638.77	1038.37
639.11	1032.16
639.45	1026.17
639.80	1019.63
640.14	1013.38
640.49	1007.41
640.83	1001.44
641.17	995.06
641.52	988.86
641.86	982.42
642.20	976.32
642.55	969.67
642.89	963.04
643.23	956.76
643.58	950.75
643.92	944.21
644.26	937.97
644.61	932.05
644.95	925.77
645.29	919.58
645.64	913.11
645.98	906.95
646.32	901.30
646.66	895.27
647.01	889.51
647.35	883.75
647.69	877.44
648.04	871.26
648.38	865.44
648.72	859.70
649.06	853.74
649.41	847.70
649.75	842.04
650.09	836.64
650.43	830.96
650.78	825.04
651.12	819.22
651.46	813.56
651.80	807.67
652.14	801.94
652.49	795.87
652.83	790.06
653.17	784.01
653.51	778.32
653.85	772.82
654.20	767.12
654.54	761.52
654.88	756.18
655.22	750.41
655.56	744.48
655.90	738.63
656.25	733.11
656.59	727.78
656.93	722.62
657.27	717.46
657.61	711.89
657.95	706.87
658.29	701.79
658.64	696.75
658.98	691.67
659.32	686.40
659.66	681.41
660.00	676.17
660.34	671.20
660.68	665.88
661.02	660.77
661.36	656.11
661.70	651.37
662.05	646.68
662.39	642.40
662.73	638.22
663.07	634.10
663.41	629.63
663.75	625.19
664.09	620.61
664.43	615.75
664.77	611.55
665.11	607.11
665.45	602.82
665.79	598.39
666.13	594.11
666.47	589.98
666.81	585.91
667.15	582.00
667.49	578.17
667.83	574.50
668.17	570.74
668.51	566.95
668.85	563.26
669.19	559.76
669.53	555.89
669.87	551.82
670.21	547.97
670.55	544.29
670.89	540.99
671.23	537.66
671.57	534.41
671.91	530.87
672.25	527.36
672.58	523.97
672.92	520.65
673.26	517.40
673.60	514.22
673.94	510.93
674.28	507.68
674.62	504.69
674.96	501.56
675.30	498.50
675.64	495.42
675.97	492.15
676.31	489.00
676.65	486.18
676.99	483.53
677.33	480.57
677.67	477.71
678.01	474.40
678.34	471.43
678.68	468.55
679.02	465.58
679.36	462.79
679.70	460.08
680.04	457.20
680.37	454.27
680.71	451.45
681.05	449.07
681.39	446.44
681.73	443.73
682.06	441.11
682.40	438.56
682.74	435.97
683.08	433.59
683.42	430.97
683.75	428.42
684.09	425.89
684.43	423.55
684.77	421.02
685.10	418.63
685.44	416.09
685.78	413.65
686.12	411.47
686.45	409.21
686.79	406.87
687.13	404.87
687.46	402.79
687.80	400.71
688.14	398.29
688.48	396.08
688.81	393.83
689.15	391.69
689.49	389.41
689.82	387.15
690.16	384.76
690.50	382.59
690.83	380.32
691.17	378.13
691.51	376.05
691.84	373.98
692.18	371.98
692.52	370.13
692.85	368.29
693.19	366.49
693.52	364.54
693.86	362.65
694.20	360.72
694.53	358.85
694.87	356.87
695.21	355.03
695.54	353.24
695.88	351.26
696.21	349.42
696.55	347.78
696.88	346.15
697.22	344.46
697.56	342.95
697.89	341.36
698.23	339.77
698.56	338.15
698.90	336.69
699.23	335.14
699.57	333.58
699.90	331.85
700.24	330.15
700.58	328.62
700.91	327.09
701.25	325.66
701.58	324.26
701.92	322.90
702.25	321.59
702.59	320.20
702.92	319.01
703.26	317.70
703.59	316.39
703.93	315.25
704.26	314.10
704.60	312.75
704.93	311.64
705.26	310.48
705.60	309.26
705.93	308.04
706.27	306.94
706.60	305.85
706.94	304.82
707.27	303.74
707.61	302.69
707.94	301.57
708.27	300.37
708.61	299.21
708.94	298.13
709.28	296.86
709.61	295.76
709.94	294.78
710.28	293.72
710.61	292.68
710.95	291.51
711.28	290.53
711.61	289.60
711.95	288.58
712.28	287.46
712.61	286.42
712.95	285.52
713.28	284.53
713.61	283.51
713.95	282.61
714.28	281.79
714.61	280.81
714.95	279.90
715.28	279.06
715.61	278.13
715.95	277.24
716.28	276.37
716.61	275.61
716.95	274.68
717.28	273.84
717.61	273.00
717.94	272.18
718.28	271.37
718.61	270.58
718.94	269.85
719.27	269.22
719.61	268.52
719.94	267.72
720.27	267.00
720.60	266.37
720.94	265.70
721.27	265.03
721.60	264.44
721.93	263.85
722.27	263.21
722.60	262.65
722.93	262.03
723.26	261.50
723.59	260.88
723.93	260.32
724.26	259.77
724.59	259.31
724.92	258.78
725.25	258.28
725.59	257.73
725.92	257.16
726.25	256.70
726.58	256.22
726.91	255.75
727.24	255.26
727.57	254.70
727.91	254.17
728.24	253.68
728.57	253.20
728.90	252.70
729.23	252.20
729.56	251.80
729.89	251.35
730.22	250.95
730.55	250.51
730.89	250.08
731.22	249.57
731.55	249.09
731.88	248.65
732.21	248.06
732.54	247.63
732.87	247.16
733.20	246.70
733.53	246.20
733.86	245.78
734.19	245.33
734.52	244.99
734.85	244.66
735.18	244.20
735.51	243.79
735.84	243.52
736.17	243.19
736.50	242.71
736.83	242.59
737.16	242.25
737.49	241.81
737.82	241.45
738.15	241.12
738.48	240.79
738.81	240.48
739.14	240.17
739.47	239.78
739.80	239.54
740.13	239.18
740.46	238.89
740.79	238.55
741.12	238.22
741.45	237.93
741.78	237.58
742.11	237.43
742.44	237.15
742.77	236.85
743.10	236.56
743.43	236.29
743.75	235.79
744.08	235.69
744.41	235.43
744.74	235.10
745.07	234.78
745.40	234.50
745.73	234.25
746.06	234.11
746.39	233.85
746.71	233.49
747.04	233.29
747.37	233.05
747.70	232.84
748.03	232.67
748.36	232.38
748.68	232.14
749.01	231.76
749.34	231.53
749.67	231.26
750.00	231.07
750.33	230.98
750.65	230.72
750.98	230.25
751.31	230.05
751.64	229.83
751.97	229.71
752.29	229.45
752.62	229.15
752.95	228.85
753.28	228.66
753.60	228.43
753.93	228.20
754.26	227.93
754.59	227.74
754.91	227.47
755.24	227.21
755.57	226.97
755.90	226.83
756.22	226.64
756.55	226.41
756.88	226.08
757.20	225.69
757.53	225.56
757.86	225.34
758.19	225.17
758.51	225.03
758.84	224.80
759.17	224.67
759.49	224.62
759.82	224.52
760.15	224.39
760.47	224.21
760.80	223.96
761.13	223.86
761.45	223.62
761.78	223.50
762.11	223.42
762.43	223.22
762.76	223.08
763.08	222.91
763.41	222.75
763.74	222.70
764.06	222.65
764.39	222.46
764.71	222.37
765.04	222.22
765.37	222.09
765.69	221.98
766.02	221.88
766.34	221.70
766.67	221.52
767.00	221.37
767.32	221.38
767.65	221.35
767.97	221.27
768.30	221.19
768.62	221.00
768.95	220.83
769.27	220.80
769.60	220.62
769.92	220.44
770.25	220.35
770.57	220.18
770.90	220.08
771.22	219.95
771.55	219.83
771.87	219.75
772.20	219.57
772.52	219.59
772.85	219.67
773.17	219.54
773.50	219.40
773.82	219.30
774.15	219.12
774.47	219.00
774.80	218.92
775.12	218.80
775.45	218.71
775.77	218.61
776.09	218.55
776.42	218.48
776.74	218.48
777.07	218.32
777.39	218.29
777.72	218.17
778.04	218.19
778.36	218.08
778.69	217.99
779.01	217.90
779.33	217.71
779.66	217.37
779.98	217.29
780.31	217.29
780.63	217.26
780.95	217.18
781.28	217.08
781.60	216.95
781.92	216.99
782.25	216.89
782.57	216.85
782.89	216.71
783.22	216.75
783.54	216.69
783.86	216.65
784.19	216.56
784.51	216.55
784.83	216.34
785.16	216.30
785.48	216.27
785.80	216.27
786.12	216.17
786.45	216.09
