SpectraSuite Data File
++++++++++++++++++++++++++++++++++++
Date: Mon Feb 25 17:34:47 EST 2013
User: group
Dark Spectrum Present: No
Reference Spectrum Present: No
Number of Sampled Component Spectra: 1
Spectrometers: USB2E7196
Integration Time (usec): 52000 (USB2E7196)
Spectra Averaged: 20 (USB2E7196)
Boxcar Smoothing: 10 (USB2E7196)
Correct for Electrical Dark: No (USB2E7196)
Strobe/Lamp Enabled: No (USB2E7196)
Correct for Detector Non-linearity: No (USB2E7196)
Correct for Stray Light: No (USB2E7196)
Number of Pixels in Processed Spectrum: 2048
>>>>>Begin Processed Spectral Data<<<<<
339.09	0.00
339.48	197.70
339.86	199.30
340.24	200.80
340.63	201.65
341.01	205.85
341.39	205.50
341.78	207.00
342.16	207.55
342.54	208.85
342.93	197.88
343.31	207.89
343.69	208.55
344.07	209.09
344.46	209.54
344.84	210.01
345.22	210.25
345.60	210.51
345.99	210.72
346.37	211.02
346.75	211.13
347.13	211.25
347.52	211.33
347.90	211.43
348.28	211.41
348.66	211.40
349.05	211.46
349.43	211.63
349.81	211.69
350.19	211.77
350.57	211.85
350.96	211.99
351.34	212.11
351.72	212.18
352.10	212.24
352.48	212.41
352.87	212.48
353.25	212.60
353.63	212.69
354.01	212.77
354.39	212.75
354.77	212.85
355.15	212.95
355.54	213.00
355.92	213.02
356.30	213.13
356.68	213.41
357.06	213.44
357.44	213.45
357.82	213.50
358.20	213.58
358.58	213.59
358.97	213.64
359.35	213.70
359.73	213.79
360.11	213.89
360.49	213.93
360.87	213.95
361.25	213.91
361.63	214.02
362.01	214.03
362.39	214.00
362.77	214.01
363.15	213.99
363.53	214.09
363.91	214.12
364.29	214.15
364.67	213.86
365.05	213.88
365.43	213.94
365.81	213.98
366.19	214.05
366.57	214.16
366.95	214.11
367.33	214.09
367.71	214.07
368.09	214.01
368.47	213.97
368.85	213.93
369.23	214.00
369.61	213.88
369.99	213.91
370.37	213.94
370.75	214.05
371.13	213.97
371.51	213.80
371.89	213.80
372.27	213.66
372.65	213.76
373.03	213.76
373.41	213.59
373.78	213.52
374.16	213.35
374.54	213.23
374.92	213.25
375.30	213.25
375.68	213.17
376.06	213.17
376.44	213.08
376.82	213.07
377.19	213.00
377.57	212.95
377.95	212.91
378.33	212.88
378.71	212.71
379.09	212.65
379.47	212.68
379.84	212.68
380.22	212.75
380.60	212.65
380.98	212.59
381.36	212.54
381.73	212.48
382.11	212.49
382.49	212.42
382.87	212.28
383.25	212.15
383.62	212.30
384.00	212.23
384.38	212.18
384.76	212.13
385.13	212.15
385.51	212.18
385.89	212.11
386.27	212.07
386.64	212.07
387.02	212.00
387.40	211.95
387.78	211.88
388.15	211.81
388.53	211.77
388.91	211.73
389.29	211.79
389.66	211.81
390.04	211.76
390.42	211.83
390.79	211.83
391.17	211.90
391.55	211.67
391.92	211.69
392.30	211.71
392.68	211.70
393.05	211.70
393.43	211.63
393.81	211.58
394.18	211.52
394.56	211.51
394.94	211.59
395.31	211.59
395.69	211.65
396.06	211.63
396.44	211.61
396.82	211.56
397.19	211.65
397.57	211.63
397.95	211.68
398.32	211.64
398.70	211.67
399.07	211.71
399.45	211.78
399.82	211.86
400.20	211.88
400.58	211.96
400.95	211.90
401.33	212.02
401.70	212.26
402.08	212.40
402.45	212.48
402.83	212.57
403.20	212.66
403.58	212.68
403.95	212.84
404.33	213.00
404.71	213.13
405.08	213.27
405.46	213.46
405.83	213.61
406.21	213.71
406.58	213.86
406.96	213.98
407.33	214.15
407.70	214.31
408.08	214.71
408.45	215.01
408.83	215.29
409.20	215.54
409.58	215.69
409.95	215.99
410.33	216.32
410.70	216.60
411.08	216.95
411.45	217.36
411.82	217.76
412.20	218.17
412.57	218.77
412.95	219.13
413.32	219.67
413.69	220.27
414.07	220.81
414.44	221.47
414.82	222.18
415.19	222.92
415.56	223.62
415.94	224.29
416.31	225.12
416.68	226.04
417.06	227.07
417.43	228.09
417.81	229.17
418.18	230.31
418.55	231.44
418.93	232.75
419.30	234.13
419.67	235.49
420.04	236.90
420.42	238.32
420.79	240.15
421.16	241.85
421.54	243.58
421.91	245.44
422.28	247.36
422.66	249.51
423.03	251.52
423.40	253.66
423.77	255.86
424.15	258.07
424.52	260.42
424.89	263.02
425.26	265.49
425.64	267.84
426.01	270.40
426.38	273.19
426.75	275.94
427.13	278.79
427.50	281.85
427.87	285.02
428.24	288.13
428.61	291.07
428.99	294.26
429.36	297.73
429.73	301.33
430.10	304.76
430.47	308.20
430.85	311.94
431.22	315.80
431.59	319.97
431.96	323.92
432.33	328.34
432.70	332.45
433.08	337.42
433.45	342.10
433.82	346.68
434.19	351.85
434.56	356.79
434.93	361.52
435.30	366.23
435.68	371.51
436.05	376.75
436.42	381.75
436.79	386.51
437.16	391.63
437.53	396.89
437.90	402.35
438.27	407.56
438.64	412.92
439.01	417.94
439.38	422.23
439.75	426.57
440.13	431.34
440.50	435.90
440.87	439.64
441.24	443.57
441.61	447.92
441.98	451.04
442.35	454.71
442.72	458.31
443.09	461.79
443.46	463.79
443.83	465.20
444.20	466.64
444.57	468.47
444.94	469.22
445.31	470.09
445.68	470.68
446.05	470.81
446.42	470.06
446.79	469.28
447.16	468.48
447.53	467.90
447.90	465.87
448.27	463.77
448.64	460.76
449.01	458.51
449.37	454.72
449.74	451.20
450.11	447.04
450.48	442.46
450.85	437.93
451.22	433.97
451.59	430.16
451.96	426.56
452.33	421.68
452.70	417.33
453.07	412.09
453.43	406.85
453.80	401.90
454.17	397.25
454.54	392.68
454.91	387.94
455.28	383.22
455.65	378.71
456.02	374.40
456.38	370.66
456.75	366.02
457.12	362.19
457.49	358.29
457.86	354.49
458.23	351.41
458.59	347.81
458.96	344.31
459.33	341.17
459.70	337.92
460.07	335.45
460.43	332.61
460.80	329.96
461.17	327.58
461.54	325.11
461.91	322.72
462.27	320.45
462.64	318.38
463.01	316.03
463.38	313.87
463.74	311.58
464.11	309.70
464.48	308.13
464.85	306.33
465.21	304.98
465.58	303.53
465.95	301.67
466.32	300.30
466.68	298.89
467.05	297.45
467.42	295.98
467.78	294.39
468.15	293.02
468.52	291.98
468.88	290.67
469.25	289.49
469.62	288.50
469.98	287.40
470.35	286.47
470.72	285.59
471.08	284.63
471.45	283.85
471.82	283.02
472.18	282.06
472.55	281.56
472.92	280.85
473.28	280.24
473.65	279.71
474.02	279.12
474.38	278.60
474.75	278.19
475.11	277.80
475.48	277.65
475.85	277.40
476.21	277.16
476.58	276.99
476.94	276.90
477.31	276.76
477.67	276.73
478.04	276.70
478.41	276.79
478.77	277.11
479.14	277.18
479.50	277.40
479.87	277.73
480.23	278.02
480.60	278.44
480.96	278.95
481.33	279.45
481.69	280.06
482.06	280.70
482.42	281.35
482.79	282.08
483.15	282.85
483.52	283.82
483.88	284.69
484.25	285.69
484.61	286.71
484.98	287.89
485.34	289.11
485.71	290.49
486.07	291.86
486.44	293.17
486.80	294.90
487.17	296.58
487.53	298.40
487.90	300.23
488.26	302.14
488.62	304.17
488.99	306.27
489.35	308.33
489.72	310.65
490.08	313.01
490.44	315.50
490.81	318.14
491.17	320.71
491.54	323.73
491.90	326.76
492.26	329.95
492.63	333.28
492.99	336.73
493.36	340.24
493.72	344.20
494.08	348.25
494.45	352.42
494.81	356.89
495.17	361.46
495.54	366.39
495.90	371.23
496.26	376.39
496.63	382.04
496.99	388.02
497.35	394.01
497.72	400.35
498.08	406.79
498.44	413.59
498.80	420.86
499.17	428.33
499.53	436.02
499.89	443.99
500.26	452.18
500.62	460.65
500.98	469.70
501.34	478.81
501.71	488.30
502.07	497.95
502.43	507.91
502.79	518.16
503.16	528.77
503.52	539.88
503.88	551.18
504.24	562.62
504.60	574.46
504.97	586.76
505.33	599.39
505.69	612.71
506.05	626.20
506.41	639.79
506.78	653.71
507.14	668.05
507.50	682.60
507.86	697.55
508.22	713.07
508.59	728.46
508.95	744.38
509.31	760.67
509.67	777.37
510.03	794.27
510.39	811.79
510.75	829.69
511.12	847.93
511.48	866.28
511.84	885.07
512.20	903.87
512.56	923.11
512.92	942.53
513.28	962.01
513.64	981.84
514.00	1001.89
514.37	1022.29
514.73	1042.91
515.09	1063.71
515.45	1084.50
515.81	1105.60
516.17	1126.81
516.53	1148.39
516.89	1169.88
517.25	1191.60
517.61	1213.62
517.97	1235.10
518.33	1256.66
518.69	1278.35
519.05	1300.64
519.41	1322.87
519.77	1345.55
520.13	1367.94
520.49	1390.23
520.85	1413.27
521.21	1435.82
521.57	1458.77
521.93	1480.83
522.29	1504.00
522.65	1527.13
523.01	1549.67
523.37	1572.18
523.73	1595.07
524.09	1617.28
524.45	1639.94
524.81	1662.46
525.17	1685.06
525.53	1707.85
525.89	1730.50
526.25	1752.63
526.61	1773.99
526.97	1795.90
527.33	1817.24
527.68	1839.09
528.04	1860.22
528.40	1880.37
528.76	1901.38
529.12	1922.32
529.48	1944.39
529.84	1964.55
530.20	1984.62
530.56	2005.26
530.91	2026.10
531.27	2046.49
531.63	2066.54
531.99	2086.39
532.35	2105.79
532.71	2124.91
533.07	2144.61
533.42	2163.39
533.78	2182.50
534.14	2201.46
534.50	2218.79
534.86	2237.12
535.21	2253.53
535.57	2271.68
535.93	2289.42
536.29	2306.38
536.65	2323.13
537.00	2338.29
537.36	2354.03
537.72	2369.59
538.08	2385.36
538.44	2400.74
538.79	2416.35
539.15	2431.51
539.51	2446.53
539.87	2462.26
540.22	2476.66
540.58	2491.70
540.94	2506.14
541.29	2519.30
541.65	2531.66
542.01	2545.09
542.37	2556.96
542.72	2570.10
543.08	2581.20
543.44	2593.34
543.79	2604.09
544.15	2614.51
544.51	2626.02
544.87	2637.30
545.22	2646.84
545.58	2655.69
545.94	2663.00
546.29	2669.54
546.65	2676.14
547.01	2682.38
547.36	2687.99
547.72	2693.87
548.07	2698.07
548.43	2702.13
548.79	2706.26
549.14	2711.12
549.50	2715.51
549.86	2719.73
550.21	2723.50
550.57	2728.06
550.92	2730.68
551.28	2733.35
551.64	2736.07
551.99	2738.45
552.35	2740.01
552.70	2742.54
553.06	2745.26
553.41	2748.22
553.77	2751.21
554.13	2753.55
554.48	2755.75
554.84	2757.25
555.19	2758.01
555.55	2758.32
555.90	2759.02
556.26	2759.81
556.61	2759.92
556.97	2758.83
557.32	2758.72
557.68	2757.09
558.03	2755.37
558.39	2754.07
558.74	2753.86
559.10	2752.61
559.45	2750.94
559.81	2749.79
560.16	2747.58
560.52	2744.88
560.87	2742.14
561.23	2738.45
561.58	2736.43
561.94	2733.08
562.29	2729.70
562.64	2727.54
563.00	2725.42
563.35	2723.09
563.71	2720.93
564.06	2718.57
564.42	2717.09
564.77	2714.65
565.12	2713.07
565.48	2710.15
565.83	2706.98
566.19	2703.69
566.54	2699.84
566.89	2695.73
567.25	2692.06
567.60	2689.04
567.96	2685.44
568.31	2682.08
568.66	2678.55
569.02	2673.47
569.37	2668.47
569.72	2664.33
570.08	2659.21
570.43	2653.41
570.78	2647.63
571.14	2641.51
571.49	2634.81
571.84	2628.43
572.20	2621.43
572.55	2614.68
572.90	2607.82
573.26	2601.07
573.61	2593.58
573.96	2586.63
574.31	2579.01
574.67	2570.61
575.02	2561.89
575.37	2553.35
575.72	2544.08
576.08	2536.60
576.43	2527.95
576.78	2520.33
577.13	2512.54
577.49	2504.07
577.84	2496.25
578.19	2488.71
578.54	2481.19
578.90	2474.14
579.25	2465.56
579.60	2456.39
579.95	2447.20
580.30	2438.87
580.66	2430.81
581.01	2421.64
581.36	2412.33
581.71	2403.89
582.06	2395.57
582.42	2387.19
582.77	2378.17
583.12	2369.40
583.47	2360.23
583.82	2351.82
584.17	2342.34
584.53	2332.91
584.88	2323.68
585.23	2314.31
585.58	2304.62
585.93	2294.68
586.28	2285.47
586.63	2276.28
586.98	2268.19
587.34	2259.46
587.69	2250.47
588.04	2241.22
588.39	2233.25
588.74	2224.42
589.09	2215.53
589.44	2205.74
589.79	2197.30
590.14	2189.08
590.49	2180.79
590.84	2171.75
591.19	2163.68
591.54	2154.86
591.89	2144.66
592.25	2135.70
592.60	2126.27
592.95	2116.79
593.30	2107.40
593.65	2097.69
594.00	2088.24
594.35	2079.67
594.70	2070.69
595.05	2061.66
595.40	2052.38
595.75	2042.16
596.10	2033.65
596.45	2025.10
596.80	2017.19
597.15	2008.54
597.50	1999.56
597.85	1990.54
598.19	1981.49
598.54	1972.76
598.89	1964.81
599.24	1958.27
599.59	1950.97
599.94	1943.65
600.29	1935.86
600.64	1927.70
600.99	1918.94
601.34	1911.28
601.69	1901.99
602.04	1893.56
602.39	1885.44
602.74	1877.91
603.08	1871.35
603.43	1864.25
603.78	1856.06
604.13	1847.93
604.48	1839.77
604.83	1832.60
605.18	1825.73
605.53	1818.20
605.87	1810.52
606.22	1803.24
606.57	1795.06
606.92	1786.60
607.27	1778.65
607.62	1771.05
607.96	1764.38
608.31	1758.20
608.66	1750.34
609.01	1742.86
609.36	1735.15
609.70	1727.14
610.05	1718.91
610.40	1710.75
610.75	1702.07
611.10	1694.30
611.44	1685.19
611.79	1676.09
612.14	1666.73
612.49	1656.85
612.83	1648.21
613.18	1638.39
613.53	1628.89
613.88	1618.84
614.22	1609.72
614.57	1600.35
614.92	1590.94
615.27	1581.32
615.61	1571.64
615.96	1562.85
616.31	1554.67
616.65	1546.75
617.00	1538.48
617.35	1529.71
617.70	1520.67
618.04	1511.79
618.39	1502.34
618.74	1494.15
619.08	1485.58
619.43	1477.25
619.78	1469.68
620.12	1461.41
620.47	1453.70
620.82	1445.03
621.16	1436.58
621.51	1428.19
621.85	1419.87
622.20	1411.35
622.55	1402.94
622.89	1394.63
623.24	1386.25
623.59	1377.11
623.93	1368.31
624.28	1359.80
624.62	1351.72
624.97	1343.57
625.32	1335.46
625.66	1328.31
626.01	1320.87
626.35	1313.50
626.70	1305.64
627.04	1297.95
627.39	1290.10
627.73	1282.34
628.08	1275.31
628.43	1267.93
628.77	1260.67
629.12	1253.07
629.46	1246.53
629.81	1238.97
630.15	1231.50
630.50	1224.17
630.84	1216.92
631.19	1209.67
631.53	1202.93
631.88	1195.10
632.22	1187.38
632.57	1180.20
632.91	1172.45
633.26	1164.54
633.60	1157.46
633.95	1150.63
634.29	1143.31
634.64	1136.70
634.98	1129.53
635.32	1122.51
635.67	1116.30
636.01	1109.52
636.36	1102.84
636.70	1095.90
637.05	1089.56
637.39	1083.18
637.73	1076.99
638.08	1071.29
638.42	1065.39
638.77	1058.67
639.11	1052.67
639.45	1046.56
639.80	1039.91
640.14	1033.48
640.49	1027.35
640.83	1020.92
641.17	1014.61
641.52	1008.53
641.86	1001.91
642.20	995.76
642.55	988.95
642.89	982.23
643.23	975.82
643.58	970.11
643.92	963.41
644.26	956.88
644.61	950.53
644.95	944.28
645.29	937.86
645.64	931.13
645.98	924.83
646.32	918.72
646.66	912.40
647.01	906.47
647.35	900.60
647.69	894.35
648.04	888.20
648.38	882.17
648.72	875.96
649.06	869.91
649.41	863.81
649.75	858.04
650.09	852.17
650.43	846.04
650.78	839.49
651.12	833.62
651.46	827.96
651.80	822.15
652.14	815.98
652.49	809.72
652.83	803.90
653.17	797.77
653.51	791.89
653.85	786.35
654.20	780.53
654.54	774.52
654.88	769.04
655.22	763.15
655.56	757.16
655.90	751.30
656.25	745.52
656.59	740.02
656.93	734.82
657.27	729.64
657.61	724.25
657.95	719.25
658.29	714.18
658.64	709.10
658.98	703.76
659.32	698.50
659.66	693.51
660.00	688.17
660.34	683.12
660.68	677.91
661.02	672.79
661.36	667.97
661.70	663.12
662.05	658.27
662.39	653.91
662.73	649.52
663.07	645.09
663.41	640.80
663.75	636.27
664.09	631.51
664.43	626.66
664.77	622.31
665.11	617.64
665.45	613.13
665.79	608.55
666.13	604.16
666.47	599.92
666.81	595.80
667.15	591.54
667.49	587.70
667.83	583.73
668.17	579.89
668.51	576.02
668.85	572.31
669.19	568.57
669.53	564.55
669.87	560.42
670.21	556.54
670.55	552.41
670.89	548.78
671.23	545.38
671.57	541.97
671.91	538.24
672.25	534.78
672.58	531.37
672.92	527.93
673.26	524.77
673.60	521.63
673.94	518.11
674.28	514.98
674.62	511.68
674.96	508.44
675.30	505.31
675.64	502.07
675.97	498.78
676.31	495.65
676.65	492.81
676.99	490.22
677.33	487.27
677.67	484.44
678.01	481.34
678.34	478.20
678.68	475.24
679.02	472.32
679.36	469.28
679.70	466.28
680.04	463.43
680.37	460.37
680.71	457.40
681.05	454.71
681.39	452.04
681.73	449.25
682.06	446.79
682.40	444.19
682.74	441.47
683.08	439.06
683.42	436.45
683.75	433.88
684.09	431.20
684.43	428.66
684.77	426.05
685.10	423.48
685.44	420.96
685.78	418.36
686.12	416.13
686.45	413.81
686.79	411.54
687.13	409.28
687.46	407.06
687.80	404.97
688.14	402.61
688.48	400.37
688.81	398.15
689.15	395.90
689.49	393.60
689.82	391.42
690.16	389.09
690.50	386.87
690.83	384.46
691.17	382.11
691.51	379.94
691.84	377.97
692.18	375.94
692.52	374.00
692.85	372.33
693.19	370.32
693.52	368.44
693.86	366.44
694.20	364.50
694.53	362.75
694.87	360.65
695.21	358.75
695.54	356.79
695.88	354.92
696.21	353.01
696.55	351.21
696.88	349.56
697.22	347.80
697.56	346.28
697.89	344.69
698.23	343.12
698.56	341.54
698.90	340.01
699.23	338.41
699.57	336.83
699.90	335.00
700.24	333.35
700.58	331.76
700.91	330.26
701.25	328.79
701.58	327.28
701.92	325.95
702.25	324.60
702.59	323.23
702.92	321.94
703.26	320.57
703.59	319.30
703.93	318.15
704.26	316.87
704.60	315.59
704.93	314.30
705.26	313.00
705.60	311.77
705.93	310.41
706.27	309.23
706.60	308.16
706.94	307.11
707.27	305.96
707.61	304.86
707.94	303.71
708.27	302.61
708.61	301.38
708.94	300.24
709.28	299.03
709.61	297.89
709.94	296.82
710.28	295.66
710.61	294.57
710.95	293.28
711.28	292.32
711.61	291.25
711.95	290.30
712.28	289.36
712.61	288.41
712.95	287.57
713.28	286.71
713.61	285.65
713.95	284.66
714.28	283.86
714.61	282.82
714.95	281.91
715.28	280.89
715.61	280.00
715.95	279.05
716.28	278.24
716.61	277.39
716.95	276.47
717.28	275.70
717.61	274.90
717.94	274.18
718.28	273.37
718.61	272.53
718.94	271.68
719.27	270.89
719.61	270.13
719.94	269.43
720.27	268.62
720.60	267.91
720.94	267.28
721.27	266.60
721.60	265.99
721.93	265.39
722.27	264.84
722.60	264.19
722.93	263.51
723.26	263.00
723.59	262.40
723.93	261.79
724.26	261.23
724.59	260.63
724.92	260.00
725.25	259.48
725.59	258.96
725.92	258.46
726.25	257.88
726.58	257.25
726.91	256.61
727.24	256.07
727.57	255.57
727.91	254.92
728.24	254.40
728.57	253.86
728.90	253.33
729.23	252.78
729.56	252.37
729.89	251.91
730.22	251.36
730.55	250.89
730.89	250.41
731.22	249.88
731.55	249.40
731.88	248.99
732.21	248.44
732.54	247.96
732.87	247.60
733.20	247.27
733.53	246.90
733.86	246.55
734.19	246.14
734.52	245.78
734.85	245.55
735.18	245.04
735.51	244.70
735.84	244.36
736.17	244.01
736.50	243.59
736.83	243.53
737.16	243.16
737.49	242.83
737.82	242.47
738.15	242.15
738.48	241.77
738.81	241.40
739.14	241.04
739.47	240.60
739.80	240.10
740.13	239.76
740.46	239.35
740.79	238.95
741.12	238.56
741.45	238.19
741.78	237.73
742.11	237.51
742.44	237.13
742.77	236.88
743.10	236.60
743.43	236.30
743.75	235.75
744.08	235.70
744.41	235.39
744.74	235.11
745.07	234.82
745.40	234.60
745.73	234.39
746.06	234.10
746.39	233.92
746.71	233.71
747.04	233.42
747.37	233.17
747.70	232.94
748.03	232.79
748.36	232.54
748.68	232.31
749.01	231.98
749.34	231.87
749.67	231.50
750.00	231.28
750.33	231.14
750.65	230.89
750.98	230.41
751.31	230.21
751.64	230.02
751.97	229.94
752.29	229.72
752.62	229.35
752.95	229.15
753.28	228.82
753.60	228.57
753.93	228.37
754.26	228.20
754.59	227.91
754.91	227.60
755.24	227.46
755.57	227.26
755.90	227.06
756.22	226.78
756.55	226.58
756.88	226.32
757.20	226.07
757.53	225.76
757.86	225.59
758.19	225.47
758.51	225.28
758.84	225.03
759.17	224.78
759.49	224.68
759.82	224.55
760.15	224.46
760.47	224.30
760.80	224.05
761.13	223.84
761.45	223.74
761.78	223.61
762.11	223.42
762.43	223.25
762.76	223.08
763.08	222.95
763.41	222.85
763.74	222.78
764.06	222.66
764.39	222.58
764.71	222.41
765.04	222.23
765.37	222.08
765.69	221.89
766.02	221.76
766.34	221.61
766.67	221.50
767.00	221.37
767.32	221.41
767.65	221.44
767.97	221.39
768.30	221.34
768.62	221.22
768.95	221.09
769.27	221.01
769.60	221.01
769.92	220.87
770.25	220.75
770.57	220.60
770.90	220.43
771.22	220.38
771.55	220.30
771.87	220.20
772.20	220.02
772.52	220.07
772.85	220.24
773.17	220.15
773.50	219.98
773.82	219.91
774.15	219.77
774.47	219.56
774.80	219.52
775.12	219.38
775.45	219.32
775.77	219.28
776.09	219.18
776.42	219.06
776.74	219.09
777.07	218.96
777.39	218.87
777.72	218.79
778.04	218.74
778.36	218.65
778.69	218.56
779.01	218.56
779.33	218.32
779.66	218.07
779.98	218.06
780.31	218.05
780.63	218.03
780.95	217.85
781.28	217.81
781.60	217.66
781.92	217.55
782.25	217.42
782.57	217.34
782.89	217.26
783.22	217.19
783.54	217.03
783.86	216.95
784.19	216.81
784.51	216.80
784.83	216.62
785.16	216.49
785.48	216.45
785.80	216.43
786.12	216.39
786.45	216.36
