SpectraSuite Data File
++++++++++++++++++++++++++++++++++++
Date: Mon Feb 25 17:31:38 EST 2013
User: group
Dark Spectrum Present: No
Reference Spectrum Present: No
Number of Sampled Component Spectra: 1
Spectrometers: USB2E7196
Integration Time (usec): 52000 (USB2E7196)
Spectra Averaged: 20 (USB2E7196)
Boxcar Smoothing: 10 (USB2E7196)
Correct for Electrical Dark: No (USB2E7196)
Strobe/Lamp Enabled: No (USB2E7196)
Correct for Detector Non-linearity: No (USB2E7196)
Correct for Stray Light: No (USB2E7196)
Number of Pixels in Processed Spectrum: 2048
>>>>>Begin Processed Spectral Data<<<<<
339.09	0.00
339.48	198.95
339.86	201.05
340.24	201.65
340.63	203.45
341.01	207.75
341.39	205.70
341.78	207.20
342.16	208.70
342.54	209.15
342.93	198.46
343.31	208.49
343.69	208.98
344.07	209.40
344.46	209.82
344.84	210.18
345.22	210.38
345.60	210.56
345.99	210.71
346.37	210.87
346.75	210.90
347.13	210.91
347.52	210.97
347.90	211.03
348.28	211.04
348.66	211.13
349.05	211.08
349.43	211.14
349.81	211.16
350.19	211.25
350.57	211.25
350.96	211.24
351.34	211.32
351.72	211.43
352.10	211.57
352.48	211.65
352.87	211.75
353.25	211.74
353.63	211.88
354.01	212.05
354.39	212.08
354.77	212.21
355.15	212.43
355.54	212.46
355.92	212.45
356.30	212.53
356.68	212.72
357.06	212.76
357.44	212.85
357.82	212.86
358.20	212.86
358.58	212.93
358.97	213.08
359.35	213.20
359.73	213.31
360.11	213.28
360.49	213.32
360.87	213.27
361.25	213.42
361.63	213.48
362.01	213.43
362.39	213.53
362.77	213.62
363.15	213.61
363.53	213.65
363.91	213.73
364.29	213.75
364.67	213.61
365.05	213.71
365.43	213.80
365.81	213.89
366.19	214.04
366.57	214.15
366.95	214.07
367.33	213.97
367.71	214.01
368.09	214.02
368.47	214.09
368.85	214.12
369.23	214.05
369.61	214.09
369.99	214.14
370.37	214.09
370.75	214.11
371.13	214.01
371.51	214.04
371.89	214.06
372.27	214.11
372.65	214.05
373.03	213.99
373.41	213.89
373.78	213.79
374.16	213.64
374.54	213.49
374.92	213.53
375.30	213.52
375.68	213.42
376.06	213.49
376.44	213.41
376.82	213.41
377.19	213.36
377.57	213.22
377.95	213.13
378.33	213.09
378.71	212.94
379.09	212.95
379.47	212.85
379.84	212.73
380.22	212.57
380.60	212.50
380.98	212.48
381.36	212.43
381.73	212.32
382.11	212.26
382.49	212.25
382.87	212.17
383.25	212.11
383.62	212.31
384.00	212.18
384.38	212.12
384.76	212.11
385.13	212.13
385.51	212.13
385.89	212.08
386.27	212.00
386.64	212.03
387.02	211.97
387.40	211.93
387.78	211.88
388.15	211.93
388.53	211.90
388.91	211.91
389.29	211.85
389.66	211.87
390.04	211.87
390.42	211.90
390.79	211.87
391.17	211.90
391.55	211.72
391.92	211.76
392.30	211.80
392.68	211.70
393.05	211.68
393.43	211.65
393.81	211.64
394.18	211.67
394.56	211.64
394.94	211.67
395.31	211.68
395.69	211.79
396.06	211.80
396.44	211.82
396.82	211.73
397.19	211.81
397.57	211.88
397.95	211.98
398.32	211.98
398.70	212.02
399.07	212.10
399.45	212.08
399.82	212.13
400.20	212.12
400.58	212.22
400.95	212.18
401.33	212.30
401.70	212.56
402.08	212.61
402.45	212.66
402.83	212.80
403.20	212.84
403.58	212.89
403.95	213.01
404.33	213.11
404.71	213.33
405.08	213.51
405.46	213.60
405.83	213.67
406.21	213.83
406.58	213.96
406.96	214.10
407.33	214.24
407.70	214.36
408.08	214.72
408.45	215.03
408.83	215.38
409.20	215.65
409.58	215.73
409.95	216.05
410.33	216.44
410.70	216.70
411.08	217.12
411.45	217.43
411.82	217.74
412.20	218.21
412.57	218.70
412.95	219.07
413.32	219.62
413.69	220.18
414.07	220.72
414.44	221.35
414.82	221.99
415.19	222.68
415.56	223.43
415.94	224.06
416.31	224.83
416.68	225.69
417.06	226.63
417.43	227.66
417.81	228.75
418.18	229.77
418.55	230.90
418.93	232.09
419.30	233.41
419.67	234.73
420.04	236.14
420.42	237.56
420.79	239.30
421.16	241.04
421.54	242.85
421.91	244.71
422.28	246.52
422.66	248.51
423.03	250.57
423.40	252.62
423.77	254.87
424.15	257.15
424.52	259.48
424.89	261.93
425.26	264.27
425.64	266.55
426.01	269.07
426.38	271.72
426.75	274.44
427.13	277.19
427.50	280.16
427.87	283.16
428.24	286.17
428.61	289.00
428.99	292.14
429.36	295.57
429.73	298.91
430.10	302.40
430.47	305.80
430.85	309.34
431.22	313.20
431.59	317.33
431.96	321.15
432.33	325.33
432.70	329.58
433.08	334.42
433.45	338.99
433.82	343.50
434.19	348.51
434.56	353.44
434.93	358.14
435.30	362.80
435.68	368.00
436.05	373.06
436.42	378.13
436.79	382.71
437.16	387.64
437.53	392.93
437.90	398.11
438.27	403.28
438.64	408.69
439.01	413.53
439.38	417.76
439.75	421.96
440.13	426.85
440.50	431.24
440.87	434.89
441.24	438.68
441.61	442.93
441.98	446.15
442.35	449.74
442.72	453.47
443.09	456.99
443.46	459.04
443.83	460.40
444.20	461.64
444.57	463.39
444.94	464.14
445.31	464.95
445.68	465.72
446.05	465.91
446.42	465.12
446.79	464.42
447.16	463.44
447.53	462.74
447.90	460.60
448.27	458.57
448.64	455.79
449.01	453.69
449.37	450.02
449.74	446.45
450.11	442.41
450.48	437.82
450.85	433.33
451.22	429.31
451.59	425.62
451.96	422.06
452.33	417.34
452.70	413.07
453.07	407.99
453.43	402.77
453.80	397.95
454.17	393.30
454.54	388.84
454.91	384.23
455.28	379.65
455.65	375.31
456.02	370.92
456.38	367.25
456.75	362.77
457.12	358.99
457.49	355.22
457.86	351.54
458.23	348.43
458.59	345.00
458.96	341.67
459.33	338.62
459.70	335.49
460.07	333.06
460.43	330.27
460.80	327.64
461.17	325.29
461.54	322.82
461.91	320.52
462.27	318.23
462.64	316.29
463.01	313.98
463.38	311.90
463.74	309.81
464.11	307.94
464.48	306.22
464.85	304.48
465.21	303.10
465.58	301.57
465.95	299.83
466.32	298.38
466.68	296.94
467.05	295.57
467.42	294.22
467.78	292.85
468.15	291.51
468.52	290.52
468.88	289.26
469.25	288.15
469.62	287.25
469.98	286.23
470.35	285.29
470.72	284.53
471.08	283.50
471.45	282.73
471.82	281.94
472.18	281.09
472.55	280.46
472.92	279.80
473.28	279.25
473.65	278.75
474.02	278.15
474.38	277.79
474.75	277.39
475.11	277.04
475.48	276.68
475.85	276.50
476.21	276.22
476.58	276.15
476.94	276.06
477.31	276.03
477.67	275.96
478.04	276.02
478.41	276.16
478.77	276.55
479.14	276.74
479.50	277.00
479.87	277.47
480.23	277.92
480.60	278.27
480.96	278.70
481.33	279.41
481.69	280.20
482.06	280.85
482.42	281.52
482.79	282.22
483.15	283.13
483.52	284.12
483.88	285.11
484.25	286.13
484.61	287.20
484.98	288.31
485.34	289.67
485.71	290.98
486.07	292.36
486.44	293.70
486.80	295.19
487.17	296.82
487.53	298.52
487.90	300.39
488.26	302.27
488.62	304.28
488.99	306.17
489.35	308.18
489.72	310.44
490.08	312.83
490.44	315.35
490.81	317.99
491.17	320.59
491.54	323.49
491.90	326.51
492.26	329.80
492.63	333.12
492.99	336.51
493.36	340.11
493.72	343.93
494.08	347.93
494.45	352.27
494.81	356.72
495.17	361.36
495.54	366.19
495.90	371.38
496.26	376.65
496.63	382.14
496.99	387.90
497.35	393.96
497.72	400.26
498.08	406.65
498.44	413.33
498.80	420.65
499.17	428.01
499.53	435.68
499.89	443.70
500.26	451.73
500.62	460.10
500.98	469.03
501.34	478.22
501.71	487.64
502.07	497.30
502.43	507.19
502.79	517.46
503.16	528.02
503.52	538.93
503.88	550.12
504.24	561.76
504.60	573.54
504.97	585.56
505.33	598.02
505.69	611.31
506.05	624.80
506.41	638.22
506.78	651.90
507.14	665.73
507.50	680.24
507.86	695.29
508.22	710.66
508.59	726.05
508.95	741.84
509.31	758.10
509.67	774.66
510.03	791.54
510.39	809.09
510.75	826.76
511.12	844.84
511.48	863.18
511.84	881.74
512.20	900.32
512.56	919.57
512.92	938.86
513.28	958.23
513.64	977.68
514.00	997.32
514.37	1017.71
514.73	1038.44
515.09	1058.93
515.45	1079.61
515.81	1100.47
516.17	1121.48
516.53	1142.63
516.89	1164.04
517.25	1185.44
517.61	1206.90
517.97	1227.89
518.33	1249.09
518.69	1270.45
519.05	1291.99
519.41	1313.72
519.77	1336.11
520.13	1358.17
520.49	1380.37
520.85	1402.87
521.21	1425.43
521.57	1448.39
521.93	1470.14
522.29	1492.87
522.65	1515.44
523.01	1537.80
523.37	1559.71
523.73	1581.90
524.09	1604.05
524.45	1625.97
524.81	1648.05
525.17	1670.00
525.53	1692.37
525.89	1714.82
526.25	1736.67
526.61	1758.26
526.97	1779.93
527.33	1800.85
527.68	1822.10
528.04	1843.14
528.40	1863.29
528.76	1883.74
529.12	1903.93
529.48	1925.30
529.84	1945.46
530.20	1965.15
530.56	1985.22
530.91	2005.70
531.27	2025.58
531.63	2045.15
531.99	2064.74
532.35	2083.60
532.71	2102.84
533.07	2122.26
533.42	2140.37
533.78	2159.29
534.14	2177.52
534.50	2194.31
534.86	2212.33
535.21	2228.63
535.57	2245.80
535.93	2262.95
536.29	2279.74
536.65	2296.51
537.00	2311.85
537.36	2326.76
537.72	2341.91
538.08	2356.91
538.44	2372.02
538.79	2387.31
539.15	2401.79
539.51	2416.32
539.87	2431.68
540.22	2445.87
540.58	2460.10
540.94	2474.39
541.29	2486.70
541.65	2498.60
542.01	2511.85
542.37	2523.24
542.72	2535.70
543.08	2546.50
543.44	2557.92
543.79	2567.67
544.15	2577.58
544.51	2588.47
544.87	2599.50
545.22	2608.25
545.58	2616.57
545.94	2623.68
546.29	2629.66
546.65	2636.22
547.01	2642.18
547.36	2647.44
547.72	2653.01
548.07	2656.80
548.43	2660.38
548.79	2664.28
549.14	2668.80
549.50	2672.65
549.86	2676.53
550.21	2680.17
550.57	2684.04
550.92	2686.50
551.28	2689.15
551.64	2691.55
551.99	2693.64
552.35	2694.93
552.70	2697.75
553.06	2700.37
553.41	2703.02
553.77	2706.15
554.13	2708.15
554.48	2709.74
554.84	2711.03
555.19	2711.14
555.55	2711.70
555.90	2712.15
556.26	2712.37
556.61	2712.05
556.97	2710.90
557.32	2710.48
557.68	2708.67
558.03	2707.25
558.39	2705.52
558.74	2705.16
559.10	2703.64
559.45	2701.79
559.81	2700.46
560.16	2698.10
560.52	2695.51
560.87	2692.84
561.23	2689.07
561.58	2686.43
561.94	2683.41
562.29	2679.47
562.64	2677.15
563.00	2674.30
563.35	2671.94
563.71	2669.87
564.06	2667.78
564.42	2666.00
564.77	2663.23
565.12	2661.69
565.48	2658.33
565.83	2655.52
566.19	2651.84
566.54	2647.50
566.89	2643.48
567.25	2639.78
567.60	2636.36
567.96	2632.43
568.31	2628.41
568.66	2624.48
569.02	2619.99
569.37	2614.98
569.72	2611.19
570.08	2605.90
570.43	2600.34
570.78	2594.58
571.14	2588.62
571.49	2582.02
571.84	2575.98
572.20	2569.15
572.55	2562.21
572.90	2555.89
573.26	2548.97
573.61	2542.23
573.96	2535.87
574.31	2528.01
574.67	2519.65
575.02	2510.97
575.37	2502.67
575.72	2494.09
576.08	2486.73
576.43	2478.07
576.78	2470.46
577.13	2462.71
577.49	2454.49
577.84	2446.90
578.19	2439.82
578.54	2432.57
578.90	2425.41
579.25	2416.98
579.60	2408.43
579.95	2399.35
580.30	2391.06
580.66	2383.00
581.01	2374.03
581.36	2364.98
581.71	2356.70
582.06	2348.38
582.42	2340.40
582.77	2331.39
583.12	2322.56
583.47	2313.86
583.82	2305.81
584.17	2296.26
584.53	2287.07
584.88	2278.53
585.23	2269.67
585.58	2259.80
585.93	2249.99
586.28	2240.92
586.63	2232.08
586.98	2223.83
587.34	2215.43
587.69	2206.14
588.04	2197.18
588.39	2188.63
588.74	2179.60
589.09	2171.12
589.44	2161.65
589.79	2153.15
590.14	2145.45
590.49	2137.36
590.84	2128.31
591.19	2120.31
591.54	2111.98
591.89	2102.01
592.25	2093.11
592.60	2083.77
592.95	2074.54
593.30	2065.18
593.65	2055.51
594.00	2046.04
594.35	2037.97
594.70	2028.97
595.05	2020.83
595.40	2011.93
595.75	2002.56
596.10	1994.25
596.45	1985.60
596.80	1978.25
597.15	1970.25
597.50	1961.12
597.85	1952.67
598.19	1944.13
598.54	1935.22
598.89	1927.35
599.24	1920.64
599.59	1913.01
599.94	1906.06
600.29	1898.64
600.64	1891.00
600.99	1883.16
601.34	1876.09
601.69	1867.24
602.04	1859.22
602.39	1851.06
602.74	1843.69
603.08	1837.18
603.43	1830.36
603.78	1822.57
604.13	1814.17
604.48	1806.03
604.83	1799.25
605.18	1792.29
605.53	1784.69
605.87	1777.33
606.22	1770.61
606.57	1763.01
606.92	1755.26
607.27	1747.16
607.62	1739.70
607.96	1732.73
608.31	1726.27
608.66	1718.48
609.01	1711.19
609.36	1703.61
609.70	1695.77
610.05	1687.92
610.40	1680.00
610.75	1671.45
611.10	1663.93
611.44	1655.22
611.79	1646.54
612.14	1637.50
612.49	1628.01
612.83	1619.61
613.18	1609.89
613.53	1600.37
613.88	1590.76
614.22	1581.90
614.57	1572.72
614.92	1563.74
615.27	1554.63
615.61	1545.04
615.96	1536.36
616.31	1527.87
616.65	1520.09
617.00	1511.97
617.35	1503.38
617.70	1494.35
618.04	1485.53
618.39	1476.40
618.74	1468.21
619.08	1459.60
619.43	1451.38
619.78	1443.52
620.12	1435.63
620.47	1428.24
620.82	1419.67
621.16	1411.37
621.51	1402.95
621.85	1395.03
622.20	1386.52
622.55	1378.20
622.89	1370.20
623.24	1362.17
623.59	1353.50
623.93	1344.83
624.28	1336.53
624.62	1328.51
624.97	1320.46
625.32	1312.70
625.66	1305.52
626.01	1298.10
626.35	1291.00
626.70	1283.24
627.04	1276.09
627.39	1268.57
627.73	1261.31
628.08	1254.67
628.43	1247.53
628.77	1240.36
629.12	1232.77
629.46	1226.30
629.81	1219.08
630.15	1211.77
630.50	1204.34
630.84	1197.26
631.19	1190.46
631.53	1183.60
631.88	1176.01
632.22	1168.66
632.57	1161.76
632.91	1154.32
633.26	1146.92
633.60	1139.88
633.95	1133.55
634.29	1126.34
634.64	1119.45
634.98	1112.27
635.32	1105.37
635.67	1099.03
636.01	1092.59
636.36	1086.11
636.70	1079.26
637.05	1072.95
637.39	1066.82
637.73	1060.65
638.08	1054.85
638.42	1048.75
638.77	1042.37
639.11	1036.36
639.45	1030.28
639.80	1023.89
640.14	1017.72
640.49	1011.59
640.83	1005.48
641.17	999.01
641.52	992.82
641.86	986.43
642.20	980.43
642.55	973.62
642.89	967.01
643.23	960.69
643.58	954.88
643.92	948.45
644.26	942.36
644.61	936.27
644.95	930.06
645.29	923.83
645.64	917.47
645.98	911.41
646.32	905.44
646.66	899.42
647.01	893.50
647.35	887.48
647.69	881.41
648.04	875.22
648.38	869.23
648.72	863.38
649.06	857.63
649.41	851.61
649.75	845.89
650.09	840.37
650.43	834.44
650.78	828.11
651.12	822.21
651.46	816.46
651.80	810.57
652.14	804.60
652.49	798.78
652.83	792.82
653.17	786.85
653.51	781.20
653.85	775.49
654.20	769.75
654.54	763.90
654.88	758.54
655.22	752.85
655.56	747.03
655.90	741.18
656.25	735.47
656.59	730.11
656.93	725.01
657.27	719.85
657.61	714.31
657.95	709.49
658.29	704.50
658.64	699.27
658.98	694.15
659.32	689.03
659.66	683.94
660.00	678.89
660.34	673.69
660.68	668.61
661.02	663.72
661.36	659.10
661.70	654.40
662.05	649.74
662.39	645.32
662.73	640.90
663.07	636.78
663.41	632.39
663.75	627.87
664.09	623.28
664.43	618.52
664.77	614.39
665.11	609.71
665.45	605.40
665.79	601.07
666.13	596.59
666.47	592.37
666.81	588.24
667.15	584.25
667.49	580.48
667.83	576.38
668.17	572.54
668.51	568.65
668.85	565.10
669.19	561.42
669.53	557.55
669.87	553.73
670.21	549.67
670.55	545.84
670.89	542.36
671.23	539.03
671.57	535.76
671.91	532.09
672.25	528.71
672.58	525.26
672.92	521.86
673.26	518.80
673.60	515.59
673.94	512.20
674.28	508.87
674.62	505.69
674.96	502.60
675.30	499.57
675.64	496.39
675.97	493.00
676.31	489.93
676.65	487.17
676.99	484.44
677.33	481.65
677.67	478.88
678.01	475.72
678.34	472.79
678.68	469.82
679.02	467.02
679.36	464.20
679.70	461.42
680.04	458.61
680.37	455.62
680.71	452.98
681.05	450.49
681.39	447.78
681.73	445.18
682.06	442.74
682.40	440.08
682.74	437.53
683.08	435.10
683.42	432.52
683.75	429.96
684.09	427.47
684.43	425.00
684.77	422.45
685.10	420.09
685.44	417.42
685.78	415.01
686.12	412.74
686.45	410.34
686.79	407.97
687.13	405.81
687.46	403.74
687.80	401.38
688.14	399.06
688.48	397.12
688.81	394.92
689.15	392.65
689.49	390.37
689.82	388.16
690.16	385.91
690.50	383.62
690.83	381.29
691.17	378.97
691.51	376.84
691.84	374.79
692.18	372.77
692.52	370.95
692.85	369.12
693.19	367.31
693.52	365.45
693.86	363.49
694.20	361.63
694.53	359.66
694.87	357.85
695.21	355.95
695.54	353.89
695.88	352.03
696.21	350.24
696.55	348.74
696.88	346.97
697.22	345.29
697.56	343.79
697.89	342.20
698.23	340.64
698.56	339.00
698.90	337.50
699.23	335.93
699.57	334.25
699.90	332.47
700.24	330.83
700.58	329.28
700.91	327.90
701.25	326.40
701.58	325.02
701.92	323.56
702.25	322.19
702.59	320.86
702.92	319.44
703.26	318.13
703.59	316.66
703.93	315.58
704.26	314.43
704.60	313.13
704.93	311.94
705.26	310.76
705.60	309.51
705.93	308.26
706.27	307.16
706.60	306.16
706.94	305.27
707.27	304.03
707.61	302.89
707.94	301.75
708.27	300.58
708.61	299.48
708.94	298.48
709.28	297.37
709.61	296.27
709.94	295.29
710.28	294.24
710.61	293.27
710.95	292.10
711.28	291.08
711.61	290.07
711.95	289.14
712.28	288.11
712.61	287.15
712.95	286.28
713.28	285.34
713.61	284.31
713.95	283.26
714.28	282.41
714.61	281.54
714.95	280.64
715.28	279.71
715.61	278.78
715.95	277.74
716.28	276.92
716.61	276.17
716.95	275.28
717.28	274.48
717.61	273.65
717.94	272.94
718.28	272.09
718.61	271.35
718.94	270.55
719.27	269.84
719.61	269.15
719.94	268.28
720.27	267.52
720.60	266.87
720.94	266.20
721.27	265.47
721.60	264.86
721.93	264.29
722.27	263.76
722.60	263.20
722.93	262.74
723.26	262.07
723.59	261.43
723.93	260.93
724.26	260.34
724.59	259.82
724.92	259.25
725.25	258.72
725.59	258.10
725.92	257.49
726.25	257.00
726.58	256.43
726.91	256.00
727.24	255.54
727.57	254.99
727.91	254.37
728.24	253.96
728.57	253.54
728.90	253.06
729.23	252.48
729.56	252.04
729.89	251.48
730.22	251.02
730.55	250.49
730.89	249.99
731.22	249.56
731.55	249.03
731.88	248.61
732.21	248.15
732.54	247.70
732.87	247.38
733.20	246.92
733.53	246.51
733.86	246.09
734.19	245.64
734.52	245.30
734.85	245.07
735.18	244.69
735.51	244.23
735.84	243.81
736.17	243.53
736.50	243.15
736.83	243.15
737.16	242.84
737.49	242.59
737.82	242.18
738.15	241.83
738.48	241.53
738.81	241.10
739.14	240.76
739.47	240.51
739.80	240.15
740.13	239.75
740.46	239.38
740.79	239.00
741.12	238.61
741.45	238.19
741.78	237.83
742.11	237.56
742.44	237.27
742.77	236.92
743.10	236.56
743.43	236.22
743.75	235.55
744.08	235.47
744.41	235.16
744.74	234.86
745.07	234.55
745.40	234.25
745.73	234.11
746.06	233.83
746.39	233.57
746.71	233.31
747.04	233.14
747.37	232.90
747.70	232.74
748.03	232.51
748.36	232.33
748.68	232.05
749.01	231.73
749.34	231.49
749.67	231.33
750.00	231.16
750.33	231.07
750.65	230.92
750.98	230.44
751.31	230.15
751.64	229.99
751.97	229.84
752.29	229.64
752.62	229.30
752.95	229.03
753.28	228.76
753.60	228.46
753.93	228.27
754.26	228.01
754.59	227.72
754.91	227.52
755.24	227.29
755.57	227.12
755.90	227.00
756.22	226.83
756.55	226.59
756.88	226.32
757.20	226.00
757.53	225.71
757.86	225.50
758.19	225.31
758.51	225.11
758.84	224.83
759.17	224.50
759.49	224.32
759.82	224.32
760.15	224.13
760.47	223.93
760.80	223.64
761.13	223.61
761.45	223.46
761.78	223.29
762.11	223.15
762.43	222.92
762.76	222.72
763.08	222.53
763.41	222.41
763.74	222.30
764.06	222.10
764.39	221.99
764.71	221.90
765.04	221.75
765.37	221.69
765.69	221.56
766.02	221.54
766.34	221.40
766.67	221.15
767.00	221.10
767.32	221.05
767.65	221.05
767.97	220.83
768.30	220.69
768.62	220.56
768.95	220.45
769.27	220.30
769.60	220.16
769.92	220.05
770.25	219.94
770.57	219.78
770.90	219.73
771.22	219.61
771.55	219.47
771.87	219.40
772.20	219.19
772.52	219.30
772.85	219.36
773.17	219.35
773.50	219.24
773.82	219.10
774.15	218.92
774.47	218.72
774.80	218.68
775.12	218.60
775.45	218.48
775.77	218.37
776.09	218.40
776.42	218.32
776.74	218.27
777.07	218.18
777.39	218.10
777.72	217.92
778.04	217.86
778.36	217.77
778.69	217.66
779.01	217.66
779.33	217.45
779.66	217.22
779.98	217.07
780.31	217.04
780.63	217.09
780.95	217.09
781.28	217.07
781.60	216.95
781.92	216.91
782.25	216.83
782.57	216.81
782.89	216.66
783.22	216.64
783.54	216.46
783.86	216.39
784.19	216.32
784.51	216.36
784.83	216.35
785.16	216.38
785.48	216.38
785.80	216.32
786.12	216.27
786.45	216.20
