SpectraSuite Data File
++++++++++++++++++++++++++++++++++++
Date: Mon Feb 25 17:29:47 EST 2013
User: group
Dark Spectrum Present: No
Reference Spectrum Present: No
Number of Sampled Component Spectra: 1
Spectrometers: USB2E7196
Integration Time (usec): 52000 (USB2E7196)
Spectra Averaged: 20 (USB2E7196)
Boxcar Smoothing: 10 (USB2E7196)
Correct for Electrical Dark: No (USB2E7196)
Strobe/Lamp Enabled: No (USB2E7196)
Correct for Detector Non-linearity: No (USB2E7196)
Correct for Stray Light: No (USB2E7196)
Number of Pixels in Processed Spectrum: 2048
>>>>>Begin Processed Spectral Data<<<<<
339.09	0.00
339.48	197.85
339.86	200.95
340.24	201.10
340.63	204.45
341.01	206.70
341.39	206.05
341.78	207.10
342.16	208.90
342.54	207.45
342.93	198.01
343.31	208.02
343.69	208.60
344.07	209.04
344.46	209.53
344.84	209.87
345.22	210.08
345.60	210.36
345.99	210.56
346.37	210.71
346.75	210.91
347.13	211.02
347.52	211.07
347.90	211.16
348.28	211.17
348.66	211.28
349.05	211.32
349.43	211.42
349.81	211.46
350.19	211.58
350.57	211.66
350.96	211.72
351.34	211.85
351.72	211.93
352.10	211.98
352.48	211.98
352.87	212.01
353.25	212.06
353.63	212.07
354.01	212.19
354.39	212.20
354.77	212.25
355.15	212.32
355.54	212.32
355.92	212.38
356.30	212.47
356.68	212.56
357.06	212.63
357.44	212.63
357.82	212.69
358.20	212.73
358.58	212.74
358.97	212.83
359.35	212.88
359.73	212.98
360.11	213.07
360.49	213.13
360.87	213.20
361.25	213.27
361.63	213.36
362.01	213.35
362.39	213.39
362.77	213.45
363.15	213.52
363.53	213.64
363.91	213.66
364.29	213.69
364.67	213.60
365.05	213.55
365.43	213.66
365.81	213.73
366.19	213.82
366.57	213.90
366.95	213.80
367.33	213.81
367.71	213.78
368.09	213.90
368.47	213.95
368.85	213.98
369.23	213.97
369.61	213.91
369.99	213.94
370.37	213.92
370.75	213.99
371.13	213.91
371.51	213.90
371.89	213.86
372.27	213.82
372.65	213.85
373.03	213.80
373.41	213.63
373.78	213.58
374.16	213.42
374.54	213.30
374.92	213.38
375.30	213.30
375.68	213.24
376.06	213.12
376.44	213.02
376.82	212.92
377.19	212.93
377.57	212.89
377.95	212.82
378.33	212.78
378.71	212.62
379.09	212.61
379.47	212.54
379.84	212.50
380.22	212.55
380.60	212.46
380.98	212.42
381.36	212.44
381.73	212.31
382.11	212.31
382.49	212.26
382.87	212.21
383.25	212.15
383.62	212.35
384.00	212.33
384.38	212.36
384.76	212.34
385.13	212.40
385.51	212.40
385.89	212.40
386.27	212.40
386.64	212.45
387.02	212.35
387.40	212.33
387.78	212.27
388.15	212.26
388.53	212.25
388.91	212.30
389.29	212.25
389.66	212.29
390.04	212.32
390.42	212.35
390.79	212.31
391.17	212.32
391.55	212.07
391.92	212.05
392.30	212.02
392.68	212.03
393.05	211.95
393.43	211.88
393.81	211.81
394.18	211.81
394.56	211.76
394.94	211.86
395.31	211.80
395.69	211.85
396.06	211.77
396.44	211.82
396.82	211.79
397.19	211.87
397.57	211.83
397.95	211.82
398.32	211.76
398.70	211.76
399.07	211.81
399.45	211.75
399.82	211.76
400.20	211.76
400.58	211.79
400.95	211.78
401.33	211.87
401.70	212.02
402.08	212.05
402.45	212.05
402.83	212.11
403.20	212.25
403.58	212.31
403.95	212.36
404.33	212.42
404.71	212.57
405.08	212.79
405.46	212.95
405.83	213.05
406.21	213.13
406.58	213.22
406.96	213.36
407.33	213.60
407.70	213.73
408.08	214.02
408.45	214.21
408.83	214.36
409.20	214.60
409.58	214.82
409.95	215.09
410.33	215.33
410.70	215.60
411.08	215.90
411.45	216.26
411.82	216.55
412.20	216.94
412.57	217.35
412.95	217.55
413.32	217.95
413.69	218.42
414.07	218.93
414.44	219.50
414.82	220.03
415.19	220.63
415.56	221.31
415.94	221.87
416.31	222.58
416.68	223.38
417.06	224.25
417.43	225.03
417.81	225.90
418.18	226.91
418.55	227.92
418.93	228.92
419.30	230.06
419.67	231.37
420.04	232.59
420.42	233.84
420.79	235.39
421.16	236.87
421.54	238.35
421.91	240.00
422.28	241.61
422.66	243.35
423.03	245.15
423.40	246.91
423.77	248.87
424.15	250.80
424.52	252.85
424.89	254.94
425.26	257.01
425.64	259.12
426.01	261.35
426.38	263.69
426.75	266.11
427.13	268.44
427.50	271.03
427.87	273.66
428.24	276.34
428.61	278.93
428.99	281.75
429.36	284.84
429.73	287.80
430.10	290.86
430.47	294.04
430.85	297.21
431.22	300.61
431.59	304.29
431.96	307.67
432.33	311.44
432.70	315.16
433.08	319.57
433.45	323.57
433.82	327.60
434.19	332.01
434.56	336.35
434.93	340.53
435.30	344.50
435.68	349.14
436.05	353.62
436.42	358.08
436.79	362.19
437.16	366.54
437.53	371.17
437.90	375.80
438.27	380.24
438.64	384.85
439.01	389.17
439.38	392.92
439.75	396.73
440.13	400.95
440.50	404.94
440.87	407.99
441.24	411.29
441.61	414.94
441.98	417.56
442.35	420.75
442.72	423.99
443.09	427.12
443.46	428.84
443.83	430.08
444.20	431.07
444.57	432.72
444.94	433.40
445.31	434.22
445.68	434.87
446.05	435.10
446.42	434.66
446.79	434.02
447.16	433.31
447.53	432.81
447.90	431.10
448.27	429.35
448.64	427.00
449.01	425.30
449.37	422.26
449.74	419.32
450.11	415.75
450.48	411.88
450.85	407.96
451.22	404.61
451.59	401.37
451.96	398.24
452.33	394.06
452.70	390.37
453.07	385.84
453.43	381.39
453.80	377.13
454.17	373.00
454.54	369.13
454.91	364.95
455.28	360.86
455.65	357.01
456.02	353.39
456.38	350.15
456.75	346.15
457.12	342.73
457.49	339.42
457.86	336.17
458.23	333.50
458.59	330.45
458.96	327.47
459.33	324.78
459.70	322.17
460.07	320.05
460.43	317.66
460.80	315.40
461.17	313.31
461.54	311.19
461.91	309.20
462.27	307.09
462.64	305.32
463.01	303.45
463.38	301.59
463.74	299.58
464.11	297.96
464.48	296.58
464.85	295.08
465.21	294.08
465.58	292.90
465.95	291.38
466.32	290.23
466.68	289.06
467.05	287.98
467.42	286.74
467.78	285.50
468.15	284.30
468.52	283.55
468.88	282.49
469.25	281.43
469.62	280.59
469.98	279.76
470.35	279.10
470.72	278.40
471.08	277.63
471.45	276.94
471.82	276.25
472.18	275.45
472.55	274.98
472.92	274.35
473.28	273.90
473.65	273.44
474.02	272.95
474.38	272.52
474.75	272.25
475.11	271.98
475.48	271.84
475.85	271.67
476.21	271.50
476.58	271.54
476.94	271.68
477.31	271.74
477.67	271.87
478.04	271.93
478.41	272.09
478.77	272.47
479.14	272.69
479.50	273.11
479.87	273.58
480.23	274.03
480.60	274.41
480.96	274.83
481.33	275.61
481.69	276.28
482.06	277.05
482.42	277.74
482.79	278.57
483.15	279.46
483.52	280.53
483.88	281.54
484.25	282.48
484.61	283.49
484.98	284.63
485.34	285.89
485.71	287.28
486.07	288.70
486.44	290.01
486.80	291.70
487.17	293.30
487.53	295.05
487.90	296.85
488.26	298.88
488.62	300.89
488.99	302.80
489.35	305.07
489.72	307.29
490.08	309.70
490.44	312.18
490.81	314.85
491.17	317.62
491.54	320.48
491.90	323.46
492.26	326.70
492.63	330.02
492.99	333.52
493.36	337.11
493.72	340.99
494.08	345.03
494.45	349.16
494.81	353.65
495.17	358.20
495.54	363.03
495.90	368.05
496.26	373.39
496.63	378.92
496.99	384.45
497.35	390.38
497.72	396.47
498.08	402.77
498.44	409.33
498.80	416.30
499.17	423.48
499.53	430.97
499.89	438.68
500.26	446.45
500.62	454.41
500.98	463.03
501.34	471.78
501.71	480.88
502.07	490.20
502.43	499.83
502.79	509.71
503.16	520.06
503.52	530.41
503.88	541.02
504.24	552.02
504.60	563.37
504.97	575.13
505.33	587.13
505.69	599.89
506.05	612.64
506.41	625.61
506.78	638.74
507.14	652.09
507.50	665.98
507.86	680.37
508.22	695.06
508.59	709.66
508.95	724.69
509.31	739.92
509.67	755.74
510.03	771.59
510.39	788.13
510.75	804.70
511.12	821.69
511.48	838.82
511.84	856.22
512.20	873.90
512.56	891.74
512.92	909.78
513.28	927.68
513.64	946.00
514.00	964.34
514.37	983.16
514.73	1002.41
515.09	1021.60
515.45	1040.76
515.81	1060.25
516.17	1079.73
516.53	1099.42
516.89	1119.12
517.25	1138.44
517.61	1158.03
517.97	1177.56
518.33	1197.05
518.69	1216.96
519.05	1237.06
519.41	1257.03
519.77	1277.32
520.13	1297.39
520.49	1317.53
520.85	1337.91
521.21	1358.17
521.57	1378.55
521.93	1398.27
522.29	1418.70
522.65	1438.72
523.01	1458.86
523.37	1478.53
523.73	1498.41
524.09	1518.11
524.45	1537.92
524.81	1557.94
525.17	1577.79
525.53	1597.45
525.89	1617.20
526.25	1636.18
526.61	1654.81
526.97	1673.75
527.33	1691.99
527.68	1710.71
528.04	1728.82
528.40	1746.35
528.76	1764.48
529.12	1782.25
529.48	1801.04
529.84	1818.36
530.20	1835.64
530.56	1852.95
530.91	1870.51
531.27	1887.60
531.63	1904.40
531.99	1921.25
532.35	1937.64
532.71	1953.80
533.07	1970.33
533.42	1985.75
533.78	2001.95
534.14	2017.81
534.50	2032.12
534.86	2047.15
535.21	2060.79
535.57	2075.59
535.93	2090.36
536.29	2104.12
536.65	2117.93
537.00	2130.40
537.36	2142.75
537.72	2155.22
538.08	2167.67
538.44	2180.33
538.79	2193.12
539.15	2205.09
539.51	2216.68
539.87	2229.00
540.22	2240.22
540.58	2251.85
540.94	2263.31
541.29	2273.13
541.65	2282.29
542.01	2292.52
542.37	2302.04
542.72	2311.59
543.08	2319.85
543.44	2328.75
543.79	2336.32
544.15	2344.11
544.51	2352.52
544.87	2361.08
545.22	2367.80
545.58	2373.98
545.94	2378.73
546.29	2382.93
546.65	2387.28
547.01	2391.63
547.36	2394.75
547.72	2398.68
548.07	2400.55
548.43	2402.58
548.79	2404.71
549.14	2407.51
549.50	2410.20
549.86	2412.18
550.21	2414.50
550.57	2416.84
550.92	2417.81
551.28	2418.73
551.64	2419.46
551.99	2420.29
552.35	2420.29
552.70	2421.61
553.06	2422.64
553.41	2424.09
553.77	2425.28
554.13	2426.05
554.48	2426.23
554.84	2426.55
555.19	2425.61
555.55	2425.15
555.90	2424.42
556.26	2423.70
556.61	2422.32
556.97	2419.91
557.32	2418.58
557.68	2415.87
558.03	2413.65
558.39	2411.33
558.74	2410.08
559.10	2408.27
559.45	2405.50
559.81	2403.64
560.16	2400.08
560.52	2396.72
560.87	2393.09
561.23	2388.81
561.58	2385.54
561.94	2381.89
562.29	2377.46
562.64	2374.50
563.00	2371.53
563.35	2368.56
563.71	2366.34
564.06	2363.56
564.42	2361.26
564.77	2358.06
565.12	2355.76
565.48	2351.79
565.83	2348.27
566.19	2344.53
566.54	2339.91
566.89	2335.58
567.25	2331.39
567.60	2328.19
567.96	2324.78
568.31	2321.07
568.66	2317.30
569.02	2312.76
569.37	2307.63
569.72	2303.88
570.08	2298.89
570.43	2293.38
570.78	2288.00
571.14	2281.70
571.49	2275.29
571.84	2269.55
572.20	2263.21
572.55	2256.96
572.90	2250.80
573.26	2244.10
573.61	2237.52
573.96	2231.54
574.31	2224.50
574.67	2216.96
575.02	2208.98
575.37	2201.28
575.72	2192.97
576.08	2186.09
576.43	2178.26
576.78	2171.45
577.13	2164.51
577.49	2157.38
577.84	2150.49
578.19	2143.95
578.54	2137.25
578.90	2131.35
579.25	2123.58
579.60	2115.49
579.95	2107.41
580.30	2100.42
580.66	2093.49
581.01	2085.60
581.36	2077.45
581.71	2070.24
582.06	2063.03
582.42	2056.24
582.77	2048.11
583.12	2040.50
583.47	2032.90
583.82	2025.58
584.17	2017.56
584.53	2009.69
584.88	2001.94
585.23	1994.11
585.58	1985.66
585.93	1977.53
586.28	1969.59
586.63	1962.25
586.98	1955.36
587.34	1948.15
587.69	1940.36
588.04	1932.49
588.39	1925.18
588.74	1917.20
589.09	1909.76
589.44	1901.43
589.79	1893.73
590.14	1887.00
590.49	1879.90
590.84	1872.21
591.19	1865.79
591.54	1858.21
591.89	1849.48
592.25	1841.72
592.60	1833.85
592.95	1825.97
593.30	1818.13
593.65	1809.95
594.00	1801.65
594.35	1794.59
594.70	1786.82
595.05	1779.66
595.40	1772.32
595.75	1764.24
596.10	1757.78
596.45	1750.26
596.80	1743.67
597.15	1736.77
597.50	1728.90
597.85	1721.84
598.19	1714.61
598.54	1706.93
598.89	1700.58
599.24	1694.92
599.59	1688.57
599.94	1682.50
600.29	1676.12
600.64	1669.17
600.99	1661.90
601.34	1656.02
601.69	1648.42
602.04	1641.59
602.39	1634.70
602.74	1628.15
603.08	1622.86
603.43	1616.76
603.78	1610.19
604.13	1603.57
604.48	1596.86
604.83	1591.23
605.18	1585.32
605.53	1579.05
605.87	1572.72
606.22	1566.59
606.57	1560.04
606.92	1553.24
607.27	1546.45
607.62	1540.21
607.96	1534.62
608.31	1529.47
608.66	1522.77
609.01	1516.45
609.36	1510.09
609.70	1503.28
610.05	1496.66
610.40	1489.74
610.75	1482.51
611.10	1476.17
611.44	1468.32
611.79	1460.65
612.14	1452.74
612.49	1444.45
612.83	1436.84
613.18	1428.38
613.53	1420.16
613.88	1411.38
614.22	1403.72
614.57	1395.73
614.92	1387.61
615.27	1379.40
615.61	1370.99
615.96	1363.31
616.31	1356.10
616.65	1349.35
617.00	1342.12
617.35	1334.83
617.70	1327.20
618.04	1319.36
618.39	1311.50
618.74	1304.47
619.08	1296.97
619.43	1289.84
619.78	1283.14
620.12	1276.17
620.47	1269.78
620.82	1262.61
621.16	1255.86
621.51	1248.87
621.85	1241.83
622.20	1234.62
622.55	1227.57
622.89	1220.51
623.24	1213.54
623.59	1206.23
623.93	1198.79
624.28	1191.77
624.62	1184.60
624.97	1177.46
625.32	1170.70
625.66	1164.26
626.01	1158.12
626.35	1152.14
626.70	1145.28
627.04	1139.06
627.39	1132.55
627.73	1125.94
628.08	1120.02
628.43	1113.74
628.77	1107.35
629.12	1100.88
629.46	1095.22
629.81	1089.07
630.15	1082.92
630.50	1076.99
630.84	1070.79
631.19	1064.50
631.53	1058.72
631.88	1052.19
632.22	1045.69
632.57	1039.92
632.91	1033.45
633.26	1026.85
633.60	1020.42
633.95	1014.97
634.29	1008.56
634.64	1002.76
634.98	996.72
635.32	990.64
635.67	984.94
636.01	979.10
636.36	973.47
636.70	967.67
637.05	961.95
637.39	956.40
637.73	950.96
638.08	945.75
638.42	940.83
638.77	935.08
639.11	929.91
639.45	924.82
639.80	919.03
640.14	913.55
640.49	908.19
640.83	903.05
641.17	897.47
641.52	892.30
641.86	886.65
642.20	881.55
642.55	875.80
642.89	870.16
643.23	864.74
643.58	859.64
643.92	854.05
644.26	848.68
644.61	843.45
644.95	837.72
645.29	832.32
645.64	826.48
645.98	821.15
646.32	815.92
646.66	810.66
647.01	805.54
647.35	800.60
647.69	795.22
648.04	789.94
648.38	784.85
648.72	779.56
649.06	774.36
649.41	769.14
649.75	764.16
650.09	759.48
650.43	754.39
650.78	748.92
651.12	743.69
651.46	738.78
651.80	733.68
652.14	728.74
652.49	723.50
652.83	718.62
653.17	713.43
653.51	708.44
653.85	703.50
654.20	698.39
654.54	693.22
654.88	688.56
655.22	683.66
655.56	678.47
655.90	673.47
656.25	668.60
656.59	663.81
656.93	659.36
657.27	654.73
657.61	649.95
657.95	645.57
658.29	641.16
658.64	636.68
658.98	632.23
659.32	627.66
659.66	623.36
660.00	618.79
660.34	614.32
660.68	609.81
661.02	605.38
661.36	601.41
661.70	597.25
662.05	593.08
662.39	589.18
662.73	585.44
663.07	581.82
663.41	578.22
663.75	574.26
664.09	570.25
664.43	566.04
664.77	562.45
665.11	558.65
665.45	555.02
665.79	551.14
666.13	547.38
666.47	543.62
666.81	540.04
667.15	536.48
667.49	533.03
667.83	529.73
668.17	526.27
668.51	522.83
668.85	519.68
669.19	516.60
669.53	513.29
669.87	509.79
670.21	506.34
670.55	502.92
670.89	499.89
671.23	496.95
671.57	494.18
671.91	491.05
672.25	487.89
672.58	484.75
672.92	481.79
673.26	478.98
673.60	476.32
673.94	473.46
674.28	470.68
674.62	468.20
674.96	465.42
675.30	462.92
675.64	460.13
675.97	457.37
676.31	454.66
676.65	452.03
676.99	449.71
677.33	447.11
677.67	444.55
678.01	441.85
678.34	439.25
678.68	436.60
679.02	433.98
679.36	431.54
679.70	429.19
680.04	426.81
680.37	424.25
680.71	421.80
681.05	419.49
681.39	417.14
681.73	414.63
682.06	412.44
682.40	410.16
682.74	408.07
683.08	405.88
683.42	403.60
683.75	401.47
684.09	399.19
684.43	397.21
684.77	395.06
685.10	393.00
685.44	390.78
685.78	388.66
686.12	386.72
686.45	384.80
686.79	382.84
687.13	381.05
687.46	379.23
687.80	377.32
688.14	375.35
688.48	373.54
688.81	371.69
689.15	369.77
689.49	367.92
689.82	365.91
690.16	363.90
690.50	362.02
690.83	360.06
691.17	358.12
691.51	356.20
691.84	354.36
692.18	352.62
692.52	350.96
692.85	349.39
693.19	347.79
693.52	346.05
693.86	344.23
694.20	342.48
694.53	340.84
694.87	339.15
695.21	337.44
695.54	335.84
695.88	334.23
696.21	332.60
696.55	330.99
696.88	329.54
697.22	328.17
697.56	326.89
697.89	325.48
698.23	324.09
698.56	322.69
698.90	321.41
699.23	320.01
699.57	318.64
699.90	317.22
700.24	315.71
700.58	314.35
700.91	313.08
701.25	311.93
701.58	310.67
701.92	309.47
702.25	308.36
702.59	307.09
702.92	305.90
703.26	304.70
703.59	303.54
703.93	302.58
704.26	301.46
704.60	300.26
704.93	299.16
705.26	298.14
705.60	297.12
705.93	296.00
706.27	295.00
706.60	294.05
706.94	293.14
707.27	292.15
707.61	291.20
707.94	290.24
708.27	289.04
708.61	288.05
708.94	287.15
709.28	286.14
709.61	285.21
709.94	284.36
710.28	283.47
710.61	282.65
710.95	281.56
711.28	280.83
711.61	279.88
711.95	278.98
712.28	278.08
712.61	277.17
712.95	276.42
713.28	275.66
713.61	274.86
713.95	274.04
714.28	273.31
714.61	272.52
714.95	271.79
715.28	271.08
715.61	270.31
715.95	269.50
716.28	268.75
716.61	268.00
716.95	267.10
717.28	266.45
717.61	265.65
717.94	265.07
718.28	264.29
718.61	263.66
718.94	263.08
719.27	262.41
719.61	261.90
719.94	261.30
720.27	260.58
720.60	259.93
720.94	259.26
721.27	258.70
721.60	258.21
721.93	257.55
722.27	257.06
722.60	256.59
722.93	256.06
723.26	255.58
723.59	255.07
723.93	254.67
724.26	254.14
724.59	253.70
724.92	253.18
725.25	252.69
725.59	252.26
725.92	251.83
726.25	251.48
726.58	250.92
726.91	250.44
727.24	250.11
727.57	249.65
727.91	249.19
728.24	248.79
728.57	248.33
728.90	247.95
729.23	247.46
729.56	247.10
729.89	246.66
730.22	246.15
730.55	245.72
730.89	245.36
731.22	245.01
731.55	244.52
731.88	244.15
732.21	243.80
732.54	243.34
732.87	242.87
733.20	242.46
733.53	242.13
733.86	241.79
734.19	241.36
734.52	241.04
734.85	240.93
735.18	240.47
735.51	240.15
735.84	239.92
736.17	239.64
736.50	239.24
736.83	239.15
737.16	238.89
737.49	238.57
737.82	238.18
738.15	237.79
738.48	237.54
738.81	237.12
739.14	236.76
739.47	236.48
739.80	236.27
740.13	236.04
740.46	235.70
740.79	235.29
741.12	235.05
741.45	234.69
741.78	234.24
742.11	234.06
742.44	233.80
742.77	233.50
743.10	233.25
743.43	232.94
743.75	232.45
744.08	232.53
744.41	232.30
744.74	232.11
745.07	231.84
745.40	231.69
745.73	231.61
746.06	231.37
746.39	231.24
746.71	230.96
747.04	230.64
747.37	230.39
747.70	230.22
748.03	229.96
748.36	229.78
748.68	229.58
749.01	229.30
749.34	229.13
749.67	228.83
750.00	228.62
750.33	228.57
750.65	228.31
750.98	227.82
751.31	227.55
751.64	227.31
751.97	227.25
752.29	227.02
752.62	226.73
752.95	226.51
753.28	226.19
753.60	226.03
753.93	225.87
754.26	225.70
754.59	225.51
754.91	225.31
755.24	225.23
755.57	225.05
755.90	224.86
756.22	224.55
756.55	224.40
756.88	224.17
757.20	223.82
757.53	223.70
757.86	223.44
758.19	223.37
758.51	223.23
758.84	222.99
759.17	222.75
759.49	222.60
759.82	222.60
760.15	222.60
760.47	222.43
760.80	222.26
761.13	222.15
761.45	222.01
761.78	221.87
762.11	221.65
762.43	221.50
762.76	221.42
763.08	221.31
763.41	221.20
763.74	221.06
764.06	220.90
764.39	220.74
764.71	220.68
765.04	220.48
765.37	220.39
765.69	220.28
766.02	220.21
766.34	220.04
766.67	219.84
767.00	219.66
767.32	219.59
767.65	219.64
767.97	219.60
768.30	219.48
768.62	219.35
768.95	219.20
769.27	219.10
769.60	219.01
769.92	218.96
770.25	218.90
770.57	218.79
770.90	218.79
771.22	218.70
771.55	218.65
771.87	218.64
772.20	218.53
772.52	218.64
772.85	218.77
773.17	218.73
773.50	218.58
773.82	218.46
774.15	218.33
774.47	218.02
774.80	217.87
775.12	217.76
775.45	217.67
775.77	217.62
776.09	217.54
776.42	217.48
776.74	217.44
777.07	217.32
777.39	217.24
777.72	217.14
778.04	217.15
778.36	217.05
778.69	216.99
779.01	216.98
779.33	216.72
779.66	216.44
779.98	216.42
780.31	216.33
780.63	216.31
780.95	216.29
781.28	216.28
781.60	216.21
781.92	216.18
782.25	216.21
782.57	216.22
782.89	216.10
783.22	216.05
783.54	215.95
783.86	215.92
784.19	215.91
784.51	215.95
784.83	215.84
785.16	215.82
785.48	215.80
785.80	215.64
786.12	215.61
786.45	215.57
786.77	215.43
787.09	215.39
