SpectraSuite Data File
++++++++++++++++++++++++++++++++++++
Date: Mon Feb 25 17:31:59 EST 2013
User: group
Dark Spectrum Present: No
Reference Spectrum Present: No
Number of Sampled Component Spectra: 1
Spectrometers: USB2E7196
Integration Time (usec): 52000 (USB2E7196)
Spectra Averaged: 20 (USB2E7196)
Boxcar Smoothing: 10 (USB2E7196)
Correct for Electrical Dark: No (USB2E7196)
Strobe/Lamp Enabled: No (USB2E7196)
Correct for Detector Non-linearity: No (USB2E7196)
Correct for Stray Light: No (USB2E7196)
Number of Pixels in Processed Spectrum: 2048
>>>>>Begin Processed Spectral Data<<<<<
339.09	0.00
339.48	199.80
339.86	200.15
340.24	201.90
340.63	204.00
341.01	208.40
341.39	207.40
341.78	209.10
342.16	209.55
342.54	209.60
342.93	198.75
343.31	208.80
343.69	209.25
344.07	209.77
344.46	210.18
344.84	210.54
345.22	210.65
345.60	210.84
345.99	210.97
346.37	211.11
346.75	211.20
347.13	211.24
347.52	211.34
347.90	211.43
348.28	211.49
348.66	211.59
349.05	211.55
349.43	211.65
349.81	211.59
350.19	211.56
350.57	211.61
350.96	211.58
351.34	211.68
351.72	211.85
352.10	211.88
352.48	211.96
352.87	212.00
353.25	212.07
353.63	212.14
354.01	212.13
354.39	212.16
354.77	212.21
355.15	212.32
355.54	212.30
355.92	212.32
356.30	212.41
356.68	212.57
357.06	212.65
357.44	212.68
357.82	212.75
358.20	212.85
358.58	212.87
358.97	212.97
359.35	212.93
359.73	213.00
360.11	213.12
360.49	213.21
360.87	213.21
361.25	213.25
361.63	213.38
362.01	213.48
362.39	213.41
362.77	213.54
363.15	213.55
363.53	213.65
363.91	213.60
364.29	213.58
364.67	213.40
365.05	213.42
365.43	213.51
365.81	213.60
366.19	213.71
366.57	213.86
366.95	213.86
367.33	213.92
367.71	213.92
368.09	213.88
368.47	213.88
368.85	213.92
369.23	213.99
369.61	213.83
369.99	213.83
370.37	213.95
370.75	213.92
371.13	213.83
371.51	213.79
371.89	213.82
372.27	213.77
372.65	213.81
373.03	213.75
373.41	213.75
373.78	213.65
374.16	213.51
374.54	213.42
374.92	213.41
375.30	213.37
375.68	213.32
376.06	213.32
376.44	213.18
376.82	213.16
377.19	213.09
377.57	213.05
377.95	213.02
378.33	212.85
378.71	212.78
379.09	212.80
379.47	212.75
379.84	212.72
380.22	212.67
380.60	212.59
380.98	212.47
381.36	212.40
381.73	212.34
382.11	212.32
382.49	212.20
382.87	212.13
383.25	212.14
383.62	212.19
384.00	212.09
384.38	212.08
384.76	212.06
385.13	212.05
385.51	211.99
385.89	211.91
386.27	211.95
386.64	211.93
387.02	211.88
387.40	211.82
387.78	211.80
388.15	211.76
388.53	211.77
388.91	211.83
389.29	211.73
389.66	211.73
390.04	211.63
390.42	211.65
390.79	211.57
391.17	211.50
391.55	211.36
391.92	211.34
392.30	211.38
392.68	211.39
393.05	211.42
393.43	211.48
393.81	211.46
394.18	211.46
394.56	211.39
394.94	211.46
395.31	211.47
395.69	211.52
396.06	211.56
396.44	211.55
396.82	211.48
397.19	211.60
397.57	211.58
397.95	211.68
398.32	211.69
398.70	211.78
399.07	211.87
399.45	211.89
399.82	211.93
400.20	211.92
400.58	211.92
400.95	211.90
401.33	211.99
401.70	212.18
402.08	212.24
402.45	212.40
402.83	212.51
403.20	212.59
403.58	212.64
403.95	212.75
404.33	212.83
404.71	212.99
405.08	213.17
405.46	213.34
405.83	213.46
406.21	213.60
406.58	213.72
406.96	213.88
407.33	214.04
407.70	214.23
408.08	214.54
408.45	214.78
408.83	214.97
409.20	215.22
409.58	215.34
409.95	215.56
410.33	215.79
410.70	216.05
411.08	216.45
411.45	216.81
411.82	217.23
412.20	217.70
412.57	218.20
412.95	218.46
413.32	219.01
413.69	219.52
414.07	220.09
414.44	220.77
414.82	221.32
415.19	222.10
415.56	222.85
415.94	223.60
416.31	224.47
416.68	225.36
417.06	226.32
417.43	227.31
417.81	228.51
418.18	229.56
418.55	230.72
418.93	231.82
419.30	233.19
419.67	234.57
420.04	235.95
420.42	237.40
420.79	239.19
421.16	240.92
421.54	242.71
421.91	244.51
422.28	246.34
422.66	248.42
423.03	250.44
423.40	252.49
423.77	254.72
424.15	256.89
424.52	259.20
424.89	261.72
425.26	264.18
425.64	266.42
426.01	269.01
426.38	271.65
426.75	274.42
427.13	277.08
427.50	279.95
427.87	283.01
428.24	286.14
428.61	289.06
428.99	292.25
429.36	295.76
429.73	299.21
430.10	302.65
430.47	306.14
430.85	309.76
431.22	313.63
431.59	317.72
431.96	321.59
432.33	325.87
432.70	330.02
433.08	334.82
433.45	339.45
433.82	344.03
434.19	349.10
434.56	354.07
434.93	358.91
435.30	363.65
435.68	368.91
436.05	374.08
436.42	379.21
436.79	383.79
437.16	388.81
437.53	394.13
437.90	399.35
438.27	404.59
438.64	409.87
439.01	414.66
439.38	419.03
439.75	423.24
440.13	428.01
440.50	432.59
440.87	436.36
441.24	440.01
441.61	444.21
441.98	447.27
442.35	450.74
442.72	454.37
443.09	457.68
443.46	459.64
443.83	460.97
444.20	462.08
444.57	463.88
444.94	464.54
445.31	465.32
445.68	465.99
446.05	466.11
446.42	465.46
446.79	464.89
447.16	464.01
447.53	463.54
447.90	461.37
448.27	459.17
448.64	456.19
449.01	454.17
449.37	450.64
449.74	447.11
450.11	443.15
450.48	438.60
450.85	434.28
451.22	430.40
451.59	426.65
451.96	423.05
452.33	418.38
452.70	414.10
453.07	408.94
453.43	403.85
453.80	398.95
454.17	394.25
454.54	389.75
454.91	384.94
455.28	380.19
455.65	376.00
456.02	371.74
456.38	368.08
456.75	363.56
457.12	359.62
457.49	355.94
457.86	352.15
458.23	349.03
458.59	345.47
458.96	342.08
459.33	339.00
459.70	336.01
460.07	333.48
460.43	330.71
460.80	328.08
461.17	325.72
461.54	323.30
461.91	321.02
462.27	318.63
462.64	316.66
463.01	314.47
463.38	312.34
463.74	310.17
464.11	308.37
464.48	306.82
464.85	305.19
465.21	303.88
465.58	302.58
465.95	300.89
466.32	299.49
466.68	297.99
467.05	296.70
467.42	295.29
467.78	293.81
468.15	292.54
468.52	291.60
468.88	290.33
469.25	289.13
469.62	288.11
469.98	287.18
470.35	286.21
470.72	285.37
471.08	284.34
471.45	283.60
471.82	282.88
472.18	281.97
472.55	281.34
472.92	280.57
473.28	279.93
473.65	279.27
474.02	278.78
474.38	278.45
474.75	277.99
475.11	277.55
475.48	277.35
475.85	277.12
476.21	276.85
476.58	276.81
476.94	276.69
477.31	276.65
477.67	276.61
478.04	276.63
478.41	276.76
478.77	277.20
479.14	277.21
479.50	277.38
479.87	277.79
480.23	278.18
480.60	278.56
480.96	278.96
481.33	279.60
481.69	280.18
482.06	280.73
482.42	281.30
482.79	282.18
483.15	283.03
483.52	283.96
483.88	284.93
484.25	285.95
484.61	287.07
484.98	288.23
485.34	289.38
485.71	290.79
486.07	292.12
486.44	293.45
486.80	295.14
487.17	296.75
487.53	298.38
487.90	300.10
488.26	302.06
488.62	304.04
488.99	306.07
489.35	308.19
489.72	310.50
490.08	312.90
490.44	315.25
490.81	317.93
491.17	320.56
491.54	323.50
491.90	326.42
492.26	329.67
492.63	332.98
492.99	336.52
493.36	340.11
493.72	343.96
494.08	347.89
494.45	352.13
494.81	356.62
495.17	361.11
495.54	366.01
495.90	371.01
496.26	376.26
496.63	381.88
496.99	387.67
497.35	393.62
497.72	399.91
498.08	406.44
498.44	413.04
498.80	420.17
499.17	427.45
499.53	435.09
499.89	442.95
500.26	451.02
500.62	459.31
500.98	468.14
501.34	477.32
501.71	486.72
502.07	496.30
502.43	506.26
502.79	516.66
503.16	527.40
503.52	538.27
503.88	549.35
504.24	560.71
504.60	572.60
504.97	584.82
505.33	597.33
505.69	610.55
506.05	624.15
506.41	637.72
506.78	651.52
507.14	665.51
507.50	679.99
507.86	695.00
508.22	710.33
508.59	725.80
508.95	741.63
509.31	757.77
509.67	774.33
510.03	791.29
510.39	808.73
510.75	826.13
511.12	844.07
511.48	862.50
511.84	881.27
512.20	899.70
512.56	918.90
512.92	938.53
513.28	957.79
513.64	977.23
514.00	996.87
514.37	1017.05
514.73	1037.94
515.09	1058.64
515.45	1079.22
515.81	1100.29
516.17	1121.57
516.53	1142.72
516.89	1164.13
517.25	1185.67
517.61	1207.22
517.97	1228.31
518.33	1250.13
518.69	1272.16
519.05	1294.17
519.41	1316.22
519.77	1338.61
520.13	1360.43
520.49	1382.09
520.85	1404.63
521.21	1426.91
521.57	1449.94
521.93	1471.77
522.29	1494.47
522.65	1516.89
523.01	1539.13
523.37	1560.96
523.73	1583.07
524.09	1605.40
524.45	1627.61
524.81	1649.93
525.17	1672.12
525.53	1694.64
525.89	1716.67
526.25	1738.02
526.61	1758.98
526.97	1780.35
527.33	1801.73
527.68	1823.20
528.04	1844.50
528.40	1865.01
528.76	1885.75
529.12	1906.21
529.48	1927.84
529.84	1947.84
530.20	1968.09
530.56	1988.56
530.91	2009.40
531.27	2029.60
531.63	2049.23
531.99	2069.02
532.35	2088.07
532.71	2106.99
533.07	2126.39
533.42	2144.74
533.78	2163.57
534.14	2182.11
534.50	2199.46
534.86	2217.19
535.21	2234.01
535.57	2251.46
535.93	2268.25
536.29	2284.98
536.65	2301.57
537.00	2316.70
537.36	2331.83
537.72	2346.95
538.08	2361.90
538.44	2376.78
538.79	2391.79
539.15	2406.73
539.51	2421.10
539.87	2436.34
540.22	2450.52
540.58	2465.13
540.94	2479.25
541.29	2492.10
541.65	2504.19
542.01	2516.79
542.37	2528.74
542.72	2540.60
543.08	2551.37
543.44	2563.29
543.79	2573.27
544.15	2583.19
544.51	2594.24
544.87	2604.96
545.22	2614.16
545.58	2622.47
545.94	2629.75
546.29	2636.15
546.65	2642.20
547.01	2648.31
547.36	2653.51
547.72	2659.18
548.07	2663.01
548.43	2667.00
548.79	2670.72
549.14	2675.27
549.50	2679.71
549.86	2683.55
550.21	2687.54
550.57	2691.36
550.92	2693.99
551.28	2696.59
551.64	2699.23
551.99	2701.43
552.35	2702.75
552.70	2705.25
553.06	2708.16
553.41	2711.00
553.77	2713.82
554.13	2716.05
554.48	2718.10
554.84	2719.61
555.19	2719.89
555.55	2720.48
555.90	2720.75
556.26	2721.39
556.61	2721.03
556.97	2719.50
557.32	2718.89
557.68	2717.04
558.03	2715.81
558.39	2713.83
558.74	2713.47
559.10	2711.92
559.45	2709.95
559.81	2708.98
560.16	2706.48
560.52	2704.01
560.87	2700.89
561.23	2697.12
561.58	2694.40
561.94	2691.01
562.29	2686.94
562.64	2684.82
563.00	2681.97
563.35	2679.69
563.71	2677.67
564.06	2675.58
564.42	2673.77
564.77	2671.09
565.12	2669.37
565.48	2666.18
565.83	2663.32
566.19	2660.17
566.54	2655.85
566.89	2652.04
567.25	2648.40
567.60	2644.94
567.96	2641.40
568.31	2638.02
568.66	2634.19
569.02	2630.06
569.37	2624.65
569.72	2621.01
570.08	2615.57
570.43	2610.09
570.78	2604.54
571.14	2597.93
571.49	2591.07
571.84	2585.22
572.20	2577.96
572.55	2571.51
572.90	2564.77
573.26	2557.81
573.61	2550.54
573.96	2544.25
574.31	2536.27
574.67	2528.11
575.02	2519.58
575.37	2510.62
575.72	2501.60
576.08	2494.35
576.43	2485.31
576.78	2477.85
577.13	2469.87
577.49	2461.88
577.84	2454.33
578.19	2446.45
578.54	2439.34
578.90	2432.76
579.25	2424.18
579.60	2415.66
579.95	2406.48
580.30	2398.53
580.66	2390.43
581.01	2381.34
581.36	2371.86
581.71	2363.89
582.06	2355.25
582.42	2347.17
582.77	2338.42
583.12	2329.52
583.47	2320.69
583.82	2312.44
584.17	2303.18
584.53	2293.92
584.88	2285.12
585.23	2276.02
585.58	2266.75
585.93	2257.39
586.28	2248.28
586.63	2239.57
586.98	2231.72
587.34	2223.48
587.69	2214.27
588.04	2205.20
588.39	2196.85
588.74	2188.26
589.09	2179.56
589.44	2170.45
589.79	2161.94
590.14	2154.15
590.49	2145.88
590.84	2136.43
591.19	2128.55
591.54	2120.45
591.89	2110.65
592.25	2101.28
592.60	2091.91
592.95	2082.61
593.30	2073.10
593.65	2063.13
594.00	2053.31
594.35	2044.71
594.70	2035.39
595.05	2026.50
595.40	2018.21
595.75	2009.04
596.10	2000.91
596.45	1992.30
596.80	1984.61
597.15	1976.46
597.50	1967.33
597.85	1959.04
598.19	1950.74
598.54	1942.20
598.89	1933.90
599.24	1927.33
599.59	1920.22
599.94	1913.23
600.29	1905.68
600.64	1897.89
600.99	1889.90
601.34	1883.25
601.69	1874.74
602.04	1866.96
602.39	1859.40
602.74	1851.27
603.08	1844.80
603.43	1837.45
603.78	1829.73
604.13	1821.29
604.48	1813.39
604.83	1806.68
605.18	1799.91
605.53	1792.50
605.87	1784.73
606.22	1777.90
606.57	1769.95
606.92	1761.95
607.27	1754.00
607.62	1746.68
607.96	1739.82
608.31	1733.78
608.66	1725.80
609.01	1718.15
609.36	1710.44
609.70	1702.47
610.05	1694.72
610.40	1686.46
610.75	1678.27
611.10	1670.55
611.44	1661.90
611.79	1652.92
612.14	1643.41
612.49	1633.80
612.83	1625.30
613.18	1615.84
613.53	1606.58
613.88	1597.01
614.22	1588.28
614.57	1578.90
614.92	1569.32
615.27	1559.96
615.61	1550.17
615.96	1541.02
616.31	1532.65
616.65	1524.68
617.00	1516.21
617.35	1507.73
617.70	1498.74
618.04	1489.57
618.39	1480.20
618.74	1471.81
619.08	1463.16
619.43	1455.03
619.78	1447.29
620.12	1439.20
620.47	1431.72
620.82	1423.08
621.16	1414.86
621.51	1406.50
621.85	1398.53
622.20	1390.50
622.55	1382.22
622.89	1373.94
623.24	1366.22
623.59	1357.67
623.93	1348.97
624.28	1340.93
624.62	1332.84
624.97	1324.73
625.32	1317.27
625.66	1309.95
626.01	1302.80
626.35	1295.76
626.70	1288.24
627.04	1280.81
627.39	1273.38
627.73	1265.84
628.08	1259.10
628.43	1251.94
628.77	1244.65
629.12	1237.06
629.46	1230.52
629.81	1223.44
630.15	1216.24
630.50	1209.00
630.84	1201.97
631.19	1195.05
631.53	1188.22
631.88	1180.79
632.22	1173.24
632.57	1166.20
632.91	1158.94
633.26	1151.48
633.60	1144.23
633.95	1137.55
634.29	1130.26
634.64	1123.45
634.98	1116.42
635.32	1109.28
635.67	1102.83
636.01	1096.17
636.36	1089.40
636.70	1082.52
637.05	1076.05
637.39	1069.70
637.73	1063.14
638.08	1057.25
638.42	1051.17
638.77	1044.63
639.11	1038.44
639.45	1032.61
639.80	1026.15
640.14	1019.78
640.49	1013.46
640.83	1007.24
641.17	1000.81
641.52	994.69
641.86	988.16
642.20	981.73
642.55	975.10
642.89	968.60
643.23	962.13
643.58	956.46
643.92	949.96
644.26	943.79
644.61	937.73
644.95	931.91
645.29	925.57
645.64	919.29
645.98	913.32
646.32	907.42
646.66	901.26
647.01	895.29
647.35	889.44
647.69	883.43
648.04	877.52
648.38	871.59
648.72	865.63
649.06	859.57
649.41	853.86
649.75	848.16
650.09	842.44
650.43	836.65
650.78	830.44
651.12	824.45
651.46	818.69
651.80	812.87
652.14	806.82
652.49	800.73
652.83	795.00
653.17	788.87
653.51	782.88
653.85	777.34
654.20	771.64
654.54	765.87
654.88	760.44
655.22	754.64
655.56	748.68
655.90	742.96
656.25	737.43
656.59	731.90
656.93	726.72
657.27	721.32
657.61	715.97
657.95	710.91
658.29	705.92
658.64	700.83
658.98	695.65
659.32	690.44
659.66	685.56
660.00	680.10
660.34	674.83
660.68	669.83
661.02	664.77
661.36	660.06
661.70	655.32
662.05	650.63
662.39	646.31
662.73	642.15
663.07	637.76
663.41	633.50
663.75	629.03
664.09	624.41
664.43	619.98
664.77	615.54
665.11	611.25
665.45	606.88
665.79	602.35
666.13	597.96
666.47	593.74
666.81	589.50
667.15	585.61
667.49	581.97
667.83	578.07
668.17	574.09
668.51	570.16
668.85	566.41
669.19	562.70
669.53	558.80
669.87	554.80
670.21	550.93
670.55	547.03
670.89	543.66
671.23	540.16
671.57	536.64
671.91	533.11
672.25	529.40
672.58	526.07
672.92	522.72
673.26	519.57
673.60	516.31
673.94	513.03
674.28	509.74
674.62	506.54
674.96	503.40
675.30	500.49
675.64	497.37
675.97	494.30
676.31	491.25
676.65	488.28
676.99	485.64
677.33	482.78
677.67	479.88
678.01	476.78
678.34	473.81
678.68	471.01
679.02	468.11
679.36	465.43
679.70	462.44
680.04	459.62
680.37	456.60
680.71	453.90
681.05	451.27
681.39	448.68
681.73	445.91
682.06	443.40
682.40	440.68
682.74	438.06
683.08	435.60
683.42	432.91
683.75	430.43
684.09	427.71
684.43	425.37
684.77	422.89
685.10	420.37
685.44	417.86
685.78	415.27
686.12	413.03
686.45	410.54
686.79	408.37
687.13	406.26
687.46	404.26
687.80	402.07
688.14	399.78
688.48	397.48
688.81	395.35
689.15	393.06
689.49	390.97
689.82	388.76
690.16	386.37
690.50	384.15
690.83	381.84
691.17	379.63
691.51	377.36
691.84	375.32
692.18	373.28
692.52	371.34
692.85	369.54
693.19	367.70
693.52	365.85
693.86	363.82
694.20	361.92
694.53	359.97
694.87	358.00
695.21	356.19
695.54	354.24
695.88	352.29
696.21	350.50
696.55	348.75
696.88	346.98
697.22	345.30
697.56	343.79
697.89	342.22
698.23	340.68
698.56	339.09
698.90	337.55
699.23	335.96
699.57	334.41
699.90	332.75
700.24	331.03
700.58	329.43
700.91	328.03
701.25	326.61
701.58	325.17
701.92	323.79
702.25	322.31
702.59	321.09
702.92	319.85
703.26	318.54
703.59	317.24
703.93	316.13
704.26	314.81
704.60	313.51
704.93	312.24
705.26	311.00
705.60	309.84
705.93	308.51
706.27	307.33
706.60	306.27
706.94	305.27
707.27	304.08
707.61	303.04
707.94	301.83
708.27	300.52
708.61	299.34
708.94	298.28
709.28	297.18
709.61	296.08
709.94	295.08
710.28	294.09
710.61	293.01
710.95	291.87
711.28	291.02
711.61	289.99
711.95	289.10
712.28	288.10
712.61	287.11
712.95	286.24
713.28	285.39
713.61	284.36
713.95	283.41
714.28	282.63
714.61	281.65
714.95	280.75
715.28	279.93
715.61	279.03
715.95	278.22
716.28	277.44
716.61	276.63
716.95	275.75
717.28	274.86
717.61	274.07
717.94	273.37
718.28	272.53
718.61	271.76
718.94	271.04
719.27	270.30
719.61	269.60
719.94	268.92
720.27	268.13
720.60	267.43
720.94	266.72
721.27	266.02
721.60	265.46
721.93	264.90
722.27	264.37
722.60	263.86
722.93	263.17
723.26	262.57
723.59	261.92
723.93	261.35
724.26	260.83
724.59	260.25
724.92	259.66
725.25	259.13
725.59	258.65
725.92	258.10
726.25	257.54
726.58	256.98
726.91	256.43
727.24	256.00
727.57	255.45
727.91	254.85
728.24	254.50
728.57	254.04
728.90	253.68
729.23	253.05
729.56	252.65
729.89	252.14
730.22	251.59
730.55	251.20
730.89	250.74
731.22	250.18
731.55	249.83
731.88	249.33
732.21	248.85
732.54	248.40
732.87	247.95
733.20	247.59
733.53	247.16
733.86	246.70
734.19	246.26
734.52	245.95
734.85	245.72
735.18	245.21
735.51	244.79
735.84	244.27
736.17	244.02
736.50	243.55
736.83	243.37
737.16	243.10
737.49	242.68
737.82	242.21
738.15	241.93
738.48	241.52
738.81	241.12
739.14	240.78
739.47	240.39
739.80	240.01
740.13	239.68
740.46	239.29
740.79	238.99
741.12	238.63
741.45	238.24
741.78	237.90
742.11	237.65
742.44	237.35
742.77	237.12
743.10	236.79
743.43	236.51
743.75	236.06
744.08	235.95
744.41	235.62
744.74	235.35
745.07	235.03
745.40	234.75
745.73	234.55
746.06	234.26
746.39	234.06
746.71	233.78
747.04	233.48
747.37	233.25
747.70	233.00
748.03	232.77
748.36	232.62
748.68	232.33
749.01	232.03
749.34	231.80
749.67	231.54
750.00	231.23
750.33	231.04
750.65	230.86
750.98	230.38
751.31	230.24
751.64	230.06
751.97	229.93
752.29	229.70
752.62	229.41
752.95	229.19
753.28	228.84
753.60	228.65
753.93	228.50
754.26	228.35
754.59	228.06
754.91	227.86
755.24	227.56
755.57	227.26
755.90	227.06
756.22	226.80
756.55	226.60
756.88	226.34
757.20	226.05
757.53	225.75
757.86	225.59
758.19	225.39
758.51	225.20
758.84	224.95
759.17	224.79
759.49	224.58
759.82	224.47
760.15	224.40
760.47	224.20
760.80	223.98
761.13	223.84
761.45	223.72
761.78	223.48
762.11	223.41
762.43	223.28
762.76	223.08
763.08	222.99
763.41	222.83
763.74	222.75
764.06	222.62
764.39	222.55
764.71	222.39
765.04	222.25
765.37	222.10
765.69	221.97
766.02	221.77
766.34	221.62
766.67	221.52
767.00	221.41
767.32	221.42
767.65	221.34
767.97	221.19
768.30	221.06
768.62	221.03
768.95	220.88
769.27	220.86
769.60	220.82
769.92	220.64
770.25	220.52
770.57	220.41
770.90	220.26
771.22	220.10
771.55	220.03
771.87	219.86
772.20	219.72
772.52	219.72
772.85	219.83
773.17	219.80
773.50	219.65
773.82	219.48
774.15	219.23
774.47	219.09
774.80	219.00
775.12	218.89
775.45	218.75
775.77	218.62
776.09	218.50
776.42	218.39
776.74	218.40
777.07	218.37
777.39	218.30
777.72	218.23
778.04	218.20
778.36	218.04
778.69	217.98
779.01	217.98
779.33	217.79
779.66	217.53
779.98	217.43
780.31	217.30
780.63	217.27
780.95	217.28
781.28	217.27
781.60	217.18
781.92	217.13
782.25	217.09
782.57	217.09
782.89	216.98
783.22	216.88
783.54	216.78
783.86	216.70
784.19	216.66
784.51	216.67
784.83	216.62
785.16	216.64
785.48	216.62
785.80	216.56
786.12	216.56
786.45	216.52
