SpectraSuite Data File
++++++++++++++++++++++++++++++++++++
Date: Mon Feb 25 17:30:00 EST 2013
User: group
Dark Spectrum Present: No
Reference Spectrum Present: No
Number of Sampled Component Spectra: 1
Spectrometers: USB2E7196
Integration Time (usec): 52000 (USB2E7196)
Spectra Averaged: 20 (USB2E7196)
Boxcar Smoothing: 10 (USB2E7196)
Correct for Electrical Dark: No (USB2E7196)
Strobe/Lamp Enabled: No (USB2E7196)
Correct for Detector Non-linearity: No (USB2E7196)
Correct for Stray Light: No (USB2E7196)
Number of Pixels in Processed Spectrum: 2048
>>>>>Begin Processed Spectral Data<<<<<
339.09	0.00
339.48	197.50
339.86	199.30
340.24	201.75
340.63	202.90
341.01	206.45
341.39	205.75
341.78	207.40
342.16	207.95
342.54	207.70
342.93	197.65
343.31	207.65
343.69	208.24
344.07	208.72
344.46	209.21
344.84	209.54
345.22	209.81
345.60	210.07
345.99	210.25
346.37	210.38
346.75	210.51
347.13	210.52
347.52	210.66
347.90	210.75
348.28	210.71
348.66	210.82
349.05	210.77
349.43	210.83
349.81	210.79
350.19	210.90
350.57	210.95
350.96	211.04
351.34	211.18
351.72	211.30
352.10	211.44
352.48	211.47
352.87	211.54
353.25	211.57
353.63	211.61
354.01	211.72
354.39	211.75
354.77	211.85
355.15	212.03
355.54	212.08
355.92	212.12
356.30	212.29
356.68	212.49
357.06	212.58
357.44	212.69
357.82	212.85
358.20	212.96
358.58	212.99
358.97	213.10
359.35	213.20
359.73	213.28
360.11	213.36
360.49	213.38
360.87	213.56
361.25	213.62
361.63	213.73
362.01	213.80
362.39	213.92
362.77	214.01
363.15	214.05
363.53	214.10
363.91	214.23
364.29	214.18
364.67	214.10
365.05	214.15
365.43	214.16
365.81	214.21
366.19	214.25
366.57	214.37
366.95	214.30
367.33	214.21
367.71	214.21
368.09	214.21
368.47	214.29
368.85	214.16
369.23	214.18
369.61	214.12
369.99	214.17
370.37	214.17
370.75	214.22
371.13	214.08
371.51	214.05
371.89	213.97
372.27	213.98
372.65	213.98
373.03	213.93
373.41	213.89
373.78	213.81
374.16	213.73
374.54	213.62
374.92	213.63
375.30	213.67
375.68	213.61
376.06	213.57
376.44	213.44
376.82	213.50
377.19	213.50
377.57	213.49
377.95	213.34
378.33	213.26
378.71	213.10
379.09	213.18
379.47	213.17
379.84	213.12
380.22	213.07
380.60	213.01
380.98	212.97
381.36	212.91
381.73	212.84
382.11	212.82
382.49	212.80
382.87	212.65
383.25	212.62
383.62	212.80
384.00	212.73
384.38	212.71
384.76	212.67
385.13	212.65
385.51	212.58
385.89	212.51
386.27	212.52
386.64	212.54
387.02	212.41
387.40	212.37
387.78	212.36
388.15	212.32
388.53	212.22
388.91	212.29
389.29	212.26
389.66	212.29
390.04	212.21
390.42	212.18
390.79	212.25
391.17	212.15
391.55	211.95
391.92	211.97
392.30	211.94
392.68	211.85
393.05	211.80
393.43	211.83
393.81	211.86
394.18	211.69
394.56	211.64
394.94	211.71
395.31	211.67
395.69	211.79
396.06	211.85
396.44	211.87
396.82	211.78
397.19	211.92
397.57	211.82
397.95	211.90
398.32	211.87
398.70	211.96
399.07	212.05
399.45	212.06
399.82	212.05
400.20	212.09
400.58	212.11
400.95	212.08
401.33	212.11
401.70	212.27
402.08	212.42
402.45	212.50
402.83	212.56
403.20	212.70
403.58	212.60
403.95	212.70
404.33	212.81
404.71	212.92
405.08	213.05
405.46	213.25
405.83	213.38
406.21	213.57
406.58	213.69
406.96	213.83
407.33	213.95
407.70	214.15
408.08	214.44
408.45	214.72
408.83	214.94
409.20	215.15
409.58	215.23
409.95	215.55
410.33	215.83
410.70	216.13
411.08	216.43
411.45	216.90
411.82	217.24
412.20	217.67
412.57	218.18
412.95	218.44
413.32	218.93
413.69	219.48
414.07	220.00
414.44	220.57
414.82	221.17
415.19	221.90
415.56	222.67
415.94	223.36
416.31	224.15
416.68	225.01
417.06	225.99
417.43	226.98
417.81	228.00
418.18	229.10
418.55	230.26
418.93	231.50
419.30	232.71
419.67	234.10
420.04	235.44
420.42	236.81
420.79	238.54
421.16	240.20
421.54	241.87
421.91	243.65
422.28	245.49
422.66	247.43
423.03	249.35
423.40	251.35
423.77	253.47
424.15	255.64
424.52	257.93
424.89	260.39
425.26	262.72
425.64	265.00
426.01	267.47
426.38	269.98
426.75	272.55
427.13	275.26
427.50	277.89
427.87	280.80
428.24	283.75
428.61	286.61
428.99	289.77
429.36	293.09
429.73	296.41
430.10	299.67
430.47	303.07
430.85	306.57
431.22	310.14
431.59	314.18
431.96	317.96
432.33	322.02
432.70	326.00
433.08	330.80
433.45	335.27
433.82	339.65
434.19	344.52
434.56	349.39
434.93	353.91
435.30	358.58
435.68	363.70
436.05	368.69
436.42	373.61
436.79	377.98
437.16	382.85
437.53	387.93
437.90	392.91
438.27	397.93
438.64	403.16
439.01	408.00
439.38	412.12
439.75	416.31
440.13	421.00
440.50	425.34
440.87	428.83
441.24	432.55
441.61	436.54
441.98	439.62
442.35	443.01
442.72	446.50
443.09	449.93
443.46	451.98
443.83	453.33
444.20	454.33
444.57	456.13
444.94	456.84
445.31	457.57
445.68	458.46
446.05	458.65
446.42	457.87
446.79	457.15
447.16	456.32
447.53	455.60
447.90	453.61
448.27	451.70
448.64	448.92
449.01	446.83
449.37	443.45
449.74	439.96
450.11	435.98
450.48	431.66
450.85	427.23
451.22	423.38
451.59	419.75
451.96	416.46
452.33	411.83
452.70	407.74
453.07	402.83
453.43	397.69
453.80	392.91
454.17	388.44
454.54	384.15
454.91	379.58
455.28	375.07
455.65	370.87
456.02	366.64
456.38	363.09
456.75	358.63
457.12	354.94
457.49	351.39
457.86	347.84
458.23	344.83
458.59	341.50
458.96	338.14
459.33	335.06
459.70	332.01
460.07	329.72
460.43	327.05
460.80	324.50
461.17	322.37
461.54	320.03
461.91	317.76
462.27	315.55
462.64	313.63
463.01	311.50
463.38	309.46
463.74	307.35
464.11	305.55
464.48	304.01
464.85	302.28
465.21	300.93
465.58	299.54
465.95	297.95
466.32	296.61
466.68	295.24
467.05	294.08
467.42	292.71
467.78	291.22
468.15	289.82
468.52	288.82
468.88	287.46
469.25	286.35
469.62	285.51
469.98	284.51
470.35	283.63
470.72	282.86
471.08	282.00
471.45	281.33
471.82	280.55
472.18	279.70
472.55	279.23
472.92	278.60
473.28	278.10
473.65	277.47
474.02	276.90
474.38	276.49
474.75	276.07
475.11	275.74
475.48	275.59
475.85	275.42
476.21	275.28
476.58	275.24
476.94	275.10
477.31	275.00
477.67	274.88
478.04	274.90
478.41	274.95
478.77	275.23
479.14	275.34
479.50	275.72
479.87	276.19
480.23	276.51
480.60	276.75
480.96	277.12
481.33	277.81
481.69	278.48
482.06	279.08
482.42	279.78
482.79	280.47
483.15	281.27
483.52	282.25
483.88	283.15
484.25	284.09
484.61	285.22
484.98	286.43
485.34	287.73
485.71	289.06
486.07	290.45
486.44	291.72
486.80	293.25
487.17	294.78
487.53	296.48
487.90	298.22
488.26	300.19
488.62	302.24
488.99	304.16
489.35	306.26
489.72	308.54
490.08	310.85
490.44	313.30
490.81	315.86
491.17	318.47
491.54	321.37
491.90	324.32
492.26	327.44
492.63	330.66
492.99	334.12
493.36	337.77
493.72	341.61
494.08	345.55
494.45	349.79
494.81	354.30
495.17	358.83
495.54	363.64
495.90	368.55
496.26	373.67
496.63	379.25
496.99	384.92
497.35	390.94
497.72	397.08
498.08	403.49
498.44	410.15
498.80	417.29
499.17	424.68
499.53	432.30
499.89	440.25
500.26	448.19
500.62	456.41
500.98	465.23
501.34	474.20
501.71	483.63
502.07	493.17
502.43	502.97
502.79	513.10
503.16	523.62
503.52	534.40
503.88	545.57
504.24	556.92
504.60	568.56
504.97	580.71
505.33	593.12
505.69	606.12
506.05	619.36
506.41	632.78
506.78	646.38
507.14	660.23
507.50	674.66
507.86	689.49
508.22	704.72
508.59	719.75
508.95	735.53
509.31	751.55
509.67	768.00
510.03	784.42
510.39	801.42
510.75	818.89
511.12	836.90
511.48	854.70
511.84	872.96
512.20	891.31
512.56	910.02
512.92	929.06
513.28	948.40
513.64	967.83
514.00	987.35
514.37	1007.09
514.73	1027.48
515.09	1047.75
515.45	1068.13
515.81	1088.71
516.17	1109.45
516.53	1130.03
516.89	1150.84
517.25	1171.87
517.61	1193.09
517.97	1214.29
518.33	1235.27
518.69	1256.12
519.05	1277.64
519.41	1299.05
519.77	1321.12
520.13	1342.63
520.49	1364.03
520.85	1385.63
521.21	1407.07
521.57	1429.04
521.93	1450.54
522.29	1472.45
522.65	1494.17
523.01	1515.61
523.37	1536.78
523.73	1558.58
524.09	1580.05
524.45	1601.76
524.81	1623.14
525.17	1644.66
525.53	1666.07
525.89	1687.56
526.25	1708.92
526.61	1729.53
526.97	1750.53
527.33	1770.93
527.68	1791.45
528.04	1811.98
528.40	1831.39
528.76	1851.50
529.12	1871.45
529.48	1892.10
529.84	1911.68
530.20	1931.16
530.56	1950.98
530.91	1970.97
531.27	1990.28
531.63	2009.29
531.99	2028.00
532.35	2046.24
532.71	2064.11
533.07	2082.60
533.42	2100.56
533.78	2118.52
534.14	2135.99
534.50	2152.00
534.86	2168.88
535.21	2184.81
535.57	2201.21
535.93	2217.81
536.29	2233.64
536.65	2249.18
537.00	2263.46
537.36	2277.84
537.72	2291.96
538.08	2306.03
538.44	2320.40
538.79	2334.61
539.15	2348.49
539.51	2362.05
539.87	2376.31
540.22	2389.68
540.58	2403.16
540.94	2416.12
541.29	2427.99
541.65	2439.39
542.01	2451.81
542.37	2462.80
542.72	2473.95
543.08	2484.07
543.44	2494.87
543.79	2504.10
544.15	2513.62
544.51	2523.72
544.87	2533.64
545.22	2542.18
545.58	2549.82
545.94	2556.18
546.29	2561.89
546.65	2567.40
547.01	2572.72
547.36	2577.69
547.72	2583.08
548.07	2586.98
548.43	2590.27
548.79	2593.08
549.14	2596.85
549.50	2600.34
549.86	2603.99
550.21	2607.75
550.57	2611.70
550.92	2613.85
551.28	2615.94
551.64	2617.60
551.99	2619.50
552.35	2620.51
552.70	2622.61
553.06	2625.02
553.41	2627.54
553.77	2630.23
554.13	2632.08
554.48	2634.09
554.84	2635.04
555.19	2634.72
555.55	2634.66
555.90	2634.82
556.26	2635.36
556.61	2635.21
556.97	2633.41
557.32	2632.27
557.68	2630.04
558.03	2627.74
558.39	2625.84
558.74	2625.60
559.10	2624.34
559.45	2622.12
559.81	2620.86
560.16	2618.11
560.52	2615.19
560.87	2612.04
561.23	2607.62
561.58	2605.13
561.94	2601.27
562.29	2597.30
562.64	2595.16
563.00	2592.37
563.35	2589.46
563.71	2587.40
564.06	2584.70
564.42	2583.00
564.77	2580.28
565.12	2578.29
565.48	2575.18
565.83	2572.13
566.19	2568.43
566.54	2563.87
566.89	2559.90
567.25	2556.00
567.60	2552.40
567.96	2548.90
568.31	2545.10
568.66	2541.41
569.02	2536.78
569.37	2531.68
569.72	2528.14
570.08	2522.70
570.43	2517.05
570.78	2511.87
571.14	2505.51
571.49	2499.13
571.84	2492.99
572.20	2486.10
572.55	2479.55
572.90	2473.14
573.26	2466.03
573.61	2458.90
573.96	2452.66
574.31	2444.82
574.67	2436.63
575.02	2428.36
575.37	2419.79
575.72	2410.85
576.08	2403.48
576.43	2395.10
576.78	2387.81
577.13	2379.77
577.49	2372.05
577.84	2364.55
578.19	2356.83
578.54	2349.78
578.90	2343.01
579.25	2334.84
579.60	2326.42
579.95	2317.39
580.30	2309.43
580.66	2301.70
581.01	2293.19
581.36	2284.33
581.71	2276.88
582.06	2269.16
582.42	2261.48
582.77	2252.89
583.12	2244.76
583.47	2236.48
583.82	2228.16
584.17	2219.46
584.53	2210.65
584.88	2202.33
585.23	2193.34
585.58	2184.37
585.93	2175.03
586.28	2166.38
586.63	2158.08
586.98	2150.34
587.34	2142.59
587.69	2134.00
588.04	2125.63
588.39	2117.70
588.74	2109.05
589.09	2100.44
589.44	2091.29
589.79	2083.05
590.14	2075.63
590.49	2067.76
590.84	2059.23
591.19	2052.01
591.54	2043.53
591.89	2033.99
592.25	2025.17
592.60	2016.42
592.95	2007.77
593.30	1998.80
593.65	1989.57
594.00	1980.21
594.35	1972.28
594.70	1963.83
595.05	1955.43
595.40	1947.13
595.75	1938.20
596.10	1930.50
596.45	1922.84
596.80	1915.28
597.15	1907.43
597.50	1898.92
597.85	1890.69
598.19	1882.49
598.54	1874.16
598.89	1867.13
599.24	1860.93
599.59	1853.88
599.94	1847.50
600.29	1840.16
600.64	1832.89
600.99	1824.88
601.34	1818.35
601.69	1809.80
602.04	1802.03
602.39	1794.48
602.74	1786.72
603.08	1780.41
603.43	1773.80
603.78	1766.15
604.13	1758.72
604.48	1751.27
604.83	1744.72
605.18	1738.02
605.53	1730.89
605.87	1723.58
606.22	1716.46
606.57	1709.05
606.92	1701.49
607.27	1693.59
607.62	1686.71
607.96	1680.10
608.31	1674.05
608.66	1666.34
609.01	1659.46
609.36	1652.24
609.70	1644.45
610.05	1637.40
610.40	1629.56
610.75	1621.40
611.10	1614.01
611.44	1605.37
611.79	1596.65
612.14	1587.91
612.49	1578.83
612.83	1570.67
613.18	1561.50
613.53	1552.40
613.88	1543.00
614.22	1534.39
614.57	1525.87
614.92	1516.90
615.27	1507.97
615.61	1499.05
615.96	1490.84
616.31	1482.72
616.65	1474.95
617.00	1467.29
617.35	1459.25
617.70	1450.82
618.04	1442.25
618.39	1433.27
618.74	1425.52
619.08	1417.31
619.43	1409.38
619.78	1402.07
620.12	1394.33
620.47	1387.11
620.82	1379.34
621.16	1371.61
621.51	1363.73
621.85	1355.57
622.20	1347.51
622.55	1339.39
622.89	1331.31
623.24	1323.65
623.59	1315.57
623.93	1307.13
624.28	1299.34
624.62	1291.23
624.97	1283.41
625.32	1275.86
625.66	1268.95
626.01	1261.76
626.35	1255.09
626.70	1247.64
627.04	1240.48
627.39	1233.22
627.73	1226.03
628.08	1219.63
628.43	1212.66
628.77	1205.59
629.12	1198.75
629.46	1192.48
629.81	1185.98
630.15	1179.13
630.50	1172.12
630.84	1165.22
631.19	1158.58
631.53	1152.03
631.88	1144.94
632.22	1137.77
632.57	1131.15
632.91	1123.91
633.26	1116.76
633.60	1109.88
633.95	1103.49
634.29	1096.62
634.64	1090.24
634.98	1083.41
635.32	1076.44
635.67	1070.41
636.01	1064.28
636.36	1057.87
636.70	1051.55
637.05	1045.04
637.39	1038.94
637.73	1032.80
638.08	1027.19
638.42	1021.67
638.77	1015.20
639.11	1009.16
639.45	1003.50
639.80	997.35
640.14	991.29
640.49	985.38
640.83	979.47
641.17	973.30
641.52	967.36
641.86	961.21
642.20	955.35
642.55	948.86
642.89	942.46
643.23	936.24
643.58	930.45
643.92	923.87
644.26	918.08
644.61	912.28
644.95	906.38
645.29	900.17
645.64	893.90
645.98	888.06
646.32	882.70
646.66	876.70
647.01	870.97
647.35	865.42
647.69	859.39
648.04	853.46
648.38	847.69
648.72	842.00
649.06	836.00
649.41	830.20
649.75	824.71
650.09	819.20
650.43	813.55
650.78	807.60
651.12	801.95
651.46	796.41
651.80	790.85
652.14	785.23
652.49	779.63
652.83	774.09
653.17	768.30
653.51	762.55
653.85	757.12
654.20	751.54
654.54	745.96
654.88	740.76
655.22	735.33
655.56	729.75
655.90	724.21
656.25	718.82
656.59	713.52
656.93	708.57
657.27	703.50
657.61	698.07
657.95	693.26
658.29	688.52
658.64	683.54
658.98	678.37
659.32	673.29
659.66	668.29
660.00	663.05
660.34	658.15
660.68	653.19
661.02	648.16
661.36	643.54
661.70	638.92
662.05	634.44
662.39	630.06
662.73	626.02
663.07	621.91
663.41	617.82
663.75	613.68
664.09	609.24
664.43	604.66
664.77	600.52
665.11	596.07
665.45	591.77
665.79	587.40
666.13	583.36
666.47	579.35
666.81	575.30
667.15	571.44
667.49	567.83
667.83	564.03
668.17	560.42
668.51	556.75
668.85	553.14
669.19	549.49
669.53	545.88
669.87	541.98
670.21	538.23
670.55	534.45
670.89	531.12
671.23	527.72
671.57	524.54
671.91	521.30
672.25	517.90
672.58	514.71
672.92	511.55
673.26	508.48
673.60	505.44
673.94	502.27
674.28	499.16
674.62	496.01
674.96	492.89
675.30	490.06
675.64	487.05
675.97	483.97
676.31	481.13
676.65	478.25
676.99	475.74
677.33	472.82
677.67	470.04
678.01	467.00
678.34	464.20
678.68	461.40
679.02	458.54
679.36	455.95
679.70	453.13
680.04	450.34
680.37	447.44
680.71	444.61
681.05	442.15
681.39	439.61
681.73	437.12
682.06	434.81
682.40	432.30
682.74	429.79
683.08	427.51
683.42	425.01
683.75	422.57
684.09	419.93
684.43	417.67
684.77	415.26
685.10	412.80
685.44	410.39
685.78	408.03
686.12	405.78
686.45	403.61
686.79	401.52
687.13	399.46
687.46	397.35
687.80	395.25
688.14	392.95
688.48	390.95
688.81	388.73
689.15	386.57
689.49	384.38
689.82	382.25
690.16	379.94
690.50	377.78
690.83	375.59
691.17	373.43
691.51	371.26
691.84	369.22
692.18	367.39
692.52	365.54
692.85	363.73
693.19	362.02
693.52	360.12
693.86	358.22
694.20	356.38
694.53	354.66
694.87	352.91
695.21	351.15
695.54	349.29
695.88	347.54
696.21	345.69
696.55	344.06
696.88	342.37
697.22	340.78
697.56	339.19
697.89	337.65
698.23	336.16
698.56	334.65
698.90	333.20
699.23	331.65
699.57	330.03
699.90	328.47
700.24	326.78
700.58	325.32
700.91	323.85
701.25	322.55
701.58	321.17
701.92	319.70
702.25	318.36
702.59	317.01
702.92	315.72
703.26	314.36
703.59	313.15
703.93	312.10
704.26	310.86
704.60	309.60
704.93	308.44
705.26	307.21
705.60	306.07
705.93	304.83
706.27	303.66
706.60	302.65
706.94	301.68
707.27	300.56
707.61	299.43
707.94	298.34
708.27	297.13
708.61	296.00
708.94	294.99
709.28	293.93
709.61	292.91
709.94	291.95
710.28	291.06
710.61	290.02
710.95	288.91
711.28	288.06
711.61	287.12
711.95	286.23
712.28	285.29
712.61	284.38
712.95	283.56
713.28	282.78
713.61	281.83
713.95	280.78
714.28	280.02
714.61	279.19
714.95	278.41
715.28	277.54
715.61	276.60
715.95	275.81
716.28	274.92
716.61	274.13
716.95	273.29
717.28	272.46
717.61	271.68
717.94	270.88
718.28	270.05
718.61	269.37
718.94	268.61
719.27	267.90
719.61	267.18
719.94	266.47
720.27	265.65
720.60	264.94
720.94	264.31
721.27	263.60
721.60	262.98
721.93	262.37
722.27	261.78
722.60	261.26
722.93	260.70
723.26	260.20
723.59	259.62
723.93	259.12
724.26	258.53
724.59	257.96
724.92	257.46
725.25	256.90
725.59	256.35
725.92	255.78
726.25	255.29
726.58	254.79
726.91	254.30
727.24	253.87
727.57	253.44
727.91	252.93
728.24	252.50
728.57	252.03
728.90	251.44
729.23	250.98
729.56	250.62
729.89	250.07
730.22	249.63
730.55	249.13
730.89	248.60
731.22	248.20
731.55	247.70
731.88	247.28
732.21	246.83
732.54	246.40
732.87	246.02
733.20	245.63
733.53	245.29
733.86	245.00
734.19	244.50
734.52	244.13
734.85	243.94
735.18	243.56
735.51	243.22
735.84	242.92
736.17	242.65
736.50	242.19
736.83	242.06
737.16	241.72
737.49	241.40
737.82	241.00
738.15	240.61
738.48	240.35
738.81	240.00
739.14	239.71
739.47	239.40
739.80	239.06
740.13	238.67
740.46	238.26
740.79	237.81
741.12	237.58
741.45	237.25
741.78	236.79
742.11	236.57
742.44	236.23
742.77	235.97
743.10	235.66
743.43	235.40
743.75	234.92
744.08	234.88
744.41	234.56
744.74	234.31
745.07	234.07
745.40	233.84
745.73	233.62
746.06	233.33
746.39	233.06
746.71	232.77
747.04	232.53
747.37	232.27
747.70	232.04
748.03	231.75
748.36	231.55
748.68	231.31
749.01	230.97
749.34	230.72
749.67	230.50
750.00	230.22
750.33	229.96
750.65	229.80
750.98	229.30
751.31	229.08
751.64	228.89
751.97	228.75
752.29	228.43
752.62	228.15
752.95	227.93
753.28	227.63
753.60	227.45
753.93	227.33
754.26	227.14
754.59	226.93
754.91	226.72
755.24	226.45
755.57	226.29
755.90	226.11
756.22	225.87
756.55	225.62
756.88	225.44
757.20	225.26
757.53	224.97
757.86	224.85
758.19	224.73
758.51	224.59
758.84	224.35
759.17	224.24
759.49	224.06
759.82	223.99
760.15	223.89
760.47	223.78
760.80	223.49
761.13	223.40
761.45	223.24
761.78	223.12
762.11	223.06
762.43	222.93
762.76	222.71
763.08	222.64
763.41	222.45
763.74	222.32
764.06	222.16
764.39	222.04
764.71	221.89
765.04	221.71
765.37	221.57
765.69	221.41
766.02	221.33
766.34	221.25
766.67	221.09
767.00	221.00
767.32	221.04
767.65	221.09
767.97	220.92
768.30	220.82
768.62	220.72
768.95	220.55
769.27	220.36
769.60	220.31
769.92	220.24
770.25	220.22
770.57	220.05
770.90	219.96
771.22	219.83
771.55	219.75
771.87	219.70
772.20	219.60
772.52	219.67
772.85	219.76
773.17	219.64
773.50	219.51
773.82	219.41
774.15	219.18
774.47	218.99
774.80	218.97
775.12	218.87
775.45	218.73
775.77	218.72
776.09	218.74
776.42	218.72
776.74	218.60
777.07	218.44
777.39	218.46
777.72	218.40
778.04	218.34
778.36	218.29
778.69	218.18
779.01	218.13
779.33	217.96
779.66	217.68
779.98	217.60
780.31	217.55
780.63	217.60
780.95	217.49
781.28	217.40
781.60	217.32
781.92	217.26
782.25	217.30
782.57	217.15
782.89	217.00
783.22	216.91
783.54	216.80
783.86	216.79
784.19	216.67
784.51	216.69
784.83	216.59
785.16	216.47
785.48	216.50
785.80	216.42
786.12	216.35
786.45	216.27
786.77	216.29
