SpectraSuite Data File
++++++++++++++++++++++++++++++++++++
Date: Mon Feb 25 17:36:09 EST 2013
User: group
Dark Spectrum Present: No
Reference Spectrum Present: No
Number of Sampled Component Spectra: 1
Spectrometers: USB2E7196
Integration Time (usec): 52000 (USB2E7196)
Spectra Averaged: 20 (USB2E7196)
Boxcar Smoothing: 10 (USB2E7196)
Correct for Electrical Dark: No (USB2E7196)
Strobe/Lamp Enabled: No (USB2E7196)
Correct for Detector Non-linearity: No (USB2E7196)
Correct for Stray Light: No (USB2E7196)
Number of Pixels in Processed Spectrum: 2048
>>>>>Begin Processed Spectral Data<<<<<
339.09	0.00
339.48	198.65
339.86	201.15
340.24	201.65
340.63	203.05
341.01	207.95
341.39	204.65
341.78	207.95
342.16	208.75
342.54	209.05
342.93	198.20
343.31	208.26
343.69	208.75
344.07	209.13
344.46	209.62
344.84	210.10
345.22	210.29
345.60	210.67
345.99	210.94
346.37	211.17
346.75	211.36
347.13	211.57
347.52	211.72
347.90	211.96
348.28	212.12
348.66	212.26
349.05	212.29
349.43	212.49
349.81	212.61
350.19	212.73
350.57	212.86
350.96	213.05
351.34	213.15
351.72	213.42
352.10	213.66
352.48	213.76
352.87	213.78
353.25	213.96
353.63	214.02
354.01	214.09
354.39	214.21
354.77	214.25
355.15	214.37
355.54	214.44
355.92	214.45
356.30	214.53
356.68	214.64
357.06	214.79
357.44	214.80
357.82	214.88
358.20	215.00
358.58	215.14
358.97	215.20
359.35	215.36
359.73	215.44
360.11	215.51
360.49	215.59
360.87	215.71
361.25	215.74
361.63	215.93
362.01	215.99
362.39	215.96
362.77	216.05
363.15	216.09
363.53	216.23
363.91	216.27
364.29	216.36
364.67	216.27
365.05	216.23
365.43	216.39
365.81	216.36
366.19	216.43
366.57	216.43
366.95	216.44
367.33	216.39
367.71	216.40
368.09	216.48
368.47	216.45
368.85	216.46
369.23	216.52
369.61	216.41
369.99	216.56
370.37	216.66
370.75	216.79
371.13	216.76
371.51	216.67
371.89	216.68
372.27	216.57
372.65	216.60
373.03	216.63
373.41	216.58
373.78	216.59
374.16	216.48
374.54	216.48
374.92	216.46
375.30	216.49
375.68	216.42
376.06	216.34
376.44	216.26
376.82	216.25
377.19	216.20
377.57	216.23
377.95	215.99
378.33	215.86
378.71	215.71
379.09	215.67
379.47	215.65
379.84	215.61
380.22	215.64
380.60	215.52
380.98	215.45
381.36	215.34
381.73	215.30
382.11	215.35
382.49	215.35
382.87	215.33
383.25	215.21
383.62	215.42
384.00	215.39
384.38	215.49
384.76	215.49
385.13	215.45
385.51	215.41
385.89	215.45
386.27	215.50
386.64	215.45
387.02	215.54
387.40	215.52
387.78	215.53
388.15	215.55
388.53	215.56
388.91	215.51
389.29	215.54
389.66	215.63
390.04	215.64
390.42	215.65
390.79	215.65
391.17	215.74
391.55	215.59
391.92	215.57
392.30	215.62
392.68	215.57
393.05	215.66
393.43	215.69
393.81	215.77
394.18	215.78
394.56	215.86
394.94	215.92
395.31	216.00
395.69	216.11
396.06	216.14
396.44	216.23
396.82	216.42
397.19	216.62
397.57	216.67
397.95	216.80
398.32	216.91
398.70	217.13
399.07	217.37
399.45	217.54
399.82	217.73
400.20	217.90
400.58	218.15
400.95	218.38
401.33	218.75
401.70	219.13
402.08	219.50
402.45	219.87
402.83	220.22
403.20	220.64
403.58	221.13
403.95	221.81
404.33	222.46
404.71	223.05
405.08	223.85
405.46	224.58
405.83	225.45
406.21	226.30
406.58	227.23
406.96	228.18
407.33	229.30
407.70	230.62
408.08	232.06
408.45	233.51
408.83	235.03
409.20	236.53
409.58	238.20
409.95	240.01
410.33	242.11
410.70	244.21
411.08	246.52
411.45	248.91
411.82	251.36
412.20	254.14
412.57	257.35
412.95	260.30
413.32	263.72
413.69	267.31
414.07	271.20
414.44	275.37
414.82	279.68
415.19	284.56
415.56	289.63
415.94	295.23
416.31	301.31
416.68	307.38
417.06	314.27
417.43	320.75
417.81	328.36
418.18	336.00
418.55	344.58
418.93	353.53
419.30	362.86
419.67	372.59
420.04	382.78
420.42	393.37
420.79	405.25
421.16	417.72
421.54	430.16
421.91	443.30
422.28	457.33
422.66	472.15
423.03	486.27
423.40	501.34
423.77	517.44
424.15	534.01
424.52	551.28
424.89	570.09
425.26	588.62
425.64	606.27
426.01	625.85
426.38	646.19
426.75	666.51
427.13	688.01
427.50	710.75
427.87	734.55
428.24	758.67
428.61	781.83
428.99	806.32
429.36	834.03
429.73	860.80
430.10	887.53
430.47	914.95
430.85	944.48
431.22	975.13
431.59	1006.99
431.96	1038.25
432.33	1072.90
432.70	1106.41
433.08	1145.77
433.45	1182.54
433.82	1219.46
434.19	1260.23
434.56	1300.68
434.93	1339.92
435.30	1378.85
435.68	1422.18
436.05	1465.32
436.42	1508.35
436.79	1547.87
437.16	1590.24
437.53	1635.48
437.90	1679.95
438.27	1723.98
438.64	1770.09
439.01	1812.83
439.38	1852.23
439.75	1889.50
440.13	1931.71
440.50	1971.89
440.87	2005.13
441.24	2040.42
441.61	2078.84
441.98	2108.61
442.35	2142.40
442.72	2176.15
443.09	2209.06
443.46	2230.58
443.83	2245.67
444.20	2259.75
444.57	2279.03
444.94	2290.07
445.31	2301.30
445.68	2311.26
446.05	2318.57
446.42	2317.95
446.79	2316.19
447.16	2313.96
447.53	2313.05
447.90	2300.93
448.27	2288.88
448.64	2270.15
449.01	2256.80
449.37	2230.90
449.74	2205.68
450.11	2174.41
450.48	2141.52
450.85	2107.58
451.22	2078.56
451.59	2050.91
451.96	2024.38
452.33	1987.56
452.70	1954.70
453.07	1914.67
453.43	1874.64
453.80	1835.12
454.17	1797.28
454.54	1762.25
454.91	1723.49
455.28	1686.56
455.65	1651.60
456.02	1614.07
456.38	1583.66
456.75	1546.09
457.12	1514.95
457.49	1483.77
457.86	1454.77
458.23	1427.95
458.59	1399.10
458.96	1370.02
459.33	1344.33
459.70	1318.21
460.07	1297.77
460.43	1273.96
460.80	1251.22
461.17	1231.55
461.54	1210.89
461.91	1191.24
462.27	1171.01
462.64	1154.33
463.01	1135.25
463.38	1116.25
463.74	1099.90
464.11	1084.31
464.48	1070.23
464.85	1054.93
465.21	1043.14
465.58	1030.09
465.95	1015.19
466.32	1002.83
466.68	989.92
467.05	977.20
467.42	965.17
467.78	952.38
468.15	940.11
468.52	930.99
468.88	919.50
469.25	909.23
469.62	900.53
469.98	891.32
470.35	882.59
470.72	874.49
471.08	866.21
471.45	858.63
471.82	850.45
472.18	842.28
472.55	836.51
472.92	829.70
473.28	823.97
473.65	818.25
474.02	812.22
474.38	807.63
474.75	803.64
475.11	799.00
475.48	795.28
475.85	792.26
476.21	789.47
476.58	787.00
476.94	785.13
477.31	782.92
477.67	780.94
478.04	779.48
478.41	778.57
478.77	777.82
479.14	776.97
479.50	777.14
479.87	777.90
480.23	778.52
480.60	778.60
480.96	778.92
481.33	780.56
481.69	782.40
482.06	783.61
482.42	784.47
482.79	786.04
483.15	789.14
483.52	792.77
483.88	795.78
484.25	799.24
484.61	802.77
484.98	806.48
485.34	811.07
485.71	815.86
486.07	821.13
486.44	826.51
486.80	832.53
487.17	838.90
487.53	845.75
487.90	852.95
488.26	860.86
488.62	869.30
488.99	877.23
489.35	885.59
489.72	895.54
490.08	906.29
490.44	916.87
490.81	927.40
491.17	937.55
491.54	949.29
491.90	960.54
492.26	972.83
492.63	985.86
492.99	999.15
493.36	1012.91
493.72	1027.38
494.08	1042.20
494.45	1057.59
494.81	1073.71
495.17	1090.04
495.54	1107.01
495.90	1124.87
496.26	1142.79
496.63	1161.63
496.99	1180.64
497.35	1199.58
497.72	1218.82
498.08	1238.56
498.44	1258.70
498.80	1280.20
499.17	1301.45
499.53	1323.40
499.89	1346.07
500.26	1368.55
500.62	1390.67
500.98	1414.19
501.34	1437.39
501.71	1461.24
502.07	1485.50
502.43	1510.04
502.79	1534.18
503.16	1558.65
503.52	1582.81
503.88	1606.94
504.24	1631.66
504.60	1656.80
504.97	1682.51
505.33	1708.17
505.69	1735.13
506.05	1761.15
506.41	1786.71
506.78	1812.66
507.14	1838.56
507.50	1864.31
507.86	1890.65
508.22	1917.49
508.59	1943.60
508.95	1970.11
509.31	1996.75
509.67	2023.00
510.03	2049.20
510.39	2076.57
510.75	2103.02
511.12	2128.90
511.48	2154.95
511.84	2181.10
512.20	2206.65
512.56	2232.18
512.92	2258.16
513.28	2283.35
513.64	2308.84
514.00	2333.85
514.37	2358.06
514.73	2382.74
515.09	2406.70
515.45	2430.15
515.81	2453.64
516.17	2477.18
516.53	2499.87
516.89	2522.05
517.25	2543.01
517.61	2563.86
517.97	2583.87
518.33	2603.53
518.69	2624.16
519.05	2644.99
519.41	2664.58
519.77	2684.85
520.13	2704.15
520.49	2722.29
520.85	2739.96
521.21	2757.70
521.57	2776.34
521.93	2793.89
522.29	2812.02
522.65	2829.14
523.01	2846.45
523.37	2862.68
523.73	2878.69
524.09	2894.00
524.45	2909.05
524.81	2924.47
525.17	2940.10
525.53	2955.50
525.89	2971.44
526.25	2986.03
526.61	2998.55
526.97	3011.75
527.33	3024.61
527.68	3038.05
528.04	3051.49
528.40	3063.80
528.76	3076.20
529.12	3087.72
529.48	3100.04
529.84	3109.97
530.20	3120.96
530.56	3131.56
530.91	3143.35
531.27	3154.39
531.63	3166.00
531.99	3177.00
532.35	3187.35
532.71	3196.74
533.07	3207.75
533.42	3217.14
533.78	3227.64
534.14	3237.89
534.50	3247.10
534.86	3256.84
535.21	3263.98
535.57	3271.93
535.93	3279.62
536.29	3286.94
536.65	3294.96
537.00	3301.78
537.36	3309.51
537.72	3316.44
538.08	3323.65
538.44	3329.64
538.79	3335.54
539.15	3341.44
539.51	3348.10
539.87	3355.73
540.22	3361.96
540.58	3367.62
540.94	3373.31
541.29	3377.49
541.65	3379.93
542.01	3383.96
542.37	3386.96
542.72	3391.93
543.08	3395.29
543.44	3399.80
543.79	3402.87
544.15	3404.83
544.51	3408.61
544.87	3411.98
545.22	3414.39
545.58	3415.59
545.94	3416.87
546.29	3417.75
546.65	3418.05
547.01	3417.57
547.36	3417.61
547.72	3418.36
548.07	3417.27
548.43	3416.50
548.79	3415.04
549.14	3416.61
549.50	3417.72
549.86	3418.41
550.21	3417.19
550.57	3417.77
550.92	3416.54
551.28	3415.23
551.64	3414.29
551.99	3413.47
552.35	3412.70
552.70	3412.40
553.06	3412.30
553.41	3411.84
553.77	3410.94
554.13	3409.96
554.48	3411.07
554.84	3410.20
555.19	3408.51
555.55	3408.15
555.90	3407.87
556.26	3407.63
556.61	3406.16
556.97	3402.60
557.32	3399.15
557.68	3396.61
558.03	3392.96
558.39	3390.43
558.74	3389.89
559.10	3388.49
559.45	3386.00
559.81	3384.34
560.16	3381.72
560.52	3379.82
560.87	3377.79
561.23	3374.65
561.58	3372.02
561.94	3366.91
562.29	3362.04
562.64	3358.50
563.00	3353.99
563.35	3348.60
563.71	3344.95
564.06	3342.55
564.42	3339.97
564.77	3337.40
565.12	3334.06
565.48	3331.09
565.83	3328.05
566.19	3325.15
566.54	3322.28
566.89	3317.96
567.25	3312.63
567.60	3308.46
567.96	3303.27
568.31	3298.10
568.66	3294.07
569.02	3290.37
569.37	3287.04
569.72	3284.25
570.08	3280.28
570.43	3275.10
570.78	3271.52
571.14	3266.88
571.49	3261.06
571.84	3257.17
572.20	3251.40
572.55	3247.57
572.90	3241.43
573.26	3235.45
573.61	3227.75
573.96	3220.04
574.31	3213.12
574.67	3206.41
575.02	3199.18
575.37	3191.59
575.72	3184.48
576.08	3177.44
576.43	3168.69
576.78	3160.30
577.13	3152.75
577.49	3145.32
577.84	3138.16
578.19	3129.78
578.54	3121.65
578.90	3113.73
579.25	3103.58
579.60	3094.32
579.95	3084.10
580.30	3075.85
580.66	3066.96
581.01	3057.65
581.36	3047.20
581.71	3038.17
582.06	3029.23
582.42	3020.91
582.77	3011.03
583.12	3001.38
583.47	2991.95
583.82	2983.04
584.17	2973.42
584.53	2963.60
584.88	2953.34
585.23	2943.17
585.58	2933.55
585.93	2923.20
586.28	2913.64
586.63	2904.73
586.98	2896.23
587.34	2887.01
587.69	2876.88
588.04	2867.34
588.39	2858.36
588.74	2848.89
589.09	2839.11
589.44	2827.87
589.79	2817.06
590.14	2807.62
590.49	2796.69
590.84	2786.90
591.19	2777.43
591.54	2766.56
591.89	2754.53
592.25	2743.81
592.60	2732.46
592.95	2721.01
593.30	2710.30
593.65	2699.30
594.00	2688.47
594.35	2678.43
594.70	2667.96
595.05	2657.85
595.40	2646.70
595.75	2634.72
596.10	2624.22
596.45	2613.35
596.80	2603.64
597.15	2593.38
597.50	2582.72
597.85	2572.90
598.19	2560.76
598.54	2549.15
598.89	2538.50
599.24	2528.46
599.59	2517.55
599.94	2507.99
600.29	2498.00
600.64	2487.25
600.99	2475.36
601.34	2465.04
601.69	2452.73
602.04	2440.99
602.39	2430.52
602.74	2421.20
603.08	2412.91
603.43	2404.84
603.78	2395.01
604.13	2384.54
604.48	2373.16
604.83	2363.87
605.18	2353.80
605.53	2344.20
605.87	2334.49
606.22	2325.30
606.57	2315.11
606.92	2304.15
607.27	2293.45
607.62	2282.97
607.96	2273.09
608.31	2264.02
608.66	2253.23
609.01	2243.20
609.36	2233.36
609.70	2222.06
610.05	2209.95
610.40	2197.75
610.75	2184.85
611.10	2173.45
611.44	2161.44
611.79	2150.95
612.14	2138.62
612.49	2126.22
612.83	2114.25
613.18	2101.74
613.53	2089.25
613.88	2076.43
614.22	2065.05
614.57	2053.08
614.92	2041.21
615.27	2029.50
615.61	2017.02
615.96	2005.08
616.31	1993.72
616.65	1983.09
617.00	1972.07
617.35	1961.18
617.70	1949.51
618.04	1937.86
618.39	1925.89
618.74	1914.69
619.08	1902.46
619.43	1890.97
619.78	1880.53
620.12	1870.44
620.47	1860.14
620.82	1849.28
621.16	1839.20
621.51	1828.69
621.85	1817.59
622.20	1806.65
622.55	1795.12
622.89	1784.42
623.24	1773.63
623.59	1762.52
623.93	1750.93
624.28	1740.14
624.62	1729.31
624.97	1718.70
625.32	1709.00
625.66	1699.21
626.01	1689.72
626.35	1681.10
626.70	1671.80
627.04	1661.77
627.39	1650.99
627.73	1641.18
628.08	1631.67
628.43	1622.06
628.77	1612.63
629.12	1603.28
629.46	1593.68
629.81	1583.70
630.15	1573.29
630.50	1563.23
630.84	1553.36
631.19	1543.25
631.53	1533.27
631.88	1523.25
632.22	1513.67
632.57	1504.15
632.91	1494.73
633.26	1485.23
633.60	1474.86
633.95	1465.40
634.29	1456.19
634.64	1447.68
634.98	1437.96
635.32	1428.95
635.67	1420.14
636.01	1410.95
636.36	1401.66
636.70	1392.83
637.05	1384.67
637.39	1376.92
637.73	1368.75
638.08	1360.98
638.42	1353.22
638.77	1345.10
639.11	1337.00
639.45	1328.72
639.80	1320.00
640.14	1311.60
640.49	1302.83
640.83	1294.12
641.17	1285.43
641.52	1276.95
641.86	1267.94
642.20	1259.83
642.55	1250.76
642.89	1241.71
643.23	1233.13
643.58	1224.99
643.92	1216.40
644.26	1207.92
644.61	1199.44
644.95	1190.85
645.29	1182.20
645.64	1173.38
645.98	1164.79
646.32	1156.76
646.66	1148.76
647.01	1140.75
647.35	1132.45
647.69	1124.13
648.04	1116.66
648.38	1108.77
648.72	1100.76
649.06	1093.15
649.41	1084.78
649.75	1076.63
650.09	1069.07
650.43	1061.79
650.78	1054.26
651.12	1046.92
651.46	1039.61
651.80	1032.48
652.14	1025.56
652.49	1017.94
652.83	1010.67
653.17	1002.93
653.51	995.38
653.85	988.14
654.20	981.05
654.54	974.10
654.88	967.25
655.22	959.61
655.56	951.67
655.90	943.96
656.25	936.26
656.59	929.54
656.93	923.01
657.27	916.42
657.61	909.10
657.95	902.48
658.29	895.51
658.64	888.88
658.98	882.05
659.32	875.07
659.66	868.97
660.00	862.66
660.34	857.01
660.68	850.61
661.02	844.07
661.36	837.84
661.70	831.59
662.05	825.71
662.39	820.09
662.73	814.94
663.07	809.86
663.41	804.89
663.75	799.36
664.09	793.89
664.43	787.95
664.77	782.49
665.11	776.89
665.45	771.75
665.79	766.47
666.13	761.48
666.47	756.60
666.81	751.29
667.15	746.17
667.49	740.95
667.83	736.00
668.17	731.18
668.51	726.33
668.85	721.37
669.19	716.47
669.53	711.43
669.87	706.17
670.21	701.20
670.55	696.05
670.89	691.22
671.23	686.54
671.57	681.91
671.91	677.48
672.25	673.10
672.58	668.54
672.92	663.83
673.26	659.37
673.60	654.90
673.94	650.80
674.28	646.80
674.62	642.80
674.96	638.63
675.30	634.79
675.64	630.84
675.97	627.20
676.31	623.69
676.65	620.28
676.99	617.36
677.33	613.83
677.67	610.38
678.01	606.54
678.34	602.88
678.68	599.30
679.02	595.43
679.36	591.66
679.70	587.94
680.04	584.52
680.37	580.77
680.71	577.14
681.05	573.70
681.39	570.24
681.73	566.87
682.06	563.52
682.40	559.94
682.74	556.28
683.08	552.44
683.42	548.83
683.75	545.16
684.09	541.24
684.43	537.81
684.77	534.27
685.10	530.97
685.44	527.47
685.78	524.16
686.12	521.16
686.45	517.96
686.79	515.03
687.13	512.02
687.46	509.03
687.80	506.00
688.14	502.73
688.48	499.62
688.81	496.37
689.15	493.52
689.49	490.45
689.82	487.47
690.16	484.44
690.50	481.35
690.83	478.43
691.17	475.37
691.51	472.44
691.84	469.81
692.18	467.06
692.52	464.56
692.85	461.88
693.19	459.07
693.52	456.39
693.86	453.42
694.20	450.64
694.53	447.72
694.87	444.85
695.21	442.05
695.54	439.25
695.88	436.67
696.21	434.00
696.55	431.53
696.88	429.12
697.22	426.93
697.56	424.68
697.89	422.41
698.23	420.38
698.56	418.06
698.90	415.77
699.23	413.41
699.57	411.02
699.90	408.77
700.24	406.51
700.58	404.18
700.91	402.11
701.25	400.09
701.58	398.22
701.92	396.42
702.25	394.60
702.59	392.74
702.92	390.72
703.26	388.80
703.59	387.05
703.93	385.29
704.26	383.41
704.60	381.47
704.93	379.46
705.26	377.40
705.60	375.59
705.93	373.76
706.27	372.34
706.60	370.64
706.94	368.93
707.27	367.10
707.61	365.60
707.94	363.93
708.27	362.14
708.61	360.48
708.94	358.92
709.28	357.25
709.61	355.56
709.94	353.93
710.28	352.21
710.61	350.57
710.95	348.80
711.28	347.23
711.61	345.52
711.95	344.05
712.28	342.63
712.61	341.15
712.95	339.80
713.28	338.22
713.61	336.72
713.95	335.43
714.28	334.24
714.61	332.79
714.95	331.40
715.28	329.99
715.61	328.52
715.95	327.00
716.28	325.68
716.61	324.26
716.95	322.86
717.28	321.63
717.61	320.25
717.94	318.99
718.28	317.72
718.61	316.62
718.94	315.43
719.27	314.25
719.61	313.05
719.94	311.79
720.27	310.53
720.60	309.56
720.94	308.43
721.27	307.28
721.60	306.30
721.93	305.35
722.27	304.36
722.60	303.45
722.93	302.48
723.26	301.55
723.59	300.71
723.93	299.87
724.26	298.96
724.59	298.02
724.92	297.19
725.25	296.37
725.59	295.53
725.92	294.83
726.25	294.00
726.58	293.18
726.91	292.28
727.24	291.47
727.57	290.56
727.91	289.62
728.24	288.87
728.57	287.98
728.90	287.12
729.23	286.30
729.56	285.57
729.89	284.83
730.22	284.03
730.55	283.23
730.89	282.50
731.22	281.76
731.55	281.02
731.88	280.27
732.21	279.45
732.54	278.62
732.87	277.81
733.20	277.16
733.53	276.43
733.86	275.85
734.19	275.19
734.52	274.63
734.85	274.18
735.18	273.51
735.51	272.90
735.84	272.28
736.17	271.67
736.50	270.99
736.83	270.56
737.16	269.95
737.49	269.33
737.82	268.69
738.15	268.00
738.48	267.44
738.81	266.84
739.14	266.24
739.47	265.66
739.80	265.01
740.13	264.34
740.46	263.80
740.79	263.15
741.12	262.58
741.45	261.82
741.78	261.12
742.11	260.50
742.44	259.93
742.77	259.37
743.10	258.89
743.43	258.25
743.75	257.51
744.08	257.14
744.41	256.59
744.74	256.07
745.07	255.59
745.40	255.04
745.73	254.57
746.06	254.11
746.39	253.71
746.71	253.22
747.04	252.78
747.37	252.28
747.70	251.78
748.03	251.40
748.36	251.07
748.68	250.58
749.01	250.11
749.34	249.70
749.67	249.30
750.00	248.85
750.33	248.55
750.65	248.16
750.98	247.62
751.31	247.16
751.64	246.68
751.97	246.40
752.29	246.02
752.62	245.51
752.95	245.09
753.28	244.69
753.60	244.33
753.93	243.98
754.26	243.57
754.59	243.17
754.91	242.70
755.24	242.33
755.57	241.98
755.90	241.60
756.22	241.12
756.55	240.69
756.88	240.30
757.20	239.91
757.53	239.50
757.86	239.15
758.19	238.97
758.51	238.74
758.84	238.31
759.17	238.03
759.49	237.77
759.82	237.61
760.15	237.30
760.47	236.94
760.80	236.55
761.13	236.29
761.45	235.99
761.78	235.66
762.11	235.35
762.43	235.02
762.76	234.80
763.08	234.67
763.41	234.43
763.74	234.16
764.06	233.82
764.39	233.45
764.71	233.10
765.04	232.79
765.37	232.48
765.69	232.15
766.02	231.92
766.34	231.63
766.67	231.30
767.00	231.15
767.32	231.00
767.65	230.91
767.97	230.70
768.30	230.58
768.62	230.38
768.95	230.16
769.27	229.95
769.60	229.76
769.92	229.43
770.25	229.23
770.57	229.00
770.90	228.80
771.22	228.71
771.55	228.55
771.87	228.39
772.20	228.22
772.52	228.20
772.85	228.18
773.17	227.90
773.50	227.69
773.82	227.40
774.15	227.19
774.47	226.92
774.80	226.72
775.12	226.45
775.45	226.27
775.77	226.08
776.09	225.94
776.42	225.75
776.74	225.69
777.07	225.49
777.39	225.34
777.72	225.18
778.04	224.98
778.36	224.86
778.69	224.65
779.01	224.50
779.33	224.20
779.66	223.84
779.98	223.74
780.31	223.64
780.63	223.62
780.95	223.54
781.28	223.39
781.60	223.26
781.92	223.18
782.25	223.10
782.57	222.98
