SpectraSuite Data File
++++++++++++++++++++++++++++++++++++
Date: Mon Feb 25 17:29:58 EST 2013
User: group
Dark Spectrum Present: No
Reference Spectrum Present: No
Number of Sampled Component Spectra: 1
Spectrometers: USB2E7196
Integration Time (usec): 52000 (USB2E7196)
Spectra Averaged: 20 (USB2E7196)
Boxcar Smoothing: 10 (USB2E7196)
Correct for Electrical Dark: No (USB2E7196)
Strobe/Lamp Enabled: No (USB2E7196)
Correct for Detector Non-linearity: No (USB2E7196)
Correct for Stray Light: No (USB2E7196)
Number of Pixels in Processed Spectrum: 2048
>>>>>Begin Processed Spectral Data<<<<<
339.09	0.00
339.48	199.30
339.86	200.15
340.24	200.80
340.63	202.50
341.01	206.45
341.39	206.60
341.78	207.10
342.16	208.55
342.54	208.55
342.93	197.90
343.31	207.90
343.69	208.49
344.07	208.96
344.46	209.42
344.84	209.82
345.22	210.06
345.60	210.31
345.99	210.48
346.37	210.57
346.75	210.70
347.13	210.79
347.52	210.94
347.90	211.05
348.28	211.21
348.66	211.30
349.05	211.23
349.43	211.36
349.81	211.33
350.19	211.34
350.57	211.41
350.96	211.50
351.34	211.63
351.72	211.65
352.10	211.76
352.48	211.83
352.87	211.96
353.25	212.06
353.63	212.13
354.01	212.22
354.39	212.40
354.77	212.47
355.15	212.49
355.54	212.58
355.92	212.70
356.30	212.76
356.68	212.96
357.06	213.11
357.44	213.17
357.82	213.26
358.20	213.40
358.58	213.45
358.97	213.57
359.35	213.69
359.73	213.82
360.11	213.91
360.49	213.99
360.87	214.02
361.25	214.07
361.63	214.19
362.01	214.31
362.39	214.34
362.77	214.44
363.15	214.54
363.53	214.52
363.91	214.53
364.29	214.53
364.67	214.46
365.05	214.50
365.43	214.46
365.81	214.56
366.19	214.67
366.57	214.74
366.95	214.75
367.33	214.68
367.71	214.63
368.09	214.70
368.47	214.65
368.85	214.63
369.23	214.60
369.61	214.54
369.99	214.50
370.37	214.45
370.75	214.45
371.13	214.38
371.51	214.42
371.89	214.43
372.27	214.37
372.65	214.28
373.03	214.21
373.41	214.20
373.78	214.07
374.16	213.91
374.54	213.81
374.92	213.77
375.30	213.76
375.68	213.72
376.06	213.58
376.44	213.56
376.82	213.47
377.19	213.43
377.57	213.35
377.95	213.31
378.33	213.20
378.71	213.09
379.09	213.06
379.47	212.96
379.84	212.78
380.22	212.71
380.60	212.65
380.98	212.56
381.36	212.46
381.73	212.46
382.11	212.51
382.49	212.45
382.87	212.35
383.25	212.25
383.62	212.36
384.00	212.30
384.38	212.25
384.76	212.32
385.13	212.40
385.51	212.33
385.89	212.22
386.27	212.27
386.64	212.24
387.02	212.14
387.40	212.16
387.78	212.20
388.15	212.13
388.53	212.08
388.91	212.12
389.29	212.05
389.66	212.03
390.04	211.89
390.42	211.89
390.79	211.86
391.17	211.88
391.55	211.72
391.92	211.75
392.30	211.76
392.68	211.66
393.05	211.51
393.43	211.55
393.81	211.56
394.18	211.50
394.56	211.50
394.94	211.60
395.31	211.49
395.69	211.54
396.06	211.59
396.44	211.66
396.82	211.57
397.19	211.79
397.57	211.75
397.95	211.84
398.32	211.83
398.70	211.88
399.07	211.91
399.45	211.90
399.82	211.94
400.20	211.89
400.58	211.95
400.95	212.01
401.33	212.10
401.70	212.25
402.08	212.35
402.45	212.38
402.83	212.45
403.20	212.56
403.58	212.65
403.95	212.77
404.33	212.91
404.71	213.03
405.08	213.15
405.46	213.25
405.83	213.34
406.21	213.50
406.58	213.66
406.96	213.76
407.33	213.94
407.70	214.10
408.08	214.42
408.45	214.62
408.83	214.85
409.20	215.03
409.58	215.16
409.95	215.40
410.33	215.70
410.70	215.94
411.08	216.29
411.45	216.58
411.82	216.93
412.20	217.35
412.57	217.84
412.95	218.11
413.32	218.68
413.69	219.18
414.07	219.67
414.44	220.19
414.82	220.80
415.19	221.48
415.56	222.18
415.94	222.87
416.31	223.69
416.68	224.51
417.06	225.43
417.43	226.34
417.81	227.41
418.18	228.45
418.55	229.60
418.93	230.75
419.30	232.00
419.67	233.40
420.04	234.64
420.42	236.03
420.79	237.79
421.16	239.40
421.54	241.15
421.91	242.86
422.28	244.76
422.66	246.75
423.03	248.73
423.40	250.73
423.77	252.77
424.15	254.93
424.52	257.11
424.89	259.55
425.26	261.91
425.64	264.13
426.01	266.59
426.38	269.17
426.75	271.77
427.13	274.47
427.50	277.14
427.87	280.12
428.24	283.09
428.61	285.79
428.99	288.83
429.36	292.09
429.73	295.37
430.10	298.63
430.47	301.92
430.85	305.42
431.22	309.09
431.59	313.07
431.96	316.74
432.33	320.94
432.70	324.84
433.08	329.50
433.45	333.82
433.82	338.13
434.19	342.92
434.56	347.65
434.93	352.10
435.30	356.74
435.68	361.69
436.05	366.56
436.42	371.40
436.79	375.95
437.16	380.84
437.53	385.93
437.90	390.96
438.27	395.95
438.64	401.04
439.01	405.75
439.38	409.99
439.75	414.11
440.13	418.58
440.50	422.96
440.87	426.48
441.24	430.24
441.61	434.46
441.98	437.45
442.35	441.04
442.72	444.65
443.09	448.14
443.46	450.09
443.83	451.47
444.20	452.68
444.57	454.40
444.94	455.10
445.31	455.92
445.68	456.56
446.05	456.75
446.42	455.98
446.79	455.28
447.16	454.48
447.53	453.91
447.90	451.96
448.27	450.05
448.64	447.38
449.01	445.31
449.37	441.71
449.74	438.37
450.11	434.41
450.48	430.12
450.85	425.57
451.22	421.85
451.59	418.30
451.96	414.98
452.33	410.46
452.70	406.41
453.07	401.49
453.43	396.57
453.80	391.81
454.17	387.43
454.54	383.13
454.91	378.46
455.28	373.86
455.65	369.74
456.02	365.61
456.38	361.95
456.75	357.67
457.12	354.01
457.49	350.47
457.86	346.85
458.23	343.77
458.59	340.45
458.96	337.23
459.33	334.20
459.70	331.13
460.07	328.67
460.43	325.91
460.80	323.38
461.17	321.10
461.54	318.86
461.91	316.57
462.27	314.38
462.64	312.52
463.01	310.56
463.38	308.60
463.74	306.48
464.11	304.70
464.48	303.04
464.85	301.35
465.21	300.00
465.58	298.63
465.95	296.97
466.32	295.61
466.68	294.14
467.05	292.81
467.42	291.50
467.78	290.11
468.15	288.78
468.52	287.82
468.88	286.59
469.25	285.51
469.62	284.65
469.98	283.73
470.35	282.82
470.72	281.98
471.08	281.05
471.45	280.32
471.82	279.69
472.18	278.96
472.55	278.40
472.92	277.65
473.28	277.08
473.65	276.60
474.02	276.08
474.38	275.77
474.75	275.51
475.11	275.13
475.48	274.93
475.85	274.86
476.21	274.75
476.58	274.66
476.94	274.64
477.31	274.60
477.67	274.52
478.04	274.66
478.41	274.82
478.77	275.12
479.14	275.23
479.50	275.49
479.87	275.82
480.23	276.23
480.60	276.73
480.96	277.17
481.33	277.71
481.69	278.38
482.06	278.97
482.42	279.54
482.79	280.28
483.15	281.02
483.52	281.91
483.88	282.73
484.25	283.75
484.61	284.72
484.98	285.82
485.34	287.05
485.71	288.32
486.07	289.63
486.44	290.94
486.80	292.41
487.17	293.97
487.53	295.63
487.90	297.51
488.26	299.42
488.62	301.43
488.99	303.49
489.35	305.57
489.72	307.85
490.08	310.26
490.44	312.71
490.81	315.43
491.17	318.15
491.54	321.08
491.90	324.01
492.26	327.18
492.63	330.41
492.99	333.94
493.36	337.56
493.72	341.40
494.08	345.34
494.45	349.70
494.81	354.20
495.17	358.70
495.54	363.51
495.90	368.41
496.26	373.57
496.63	378.99
496.99	384.65
497.35	390.61
497.72	396.91
498.08	403.44
498.44	410.12
498.80	417.21
499.17	424.62
499.53	432.20
499.89	440.19
500.26	448.21
500.62	456.54
500.98	465.15
501.34	474.10
501.71	483.49
502.07	492.88
502.43	502.74
502.79	513.00
503.16	523.37
503.52	534.21
503.88	545.28
504.24	556.68
504.60	568.35
504.97	580.43
505.33	592.62
505.69	605.51
506.05	618.63
506.41	631.94
506.78	645.46
507.14	659.28
507.50	673.33
507.86	688.10
508.22	702.99
508.59	718.26
508.95	734.00
509.31	749.95
509.67	766.44
510.03	782.85
510.39	799.88
510.75	817.06
511.12	834.65
511.48	852.53
511.84	870.61
512.20	888.64
512.56	907.30
512.92	926.39
513.28	945.56
513.64	964.90
514.00	984.26
514.37	1003.95
514.73	1024.16
515.09	1044.43
515.45	1064.51
515.81	1085.04
516.17	1105.74
516.53	1126.30
516.89	1146.96
517.25	1167.73
517.61	1188.81
517.97	1209.45
518.33	1230.50
518.69	1251.56
519.05	1272.95
519.41	1294.40
519.77	1316.58
520.13	1337.86
520.49	1359.19
520.85	1380.76
521.21	1402.49
521.57	1424.54
521.93	1445.73
522.29	1467.80
522.65	1489.76
523.01	1511.73
523.37	1533.00
523.73	1554.46
524.09	1575.84
524.45	1597.30
524.81	1618.68
525.17	1640.12
525.53	1661.83
525.89	1683.36
526.25	1704.39
526.61	1724.58
526.97	1745.52
527.33	1765.76
527.68	1786.00
528.04	1806.16
528.40	1825.35
528.76	1845.05
529.12	1864.62
529.48	1885.33
529.84	1904.54
530.20	1923.86
530.56	1943.03
530.91	1962.65
531.27	1981.90
531.63	2000.90
531.99	2019.65
532.35	2037.78
532.71	2055.45
533.07	2073.71
533.42	2091.01
533.78	2108.89
534.14	2126.40
534.50	2142.46
534.86	2158.94
535.21	2174.84
535.57	2191.55
535.93	2207.96
536.29	2223.28
536.65	2238.70
537.00	2252.55
537.36	2266.81
537.72	2280.45
538.08	2294.33
538.44	2308.15
538.79	2322.13
539.15	2335.38
539.51	2348.73
539.87	2362.66
540.22	2375.98
540.58	2389.48
540.94	2402.65
541.29	2414.08
541.65	2424.99
542.01	2436.90
542.37	2448.28
542.72	2459.60
543.08	2469.22
543.44	2480.07
543.79	2489.57
544.15	2498.92
544.51	2509.40
544.87	2519.13
545.22	2527.31
545.58	2534.80
545.94	2541.50
546.29	2547.25
546.65	2553.04
547.01	2558.44
547.36	2563.30
547.72	2568.09
548.07	2571.31
548.43	2574.65
548.79	2577.81
549.14	2582.17
549.50	2585.64
549.86	2588.74
550.21	2592.24
550.57	2595.82
550.92	2597.62
551.28	2599.78
551.64	2601.54
551.99	2603.21
552.35	2604.20
552.70	2606.50
553.06	2609.05
553.41	2611.48
553.77	2614.14
554.13	2615.94
554.48	2617.48
554.84	2618.74
555.19	2619.31
555.55	2619.50
555.90	2619.22
556.26	2619.46
556.61	2618.55
556.97	2616.68
557.32	2615.80
557.68	2613.53
558.03	2611.53
558.39	2609.67
558.74	2608.62
559.10	2607.14
559.45	2604.94
559.81	2603.64
560.16	2600.78
560.52	2598.02
560.87	2594.60
561.23	2589.98
561.58	2587.30
561.94	2583.99
562.29	2579.84
562.64	2576.95
563.00	2574.17
563.35	2571.54
563.71	2569.09
564.06	2566.87
564.42	2565.17
564.77	2562.34
565.12	2560.20
565.48	2557.01
565.83	2554.00
566.19	2550.67
566.54	2546.47
566.89	2542.15
567.25	2538.19
567.60	2535.10
567.96	2531.28
568.31	2527.55
568.66	2523.94
569.02	2519.29
569.37	2513.99
569.72	2510.22
570.08	2504.93
570.43	2499.19
570.78	2493.69
571.14	2487.67
571.49	2481.00
571.84	2475.22
572.20	2468.53
572.55	2461.79
572.90	2455.09
573.26	2448.02
573.61	2440.74
573.96	2434.20
574.31	2426.72
574.67	2418.70
575.02	2410.14
575.37	2401.77
575.72	2393.05
576.08	2385.84
576.43	2377.41
576.78	2369.82
577.13	2361.85
577.49	2354.56
577.84	2347.29
578.19	2340.21
578.54	2333.13
578.90	2326.65
579.25	2318.12
579.60	2309.21
579.95	2300.65
580.30	2293.17
580.66	2285.38
581.01	2277.23
581.36	2268.33
581.71	2260.44
582.06	2252.56
582.42	2245.13
582.77	2236.47
583.12	2228.24
583.47	2219.73
583.82	2211.75
584.17	2203.16
584.53	2194.70
584.88	2185.65
585.23	2176.89
585.58	2167.71
585.93	2158.70
586.28	2149.86
586.63	2141.53
586.98	2133.97
587.34	2126.28
587.69	2117.52
588.04	2109.26
588.39	2101.35
588.74	2092.98
589.09	2084.85
589.44	2075.40
589.79	2067.19
590.14	2060.22
590.49	2052.60
590.84	2044.06
591.19	2036.78
591.54	2028.75
591.89	2019.36
592.25	2011.11
592.60	2002.40
592.95	1993.81
593.30	1985.11
593.65	1976.20
594.00	1967.45
594.35	1960.05
594.70	1951.47
595.05	1943.36
595.40	1935.00
595.75	1926.09
596.10	1918.38
596.45	1910.47
596.80	1903.79
597.15	1895.81
597.50	1887.13
597.85	1879.08
598.19	1871.10
598.54	1862.80
598.89	1855.28
599.24	1848.88
599.59	1841.90
599.94	1835.34
600.29	1827.91
600.64	1820.53
600.99	1812.51
601.34	1805.83
601.69	1797.52
602.04	1789.88
602.39	1782.43
602.74	1775.17
603.08	1768.91
603.43	1762.50
603.78	1754.68
604.13	1746.92
604.48	1739.57
604.83	1733.11
605.18	1726.54
605.53	1719.60
605.87	1712.27
606.22	1705.85
606.57	1698.30
606.92	1690.50
607.27	1682.92
607.62	1675.90
607.96	1669.35
608.31	1663.45
608.66	1655.83
609.01	1648.55
609.36	1641.30
609.70	1633.59
610.05	1626.15
610.40	1618.27
610.75	1610.13
611.10	1603.14
611.44	1594.44
611.79	1585.67
612.14	1576.89
612.49	1567.80
612.83	1559.44
613.18	1550.60
613.53	1541.39
613.88	1532.34
614.22	1524.05
614.57	1515.41
614.92	1506.79
615.27	1497.86
615.61	1488.88
615.96	1480.55
616.31	1472.63
616.65	1465.22
617.00	1457.44
617.35	1449.34
617.70	1441.24
618.04	1432.63
618.39	1423.75
618.74	1416.12
619.08	1408.13
619.43	1400.00
619.78	1392.70
620.12	1385.17
620.47	1377.75
620.82	1369.67
621.16	1361.89
621.51	1354.00
621.85	1346.14
622.20	1338.06
622.55	1330.22
622.89	1322.51
623.24	1314.76
623.59	1306.51
623.93	1298.22
624.28	1290.47
624.62	1282.76
624.97	1274.91
625.32	1267.51
625.66	1260.66
626.01	1253.80
626.35	1247.10
626.70	1239.98
627.04	1232.92
627.39	1225.63
627.73	1218.42
628.08	1212.04
628.43	1205.21
628.77	1198.28
629.12	1191.19
629.46	1185.01
629.81	1178.35
630.15	1171.50
630.50	1164.81
630.84	1157.90
631.19	1151.14
631.53	1144.64
631.88	1137.56
632.22	1130.38
632.57	1123.81
632.91	1116.87
633.26	1109.87
633.60	1102.99
633.95	1096.74
634.29	1089.69
634.64	1083.28
634.98	1076.77
635.32	1070.14
635.67	1064.10
636.01	1057.88
636.36	1051.61
636.70	1045.40
637.05	1039.03
637.39	1032.88
637.73	1026.64
638.08	1021.18
638.42	1015.44
638.77	1009.45
639.11	1003.51
639.45	997.75
639.80	991.65
640.14	985.53
640.49	979.36
640.83	973.50
641.17	967.26
641.52	961.70
641.86	955.59
642.20	949.92
642.55	943.50
642.89	937.29
643.23	931.10
643.58	925.47
643.92	918.99
644.26	913.11
644.61	907.19
644.95	901.38
645.29	895.42
645.64	889.27
645.98	883.19
646.32	877.72
646.66	871.97
647.01	866.29
647.35	860.74
647.69	854.86
648.04	849.17
648.38	843.27
648.72	837.31
649.06	831.63
649.41	825.58
649.75	820.12
650.09	814.57
650.43	808.89
650.78	802.97
651.12	797.39
651.46	791.82
651.80	786.36
652.14	780.98
652.49	775.28
652.83	769.93
653.17	764.39
653.51	758.63
653.85	753.10
654.20	747.49
654.54	741.91
654.88	736.59
655.22	731.06
655.56	725.66
655.90	720.19
656.25	714.66
656.59	709.57
656.93	704.62
657.27	699.67
657.61	694.57
657.95	689.64
658.29	684.80
658.64	679.95
658.98	674.95
659.32	669.57
659.66	664.70
660.00	659.58
660.34	654.43
660.68	649.58
661.02	644.66
661.36	640.09
661.70	635.46
662.05	631.08
662.39	626.96
662.73	623.00
663.07	618.99
663.41	614.99
663.75	610.71
664.09	606.21
664.43	601.66
664.77	597.50
665.11	593.22
665.45	589.12
665.79	584.91
666.13	580.65
666.47	576.85
666.81	572.80
667.15	568.92
667.49	565.22
667.83	561.63
668.17	558.10
668.51	554.58
668.85	551.02
669.19	547.51
669.53	543.63
669.87	539.64
670.21	535.83
670.55	532.15
670.89	528.80
671.23	525.66
671.57	522.49
671.91	519.14
672.25	515.83
672.58	512.46
672.92	509.17
673.26	506.17
673.60	502.91
673.94	499.81
674.28	496.70
674.62	493.74
674.96	490.63
675.30	487.66
675.64	484.59
675.97	481.60
676.31	478.74
676.65	476.00
676.99	473.50
677.33	470.77
677.67	467.96
678.01	464.93
678.34	462.09
678.68	459.28
679.02	456.44
679.36	453.82
679.70	451.17
680.04	448.51
680.37	445.71
680.71	443.13
681.05	440.54
681.39	437.94
681.73	435.35
682.06	432.84
682.40	430.42
682.74	427.95
683.08	425.49
683.42	422.92
683.75	420.49
684.09	417.96
684.43	415.54
684.77	413.10
685.10	410.72
685.44	408.23
685.78	405.89
686.12	403.77
686.45	401.48
686.79	399.26
687.13	397.20
687.46	395.23
687.80	393.14
688.14	391.02
688.48	388.97
688.81	386.77
689.15	384.71
689.49	382.66
689.82	380.56
690.16	378.44
690.50	376.25
690.83	374.25
691.17	372.14
691.51	370.09
691.84	368.10
692.18	366.28
692.52	364.49
692.85	362.66
693.19	360.99
693.52	359.29
693.86	357.37
694.20	355.53
694.53	353.67
694.87	351.80
695.21	350.01
695.54	348.26
695.88	346.55
696.21	344.76
696.55	343.03
696.88	341.38
697.22	339.79
697.56	338.41
697.89	336.83
698.23	335.29
698.56	333.77
698.90	332.32
699.23	330.75
699.57	329.20
699.90	327.61
700.24	325.89
700.58	324.28
700.91	322.95
701.25	321.66
701.58	320.36
701.92	319.06
702.25	317.70
702.59	316.26
702.92	315.02
703.26	313.73
703.59	312.49
703.93	311.43
704.26	310.22
704.60	308.98
704.93	307.70
705.26	306.56
705.60	305.42
705.93	304.26
706.27	303.17
706.60	302.19
706.94	301.08
707.27	299.96
707.61	298.82
707.94	297.69
708.27	296.43
708.61	295.28
708.94	294.25
709.28	293.21
709.61	292.26
709.94	291.25
710.28	290.27
710.61	289.39
710.95	288.25
711.28	287.38
711.61	286.37
711.95	285.38
712.28	284.41
712.61	283.47
712.95	282.62
713.28	281.74
713.61	280.74
713.95	279.93
714.28	279.19
714.61	278.36
714.95	277.57
715.28	276.71
715.61	275.84
715.95	274.92
716.28	274.07
716.61	273.32
716.95	272.56
717.28	271.77
717.61	270.89
717.94	270.05
718.28	269.21
718.61	268.46
718.94	267.75
719.27	267.10
719.61	266.42
719.94	265.77
720.27	265.07
720.60	264.40
720.94	263.73
721.27	263.03
721.60	262.45
721.93	261.77
722.27	261.28
722.60	260.68
722.93	260.19
723.26	259.78
723.59	259.18
723.93	258.63
724.26	258.08
724.59	257.53
724.92	257.11
725.25	256.62
725.59	256.18
725.92	255.80
726.25	255.23
726.58	254.74
726.91	254.20
727.24	253.72
727.57	253.26
727.91	252.71
728.24	252.31
728.57	251.85
728.90	251.57
729.23	251.10
729.56	250.69
729.89	250.22
730.22	249.65
730.55	249.21
730.89	248.78
731.22	248.37
731.55	248.02
731.88	247.50
732.21	247.06
732.54	246.58
732.87	246.10
733.20	245.70
733.53	245.26
733.86	244.86
734.19	244.45
734.52	244.08
734.85	243.91
735.18	243.45
735.51	243.05
735.84	242.58
736.17	242.15
736.50	241.74
736.83	241.54
737.16	241.21
737.49	240.91
737.82	240.54
738.15	240.15
738.48	239.70
738.81	239.42
739.14	239.06
739.47	238.76
739.80	238.43
740.13	238.13
740.46	237.90
740.79	237.57
741.12	237.24
741.45	236.90
741.78	236.45
742.11	236.19
742.44	235.85
742.77	235.56
743.10	235.30
743.43	235.04
743.75	234.64
744.08	234.63
744.41	234.35
744.74	234.09
745.07	233.87
745.40	233.71
745.73	233.50
746.06	233.24
746.39	232.92
746.71	232.64
747.04	232.37
747.37	232.09
747.70	231.86
748.03	231.60
748.36	231.38
748.68	231.20
749.01	230.99
749.34	230.78
749.67	230.55
750.00	230.34
750.33	230.22
750.65	230.05
750.98	229.50
751.31	229.19
751.64	228.95
751.97	228.82
752.29	228.53
752.62	228.26
752.95	228.04
753.28	227.84
753.60	227.64
753.93	227.45
754.26	227.19
754.59	226.87
754.91	226.67
755.24	226.44
755.57	226.26
755.90	226.08
756.22	225.90
756.55	225.68
756.88	225.47
757.20	225.22
757.53	224.91
757.86	224.75
758.19	224.62
758.51	224.45
758.84	224.24
759.17	224.06
759.49	223.98
759.82	223.96
760.15	223.85
760.47	223.67
760.80	223.47
761.13	223.42
761.45	223.30
761.78	223.13
762.11	223.00
762.43	222.82
762.76	222.58
763.08	222.41
763.41	222.35
763.74	222.29
764.06	222.15
764.39	222.00
764.71	221.93
765.04	221.80
765.37	221.65
765.69	221.50
766.02	221.41
766.34	221.20
766.67	220.97
767.00	220.89
767.32	220.89
767.65	220.88
767.97	220.73
768.30	220.66
768.62	220.57
768.95	220.47
769.27	220.39
769.60	220.34
769.92	220.26
770.25	220.12
770.57	219.94
770.90	219.77
771.22	219.60
771.55	219.39
771.87	219.23
772.20	219.16
772.52	219.21
772.85	219.28
773.17	219.23
773.50	219.09
773.82	218.98
774.15	218.85
774.47	218.67
774.80	218.54
775.12	218.46
775.45	218.39
775.77	218.28
776.09	218.17
776.42	218.19
776.74	218.10
777.07	218.05
777.39	217.99
777.72	217.94
778.04	217.96
778.36	217.92
778.69	217.93
779.01	217.85
779.33	217.65
779.66	217.41
779.98	217.27
780.31	217.30
780.63	217.24
780.95	217.10
781.28	217.05
781.60	217.07
781.92	216.93
782.25	216.84
782.57	216.82
782.89	216.72
783.22	216.49
783.54	216.41
783.86	216.33
784.19	216.26
784.51	216.17
784.83	216.06
785.16	216.02
785.48	216.01
785.80	215.97
786.12	215.85
786.45	215.81
786.77	215.78
