SpectraSuite Data File
++++++++++++++++++++++++++++++++++++
Date: Mon Feb 25 17:36:37 EST 2013
User: group
Dark Spectrum Present: No
Reference Spectrum Present: No
Number of Sampled Component Spectra: 1
Spectrometers: USB2E7196
Integration Time (usec): 52000 (USB2E7196)
Spectra Averaged: 20 (USB2E7196)
Boxcar Smoothing: 10 (USB2E7196)
Correct for Electrical Dark: No (USB2E7196)
Strobe/Lamp Enabled: No (USB2E7196)
Correct for Detector Non-linearity: No (USB2E7196)
Correct for Stray Light: No (USB2E7196)
Number of Pixels in Processed Spectrum: 2048
>>>>>Begin Processed Spectral Data<<<<<
339.09	0.00
339.48	199.80
339.86	200.15
340.24	201.90
340.63	203.00
341.01	207.25
341.39	205.40
341.78	207.70
342.16	208.40
342.54	208.80
342.93	198.10
343.31	208.12
343.69	208.58
344.07	209.10
344.46	209.55
344.84	210.07
345.22	210.36
345.60	210.69
345.99	211.01
346.37	211.25
346.75	211.54
347.13	211.74
347.52	211.90
347.90	212.17
348.28	212.33
348.66	212.54
349.05	212.74
349.43	212.96
349.81	213.12
350.19	213.25
350.57	213.44
350.96	213.66
351.34	213.86
351.72	214.12
352.10	214.26
352.48	214.44
352.87	214.50
353.25	214.57
353.63	214.67
354.01	214.70
354.39	214.82
354.77	214.79
355.15	214.88
355.54	214.96
355.92	214.96
356.30	215.05
356.68	215.22
357.06	215.29
357.44	215.27
357.82	215.31
358.20	215.42
358.58	215.45
358.97	215.50
359.35	215.64
359.73	215.71
360.11	215.79
360.49	215.79
360.87	215.86
361.25	215.92
361.63	216.06
362.01	216.13
362.39	216.12
362.77	216.20
363.15	216.31
363.53	216.33
363.91	216.25
364.29	216.30
364.67	216.17
365.05	216.15
365.43	216.21
365.81	216.27
366.19	216.40
366.57	216.50
366.95	216.45
367.33	216.36
367.71	216.37
368.09	216.41
368.47	216.43
368.85	216.43
369.23	216.42
369.61	216.38
369.99	216.38
370.37	216.38
370.75	216.49
371.13	216.35
371.51	216.29
371.89	216.32
372.27	216.33
372.65	216.27
373.03	216.18
373.41	216.10
373.78	216.10
374.16	215.93
374.54	215.84
374.92	215.77
375.30	215.76
375.68	215.66
376.06	215.65
376.44	215.54
376.82	215.47
377.19	215.47
377.57	215.37
377.95	215.25
378.33	215.21
378.71	214.98
379.09	214.99
379.47	214.95
379.84	215.02
380.22	214.89
380.60	214.83
380.98	214.84
381.36	214.87
381.73	214.72
382.11	214.69
382.49	214.62
382.87	214.63
383.25	214.60
383.62	214.81
384.00	214.70
384.38	214.72
384.76	214.70
385.13	214.74
385.51	214.67
385.89	214.67
386.27	214.62
386.64	214.67
387.02	214.60
387.40	214.57
387.78	214.50
388.15	214.52
388.53	214.52
388.91	214.50
389.29	214.48
389.66	214.53
390.04	214.50
390.42	214.52
390.79	214.56
391.17	214.59
391.55	214.38
391.92	214.45
392.30	214.47
392.68	214.49
393.05	214.46
393.43	214.55
393.81	214.65
394.18	214.73
394.56	214.75
394.94	214.94
395.31	215.01
395.69	215.13
396.06	215.27
396.44	215.42
396.82	215.51
397.19	215.72
397.57	215.77
397.95	216.04
398.32	216.20
398.70	216.30
399.07	216.49
399.45	216.65
399.82	216.81
400.20	217.08
400.58	217.32
400.95	217.55
401.33	217.84
401.70	218.23
402.08	218.57
402.45	219.05
402.83	219.36
403.20	219.84
403.58	220.31
403.95	220.77
404.33	221.34
404.71	221.96
405.08	222.69
405.46	223.47
405.83	224.20
406.21	224.95
406.58	225.86
406.96	226.80
407.33	227.88
407.70	229.04
408.08	230.36
408.45	231.70
408.83	233.22
409.20	234.72
409.58	236.20
409.95	237.96
410.33	239.79
410.70	241.81
411.08	243.93
411.45	246.16
411.82	248.60
412.20	251.18
412.57	254.12
412.95	256.94
413.32	260.10
413.69	263.45
414.07	267.10
414.44	271.06
414.82	275.04
415.19	279.69
415.56	284.52
415.94	289.68
416.31	295.27
416.68	300.80
417.06	307.30
417.43	313.43
417.81	320.50
418.18	327.80
418.55	335.65
418.93	344.00
419.30	352.61
419.67	361.67
420.04	371.22
420.42	381.35
420.79	392.36
421.16	404.03
421.54	415.72
421.91	428.20
422.28	441.26
422.66	455.19
423.03	468.50
423.40	482.50
423.77	497.68
424.15	513.20
424.52	529.49
424.89	547.18
425.26	564.70
425.64	581.30
426.01	599.49
426.38	618.65
426.75	638.02
427.13	658.35
427.50	679.83
427.87	702.52
428.24	725.13
428.61	747.33
428.99	770.62
429.36	796.69
429.73	822.07
430.10	847.34
430.47	873.32
430.85	900.94
431.22	929.96
431.59	960.02
431.96	989.67
432.33	1022.48
432.70	1054.10
433.08	1091.31
433.45	1126.44
433.82	1161.72
434.19	1200.66
434.56	1238.61
434.93	1276.10
435.30	1313.14
435.68	1354.10
436.05	1394.82
436.42	1435.47
436.79	1473.10
437.16	1513.97
437.53	1556.86
437.90	1599.81
438.27	1642.19
438.64	1686.25
439.01	1727.07
439.38	1764.85
439.75	1800.63
440.13	1841.26
440.50	1879.51
440.87	1911.66
441.24	1945.49
441.61	1982.28
441.98	2010.66
442.35	2043.62
442.72	2075.58
443.09	2106.86
443.46	2127.64
443.83	2142.94
444.20	2157.08
444.57	2176.12
444.94	2187.04
445.31	2198.15
445.68	2207.50
446.05	2214.57
446.42	2214.67
446.79	2213.47
447.16	2211.71
447.53	2211.61
447.90	2199.78
448.27	2188.54
448.64	2170.68
449.01	2158.35
449.37	2134.02
449.74	2110.55
450.11	2080.95
450.48	2050.09
450.85	2018.52
451.22	1990.95
451.59	1964.69
451.96	1939.40
452.33	1904.23
452.70	1872.64
453.07	1834.47
453.43	1796.52
453.80	1758.95
454.17	1722.71
454.54	1689.06
454.91	1652.18
455.28	1616.45
455.65	1583.45
456.02	1547.99
456.38	1518.96
456.75	1482.65
457.12	1452.91
457.49	1423.20
457.86	1395.13
458.23	1369.59
458.59	1341.70
458.96	1313.84
459.33	1288.95
459.70	1263.84
460.07	1244.00
460.43	1221.16
460.80	1199.60
461.17	1180.89
461.54	1161.12
461.91	1142.37
462.27	1123.44
462.64	1107.51
463.01	1089.17
463.38	1071.22
463.74	1055.78
464.11	1041.16
464.48	1027.98
464.85	1013.07
465.21	1001.44
465.58	989.41
465.95	975.27
466.32	963.60
466.68	951.72
467.05	939.81
467.42	928.07
467.78	915.75
468.15	903.96
468.52	895.30
468.88	884.11
469.25	874.08
469.62	865.76
469.98	856.94
470.35	848.67
470.72	841.20
471.08	833.14
471.45	825.84
471.82	818.03
472.18	810.07
472.55	804.68
472.92	798.21
473.28	792.49
473.65	786.90
474.02	781.11
474.38	776.32
474.75	772.52
475.11	768.20
475.48	764.90
475.85	762.03
476.21	759.15
476.58	756.85
476.94	755.08
477.31	752.87
477.67	750.70
478.04	749.04
478.41	748.10
478.77	747.12
479.14	745.96
479.50	745.90
479.87	746.57
480.23	747.12
480.60	747.13
480.96	747.21
481.33	748.54
481.69	750.11
482.06	751.48
482.42	752.25
482.79	753.80
483.15	756.48
483.52	759.74
483.88	762.65
484.25	765.62
484.61	768.72
484.98	772.17
485.34	776.29
485.71	780.94
486.07	785.49
486.44	790.88
486.80	796.37
487.17	802.07
487.53	808.31
487.90	814.87
488.26	822.15
488.62	829.95
488.99	837.67
489.35	845.59
489.72	854.32
490.08	864.11
490.44	873.79
490.81	883.40
491.17	893.01
491.54	903.69
491.90	914.24
492.26	925.61
492.63	937.59
492.99	950.07
493.36	962.60
493.72	976.06
494.08	989.36
494.45	1003.94
494.81	1019.07
495.17	1034.48
495.54	1050.52
495.90	1067.03
496.26	1084.00
496.63	1101.47
496.99	1119.20
497.35	1137.14
497.72	1155.13
498.08	1173.84
498.44	1192.72
498.80	1213.15
499.17	1233.25
499.53	1253.89
499.89	1275.25
500.26	1296.28
500.62	1317.40
500.98	1339.90
501.34	1362.22
501.71	1385.02
502.07	1407.77
502.43	1430.73
502.79	1453.45
503.16	1476.52
503.52	1499.64
503.88	1522.52
504.24	1545.52
504.60	1569.02
504.97	1593.42
505.33	1617.87
505.69	1642.80
506.05	1667.71
506.41	1691.78
506.78	1716.20
507.14	1740.99
507.50	1765.76
507.86	1790.85
508.22	1816.14
508.59	1840.70
508.95	1866.01
509.31	1891.43
509.67	1917.29
510.03	1942.18
510.39	1968.18
510.75	1993.20
511.12	2017.95
511.48	2042.66
511.84	2067.54
512.20	2091.91
512.56	2116.32
512.92	2140.65
513.28	2164.77
513.64	2188.81
514.00	2212.26
514.37	2235.59
514.73	2258.68
515.09	2281.05
515.45	2303.66
515.81	2326.25
516.17	2348.57
516.53	2369.74
516.89	2390.79
517.25	2409.97
517.61	2429.71
517.97	2448.74
518.33	2467.63
518.69	2487.18
519.05	2507.03
519.41	2526.47
519.77	2545.86
520.13	2564.14
520.49	2581.86
520.85	2599.38
521.21	2616.35
521.57	2634.06
521.93	2650.64
522.29	2668.19
522.65	2685.30
523.01	2701.84
523.37	2717.31
523.73	2733.08
524.09	2748.03
524.45	2763.02
524.81	2778.33
525.17	2794.28
525.53	2809.04
525.89	2824.37
526.25	2839.18
526.61	2851.82
526.97	2865.29
527.33	2878.25
527.68	2891.54
528.04	2905.16
528.40	2917.76
528.76	2930.75
529.12	2942.06
529.48	2954.48
529.84	2964.30
530.20	2975.55
530.56	2986.70
530.91	2998.63
531.27	3009.40
531.63	3020.32
531.99	3030.43
532.35	3040.72
532.71	3050.42
533.07	3062.16
533.42	3071.50
533.78	3081.73
534.14	3091.38
534.50	3099.89
534.86	3109.40
535.21	3116.75
535.57	3125.28
535.93	3133.21
536.29	3140.01
536.65	3148.90
537.00	3156.10
537.36	3164.83
537.72	3171.54
538.08	3178.73
538.44	3185.45
538.79	3192.21
539.15	3199.25
539.51	3206.79
539.87	3213.95
540.22	3220.25
540.58	3225.99
540.94	3232.67
541.29	3237.54
541.65	3241.58
542.01	3246.05
542.37	3249.99
542.72	3255.53
543.08	3259.14
543.44	3263.28
543.79	3266.50
544.15	3268.81
544.51	3273.21
544.87	3276.60
545.22	3279.27
545.58	3280.90
545.94	3282.09
546.29	3283.10
546.65	3283.86
547.01	3284.65
547.36	3285.98
547.72	3287.05
548.07	3286.42
548.43	3286.09
548.79	3285.51
549.14	3287.26
549.50	3288.58
549.86	3289.37
550.21	3288.72
550.57	3288.51
550.92	3287.62
551.28	3287.14
551.64	3286.63
551.99	3285.13
552.35	3284.14
552.70	3283.77
553.06	3283.10
553.41	3282.97
553.77	3282.70
554.13	3282.23
554.48	3282.36
554.84	3281.14
555.19	3279.82
555.55	3279.36
555.90	3278.77
556.26	3278.18
556.61	3276.76
556.97	3274.16
557.32	3271.38
557.68	3269.07
558.03	3266.71
558.39	3264.68
558.74	3264.98
559.10	3264.52
559.45	3263.72
559.81	3262.59
560.16	3260.62
560.52	3259.97
560.87	3258.22
561.23	3254.89
561.58	3252.20
561.94	3247.13
562.29	3243.33
562.64	3239.76
563.00	3236.11
563.35	3231.93
563.71	3228.55
564.06	3226.31
564.42	3223.60
564.77	3220.67
565.12	3218.37
565.48	3215.30
565.83	3212.55
566.19	3209.24
566.54	3205.30
566.89	3200.11
567.25	3194.78
567.60	3191.13
567.96	3186.09
568.31	3181.10
568.66	3177.54
569.02	3174.16
569.37	3171.32
569.72	3168.05
570.08	3164.26
570.43	3158.88
570.78	3154.54
571.14	3150.00
571.49	3144.32
571.84	3140.13
572.20	3134.54
572.55	3129.36
572.90	3123.48
573.26	3117.87
573.61	3109.99
573.96	3103.18
574.31	3096.37
574.67	3090.12
575.02	3082.50
575.37	3074.67
575.72	3067.31
576.08	3059.77
576.43	3051.12
576.78	3043.50
577.13	3035.67
577.49	3028.19
577.84	3021.80
578.19	3013.88
578.54	3005.77
578.90	2997.61
579.25	2988.18
579.60	2979.15
579.95	2969.92
580.30	2962.13
580.66	2952.80
581.01	2944.44
581.36	2934.40
581.71	2926.12
582.06	2917.32
582.42	2909.60
582.77	2900.58
583.12	2891.21
583.47	2882.22
583.82	2873.62
584.17	2863.39
584.53	2854.20
584.88	2843.80
585.23	2833.26
585.58	2824.07
585.93	2813.86
586.28	2804.71
586.63	2795.57
586.98	2786.85
587.34	2777.64
587.69	2767.13
588.04	2758.06
588.39	2748.85
588.74	2738.84
589.09	2728.73
589.44	2717.21
589.79	2705.68
590.14	2695.70
590.49	2684.78
590.84	2675.05
591.19	2664.83
591.54	2654.52
591.89	2642.55
592.25	2632.42
592.60	2620.78
592.95	2608.79
593.30	2597.67
593.65	2586.50
594.00	2575.54
594.35	2565.37
594.70	2553.77
595.05	2543.03
595.40	2530.70
595.75	2518.48
596.10	2508.06
596.45	2496.99
596.80	2487.39
597.15	2476.94
597.50	2465.95
597.85	2455.99
598.19	2443.49
598.54	2431.85
598.89	2420.87
599.24	2410.50
599.59	2399.80
599.94	2390.45
600.29	2380.66
600.64	2370.65
600.99	2358.84
601.34	2348.42
601.69	2336.62
602.04	2325.94
602.39	2315.68
602.74	2307.08
603.08	2298.81
603.43	2290.24
603.78	2280.65
604.13	2270.59
604.48	2259.86
604.83	2250.40
605.18	2240.36
605.53	2230.85
605.87	2220.71
606.22	2211.53
606.57	2202.05
606.92	2191.07
607.27	2180.22
607.62	2169.75
607.96	2159.66
608.31	2150.59
608.66	2139.54
609.01	2129.12
609.36	2118.62
609.70	2107.68
610.05	2095.28
610.40	2082.98
610.75	2070.44
611.10	2058.76
611.44	2046.60
611.79	2035.79
612.14	2024.37
612.49	2012.01
612.83	2000.79
613.18	1988.70
613.53	1976.71
613.88	1963.79
614.22	1951.97
614.57	1939.69
614.92	1927.32
615.27	1915.12
615.61	1902.12
615.96	1890.34
616.31	1879.25
616.65	1868.45
617.00	1857.28
617.35	1846.76
617.70	1834.87
618.04	1823.28
618.39	1811.35
618.74	1800.03
619.08	1788.02
619.43	1775.62
619.78	1764.76
620.12	1753.83
620.47	1743.96
620.82	1732.69
621.16	1722.34
621.51	1711.62
621.85	1700.95
622.20	1689.91
622.55	1678.40
622.89	1668.03
623.24	1657.63
623.59	1646.55
623.93	1635.05
624.28	1624.14
624.62	1613.24
624.97	1602.98
625.32	1592.76
625.66	1583.20
626.01	1573.27
626.35	1564.42
626.70	1555.41
627.04	1545.64
627.39	1535.21
627.73	1525.17
628.08	1515.98
628.43	1506.40
628.77	1497.30
629.12	1488.01
629.46	1479.08
629.81	1469.59
630.15	1459.83
630.50	1450.37
630.84	1440.76
631.19	1431.09
631.53	1421.61
631.88	1412.05
632.22	1403.06
632.57	1394.74
632.91	1385.74
633.26	1377.16
633.60	1367.77
633.95	1358.90
634.29	1350.60
634.64	1342.51
634.98	1333.27
635.32	1324.47
635.67	1316.47
636.01	1308.00
636.36	1299.74
636.70	1291.55
637.05	1283.62
637.39	1275.65
637.73	1267.18
638.08	1259.86
638.42	1253.06
638.77	1245.54
639.11	1237.95
639.45	1230.12
639.80	1221.67
640.14	1213.80
640.49	1205.70
640.83	1197.36
641.17	1189.35
641.52	1181.14
641.86	1172.70
642.20	1165.05
642.55	1156.24
642.89	1147.41
643.23	1139.29
643.58	1131.55
643.92	1123.39
644.26	1115.03
644.61	1107.05
644.95	1098.93
645.29	1090.60
645.64	1081.89
645.98	1073.85
646.32	1066.23
646.66	1058.71
647.01	1051.17
647.35	1043.36
647.69	1035.28
648.04	1027.93
648.38	1020.00
648.72	1012.43
649.06	1005.00
649.41	997.60
649.75	990.35
650.09	983.44
650.43	976.35
650.78	969.16
651.12	962.01
651.46	955.49
651.80	948.78
652.14	942.64
652.49	935.86
652.83	929.40
653.17	922.29
653.51	915.07
653.85	908.35
654.20	901.85
654.54	895.50
654.88	889.33
655.22	882.45
655.56	875.62
655.90	868.59
656.25	861.87
656.59	855.28
656.93	849.24
657.27	842.84
657.61	836.00
657.95	829.53
658.29	823.50
658.64	817.57
658.98	811.52
659.32	805.15
659.66	799.25
660.00	793.22
660.34	787.67
660.68	782.12
661.02	775.99
661.36	770.08
661.70	764.21
662.05	758.74
662.39	753.59
662.73	748.62
663.07	744.07
663.41	739.35
663.75	734.48
664.09	729.36
664.43	724.22
664.77	719.47
665.11	714.59
665.45	709.82
665.79	704.88
666.13	700.09
666.47	695.59
666.81	691.03
667.15	686.44
667.49	681.99
667.83	677.50
668.17	673.37
668.51	669.17
668.85	664.76
669.19	660.54
669.53	656.16
669.87	651.64
670.21	647.25
670.55	642.75
670.89	638.51
671.23	634.63
671.57	630.38
671.91	626.40
672.25	622.50
672.58	618.35
672.92	614.22
673.26	610.34
673.60	606.30
673.94	602.58
674.28	599.05
674.62	595.15
674.96	591.10
675.30	587.27
675.64	583.44
675.97	579.97
676.31	576.56
676.65	573.34
676.99	570.45
677.33	567.02
677.67	563.63
678.01	560.20
678.34	556.59
678.68	553.40
679.02	549.93
679.36	546.43
679.70	543.08
680.04	540.13
680.37	536.86
680.71	533.78
681.05	530.49
681.39	527.21
681.73	524.28
682.06	521.52
682.40	518.54
682.74	515.38
683.08	512.05
683.42	508.80
683.75	505.60
684.09	502.39
684.43	499.35
684.77	496.48
685.10	493.36
685.44	490.32
685.78	487.42
686.12	484.57
686.45	481.64
686.79	478.78
687.13	475.95
687.46	473.40
687.80	470.65
688.14	467.87
688.48	465.19
688.81	462.32
689.15	459.66
689.49	456.81
689.82	454.08
690.16	451.33
690.50	448.51
690.83	445.77
691.17	443.04
691.51	440.50
691.84	438.05
692.18	435.66
692.52	433.45
692.85	431.07
693.19	428.70
693.52	426.32
693.86	424.00
694.20	421.57
694.53	418.92
694.87	416.40
695.21	413.95
695.54	411.55
695.88	409.20
696.21	406.87
696.55	404.75
696.88	402.72
697.22	400.84
697.56	398.94
697.89	396.97
698.23	394.99
698.56	392.96
698.90	390.92
699.23	389.01
699.57	386.90
699.90	384.83
700.24	382.82
700.58	381.03
700.91	379.20
701.25	377.21
701.58	375.62
701.92	373.88
702.25	372.34
702.59	370.66
702.92	369.04
703.26	367.32
703.59	365.79
703.93	364.27
704.26	362.66
704.60	360.97
704.93	359.33
705.26	357.67
705.60	356.10
705.93	354.62
706.27	353.20
706.60	351.84
706.94	350.40
707.27	348.83
707.61	347.26
707.94	345.68
708.27	344.25
708.61	342.82
708.94	341.48
709.28	340.05
709.61	338.67
709.94	337.12
710.28	335.54
710.61	333.97
710.95	332.34
711.28	330.94
711.61	329.66
711.95	328.35
712.28	327.07
712.61	325.71
712.95	324.35
713.28	323.02
713.61	321.66
713.95	320.48
714.28	319.29
714.61	318.19
714.95	317.05
715.28	315.79
715.61	314.37
715.95	313.06
716.28	311.80
716.61	310.44
716.95	309.35
717.28	308.38
717.61	307.29
717.94	306.23
718.28	305.08
718.61	303.91
718.94	302.83
719.27	301.77
719.61	300.87
719.94	299.93
720.27	298.92
720.60	297.94
720.94	297.00
721.27	296.24
721.60	295.29
721.93	294.33
722.27	293.65
722.60	292.95
722.93	292.13
723.26	291.30
723.59	290.51
723.93	289.76
724.26	289.01
724.59	288.30
724.92	287.59
725.25	286.94
725.59	286.14
725.92	285.46
726.25	284.75
726.58	283.90
726.91	283.02
727.24	282.29
727.57	281.51
727.91	280.66
728.24	279.84
728.57	279.15
728.90	278.52
729.23	277.69
729.56	276.99
729.89	276.22
730.22	275.57
730.55	274.96
730.89	274.26
731.22	273.46
731.55	272.74
731.88	272.06
732.21	271.27
732.54	270.65
732.87	269.97
733.20	269.40
733.53	268.90
733.86	268.36
734.19	267.75
734.52	267.29
734.85	266.88
735.18	266.37
735.51	265.77
735.84	265.16
736.17	264.68
736.50	264.05
736.83	263.80
737.16	263.25
737.49	262.75
737.82	262.24
738.15	261.76
738.48	261.26
738.81	260.71
739.14	260.18
739.47	259.66
739.80	259.17
740.13	258.68
740.46	258.15
740.79	257.64
741.12	257.15
741.45	256.64
741.78	256.07
742.11	255.58
742.44	255.07
742.77	254.63
743.10	254.10
743.43	253.56
743.75	252.84
744.08	252.58
744.41	252.01
744.74	251.50
745.07	251.04
745.40	250.63
745.73	250.25
746.06	249.86
746.39	249.45
746.71	249.01
747.04	248.57
747.37	248.06
747.70	247.65
748.03	247.20
748.36	246.82
748.68	246.40
749.01	245.91
749.34	245.50
749.67	245.04
750.00	244.62
750.33	244.38
750.65	244.03
750.98	243.47
751.31	243.13
751.64	242.78
751.97	242.53
752.29	242.10
752.62	241.71
752.95	241.41
753.28	241.01
753.60	240.63
753.93	240.27
754.26	239.97
754.59	239.58
754.91	239.29
755.24	238.86
755.57	238.51
755.90	238.19
756.22	237.85
756.55	237.59
756.88	237.30
757.20	236.93
757.53	236.60
757.86	236.28
758.19	236.04
758.51	235.73
758.84	235.29
759.17	235.01
759.49	234.68
759.82	234.45
760.15	234.15
760.47	233.88
760.80	233.51
761.13	233.22
761.45	233.00
761.78	232.66
762.11	232.40
762.43	232.15
762.76	231.89
763.08	231.63
763.41	231.37
763.74	231.10
764.06	230.87
764.39	230.65
764.71	230.46
765.04	230.20
765.37	229.99
765.69	229.79
766.02	229.59
766.34	229.35
766.67	229.02
767.00	228.96
767.32	228.87
767.65	228.77
767.97	228.61
768.30	228.47
768.62	228.29
768.95	228.16
769.27	227.95
769.60	227.80
769.92	227.60
770.25	227.42
770.57	227.23
770.90	227.03
771.22	226.86
771.55	226.59
771.87	226.44
772.20	226.25
772.52	226.25
772.85	226.31
773.17	226.22
773.50	226.10
773.82	225.81
774.15	225.46
774.47	225.33
774.80	225.12
775.12	224.90
775.45	224.74
775.77	224.49
776.09	224.37
776.42	224.23
776.74	224.15
777.07	224.03
777.39	223.87
777.72	223.74
778.04	223.60
778.36	223.56
778.69	223.47
779.01	223.36
779.33	223.16
779.66	222.86
779.98	222.76
780.31	222.63
780.63	222.62
780.95	222.66
781.28	222.45
781.60	222.41
781.92	222.31
782.25	222.22
782.57	222.26
782.89	222.16
