SpectraSuite Data File
++++++++++++++++++++++++++++++++++++
Date: Mon Feb 25 17:31:42 EST 2013
User: group
Dark Spectrum Present: No
Reference Spectrum Present: No
Number of Sampled Component Spectra: 1
Spectrometers: USB2E7196
Integration Time (usec): 52000 (USB2E7196)
Spectra Averaged: 20 (USB2E7196)
Boxcar Smoothing: 10 (USB2E7196)
Correct for Electrical Dark: No (USB2E7196)
Strobe/Lamp Enabled: No (USB2E7196)
Correct for Detector Non-linearity: No (USB2E7196)
Correct for Stray Light: No (USB2E7196)
Number of Pixels in Processed Spectrum: 2048
>>>>>Begin Processed Spectral Data<<<<<
339.09	0.00
339.48	199.00
339.86	200.55
340.24	203.05
340.63	203.35
341.01	208.65
341.39	205.75
341.78	206.55
342.16	208.45
342.54	208.35
342.93	198.43
343.31	208.42
343.69	208.97
344.07	209.40
344.46	209.78
344.84	210.13
345.22	210.17
345.60	210.43
345.99	210.67
346.37	210.77
346.75	210.84
347.13	210.93
347.52	210.89
347.90	210.86
348.28	210.88
348.66	210.91
349.05	210.88
349.43	210.89
349.81	210.94
350.19	210.96
350.57	211.00
350.96	211.01
351.34	211.14
351.72	211.19
352.10	211.27
352.48	211.26
352.87	211.27
353.25	211.27
353.63	211.32
354.01	211.36
354.39	211.46
354.77	211.55
355.15	211.68
355.54	211.75
355.92	211.81
356.30	211.90
356.68	212.05
357.06	212.15
357.44	212.14
357.82	212.16
358.20	212.24
358.58	212.30
358.97	212.42
359.35	212.53
359.73	212.65
360.11	212.73
360.49	212.88
360.87	212.92
361.25	213.06
361.63	213.18
362.01	213.25
362.39	213.23
362.77	213.35
363.15	213.43
363.53	213.44
363.91	213.41
364.29	213.43
364.67	213.34
365.05	213.30
365.43	213.38
365.81	213.43
366.19	213.52
366.57	213.56
366.95	213.60
367.33	213.53
367.71	213.51
368.09	213.53
368.47	213.49
368.85	213.58
369.23	213.61
369.61	213.50
369.99	213.51
370.37	213.55
370.75	213.61
371.13	213.50
371.51	213.49
371.89	213.52
372.27	213.53
372.65	213.54
373.03	213.52
373.41	213.55
373.78	213.53
374.16	213.38
374.54	213.37
374.92	213.31
375.30	213.32
375.68	213.27
376.06	213.30
376.44	213.27
376.82	213.32
377.19	213.32
377.57	213.31
377.95	213.24
378.33	213.24
378.71	213.02
379.09	213.04
379.47	213.06
379.84	212.98
380.22	212.85
380.60	212.72
380.98	212.69
381.36	212.60
381.73	212.48
382.11	212.49
382.49	212.43
382.87	212.35
383.25	212.29
383.62	212.42
384.00	212.32
384.38	212.33
384.76	212.19
385.13	212.20
385.51	212.14
385.89	212.01
386.27	211.94
386.64	212.03
387.02	211.93
387.40	211.84
387.78	211.92
388.15	211.98
388.53	211.95
388.91	211.96
389.29	211.90
389.66	211.94
390.04	211.91
390.42	211.89
390.79	211.87
391.17	211.82
391.55	211.64
391.92	211.67
392.30	211.57
392.68	211.57
393.05	211.53
393.43	211.55
393.81	211.59
394.18	211.61
394.56	211.57
394.94	211.59
395.31	211.61
395.69	211.70
396.06	211.66
396.44	211.65
396.82	211.65
397.19	211.81
397.57	211.83
397.95	211.88
398.32	211.88
398.70	212.01
399.07	212.14
399.45	212.18
399.82	212.14
400.20	212.22
400.58	212.29
400.95	212.27
401.33	212.36
401.70	212.60
402.08	212.67
402.45	212.76
402.83	212.90
403.20	212.99
403.58	212.95
403.95	213.10
404.33	213.39
404.71	213.45
405.08	213.59
405.46	213.64
405.83	213.72
406.21	213.89
406.58	213.92
406.96	214.03
407.33	214.18
407.70	214.43
408.08	214.69
408.45	214.92
408.83	215.20
409.20	215.39
409.58	215.57
409.95	215.79
410.33	216.07
410.70	216.24
411.08	216.59
411.45	216.93
411.82	217.24
412.20	217.56
412.57	218.13
412.95	218.46
413.32	219.09
413.69	219.64
414.07	220.12
414.44	220.85
414.82	221.42
415.19	222.20
415.56	222.97
415.94	223.78
416.31	224.62
416.68	225.54
417.06	226.60
417.43	227.50
417.81	228.60
418.18	229.72
418.55	230.90
418.93	232.17
419.30	233.50
419.67	234.84
420.04	236.17
420.42	237.61
420.79	239.33
421.16	241.01
421.54	242.86
421.91	244.74
422.28	246.56
422.66	248.60
423.03	250.59
423.40	252.66
423.77	254.77
424.15	257.00
424.52	259.22
424.89	261.65
425.26	264.08
425.64	266.45
426.01	269.02
426.38	271.86
426.75	274.57
427.13	277.28
427.50	280.21
427.87	283.30
428.24	286.32
428.61	289.18
428.99	292.37
429.36	295.78
429.73	299.15
430.10	302.54
430.47	305.99
430.85	309.62
431.22	313.40
431.59	317.55
431.96	321.45
432.33	325.78
432.70	329.84
433.08	334.66
433.45	339.20
433.82	343.78
434.19	348.70
434.56	353.59
434.93	358.42
435.30	363.21
435.68	368.40
436.05	373.58
436.42	378.54
436.79	383.18
437.16	388.15
437.53	393.43
437.90	398.65
438.27	403.89
438.64	409.17
439.01	414.03
439.38	418.43
439.75	422.62
440.13	427.41
440.50	431.98
440.87	435.70
441.24	439.46
441.61	443.55
441.98	446.69
442.35	450.21
442.72	453.76
443.09	457.22
443.46	459.35
443.83	460.72
444.20	462.08
444.57	463.80
444.94	464.53
445.31	465.29
445.68	466.14
446.05	466.30
446.42	465.57
446.79	464.80
447.16	463.84
447.53	463.16
447.90	461.09
448.27	459.05
448.64	456.17
449.01	454.16
449.37	450.63
449.74	447.10
450.11	443.16
450.48	438.79
450.85	434.20
451.22	430.20
451.59	426.45
451.96	422.85
452.33	418.16
452.70	414.05
453.07	409.05
453.43	403.81
453.80	399.00
454.17	394.30
454.54	389.87
454.91	385.12
455.28	380.50
455.65	376.09
456.02	371.84
456.38	368.04
456.75	363.45
457.12	359.66
457.49	355.84
457.86	352.07
458.23	348.90
458.59	345.49
458.96	342.01
459.33	338.88
459.70	335.85
460.07	333.33
460.43	330.30
460.80	327.66
461.17	325.28
461.54	322.63
461.91	320.40
462.27	318.12
462.64	316.12
463.01	313.91
463.38	311.93
463.74	309.74
464.11	307.99
464.48	306.34
464.85	304.48
465.21	303.21
465.58	301.76
465.95	299.95
466.32	298.54
466.68	297.19
467.05	295.81
467.42	294.43
467.78	293.06
468.15	291.79
468.52	290.67
468.88	289.32
469.25	288.27
469.62	287.27
469.98	286.24
470.35	285.30
470.72	284.47
471.08	283.37
471.45	282.54
471.82	281.76
472.18	280.86
472.55	280.33
472.92	279.57
473.28	279.04
473.65	278.51
474.02	277.95
474.38	277.53
474.75	277.27
475.11	276.88
475.48	276.59
475.85	276.43
476.21	276.31
476.58	276.26
476.94	276.30
477.31	276.29
477.67	276.19
478.04	276.21
478.41	276.27
478.77	276.68
479.14	276.83
479.50	277.12
479.87	277.54
480.23	277.95
480.60	278.31
480.96	278.75
481.33	279.40
481.69	279.91
482.06	280.53
482.42	281.12
482.79	281.79
483.15	282.64
483.52	283.55
483.88	284.47
484.25	285.50
484.61	286.49
484.98	287.59
485.34	288.96
485.71	290.31
486.07	291.72
486.44	293.04
486.80	294.61
487.17	296.20
487.53	297.94
487.90	299.75
488.26	301.75
488.62	303.76
488.99	305.71
489.35	307.95
489.72	310.24
490.08	312.69
490.44	315.19
490.81	317.74
491.17	320.55
491.54	323.43
491.90	326.49
492.26	329.70
492.63	332.95
492.99	336.34
493.36	339.99
493.72	343.88
494.08	347.91
494.45	352.08
494.81	356.53
495.17	361.12
495.54	365.93
495.90	370.84
496.26	375.99
496.63	381.59
496.99	387.25
497.35	393.20
497.72	399.38
498.08	405.80
498.44	412.52
498.80	419.59
499.17	427.05
499.53	434.55
499.89	442.52
500.26	450.70
500.62	459.11
500.98	468.03
501.34	477.16
501.71	486.64
502.07	496.40
502.43	506.46
502.79	516.69
503.16	527.28
503.52	538.25
503.88	549.36
504.24	560.86
504.60	572.76
504.97	585.04
505.33	597.49
505.69	610.78
506.05	624.22
506.41	637.61
506.78	651.33
507.14	665.54
507.50	680.14
507.86	695.03
508.22	710.49
508.59	725.93
508.95	741.63
509.31	757.74
509.67	774.15
510.03	791.02
510.39	808.53
510.75	826.22
511.12	844.25
511.48	862.53
511.84	880.94
512.20	899.37
512.56	918.72
512.92	938.28
513.28	957.60
513.64	977.03
514.00	996.94
514.37	1017.22
514.73	1037.80
515.09	1058.46
515.45	1079.00
515.81	1099.68
516.17	1120.80
516.53	1142.29
516.89	1163.71
517.25	1185.15
517.61	1206.55
517.97	1227.80
518.33	1249.09
518.69	1270.63
519.05	1292.74
519.41	1314.89
519.77	1337.44
520.13	1359.07
520.49	1380.79
520.85	1403.29
521.21	1426.13
521.57	1449.05
521.93	1470.78
522.29	1493.41
522.65	1515.67
523.01	1538.22
523.37	1560.21
523.73	1582.43
524.09	1604.25
524.45	1626.40
524.81	1648.82
525.17	1670.83
525.53	1692.91
525.89	1715.06
526.25	1737.02
526.61	1757.98
526.97	1779.22
527.33	1800.45
527.68	1822.00
528.04	1843.13
528.40	1863.30
528.76	1883.67
529.12	1903.75
529.48	1925.20
529.84	1945.55
530.20	1965.69
530.56	1985.74
530.91	2006.34
531.27	2026.38
531.63	2046.38
531.99	2066.05
532.35	2084.99
532.71	2103.97
533.07	2123.36
533.42	2141.58
533.78	2160.09
534.14	2178.39
534.50	2195.74
534.86	2213.66
535.21	2230.05
535.57	2247.53
535.93	2264.53
536.29	2281.07
536.65	2297.90
537.00	2313.32
537.36	2327.95
537.72	2342.92
538.08	2358.10
538.44	2373.22
538.79	2388.08
539.15	2402.43
539.51	2416.75
539.87	2431.80
540.22	2445.94
540.58	2460.48
540.94	2475.13
541.29	2487.66
541.65	2499.57
542.01	2512.50
542.37	2523.82
542.72	2535.93
543.08	2546.99
543.44	2558.61
543.79	2568.48
544.15	2578.32
544.51	2589.04
544.87	2600.14
545.22	2609.37
545.58	2617.77
545.94	2624.90
546.29	2631.53
546.65	2637.83
547.01	2643.77
547.36	2649.36
547.72	2654.76
548.07	2658.63
548.43	2662.03
548.79	2666.16
549.14	2671.01
549.50	2675.13
549.86	2678.75
550.21	2682.60
550.57	2686.35
550.92	2688.96
551.28	2691.75
551.64	2694.22
551.99	2696.76
552.35	2698.13
552.70	2700.66
553.06	2703.44
553.41	2706.00
553.77	2709.04
554.13	2711.35
554.48	2713.28
554.84	2714.40
555.19	2714.80
555.55	2715.25
555.90	2715.71
556.26	2715.84
556.61	2715.31
556.97	2714.07
557.32	2713.69
557.68	2711.73
558.03	2709.85
558.39	2708.24
558.74	2707.62
559.10	2706.17
559.45	2703.65
559.81	2702.51
560.16	2699.69
560.52	2696.89
560.87	2694.15
561.23	2690.00
561.58	2687.64
561.94	2684.18
562.29	2680.47
562.64	2678.47
563.00	2675.97
563.35	2673.56
563.71	2671.88
564.06	2669.69
564.42	2667.80
564.77	2665.15
565.12	2663.81
565.48	2660.80
565.83	2657.54
566.19	2654.25
566.54	2649.97
566.89	2646.14
567.25	2642.34
567.60	2638.95
567.96	2635.44
568.31	2631.97
568.66	2628.22
569.02	2623.62
569.37	2618.76
569.72	2614.64
570.08	2609.27
570.43	2603.15
570.78	2597.41
571.14	2590.79
571.49	2584.31
571.84	2578.28
572.20	2571.56
572.55	2564.70
572.90	2557.75
573.26	2550.95
573.61	2543.64
573.96	2537.16
574.31	2529.52
574.67	2521.09
575.02	2512.78
575.37	2504.15
575.72	2494.96
576.08	2487.34
576.43	2478.41
576.78	2470.60
577.13	2462.81
577.49	2454.92
577.84	2447.58
578.19	2440.01
578.54	2432.73
578.90	2425.87
579.25	2417.08
579.60	2408.32
579.95	2399.05
580.30	2391.40
580.66	2383.44
581.01	2374.67
581.36	2365.30
581.71	2357.14
582.06	2348.98
582.42	2340.81
582.77	2331.85
583.12	2323.21
583.47	2314.57
583.82	2306.34
584.17	2297.14
584.53	2288.07
584.88	2279.22
585.23	2270.27
585.58	2260.75
585.93	2251.49
586.28	2242.64
586.63	2234.26
586.98	2226.31
587.34	2218.20
587.69	2208.79
588.04	2199.55
588.39	2191.10
588.74	2182.57
589.09	2173.92
589.44	2164.44
589.79	2155.79
590.14	2147.78
590.49	2139.53
590.84	2130.49
591.19	2122.47
591.54	2114.12
591.89	2104.29
592.25	2095.09
592.60	2085.86
592.95	2076.85
593.30	2067.25
593.65	2057.28
594.00	2047.55
594.35	2039.23
594.70	2030.33
595.05	2021.82
595.40	2013.40
595.75	2004.27
596.10	1996.16
596.45	1987.50
596.80	1979.94
597.15	1971.99
597.50	1963.25
597.85	1954.88
598.19	1946.54
598.54	1938.00
598.89	1930.17
599.24	1923.54
599.59	1916.30
599.94	1909.08
600.29	1901.50
600.64	1893.81
600.99	1885.37
601.34	1878.50
601.69	1869.58
602.04	1861.28
602.39	1853.65
602.74	1845.85
603.08	1839.46
603.43	1832.41
603.78	1824.50
604.13	1816.23
604.48	1808.09
604.83	1801.25
605.18	1794.21
605.53	1786.59
605.87	1779.00
606.22	1771.87
606.57	1764.05
606.92	1755.97
607.27	1748.10
607.62	1740.97
607.96	1734.00
608.31	1728.13
608.66	1719.99
609.01	1712.82
609.36	1705.34
609.70	1697.43
610.05	1689.79
610.40	1681.48
610.75	1672.95
611.10	1665.50
611.44	1656.60
611.79	1647.96
612.14	1638.66
612.49	1629.16
612.83	1620.74
613.18	1611.16
613.53	1601.98
613.88	1592.21
614.22	1583.32
614.57	1574.26
614.92	1564.72
615.27	1555.77
615.61	1545.88
615.96	1537.10
616.31	1528.49
616.65	1520.70
617.00	1512.60
617.35	1504.12
617.70	1495.43
618.04	1486.47
618.39	1477.24
618.74	1469.00
619.08	1460.07
619.43	1452.06
619.78	1444.35
620.12	1436.45
620.47	1429.06
620.82	1420.54
621.16	1412.45
621.51	1404.33
621.85	1396.03
622.20	1387.95
622.55	1379.72
622.89	1371.76
623.24	1364.00
623.59	1355.51
623.93	1346.82
624.28	1338.51
624.62	1330.36
624.97	1322.15
625.32	1314.36
625.66	1307.16
626.01	1299.98
626.35	1293.03
626.70	1285.36
627.04	1278.04
627.39	1270.42
627.73	1262.79
628.08	1255.99
628.43	1248.88
628.77	1241.57
629.12	1234.27
629.46	1227.65
629.81	1220.27
630.15	1213.22
630.50	1205.67
630.84	1198.40
631.19	1191.18
631.53	1184.37
631.88	1176.91
632.22	1169.23
632.57	1162.39
632.91	1155.05
633.26	1147.80
633.60	1140.86
633.95	1133.95
634.29	1126.64
634.64	1119.77
634.98	1112.85
635.32	1105.43
635.67	1099.17
636.01	1092.49
636.36	1085.76
636.70	1079.04
637.05	1072.52
637.39	1066.12
637.73	1060.05
638.08	1054.34
638.42	1048.54
638.77	1041.97
639.11	1035.65
639.45	1029.97
639.80	1023.46
640.14	1017.14
640.49	1010.85
640.83	1004.54
641.17	998.31
641.52	992.18
641.86	985.92
642.20	979.71
642.55	973.54
642.89	966.95
643.23	960.65
643.58	954.85
643.92	948.22
644.26	942.23
644.61	936.11
644.95	930.08
645.29	923.79
645.64	917.54
645.98	911.52
646.32	905.79
646.66	899.70
647.01	893.98
647.35	888.04
647.69	881.98
648.04	876.18
648.38	870.26
648.72	864.47
649.06	858.21
649.41	852.25
649.75	846.35
650.09	840.68
650.43	834.79
650.78	828.65
651.12	822.93
651.46	817.02
651.80	811.08
652.14	805.18
652.49	799.33
652.83	793.40
653.17	787.47
653.51	781.64
653.85	775.94
654.20	770.04
654.54	764.33
654.88	758.94
655.22	753.30
655.56	747.50
655.90	741.67
656.25	736.16
656.59	730.92
656.93	726.01
657.27	720.75
657.61	715.30
657.95	710.28
658.29	705.20
658.64	700.16
658.98	695.02
659.32	689.66
659.66	684.64
660.00	679.37
660.34	674.27
660.68	669.22
661.02	664.17
661.36	659.65
661.70	654.86
662.05	650.18
662.39	645.61
662.73	641.27
663.07	636.98
663.41	632.74
663.75	628.09
664.09	623.28
664.43	618.58
664.77	614.38
665.11	609.78
665.45	605.36
665.79	601.09
666.13	596.75
666.47	592.70
666.81	588.49
667.15	584.48
667.49	580.64
667.83	576.82
668.17	573.01
668.51	569.00
668.85	565.21
669.19	561.52
669.53	557.67
669.87	553.75
670.21	550.01
670.55	546.17
670.89	542.74
671.23	539.41
671.57	535.93
671.91	532.36
672.25	529.05
672.58	525.50
672.92	522.05
673.26	519.07
673.60	515.90
673.94	512.59
674.28	509.30
674.62	505.98
674.96	502.76
675.30	499.69
675.64	496.50
675.97	493.47
676.31	490.52
676.65	487.53
676.99	484.84
677.33	481.75
677.67	478.89
678.01	475.71
678.34	472.68
678.68	469.82
679.02	466.98
679.36	464.11
679.70	461.51
680.04	458.63
680.37	455.60
680.71	452.78
681.05	450.20
681.39	447.82
681.73	445.20
682.06	442.71
682.40	440.21
682.74	437.73
683.08	435.26
683.42	432.55
683.75	429.99
684.09	427.30
684.43	424.97
684.77	422.40
685.10	419.98
685.44	417.57
685.78	415.05
686.12	412.75
686.45	410.49
686.79	408.18
687.13	405.99
687.46	403.83
687.80	401.61
688.14	399.37
688.48	397.05
688.81	394.87
689.15	392.53
689.49	390.28
689.82	388.08
690.16	385.74
690.50	383.51
690.83	381.32
691.17	379.11
691.51	376.83
691.84	374.86
692.18	372.84
692.52	370.90
692.85	369.12
693.19	367.25
693.52	365.30
693.86	363.32
694.20	361.49
694.53	359.68
694.87	357.77
695.21	355.91
695.54	353.97
695.88	352.02
696.21	350.23
696.55	348.46
696.88	346.73
697.22	344.98
697.56	343.43
697.89	341.89
698.23	340.25
698.56	338.75
698.90	337.17
699.23	335.66
699.57	334.06
699.90	332.49
700.24	330.88
700.58	329.39
700.91	327.89
701.25	326.47
701.58	325.09
701.92	323.70
702.25	322.28
702.59	320.96
702.92	319.70
703.26	318.41
703.59	317.13
703.93	316.12
704.26	315.00
704.60	313.68
704.93	312.40
705.26	311.25
705.60	310.01
705.93	308.80
706.27	307.66
706.60	306.56
706.94	305.47
707.27	304.29
707.61	303.24
707.94	302.05
708.27	300.79
708.61	299.62
708.94	298.58
709.28	297.45
709.61	296.32
709.94	295.25
710.28	294.17
710.61	293.14
710.95	291.91
711.28	290.92
711.61	289.90
711.95	288.99
712.28	288.07
712.61	287.14
712.95	286.18
713.28	285.24
713.61	284.19
713.95	283.27
714.28	282.48
714.61	281.42
714.95	280.60
715.28	279.71
715.61	278.81
715.95	277.86
716.28	277.04
716.61	276.27
716.95	275.41
717.28	274.67
717.61	273.77
717.94	273.01
718.28	272.12
718.61	271.37
718.94	270.60
719.27	269.72
719.61	268.95
719.94	268.23
720.27	267.46
720.60	266.73
720.94	265.97
721.27	265.21
721.60	264.63
721.93	264.05
722.27	263.48
722.60	262.88
722.93	262.30
723.26	261.79
723.59	261.16
723.93	260.70
724.26	260.12
724.59	259.65
724.92	258.99
725.25	258.48
725.59	257.93
725.92	257.42
726.25	256.94
726.58	256.49
726.91	255.99
727.24	255.50
727.57	255.08
727.91	254.54
728.24	254.03
728.57	253.54
728.90	253.09
729.23	252.63
729.56	252.26
729.89	251.75
730.22	251.26
730.55	250.73
730.89	250.16
731.22	249.67
731.55	249.22
731.88	248.81
732.21	248.36
732.54	247.92
732.87	247.47
733.20	247.07
733.53	246.60
733.86	246.21
734.19	245.74
734.52	245.42
734.85	245.18
735.18	244.78
735.51	244.43
735.84	244.02
736.17	243.59
736.50	243.01
736.83	242.85
737.16	242.45
737.49	242.12
737.82	241.79
738.15	241.57
738.48	241.20
738.81	240.96
739.14	240.60
739.47	240.25
739.80	239.90
740.13	239.57
740.46	239.23
740.79	238.83
741.12	238.55
741.45	238.10
741.78	237.76
742.11	237.51
742.44	237.13
742.77	236.84
743.10	236.55
743.43	236.34
743.75	235.83
744.08	235.74
744.41	235.49
744.74	235.19
745.07	234.74
745.40	234.48
745.73	234.23
746.06	233.98
746.39	233.72
746.71	233.41
747.04	233.11
747.37	232.80
747.70	232.56
748.03	232.29
748.36	232.13
748.68	231.80
749.01	231.57
749.34	231.37
749.67	231.15
750.00	230.93
750.33	230.78
750.65	230.57
750.98	230.07
751.31	229.79
751.64	229.57
751.97	229.45
752.29	229.22
752.62	228.91
752.95	228.65
753.28	228.42
753.60	228.24
753.93	228.02
754.26	227.87
754.59	227.66
754.91	227.45
755.24	227.21
755.57	227.04
755.90	226.77
756.22	226.55
756.55	226.31
756.88	226.07
757.20	225.78
757.53	225.55
757.86	225.33
758.19	225.15
758.51	224.97
758.84	224.74
759.17	224.53
759.49	224.34
759.82	224.34
760.15	224.19
760.47	224.04
760.80	223.95
761.13	223.80
761.45	223.64
761.78	223.50
762.11	223.39
762.43	223.21
762.76	223.10
763.08	223.02
763.41	222.84
763.74	222.71
764.06	222.59
764.39	222.43
764.71	222.36
765.04	222.19
765.37	222.02
765.69	221.95
766.02	221.82
766.34	221.76
766.67	221.50
767.00	221.46
767.32	221.40
767.65	221.35
767.97	221.22
768.30	221.09
768.62	220.97
768.95	220.81
769.27	220.67
769.60	220.57
769.92	220.43
770.25	220.35
770.57	220.25
770.90	220.13
771.22	220.06
771.55	220.02
771.87	219.95
772.20	219.86
772.52	219.87
772.85	219.96
773.17	219.79
773.50	219.69
773.82	219.46
774.15	219.30
774.47	219.12
774.80	219.00
775.12	218.90
775.45	218.79
775.77	218.70
776.09	218.68
776.42	218.56
776.74	218.54
777.07	218.44
777.39	218.33
777.72	218.21
778.04	218.14
778.36	217.98
778.69	218.00
779.01	217.99
779.33	217.72
779.66	217.50
779.98	217.49
780.31	217.48
780.63	217.53
780.95	217.48
781.28	217.42
781.60	217.38
781.92	217.31
782.25	217.30
782.57	217.26
782.89	217.22
783.22	217.18
783.54	217.03
783.86	217.02
784.19	217.05
784.51	217.11
784.83	217.02
785.16	217.01
785.48	216.88
785.80	216.83
786.12	216.81
786.45	216.75
