SpectraSuite Data File
++++++++++++++++++++++++++++++++++++
Date: Mon Feb 25 17:30:25 EST 2013
User: group
Dark Spectrum Present: No
Reference Spectrum Present: No
Number of Sampled Component Spectra: 1
Spectrometers: USB2E7196
Integration Time (usec): 52000 (USB2E7196)
Spectra Averaged: 20 (USB2E7196)
Boxcar Smoothing: 10 (USB2E7196)
Correct for Electrical Dark: No (USB2E7196)
Strobe/Lamp Enabled: No (USB2E7196)
Correct for Detector Non-linearity: No (USB2E7196)
Correct for Stray Light: No (USB2E7196)
Number of Pixels in Processed Spectrum: 2048
>>>>>Begin Processed Spectral Data<<<<<
339.09	0.00
339.48	200.90
339.86	201.70
340.24	201.55
340.63	204.00
341.01	207.40
341.39	207.15
341.78	208.45
342.16	209.05
342.54	208.10
342.93	198.80
343.31	208.91
343.69	209.38
344.07	209.79
344.46	210.28
344.84	210.70
345.22	210.90
345.60	211.10
345.99	211.35
346.37	211.55
346.75	211.70
347.13	211.87
347.52	212.00
347.90	212.18
348.28	212.24
348.66	212.31
349.05	212.37
349.43	212.38
349.81	212.42
350.19	212.50
350.57	212.54
350.96	212.63
351.34	212.65
351.72	212.77
352.10	212.93
352.48	213.07
352.87	213.10
353.25	213.16
353.63	213.23
354.01	213.18
354.39	213.21
354.77	213.30
355.15	213.38
355.54	213.42
355.92	213.35
356.30	213.43
356.68	213.57
357.06	213.55
357.44	213.54
357.82	213.54
358.20	213.62
358.58	213.76
358.97	213.82
359.35	213.97
359.73	214.03
360.11	214.01
360.49	213.99
360.87	213.99
361.25	214.12
361.63	214.22
362.01	214.24
362.39	214.31
362.77	214.42
363.15	214.45
363.53	214.45
363.91	214.49
364.29	214.47
364.67	214.38
365.05	214.38
365.43	214.49
365.81	214.53
366.19	214.59
366.57	214.58
366.95	214.44
367.33	214.31
367.71	214.27
368.09	214.39
368.47	214.37
368.85	214.34
369.23	214.29
369.61	214.13
369.99	214.23
370.37	214.13
370.75	214.08
371.13	213.97
371.51	213.90
371.89	213.88
372.27	213.90
372.65	213.84
373.03	213.76
373.41	213.68
373.78	213.69
374.16	213.54
374.54	213.45
374.92	213.48
375.30	213.49
375.68	213.38
376.06	213.21
376.44	213.13
376.82	213.15
377.19	213.11
377.57	213.15
377.95	213.08
378.33	213.05
378.71	212.90
379.09	212.92
379.47	212.88
379.84	212.82
380.22	212.71
380.60	212.65
380.98	212.60
381.36	212.52
381.73	212.48
382.11	212.45
382.49	212.45
382.87	212.42
383.25	212.34
383.62	212.58
384.00	212.57
384.38	212.55
384.76	212.55
385.13	212.54
385.51	212.46
385.89	212.29
386.27	212.31
386.64	212.30
387.02	212.19
387.40	212.21
387.78	212.16
388.15	212.21
388.53	212.20
388.91	212.20
389.29	212.20
389.66	212.11
390.04	212.07
390.42	212.02
390.79	211.93
391.17	211.90
391.55	211.65
391.92	211.58
392.30	211.59
392.68	211.49
393.05	211.49
393.43	211.50
393.81	211.56
394.18	211.50
394.56	211.59
394.94	211.72
395.31	211.66
395.69	211.68
396.06	211.66
396.44	211.67
396.82	211.68
397.19	211.73
397.57	211.73
397.95	211.80
398.32	211.78
398.70	211.90
399.07	212.00
399.45	212.05
399.82	212.12
400.20	212.13
400.58	212.21
400.95	212.15
401.33	212.15
401.70	212.32
402.08	212.44
402.45	212.46
402.83	212.48
403.20	212.60
403.58	212.66
403.95	212.80
404.33	212.90
404.71	213.00
405.08	213.16
405.46	213.32
405.83	213.47
406.21	213.60
406.58	213.68
406.96	213.88
407.33	214.01
407.70	214.19
408.08	214.47
408.45	214.69
408.83	215.00
409.20	215.30
409.58	215.46
409.95	215.65
410.33	215.86
410.70	216.17
411.08	216.50
411.45	216.81
411.82	217.16
412.20	217.60
412.57	218.08
412.95	218.40
413.32	218.92
413.69	219.35
414.07	219.89
414.44	220.44
414.82	221.00
415.19	221.74
415.56	222.44
415.94	223.15
416.31	224.05
416.68	224.91
417.06	225.85
417.43	226.80
417.81	227.83
418.18	228.96
418.55	230.11
418.93	231.30
419.30	232.70
419.67	234.01
420.04	235.37
420.42	236.86
420.79	238.60
421.16	240.22
421.54	242.10
421.91	243.90
422.28	245.82
422.66	247.75
423.03	249.76
423.40	251.85
423.77	253.99
424.15	256.10
424.52	258.35
424.89	260.83
425.26	263.19
425.64	265.58
426.01	268.20
426.38	270.80
426.75	273.55
427.13	276.19
427.50	279.06
427.87	282.10
428.24	285.07
428.61	287.95
428.99	291.15
429.36	294.49
429.73	297.80
430.10	301.16
430.47	304.57
430.85	308.12
431.22	311.93
431.59	316.05
431.96	319.84
432.33	323.96
432.70	328.01
433.08	332.91
433.45	337.40
433.82	341.93
434.19	346.90
434.56	351.68
434.93	356.25
435.30	360.88
435.68	366.06
436.05	371.03
436.42	376.03
436.79	380.66
437.16	385.57
437.53	390.90
437.90	396.04
438.27	401.08
438.64	406.24
439.01	411.08
439.38	415.20
439.75	419.35
440.13	424.24
440.50	428.61
440.87	432.07
441.24	435.73
441.61	439.67
441.98	442.64
442.35	446.25
442.72	449.83
443.09	453.21
443.46	455.15
443.83	456.61
444.20	457.82
444.57	459.42
444.94	460.12
445.31	460.72
445.68	461.44
446.05	461.61
446.42	460.98
446.79	460.24
447.16	459.38
447.53	458.77
447.90	456.52
448.27	454.50
448.64	451.64
449.01	449.60
449.37	446.10
449.74	442.68
450.11	438.50
450.48	434.31
450.85	429.84
451.22	425.94
451.59	422.30
451.96	418.69
452.33	414.09
452.70	409.85
453.07	404.93
453.43	399.90
453.80	395.08
454.17	390.50
454.54	385.91
454.91	381.38
455.28	376.78
455.65	372.66
456.02	368.48
456.38	364.96
456.75	360.41
457.12	356.68
457.49	353.02
457.86	349.46
458.23	346.24
458.59	342.92
458.96	339.49
459.33	336.38
459.70	333.31
460.07	330.88
460.43	328.23
460.80	325.64
461.17	323.31
461.54	321.01
461.91	318.71
462.27	316.47
462.64	314.47
463.01	312.31
463.38	310.28
463.74	308.20
464.11	306.35
464.48	304.91
464.85	303.21
465.21	301.93
465.58	300.51
465.95	298.82
466.32	297.38
466.68	296.05
467.05	294.64
467.42	293.36
467.78	291.87
468.15	290.54
468.52	289.59
468.88	288.31
469.25	287.21
469.62	286.30
469.98	285.35
470.35	284.50
470.72	283.68
471.08	282.73
471.45	281.96
471.82	281.30
472.18	280.34
472.55	279.70
472.92	278.88
473.28	278.37
473.65	277.89
474.02	277.40
474.38	277.02
474.75	276.69
475.11	276.35
475.48	276.24
475.85	276.02
476.21	275.72
476.58	275.64
476.94	275.54
477.31	275.49
477.67	275.50
478.04	275.51
478.41	275.73
478.77	276.01
479.14	276.20
479.50	276.37
479.87	276.77
480.23	277.19
480.60	277.65
480.96	278.03
481.33	278.62
481.69	279.27
482.06	279.95
482.42	280.60
482.79	281.25
483.15	282.08
483.52	283.06
483.88	284.13
484.25	285.04
484.61	286.14
484.98	287.22
485.34	288.50
485.71	289.87
486.07	291.21
486.44	292.59
486.80	294.09
487.17	295.73
487.53	297.47
487.90	299.29
488.26	301.21
488.62	303.21
488.99	305.20
489.35	307.27
489.72	309.43
490.08	311.89
490.44	314.40
490.81	316.97
491.17	319.64
491.54	322.37
491.90	325.39
492.26	328.56
492.63	331.85
492.99	335.33
493.36	338.92
493.72	342.67
494.08	346.52
494.45	350.76
494.81	355.18
495.17	359.69
495.54	364.45
495.90	369.45
496.26	374.78
496.63	380.28
496.99	386.00
497.35	392.09
497.72	398.14
498.08	404.62
498.44	411.35
498.80	418.38
499.17	425.80
499.53	433.39
499.89	441.23
500.26	449.39
500.62	457.50
500.98	466.17
501.34	475.21
501.71	484.72
502.07	494.27
502.43	504.15
502.79	514.25
503.16	524.68
503.52	535.52
503.88	546.49
504.24	557.93
504.60	569.64
504.97	581.76
505.33	594.26
505.69	607.42
506.05	620.78
506.41	634.16
506.78	647.96
507.14	661.97
507.50	676.50
507.86	691.37
508.22	706.74
508.59	722.09
508.95	737.84
509.31	754.00
509.67	770.26
510.03	786.94
510.39	804.43
510.75	821.96
511.12	839.72
511.48	857.91
511.84	876.34
512.20	894.90
512.56	913.80
512.92	933.05
513.28	952.33
513.64	971.80
514.00	991.68
514.37	1011.74
514.73	1032.40
515.09	1052.63
515.45	1073.06
515.81	1093.98
516.17	1114.82
516.53	1135.77
516.89	1156.70
517.25	1177.97
517.61	1199.35
517.97	1220.25
518.33	1241.40
518.69	1262.83
519.05	1284.32
519.41	1306.11
519.77	1328.26
520.13	1349.85
520.49	1371.47
520.85	1393.62
521.21	1415.39
521.57	1437.45
521.93	1458.81
522.29	1480.89
522.65	1503.20
523.01	1525.00
523.37	1546.43
523.73	1568.33
524.09	1590.20
524.45	1612.14
524.81	1634.18
525.17	1655.82
525.53	1677.90
525.89	1700.03
526.25	1721.71
526.61	1742.73
526.97	1763.72
527.33	1784.27
527.68	1804.94
528.04	1825.78
528.40	1845.25
528.76	1865.50
529.12	1885.78
529.48	1906.74
529.84	1926.57
530.20	1946.02
530.56	1966.01
530.91	1986.17
531.27	2005.87
531.63	2025.23
531.99	2044.34
532.35	2062.85
532.71	2081.31
533.07	2099.75
533.42	2117.56
533.78	2135.83
534.14	2153.84
534.50	2170.55
534.86	2188.29
535.21	2204.67
535.57	2221.42
535.93	2238.45
536.29	2254.69
536.65	2270.69
537.00	2285.64
537.36	2300.26
537.72	2315.06
538.08	2329.56
538.44	2344.28
538.79	2359.26
539.15	2373.45
539.51	2387.45
539.87	2401.84
540.22	2415.72
540.58	2429.91
540.94	2443.56
541.29	2455.77
541.65	2467.44
542.01	2479.83
542.37	2490.69
542.72	2502.51
543.08	2512.90
543.44	2524.06
543.79	2533.76
544.15	2543.50
544.51	2553.90
544.87	2564.37
545.22	2573.10
545.58	2581.16
545.94	2587.93
546.29	2593.62
546.65	2599.55
547.01	2605.38
547.36	2610.70
547.72	2615.73
548.07	2619.36
548.43	2622.85
548.79	2626.29
549.14	2630.41
549.50	2634.44
549.86	2638.00
550.21	2641.73
550.57	2645.65
550.92	2647.82
551.28	2650.07
551.64	2651.82
551.99	2653.90
552.35	2654.95
552.70	2657.11
553.06	2659.47
553.41	2662.00
553.77	2664.35
554.13	2666.15
554.48	2667.50
554.84	2668.80
555.19	2668.98
555.55	2669.36
555.90	2669.49
556.26	2669.85
556.61	2669.42
556.97	2667.88
557.32	2667.46
557.68	2665.31
558.03	2663.48
558.39	2661.93
558.74	2661.69
559.10	2660.35
559.45	2658.05
559.81	2656.79
560.16	2654.04
560.52	2651.30
560.87	2648.41
561.23	2644.64
561.58	2642.29
561.94	2639.16
562.29	2635.10
562.64	2632.95
563.00	2630.30
563.35	2627.96
563.71	2625.74
564.06	2623.39
564.42	2621.27
564.77	2618.45
565.12	2616.67
565.48	2613.09
565.83	2609.80
566.19	2605.97
566.54	2601.87
566.89	2597.92
567.25	2594.05
567.60	2590.81
567.96	2587.16
568.31	2583.45
568.66	2579.86
569.02	2574.72
569.37	2569.78
569.72	2566.17
570.08	2560.65
570.43	2555.09
570.78	2549.45
571.14	2543.02
571.49	2536.06
571.84	2530.04
572.20	2523.31
572.55	2516.80
572.90	2510.22
573.26	2503.28
573.61	2496.21
573.96	2489.80
574.31	2482.21
574.67	2474.32
575.02	2465.95
575.37	2457.45
575.72	2448.28
576.08	2440.95
576.43	2432.81
576.78	2424.75
577.13	2416.44
577.49	2408.88
577.84	2401.54
578.19	2394.09
578.54	2387.06
578.90	2380.67
579.25	2372.51
579.60	2363.61
579.95	2354.21
580.30	2346.50
580.66	2338.63
581.01	2329.90
581.36	2320.66
581.71	2312.39
582.06	2303.98
582.42	2296.05
582.77	2287.58
583.12	2279.10
583.47	2270.50
583.82	2262.40
584.17	2253.66
584.53	2245.21
584.88	2236.51
585.23	2227.56
585.58	2218.38
585.93	2208.95
586.28	2199.98
586.63	2191.58
586.98	2183.86
587.34	2175.95
587.69	2167.38
588.04	2158.39
588.39	2150.53
588.74	2142.04
589.09	2133.85
589.44	2124.63
589.79	2116.21
590.14	2108.52
590.49	2100.47
590.84	2091.57
591.19	2083.90
591.54	2075.63
591.89	2065.76
592.25	2056.86
592.60	2047.66
592.95	2038.47
593.30	2029.61
593.65	2020.19
594.00	2010.55
594.35	2002.42
594.70	1993.52
595.05	1984.95
595.40	1976.66
595.75	1967.27
596.10	1959.36
596.45	1951.03
596.80	1943.57
597.15	1935.66
597.50	1926.73
597.85	1918.72
598.19	1910.28
598.54	1901.72
598.89	1894.32
599.24	1887.83
599.59	1880.55
599.94	1873.67
600.29	1866.33
600.64	1858.50
600.99	1850.53
601.34	1843.79
601.69	1835.29
602.04	1827.74
602.39	1819.97
602.74	1812.34
603.08	1806.16
603.43	1799.37
603.78	1791.70
604.13	1783.92
604.48	1776.22
604.83	1769.44
605.18	1762.49
605.53	1755.45
605.87	1748.08
606.22	1741.16
606.57	1733.61
606.92	1725.88
607.27	1718.11
607.62	1710.99
607.96	1704.28
608.31	1698.42
608.66	1690.80
609.01	1683.67
609.36	1676.40
609.70	1668.71
610.05	1661.29
610.40	1653.27
610.75	1644.80
611.10	1637.43
611.44	1628.54
611.79	1620.00
612.14	1611.20
612.49	1601.94
612.83	1593.41
613.18	1584.17
613.53	1574.62
613.88	1565.36
614.22	1556.79
614.57	1547.71
614.92	1538.81
615.27	1529.87
615.61	1520.27
615.96	1511.55
616.31	1503.41
616.65	1495.48
617.00	1487.51
617.35	1479.32
617.70	1470.62
618.04	1462.02
618.39	1452.99
618.74	1445.13
619.08	1436.70
619.43	1428.68
619.78	1421.27
620.12	1413.39
620.47	1405.83
620.82	1397.82
621.16	1389.68
621.51	1381.63
621.85	1373.89
622.20	1365.51
622.55	1357.23
622.89	1349.10
623.24	1341.54
623.59	1332.97
623.93	1324.51
624.28	1316.56
624.62	1308.50
624.97	1300.46
625.32	1292.72
625.66	1285.56
626.01	1278.40
626.35	1271.53
626.70	1263.76
627.04	1256.59
627.39	1249.19
627.73	1241.92
628.08	1235.13
628.43	1227.99
628.77	1220.78
629.12	1213.42
629.46	1207.08
629.81	1199.86
630.15	1192.99
630.50	1185.82
630.84	1178.75
631.19	1172.04
631.53	1165.35
631.88	1157.98
632.22	1150.64
632.57	1144.09
632.91	1136.94
633.26	1129.69
633.60	1122.39
633.95	1116.11
634.29	1108.94
634.64	1102.42
634.98	1095.75
635.32	1088.86
635.67	1082.73
636.01	1076.44
636.36	1070.00
636.70	1063.51
637.05	1057.35
637.39	1051.05
637.73	1044.93
638.08	1039.40
638.42	1033.44
638.77	1027.09
639.11	1021.16
639.45	1015.57
639.80	1009.23
640.14	1002.95
640.49	996.94
640.83	990.97
641.17	984.75
641.52	978.70
641.86	972.59
642.20	966.55
642.55	960.24
642.89	953.91
643.23	947.72
643.58	941.98
643.92	935.63
644.26	929.82
644.61	923.86
644.95	917.75
645.29	911.60
645.64	905.23
645.98	899.15
646.32	893.24
646.66	887.34
647.01	881.50
647.35	875.91
647.69	869.95
648.04	864.10
648.38	858.31
648.72	852.64
649.06	846.70
649.41	840.80
649.75	835.06
650.09	829.39
650.43	823.49
650.78	817.51
651.12	811.63
651.46	805.77
651.80	800.08
652.14	794.31
652.49	788.57
652.83	782.94
653.17	776.96
653.51	771.31
653.85	765.66
654.20	760.01
654.54	754.29
654.88	748.97
655.22	743.41
655.56	737.69
655.90	731.97
656.25	726.25
656.59	720.98
656.93	715.91
657.27	710.93
657.61	705.56
657.95	700.54
658.29	695.57
658.64	690.68
658.98	685.61
659.32	680.42
659.66	675.37
660.00	670.27
660.34	665.35
660.68	660.33
661.02	655.42
661.36	650.75
661.70	646.05
662.05	641.56
662.39	637.32
662.73	633.09
663.07	628.93
663.41	624.97
663.75	620.51
664.09	616.07
664.43	611.47
664.77	607.21
665.11	602.79
665.45	598.55
665.79	594.19
666.13	590.00
666.47	585.91
666.81	581.78
667.15	577.88
667.49	574.07
667.83	570.25
668.17	566.46
668.51	562.90
668.85	559.29
669.19	555.58
669.53	551.66
669.87	547.67
670.21	543.94
670.55	540.01
670.89	536.59
671.23	533.16
671.57	529.63
671.91	526.21
672.25	522.66
672.58	519.25
672.92	515.85
673.26	512.84
673.60	509.65
673.94	506.44
674.28	503.20
674.62	500.22
674.96	497.27
675.30	494.28
675.64	491.06
675.97	487.89
676.31	484.88
676.65	482.17
676.99	479.60
677.33	476.58
677.67	473.77
678.01	470.75
678.34	467.93
678.68	465.16
679.02	462.34
679.36	459.84
679.70	457.16
680.04	454.53
680.37	451.52
680.71	448.82
681.05	446.20
681.39	443.62
681.73	441.03
682.06	438.39
682.40	435.80
682.74	433.28
683.08	430.86
683.42	428.29
683.75	425.74
684.09	423.22
684.43	420.89
684.77	418.43
685.10	415.93
685.44	413.45
685.78	411.01
686.12	408.86
686.45	406.51
686.79	404.22
687.13	402.12
687.46	400.03
687.80	397.91
688.14	395.69
688.48	393.64
688.81	391.32
689.15	389.27
689.49	387.18
689.82	385.05
690.16	382.78
690.50	380.60
690.83	378.43
691.17	376.30
691.51	374.23
691.84	372.16
692.18	370.25
692.52	368.29
692.85	366.50
693.19	364.72
693.52	362.91
693.86	361.08
694.20	359.18
694.53	357.31
694.87	355.42
695.21	353.52
695.54	351.66
695.88	349.93
696.21	348.04
696.55	346.35
696.88	344.58
697.22	342.97
697.56	341.46
697.89	339.85
698.23	338.30
698.56	336.67
698.90	335.24
699.23	333.65
699.57	332.12
699.90	330.47
700.24	328.74
700.58	327.15
700.91	325.65
701.25	324.23
701.58	322.97
701.92	321.69
702.25	320.48
702.59	319.13
702.92	317.88
703.26	316.60
703.59	315.32
703.93	314.27
704.26	312.98
704.60	311.64
704.93	310.40
705.26	309.15
705.60	308.04
705.93	306.76
706.27	305.70
706.60	304.61
706.94	303.69
707.27	302.54
707.61	301.44
707.94	300.25
708.27	299.08
708.61	297.83
708.94	296.69
709.28	295.52
709.61	294.47
709.94	293.41
710.28	292.34
710.61	291.38
710.95	290.20
711.28	289.29
711.61	288.32
711.95	287.46
712.28	286.48
712.61	285.45
712.95	284.65
713.28	283.72
713.61	282.73
713.95	281.73
714.28	280.97
714.61	279.95
714.95	279.07
715.28	278.15
715.61	277.23
715.95	276.31
716.28	275.39
716.61	274.49
716.95	273.60
717.28	272.85
717.61	271.98
717.94	271.18
718.28	270.41
718.61	269.64
718.94	268.79
719.27	268.00
719.61	267.31
719.94	266.47
720.27	265.70
720.60	265.02
720.94	264.32
721.27	263.60
721.60	263.08
721.93	262.53
722.27	261.98
722.60	261.45
722.93	260.89
723.26	260.44
723.59	259.89
723.93	259.33
724.26	258.74
724.59	258.17
724.92	257.69
725.25	257.19
725.59	256.71
725.92	256.27
726.25	255.77
726.58	255.28
726.91	254.88
727.24	254.38
727.57	254.00
727.91	253.38
728.24	252.89
728.57	252.44
728.90	251.99
729.23	251.42
729.56	251.06
729.89	250.64
730.22	250.09
730.55	249.62
730.89	249.22
731.22	248.73
731.55	248.31
731.88	247.89
732.21	247.44
732.54	247.04
732.87	246.48
733.20	246.10
733.53	245.63
733.86	245.09
734.19	244.75
734.52	244.30
734.85	244.19
735.18	243.76
735.51	243.35
735.84	242.97
736.17	242.79
736.50	242.34
736.83	242.12
737.16	241.76
737.49	241.47
737.82	241.04
738.15	240.74
738.48	240.40
738.81	240.02
739.14	239.61
739.47	239.22
739.80	238.97
740.13	238.70
740.46	238.39
740.79	238.13
741.12	237.84
741.45	237.58
741.78	237.11
742.11	236.86
742.44	236.57
742.77	236.24
743.10	235.83
743.43	235.56
743.75	235.08
744.08	235.09
744.41	234.73
744.74	234.52
745.07	234.15
745.40	233.97
745.73	233.84
746.06	233.66
746.39	233.36
746.71	233.08
747.04	232.81
747.37	232.56
747.70	232.34
748.03	232.05
748.36	231.81
748.68	231.56
749.01	231.31
749.34	231.15
749.67	231.05
750.00	230.80
750.33	230.60
750.65	230.41
750.98	229.90
751.31	229.74
751.64	229.43
751.97	229.45
752.29	229.12
752.62	228.74
752.95	228.46
753.28	228.29
753.60	228.14
753.93	227.97
754.26	227.82
754.59	227.59
754.91	227.39
755.24	227.11
755.57	226.88
755.90	226.64
756.22	226.40
756.55	226.10
756.88	225.90
757.20	225.71
757.53	225.50
757.86	225.30
758.19	225.13
758.51	225.02
758.84	224.68
759.17	224.59
759.49	224.50
759.82	224.47
760.15	224.29
760.47	224.02
760.80	223.75
761.13	223.55
761.45	223.39
761.78	223.27
762.11	223.14
762.43	223.09
762.76	222.99
763.08	222.83
763.41	222.70
763.74	222.60
764.06	222.46
764.39	222.34
764.71	222.23
765.04	222.10
765.37	221.92
765.69	221.84
766.02	221.68
766.34	221.52
766.67	221.38
767.00	221.30
767.32	221.33
767.65	221.29
767.97	221.23
768.30	221.05
768.62	220.91
768.95	220.80
769.27	220.62
769.60	220.49
769.92	220.30
770.25	220.17
770.57	220.07
770.90	219.85
771.22	219.75
771.55	219.73
771.87	219.54
772.20	219.52
772.52	219.54
772.85	219.65
773.17	219.55
773.50	219.33
773.82	219.19
774.15	218.97
774.47	218.86
774.80	218.73
775.12	218.70
775.45	218.57
775.77	218.45
776.09	218.37
776.42	218.31
776.74	218.40
777.07	218.30
777.39	218.12
777.72	218.09
778.04	218.05
778.36	217.88
778.69	217.87
779.01	217.75
779.33	217.52
779.66	217.21
779.98	217.16
780.31	217.14
780.63	217.10
780.95	217.07
781.28	216.94
781.60	216.81
781.92	216.80
782.25	216.74
782.57	216.73
782.89	216.68
783.22	216.56
783.54	216.36
783.86	216.26
784.19	216.24
784.51	216.21
784.83	216.08
785.16	216.02
785.48	215.95
785.80	215.93
786.12	215.82
786.45	215.81
