SpectraSuite Data File
++++++++++++++++++++++++++++++++++++
Date: Mon Feb 25 17:34:50 EST 2013
User: group
Dark Spectrum Present: No
Reference Spectrum Present: No
Number of Sampled Component Spectra: 1
Spectrometers: USB2E7196
Integration Time (usec): 52000 (USB2E7196)
Spectra Averaged: 20 (USB2E7196)
Boxcar Smoothing: 10 (USB2E7196)
Correct for Electrical Dark: No (USB2E7196)
Strobe/Lamp Enabled: No (USB2E7196)
Correct for Detector Non-linearity: No (USB2E7196)
Correct for Stray Light: No (USB2E7196)
Number of Pixels in Processed Spectrum: 2048
>>>>>Begin Processed Spectral Data<<<<<
339.09	0.00
339.48	199.00
339.86	200.10
340.24	201.30
340.63	202.85
341.01	206.55
341.39	206.25
341.78	206.35
342.16	208.05
342.54	208.45
342.93	197.85
343.31	207.77
343.69	208.27
344.07	208.75
344.46	209.17
344.84	209.56
345.22	209.75
345.60	209.97
345.99	210.15
346.37	210.25
346.75	210.41
347.13	210.44
347.52	210.56
347.90	210.65
348.28	210.65
348.66	210.66
349.05	210.64
349.43	210.79
349.81	210.88
350.19	210.89
350.57	210.87
350.96	210.95
351.34	211.12
351.72	211.22
352.10	211.30
352.48	211.36
352.87	211.42
353.25	211.52
353.63	211.54
354.01	211.67
354.39	211.81
354.77	211.91
355.15	212.08
355.54	212.09
355.92	212.10
356.30	212.19
356.68	212.40
357.06	212.49
357.44	212.49
357.82	212.57
358.20	212.62
358.58	212.71
358.97	212.81
359.35	212.93
359.73	213.02
360.11	213.09
360.49	213.17
360.87	213.25
361.25	213.23
361.63	213.35
362.01	213.36
362.39	213.47
362.77	213.46
363.15	213.52
363.53	213.57
363.91	213.57
364.29	213.55
364.67	213.39
365.05	213.44
365.43	213.45
365.81	213.46
366.19	213.59
366.57	213.67
366.95	213.69
367.33	213.69
367.71	213.71
368.09	213.82
368.47	213.84
368.85	213.82
369.23	213.96
369.61	213.94
369.99	214.02
370.37	213.99
370.75	214.10
371.13	214.00
371.51	213.93
371.89	213.95
372.27	213.95
372.65	213.99
373.03	213.92
373.41	213.92
373.78	213.85
374.16	213.80
374.54	213.72
374.92	213.66
375.30	213.60
375.68	213.53
376.06	213.42
376.44	213.35
376.82	213.30
377.19	213.25
377.57	213.19
377.95	213.10
378.33	213.02
378.71	212.92
379.09	212.98
379.47	213.04
379.84	212.98
380.22	212.95
380.60	212.86
380.98	212.75
381.36	212.69
381.73	212.62
382.11	212.50
382.49	212.46
382.87	212.40
383.25	212.37
383.62	212.57
384.00	212.43
384.38	212.38
384.76	212.40
385.13	212.34
385.51	212.31
385.89	212.25
386.27	212.21
386.64	212.07
387.02	211.96
387.40	211.85
387.78	211.85
388.15	211.80
388.53	211.79
388.91	211.87
389.29	211.88
389.66	211.93
390.04	211.99
390.42	211.99
390.79	211.96
391.17	211.94
391.55	211.76
391.92	211.85
392.30	211.94
392.68	211.81
393.05	211.86
393.43	211.85
393.81	211.88
394.18	211.85
394.56	211.94
394.94	212.01
395.31	212.02
395.69	212.08
396.06	212.11
396.44	212.15
396.82	212.14
397.19	212.21
397.57	212.21
397.95	212.19
398.32	212.15
398.70	212.22
399.07	212.24
399.45	212.19
399.82	212.17
400.20	212.09
400.58	212.13
400.95	212.03
401.33	212.07
401.70	212.21
402.08	212.25
402.45	212.27
402.83	212.33
403.20	212.33
403.58	212.39
403.95	212.48
404.33	212.61
404.71	212.66
405.08	212.87
405.46	212.92
405.83	213.11
406.21	213.22
406.58	213.38
406.96	213.54
407.33	213.75
407.70	214.00
408.08	214.42
408.45	214.69
408.83	214.95
409.20	215.22
409.58	215.40
409.95	215.70
410.33	216.00
410.70	216.21
411.08	216.55
411.45	216.91
411.82	217.26
412.20	217.71
412.57	218.35
412.95	218.64
413.32	219.29
413.69	219.82
414.07	220.46
414.44	221.11
414.82	221.76
415.19	222.44
415.56	223.12
415.94	223.79
416.31	224.66
416.68	225.54
417.06	226.59
417.43	227.57
417.81	228.65
418.18	229.79
418.55	231.08
418.93	232.45
419.30	233.71
419.67	235.14
420.04	236.55
420.42	237.93
420.79	239.70
421.16	241.29
421.54	243.09
421.91	244.94
422.28	246.79
422.66	248.89
423.03	250.94
423.40	253.04
423.77	255.28
424.15	257.59
424.52	260.00
424.89	262.55
425.26	264.96
425.64	267.39
426.01	270.02
426.38	272.75
426.75	275.53
427.13	278.35
427.50	281.34
427.87	284.40
428.24	287.55
428.61	290.50
428.99	293.85
429.36	297.29
429.73	300.71
430.10	304.16
430.47	307.68
430.85	311.38
431.22	315.38
431.59	319.61
431.96	323.60
432.33	327.94
432.70	332.12
433.08	337.06
433.45	341.61
433.82	346.30
434.19	351.47
434.56	356.47
434.93	361.36
435.30	366.17
435.68	371.47
436.05	376.64
436.42	381.81
436.79	386.62
437.16	391.87
437.53	397.25
437.90	402.62
438.27	407.73
438.64	413.16
439.01	418.18
439.38	422.37
439.75	426.66
440.13	431.47
440.50	436.12
440.87	439.78
441.24	443.78
441.61	447.99
441.98	450.93
442.35	454.50
442.72	458.20
443.09	461.67
443.46	463.76
443.83	465.28
444.20	466.60
444.57	468.37
444.94	469.10
445.31	469.93
445.68	470.61
446.05	470.90
446.42	470.37
446.79	469.42
447.16	468.73
447.53	468.09
447.90	465.99
448.27	463.85
448.64	461.06
449.01	458.75
449.37	455.08
449.74	451.68
450.11	447.58
450.48	442.96
450.85	438.38
451.22	434.45
451.59	430.65
451.96	426.85
452.33	421.97
452.70	417.51
453.07	412.38
453.43	407.19
453.80	402.15
454.17	397.25
454.54	392.82
454.91	387.95
455.28	383.18
455.65	378.74
456.02	374.35
456.38	370.51
456.75	365.99
457.12	362.13
457.49	358.19
457.86	354.37
458.23	351.19
458.59	347.60
458.96	344.06
459.33	340.88
459.70	337.65
460.07	335.00
460.43	332.19
460.80	329.45
461.17	327.09
461.54	324.62
461.91	322.20
462.27	319.78
462.64	317.72
463.01	315.48
463.38	313.44
463.74	311.32
464.11	309.45
464.48	307.75
464.85	305.89
465.21	304.50
465.58	303.12
465.95	301.39
466.32	300.04
466.68	298.56
467.05	297.17
467.42	295.91
467.78	294.58
468.15	293.20
468.52	292.15
468.88	290.79
469.25	289.63
469.62	288.69
469.98	287.66
470.35	286.70
470.72	285.65
471.08	284.64
471.45	283.69
471.82	282.97
472.18	282.15
472.55	281.52
472.92	280.85
473.28	280.23
473.65	279.62
474.02	279.04
474.38	278.55
474.75	278.08
475.11	277.60
475.48	277.30
475.85	277.08
476.21	276.89
476.58	276.75
476.94	276.71
477.31	276.58
477.67	276.51
478.04	276.54
478.41	276.72
478.77	277.08
479.14	277.29
479.50	277.48
479.87	277.87
480.23	278.33
480.60	278.75
480.96	279.22
481.33	279.84
481.69	280.48
482.06	281.14
482.42	281.84
482.79	282.58
483.15	283.47
483.52	284.41
483.88	285.37
484.25	286.40
484.61	287.43
484.98	288.66
485.34	289.95
485.71	291.27
486.07	292.73
486.44	293.96
486.80	295.52
487.17	297.09
487.53	298.76
487.90	300.41
488.26	302.30
488.62	304.26
488.99	306.31
489.35	308.48
489.72	310.69
490.08	313.09
490.44	315.61
490.81	318.26
491.17	320.96
491.54	323.85
491.90	326.85
492.26	330.00
492.63	333.33
492.99	336.80
493.36	340.42
493.72	344.30
494.08	348.31
494.45	352.43
494.81	357.02
495.17	361.71
495.54	366.76
495.90	371.81
496.26	376.96
496.63	382.48
496.99	388.23
497.35	394.37
497.72	400.69
498.08	407.13
498.44	413.79
498.80	421.00
499.17	428.41
499.53	436.11
499.89	444.15
500.26	452.26
500.62	460.62
500.98	469.48
501.34	478.68
501.71	488.12
502.07	497.84
502.43	507.79
502.79	517.99
503.16	528.60
503.52	539.56
503.88	551.02
504.24	562.43
504.60	574.27
504.97	586.55
505.33	598.94
505.69	612.27
506.05	625.83
506.41	639.45
506.78	653.28
507.14	667.46
507.50	682.13
507.86	697.15
508.22	712.61
508.59	728.18
508.95	744.20
509.31	760.50
509.67	777.28
510.03	794.25
510.39	811.83
510.75	829.67
511.12	847.73
511.48	866.10
511.84	884.90
512.20	903.71
512.56	923.06
512.92	942.74
513.28	962.33
513.64	982.27
514.00	1002.24
514.37	1022.75
514.73	1043.54
515.09	1064.59
515.45	1085.48
515.81	1106.91
516.17	1128.30
516.53	1149.71
516.89	1171.49
517.25	1193.00
517.61	1215.02
517.97	1236.65
518.33	1258.06
518.69	1280.10
519.05	1302.16
519.41	1324.56
519.77	1347.16
520.13	1369.30
520.49	1391.48
520.85	1414.40
521.21	1437.09
521.57	1460.18
521.93	1482.12
522.29	1505.22
522.65	1527.69
523.01	1550.42
523.37	1572.41
523.73	1595.14
524.09	1617.52
524.45	1639.85
524.81	1662.63
525.17	1685.24
525.53	1708.04
525.89	1731.10
526.25	1753.12
526.61	1774.59
526.97	1796.30
527.33	1817.97
527.68	1839.61
528.04	1861.21
528.40	1881.75
528.76	1902.56
529.12	1923.40
529.48	1945.47
529.84	1965.93
530.20	1986.47
530.56	2007.23
530.91	2028.27
531.27	2048.97
531.63	2069.06
531.99	2089.00
532.35	2108.20
532.71	2127.08
533.07	2146.76
533.42	2165.05
533.78	2184.09
534.14	2203.00
534.50	2220.26
534.86	2238.19
535.21	2255.23
535.57	2272.91
535.93	2290.48
536.29	2307.41
536.65	2324.00
537.00	2339.74
537.36	2355.28
537.72	2370.74
538.08	2385.84
538.44	2401.36
538.79	2416.90
539.15	2432.01
539.51	2446.94
539.87	2462.58
540.22	2477.36
540.58	2492.06
540.94	2506.99
541.29	2519.97
541.65	2532.50
542.01	2546.35
542.37	2558.69
542.72	2571.28
543.08	2582.69
543.44	2594.72
543.79	2605.19
544.15	2615.76
544.51	2626.76
544.87	2637.78
545.22	2646.98
545.58	2655.91
545.94	2663.32
546.29	2669.45
546.65	2675.89
547.01	2682.14
547.36	2687.96
547.72	2693.74
548.07	2697.83
548.43	2701.79
548.79	2706.26
549.14	2710.75
549.50	2715.06
549.86	2719.35
550.21	2723.45
550.57	2727.45
550.92	2729.98
551.28	2732.77
551.64	2735.31
551.99	2738.01
552.35	2739.82
552.70	2742.68
553.06	2745.45
553.41	2748.72
553.77	2751.90
554.13	2754.19
554.48	2756.60
554.84	2758.25
555.19	2758.58
555.55	2759.61
555.90	2759.92
556.26	2760.30
556.61	2760.41
556.97	2759.25
557.32	2758.64
557.68	2756.99
558.03	2756.06
558.39	2755.00
558.74	2754.77
559.10	2753.74
559.45	2751.74
559.81	2750.60
560.16	2748.25
560.52	2746.07
560.87	2742.92
561.23	2739.00
561.58	2736.88
561.94	2733.75
562.29	2730.00
562.64	2728.04
563.00	2725.50
563.35	2723.35
563.71	2721.78
564.06	2719.96
564.42	2718.34
564.77	2715.76
565.12	2714.36
565.48	2710.67
565.83	2707.25
566.19	2704.20
566.54	2700.13
566.89	2696.46
567.25	2692.76
567.60	2689.47
567.96	2685.84
568.31	2682.23
568.66	2678.83
569.02	2674.27
569.37	2669.32
569.72	2665.40
570.08	2660.21
570.43	2654.14
570.78	2648.29
571.14	2641.77
571.49	2634.60
571.84	2628.48
572.20	2621.75
572.55	2614.82
572.90	2608.13
573.26	2601.16
573.61	2594.01
573.96	2587.69
574.31	2579.62
574.67	2571.49
575.02	2562.94
575.37	2554.00
575.72	2545.05
576.08	2537.11
576.43	2528.38
576.78	2520.15
577.13	2511.93
577.49	2503.37
577.84	2496.07
578.19	2488.70
578.54	2481.37
578.90	2474.72
579.25	2466.07
579.60	2457.04
579.95	2447.78
580.30	2439.93
580.66	2431.97
581.01	2422.49
581.36	2412.77
581.71	2404.09
582.06	2395.27
582.42	2387.13
582.77	2378.21
583.12	2369.26
583.47	2360.76
583.82	2352.37
584.17	2342.89
584.53	2333.95
584.88	2325.30
585.23	2315.81
585.58	2306.03
585.93	2296.02
586.28	2286.65
586.63	2277.69
586.98	2269.24
587.34	2260.42
587.69	2250.79
588.04	2240.93
588.39	2232.65
588.74	2223.94
589.09	2215.65
589.44	2206.09
589.79	2197.49
590.14	2189.43
590.49	2181.01
590.84	2171.45
591.19	2163.19
591.54	2154.79
591.89	2144.41
592.25	2135.26
592.60	2125.72
592.95	2116.22
593.30	2106.83
593.65	2096.85
594.00	2086.91
594.35	2078.57
594.70	2069.56
595.05	2060.96
595.40	2052.70
595.75	2043.10
596.10	2034.53
596.45	2025.71
596.80	2017.76
597.15	2008.98
597.50	1999.60
597.85	1991.08
598.19	1982.71
598.54	1973.83
598.89	1965.62
599.24	1959.22
599.59	1951.65
599.94	1944.46
600.29	1936.39
600.64	1928.07
600.99	1919.73
601.34	1912.44
601.69	1903.69
602.04	1895.45
602.39	1886.92
602.74	1878.97
603.08	1872.00
603.43	1864.81
603.78	1856.91
604.13	1848.63
604.48	1840.74
604.83	1833.70
605.18	1826.80
605.53	1818.98
605.87	1811.43
606.22	1804.15
606.57	1795.78
606.92	1787.43
607.27	1779.29
607.62	1772.08
607.96	1765.38
608.31	1758.96
608.66	1751.13
609.01	1743.51
609.36	1735.71
609.70	1728.36
610.05	1720.53
610.40	1712.49
610.75	1703.85
611.10	1696.22
611.44	1687.32
611.79	1678.23
612.14	1668.97
612.49	1659.16
612.83	1650.46
613.18	1640.35
613.53	1631.13
613.88	1621.30
614.22	1612.30
614.57	1602.96
614.92	1593.74
615.27	1584.40
615.61	1574.45
615.96	1565.40
616.31	1556.58
616.65	1548.59
617.00	1539.80
617.35	1530.77
617.70	1521.73
618.04	1512.51
618.39	1502.45
618.74	1494.06
619.08	1485.52
619.43	1477.11
619.78	1468.95
620.12	1460.57
620.47	1452.97
620.82	1444.31
621.16	1436.00
621.51	1427.55
621.85	1419.26
622.20	1410.65
622.55	1401.92
622.89	1393.76
623.24	1385.72
623.59	1376.75
623.93	1368.04
624.28	1359.63
624.62	1351.63
624.97	1343.25
625.32	1335.59
625.66	1328.29
626.01	1320.84
626.35	1313.33
626.70	1305.67
627.04	1298.47
627.39	1291.00
627.73	1283.57
628.08	1276.45
628.43	1269.06
628.77	1261.67
629.12	1254.03
629.46	1247.24
629.81	1240.10
630.15	1232.56
630.50	1224.90
630.84	1217.80
631.19	1210.56
631.53	1203.79
631.88	1195.72
632.22	1188.05
632.57	1180.68
632.91	1173.43
633.26	1165.99
633.60	1158.92
633.95	1151.84
634.29	1144.19
634.64	1137.30
634.98	1130.02
635.32	1122.85
635.67	1116.41
636.01	1109.68
636.36	1102.87
636.70	1096.24
637.05	1089.62
637.39	1083.36
637.73	1077.14
638.08	1071.27
638.42	1065.24
638.77	1058.45
639.11	1052.39
639.45	1046.59
639.80	1040.10
640.14	1033.55
640.49	1027.31
640.83	1020.97
641.17	1014.64
641.52	1008.40
641.86	1001.84
642.20	995.54
642.55	988.85
642.89	982.05
643.23	975.48
643.58	969.57
643.92	962.83
644.26	956.45
644.61	950.36
644.95	944.13
645.29	937.91
645.64	931.26
645.98	925.11
646.32	919.22
646.66	912.65
647.01	906.68
647.35	900.72
647.69	894.15
648.04	887.85
648.38	881.77
648.72	876.00
649.06	869.63
649.41	863.56
649.75	857.58
650.09	851.91
650.43	846.07
650.78	839.92
651.12	833.80
651.46	827.98
651.80	821.95
652.14	815.88
652.49	809.75
652.83	804.08
653.17	797.94
653.51	791.92
653.85	786.38
654.20	780.32
654.54	774.48
654.88	769.16
655.22	763.28
655.56	757.49
655.90	751.42
656.25	745.88
656.59	740.47
656.93	735.49
657.27	730.17
657.61	724.69
657.95	719.29
658.29	714.32
658.64	709.24
658.98	703.90
659.32	698.56
659.66	693.38
660.00	687.91
660.34	682.73
660.68	677.50
661.02	672.45
661.36	667.85
661.70	662.97
662.05	658.11
662.39	653.84
662.73	649.53
663.07	645.06
663.41	640.73
663.75	636.06
664.09	631.17
664.43	626.37
664.77	622.00
665.11	617.55
665.45	613.11
665.79	608.48
666.13	604.13
666.47	599.98
666.81	595.75
667.15	591.75
667.49	587.91
667.83	584.06
668.17	580.07
668.51	576.11
668.85	572.34
669.19	568.55
669.53	564.50
669.87	560.39
670.21	556.65
670.55	552.77
670.89	549.20
671.23	545.90
671.57	542.39
671.91	538.76
672.25	535.33
672.58	531.82
672.92	528.41
673.26	525.18
673.60	521.84
673.94	518.33
674.28	515.01
674.62	511.88
674.96	508.80
675.30	505.88
675.64	502.68
675.97	499.54
676.31	496.50
676.65	493.65
676.99	490.91
677.33	487.79
677.67	484.92
678.01	481.84
678.34	478.71
678.68	475.81
679.02	472.83
679.36	470.11
679.70	467.12
680.04	464.20
680.37	461.13
680.71	458.36
681.05	455.90
681.39	453.14
681.73	450.37
682.06	447.71
682.40	444.90
682.74	442.24
683.08	439.59
683.42	436.93
683.75	434.23
684.09	431.47
684.43	428.96
684.77	426.25
685.10	423.77
685.44	421.26
685.78	418.74
686.12	416.52
686.45	413.91
686.79	411.69
687.13	409.61
687.46	407.44
687.80	405.19
688.14	402.78
688.48	400.66
688.81	398.40
689.15	396.08
689.49	393.78
689.82	391.59
690.16	389.28
690.50	387.04
690.83	384.86
691.17	382.65
691.51	380.51
691.84	378.49
692.18	376.35
692.52	374.47
692.85	372.61
693.19	370.61
693.52	368.72
693.86	366.72
694.20	364.80
694.53	362.87
694.87	360.85
695.21	358.96
695.54	356.98
695.88	354.95
696.21	353.13
696.55	351.50
696.88	349.74
697.22	347.94
697.56	346.41
697.89	344.64
698.23	343.03
698.56	341.49
698.90	339.91
699.23	338.38
699.57	336.65
699.90	335.00
700.24	333.45
700.58	331.80
700.91	330.24
701.25	328.83
701.58	327.42
701.92	326.09
702.25	324.65
702.59	323.17
702.92	321.92
703.26	320.60
703.59	319.18
703.93	317.96
704.26	316.79
704.60	315.35
704.93	314.13
705.26	312.88
705.60	311.64
705.93	310.45
706.27	309.21
706.60	308.05
706.94	307.04
707.27	305.74
707.61	304.76
707.94	303.67
708.27	302.33
708.61	301.21
708.94	299.98
709.28	298.84
709.61	297.80
709.94	296.70
710.28	295.46
710.61	294.41
710.95	293.18
711.28	292.28
711.61	291.30
711.95	290.32
712.28	289.26
712.61	288.15
712.95	287.10
713.28	286.19
713.61	285.27
713.95	284.20
714.28	283.36
714.61	282.39
714.95	281.53
715.28	280.66
715.61	279.67
715.95	278.81
716.28	277.95
716.61	277.14
716.95	276.25
717.28	275.49
717.61	274.74
717.94	274.01
718.28	273.05
718.61	272.26
718.94	271.54
719.27	270.78
719.61	270.16
719.94	269.46
720.27	268.72
720.60	268.01
720.94	267.31
721.27	266.67
721.60	265.95
721.93	265.21
722.27	264.61
722.60	264.02
722.93	263.40
723.26	262.85
723.59	262.20
723.93	261.65
724.26	261.13
724.59	260.47
724.92	259.89
725.25	259.44
725.59	258.86
725.92	258.28
726.25	257.79
726.58	257.22
726.91	256.72
727.24	256.16
727.57	255.67
727.91	255.10
728.24	254.53
728.57	254.03
728.90	253.65
729.23	253.10
729.56	252.72
729.89	252.20
730.22	251.67
730.55	251.22
730.89	250.73
731.22	250.32
731.55	249.91
731.88	249.45
732.21	248.90
732.54	248.47
732.87	248.00
733.20	247.60
733.53	247.17
733.86	246.67
734.19	246.33
734.52	245.98
734.85	245.77
735.18	245.33
735.51	245.03
735.84	244.60
736.17	244.20
736.50	243.71
736.83	243.53
737.16	243.20
737.49	242.88
737.82	242.56
738.15	242.11
738.48	241.72
738.81	241.40
739.14	241.08
739.47	240.72
739.80	240.34
740.13	239.96
740.46	239.53
740.79	239.23
741.12	238.85
741.45	238.50
741.78	238.09
742.11	237.85
742.44	237.40
742.77	237.11
743.10	236.86
743.43	236.56
743.75	236.10
744.08	236.03
744.41	235.66
744.74	235.28
745.07	234.93
745.40	234.67
745.73	234.40
746.06	234.09
746.39	233.83
746.71	233.58
747.04	233.32
747.37	233.10
747.70	232.92
748.03	232.64
748.36	232.35
748.68	232.03
749.01	231.74
749.34	231.54
749.67	231.29
750.00	231.04
750.33	231.02
750.65	230.78
750.98	230.32
751.31	230.08
751.64	229.88
751.97	229.80
752.29	229.53
752.62	229.23
752.95	228.98
753.28	228.73
753.60	228.54
753.93	228.27
754.26	228.10
754.59	227.76
754.91	227.58
755.24	227.35
755.57	227.15
755.90	226.95
756.22	226.75
756.55	226.50
756.88	226.30
757.20	225.90
757.53	225.63
757.86	225.50
758.19	225.37
758.51	225.22
758.84	224.90
759.17	224.75
759.49	224.60
759.82	224.57
760.15	224.42
760.47	224.22
760.80	224.04
761.13	223.87
761.45	223.70
761.78	223.55
762.11	223.40
762.43	223.32
762.76	223.22
763.08	223.06
763.41	223.00
763.74	222.82
764.06	222.77
764.39	222.63
764.71	222.46
765.04	222.27
765.37	222.10
765.69	222.06
766.02	221.94
766.34	221.74
766.67	221.54
767.00	221.49
767.32	221.49
767.65	221.56
767.97	221.42
768.30	221.43
768.62	221.29
768.95	221.23
769.27	221.05
769.60	220.96
769.92	220.87
770.25	220.71
770.57	220.63
770.90	220.38
771.22	220.32
771.55	220.19
771.87	220.15
772.20	220.04
772.52	220.04
772.85	220.13
773.17	220.05
773.50	219.96
773.82	219.81
774.15	219.60
774.47	219.34
774.80	219.30
775.12	219.13
775.45	218.98
775.77	218.87
776.09	218.85
776.42	218.69
776.74	218.55
777.07	218.42
777.39	218.33
777.72	218.27
778.04	218.15
778.36	217.99
778.69	217.88
779.01	217.76
779.33	217.48
779.66	217.14
779.98	217.09
780.31	216.99
780.63	217.02
780.95	217.00
781.28	216.97
781.60	216.84
781.92	216.81
782.25	216.78
782.57	216.62
782.89	216.52
783.22	216.50
783.54	216.45
783.86	216.40
784.19	216.32
784.51	216.32
784.83	216.25
785.16	216.21
785.48	216.20
785.80	216.15
786.12	216.18
786.45	216.15
