SpectraSuite Data File
++++++++++++++++++++++++++++++++++++
Date: Mon Feb 25 17:33:38 EST 2013
User: group
Dark Spectrum Present: No
Reference Spectrum Present: No
Number of Sampled Component Spectra: 1
Spectrometers: USB2E7196
Integration Time (usec): 52000 (USB2E7196)
Spectra Averaged: 20 (USB2E7196)
Boxcar Smoothing: 10 (USB2E7196)
Correct for Electrical Dark: No (USB2E7196)
Strobe/Lamp Enabled: No (USB2E7196)
Correct for Detector Non-linearity: No (USB2E7196)
Correct for Stray Light: No (USB2E7196)
Number of Pixels in Processed Spectrum: 2048
>>>>>Begin Processed Spectral Data<<<<<
339.09	0.00
339.48	200.20
339.86	200.90
340.24	202.10
340.63	204.45
341.01	207.60
341.39	205.95
341.78	207.60
342.16	208.70
342.54	209.05
342.93	198.62
343.31	208.66
343.69	209.18
344.07	209.65
344.46	210.12
344.84	210.45
345.22	210.69
345.60	210.89
345.99	211.10
346.37	211.25
346.75	211.40
347.13	211.41
347.52	211.44
347.90	211.57
348.28	211.60
348.66	211.70
349.05	211.59
349.43	211.71
349.81	211.68
350.19	211.75
350.57	211.85
350.96	211.91
351.34	211.98
351.72	211.97
352.10	212.02
352.48	212.02
352.87	212.08
353.25	212.03
353.63	212.12
354.01	212.09
354.39	212.16
354.77	212.20
355.15	212.32
355.54	212.30
355.92	212.18
356.30	212.22
356.68	212.32
357.06	212.40
357.44	212.31
357.82	212.40
358.20	212.40
358.58	212.46
358.97	212.46
359.35	212.50
359.73	212.64
360.11	212.70
360.49	212.75
360.87	212.81
361.25	212.92
361.63	213.05
362.01	213.14
362.39	213.12
362.77	213.17
363.15	213.20
363.53	213.27
363.91	213.35
364.29	213.45
364.67	213.31
365.05	213.31
365.43	213.42
365.81	213.43
366.19	213.51
366.57	213.53
366.95	213.57
367.33	213.60
367.71	213.53
368.09	213.58
368.47	213.58
368.85	213.52
369.23	213.52
369.61	213.38
369.99	213.39
370.37	213.37
370.75	213.44
371.13	213.35
371.51	213.32
371.89	213.31
372.27	213.30
372.65	213.27
373.03	213.32
373.41	213.26
373.78	213.27
374.16	213.16
374.54	213.12
374.92	213.05
375.30	213.02
375.68	213.02
376.06	212.99
376.44	212.94
376.82	212.96
377.19	212.92
377.57	212.94
377.95	212.89
378.33	212.85
378.71	212.72
379.09	212.72
379.47	212.71
379.84	212.64
380.22	212.58
380.60	212.51
380.98	212.44
381.36	212.36
381.73	212.27
382.11	212.29
382.49	212.19
382.87	212.12
383.25	212.08
383.62	212.21
384.00	212.12
384.38	212.08
384.76	212.06
385.13	212.08
385.51	212.02
385.89	211.95
386.27	211.99
386.64	211.94
387.02	211.89
387.40	211.86
387.78	211.90
388.15	211.87
388.53	211.86
388.91	211.83
389.29	211.89
389.66	211.90
390.04	211.86
390.42	211.96
390.79	212.01
391.17	212.00
391.55	211.79
391.92	211.78
392.30	211.76
392.68	211.73
393.05	211.70
393.43	211.75
393.81	211.72
394.18	211.64
394.56	211.60
394.94	211.65
395.31	211.60
395.69	211.62
396.06	211.67
396.44	211.70
396.82	211.72
397.19	211.75
397.57	211.74
397.95	211.76
398.32	211.74
398.70	211.79
399.07	211.81
399.45	211.86
399.82	211.93
400.20	211.96
400.58	211.96
400.95	211.91
401.33	211.95
401.70	212.23
402.08	212.28
402.45	212.38
402.83	212.47
403.20	212.52
403.58	212.62
403.95	212.66
404.33	212.86
404.71	212.92
405.08	213.09
405.46	213.26
405.83	213.45
406.21	213.57
406.58	213.73
406.96	213.87
407.33	214.01
407.70	214.18
408.08	214.53
408.45	214.77
408.83	215.05
409.20	215.29
409.58	215.34
409.95	215.69
410.33	216.10
410.70	216.33
411.08	216.71
411.45	217.04
411.82	217.39
412.20	217.73
412.57	218.27
412.95	218.64
413.32	219.03
413.69	219.52
414.07	220.10
414.44	220.64
414.82	221.27
415.19	222.02
415.56	222.77
415.94	223.49
416.31	224.37
416.68	225.30
417.06	226.30
417.43	227.36
417.81	228.51
418.18	229.60
418.55	230.83
418.93	232.15
419.30	233.56
419.67	234.90
420.04	236.41
420.42	237.97
420.79	239.73
421.16	241.59
421.54	243.41
421.91	245.30
422.28	247.32
422.66	249.50
423.03	251.53
423.40	253.63
423.77	255.86
424.15	258.12
424.52	260.43
424.89	263.02
425.26	265.40
425.64	267.67
426.01	270.23
426.38	272.92
426.75	275.66
427.13	278.43
427.50	281.51
427.87	284.57
428.24	287.55
428.61	290.45
428.99	293.70
429.36	297.18
429.73	300.58
430.10	304.07
430.47	307.44
430.85	311.15
431.22	314.98
431.59	319.18
431.96	323.06
432.33	327.40
432.70	331.64
433.08	336.58
433.45	341.30
433.82	345.92
434.19	351.05
434.56	356.11
434.93	360.89
435.30	365.61
435.68	370.75
436.05	376.04
436.42	381.14
436.79	385.81
437.16	390.91
437.53	396.40
437.90	401.58
438.27	406.90
438.64	412.26
439.01	417.33
439.38	421.67
439.75	426.04
440.13	430.94
440.50	435.39
440.87	439.06
441.24	442.84
441.61	447.08
441.98	450.19
442.35	453.72
442.72	457.27
443.09	460.72
443.46	462.88
443.83	464.22
444.20	465.57
444.57	467.29
444.94	467.99
445.31	468.63
445.68	469.27
446.05	469.41
446.42	468.64
446.79	467.75
447.16	466.80
447.53	466.20
447.90	464.09
448.27	461.88
448.64	459.14
449.01	457.03
449.37	453.39
449.74	449.94
450.11	445.79
450.48	441.39
450.85	436.87
451.22	432.95
451.59	429.22
451.96	425.63
452.33	420.89
452.70	416.55
453.07	411.51
453.43	406.47
453.80	401.48
454.17	396.84
454.54	392.37
454.91	387.56
455.28	382.79
455.65	378.41
456.02	374.21
456.38	370.33
456.75	365.74
457.12	361.93
457.49	358.08
457.86	354.30
458.23	351.07
458.59	347.49
458.96	343.97
459.33	340.77
459.70	337.53
460.07	334.98
460.43	332.23
460.80	329.50
461.17	327.08
461.54	324.55
461.91	322.18
462.27	319.76
462.64	317.71
463.01	315.45
463.38	313.30
463.74	311.12
464.11	309.34
464.48	307.63
464.85	305.77
465.21	304.40
465.58	302.96
465.95	301.23
466.32	299.90
466.68	298.48
467.05	297.12
467.42	295.77
467.78	294.35
468.15	292.97
468.52	291.93
468.88	290.54
469.25	289.45
469.62	288.48
469.98	287.54
470.35	286.67
470.72	285.74
471.08	284.71
471.45	283.95
471.82	283.09
472.18	282.28
472.55	281.71
472.92	280.91
473.28	280.36
473.65	279.80
474.02	279.21
474.38	278.80
474.75	278.38
475.11	277.97
475.48	277.72
475.85	277.48
476.21	277.29
476.58	277.18
476.94	277.07
477.31	276.99
477.67	276.88
478.04	276.96
478.41	277.18
478.77	277.54
479.14	277.64
479.50	277.97
479.87	278.29
480.23	278.63
480.60	278.95
480.96	279.39
481.33	280.06
481.69	280.76
482.06	281.40
482.42	282.00
482.79	282.78
483.15	283.59
483.52	284.54
483.88	285.48
484.25	286.47
484.61	287.54
484.98	288.69
485.34	290.02
485.71	291.29
486.07	292.60
486.44	293.80
486.80	295.38
487.17	296.89
487.53	298.66
487.90	300.51
488.26	302.59
488.62	304.68
488.99	306.65
489.35	308.77
489.72	310.91
490.08	313.41
490.44	315.82
490.81	318.48
491.17	321.14
491.54	324.00
491.90	326.90
492.26	330.19
492.63	333.60
492.99	337.17
493.36	340.81
493.72	344.69
494.08	348.76
494.45	353.04
494.81	357.57
495.17	362.16
495.54	366.97
495.90	371.86
496.26	377.12
496.63	382.65
496.99	388.42
497.35	394.38
497.72	400.58
498.08	407.14
498.44	413.84
498.80	421.00
499.17	428.43
499.53	436.17
499.89	444.05
500.26	451.97
500.62	460.26
500.98	469.10
501.34	478.25
501.71	487.64
502.07	497.15
502.43	507.25
502.79	517.50
503.16	528.21
503.52	539.17
503.88	550.24
504.24	561.78
504.60	573.58
504.97	586.00
505.33	598.59
505.69	611.84
506.05	625.43
506.41	639.01
506.78	652.87
507.14	667.01
507.50	681.71
507.86	696.87
508.22	712.33
508.59	728.07
508.95	744.15
509.31	760.54
509.67	777.37
510.03	794.22
510.39	811.78
510.75	829.35
511.12	847.52
511.48	865.99
511.84	884.73
512.20	903.64
512.56	922.92
512.92	942.51
513.28	961.86
513.64	981.77
514.00	1001.87
514.37	1022.15
514.73	1043.10
515.09	1063.97
515.45	1084.87
515.81	1106.05
516.17	1127.22
516.53	1148.35
516.89	1169.79
517.25	1191.30
517.61	1213.03
517.97	1234.50
518.33	1256.15
518.69	1277.71
519.05	1299.97
519.41	1322.14
519.77	1344.53
520.13	1366.54
520.49	1388.59
520.85	1411.44
521.21	1433.86
521.57	1456.86
521.93	1479.00
522.29	1501.81
522.65	1524.47
523.01	1547.02
523.37	1569.22
523.73	1591.63
524.09	1614.24
524.45	1636.67
524.81	1659.03
525.17	1681.42
525.53	1704.00
525.89	1726.46
526.25	1748.70
526.61	1769.91
526.97	1791.57
527.33	1812.88
527.68	1834.52
528.04	1855.99
528.40	1876.19
528.76	1896.91
529.12	1917.52
529.48	1939.35
529.84	1959.71
530.20	1979.90
530.56	2000.31
530.91	2020.82
531.27	2041.24
531.63	2061.07
531.99	2080.99
532.35	2100.17
532.71	2119.35
533.07	2138.96
533.42	2157.86
533.78	2176.98
534.14	2195.53
534.50	2212.90
534.86	2231.21
535.21	2247.81
535.57	2265.46
535.93	2283.17
536.29	2300.30
536.65	2316.87
537.00	2331.95
537.36	2347.29
537.72	2362.68
538.08	2378.06
538.44	2393.26
538.79	2408.81
539.15	2423.79
539.51	2438.80
539.87	2454.52
540.22	2468.95
540.58	2483.75
540.94	2497.97
541.29	2510.98
541.65	2523.50
542.01	2536.76
542.37	2548.41
542.72	2561.26
543.08	2572.53
543.44	2584.22
543.79	2594.42
544.15	2605.14
544.51	2616.72
544.87	2627.85
545.22	2637.11
545.58	2645.65
545.94	2653.17
546.29	2659.33
546.65	2665.98
547.01	2671.80
547.36	2677.20
547.72	2682.86
548.07	2686.91
548.43	2690.95
548.79	2694.77
549.14	2699.46
549.50	2703.76
549.86	2708.00
550.21	2711.96
550.57	2715.85
550.92	2718.65
551.28	2721.19
551.64	2723.31
551.99	2725.66
552.35	2727.25
552.70	2729.70
553.06	2732.46
553.41	2736.13
553.77	2739.34
554.13	2741.78
554.48	2744.28
554.84	2745.93
555.19	2746.65
555.55	2747.16
555.90	2747.73
556.26	2748.48
556.61	2748.29
556.97	2747.48
557.32	2747.18
557.68	2745.40
558.03	2743.98
558.39	2742.56
558.74	2742.28
559.10	2741.44
559.45	2739.47
559.81	2738.38
560.16	2736.25
560.52	2733.82
560.87	2730.31
561.23	2726.67
561.58	2723.78
561.94	2720.01
562.29	2716.16
562.64	2713.97
563.00	2711.75
563.35	2709.78
563.71	2707.93
564.06	2706.14
564.42	2704.09
564.77	2701.52
565.12	2699.74
565.48	2696.56
565.83	2693.35
566.19	2690.21
566.54	2685.81
566.89	2682.07
567.25	2678.22
567.60	2674.88
567.96	2671.27
568.31	2667.87
568.66	2663.95
569.02	2659.53
569.37	2654.64
569.72	2650.79
570.08	2645.04
570.43	2639.19
570.78	2633.15
571.14	2626.90
571.49	2620.07
571.84	2614.24
572.20	2607.45
572.55	2600.77
572.90	2594.14
573.26	2587.35
573.61	2580.28
573.96	2573.94
574.31	2565.79
574.67	2557.70
575.02	2549.28
575.37	2540.62
575.72	2531.46
576.08	2524.00
576.43	2515.40
576.78	2507.45
577.13	2499.29
577.49	2491.36
577.84	2483.85
578.19	2476.43
578.54	2468.90
578.90	2462.09
579.25	2453.12
579.60	2443.89
579.95	2434.95
580.30	2427.06
580.66	2418.83
581.01	2409.35
581.36	2399.85
581.71	2391.80
582.06	2383.06
582.42	2374.74
582.77	2365.56
583.12	2356.97
583.47	2348.20
583.82	2340.07
584.17	2330.98
584.53	2321.99
584.88	2313.46
585.23	2303.85
585.58	2294.09
585.93	2284.08
586.28	2274.39
586.63	2265.84
586.98	2257.79
587.34	2249.30
587.69	2239.78
588.04	2230.43
588.39	2222.40
588.74	2213.58
589.09	2204.63
589.44	2195.46
589.79	2187.14
590.14	2179.52
590.49	2171.02
590.84	2161.80
591.19	2153.30
591.54	2144.52
591.89	2134.35
592.25	2125.08
592.60	2115.77
592.95	2106.36
593.30	2097.00
593.65	2087.15
594.00	2077.08
594.35	2068.54
594.70	2059.32
595.05	2050.63
595.40	2041.91
595.75	2031.87
596.10	2023.60
596.45	2014.95
596.80	2007.00
597.15	1998.25
597.50	1989.15
597.85	1980.78
598.19	1972.11
598.54	1963.53
598.89	1955.85
599.24	1949.13
599.59	1941.60
599.94	1934.41
600.29	1926.44
600.64	1918.65
600.99	1910.66
601.34	1903.55
601.69	1894.57
602.04	1886.48
602.39	1878.44
602.74	1870.56
603.08	1864.33
603.43	1856.65
603.78	1848.89
604.13	1840.86
604.48	1832.84
604.83	1825.81
605.18	1818.26
605.53	1810.53
605.87	1802.60
606.22	1795.24
606.57	1787.30
606.92	1778.85
607.27	1770.71
607.62	1763.41
607.96	1756.61
608.31	1750.24
608.66	1742.38
609.01	1735.03
609.36	1727.20
609.70	1719.24
610.05	1711.42
610.40	1702.96
610.75	1694.64
611.10	1686.69
611.44	1677.31
611.79	1668.31
612.14	1658.85
612.49	1649.47
612.83	1640.79
613.18	1631.30
613.53	1621.88
613.88	1612.31
614.22	1603.48
614.57	1594.13
614.92	1584.91
615.27	1575.18
615.61	1565.18
615.96	1556.15
616.31	1547.59
616.65	1539.63
617.00	1531.05
617.35	1522.40
617.70	1513.42
618.04	1504.47
618.39	1495.05
618.74	1486.82
619.08	1478.12
619.43	1469.92
619.78	1462.07
620.12	1453.97
620.47	1446.15
620.82	1437.35
621.16	1429.14
621.51	1420.66
621.85	1412.49
622.20	1404.04
622.55	1395.68
622.89	1387.35
623.24	1379.40
623.59	1370.56
623.93	1361.65
624.28	1353.57
624.62	1345.29
624.97	1337.01
625.32	1329.06
625.66	1321.77
626.01	1314.60
626.35	1307.38
626.70	1299.66
627.04	1292.14
627.39	1284.39
627.73	1276.69
628.08	1269.99
628.43	1262.45
628.77	1255.18
629.12	1247.85
629.46	1241.08
629.81	1233.91
630.15	1226.61
630.50	1218.93
630.84	1211.76
631.19	1204.62
631.53	1197.69
631.88	1190.45
632.22	1183.03
632.57	1176.13
632.91	1168.88
633.26	1161.27
633.60	1154.02
633.95	1147.07
634.29	1139.74
634.64	1133.18
634.98	1126.43
635.32	1119.40
635.67	1112.82
636.01	1106.08
636.36	1099.22
636.70	1092.32
637.05	1085.65
637.39	1079.29
637.73	1073.03
638.08	1067.17
638.42	1061.35
638.77	1054.73
639.11	1048.11
639.45	1042.19
639.80	1035.59
640.14	1028.91
640.49	1022.62
640.83	1016.40
641.17	1010.07
641.52	1003.83
641.86	996.97
642.20	990.55
642.55	983.78
642.89	977.45
643.23	971.13
643.58	965.15
643.92	958.75
644.26	952.55
644.61	946.60
644.95	940.55
645.29	934.26
645.64	927.68
645.98	921.57
646.32	915.79
646.66	909.45
647.01	903.41
647.35	897.56
647.69	891.33
648.04	885.28
648.38	879.25
648.72	873.39
649.06	867.45
649.41	861.40
649.75	855.52
650.09	849.52
650.43	843.69
650.78	837.36
651.12	831.34
651.46	825.51
651.80	819.41
652.14	813.53
652.49	807.48
652.83	801.65
653.17	795.49
653.51	789.56
653.85	784.05
654.20	778.14
654.54	772.42
654.88	766.94
655.22	761.15
655.56	755.18
655.90	749.15
656.25	743.37
656.59	737.71
656.93	732.56
657.27	727.25
657.61	721.61
657.95	716.55
658.29	711.55
658.64	706.39
658.98	701.31
659.32	695.79
659.66	690.53
660.00	685.04
660.34	679.90
660.68	674.63
661.02	669.52
661.36	664.92
661.70	660.03
662.05	655.14
662.39	650.85
662.73	646.37
663.07	642.10
663.41	637.86
663.75	633.51
664.09	628.65
664.43	623.96
664.77	619.63
665.11	615.15
665.45	610.66
665.79	606.06
666.13	601.46
666.47	597.31
666.81	593.13
667.15	589.17
667.49	585.30
667.83	581.59
668.17	577.67
668.51	573.69
668.85	570.00
669.19	566.35
669.53	562.21
669.87	558.53
670.21	554.75
670.55	550.79
670.89	547.20
671.23	543.87
671.57	540.48
671.91	536.94
672.25	533.48
672.58	530.02
672.92	526.72
673.26	523.68
673.60	520.46
673.94	517.16
674.28	513.86
674.62	510.66
674.96	507.33
675.30	504.17
675.64	501.00
675.97	497.75
676.31	494.70
676.65	491.72
676.99	488.85
677.33	485.88
677.67	483.12
678.01	480.11
678.34	477.17
678.68	474.19
679.02	471.20
679.36	468.44
679.70	465.53
680.04	462.66
680.37	459.68
680.71	456.82
681.05	454.25
681.39	451.62
681.73	448.85
682.06	446.27
682.40	443.63
682.74	441.01
683.08	438.47
683.42	435.72
683.75	433.29
684.09	430.62
684.43	428.04
684.77	425.41
685.10	422.88
685.44	420.32
685.78	417.87
686.12	415.57
686.45	413.06
686.79	410.72
687.13	408.51
687.46	406.38
687.80	404.17
688.14	401.85
688.48	399.63
688.81	397.45
689.15	395.29
689.49	393.07
689.82	390.89
690.16	388.54
690.50	386.34
690.83	384.05
691.17	381.83
691.51	379.69
691.84	377.54
692.18	375.60
692.52	373.64
692.85	371.89
693.19	370.03
693.52	368.12
693.86	366.20
694.20	364.33
694.53	362.39
694.87	360.41
695.21	358.51
695.54	356.62
695.88	354.71
696.21	352.79
696.55	351.03
696.88	349.22
697.22	347.45
697.56	345.87
697.89	344.20
698.23	342.59
698.56	340.94
698.90	339.50
699.23	337.74
699.57	336.14
699.90	334.42
700.24	332.71
700.58	331.13
700.91	329.58
701.25	328.11
701.58	326.68
701.92	325.29
702.25	323.92
702.59	322.45
702.92	321.18
703.26	319.90
703.59	318.56
703.93	317.37
704.26	316.20
704.60	314.93
704.93	313.64
705.26	312.33
705.60	311.16
705.93	309.81
706.27	308.64
706.60	307.54
706.94	306.50
707.27	305.27
707.61	304.10
707.94	302.96
708.27	301.62
708.61	300.49
708.94	299.29
709.28	298.15
709.61	297.04
709.94	295.87
710.28	294.75
710.61	293.71
710.95	292.51
711.28	291.56
711.61	290.39
711.95	289.47
712.28	288.53
712.61	287.48
712.95	286.55
713.28	285.70
713.61	284.65
713.95	283.62
714.28	282.77
714.61	281.77
714.95	280.87
715.28	280.02
715.61	279.01
715.95	278.20
716.28	277.25
716.61	276.38
716.95	275.55
717.28	274.77
717.61	273.98
717.94	273.25
718.28	272.34
718.61	271.71
718.94	270.90
719.27	270.08
719.61	269.37
719.94	268.69
720.27	267.92
720.60	267.21
720.94	266.60
721.27	265.97
721.60	265.44
721.93	264.77
722.27	264.25
722.60	263.66
722.93	263.04
723.26	262.57
723.59	262.05
723.93	261.58
724.26	261.00
724.59	260.40
724.92	259.84
725.25	259.26
725.59	258.67
725.92	258.20
726.25	257.65
726.58	257.06
726.91	256.56
727.24	256.05
727.57	255.51
727.91	254.91
728.24	254.43
728.57	253.86
728.90	253.45
729.23	252.96
729.56	252.57
729.89	252.09
730.22	251.58
730.55	251.09
730.89	250.59
731.22	250.14
731.55	249.71
731.88	249.24
732.21	248.80
732.54	248.35
732.87	247.86
733.20	247.50
733.53	247.14
733.86	246.64
734.19	246.19
734.52	245.89
734.85	245.62
735.18	245.14
735.51	244.77
735.84	244.31
736.17	243.90
736.50	243.45
736.83	243.33
737.16	242.91
737.49	242.57
737.82	242.10
738.15	241.78
738.48	241.36
738.81	240.99
739.14	240.64
739.47	240.28
739.80	239.94
740.13	239.62
740.46	239.23
740.79	238.92
741.12	238.63
741.45	238.28
741.78	237.90
742.11	237.70
742.44	237.38
742.77	237.12
743.10	236.86
743.43	236.60
743.75	236.11
744.08	236.07
744.41	235.71
744.74	235.45
745.07	235.18
745.40	234.99
745.73	234.80
746.06	234.59
746.39	234.35
746.71	234.06
747.04	233.73
747.37	233.47
747.70	233.19
748.03	232.99
748.36	232.69
748.68	232.42
749.01	232.05
749.34	231.86
749.67	231.58
750.00	231.29
750.33	231.18
750.65	230.95
750.98	230.53
751.31	230.39
751.64	230.16
751.97	229.95
752.29	229.70
752.62	229.45
752.95	229.17
753.28	228.97
753.60	228.77
753.93	228.61
754.26	228.36
754.59	228.12
754.91	227.78
755.24	227.64
755.57	227.41
755.90	227.25
756.22	227.11
756.55	226.95
756.88	226.69
757.20	226.38
757.53	226.07
757.86	225.89
758.19	225.69
758.51	225.54
758.84	225.26
759.17	225.07
759.49	224.86
759.82	224.78
760.15	224.60
760.47	224.41
760.80	224.25
761.13	224.21
761.45	224.09
761.78	224.00
762.11	223.80
762.43	223.59
762.76	223.48
763.08	223.26
763.41	223.09
763.74	223.02
764.06	222.85
764.39	222.70
764.71	222.55
765.04	222.44
765.37	222.30
765.69	222.18
766.02	222.00
766.34	221.88
766.67	221.72
767.00	221.67
767.32	221.68
767.65	221.65
767.97	221.53
768.30	221.44
768.62	221.29
768.95	221.18
769.27	221.17
769.60	221.07
769.92	220.93
770.25	220.91
770.57	220.72
770.90	220.54
771.22	220.45
771.55	220.31
771.87	220.24
772.20	220.07
772.52	220.06
772.85	220.25
773.17	220.16
773.50	220.01
773.82	219.85
774.15	219.65
774.47	219.42
774.80	219.29
775.12	219.16
775.45	219.05
775.77	219.00
776.09	218.86
776.42	218.79
776.74	218.76
777.07	218.63
777.39	218.62
777.72	218.61
778.04	218.56
778.36	218.53
778.69	218.39
779.01	218.32
779.33	218.18
779.66	217.80
779.98	217.71
780.31	217.62
780.63	217.60
780.95	217.56
781.28	217.43
781.60	217.35
781.92	217.30
782.25	217.28
782.57	217.24
782.89	217.13
783.22	217.00
783.54	216.95
783.86	216.90
784.19	216.80
784.51	216.82
784.83	216.78
785.16	216.75
785.48	216.66
785.80	216.64
786.12	216.60
786.45	216.63
