SpectraSuite Data File
++++++++++++++++++++++++++++++++++++
Date: Mon Feb 25 17:32:58 EST 2013
User: group
Dark Spectrum Present: No
Reference Spectrum Present: No
Number of Sampled Component Spectra: 1
Spectrometers: USB2E7196
Integration Time (usec): 52000 (USB2E7196)
Spectra Averaged: 20 (USB2E7196)
Boxcar Smoothing: 10 (USB2E7196)
Correct for Electrical Dark: No (USB2E7196)
Strobe/Lamp Enabled: No (USB2E7196)
Correct for Detector Non-linearity: No (USB2E7196)
Correct for Stray Light: No (USB2E7196)
Number of Pixels in Processed Spectrum: 2048
>>>>>Begin Processed Spectral Data<<<<<
339.09	0.00
339.48	199.45
339.86	200.70
340.24	201.40
340.63	203.20
341.01	208.25
341.39	206.95
341.78	207.85
342.16	209.45
342.54	208.50
342.93	198.26
343.31	208.29
343.69	208.85
344.07	209.35
344.46	209.80
344.84	210.23
345.22	210.34
345.60	210.56
345.99	210.70
346.37	210.77
346.75	210.87
347.13	210.94
347.52	211.08
347.90	211.17
348.28	211.21
348.66	211.32
349.05	211.34
349.43	211.42
349.81	211.54
350.19	211.62
350.57	211.70
350.96	211.79
351.34	211.83
351.72	211.84
352.10	211.83
352.48	211.85
352.87	211.85
353.25	211.91
353.63	211.95
354.01	212.03
354.39	212.10
354.77	212.14
355.15	212.32
355.54	212.32
355.92	212.28
356.30	212.33
356.68	212.47
357.06	212.51
357.44	212.60
357.82	212.60
358.20	212.63
358.58	212.67
358.97	212.73
359.35	212.82
359.73	212.96
360.11	213.01
360.49	213.11
360.87	213.17
361.25	213.24
361.63	213.29
362.01	213.30
362.39	213.34
362.77	213.44
363.15	213.38
363.53	213.38
363.91	213.46
364.29	213.50
364.67	213.34
365.05	213.40
365.43	213.38
365.81	213.42
366.19	213.49
366.57	213.57
366.95	213.54
367.33	213.56
367.71	213.49
368.09	213.58
368.47	213.59
368.85	213.61
369.23	213.68
369.61	213.64
369.99	213.76
370.37	213.79
370.75	213.90
371.13	213.85
371.51	213.86
371.89	213.80
372.27	213.76
372.65	213.81
373.03	213.77
373.41	213.80
373.78	213.73
374.16	213.65
374.54	213.59
374.92	213.52
375.30	213.47
375.68	213.48
376.06	213.43
376.44	213.36
376.82	213.29
377.19	213.27
377.57	213.24
377.95	213.17
378.33	213.12
378.71	212.89
379.09	212.98
379.47	212.95
379.84	212.95
380.22	212.89
380.60	212.73
380.98	212.65
381.36	212.56
381.73	212.52
382.11	212.52
382.49	212.47
382.87	212.44
383.25	212.35
383.62	212.50
384.00	212.43
384.38	212.43
384.76	212.42
385.13	212.42
385.51	212.40
385.89	212.28
386.27	212.23
386.64	212.23
387.02	212.11
387.40	212.01
387.78	211.98
388.15	211.97
388.53	211.93
388.91	211.92
389.29	211.83
389.66	211.81
390.04	211.70
390.42	211.66
390.79	211.71
391.17	211.72
391.55	211.44
391.92	211.46
392.30	211.45
392.68	211.40
393.05	211.33
393.43	211.31
393.81	211.26
394.18	211.18
394.56	211.22
394.94	211.29
395.31	211.32
395.69	211.35
396.06	211.37
396.44	211.49
396.82	211.52
397.19	211.66
397.57	211.71
397.95	211.84
398.32	211.85
398.70	211.84
399.07	211.94
399.45	211.97
399.82	211.96
400.20	211.91
400.58	211.99
400.95	211.98
401.33	212.07
401.70	212.39
402.08	212.53
402.45	212.60
402.83	212.70
403.20	212.77
403.58	212.90
403.95	212.96
404.33	213.00
404.71	213.09
405.08	213.35
405.46	213.42
405.83	213.54
406.21	213.71
406.58	213.88
406.96	213.98
407.33	214.18
407.70	214.43
408.08	214.80
408.45	215.03
408.83	215.29
409.20	215.53
409.58	215.67
409.95	215.97
410.33	216.22
410.70	216.47
411.08	216.82
411.45	217.06
411.82	217.50
412.20	218.00
412.57	218.60
412.95	218.88
413.32	219.44
413.69	219.94
414.07	220.49
414.44	221.12
414.82	221.78
415.19	222.61
415.56	223.33
415.94	224.05
416.31	224.96
416.68	225.94
417.06	227.00
417.43	227.92
417.81	229.07
418.18	230.26
418.55	231.41
418.93	232.74
419.30	234.11
419.67	235.50
420.04	236.90
420.42	238.27
420.79	240.10
421.16	241.85
421.54	243.61
421.91	245.46
422.28	247.41
422.66	249.45
423.03	251.49
423.40	253.60
423.77	255.81
424.15	257.98
424.52	260.26
424.89	262.76
425.26	265.31
425.64	267.63
426.01	270.12
426.38	272.87
426.75	275.61
427.13	278.37
427.50	281.24
427.87	284.35
428.24	287.49
428.61	290.31
428.99	293.50
429.36	296.95
429.73	300.41
430.10	303.78
430.47	307.20
430.85	310.74
431.22	314.57
431.59	318.73
431.96	322.70
432.33	327.03
432.70	331.16
433.08	335.98
433.45	340.55
433.82	345.20
434.19	350.30
434.56	355.24
434.93	360.05
435.30	364.80
435.68	370.08
436.05	375.19
436.42	380.33
436.79	384.93
437.16	390.14
437.53	395.46
437.90	400.75
438.27	406.00
438.64	411.36
439.01	416.32
439.38	420.72
439.75	424.95
440.13	429.77
440.50	434.28
440.87	438.00
441.24	441.82
441.61	445.96
441.98	448.98
442.35	452.51
442.72	456.10
443.09	459.68
443.46	461.67
443.83	463.08
444.20	464.22
444.57	466.04
444.94	466.73
445.31	467.45
445.68	468.16
446.05	468.44
446.42	467.70
446.79	466.88
447.16	465.95
447.53	465.35
447.90	463.07
448.27	460.97
448.64	457.89
449.01	455.78
449.37	452.24
449.74	448.75
450.11	444.73
450.48	440.29
450.85	435.66
451.22	431.68
451.59	427.89
451.96	424.26
452.33	419.54
452.70	415.25
453.07	410.10
453.43	404.89
453.80	399.97
454.17	395.36
454.54	390.85
454.91	386.03
455.28	381.29
455.65	377.00
456.02	372.74
456.38	369.18
456.75	364.59
457.12	360.75
457.49	356.89
457.86	353.13
458.23	350.01
458.59	346.56
458.96	343.06
459.33	339.95
459.70	336.90
460.07	334.33
460.43	331.46
460.80	328.79
461.17	326.49
461.54	323.93
461.91	321.48
462.27	319.17
462.64	317.16
463.01	314.94
463.38	312.83
463.74	310.54
464.11	308.62
464.48	306.99
464.85	305.16
465.21	303.90
465.58	302.50
465.95	300.57
466.32	299.11
466.68	297.68
467.05	296.24
467.42	294.88
467.78	293.38
468.15	291.99
468.52	291.08
468.88	289.76
469.25	288.61
469.62	287.74
469.98	286.70
470.35	285.66
470.72	284.74
471.08	283.83
471.45	283.06
471.82	282.30
472.18	281.45
472.55	280.85
472.92	280.16
473.28	279.49
473.65	279.03
474.02	278.47
474.38	278.01
474.75	277.67
475.11	277.20
475.48	277.05
475.85	276.73
476.21	276.47
476.58	276.29
476.94	276.26
477.31	276.19
477.67	276.10
478.04	276.23
478.41	276.40
478.77	276.68
479.14	276.82
479.50	277.08
479.87	277.34
480.23	277.75
480.60	278.06
480.96	278.52
481.33	279.15
481.69	279.80
482.06	280.41
482.42	281.05
482.79	281.85
483.15	282.73
483.52	283.86
483.88	284.81
484.25	285.83
484.61	286.85
484.98	287.95
485.34	289.32
485.71	290.70
486.07	292.10
486.44	293.38
486.80	294.94
487.17	296.60
487.53	298.38
487.90	300.12
488.26	302.05
488.62	304.05
488.99	306.11
489.35	308.24
489.72	310.57
490.08	313.04
490.44	315.48
490.81	318.10
491.17	320.72
491.54	323.62
491.90	326.66
492.26	329.83
492.63	333.13
492.99	336.53
493.36	340.07
493.72	343.98
494.08	347.96
494.45	352.29
494.81	356.68
495.17	361.37
495.54	366.27
495.90	371.36
496.26	376.70
496.63	382.13
496.99	387.91
497.35	393.87
497.72	400.03
498.08	406.62
498.44	413.23
498.80	420.48
499.17	427.82
499.53	435.51
499.89	443.44
500.26	451.60
500.62	459.94
500.98	468.82
501.34	477.85
501.71	487.39
502.07	497.07
502.43	507.04
502.79	517.26
503.16	527.95
503.52	538.74
503.88	549.99
504.24	561.54
504.60	573.40
504.97	585.76
505.33	598.33
505.69	611.62
506.05	625.18
506.41	638.60
506.78	652.35
507.14	666.49
507.50	681.14
507.86	696.14
508.22	711.74
508.59	727.18
508.95	743.16
509.31	759.28
509.67	775.79
510.03	792.77
510.39	810.36
510.75	828.05
511.12	846.14
511.48	864.56
511.84	883.05
512.20	901.66
512.56	920.75
512.92	940.21
513.28	959.55
513.64	979.51
514.00	999.40
514.37	1019.72
514.73	1040.34
515.09	1061.17
515.45	1082.08
515.81	1103.25
516.17	1124.47
516.53	1145.79
516.89	1167.51
517.25	1189.14
517.61	1210.56
517.97	1231.90
518.33	1253.56
518.69	1275.11
519.05	1297.01
519.41	1319.20
519.77	1342.06
520.13	1364.05
520.49	1386.24
520.85	1408.88
521.21	1431.14
521.57	1454.03
521.93	1475.96
522.29	1498.85
522.65	1521.38
523.01	1543.83
523.37	1565.82
523.73	1588.09
524.09	1610.25
524.45	1632.45
524.81	1654.75
525.17	1677.17
525.53	1699.63
525.89	1721.98
526.25	1744.14
526.61	1765.19
526.97	1787.23
527.33	1808.35
527.68	1829.90
528.04	1851.04
528.40	1871.22
528.76	1891.95
529.12	1912.67
529.48	1934.53
529.84	1954.87
530.20	1975.22
530.56	1995.84
530.91	2016.75
531.27	2037.67
531.63	2057.95
531.99	2077.86
532.35	2097.09
532.71	2115.97
533.07	2135.64
533.42	2154.13
533.78	2173.14
534.14	2191.93
534.50	2208.61
534.86	2226.80
535.21	2243.75
535.57	2261.67
535.93	2279.20
536.29	2295.98
536.65	2312.63
537.00	2328.00
537.36	2343.65
537.72	2358.99
538.08	2374.28
538.44	2389.23
538.79	2404.01
539.15	2418.64
539.51	2433.15
539.87	2448.30
540.22	2463.10
540.58	2477.82
540.94	2492.53
541.29	2505.37
541.65	2517.66
542.01	2531.49
542.37	2543.21
542.72	2555.32
543.08	2566.00
543.44	2577.84
543.79	2588.22
544.15	2598.24
544.51	2609.27
544.87	2619.90
545.22	2628.84
545.58	2637.02
545.94	2644.20
546.29	2651.01
546.65	2657.18
547.01	2663.25
547.36	2669.14
547.72	2674.61
548.07	2678.45
548.43	2681.86
548.79	2686.19
549.14	2690.93
549.50	2694.79
549.86	2698.76
550.21	2703.11
550.57	2707.18
550.92	2709.69
551.28	2712.39
551.64	2715.22
551.99	2717.78
552.35	2719.22
552.70	2721.95
553.06	2724.61
553.41	2727.72
553.77	2730.78
554.13	2733.05
554.48	2735.27
554.84	2736.60
555.19	2737.12
555.55	2737.56
555.90	2738.13
556.26	2738.24
556.61	2738.08
556.97	2737.07
557.32	2736.70
557.68	2734.84
558.03	2733.35
558.39	2731.89
558.74	2731.26
559.10	2729.61
559.45	2727.45
559.81	2726.61
560.16	2723.76
560.52	2721.17
560.87	2718.02
561.23	2714.04
561.58	2711.93
561.94	2708.95
562.29	2705.27
562.64	2703.32
563.00	2700.89
563.35	2698.95
563.71	2696.99
564.06	2694.91
564.42	2692.87
564.77	2690.32
565.12	2688.51
565.48	2685.71
565.83	2682.74
566.19	2679.62
566.54	2675.86
566.89	2672.21
567.25	2668.20
567.60	2665.48
567.96	2662.13
568.31	2658.70
568.66	2654.96
569.02	2650.06
569.37	2644.76
569.72	2640.82
570.08	2635.41
570.43	2629.75
570.78	2623.87
571.14	2617.82
571.49	2611.06
571.84	2605.07
572.20	2598.22
572.55	2591.61
572.90	2584.59
573.26	2577.56
573.61	2570.43
573.96	2564.07
574.31	2556.13
574.67	2548.09
575.02	2539.05
575.37	2530.30
575.72	2521.48
576.08	2513.77
576.43	2505.43
576.78	2497.73
577.13	2489.80
577.49	2481.47
577.84	2474.01
578.19	2466.20
578.54	2458.57
578.90	2451.95
579.25	2443.45
579.60	2434.45
579.95	2425.11
580.30	2417.29
580.66	2409.00
581.01	2400.08
581.36	2390.47
581.71	2382.17
582.06	2373.56
582.42	2365.60
582.77	2356.56
583.12	2347.67
583.47	2338.73
583.82	2330.36
584.17	2320.96
584.53	2311.65
584.88	2302.95
585.23	2293.47
585.58	2283.79
585.93	2274.05
586.28	2264.49
586.63	2255.83
586.98	2247.50
587.34	2239.25
587.69	2230.09
588.04	2221.10
588.39	2212.85
588.74	2203.87
589.09	2195.35
589.44	2185.85
589.79	2177.50
590.14	2169.88
590.49	2161.56
590.84	2152.57
591.19	2144.42
591.54	2135.67
591.89	2125.90
592.25	2116.67
592.60	2107.35
592.95	2098.17
593.30	2088.93
593.65	2079.06
594.00	2069.09
594.35	2060.67
594.70	2051.34
595.05	2042.62
595.40	2033.78
595.75	2023.96
596.10	2015.74
596.45	2006.96
596.80	1999.20
597.15	1990.60
597.50	1981.29
597.85	1972.75
598.19	1964.18
598.54	1955.49
598.89	1947.55
599.24	1940.71
599.59	1933.29
599.94	1926.13
600.29	1918.51
600.64	1910.47
600.99	1901.96
601.34	1895.13
601.69	1886.59
602.04	1878.88
602.39	1870.54
602.74	1862.89
603.08	1856.28
603.43	1849.30
603.78	1841.18
604.13	1833.16
604.48	1825.05
604.83	1817.95
605.18	1810.79
605.53	1803.47
605.87	1795.66
606.22	1788.85
606.57	1780.73
606.92	1772.54
607.27	1764.44
607.62	1757.22
607.96	1750.50
608.31	1744.75
608.66	1736.58
609.01	1729.10
609.36	1721.05
609.70	1713.35
610.05	1705.37
610.40	1697.06
610.75	1688.44
611.10	1680.82
611.44	1671.76
611.79	1662.93
612.14	1653.67
612.49	1644.17
612.83	1635.26
613.18	1625.57
613.53	1615.80
613.88	1606.12
614.22	1597.13
614.57	1587.79
614.92	1578.25
615.27	1568.75
615.61	1558.50
615.96	1549.70
616.31	1541.03
616.65	1533.29
617.00	1525.08
617.35	1516.51
617.70	1507.80
618.04	1498.65
618.39	1489.31
618.74	1481.18
619.08	1472.81
619.43	1464.77
619.78	1457.15
620.12	1448.95
620.47	1441.59
620.82	1433.04
621.16	1424.71
621.51	1416.54
621.85	1408.31
622.20	1400.04
622.55	1391.81
622.89	1383.83
623.24	1375.81
623.59	1367.07
623.93	1358.53
624.28	1350.20
624.62	1341.89
624.97	1333.68
625.32	1326.07
625.66	1318.79
626.01	1311.44
626.35	1304.03
626.70	1296.15
627.04	1288.55
627.39	1280.94
627.73	1273.15
628.08	1266.38
628.43	1259.11
628.77	1251.70
629.12	1244.50
629.46	1237.69
629.81	1230.40
630.15	1222.95
630.50	1215.45
630.84	1208.08
631.19	1200.78
631.53	1193.70
631.88	1186.32
632.22	1178.67
632.57	1171.62
632.91	1164.30
633.26	1156.50
633.60	1149.39
633.95	1142.53
634.29	1135.26
634.64	1128.65
634.98	1121.60
635.32	1114.46
635.67	1108.27
636.01	1101.85
636.36	1095.07
636.70	1088.37
637.05	1081.96
637.39	1075.87
637.73	1069.55
638.08	1063.94
638.42	1057.96
638.77	1051.51
639.11	1045.46
639.45	1039.60
639.80	1033.01
640.14	1026.49
640.49	1020.50
640.83	1014.27
641.17	1007.98
641.52	1001.83
641.86	995.27
642.20	989.23
642.55	982.50
642.89	975.88
643.23	969.41
643.58	963.54
643.92	957.00
644.26	950.65
644.61	944.46
644.95	938.51
645.29	932.18
645.64	925.64
645.98	919.50
646.32	913.30
646.66	907.09
647.01	900.96
647.35	895.15
647.69	888.77
648.04	882.70
648.38	876.79
648.72	870.77
649.06	864.65
649.41	858.50
649.75	852.90
650.09	847.23
650.43	841.28
650.78	834.85
651.12	828.80
651.46	823.08
651.80	817.04
652.14	810.89
652.49	804.94
652.83	799.19
653.17	793.08
653.51	787.41
653.85	781.72
654.20	776.14
654.54	770.26
654.88	764.96
655.22	759.10
655.56	753.26
655.90	747.37
656.25	741.72
656.59	736.27
656.93	731.04
657.27	725.70
657.61	720.04
657.95	715.01
658.29	710.07
658.64	704.90
658.98	699.67
659.32	694.40
659.66	689.14
660.00	683.72
660.34	678.47
660.68	673.24
661.02	668.13
661.36	663.38
661.70	658.50
662.05	653.56
662.39	649.20
662.73	644.89
663.07	640.72
663.41	636.56
663.75	632.06
664.09	627.21
664.43	622.65
664.77	618.45
665.11	614.05
665.45	609.55
665.79	605.15
666.13	600.87
666.47	596.73
666.81	592.61
667.15	588.65
667.49	584.89
667.83	581.00
668.17	577.13
668.51	573.32
668.85	569.73
669.19	566.12
669.53	562.14
669.87	558.10
670.21	554.11
670.55	549.99
670.89	546.53
671.23	543.35
671.57	539.67
671.91	536.06
672.25	532.58
672.58	529.05
672.92	525.59
673.26	522.44
673.60	519.13
673.94	515.68
674.28	512.43
674.62	509.17
674.96	505.94
675.30	502.88
675.64	499.46
675.97	496.20
676.31	493.09
676.65	490.21
676.99	487.47
677.33	484.51
677.67	481.73
678.01	478.58
678.34	475.61
678.68	472.79
679.02	469.90
679.36	467.05
679.70	464.27
680.04	461.20
680.37	458.19
680.71	455.43
681.05	452.81
681.39	450.00
681.73	447.38
682.06	444.94
682.40	442.31
682.74	439.91
683.08	437.38
683.42	434.75
683.75	432.17
684.09	429.45
684.43	426.96
684.77	424.39
685.10	421.85
685.44	419.14
685.78	416.65
686.12	414.39
686.45	412.03
686.79	409.73
687.13	407.79
687.46	405.76
687.80	403.60
688.14	401.29
688.48	399.12
688.81	396.79
689.15	394.46
689.49	392.20
689.82	389.91
690.16	387.61
690.50	385.40
690.83	383.12
691.17	380.94
691.51	378.81
691.84	376.74
692.18	374.73
692.52	372.93
692.85	371.16
693.19	369.35
693.52	367.49
693.86	365.48
694.20	363.53
694.53	361.50
694.87	359.54
695.21	357.71
695.54	355.83
695.88	353.94
696.21	352.05
696.55	350.32
696.88	348.68
697.22	346.92
697.56	345.35
697.89	343.73
698.23	342.17
698.56	340.62
698.90	339.14
699.23	337.61
699.57	335.96
699.90	334.17
700.24	332.40
700.58	330.70
700.91	329.21
701.25	327.74
701.58	326.32
701.92	324.93
702.25	323.59
702.59	322.21
702.92	320.93
703.26	319.69
703.59	318.39
703.93	317.24
704.26	316.08
704.60	314.73
704.93	313.50
705.26	312.25
705.60	310.95
705.93	309.65
706.27	308.46
706.60	307.25
706.94	306.22
707.27	305.04
707.61	303.97
707.94	302.83
708.27	301.63
708.61	300.45
708.94	299.24
709.28	298.10
709.61	297.01
709.94	295.92
710.28	294.87
710.61	293.92
710.95	292.61
711.28	291.58
711.61	290.54
711.95	289.58
712.28	288.55
712.61	287.56
712.95	286.66
713.28	285.68
713.61	284.78
713.95	283.82
714.28	282.96
714.61	282.04
714.95	281.14
715.28	280.16
715.61	279.27
715.95	278.43
716.28	277.49
716.61	276.69
716.95	275.91
717.28	275.06
717.61	274.15
717.94	273.49
718.28	272.70
718.61	271.95
718.94	271.15
719.27	270.45
719.61	269.65
719.94	268.96
720.27	268.22
720.60	267.51
720.94	266.68
721.27	266.02
721.60	265.38
721.93	264.82
722.27	264.24
722.60	263.64
722.93	263.02
723.26	262.45
723.59	261.80
723.93	261.20
724.26	260.57
724.59	259.97
724.92	259.41
725.25	258.86
725.59	258.35
725.92	257.80
726.25	257.25
726.58	256.80
726.91	256.20
727.24	255.72
727.57	255.13
727.91	254.72
728.24	254.24
728.57	253.75
728.90	253.23
729.23	252.70
729.56	252.33
729.89	251.90
730.22	251.44
730.55	250.97
730.89	250.51
731.22	250.08
731.55	249.60
731.88	249.15
732.21	248.70
732.54	248.18
732.87	247.72
733.20	247.27
733.53	246.87
733.86	246.46
734.19	246.00
734.52	245.71
734.85	245.50
735.18	245.05
735.51	244.63
735.84	244.32
736.17	244.01
736.50	243.56
736.83	243.39
737.16	243.02
737.49	242.71
737.82	242.37
738.15	242.03
738.48	241.70
738.81	241.35
739.14	240.97
739.47	240.68
739.80	240.38
740.13	240.10
740.46	239.65
740.79	239.30
741.12	239.00
741.45	238.60
741.78	238.14
742.11	237.86
742.44	237.55
742.77	237.20
743.10	236.88
743.43	236.56
743.75	236.12
744.08	236.06
744.41	235.69
744.74	235.38
745.07	235.10
745.40	234.87
745.73	234.67
746.06	234.39
746.39	234.05
746.71	233.75
747.04	233.58
747.37	233.37
747.70	233.13
748.03	232.97
748.36	232.82
748.68	232.61
749.01	232.36
749.34	232.16
749.67	232.00
750.00	231.82
750.33	231.69
750.65	231.47
750.98	231.03
751.31	230.89
751.64	230.67
751.97	230.58
752.29	230.27
752.62	229.90
752.95	229.64
753.28	229.56
753.60	229.35
753.93	229.12
754.26	228.93
754.59	228.72
754.91	228.39
755.24	228.17
755.57	227.91
755.90	227.72
756.22	227.50
756.55	227.28
756.88	227.08
757.20	226.75
757.53	226.38
757.86	226.15
758.19	225.96
758.51	225.74
758.84	225.41
759.17	225.33
759.49	225.18
759.82	225.10
760.15	224.83
760.47	224.62
760.80	224.40
761.13	224.26
761.45	224.09
761.78	223.98
762.11	223.82
762.43	223.59
762.76	223.38
763.08	223.25
763.41	223.07
763.74	222.90
764.06	222.81
764.39	222.75
764.71	222.65
765.04	222.49
765.37	222.36
765.69	222.21
766.02	222.01
766.34	221.92
766.67	221.77
767.00	221.73
767.32	221.75
767.65	221.67
767.97	221.54
768.30	221.38
768.62	221.26
768.95	221.13
769.27	221.11
769.60	221.01
769.92	220.90
770.25	220.76
770.57	220.58
770.90	220.46
771.22	220.29
771.55	220.18
771.87	220.10
772.20	219.95
772.52	220.02
772.85	220.09
773.17	219.97
773.50	219.82
773.82	219.64
774.15	219.45
774.47	219.27
774.80	219.12
775.12	219.04
775.45	218.93
775.77	218.82
776.09	218.72
776.42	218.69
776.74	218.60
777.07	218.51
777.39	218.39
777.72	218.19
778.04	218.18
778.36	218.08
778.69	218.01
779.01	218.04
779.33	217.84
779.66	217.58
779.98	217.51
780.31	217.50
780.63	217.54
780.95	217.57
781.28	217.48
781.60	217.41
781.92	217.38
782.25	217.26
782.57	217.20
782.89	217.08
783.22	216.94
783.54	216.86
783.86	216.80
784.19	216.80
784.51	216.90
784.83	216.77
785.16	216.71
785.48	216.57
785.80	216.49
786.12	216.40
786.45	216.45
