SpectraSuite Data File
++++++++++++++++++++++++++++++++++++
Date: Mon Feb 25 17:33:13 EST 2013
User: group
Dark Spectrum Present: No
Reference Spectrum Present: No
Number of Sampled Component Spectra: 1
Spectrometers: USB2E7196
Integration Time (usec): 52000 (USB2E7196)
Spectra Averaged: 20 (USB2E7196)
Boxcar Smoothing: 10 (USB2E7196)
Correct for Electrical Dark: No (USB2E7196)
Strobe/Lamp Enabled: No (USB2E7196)
Correct for Detector Non-linearity: No (USB2E7196)
Correct for Stray Light: No (USB2E7196)
Number of Pixels in Processed Spectrum: 2048
>>>>>Begin Processed Spectral Data<<<<<
339.09	0.00
339.48	198.90
339.86	201.60
340.24	202.80
340.63	204.05
341.01	206.30
341.39	206.35
341.78	208.00
342.16	209.30
342.54	209.50
342.93	198.18
343.31	208.18
343.69	208.68
344.07	209.09
344.46	209.52
344.84	209.84
345.22	210.10
345.60	210.29
345.99	210.40
346.37	210.50
346.75	210.58
347.13	210.64
347.52	210.75
347.90	210.90
348.28	210.99
348.66	211.09
349.05	211.14
349.43	211.25
349.81	211.36
350.19	211.38
350.57	211.45
350.96	211.61
351.34	211.71
351.72	211.88
352.10	211.93
352.48	211.92
352.87	211.97
353.25	211.96
353.63	212.07
354.01	212.13
354.39	212.23
354.77	212.27
355.15	212.40
355.54	212.37
355.92	212.38
356.30	212.40
356.68	212.54
357.06	212.63
357.44	212.68
357.82	212.66
358.20	212.80
358.58	212.83
358.97	212.88
359.35	213.00
359.73	213.06
360.11	213.18
360.49	213.30
360.87	213.36
361.25	213.49
361.63	213.56
362.01	213.65
362.39	213.64
362.77	213.69
363.15	213.67
363.53	213.74
363.91	213.84
364.29	213.92
364.67	213.76
365.05	213.77
365.43	213.90
365.81	213.99
366.19	214.01
366.57	214.10
366.95	214.14
367.33	214.09
367.71	214.08
368.09	214.06
368.47	214.06
368.85	214.03
369.23	214.09
369.61	214.04
369.99	214.11
370.37	214.14
370.75	214.23
371.13	214.24
371.51	214.16
371.89	214.12
372.27	214.11
372.65	214.10
373.03	214.09
373.41	213.96
373.78	213.95
374.16	213.88
374.54	213.82
374.92	213.79
375.30	213.80
375.68	213.73
376.06	213.78
376.44	213.66
376.82	213.67
377.19	213.59
377.57	213.60
377.95	213.49
378.33	213.43
378.71	213.23
379.09	213.22
379.47	213.27
379.84	213.17
380.22	213.08
380.60	212.98
380.98	212.85
381.36	212.81
381.73	212.69
382.11	212.68
382.49	212.60
382.87	212.44
383.25	212.34
383.62	212.50
384.00	212.36
384.38	212.40
384.76	212.39
385.13	212.41
385.51	212.28
385.89	212.18
386.27	212.11
386.64	212.12
387.02	212.00
387.40	211.87
387.78	211.82
388.15	211.75
388.53	211.77
388.91	211.70
389.29	211.66
389.66	211.65
390.04	211.55
390.42	211.50
390.79	211.54
391.17	211.55
391.55	211.32
391.92	211.30
392.30	211.29
392.68	211.25
393.05	211.19
393.43	211.21
393.81	211.25
394.18	211.23
394.56	211.33
394.94	211.43
395.31	211.49
395.69	211.51
396.06	211.58
396.44	211.49
396.82	211.54
397.19	211.61
397.57	211.61
397.95	211.72
398.32	211.76
398.70	211.77
399.07	211.87
399.45	211.94
399.82	211.98
400.20	211.96
400.58	211.97
400.95	211.95
401.33	212.05
401.70	212.20
402.08	212.27
402.45	212.28
402.83	212.41
403.20	212.46
403.58	212.59
403.95	212.71
404.33	212.91
404.71	213.07
405.08	213.28
405.46	213.41
405.83	213.49
406.21	213.62
406.58	213.75
406.96	213.81
407.33	213.94
407.70	214.17
408.08	214.49
408.45	214.80
408.83	215.07
409.20	215.27
409.58	215.40
409.95	215.71
410.33	216.08
410.70	216.27
411.08	216.62
411.45	216.95
411.82	217.29
412.20	217.76
412.57	218.33
412.95	218.71
413.32	219.24
413.69	219.80
414.07	220.38
414.44	221.01
414.82	221.64
415.19	222.40
415.56	223.15
415.94	223.89
416.31	224.69
416.68	225.58
417.06	226.63
417.43	227.65
417.81	228.71
418.18	229.73
418.55	230.89
418.93	232.11
419.30	233.41
419.67	234.82
420.04	236.12
420.42	237.56
420.79	239.28
421.16	240.98
421.54	242.87
421.91	244.67
422.28	246.67
422.66	248.72
423.03	250.75
423.40	252.75
423.77	254.94
424.15	257.23
424.52	259.58
424.89	262.07
425.26	264.56
425.64	266.93
426.01	269.56
426.38	272.30
426.75	275.09
427.13	277.95
427.50	280.88
427.87	283.97
428.24	286.95
428.61	289.82
428.99	293.07
429.36	296.48
429.73	300.02
430.10	303.42
430.47	307.05
430.85	310.68
431.22	314.75
431.59	318.91
431.96	322.73
432.33	327.08
432.70	331.27
433.08	336.23
433.45	340.88
433.82	345.48
434.19	350.54
434.56	355.50
434.93	360.22
435.30	365.00
435.68	370.26
436.05	375.54
436.42	380.71
436.79	385.42
437.16	390.48
437.53	395.80
437.90	401.08
438.27	406.18
438.64	411.55
439.01	416.49
439.38	420.96
439.75	425.21
440.13	429.96
440.50	434.45
440.87	438.00
441.24	441.82
441.61	446.00
441.98	449.04
442.35	452.70
442.72	456.23
443.09	459.89
443.46	462.06
443.83	463.38
444.20	464.62
444.57	466.35
444.94	467.01
445.31	467.69
445.68	468.38
446.05	468.61
446.42	467.95
446.79	467.06
447.16	466.12
447.53	465.55
447.90	463.48
448.27	461.49
448.64	458.62
449.01	456.58
449.37	453.03
449.74	449.63
450.11	445.51
450.48	441.12
450.85	436.34
451.22	432.32
451.59	428.64
451.96	425.05
452.33	420.38
452.70	416.14
453.07	411.00
453.43	405.78
453.80	400.74
454.17	396.03
454.54	391.56
454.91	386.71
455.28	381.98
455.65	377.59
456.02	373.24
456.38	369.56
456.75	364.86
457.12	360.96
457.49	357.07
457.86	353.23
458.23	350.03
458.59	346.61
458.96	343.02
459.33	339.77
459.70	336.48
460.07	333.89
460.43	331.08
460.80	328.49
461.17	326.19
461.54	323.85
461.91	321.42
462.27	319.03
462.64	317.01
463.01	314.94
463.38	312.82
463.74	310.50
464.11	308.57
464.48	306.95
464.85	305.19
465.21	303.83
465.58	302.37
465.95	300.63
466.32	299.16
466.68	297.75
467.05	296.39
467.42	295.02
467.78	293.59
468.15	292.21
468.52	291.13
468.88	289.84
469.25	288.58
469.62	287.67
469.98	286.67
470.35	285.77
470.72	284.81
471.08	283.86
471.45	283.15
471.82	282.38
472.18	281.45
472.55	280.84
472.92	280.12
473.28	279.60
473.65	279.11
474.02	278.50
474.38	278.11
474.75	277.73
475.11	277.42
475.48	277.10
475.85	276.94
476.21	276.77
476.58	276.58
476.94	276.51
477.31	276.43
477.67	276.31
478.04	276.31
478.41	276.49
478.77	276.79
479.14	276.94
479.50	277.26
479.87	277.74
480.23	278.16
480.60	278.50
480.96	278.95
481.33	279.55
481.69	280.23
482.06	280.86
482.42	281.59
482.79	282.38
483.15	283.23
483.52	284.13
483.88	285.08
484.25	286.07
484.61	287.17
484.98	288.34
485.34	289.68
485.71	291.01
486.07	292.30
486.44	293.57
486.80	295.13
487.17	296.74
487.53	298.33
487.90	300.13
488.26	302.09
488.62	304.13
488.99	306.14
489.35	308.36
489.72	310.66
490.08	313.04
490.44	315.38
490.81	318.01
491.17	320.70
491.54	323.61
491.90	326.65
492.26	329.81
492.63	333.05
492.99	336.48
493.36	340.20
493.72	344.07
494.08	348.05
494.45	352.25
494.81	356.67
495.17	361.43
495.54	366.32
495.90	371.41
496.26	376.64
496.63	382.20
496.99	387.93
497.35	393.87
497.72	400.18
498.08	406.68
498.44	413.34
498.80	420.52
499.17	427.93
499.53	435.60
499.89	443.62
500.26	451.94
500.62	460.32
500.98	469.05
501.34	478.03
501.71	487.51
502.07	497.15
502.43	507.11
502.79	517.31
503.16	527.94
503.52	538.89
503.88	550.06
504.24	561.54
504.60	573.41
504.97	585.77
505.33	598.21
505.69	611.62
506.05	625.19
506.41	638.75
506.78	652.42
507.14	666.55
507.50	681.13
507.86	695.98
508.22	711.33
508.59	726.97
508.95	743.02
509.31	759.34
509.67	776.12
510.03	793.02
510.39	810.53
510.75	828.17
511.12	846.23
511.48	864.50
511.84	883.13
512.20	901.78
512.56	921.13
512.92	940.60
513.28	960.17
513.64	979.85
514.00	999.83
514.37	1020.45
514.73	1041.32
515.09	1061.98
515.45	1082.98
515.81	1104.22
516.17	1125.70
516.53	1147.02
516.89	1168.61
517.25	1190.19
517.61	1212.01
517.97	1233.30
518.33	1254.94
518.69	1276.81
519.05	1299.09
519.41	1321.30
519.77	1343.96
520.13	1366.03
520.49	1387.94
520.85	1410.57
521.21	1433.24
521.57	1456.05
521.93	1477.83
522.29	1500.56
522.65	1523.15
523.01	1545.45
523.37	1567.57
523.73	1589.75
524.09	1612.20
524.45	1634.51
524.81	1656.87
525.17	1679.31
525.53	1702.09
525.89	1724.59
526.25	1746.33
526.61	1767.60
526.97	1789.65
527.33	1810.81
527.68	1832.09
528.04	1853.57
528.40	1873.54
528.76	1894.48
529.12	1915.19
529.48	1937.22
529.84	1957.57
530.20	1977.76
530.56	1998.40
530.91	2019.13
531.27	2039.24
531.63	2058.98
531.99	2078.64
532.35	2097.97
532.71	2117.04
533.07	2136.70
533.42	2155.11
533.78	2174.59
534.14	2193.14
534.50	2210.05
534.86	2228.30
535.21	2245.17
535.57	2263.00
535.93	2280.74
536.29	2297.43
536.65	2313.93
537.00	2328.90
537.36	2344.62
537.72	2359.97
538.08	2375.08
538.44	2390.58
538.79	2406.23
539.15	2421.37
539.51	2436.23
539.87	2451.03
540.22	2465.46
540.58	2480.25
540.94	2494.76
541.29	2507.15
541.65	2519.60
542.01	2532.85
542.37	2544.73
542.72	2557.32
543.08	2568.25
543.44	2580.03
543.79	2590.37
544.15	2600.89
544.51	2612.15
544.87	2623.02
545.22	2632.29
545.58	2641.04
545.94	2648.26
546.29	2654.64
546.65	2660.73
547.01	2666.88
547.36	2672.86
547.72	2678.47
548.07	2681.76
548.43	2685.55
548.79	2689.66
549.14	2694.35
549.50	2698.75
549.86	2702.59
550.21	2706.41
550.57	2710.40
550.92	2712.95
551.28	2715.57
551.64	2717.99
551.99	2720.51
552.35	2721.81
552.70	2724.64
553.06	2727.41
553.41	2730.20
553.77	2733.07
554.13	2735.49
554.48	2737.63
554.84	2738.99
555.19	2739.51
555.55	2740.71
555.90	2741.09
556.26	2741.79
556.61	2741.98
556.97	2740.60
557.32	2740.31
557.68	2738.72
558.03	2737.35
558.39	2735.76
558.74	2735.53
559.10	2734.42
559.45	2732.48
559.81	2731.26
560.16	2728.50
560.52	2725.87
560.87	2722.86
561.23	2719.22
561.58	2716.70
561.94	2713.51
562.29	2710.21
562.64	2708.05
563.00	2705.64
563.35	2703.57
563.71	2701.50
564.06	2698.85
564.42	2697.06
564.77	2694.79
565.12	2692.78
565.48	2689.60
565.83	2686.77
566.19	2683.48
566.54	2679.15
566.89	2675.23
567.25	2671.56
567.60	2668.38
567.96	2665.02
568.31	2661.72
568.66	2658.12
569.02	2653.93
569.37	2648.86
569.72	2644.59
570.08	2639.04
570.43	2633.04
570.78	2627.35
571.14	2621.08
571.49	2614.47
571.84	2608.54
572.20	2601.28
572.55	2595.05
572.90	2588.64
573.26	2581.76
573.61	2574.49
573.96	2568.11
574.31	2560.36
574.67	2552.26
575.02	2544.04
575.37	2535.19
575.72	2525.84
576.08	2517.95
576.43	2509.13
576.78	2501.15
577.13	2493.44
577.49	2485.45
577.84	2477.76
578.19	2470.06
578.54	2462.79
578.90	2456.00
579.25	2447.45
579.60	2438.60
579.95	2429.15
580.30	2421.06
580.66	2412.86
581.01	2403.75
581.36	2394.46
581.71	2386.01
582.06	2377.77
582.42	2369.23
582.77	2360.22
583.12	2351.70
583.47	2343.21
583.82	2334.65
584.17	2325.50
584.53	2316.13
584.88	2307.16
585.23	2297.94
585.58	2288.51
585.93	2278.87
586.28	2269.66
586.63	2260.69
586.98	2252.29
587.34	2243.98
587.69	2234.49
588.04	2225.33
588.39	2217.19
588.74	2208.40
589.09	2199.57
589.44	2189.70
589.79	2181.29
590.14	2173.57
590.49	2164.97
590.84	2155.63
591.19	2147.87
591.54	2138.97
591.89	2128.93
592.25	2119.98
592.60	2110.67
592.95	2101.10
593.30	2091.31
593.65	2081.09
594.00	2071.26
594.35	2062.91
594.70	2053.66
595.05	2045.04
595.40	2036.26
595.75	2026.57
596.10	2018.05
596.45	2009.43
596.80	2002.08
597.15	1993.70
597.50	1984.35
597.85	1976.00
598.19	1967.30
598.54	1958.65
598.89	1950.92
599.24	1944.10
599.59	1936.75
599.94	1929.62
600.29	1922.04
600.64	1914.27
600.99	1905.89
601.34	1898.82
601.69	1890.20
602.04	1881.94
602.39	1873.88
602.74	1865.92
603.08	1859.34
603.43	1852.22
603.78	1844.55
604.13	1835.99
604.48	1828.09
604.83	1820.93
605.18	1813.94
605.53	1806.81
605.87	1798.98
606.22	1791.80
606.57	1783.94
606.92	1775.71
607.27	1767.55
607.62	1760.20
607.96	1753.39
608.31	1747.45
608.66	1739.60
609.01	1732.00
609.36	1724.29
609.70	1716.43
610.05	1708.57
610.40	1699.90
610.75	1691.13
611.10	1683.28
611.44	1674.09
611.79	1665.18
612.14	1655.93
612.49	1646.43
612.83	1637.22
613.18	1627.53
613.53	1617.99
613.88	1608.14
614.22	1599.14
614.57	1590.00
614.92	1580.60
615.27	1571.07
615.61	1561.10
615.96	1552.18
616.31	1543.68
616.65	1535.99
617.00	1527.41
617.35	1518.95
617.70	1510.28
618.04	1501.39
618.39	1491.88
618.74	1483.82
619.08	1475.12
619.43	1466.88
619.78	1459.06
620.12	1450.98
620.47	1443.30
620.82	1434.81
621.16	1426.60
621.51	1418.16
621.85	1409.78
622.20	1401.22
622.55	1392.80
622.89	1384.77
623.24	1376.87
623.59	1368.08
623.93	1359.16
624.28	1350.82
624.62	1342.43
624.97	1334.13
625.32	1326.44
625.66	1319.23
626.01	1311.91
626.35	1304.73
626.70	1297.05
627.04	1289.43
627.39	1281.75
627.73	1274.02
628.08	1266.80
628.43	1259.53
628.77	1252.03
629.12	1244.51
629.46	1238.16
629.81	1231.14
630.15	1223.80
630.50	1216.14
630.84	1209.01
631.19	1201.96
631.53	1195.13
631.88	1187.76
632.22	1180.24
632.57	1173.25
632.91	1165.70
633.26	1157.84
633.60	1150.47
633.95	1143.66
634.29	1136.36
634.64	1129.89
634.98	1122.98
635.32	1116.25
635.67	1109.72
636.01	1103.21
636.36	1096.63
636.70	1089.70
637.05	1082.81
637.39	1076.54
637.73	1070.13
638.08	1064.38
638.42	1058.45
638.77	1052.01
639.11	1045.72
639.45	1039.84
639.80	1033.10
640.14	1026.76
640.49	1020.91
640.83	1014.68
641.17	1008.25
641.52	1002.06
641.86	995.47
642.20	989.29
642.55	982.60
642.89	976.09
643.23	969.69
643.58	963.66
643.92	957.00
644.26	950.96
644.61	944.95
644.95	938.98
645.29	932.50
645.64	926.00
645.98	919.88
646.32	913.95
646.66	907.80
647.01	901.89
647.35	896.01
647.69	889.83
648.04	883.95
648.38	877.97
648.72	871.80
649.06	865.71
649.41	859.70
649.75	854.00
650.09	848.23
650.43	842.42
650.78	836.38
651.12	830.50
651.46	824.66
651.80	818.50
652.14	812.65
652.49	806.65
652.83	800.68
653.17	794.48
653.51	788.74
653.85	782.90
654.20	777.24
654.54	771.50
654.88	766.03
655.22	760.21
655.56	754.39
655.90	748.51
656.25	742.81
656.59	737.24
656.93	731.89
657.27	726.70
657.61	721.02
657.95	715.73
658.29	710.58
658.64	705.45
658.98	700.25
659.32	694.73
659.66	689.64
660.00	684.38
660.34	679.34
660.68	674.08
661.02	669.27
661.36	664.47
661.70	659.72
662.05	655.06
662.39	650.59
662.73	646.23
663.07	642.04
663.41	637.79
663.75	633.19
664.09	628.73
664.43	624.00
664.77	619.75
665.11	615.37
665.45	611.03
665.79	606.73
666.13	602.43
666.47	598.29
666.81	594.12
667.15	590.11
667.49	586.21
667.83	582.27
668.17	578.22
668.51	574.34
668.85	570.58
669.19	566.56
669.53	562.56
669.87	558.62
670.21	554.76
670.55	550.74
670.89	547.36
671.23	543.69
671.57	540.30
671.91	536.83
672.25	533.29
672.58	529.80
672.92	526.19
673.26	523.03
673.60	519.78
673.94	516.39
674.28	513.09
674.62	509.94
674.96	506.73
675.30	503.70
675.64	500.45
675.97	497.15
676.31	494.17
676.65	491.34
676.99	488.58
677.33	485.63
677.67	482.75
678.01	479.59
678.34	476.69
678.68	473.66
679.02	470.67
679.36	467.95
679.70	465.15
680.04	462.35
680.37	459.17
680.71	456.32
681.05	453.69
681.39	451.05
681.73	448.39
682.06	445.82
682.40	443.15
682.74	440.60
683.08	438.03
683.42	435.31
683.75	432.75
684.09	430.03
684.43	427.61
684.77	425.10
685.10	422.68
685.44	420.18
685.78	417.80
686.12	415.44
686.45	413.04
686.79	410.77
687.13	408.65
687.46	406.64
687.80	404.55
688.14	402.31
688.48	400.15
688.81	397.89
689.15	395.60
689.49	393.37
689.82	391.08
690.16	388.76
690.50	386.49
690.83	384.18
691.17	382.00
691.51	379.81
691.84	377.71
692.18	375.62
692.52	373.70
692.85	371.90
693.19	369.95
693.52	367.90
693.86	365.83
694.20	363.88
694.53	361.90
694.87	359.96
695.21	357.99
695.54	356.00
695.88	354.10
696.21	352.19
696.55	350.45
696.88	348.80
697.22	347.09
697.56	345.66
697.89	344.08
698.23	342.39
698.56	340.75
698.90	339.33
699.23	337.77
699.57	336.07
699.90	334.27
700.24	332.69
700.58	331.15
700.91	329.79
701.25	328.38
701.58	326.99
701.92	325.42
702.25	324.05
702.59	322.72
702.92	321.45
703.26	320.16
703.59	318.89
703.93	317.79
704.26	316.53
704.60	315.19
704.93	313.83
705.26	312.53
705.60	311.34
705.93	309.90
706.27	308.75
706.60	307.72
706.94	306.73
707.27	305.57
707.61	304.43
707.94	303.08
708.27	301.89
708.61	300.67
708.94	299.66
709.28	298.50
709.61	297.31
709.94	296.15
710.28	295.07
710.61	293.91
710.95	292.55
711.28	291.59
711.61	290.50
711.95	289.50
712.28	288.68
712.61	287.72
712.95	286.86
713.28	285.90
713.61	284.86
713.95	283.88
714.28	282.99
714.61	282.05
714.95	281.20
715.28	280.28
715.61	279.36
715.95	278.48
716.28	277.70
716.61	276.90
716.95	276.06
717.28	275.26
717.61	274.40
717.94	273.67
718.28	272.80
718.61	272.08
718.94	271.36
719.27	270.52
719.61	269.69
719.94	268.98
720.27	268.16
720.60	267.45
720.94	266.64
721.27	265.91
721.60	265.38
721.93	264.83
722.27	264.32
722.60	263.77
722.93	263.14
723.26	262.55
723.59	261.97
723.93	261.28
724.26	260.70
724.59	260.23
724.92	259.69
725.25	259.22
725.59	258.67
725.92	258.07
726.25	257.61
726.58	257.15
726.91	256.62
727.24	256.19
727.57	255.75
727.91	255.35
728.24	254.94
728.57	254.45
728.90	253.91
729.23	253.25
729.56	252.84
729.89	252.40
730.22	251.90
730.55	251.44
730.89	251.08
731.22	250.63
731.55	250.11
731.88	249.66
732.21	249.19
732.54	248.70
732.87	248.33
733.20	247.83
733.53	247.36
733.86	246.84
734.19	246.35
734.52	245.90
734.85	245.55
735.18	245.07
735.51	244.60
735.84	244.32
736.17	244.02
736.50	243.55
736.83	243.40
737.16	242.99
737.49	242.57
737.82	242.14
738.15	241.73
738.48	241.43
738.81	241.06
739.14	240.65
739.47	240.30
739.80	239.88
740.13	239.58
740.46	239.21
740.79	238.96
741.12	238.64
741.45	238.24
741.78	237.82
742.11	237.60
742.44	237.28
742.77	236.91
743.10	236.59
743.43	236.25
743.75	235.68
744.08	235.60
744.41	235.29
744.74	235.07
745.07	234.82
745.40	234.55
745.73	234.43
746.06	234.14
746.39	233.89
746.71	233.65
747.04	233.41
747.37	233.20
747.70	232.93
748.03	232.65
748.36	232.48
748.68	232.23
749.01	231.90
749.34	231.61
749.67	231.34
750.00	231.06
750.33	230.89
750.65	230.63
750.98	230.19
751.31	230.01
751.64	229.78
751.97	229.64
752.29	229.40
752.62	229.00
752.95	228.79
753.28	228.51
753.60	228.33
753.93	228.12
754.26	227.84
754.59	227.62
754.91	227.37
755.24	227.15
755.57	226.97
755.90	226.80
756.22	226.63
756.55	226.43
756.88	226.22
757.20	225.90
757.53	225.70
757.86	225.56
758.19	225.40
758.51	225.19
758.84	225.00
759.17	224.78
759.49	224.60
759.82	224.52
760.15	224.41
760.47	224.22
760.80	224.00
761.13	223.94
761.45	223.73
761.78	223.60
762.11	223.38
762.43	223.24
762.76	223.10
763.08	222.99
763.41	222.87
763.74	222.72
764.06	222.67
764.39	222.55
764.71	222.35
765.04	222.15
765.37	222.02
765.69	221.85
766.02	221.70
766.34	221.61
766.67	221.46
767.00	221.36
767.32	221.31
767.65	221.26
767.97	221.07
768.30	220.97
768.62	220.89
768.95	220.77
769.27	220.58
769.60	220.42
769.92	220.28
770.25	220.15
770.57	220.07
770.90	219.92
771.22	219.91
771.55	219.81
771.87	219.72
772.20	219.60
772.52	219.63
772.85	219.80
773.17	219.67
773.50	219.49
773.82	219.33
774.15	219.19
774.47	219.00
774.80	218.95
775.12	218.95
775.45	218.83
775.77	218.80
776.09	218.72
776.42	218.71
776.74	218.67
777.07	218.54
777.39	218.46
777.72	218.45
778.04	218.29
778.36	218.20
778.69	218.11
779.01	218.16
779.33	217.95
779.66	217.63
779.98	217.57
780.31	217.57
780.63	217.64
780.95	217.60
781.28	217.55
781.60	217.45
781.92	217.37
782.25	217.33
782.57	217.25
782.89	217.26
783.22	217.20
783.54	217.08
783.86	217.01
784.19	216.93
784.51	216.84
784.83	216.78
785.16	216.75
785.48	216.71
785.80	216.55
786.12	216.54
786.45	216.55
