SpectraSuite Data File
++++++++++++++++++++++++++++++++++++
Date: Mon Feb 25 17:30:40 EST 2013
User: group
Dark Spectrum Present: No
Reference Spectrum Present: No
Number of Sampled Component Spectra: 1
Spectrometers: USB2E7196
Integration Time (usec): 52000 (USB2E7196)
Spectra Averaged: 20 (USB2E7196)
Boxcar Smoothing: 10 (USB2E7196)
Correct for Electrical Dark: No (USB2E7196)
Strobe/Lamp Enabled: No (USB2E7196)
Correct for Detector Non-linearity: No (USB2E7196)
Correct for Stray Light: No (USB2E7196)
Number of Pixels in Processed Spectrum: 2048
>>>>>Begin Processed Spectral Data<<<<<
339.09	0.00
339.48	198.75
339.86	199.60
340.24	201.65
340.63	202.80
341.01	207.45
341.39	206.15
341.78	207.05
342.16	208.05
342.54	208.05
342.93	197.65
343.31	207.64
343.69	208.15
344.07	208.62
344.46	209.03
344.84	209.44
345.22	209.55
345.60	209.74
345.99	209.93
346.37	210.14
346.75	210.25
347.13	210.33
347.52	210.38
347.90	210.54
348.28	210.55
348.66	210.60
349.05	210.61
349.43	210.75
349.81	210.83
350.19	210.91
350.57	211.04
350.96	211.21
351.34	211.30
351.72	211.45
352.10	211.59
352.48	211.71
352.87	211.74
353.25	211.89
353.63	211.98
354.01	212.04
354.39	212.08
354.77	212.19
355.15	212.40
355.54	212.50
355.92	212.46
356.30	212.56
356.68	212.76
357.06	212.84
357.44	212.89
357.82	212.93
358.20	213.02
358.58	213.06
358.97	213.18
359.35	213.36
359.73	213.48
360.11	213.52
360.49	213.60
360.87	213.70
361.25	213.75
361.63	213.95
362.01	214.10
362.39	214.18
362.77	214.26
363.15	214.28
363.53	214.29
363.91	214.37
364.29	214.42
364.67	214.32
365.05	214.36
365.43	214.46
365.81	214.51
366.19	214.61
366.57	214.73
366.95	214.69
367.33	214.59
367.71	214.52
368.09	214.60
368.47	214.61
368.85	214.60
369.23	214.70
369.61	214.57
369.99	214.54
370.37	214.50
370.75	214.60
371.13	214.53
371.51	214.52
371.89	214.56
372.27	214.56
372.65	214.54
373.03	214.53
373.41	214.40
373.78	214.40
374.16	214.26
374.54	214.18
374.92	214.16
375.30	214.21
375.68	214.19
376.06	214.13
376.44	214.05
376.82	214.04
377.19	213.93
377.57	213.88
377.95	213.85
378.33	213.74
378.71	213.48
379.09	213.50
379.47	213.44
379.84	213.32
380.22	213.21
380.60	213.13
380.98	213.05
381.36	213.02
381.73	212.95
382.11	212.93
382.49	212.95
382.87	212.88
383.25	212.83
383.62	213.00
384.00	212.91
384.38	212.86
384.76	212.82
385.13	212.86
385.51	212.85
385.89	212.67
386.27	212.65
386.64	212.76
387.02	212.66
387.40	212.59
387.78	212.56
388.15	212.63
388.53	212.51
388.91	212.49
389.29	212.37
389.66	212.41
390.04	212.39
390.42	212.25
390.79	212.28
391.17	212.15
391.55	211.81
391.92	211.77
392.30	211.76
392.68	211.65
393.05	211.61
393.43	211.55
393.81	211.60
394.18	211.55
394.56	211.52
394.94	211.54
395.31	211.51
395.69	211.60
396.06	211.57
396.44	211.60
396.82	211.60
397.19	211.71
397.57	211.65
397.95	211.72
398.32	211.78
398.70	211.78
399.07	211.90
399.45	211.96
399.82	212.07
400.20	212.09
400.58	212.13
400.95	212.06
401.33	212.20
401.70	212.42
402.08	212.52
402.45	212.60
402.83	212.73
403.20	212.84
403.58	212.86
403.95	212.95
404.33	213.15
404.71	213.22
405.08	213.45
405.46	213.55
405.83	213.68
406.21	213.79
406.58	213.99
406.96	214.11
407.33	214.35
407.70	214.54
408.08	214.88
408.45	215.15
408.83	215.43
409.20	215.62
409.58	215.75
409.95	216.08
410.33	216.30
410.70	216.49
411.08	216.79
411.45	217.19
411.82	217.45
412.20	217.89
412.57	218.42
412.95	218.74
413.32	219.24
413.69	219.70
414.07	220.24
414.44	220.75
414.82	221.37
415.19	222.00
415.56	222.71
415.94	223.34
416.31	224.19
416.68	224.98
417.06	225.95
417.43	226.92
417.81	227.99
418.18	229.07
418.55	230.25
418.93	231.49
419.30	232.69
419.67	234.15
420.04	235.41
420.42	236.79
420.79	238.52
421.16	240.20
421.54	241.97
421.91	243.73
422.28	245.70
422.66	247.67
423.03	249.67
423.40	251.66
423.77	253.89
424.15	256.06
424.52	258.35
424.89	260.81
425.26	263.16
425.64	265.30
426.01	267.86
426.38	270.59
426.75	273.33
427.13	276.12
427.50	278.96
427.87	282.08
428.24	285.15
428.61	287.90
428.99	291.05
429.36	294.49
429.73	297.94
430.10	301.25
430.47	304.70
430.85	308.31
431.22	312.06
431.59	316.14
431.96	320.00
432.33	324.20
432.70	328.21
433.08	332.96
433.45	337.62
433.82	342.12
434.19	346.96
434.56	351.79
434.93	356.38
435.30	361.06
435.68	366.15
436.05	371.15
436.42	376.26
436.79	380.88
437.16	385.75
437.53	390.97
437.90	396.17
438.27	401.30
438.64	406.58
439.01	411.50
439.38	415.63
439.75	419.80
440.13	424.46
440.50	428.97
440.87	432.55
441.24	436.24
441.61	440.34
441.98	443.42
442.35	446.86
442.72	450.44
443.09	453.82
443.46	455.76
443.83	457.15
444.20	458.35
444.57	460.16
444.94	460.92
445.31	461.75
445.68	462.42
446.05	462.70
446.42	461.99
446.79	461.24
447.16	460.34
447.53	459.71
447.90	457.82
448.27	455.81
448.64	452.93
449.01	450.88
449.37	447.38
449.74	443.97
450.11	440.06
450.48	435.65
450.85	431.20
451.22	427.32
451.59	423.65
451.96	420.15
452.33	415.43
452.70	411.32
453.07	406.34
453.43	401.20
453.80	396.33
454.17	391.61
454.54	387.10
454.91	382.48
455.28	377.83
455.65	373.55
456.02	369.31
456.38	365.79
456.75	361.30
457.12	357.54
457.49	353.79
457.86	350.13
458.23	347.05
458.59	343.65
458.96	340.30
459.33	337.23
459.70	334.11
460.07	331.62
460.43	328.71
460.80	326.01
461.17	323.75
461.54	321.18
461.91	318.97
462.27	316.75
462.64	314.91
463.01	312.76
463.38	310.61
463.74	308.47
464.11	306.62
464.48	304.97
464.85	303.24
465.21	301.89
465.58	300.46
465.95	298.80
466.32	297.48
466.68	296.13
467.05	294.80
467.42	293.48
467.78	292.13
468.15	290.84
468.52	289.92
468.88	288.63
469.25	287.57
469.62	286.68
469.98	285.68
470.35	284.70
470.72	283.84
471.08	282.96
471.45	282.20
471.82	281.52
472.18	280.74
472.55	280.10
472.92	279.53
473.28	278.89
473.65	278.44
474.02	277.84
474.38	277.45
474.75	277.09
475.11	276.70
475.48	276.54
475.85	276.35
476.21	276.10
476.58	276.00
476.94	276.06
477.31	276.00
477.67	275.96
478.04	275.96
478.41	276.17
478.77	276.49
479.14	276.61
479.50	276.85
479.87	277.15
480.23	277.70
480.60	278.01
480.96	278.49
481.33	278.99
481.69	279.61
482.06	280.29
482.42	280.97
482.79	281.75
483.15	282.60
483.52	283.60
483.88	284.52
484.25	285.55
484.61	286.56
484.98	287.65
485.34	288.92
485.71	290.34
486.07	291.73
486.44	293.07
486.80	294.72
487.17	296.33
487.53	298.12
487.90	299.84
488.26	301.85
488.62	303.91
488.99	305.96
489.35	308.06
489.72	310.29
490.08	312.63
490.44	315.11
490.81	317.66
491.17	320.27
491.54	323.08
491.90	325.97
492.26	329.14
492.63	332.40
492.99	335.92
493.36	339.56
493.72	343.43
494.08	347.43
494.45	351.59
494.81	356.03
495.17	360.54
495.54	365.41
495.90	370.32
496.26	375.54
496.63	381.04
496.99	386.70
497.35	392.63
497.72	398.87
498.08	405.33
498.44	411.90
498.80	419.11
499.17	426.51
499.53	434.24
499.89	442.15
500.26	450.40
500.62	458.65
500.98	467.45
501.34	476.54
501.71	485.92
502.07	495.56
502.43	505.38
502.79	515.55
503.16	526.09
503.52	536.99
503.88	548.09
504.24	559.55
504.60	571.35
504.97	583.61
505.33	596.16
505.69	609.26
506.05	622.80
506.41	636.10
506.78	649.95
507.14	664.02
507.50	678.56
507.86	693.36
508.22	708.54
508.59	723.78
508.95	739.61
509.31	755.68
509.67	772.12
510.03	788.95
510.39	806.48
510.75	823.86
511.12	841.63
511.48	859.62
511.84	878.18
512.20	896.57
512.56	915.42
512.92	934.49
513.28	953.65
513.64	973.00
514.00	992.77
514.37	1012.79
514.73	1033.08
515.09	1053.35
515.45	1073.74
515.81	1094.64
516.17	1115.51
516.53	1136.47
516.89	1157.69
517.25	1178.88
517.61	1200.28
517.97	1221.42
518.33	1242.79
518.69	1264.10
519.05	1286.05
519.41	1307.55
519.77	1330.08
520.13	1351.93
520.49	1373.60
520.85	1395.95
521.21	1418.35
521.57	1440.96
521.93	1462.19
522.29	1484.80
522.65	1507.02
523.01	1529.47
523.37	1551.20
523.73	1573.09
524.09	1594.75
524.45	1616.58
524.81	1638.55
525.17	1660.32
525.53	1682.31
525.89	1704.44
526.25	1726.17
526.61	1746.82
526.97	1768.39
527.33	1788.92
527.68	1809.94
528.04	1830.87
528.40	1850.71
528.76	1870.74
529.12	1890.62
529.48	1912.01
529.84	1931.74
530.20	1951.55
530.56	1971.12
530.91	1991.30
531.27	2011.29
531.63	2030.97
531.99	2050.29
532.35	2069.11
532.71	2087.82
533.07	2106.84
533.42	2124.59
533.78	2142.85
534.14	2161.03
534.50	2177.30
534.86	2194.76
535.21	2211.00
535.57	2228.53
535.93	2245.43
536.29	2261.80
536.65	2278.10
537.00	2293.06
537.36	2307.67
537.72	2322.36
538.08	2337.16
538.44	2352.09
538.79	2366.91
539.15	2381.07
539.51	2395.11
539.87	2409.68
540.22	2423.68
540.58	2437.84
540.94	2451.80
541.29	2464.51
541.65	2476.18
542.01	2489.34
542.37	2500.81
542.72	2512.86
543.08	2523.07
543.44	2534.22
543.79	2543.92
544.15	2553.77
544.51	2564.42
544.87	2575.10
545.22	2583.93
545.58	2592.24
545.94	2599.06
546.29	2604.95
546.65	2610.67
547.01	2616.36
547.36	2621.51
547.72	2626.62
548.07	2630.11
548.43	2633.61
548.79	2636.58
549.14	2640.87
549.50	2644.62
549.86	2648.39
550.21	2651.57
550.57	2655.09
550.92	2657.36
551.28	2659.99
551.64	2662.27
551.99	2664.45
552.35	2665.67
552.70	2667.94
553.06	2670.23
553.41	2672.67
553.77	2675.41
554.13	2677.85
554.48	2679.64
554.84	2680.97
555.19	2681.08
555.55	2681.13
555.90	2681.29
556.26	2681.86
556.61	2681.40
556.97	2679.82
557.32	2678.87
557.68	2677.35
558.03	2675.64
558.39	2674.11
558.74	2673.08
559.10	2671.39
559.45	2668.78
559.81	2667.27
560.16	2664.97
560.52	2662.28
560.87	2659.38
561.23	2655.50
561.58	2652.83
561.94	2649.56
562.29	2645.23
562.64	2642.80
563.00	2640.43
563.35	2637.94
563.71	2635.97
564.06	2633.82
564.42	2632.00
564.77	2629.52
565.12	2627.50
565.48	2624.33
565.83	2621.11
566.19	2618.15
566.54	2614.04
566.89	2610.41
567.25	2606.66
567.60	2602.80
567.96	2599.10
568.31	2595.23
568.66	2591.42
569.02	2586.66
569.37	2581.44
569.72	2577.82
570.08	2572.49
570.43	2566.69
570.78	2561.05
571.14	2554.55
571.49	2548.00
571.84	2541.76
572.20	2535.00
572.55	2528.53
572.90	2522.00
573.26	2514.89
573.61	2507.48
573.96	2501.01
574.31	2493.46
574.67	2485.56
575.02	2477.44
575.37	2468.95
575.72	2460.21
576.08	2452.69
576.43	2444.48
576.78	2436.92
577.13	2429.03
577.49	2421.36
577.84	2413.92
578.19	2406.69
578.54	2399.79
578.90	2392.85
579.25	2384.70
579.60	2375.97
579.95	2366.70
580.30	2358.81
580.66	2351.04
581.01	2342.52
581.36	2333.40
581.71	2325.24
582.06	2316.73
582.42	2308.79
582.77	2300.11
583.12	2291.34
583.47	2282.98
583.82	2274.83
584.17	2265.85
584.53	2257.20
584.88	2248.49
585.23	2239.43
585.58	2229.81
585.93	2220.17
586.28	2211.36
586.63	2202.91
586.98	2194.50
587.34	2186.62
587.69	2177.46
588.04	2168.64
588.39	2160.38
588.74	2151.27
589.09	2142.58
589.44	2133.48
589.79	2124.93
590.14	2117.07
590.49	2109.31
590.84	2100.52
591.19	2092.52
591.54	2084.18
591.89	2074.26
592.25	2065.26
592.60	2056.21
592.95	2047.16
593.30	2038.18
593.65	2028.34
594.00	2018.81
594.35	2010.95
594.70	2001.81
595.05	1993.61
595.40	1985.14
595.75	1975.75
596.10	1968.26
596.45	1960.15
596.80	1952.45
597.15	1944.43
597.50	1935.70
597.85	1927.14
598.19	1918.54
598.54	1910.04
598.89	1902.68
599.24	1896.04
599.59	1888.91
599.94	1882.14
600.29	1874.82
600.64	1867.08
600.99	1859.64
601.34	1852.74
601.69	1844.42
602.04	1836.80
602.39	1829.15
602.74	1821.52
603.08	1815.20
603.43	1808.36
603.78	1800.60
604.13	1792.79
604.48	1785.20
604.83	1778.59
605.18	1772.25
605.53	1764.89
605.87	1757.48
606.22	1750.27
606.57	1742.90
606.92	1735.15
607.27	1727.32
607.62	1720.19
607.96	1713.65
608.31	1707.27
608.66	1699.68
609.01	1692.20
609.36	1684.65
609.70	1676.66
610.05	1669.08
610.40	1661.16
610.75	1652.69
611.10	1645.06
611.44	1636.60
611.79	1627.85
612.14	1618.66
612.49	1609.06
612.83	1600.52
613.18	1591.17
613.53	1581.81
613.88	1572.08
614.22	1563.31
614.57	1554.27
614.92	1545.36
615.27	1536.22
615.61	1526.58
615.96	1517.62
616.31	1509.37
616.65	1501.59
617.00	1493.63
617.35	1485.11
617.70	1476.51
618.04	1467.61
618.39	1458.73
618.74	1450.74
619.08	1442.43
619.43	1434.35
619.78	1426.96
620.12	1419.24
620.47	1411.71
620.82	1403.75
621.16	1396.05
621.51	1387.79
621.85	1379.85
622.20	1371.55
622.55	1363.42
622.89	1355.62
623.24	1347.95
623.59	1339.58
623.93	1331.04
624.28	1322.95
624.62	1315.22
624.97	1307.24
625.32	1299.61
625.66	1292.26
626.01	1284.90
626.35	1277.67
626.70	1270.25
627.04	1262.85
627.39	1255.48
627.73	1248.18
628.08	1241.39
628.43	1234.16
628.77	1227.07
629.12	1219.80
629.46	1213.17
629.81	1205.97
630.15	1198.66
630.50	1191.42
630.84	1184.39
631.19	1177.50
631.53	1170.53
631.88	1163.05
632.22	1155.61
632.57	1148.91
632.91	1141.78
633.26	1134.50
633.60	1127.48
633.95	1121.03
634.29	1113.75
634.64	1107.17
634.98	1100.13
635.32	1093.07
635.67	1086.77
636.01	1080.22
636.36	1073.67
636.70	1067.18
637.05	1060.94
637.39	1054.86
637.73	1048.73
638.08	1043.08
638.42	1037.38
638.77	1031.29
639.11	1025.23
639.45	1019.40
639.80	1013.13
640.14	1006.73
640.49	1000.76
640.83	994.94
641.17	988.41
641.52	982.55
641.86	976.26
642.20	970.42
642.55	963.91
642.89	957.51
643.23	951.36
643.58	945.43
643.92	939.07
644.26	932.76
644.61	926.75
644.95	920.90
645.29	914.59
645.64	907.91
645.98	901.76
646.32	896.05
646.66	889.99
647.01	884.15
647.35	878.59
647.69	872.31
648.04	866.20
648.38	860.47
648.72	854.55
649.06	848.43
649.41	842.54
649.75	836.98
650.09	831.35
650.43	825.58
650.78	819.73
651.12	813.75
651.46	808.17
651.80	802.33
652.14	796.51
652.49	790.75
652.83	785.30
653.17	779.41
653.51	773.66
653.85	768.05
654.20	762.36
654.54	756.53
654.88	751.20
655.22	745.66
655.56	739.95
655.90	734.07
656.25	728.72
656.59	723.37
656.93	718.27
657.27	713.13
657.61	707.69
657.95	702.70
658.29	697.75
658.64	692.74
658.98	687.71
659.32	682.46
659.66	677.45
660.00	672.24
660.34	667.25
660.68	662.13
661.02	657.23
661.36	652.57
661.70	648.05
662.05	643.43
662.39	639.00
662.73	634.71
663.07	630.76
663.41	626.53
663.75	622.09
664.09	617.51
664.43	612.92
664.77	608.72
665.11	604.24
665.45	600.01
665.79	595.70
666.13	591.48
666.47	587.32
666.81	583.24
667.15	579.27
667.49	575.44
667.83	571.85
668.17	568.04
668.51	564.30
668.85	560.60
669.19	556.99
669.53	553.15
669.87	549.30
670.21	545.51
670.55	541.55
670.89	538.21
671.23	534.76
671.57	531.50
671.91	528.16
672.25	524.75
672.58	521.32
672.92	518.05
673.26	514.98
673.60	511.81
673.94	508.48
674.28	505.30
674.62	502.11
674.96	498.81
675.30	495.73
675.64	492.60
675.97	489.42
676.31	486.47
676.65	483.64
676.99	480.91
677.33	477.96
677.67	475.20
678.01	472.17
678.34	469.41
678.68	466.52
679.02	463.44
679.36	460.77
679.70	457.98
680.04	455.05
680.37	452.10
680.71	449.44
681.05	446.86
681.39	444.26
681.73	441.74
682.06	439.38
682.40	437.09
682.74	434.54
683.08	432.03
683.42	429.35
683.75	426.85
684.09	424.42
684.43	422.01
684.77	419.51
685.10	417.00
685.44	414.42
685.78	412.07
686.12	410.04
686.45	407.69
686.79	405.53
687.13	403.58
687.46	401.45
687.80	399.31
688.14	397.14
688.48	395.02
688.81	392.88
689.15	390.56
689.49	388.19
689.82	386.05
690.16	383.75
690.50	381.62
690.83	379.45
691.17	377.10
691.51	374.94
691.84	372.90
692.18	370.87
692.52	369.10
692.85	367.27
693.19	365.32
693.52	363.41
693.86	361.45
694.20	359.55
694.53	357.72
694.87	355.81
695.21	354.00
695.54	352.10
695.88	350.21
696.21	348.43
696.55	346.78
696.88	344.97
697.22	343.45
697.56	341.95
697.89	340.28
698.23	338.72
698.56	337.14
698.90	335.60
699.23	334.10
699.57	332.51
699.90	330.87
700.24	329.37
700.58	327.78
700.91	326.30
701.25	324.86
701.58	323.47
701.92	322.01
702.25	320.62
702.59	319.30
702.92	318.10
703.26	316.82
703.59	315.54
703.93	314.56
704.26	313.28
704.60	312.03
704.93	310.87
705.26	309.69
705.60	308.50
705.93	307.35
706.27	306.16
706.60	305.04
706.94	303.99
707.27	302.70
707.61	301.65
707.94	300.54
708.27	299.27
708.61	298.17
708.94	297.14
709.28	296.01
709.61	294.93
709.94	293.85
710.28	292.76
710.61	291.69
710.95	290.45
711.28	289.56
711.61	288.53
711.95	287.58
712.28	286.65
712.61	285.74
712.95	284.85
713.28	283.98
713.61	283.03
713.95	282.02
714.28	281.23
714.61	280.32
714.95	279.51
715.28	278.72
715.61	277.83
715.95	276.98
716.28	276.18
716.61	275.32
716.95	274.42
717.28	273.63
717.61	272.81
717.94	272.06
718.28	271.20
718.61	270.50
718.94	269.71
719.27	268.97
719.61	268.26
719.94	267.60
720.27	266.90
720.60	266.18
720.94	265.45
721.27	264.81
721.60	264.17
721.93	263.53
722.27	263.03
722.60	262.48
722.93	261.89
723.26	261.29
723.59	260.70
723.93	260.18
724.26	259.75
724.59	259.23
724.92	258.73
725.25	258.24
725.59	257.67
725.92	257.15
726.25	256.60
726.58	256.15
726.91	255.62
727.24	255.12
727.57	254.64
727.91	254.20
728.24	253.69
728.57	253.26
728.90	252.86
729.23	252.31
729.56	251.86
729.89	251.37
730.22	250.92
730.55	250.52
730.89	250.13
731.22	249.62
731.55	249.24
731.88	248.69
732.21	248.21
732.54	247.74
732.87	247.24
733.20	246.83
733.53	246.34
733.86	245.91
734.19	245.51
734.52	245.12
734.85	244.85
735.18	244.49
735.51	244.10
735.84	243.63
736.17	243.27
736.50	242.81
736.83	242.60
737.16	242.30
737.49	241.89
737.82	241.44
738.15	241.14
738.48	240.75
738.81	240.47
739.14	240.11
739.47	239.85
739.80	239.59
740.13	239.21
740.46	238.89
740.79	238.55
741.12	238.16
741.45	237.86
741.78	237.45
742.11	237.18
742.44	236.87
742.77	236.60
743.10	236.25
743.43	235.98
743.75	235.55
744.08	235.50
744.41	235.25
744.74	234.96
745.07	234.58
745.40	234.31
745.73	234.13
746.06	233.87
746.39	233.60
746.71	233.35
747.04	233.11
747.37	232.86
747.70	232.58
748.03	232.35
748.36	232.15
748.68	231.89
749.01	231.54
749.34	231.35
749.67	231.11
750.00	230.91
750.33	230.78
750.65	230.50
750.98	229.94
751.31	229.73
751.64	229.56
751.97	229.49
752.29	229.24
752.62	228.92
752.95	228.68
753.28	228.35
753.60	228.15
753.93	227.94
754.26	227.74
754.59	227.46
754.91	227.22
755.24	226.95
755.57	226.77
755.90	226.57
756.22	226.33
756.55	226.05
756.88	225.86
757.20	225.53
757.53	225.30
757.86	225.14
758.19	224.94
758.51	224.72
758.84	224.47
759.17	224.35
759.49	224.16
759.82	224.07
760.15	224.00
760.47	223.80
760.80	223.59
761.13	223.40
761.45	223.34
761.78	223.20
762.11	223.08
762.43	222.90
762.76	222.76
763.08	222.58
763.41	222.49
763.74	222.35
764.06	222.25
764.39	222.18
764.71	222.08
765.04	221.88
765.37	221.78
765.69	221.69
766.02	221.50
766.34	221.41
766.67	221.22
767.00	221.14
767.32	221.04
767.65	221.09
767.97	220.99
768.30	220.87
768.62	220.71
768.95	220.62
769.27	220.51
769.60	220.55
769.92	220.45
770.25	220.41
770.57	220.30
770.90	220.18
771.22	220.05
771.55	219.92
771.87	219.98
772.20	219.84
772.52	219.80
772.85	219.98
773.17	219.93
773.50	219.97
773.82	219.71
774.15	219.57
774.47	219.33
774.80	219.27
775.12	219.09
775.45	219.07
775.77	218.97
776.09	218.85
776.42	218.64
776.74	218.66
777.07	218.53
777.39	218.44
777.72	218.39
778.04	218.43
778.36	218.33
778.69	218.19
779.01	218.10
779.33	217.95
779.66	217.67
779.98	217.56
780.31	217.42
780.63	217.53
780.95	217.55
781.28	217.47
781.60	217.40
781.92	217.35
782.25	217.34
782.57	217.30
782.89	217.26
783.22	217.25
783.54	217.11
783.86	217.06
784.19	216.94
784.51	216.85
784.83	216.69
785.16	216.65
785.48	216.59
785.80	216.52
786.12	216.43
786.45	216.37
