SpectraSuite Data File
++++++++++++++++++++++++++++++++++++
Date: Mon Feb 25 17:34:12 EST 2013
User: group
Dark Spectrum Present: No
Reference Spectrum Present: No
Number of Sampled Component Spectra: 1
Spectrometers: USB2E7196
Integration Time (usec): 52000 (USB2E7196)
Spectra Averaged: 20 (USB2E7196)
Boxcar Smoothing: 10 (USB2E7196)
Correct for Electrical Dark: No (USB2E7196)
Strobe/Lamp Enabled: No (USB2E7196)
Correct for Detector Non-linearity: No (USB2E7196)
Correct for Stray Light: No (USB2E7196)
Number of Pixels in Processed Spectrum: 2048
>>>>>Begin Processed Spectral Data<<<<<
339.09	0.00
339.48	199.30
339.86	199.50
340.24	201.80
340.63	201.60
341.01	205.30
341.39	204.45
341.78	206.35
342.16	207.30
342.54	209.30
342.93	197.78
343.31	207.78
343.69	208.30
344.07	208.80
344.46	209.29
344.84	209.74
345.22	210.00
345.60	210.30
345.99	210.51
346.37	210.70
346.75	210.78
347.13	210.83
347.52	210.88
347.90	210.99
348.28	211.08
348.66	211.15
349.05	211.11
349.43	211.10
349.81	211.11
350.19	211.24
350.57	211.27
350.96	211.33
351.34	211.46
351.72	211.58
352.10	211.71
352.48	211.78
352.87	211.81
353.25	211.88
353.63	212.00
354.01	212.15
354.39	212.25
354.77	212.43
355.15	212.58
355.54	212.61
355.92	212.62
356.30	212.68
356.68	212.89
357.06	213.04
357.44	213.14
357.82	213.18
358.20	213.23
358.58	213.28
358.97	213.38
359.35	213.45
359.73	213.57
360.11	213.53
360.49	213.57
360.87	213.65
361.25	213.83
361.63	213.94
362.01	214.03
362.39	214.02
362.77	214.03
363.15	214.10
363.53	214.20
363.91	214.23
364.29	214.28
364.67	214.16
365.05	214.17
365.43	214.23
365.81	214.34
366.19	214.49
366.57	214.57
366.95	214.55
367.33	214.54
367.71	214.48
368.09	214.54
368.47	214.56
368.85	214.56
369.23	214.53
369.61	214.44
369.99	214.42
370.37	214.48
370.75	214.48
371.13	214.39
371.51	214.37
371.89	214.43
372.27	214.39
372.65	214.39
373.03	214.32
373.41	214.26
373.78	214.25
374.16	214.10
374.54	214.04
374.92	214.05
375.30	214.01
375.68	213.96
376.06	214.03
376.44	213.91
376.82	213.87
377.19	213.81
377.57	213.76
377.95	213.66
378.33	213.52
378.71	213.43
379.09	213.37
379.47	213.27
379.84	213.09
380.22	213.00
380.60	212.95
380.98	212.92
381.36	212.85
381.73	212.76
382.11	212.78
382.49	212.66
382.87	212.51
383.25	212.45
383.62	212.57
384.00	212.43
384.38	212.47
384.76	212.44
385.13	212.36
385.51	212.32
385.89	212.25
386.27	212.26
386.64	212.16
387.02	212.15
387.40	212.08
387.78	212.05
388.15	212.01
388.53	211.94
388.91	211.85
389.29	211.78
389.66	211.81
390.04	211.77
390.42	211.78
390.79	211.81
391.17	211.75
391.55	211.58
391.92	211.60
392.30	211.48
392.68	211.49
393.05	211.51
393.43	211.47
393.81	211.46
394.18	211.42
394.56	211.56
394.94	211.54
395.31	211.61
395.69	211.71
396.06	211.75
396.44	211.68
396.82	211.63
397.19	211.77
397.57	211.65
397.95	211.60
398.32	211.61
398.70	211.60
399.07	211.61
399.45	211.67
399.82	211.66
400.20	211.73
400.58	211.72
400.95	211.68
401.33	211.74
401.70	211.82
402.08	211.95
402.45	211.97
402.83	212.10
403.20	212.17
403.58	212.19
403.95	212.33
404.33	212.48
404.71	212.70
405.08	212.89
405.46	213.03
405.83	213.17
406.21	213.30
406.58	213.56
406.96	213.77
407.33	213.89
407.70	214.05
408.08	214.39
408.45	214.64
408.83	214.92
409.20	215.15
409.58	215.36
409.95	215.62
410.33	215.87
410.70	216.14
411.08	216.53
411.45	216.90
411.82	217.24
412.20	217.60
412.57	218.18
412.95	218.50
413.32	219.04
413.69	219.57
414.07	220.15
414.44	220.68
414.82	221.34
415.19	222.05
415.56	222.76
415.94	223.50
416.31	224.36
416.68	225.29
417.06	226.40
417.43	227.39
417.81	228.43
418.18	229.47
418.55	230.72
418.93	231.87
419.30	233.24
419.67	234.66
420.04	236.14
420.42	237.55
420.79	239.38
421.16	241.17
421.54	243.00
421.91	244.88
422.28	246.90
422.66	248.93
423.03	251.14
423.40	253.22
423.77	255.42
424.15	257.64
424.52	260.01
424.89	262.51
425.26	264.95
425.64	267.30
426.01	269.98
426.38	272.59
426.75	275.40
427.13	278.18
427.50	281.14
427.87	284.27
428.24	287.39
428.61	290.23
428.99	293.51
429.36	296.91
429.73	300.48
430.10	303.91
430.47	307.47
430.85	311.06
431.22	315.07
431.59	319.27
431.96	323.22
432.33	327.52
432.70	331.79
433.08	336.81
433.45	341.52
433.82	346.16
434.19	351.38
434.56	356.40
434.93	361.18
435.30	366.03
435.68	371.36
436.05	376.55
436.42	381.67
436.79	386.37
437.16	391.51
437.53	396.69
437.90	402.02
438.27	407.19
438.64	412.62
439.01	417.60
439.38	421.91
439.75	426.19
440.13	431.06
440.50	435.53
440.87	439.25
441.24	443.08
441.61	447.28
441.98	450.40
442.35	454.06
442.72	457.70
443.09	461.22
443.46	463.30
443.83	464.84
444.20	466.08
444.57	467.68
444.94	468.45
445.31	469.30
445.68	470.01
446.05	470.29
446.42	469.49
446.79	468.59
447.16	467.68
447.53	467.04
447.90	464.83
448.27	462.76
448.64	459.76
449.01	457.62
449.37	453.98
449.74	450.46
450.11	446.28
450.48	441.85
450.85	437.14
451.22	433.01
451.59	428.93
451.96	425.40
452.33	420.74
452.70	416.50
453.07	411.25
453.43	405.93
453.80	400.97
454.17	396.26
454.54	391.81
454.91	387.15
455.28	382.45
455.65	378.12
456.02	373.74
456.38	370.01
456.75	365.33
457.12	361.44
457.49	357.60
457.86	353.81
458.23	350.58
458.59	347.09
458.96	343.70
459.33	340.69
459.70	337.50
460.07	334.97
460.43	332.03
460.80	329.36
461.17	326.96
461.54	324.43
461.91	322.07
462.27	319.73
462.64	317.65
463.01	315.30
463.38	313.17
463.74	311.01
464.11	309.11
464.48	307.56
464.85	305.86
465.21	304.45
465.58	303.03
465.95	301.26
466.32	299.87
466.68	298.43
467.05	297.03
467.42	295.66
467.78	294.18
468.15	292.80
468.52	291.85
468.88	290.65
469.25	289.42
469.62	288.50
469.98	287.46
470.35	286.54
470.72	285.78
471.08	284.82
471.45	284.01
471.82	283.25
472.18	282.36
472.55	281.63
472.92	280.86
473.28	280.25
473.65	279.69
474.02	279.04
474.38	278.60
474.75	278.28
475.11	277.80
475.48	277.54
475.85	277.31
476.21	277.02
476.58	276.84
476.94	276.82
477.31	276.74
477.67	276.68
478.04	276.67
478.41	276.86
478.77	277.13
479.14	277.20
479.50	277.53
479.87	277.92
480.23	278.39
480.60	278.81
480.96	279.20
481.33	279.79
481.69	280.52
482.06	281.15
482.42	281.75
482.79	282.54
483.15	283.43
483.52	284.38
483.88	285.39
484.25	286.40
484.61	287.47
484.98	288.55
485.34	289.87
485.71	291.20
486.07	292.51
486.44	293.90
486.80	295.42
487.17	297.01
487.53	298.76
487.90	300.50
488.26	302.45
488.62	304.49
488.99	306.55
489.35	308.67
489.72	311.04
490.08	313.39
490.44	315.83
490.81	318.39
491.17	321.11
491.54	323.97
491.90	327.06
492.26	330.24
492.63	333.53
492.99	337.02
493.36	340.70
493.72	344.62
494.08	348.60
494.45	352.94
494.81	357.41
495.17	361.95
495.54	366.84
495.90	371.89
496.26	377.10
496.63	382.65
496.99	388.46
497.35	394.39
497.72	400.70
498.08	407.30
498.44	414.00
498.80	421.32
499.17	428.94
499.53	436.67
499.89	444.74
500.26	452.84
500.62	461.08
500.98	469.80
501.34	478.79
501.71	488.20
502.07	497.77
502.43	507.77
502.79	518.01
503.16	528.70
503.52	539.60
503.88	550.89
504.24	562.53
504.60	574.45
504.97	586.80
505.33	599.41
505.69	612.84
506.05	626.41
506.41	639.82
506.78	653.40
507.14	667.47
507.50	682.06
507.86	697.18
508.22	712.76
508.59	728.55
508.95	744.64
509.31	760.91
509.67	777.76
510.03	794.50
510.39	811.95
510.75	829.72
511.12	847.80
511.48	866.28
511.84	884.94
512.20	903.52
512.56	922.83
512.92	942.16
513.28	961.48
513.64	981.34
514.00	1001.45
514.37	1021.98
514.73	1042.88
515.09	1063.62
515.45	1084.45
515.81	1105.73
516.17	1127.25
516.53	1148.60
516.89	1170.39
517.25	1191.98
517.61	1213.85
517.97	1235.70
518.33	1257.35
518.69	1279.25
519.05	1301.43
519.41	1323.80
519.77	1346.56
520.13	1368.47
520.49	1390.68
520.85	1413.60
521.21	1435.98
521.57	1459.10
521.93	1481.17
522.29	1504.13
522.65	1526.62
523.01	1549.41
523.37	1571.61
523.73	1593.69
524.09	1616.00
524.45	1638.07
524.81	1660.43
525.17	1682.98
525.53	1705.20
525.89	1727.84
526.25	1749.99
526.61	1771.33
526.97	1793.11
527.33	1814.51
527.68	1836.54
528.04	1858.22
528.40	1878.41
528.76	1899.44
529.12	1920.01
529.48	1941.83
529.84	1962.02
530.20	1982.74
530.56	2003.27
530.91	2023.94
531.27	2044.31
531.63	2064.61
531.99	2084.82
532.35	2104.51
532.71	2123.67
533.07	2143.59
533.42	2162.14
533.78	2181.14
534.14	2199.75
534.50	2216.89
534.86	2234.90
535.21	2251.71
535.57	2269.40
535.93	2286.88
536.29	2303.76
536.65	2320.55
537.00	2335.90
537.36	2351.48
537.72	2367.05
538.08	2382.37
538.44	2397.71
538.79	2413.31
539.15	2428.19
539.51	2442.95
539.87	2458.26
540.22	2472.99
540.58	2487.82
540.94	2502.51
541.29	2515.44
541.65	2527.81
542.01	2541.21
542.37	2553.22
542.72	2565.52
543.08	2576.53
543.44	2588.83
543.79	2599.30
544.15	2609.69
544.51	2621.14
544.87	2632.23
545.22	2641.55
545.58	2650.27
545.94	2657.79
546.29	2664.72
546.65	2670.98
547.01	2677.14
547.36	2682.78
547.72	2688.15
548.07	2692.30
548.43	2696.10
548.79	2700.33
549.14	2705.26
549.50	2709.61
549.86	2713.67
550.21	2717.77
550.57	2722.30
550.92	2724.83
551.28	2727.59
551.64	2730.58
551.99	2733.21
552.35	2734.97
552.70	2737.73
553.06	2740.38
553.41	2743.47
553.77	2746.32
554.13	2748.66
554.48	2750.77
554.84	2752.36
555.19	2753.18
555.55	2753.74
555.90	2754.18
556.26	2754.70
556.61	2754.62
556.97	2753.28
557.32	2753.18
557.68	2751.38
558.03	2749.88
558.39	2748.29
558.74	2748.16
559.10	2746.32
559.45	2744.04
559.81	2742.78
560.16	2740.02
560.52	2737.79
560.87	2734.93
561.23	2731.42
561.58	2729.47
561.94	2726.37
562.29	2722.70
562.64	2720.50
563.00	2718.03
563.35	2715.88
563.71	2714.17
564.06	2711.96
564.42	2710.48
564.77	2708.16
565.12	2706.75
565.48	2703.45
565.83	2700.60
566.19	2697.42
566.54	2693.35
566.89	2689.85
567.25	2686.25
567.60	2683.08
567.96	2679.38
568.31	2676.02
568.66	2671.92
569.02	2667.16
569.37	2662.14
569.72	2658.27
570.08	2653.12
570.43	2647.74
570.78	2642.14
571.14	2635.69
571.49	2628.99
571.84	2623.01
572.20	2615.86
572.55	2609.24
572.90	2602.65
573.26	2595.62
573.61	2588.46
573.96	2582.36
574.31	2574.25
574.67	2565.92
575.02	2557.16
575.37	2548.73
575.72	2539.56
576.08	2531.77
576.43	2522.92
576.78	2515.41
577.13	2506.99
577.49	2498.77
577.84	2490.88
578.19	2483.23
578.54	2475.58
578.90	2468.87
579.25	2460.05
579.60	2450.90
579.95	2441.51
580.30	2433.05
580.66	2425.06
581.01	2415.68
581.36	2406.30
581.71	2398.07
582.06	2389.70
582.42	2381.84
582.77	2372.50
583.12	2363.59
583.47	2354.92
583.82	2346.63
584.17	2336.83
584.53	2327.91
584.88	2319.09
585.23	2309.70
585.58	2299.96
585.93	2290.21
586.28	2280.72
586.63	2271.80
586.98	2263.76
587.34	2255.18
587.69	2246.23
588.04	2236.84
588.39	2228.47
588.74	2219.23
589.09	2210.28
589.44	2200.63
589.79	2191.90
590.14	2184.01
590.49	2175.40
590.84	2166.38
591.19	2158.51
591.54	2150.03
591.89	2139.84
592.25	2130.40
592.60	2120.77
592.95	2111.41
593.30	2102.24
593.65	2092.48
594.00	2082.88
594.35	2074.48
594.70	2065.24
595.05	2056.48
595.40	2047.54
595.75	2037.95
596.10	2029.77
596.45	2021.21
596.80	2013.55
597.15	2004.95
597.50	1995.64
597.85	1987.05
598.19	1978.34
598.54	1969.18
598.89	1961.40
599.24	1954.69
599.59	1947.31
599.94	1940.47
600.29	1932.87
600.64	1924.61
600.99	1916.14
601.34	1908.81
601.69	1899.64
602.04	1891.51
602.39	1883.09
602.74	1875.30
603.08	1868.60
603.43	1861.26
603.78	1853.07
604.13	1844.49
604.48	1836.39
604.83	1829.47
605.18	1822.55
605.53	1814.90
605.87	1807.29
606.22	1799.87
606.57	1792.08
606.92	1783.72
607.27	1775.39
607.62	1767.71
607.96	1760.92
608.31	1754.36
608.66	1746.43
609.01	1738.73
609.36	1730.88
609.70	1723.01
610.05	1714.97
610.40	1706.39
610.75	1697.68
611.10	1690.21
611.44	1681.29
611.79	1672.25
612.14	1662.57
612.49	1652.80
612.83	1643.98
613.18	1634.46
613.53	1624.58
613.88	1614.57
614.22	1605.67
614.57	1596.26
614.92	1586.86
615.27	1577.26
615.61	1567.64
615.96	1558.60
616.31	1550.25
616.65	1542.45
617.00	1534.06
617.35	1525.49
617.70	1516.70
618.04	1507.58
618.39	1497.97
618.74	1489.62
619.08	1480.85
619.43	1472.73
619.78	1464.97
620.12	1456.84
620.47	1448.84
620.82	1440.52
621.16	1431.99
621.51	1423.61
621.85	1415.29
622.20	1406.77
622.55	1398.60
622.89	1390.27
623.24	1382.25
623.59	1373.47
623.93	1364.52
624.28	1356.20
624.62	1348.00
624.97	1339.79
625.32	1332.08
625.66	1324.70
626.01	1317.30
626.35	1310.29
626.70	1302.51
627.04	1295.02
627.39	1287.28
627.73	1279.69
628.08	1272.97
628.43	1265.89
628.77	1258.40
629.12	1250.94
629.46	1244.23
629.81	1236.70
630.15	1229.40
630.50	1221.85
630.84	1214.54
631.19	1207.47
631.53	1200.58
631.88	1192.75
632.22	1184.85
632.57	1177.87
632.91	1170.48
633.26	1163.03
633.60	1155.64
633.95	1148.90
634.29	1141.37
634.64	1134.54
634.98	1127.55
635.32	1120.01
635.67	1113.43
636.01	1106.75
636.36	1100.23
636.70	1093.57
637.05	1087.05
637.39	1080.78
637.73	1074.30
638.08	1068.50
638.42	1062.47
638.77	1055.95
639.11	1050.00
639.45	1044.30
639.80	1037.75
640.14	1031.23
640.49	1024.91
640.83	1018.69
641.17	1012.22
641.52	1006.24
641.86	999.75
642.20	993.39
642.55	986.85
642.89	980.27
643.23	973.81
643.58	967.74
643.92	961.15
644.26	954.77
644.61	948.74
644.95	942.76
645.29	936.55
645.64	930.13
645.98	923.78
646.32	917.80
646.66	911.60
647.01	905.53
647.35	899.83
647.69	893.38
648.04	887.40
648.38	881.38
648.72	875.15
649.06	869.05
649.41	863.19
649.75	857.46
650.09	851.75
650.43	845.72
650.78	839.20
651.12	833.18
651.46	827.59
651.80	821.41
652.14	815.45
652.49	809.31
652.83	803.32
653.17	797.33
653.51	791.45
653.85	785.85
654.20	779.94
654.54	773.92
654.88	768.53
655.22	762.73
655.56	756.83
655.90	751.20
656.25	745.42
656.59	739.69
656.93	734.48
657.27	729.31
657.61	723.96
657.95	719.18
658.29	714.14
658.64	709.00
658.98	703.87
659.32	698.47
659.66	693.33
660.00	687.97
660.34	682.73
660.68	677.41
661.02	672.23
661.36	667.41
661.70	662.48
662.05	657.71
662.39	653.16
662.73	648.85
663.07	644.37
663.41	640.07
663.75	635.48
664.09	630.56
664.43	625.77
664.77	621.33
665.11	616.79
665.45	612.21
665.79	607.50
666.13	602.96
666.47	598.75
666.81	594.58
667.15	590.69
667.49	586.72
667.83	582.80
668.17	578.90
668.51	575.02
668.85	571.40
669.19	567.68
669.53	563.77
669.87	559.60
670.21	555.69
670.55	551.73
670.89	548.34
671.23	544.99
671.57	541.40
671.91	537.78
672.25	534.18
672.58	530.75
672.92	527.50
673.26	524.34
673.60	520.94
673.94	517.43
674.28	514.03
674.62	510.82
674.96	507.57
675.30	504.40
675.64	501.16
675.97	497.89
676.31	494.89
676.65	491.91
676.99	489.36
677.33	486.47
677.67	483.56
678.01	480.38
678.34	477.42
678.68	474.48
679.02	471.55
679.36	468.59
679.70	465.80
680.04	462.88
680.37	459.80
680.71	457.11
681.05	454.66
681.39	451.92
681.73	449.33
682.06	446.86
682.40	444.28
682.74	441.85
683.08	439.29
683.42	436.54
683.75	433.98
684.09	431.16
684.43	428.61
684.77	426.05
685.10	423.56
685.44	420.98
685.78	418.49
686.12	416.25
686.45	414.10
686.79	411.80
687.13	409.53
687.46	407.38
687.80	405.19
688.14	402.75
688.48	400.72
688.81	398.50
689.15	396.24
689.49	393.96
689.82	391.66
690.16	389.30
690.50	386.98
690.83	384.66
691.17	382.45
691.51	380.22
691.84	378.18
692.18	376.25
692.52	374.45
692.85	372.62
693.19	370.66
693.52	368.69
693.86	366.64
694.20	364.80
694.53	362.95
694.87	360.95
695.21	359.00
695.54	356.93
695.88	354.98
696.21	353.16
696.55	351.49
696.88	349.75
697.22	348.06
697.56	346.51
697.89	344.93
698.23	343.27
698.56	341.69
698.90	340.15
699.23	338.32
699.57	336.63
699.90	334.88
700.24	333.21
700.58	331.48
700.91	329.96
701.25	328.45
701.58	326.92
701.92	325.50
702.25	324.14
702.59	322.72
702.92	321.50
703.26	320.12
703.59	318.79
703.93	317.67
704.26	316.47
704.60	315.11
704.93	313.84
705.26	312.60
705.60	311.33
705.93	310.04
706.27	309.04
706.60	307.82
706.94	306.83
707.27	305.62
707.61	304.56
707.94	303.39
708.27	302.16
708.61	301.07
708.94	299.93
709.28	298.74
709.61	297.69
709.94	296.44
710.28	295.28
710.61	294.09
710.95	292.80
711.28	291.88
711.61	290.85
711.95	289.85
712.28	288.88
712.61	287.92
712.95	286.96
713.28	286.00
713.61	285.07
713.95	284.08
714.28	283.24
714.61	282.26
714.95	281.33
715.28	280.48
715.61	279.55
715.95	278.63
716.28	277.76
716.61	276.89
716.95	276.05
717.28	275.27
717.61	274.53
717.94	273.72
718.28	272.75
718.61	272.06
718.94	271.32
719.27	270.57
719.61	269.91
719.94	269.25
720.27	268.43
720.60	267.72
720.94	266.93
721.27	266.18
721.60	265.59
721.93	265.04
722.27	264.35
722.60	263.80
722.93	263.18
723.26	262.69
723.59	262.12
723.93	261.61
724.26	260.99
724.59	260.37
724.92	259.85
725.25	259.34
725.59	258.81
725.92	258.25
726.25	257.62
726.58	257.08
726.91	256.45
727.24	255.99
727.57	255.50
727.91	254.97
728.24	254.59
728.57	253.93
728.90	253.46
729.23	252.98
729.56	252.49
729.89	252.10
730.22	251.52
730.55	251.03
730.89	250.48
731.22	250.04
731.55	249.65
731.88	249.15
732.21	248.68
732.54	248.18
732.87	247.75
733.20	247.36
733.53	246.87
733.86	246.53
734.19	246.13
734.52	245.75
734.85	245.51
735.18	245.03
735.51	244.84
735.84	244.42
736.17	244.05
736.50	243.62
736.83	243.38
737.16	243.10
737.49	242.80
737.82	242.45
738.15	242.03
738.48	241.56
738.81	241.19
739.14	240.79
739.47	240.39
739.80	240.08
740.13	239.69
740.46	239.28
740.79	238.86
741.12	238.42
741.45	238.01
741.78	237.57
742.11	237.29
742.44	236.94
742.77	236.62
743.10	236.34
743.43	235.99
743.75	235.56
744.08	235.47
744.41	235.13
744.74	234.84
745.07	234.63
745.40	234.44
745.73	234.25
746.06	233.97
746.39	233.77
746.71	233.44
747.04	233.24
747.37	233.04
747.70	232.80
748.03	232.58
748.36	232.41
748.68	232.22
749.01	231.89
749.34	231.60
749.67	231.36
750.00	231.20
750.33	231.04
750.65	230.77
750.98	230.26
751.31	229.93
751.64	229.72
751.97	229.55
752.29	229.28
752.62	229.03
752.95	228.80
753.28	228.55
753.60	228.34
753.93	228.21
754.26	227.96
754.59	227.71
754.91	227.57
755.24	227.34
755.57	227.08
755.90	226.92
756.22	226.73
756.55	226.54
756.88	226.26
757.20	226.04
757.53	225.80
757.86	225.68
758.19	225.59
758.51	225.41
758.84	225.10
759.17	224.93
759.49	224.70
759.82	224.67
760.15	224.48
760.47	224.30
760.80	224.02
761.13	223.92
761.45	223.77
761.78	223.58
762.11	223.40
762.43	223.27
762.76	223.06
763.08	222.91
763.41	222.83
763.74	222.64
764.06	222.50
764.39	222.37
764.71	222.14
765.04	221.97
765.37	221.81
765.69	221.79
766.02	221.63
766.34	221.52
766.67	221.27
767.00	221.16
767.32	221.12
767.65	221.15
767.97	221.00
768.30	220.89
768.62	220.77
768.95	220.70
769.27	220.54
769.60	220.54
769.92	220.39
770.25	220.25
770.57	220.15
770.90	220.09
771.22	219.94
771.55	219.88
771.87	219.82
772.20	219.79
772.52	219.79
772.85	219.98
773.17	219.88
773.50	219.79
773.82	219.73
774.15	219.56
774.47	219.30
774.80	219.11
775.12	218.98
775.45	218.84
775.77	218.76
776.09	218.66
776.42	218.53
776.74	218.55
777.07	218.43
777.39	218.34
777.72	218.27
778.04	218.27
778.36	218.13
778.69	218.03
779.01	217.98
779.33	217.76
779.66	217.45
779.98	217.43
780.31	217.42
780.63	217.36
780.95	217.31
781.28	217.27
781.60	217.33
781.92	217.26
782.25	217.23
782.57	217.13
782.89	217.07
783.22	217.03
783.54	216.91
783.86	216.90
784.19	216.81
784.51	216.74
784.83	216.60
785.16	216.62
785.48	216.55
785.80	216.45
786.12	216.41
786.45	216.32
