SpectraSuite Data File
++++++++++++++++++++++++++++++++++++
Date: Mon Feb 25 17:32:36 EST 2013
User: group
Dark Spectrum Present: No
Reference Spectrum Present: No
Number of Sampled Component Spectra: 1
Spectrometers: USB2E7196
Integration Time (usec): 52000 (USB2E7196)
Spectra Averaged: 20 (USB2E7196)
Boxcar Smoothing: 10 (USB2E7196)
Correct for Electrical Dark: No (USB2E7196)
Strobe/Lamp Enabled: No (USB2E7196)
Correct for Detector Non-linearity: No (USB2E7196)
Correct for Stray Light: No (USB2E7196)
Number of Pixels in Processed Spectrum: 2048
>>>>>Begin Processed Spectral Data<<<<<
339.09	0.00
339.48	199.20
339.86	200.60
340.24	202.00
340.63	204.25
341.01	207.40
341.39	205.70
341.78	208.20
342.16	208.30
342.54	208.75
342.93	198.44
343.31	208.44
343.69	208.92
344.07	209.42
344.46	209.85
344.84	210.09
345.22	210.27
345.60	210.55
345.99	210.69
346.37	210.77
346.75	210.91
347.13	210.99
347.52	211.06
347.90	211.11
348.28	211.10
348.66	211.17
349.05	211.06
349.43	211.00
349.81	211.01
350.19	211.03
350.57	211.11
350.96	211.09
351.34	211.16
351.72	211.26
352.10	211.30
352.48	211.35
352.87	211.43
353.25	211.47
353.63	211.51
354.01	211.54
354.39	211.67
354.77	211.68
355.15	211.80
355.54	211.80
355.92	211.88
356.30	211.91
356.68	212.05
357.06	212.15
357.44	212.25
357.82	212.30
358.20	212.34
358.58	212.40
358.97	212.50
359.35	212.62
359.73	212.74
360.11	212.74
360.49	212.78
360.87	212.87
361.25	212.93
361.63	213.06
362.01	213.11
362.39	213.15
362.77	213.24
363.15	213.18
363.53	213.31
363.91	213.35
364.29	213.38
364.67	213.32
365.05	213.35
365.43	213.42
365.81	213.44
366.19	213.57
366.57	213.59
366.95	213.65
367.33	213.61
367.71	213.58
368.09	213.72
368.47	213.78
368.85	213.79
369.23	213.80
369.61	213.74
369.99	213.87
370.37	213.90
370.75	213.98
371.13	214.01
371.51	214.00
371.89	214.01
372.27	214.10
372.65	214.05
373.03	214.11
373.41	213.97
373.78	213.95
374.16	213.80
374.54	213.73
374.92	213.67
375.30	213.69
375.68	213.66
376.06	213.58
376.44	213.49
376.82	213.48
377.19	213.48
377.57	213.43
377.95	213.25
378.33	213.16
378.71	213.05
379.09	213.05
379.47	213.01
379.84	212.90
380.22	212.79
380.60	212.74
380.98	212.68
381.36	212.72
381.73	212.73
382.11	212.78
382.49	212.84
382.87	212.73
383.25	212.68
383.62	212.81
384.00	212.77
384.38	212.71
384.76	212.73
385.13	212.72
385.51	212.78
385.89	212.82
386.27	212.79
386.64	212.72
387.02	212.72
387.40	212.60
387.78	212.55
388.15	212.50
388.53	212.45
388.91	212.39
389.29	212.35
389.66	212.28
390.04	212.22
390.42	212.15
390.79	212.15
391.17	212.10
391.55	211.98
391.92	211.92
392.30	211.89
392.68	211.81
393.05	211.77
393.43	211.63
393.81	211.62
394.18	211.63
394.56	211.68
394.94	211.67
395.31	211.66
395.69	211.72
396.06	211.78
396.44	211.79
396.82	211.78
397.19	211.83
397.57	211.85
397.95	211.89
398.32	211.84
398.70	211.90
399.07	211.95
399.45	211.85
399.82	211.98
400.20	212.06
400.58	212.13
400.95	212.07
401.33	212.21
401.70	212.37
402.08	212.41
402.45	212.39
402.83	212.47
403.20	212.57
403.58	212.65
403.95	212.76
404.33	212.89
404.71	212.97
405.08	213.19
405.46	213.30
405.83	213.36
406.21	213.47
406.58	213.60
406.96	213.76
407.33	213.97
407.70	214.17
408.08	214.47
408.45	214.65
408.83	214.96
409.20	215.11
409.58	215.24
409.95	215.48
410.33	215.83
410.70	216.12
411.08	216.42
411.45	216.82
411.82	217.17
412.20	217.55
412.57	218.14
412.95	218.40
413.32	218.93
413.69	219.58
414.07	220.28
414.44	221.00
414.82	221.55
415.19	222.29
415.56	223.03
415.94	223.73
416.31	224.69
416.68	225.54
417.06	226.61
417.43	227.55
417.81	228.68
418.18	229.83
418.55	231.00
418.93	232.32
419.30	233.56
419.67	234.92
420.04	236.42
420.42	237.93
420.79	239.72
421.16	241.41
421.54	243.13
421.91	244.94
422.28	246.81
422.66	248.96
423.03	251.05
423.40	253.04
423.77	255.22
424.15	257.33
424.52	259.73
424.89	262.23
425.26	264.67
425.64	267.03
426.01	269.57
426.38	272.15
426.75	274.83
427.13	277.63
427.50	280.59
427.87	283.58
428.24	286.62
428.61	289.51
428.99	292.78
429.36	296.30
429.73	299.75
430.10	303.17
430.47	306.71
430.85	310.36
431.22	314.32
431.59	318.50
431.96	322.51
432.33	326.80
432.70	330.85
433.08	335.68
433.45	340.35
433.82	344.96
434.19	350.15
434.56	355.26
434.93	359.96
435.30	364.65
435.68	369.93
436.05	375.19
436.42	380.34
436.79	384.96
437.16	389.91
437.53	395.10
437.90	400.27
438.27	405.51
438.64	410.78
439.01	415.67
439.38	420.10
439.75	424.23
440.13	429.05
440.50	433.66
440.87	437.39
441.24	441.10
441.61	445.25
441.98	448.37
442.35	451.85
442.72	455.62
443.09	459.11
443.46	461.06
443.83	462.33
444.20	463.45
444.57	465.16
444.94	465.99
445.31	466.93
445.68	467.66
446.05	467.74
446.42	466.97
446.79	466.19
447.16	465.20
447.53	464.65
447.90	462.54
448.27	460.42
448.64	457.52
449.01	455.46
449.37	451.82
449.74	448.28
450.11	444.17
450.48	439.62
450.85	435.12
451.22	431.27
451.59	427.53
451.96	424.00
452.33	419.24
452.70	415.01
453.07	409.85
453.43	404.64
453.80	399.66
454.17	394.98
454.54	390.45
454.91	385.75
455.28	380.95
455.65	376.57
456.02	372.36
456.38	368.68
456.75	364.01
457.12	360.18
457.49	356.30
457.86	352.63
458.23	349.50
458.59	345.97
458.96	342.54
459.33	339.33
459.70	336.15
460.07	333.67
460.43	330.74
460.80	328.08
461.17	325.74
461.54	323.22
461.91	320.96
462.27	318.60
462.64	316.58
463.01	314.48
463.38	312.37
463.74	310.09
464.11	308.20
464.48	306.64
464.85	304.94
465.21	303.63
465.58	302.18
465.95	300.49
466.32	299.09
466.68	297.59
467.05	296.21
467.42	294.93
467.78	293.49
468.15	292.20
468.52	291.17
468.88	289.97
469.25	288.87
469.62	287.91
469.98	286.87
470.35	285.91
470.72	285.05
471.08	284.05
471.45	283.37
471.82	282.68
472.18	281.86
472.55	281.29
472.92	280.65
473.28	280.08
473.65	279.40
474.02	278.79
474.38	278.46
474.75	278.19
475.11	277.76
475.48	277.59
475.85	277.30
476.21	277.10
476.58	276.91
476.94	276.89
477.31	276.72
477.67	276.65
478.04	276.70
478.41	276.76
478.77	277.12
479.14	277.17
479.50	277.35
479.87	277.68
480.23	277.97
480.60	278.24
480.96	278.61
481.33	279.25
481.69	279.98
482.06	280.54
482.42	281.15
482.79	281.81
483.15	282.63
483.52	283.68
483.88	284.58
484.25	285.50
484.61	286.59
484.98	287.75
485.34	289.07
485.71	290.39
486.07	291.81
486.44	293.14
486.80	294.65
487.17	296.25
487.53	297.95
487.90	299.82
488.26	301.80
488.62	303.91
488.99	305.97
489.35	308.05
489.72	310.29
490.08	312.67
490.44	315.20
490.81	317.75
491.17	320.32
491.54	323.22
491.90	326.36
492.26	329.49
492.63	332.89
492.99	336.42
493.36	340.07
493.72	343.87
494.08	347.92
494.45	352.30
494.81	356.81
495.17	361.45
495.54	366.19
495.90	371.28
496.26	376.47
496.63	382.14
496.99	387.83
497.35	393.85
497.72	400.11
498.08	406.72
498.44	413.46
498.80	420.71
499.17	428.15
499.53	435.63
499.89	443.57
500.26	451.70
500.62	460.05
500.98	468.84
501.34	478.01
501.71	487.37
502.07	496.94
502.43	506.78
502.79	516.98
503.16	527.59
503.52	538.51
503.88	549.78
504.24	561.06
504.60	573.00
504.97	585.40
505.33	597.90
505.69	611.07
506.05	624.60
506.41	637.99
506.78	651.65
507.14	665.90
507.50	680.63
507.86	695.71
508.22	711.16
508.59	726.67
508.95	742.62
509.31	758.87
509.67	775.57
510.03	792.64
510.39	810.29
510.75	828.32
511.12	846.33
511.48	864.77
511.84	883.50
512.20	902.12
512.56	921.15
512.92	940.55
513.28	960.15
513.64	979.89
514.00	999.88
514.37	1020.30
514.73	1041.23
515.09	1061.90
515.45	1082.44
515.81	1103.59
516.17	1124.76
516.53	1145.99
516.89	1167.66
517.25	1189.04
517.61	1210.72
517.97	1231.96
518.33	1253.25
518.69	1274.85
519.05	1296.81
519.41	1319.12
519.77	1341.74
520.13	1363.70
520.49	1385.73
520.85	1408.17
521.21	1430.56
521.57	1453.39
521.93	1475.43
522.29	1497.91
522.65	1520.61
523.01	1543.16
523.37	1564.99
523.73	1587.27
524.09	1609.47
524.45	1631.59
524.81	1654.00
525.17	1676.51
525.53	1698.95
525.89	1721.26
526.25	1743.31
526.61	1764.55
526.97	1785.96
527.33	1806.97
527.68	1828.45
528.04	1849.65
528.40	1869.85
528.76	1890.54
529.12	1911.28
529.48	1932.80
529.84	1953.27
530.20	1973.33
530.56	1993.51
530.91	2014.58
531.27	2034.91
531.63	2054.69
531.99	2074.47
532.35	2093.50
532.71	2112.16
533.07	2131.62
533.42	2149.70
533.78	2168.70
534.14	2186.95
534.50	2203.90
534.86	2222.00
535.21	2238.87
535.57	2256.93
535.93	2274.33
536.29	2291.31
536.65	2307.72
537.00	2323.20
537.36	2338.16
537.72	2353.27
538.08	2368.40
538.44	2383.38
538.79	2398.66
539.15	2413.38
539.51	2427.94
539.87	2442.98
540.22	2457.54
540.58	2472.55
540.94	2487.61
541.29	2500.20
541.65	2512.65
542.01	2526.20
542.37	2538.02
542.72	2550.01
543.08	2560.51
543.44	2572.43
543.79	2582.49
544.15	2592.82
544.51	2603.92
544.87	2614.71
545.22	2623.73
545.58	2632.56
545.94	2639.59
546.29	2646.11
546.65	2652.77
547.01	2659.01
547.36	2664.86
547.72	2670.12
548.07	2673.87
548.43	2677.17
548.79	2681.10
549.14	2685.79
549.50	2690.02
549.86	2694.31
550.21	2698.75
550.57	2702.84
550.92	2705.44
551.28	2708.38
551.64	2710.67
551.99	2712.68
552.35	2714.74
552.70	2717.75
553.06	2720.36
553.41	2723.70
553.77	2726.37
554.13	2728.43
554.48	2730.48
554.84	2731.74
555.19	2732.31
555.55	2732.86
555.90	2733.60
556.26	2734.22
556.61	2733.98
556.97	2732.57
557.32	2732.05
557.68	2730.16
558.03	2728.78
558.39	2726.92
558.74	2725.92
559.10	2724.96
559.45	2723.16
559.81	2721.76
560.16	2718.97
560.52	2716.24
560.87	2712.99
561.23	2709.41
561.58	2707.20
561.94	2703.87
562.29	2700.30
562.64	2698.14
563.00	2695.69
563.35	2693.40
563.71	2691.25
564.06	2689.12
564.42	2687.24
564.77	2684.53
565.12	2682.55
565.48	2679.25
565.83	2676.34
566.19	2673.08
566.54	2668.88
566.89	2665.23
567.25	2661.45
567.60	2658.41
567.96	2655.10
568.31	2651.50
568.66	2647.61
569.02	2642.62
569.37	2637.53
569.72	2633.54
570.08	2628.22
570.43	2622.47
570.78	2617.10
571.14	2610.96
571.49	2604.33
571.84	2598.26
572.20	2591.40
572.55	2584.94
572.90	2578.06
573.26	2571.32
573.61	2564.44
573.96	2557.65
574.31	2549.71
574.67	2541.50
575.02	2532.74
575.37	2524.04
575.72	2515.14
576.08	2507.47
576.43	2499.16
576.78	2491.25
577.13	2483.31
577.49	2475.27
577.84	2467.64
578.19	2459.71
578.54	2452.18
578.90	2445.09
579.25	2436.42
579.60	2427.43
579.95	2418.00
580.30	2410.31
580.66	2401.87
581.01	2392.97
581.36	2384.14
581.71	2375.90
582.06	2367.54
582.42	2359.46
582.77	2350.61
583.12	2341.74
583.47	2333.05
583.82	2324.79
584.17	2315.81
584.53	2306.87
584.88	2297.92
585.23	2288.56
585.58	2279.08
585.93	2269.47
586.28	2260.63
586.63	2251.75
586.98	2243.44
587.34	2235.26
587.69	2225.92
588.04	2217.12
588.39	2208.70
588.74	2199.66
589.09	2190.73
589.44	2181.20
589.79	2172.76
590.14	2164.57
590.49	2156.25
590.84	2147.20
591.19	2138.79
591.54	2130.01
591.89	2119.90
592.25	2110.76
592.60	2101.39
592.95	2091.93
593.30	2082.53
593.65	2072.60
594.00	2063.01
594.35	2054.69
594.70	2045.70
595.05	2037.25
595.40	2028.22
595.75	2018.61
596.10	2010.43
596.45	2002.09
596.80	1994.35
597.15	1985.94
597.50	1976.97
597.85	1968.58
598.19	1960.02
598.54	1951.64
598.89	1943.79
599.24	1937.21
599.59	1929.99
599.94	1922.98
600.29	1915.18
600.64	1907.40
600.99	1898.92
601.34	1891.95
601.69	1883.15
602.04	1874.83
602.39	1866.31
602.74	1858.53
603.08	1851.90
603.43	1844.62
603.78	1836.38
604.13	1828.09
604.48	1820.31
604.83	1813.37
605.18	1806.27
605.53	1798.84
605.87	1791.12
606.22	1784.04
606.57	1775.79
606.92	1767.57
607.27	1759.50
607.62	1752.46
607.96	1745.50
608.31	1739.32
608.66	1731.58
609.01	1724.10
609.36	1716.46
609.70	1708.71
610.05	1700.93
610.40	1692.57
610.75	1684.09
611.10	1676.72
611.44	1667.65
611.79	1658.34
612.14	1649.20
612.49	1639.70
612.83	1631.19
613.18	1621.48
613.53	1611.97
613.88	1602.56
614.22	1593.73
614.57	1584.53
614.92	1575.06
615.27	1565.84
615.61	1556.13
615.96	1547.10
616.31	1538.75
616.65	1530.98
617.00	1522.67
617.35	1514.21
617.70	1505.86
618.04	1496.86
618.39	1487.49
618.74	1479.18
619.08	1470.90
619.43	1462.46
619.78	1454.59
620.12	1446.33
620.47	1438.75
620.82	1430.18
621.16	1422.03
621.51	1413.61
621.85	1405.42
622.20	1396.87
622.55	1388.43
622.89	1380.19
623.24	1372.25
623.59	1363.64
623.93	1354.85
624.28	1346.53
624.62	1338.24
624.97	1329.72
625.32	1321.86
625.66	1314.47
626.01	1307.34
626.35	1299.96
626.70	1292.35
627.04	1284.99
627.39	1277.42
627.73	1269.74
628.08	1262.91
628.43	1255.38
628.77	1248.13
629.12	1240.65
629.46	1234.14
629.81	1226.84
630.15	1219.59
630.50	1212.00
630.84	1204.51
631.19	1197.59
631.53	1191.03
631.88	1183.82
632.22	1176.44
632.57	1169.63
632.91	1162.19
633.26	1154.93
633.60	1147.81
633.95	1141.06
634.29	1133.82
634.64	1127.05
634.98	1120.20
635.32	1113.20
635.67	1106.95
636.01	1100.09
636.36	1093.47
636.70	1086.71
637.05	1080.35
637.39	1074.04
637.73	1067.79
638.08	1062.22
638.42	1056.05
638.77	1049.53
639.11	1042.97
639.45	1036.93
639.80	1030.36
640.14	1023.91
640.49	1017.66
640.83	1011.40
641.17	1004.88
641.52	998.95
641.86	992.45
642.20	986.14
642.55	979.42
642.89	972.80
643.23	966.55
643.58	960.46
643.92	954.11
644.26	947.79
644.61	941.70
644.95	935.78
645.29	929.34
645.64	923.00
645.98	916.72
646.32	911.08
646.66	904.92
647.01	898.90
647.35	893.05
647.69	886.60
648.04	880.59
648.38	874.87
648.72	868.61
649.06	862.56
649.41	856.59
649.75	850.79
650.09	844.93
650.43	838.95
650.78	832.89
651.12	826.80
651.46	821.10
651.80	815.12
652.14	809.24
652.49	803.25
652.83	797.30
653.17	791.32
653.51	785.23
653.85	779.50
654.20	773.52
654.54	767.74
654.88	762.34
655.22	756.67
655.56	750.63
655.90	744.84
656.25	739.17
656.59	733.72
656.93	728.61
657.27	723.43
657.61	718.10
657.95	713.01
658.29	707.76
658.64	702.71
658.98	697.38
659.32	691.88
659.66	686.91
660.00	681.63
660.34	676.50
660.68	671.31
661.02	666.23
661.36	661.69
661.70	656.91
662.05	652.32
662.39	647.95
662.73	643.69
663.07	639.41
663.41	635.18
663.75	630.59
664.09	625.97
664.43	621.35
664.77	617.22
665.11	612.69
665.45	608.42
665.79	603.99
666.13	599.80
666.47	595.77
666.81	591.68
667.15	587.71
667.49	583.74
667.83	579.93
668.17	576.12
668.51	572.33
668.85	568.61
669.19	564.80
669.53	560.73
669.87	556.75
670.21	552.89
670.55	549.03
670.89	545.69
671.23	542.26
671.57	538.79
671.91	535.03
672.25	531.45
672.58	527.97
672.92	524.50
673.26	521.22
673.60	517.91
673.94	514.46
674.28	511.11
674.62	508.06
674.96	504.90
675.30	501.81
675.64	498.58
675.97	495.53
676.31	492.52
676.65	489.70
676.99	487.09
677.33	484.14
677.67	481.19
678.01	478.10
678.34	475.08
678.68	472.29
679.02	469.46
679.36	466.73
679.70	464.18
680.04	461.31
680.37	458.42
680.71	455.64
681.05	453.05
681.39	450.41
681.73	447.72
682.06	445.27
682.40	442.74
682.74	440.14
683.08	437.43
683.42	434.94
683.75	432.17
684.09	429.41
684.43	427.02
684.77	424.39
685.10	421.94
685.44	419.31
685.78	416.79
686.12	414.45
686.45	412.04
686.79	409.55
687.13	407.46
687.46	405.22
687.80	403.07
688.14	400.77
688.48	398.65
688.81	396.47
689.15	394.21
689.49	391.88
689.82	389.65
690.16	387.41
690.50	385.00
690.83	382.91
691.17	380.74
691.51	378.42
691.84	376.35
692.18	374.34
692.52	372.53
692.85	370.54
693.19	368.71
693.52	366.92
693.86	364.93
694.20	362.89
694.53	360.97
694.87	358.99
695.21	357.02
695.54	355.18
695.88	353.30
696.21	351.46
696.55	349.74
696.88	348.05
697.22	346.32
697.56	344.79
697.89	343.10
698.23	341.53
698.56	339.97
698.90	338.50
699.23	336.86
699.57	335.34
699.90	333.87
700.24	332.08
700.58	330.49
700.91	329.07
701.25	327.75
701.58	326.50
701.92	325.09
702.25	323.70
702.59	322.34
702.92	320.93
703.26	319.53
703.59	318.28
703.93	317.09
704.26	315.98
704.60	314.69
704.93	313.42
705.26	312.15
705.60	310.91
705.93	309.65
706.27	308.47
706.60	307.34
706.94	306.20
707.27	305.07
707.61	303.92
707.94	302.79
708.27	301.51
708.61	300.32
708.94	299.19
709.28	298.05
709.61	296.91
709.94	295.90
710.28	294.86
710.61	293.72
710.95	292.56
711.28	291.57
711.61	290.51
711.95	289.58
712.28	288.58
712.61	287.65
712.95	286.81
713.28	285.90
713.61	284.86
713.95	283.94
714.28	283.10
714.61	282.15
714.95	281.24
715.28	280.40
715.61	279.45
715.95	278.55
716.28	277.76
716.61	276.89
716.95	276.02
717.28	275.24
717.61	274.53
717.94	273.69
718.28	272.77
718.61	272.03
718.94	271.28
719.27	270.55
719.61	269.89
719.94	269.11
720.27	268.39
720.60	267.71
720.94	267.01
721.27	266.39
721.60	265.81
721.93	265.10
722.27	264.50
722.60	263.90
722.93	263.35
723.26	262.76
723.59	262.12
723.93	261.54
724.26	260.92
724.59	260.34
724.92	259.76
725.25	259.26
725.59	258.70
725.92	258.19
726.25	257.68
726.58	257.09
726.91	256.60
727.24	256.12
727.57	255.56
727.91	254.99
728.24	254.45
728.57	253.90
728.90	253.50
729.23	253.00
729.56	252.54
729.89	252.00
730.22	251.44
730.55	251.00
730.89	250.52
731.22	250.07
731.55	249.56
731.88	249.21
732.21	248.89
732.54	248.43
732.87	248.00
733.20	247.64
733.53	247.21
733.86	246.72
734.19	246.25
734.52	245.88
734.85	245.61
735.18	245.11
735.51	244.81
735.84	244.41
736.17	244.06
736.50	243.73
736.83	243.54
737.16	243.16
737.49	242.86
737.82	242.51
738.15	242.21
738.48	241.78
738.81	241.40
739.14	240.85
739.47	240.50
739.80	240.11
740.13	239.70
740.46	239.30
740.79	238.93
741.12	238.59
741.45	238.25
741.78	237.81
742.11	237.61
742.44	237.19
742.77	236.89
743.10	236.62
743.43	236.25
743.75	235.85
744.08	235.83
744.41	235.45
744.74	235.16
745.07	234.75
745.40	234.53
745.73	234.28
746.06	233.99
746.39	233.69
746.71	233.44
747.04	233.07
747.37	232.83
747.70	232.72
748.03	232.45
748.36	232.18
748.68	231.92
749.01	231.59
749.34	231.34
749.67	231.14
750.00	230.81
750.33	230.64
750.65	230.41
750.98	229.94
751.31	229.71
751.64	229.51
751.97	229.43
752.29	229.21
752.62	228.92
752.95	228.71
753.28	228.51
753.60	228.21
753.93	228.11
754.26	227.97
754.59	227.58
754.91	227.35
755.24	227.11
755.57	226.93
755.90	226.74
756.22	226.52
756.55	226.29
756.88	226.05
757.20	225.77
757.53	225.56
757.86	225.44
758.19	225.25
758.51	225.01
758.84	224.72
759.17	224.57
759.49	224.44
759.82	224.40
760.15	224.22
760.47	224.14
760.80	223.94
761.13	223.85
761.45	223.73
761.78	223.59
762.11	223.45
762.43	223.26
762.76	223.16
763.08	223.10
763.41	223.02
763.74	222.96
764.06	222.88
764.39	222.60
764.71	222.45
765.04	222.36
765.37	222.31
765.69	222.19
766.02	222.02
766.34	221.86
766.67	221.70
767.00	221.72
767.32	221.75
767.65	221.77
767.97	221.58
768.30	221.47
768.62	221.30
768.95	221.17
769.27	221.10
769.60	221.01
769.92	220.90
770.25	220.64
770.57	220.56
770.90	220.48
771.22	220.44
771.55	220.31
771.87	220.23
772.20	220.12
772.52	220.21
772.85	220.39
773.17	220.30
773.50	220.16
773.82	220.01
774.15	219.74
774.47	219.52
774.80	219.36
775.12	219.25
775.45	219.16
775.77	219.15
776.09	219.10
776.42	219.04
776.74	219.00
777.07	218.98
777.39	218.85
777.72	218.71
778.04	218.61
778.36	218.52
778.69	218.39
779.01	218.31
779.33	218.11
779.66	217.81
779.98	217.73
780.31	217.64
780.63	217.59
780.95	217.53
781.28	217.42
781.60	217.39
781.92	217.37
782.25	217.39
782.57	217.30
782.89	217.16
783.22	217.06
783.54	216.91
783.86	216.86
784.19	216.79
784.51	216.75
784.83	216.75
785.16	216.74
785.48	216.78
785.80	216.67
786.12	216.62
786.45	216.56
