SpectraSuite Data File
++++++++++++++++++++++++++++++++++++
Date: Mon Feb 25 17:30:37 EST 2013
User: group
Dark Spectrum Present: No
Reference Spectrum Present: No
Number of Sampled Component Spectra: 1
Spectrometers: USB2E7196
Integration Time (usec): 52000 (USB2E7196)
Spectra Averaged: 20 (USB2E7196)
Boxcar Smoothing: 10 (USB2E7196)
Correct for Electrical Dark: No (USB2E7196)
Strobe/Lamp Enabled: No (USB2E7196)
Correct for Detector Non-linearity: No (USB2E7196)
Correct for Stray Light: No (USB2E7196)
Number of Pixels in Processed Spectrum: 2048
>>>>>Begin Processed Spectral Data<<<<<
339.09	0.00
339.48	199.50
339.86	201.20
340.24	201.35
340.63	204.30
341.01	206.95
341.39	205.30
341.78	206.80
342.16	209.95
342.54	209.35
342.93	198.44
343.31	208.39
343.69	208.90
344.07	209.30
344.46	209.74
344.84	210.12
345.22	210.28
345.60	210.54
345.99	210.77
346.37	210.78
346.75	210.89
347.13	210.95
347.52	211.00
347.90	211.12
348.28	211.14
348.66	211.15
349.05	211.16
349.43	211.21
349.81	211.22
350.19	211.22
350.57	211.32
350.96	211.41
351.34	211.55
351.72	211.58
352.10	211.69
352.48	211.74
352.87	211.70
353.25	211.76
353.63	211.88
354.01	211.90
354.39	211.97
354.77	212.03
355.15	212.16
355.54	212.21
355.92	212.24
356.30	212.30
356.68	212.52
357.06	212.51
357.44	212.55
357.82	212.60
358.20	212.79
358.58	212.85
358.97	212.86
359.35	213.00
359.73	213.15
360.11	213.22
360.49	213.29
360.87	213.38
361.25	213.42
361.63	213.49
362.01	213.56
362.39	213.62
362.77	213.64
363.15	213.64
363.53	213.66
363.91	213.64
364.29	213.65
364.67	213.47
365.05	213.54
365.43	213.60
365.81	213.67
366.19	213.68
366.57	213.78
366.95	213.87
367.33	213.86
367.71	213.91
368.09	213.96
368.47	214.02
368.85	214.00
369.23	214.11
369.61	213.95
369.99	213.91
370.37	213.96
370.75	214.00
371.13	214.04
371.51	214.06
371.89	214.10
372.27	214.13
372.65	214.14
373.03	214.08
373.41	213.97
373.78	213.93
374.16	213.82
374.54	213.69
374.92	213.63
375.30	213.51
375.68	213.42
376.06	213.37
376.44	213.31
376.82	213.28
377.19	213.22
377.57	213.22
377.95	213.21
378.33	213.18
378.71	213.12
379.09	212.97
379.47	212.86
379.84	212.76
380.22	212.69
380.60	212.56
380.98	212.51
381.36	212.56
381.73	212.50
382.11	212.47
382.49	212.42
382.87	212.25
383.25	212.24
383.62	212.37
384.00	212.31
384.38	212.28
384.76	212.30
385.13	212.32
385.51	212.25
385.89	212.19
386.27	212.13
386.64	212.11
387.02	212.13
387.40	212.11
387.78	212.09
388.15	212.05
388.53	212.00
388.91	212.01
389.29	211.94
389.66	211.96
390.04	211.93
390.42	211.95
390.79	211.94
391.17	211.92
391.55	211.65
391.92	211.62
392.30	211.54
392.68	211.46
393.05	211.39
393.43	211.40
393.81	211.41
394.18	211.30
394.56	211.23
394.94	211.24
395.31	211.21
395.69	211.26
396.06	211.32
396.44	211.39
396.82	211.37
397.19	211.49
397.57	211.36
397.95	211.37
398.32	211.32
398.70	211.39
399.07	211.44
399.45	211.52
399.82	211.53
400.20	211.56
400.58	211.60
400.95	211.65
401.33	211.75
401.70	211.90
402.08	211.99
402.45	212.05
402.83	212.13
403.20	212.23
403.58	212.30
403.95	212.35
404.33	212.45
404.71	212.51
405.08	212.65
405.46	212.90
405.83	213.03
406.21	213.20
406.58	213.38
406.96	213.47
407.33	213.65
407.70	213.90
408.08	214.27
408.45	214.50
408.83	214.72
409.20	214.95
409.58	215.08
409.95	215.47
410.33	215.77
410.70	215.95
411.08	216.27
411.45	216.61
411.82	217.03
412.20	217.44
412.57	217.95
412.95	218.22
413.32	218.70
413.69	219.18
414.07	219.74
414.44	220.41
414.82	221.07
415.19	221.80
415.56	222.45
415.94	223.16
416.31	224.08
416.68	224.95
417.06	225.89
417.43	226.85
417.81	227.84
418.18	229.04
418.55	230.27
418.93	231.55
419.30	232.85
419.67	234.18
420.04	235.64
420.42	237.13
420.79	239.01
421.16	240.76
421.54	242.57
421.91	244.32
422.28	246.14
422.66	248.19
423.03	250.24
423.40	252.36
423.77	254.47
424.15	256.65
424.52	258.85
424.89	261.33
425.26	263.78
425.64	266.15
426.01	268.63
426.38	271.27
426.75	273.92
427.13	276.64
427.50	279.52
427.87	282.43
428.24	285.46
428.61	288.25
428.99	291.23
429.36	294.63
429.73	297.97
430.10	301.30
430.47	304.73
430.85	308.19
431.22	311.99
431.59	316.08
431.96	319.92
432.33	324.22
432.70	328.35
433.08	333.24
433.45	337.68
433.82	342.09
434.19	347.05
434.56	351.92
434.93	356.60
435.30	361.27
435.68	366.45
436.05	371.41
436.42	376.42
436.79	381.02
437.16	385.97
437.53	391.28
437.90	396.45
438.27	401.54
438.64	406.74
439.01	411.54
439.38	415.74
439.75	419.78
440.13	424.42
440.50	428.84
440.87	432.25
441.24	436.04
441.61	440.20
441.98	443.24
442.35	446.77
442.72	450.34
443.09	453.74
443.46	455.67
443.83	457.20
444.20	458.41
444.57	460.33
444.94	461.10
445.31	461.87
445.68	462.70
446.05	462.89
446.42	462.19
446.79	461.44
447.16	460.61
447.53	460.08
447.90	458.10
448.27	456.06
448.64	453.24
449.01	451.10
449.37	447.51
449.74	444.03
450.11	440.02
450.48	435.65
450.85	431.11
451.22	427.34
451.59	423.59
451.96	420.03
452.33	415.22
452.70	410.99
453.07	406.02
453.43	400.82
453.80	396.00
454.17	391.52
454.54	387.11
454.91	382.35
455.28	377.70
455.65	373.53
456.02	369.33
456.38	365.75
456.75	361.30
457.12	357.55
457.49	353.88
457.86	350.16
458.23	347.02
458.59	343.70
458.96	340.26
459.33	337.12
459.70	334.03
460.07	331.60
460.43	328.87
460.80	326.20
461.17	323.82
461.54	321.37
461.91	319.01
462.27	316.72
462.64	314.84
463.01	312.73
463.38	310.60
463.74	308.45
464.11	306.63
464.48	305.03
464.85	303.38
465.21	302.03
465.58	300.73
465.95	299.06
466.32	297.64
466.68	296.33
467.05	295.05
467.42	293.76
467.78	292.27
468.15	290.89
468.52	289.85
468.88	288.70
469.25	287.58
469.62	286.60
469.98	285.62
470.35	284.76
470.72	283.90
471.08	283.00
471.45	282.23
471.82	281.52
472.18	280.65
472.55	280.03
472.92	279.35
473.28	278.68
473.65	278.15
474.02	277.55
474.38	277.06
474.75	276.68
475.11	276.27
475.48	276.16
475.85	275.93
476.21	275.78
476.58	275.62
476.94	275.59
477.31	275.63
477.67	275.65
478.04	275.68
478.41	275.87
478.77	276.15
479.14	276.25
479.50	276.51
479.87	276.97
480.23	277.44
480.60	277.78
480.96	278.28
481.33	278.93
481.69	279.59
482.06	280.20
482.42	280.90
482.79	281.67
483.15	282.48
483.52	283.51
483.88	284.49
484.25	285.51
484.61	286.54
484.98	287.64
485.34	288.94
485.71	290.19
486.07	291.52
486.44	292.75
486.80	294.33
487.17	295.93
487.53	297.56
487.90	299.32
488.26	301.33
488.62	303.39
488.99	305.38
489.35	307.63
489.72	309.98
490.08	312.41
490.44	314.88
490.81	317.55
491.17	320.24
491.54	323.05
491.90	326.01
492.26	329.25
492.63	332.45
492.99	335.86
493.36	339.52
493.72	343.36
494.08	347.40
494.45	351.70
494.81	356.15
495.17	360.80
495.54	365.66
495.90	370.75
496.26	375.86
496.63	381.37
496.99	387.06
497.35	393.00
497.72	399.19
498.08	405.60
498.44	412.34
498.80	419.45
499.17	426.73
499.53	434.40
499.89	442.33
500.26	450.47
500.62	458.75
500.98	467.41
501.34	476.36
501.71	485.78
502.07	495.40
502.43	505.34
502.79	515.47
503.16	525.92
503.52	536.60
503.88	547.76
504.24	559.15
504.60	570.96
504.97	583.12
505.33	595.51
505.69	608.64
506.05	621.90
506.41	635.25
506.78	649.08
507.14	663.01
507.50	677.45
507.86	692.43
508.22	707.70
508.59	723.26
508.95	739.15
509.31	755.34
509.67	771.85
510.03	788.59
510.39	806.02
510.75	823.65
511.12	841.76
511.48	859.97
511.84	878.61
512.20	897.11
512.56	916.20
512.92	935.47
513.28	954.78
513.64	974.12
514.00	994.01
514.37	1013.97
514.73	1034.45
515.09	1054.85
515.45	1075.31
515.81	1096.08
516.17	1116.90
516.53	1137.91
516.89	1159.04
517.25	1180.24
517.61	1201.21
517.97	1222.11
518.33	1243.18
518.69	1264.45
519.05	1286.19
519.41	1308.02
519.77	1330.10
520.13	1351.76
520.49	1373.29
520.85	1395.45
521.21	1417.59
521.57	1439.80
521.93	1461.49
522.29	1484.07
522.65	1506.00
523.01	1528.08
523.37	1549.77
523.73	1571.78
524.09	1593.55
524.45	1615.27
524.81	1637.17
525.17	1659.56
525.53	1681.70
525.89	1703.75
526.25	1725.16
526.61	1745.92
526.97	1766.95
527.33	1787.57
527.68	1808.53
528.04	1829.64
528.40	1849.29
528.76	1869.80
529.12	1890.07
529.48	1911.30
529.84	1930.97
530.20	1950.98
530.56	1970.75
530.91	1990.95
531.27	2010.82
531.63	2030.43
531.99	2049.84
532.35	2068.47
532.71	2086.93
533.07	2105.46
533.42	2123.51
533.78	2142.05
534.14	2160.08
534.50	2176.91
534.86	2194.46
535.21	2210.78
535.57	2227.60
535.93	2244.73
536.29	2260.61
536.65	2276.73
537.00	2291.42
537.36	2306.15
537.72	2320.70
538.08	2335.07
538.44	2349.73
538.79	2364.77
539.15	2378.95
539.51	2392.86
539.87	2407.48
540.22	2421.21
540.58	2435.49
540.94	2449.45
541.29	2461.95
541.65	2473.59
542.01	2486.13
542.37	2497.40
542.72	2509.03
543.08	2519.38
543.44	2530.69
543.79	2540.69
544.15	2550.09
544.51	2560.81
544.87	2571.53
545.22	2580.43
545.58	2588.71
545.94	2595.85
546.29	2601.50
546.65	2607.44
547.01	2613.30
547.36	2618.58
547.72	2623.67
548.07	2627.61
548.43	2630.95
548.79	2634.15
549.14	2638.71
549.50	2642.39
549.86	2646.40
550.21	2650.18
550.57	2654.15
550.92	2656.06
551.28	2658.34
551.64	2660.84
551.99	2662.53
552.35	2663.51
552.70	2665.98
553.06	2668.53
553.41	2670.89
553.77	2673.45
554.13	2675.33
554.48	2676.97
554.84	2677.93
555.19	2678.29
555.55	2678.58
555.90	2678.72
556.26	2679.11
556.61	2678.48
556.97	2677.35
557.32	2676.74
557.68	2675.09
558.03	2673.43
558.39	2671.74
558.74	2671.05
559.10	2669.69
559.45	2667.83
559.81	2666.64
560.16	2663.67
560.52	2660.98
560.87	2658.23
561.23	2654.54
561.58	2652.21
561.94	2648.89
562.29	2645.04
562.64	2642.45
563.00	2639.64
563.35	2637.32
563.71	2635.25
564.06	2632.76
564.42	2630.53
564.77	2627.50
565.12	2625.26
565.48	2621.73
565.83	2618.47
566.19	2615.19
566.54	2610.96
566.89	2606.90
567.25	2603.01
567.60	2599.64
567.96	2596.03
568.31	2592.16
568.66	2588.37
569.02	2583.67
569.37	2578.81
569.72	2574.95
570.08	2569.75
570.43	2564.25
570.78	2558.55
571.14	2552.27
571.49	2545.97
571.84	2540.13
572.20	2533.48
572.55	2527.02
572.90	2520.71
573.26	2514.21
573.61	2507.40
573.96	2500.83
574.31	2493.00
574.67	2484.92
575.02	2476.81
575.37	2468.15
575.72	2459.21
576.08	2451.25
576.43	2442.72
576.78	2434.67
577.13	2427.36
577.49	2419.72
577.84	2412.12
578.19	2404.57
578.54	2397.33
578.90	2390.55
579.25	2381.78
579.60	2372.73
579.95	2363.58
580.30	2355.84
580.66	2348.12
581.01	2339.34
581.36	2330.03
581.71	2322.43
582.06	2313.90
582.42	2305.99
582.77	2297.41
583.12	2288.73
583.47	2280.44
583.82	2272.44
584.17	2263.70
584.53	2254.48
584.88	2245.59
585.23	2236.83
585.58	2227.52
585.93	2218.20
586.28	2209.41
586.63	2201.00
586.98	2193.35
587.34	2185.20
587.69	2176.08
588.04	2167.00
588.39	2158.75
588.74	2150.45
589.09	2141.45
589.44	2132.56
589.79	2124.11
590.14	2116.60
590.49	2108.80
590.84	2100.02
591.19	2092.17
591.54	2083.88
591.89	2074.12
592.25	2065.56
592.60	2056.44
592.95	2047.54
593.30	2038.57
593.65	2028.69
594.00	2019.49
594.35	2011.33
594.70	2002.75
595.05	1994.28
595.40	1985.88
595.75	1976.40
596.10	1968.25
596.45	1960.11
596.80	1952.20
597.15	1944.25
597.50	1935.17
597.85	1926.78
598.19	1918.29
598.54	1909.41
598.89	1901.40
599.24	1894.80
599.59	1887.40
599.94	1880.25
600.29	1872.83
600.64	1864.82
600.99	1856.90
601.34	1849.93
601.69	1841.49
602.04	1833.36
602.39	1825.62
602.74	1817.91
603.08	1811.54
603.43	1804.71
603.78	1797.13
604.13	1789.63
604.48	1781.59
604.83	1774.88
605.18	1768.11
605.53	1761.18
605.87	1754.18
606.22	1747.85
606.57	1740.25
606.92	1732.50
607.27	1724.91
607.62	1717.72
607.96	1710.99
608.31	1704.93
608.66	1697.24
609.01	1689.86
609.36	1682.47
609.70	1674.68
610.05	1667.34
610.40	1659.56
610.75	1651.36
611.10	1644.13
611.44	1635.42
611.79	1626.77
612.14	1618.00
612.49	1608.47
612.83	1599.99
613.18	1590.47
613.53	1580.78
613.88	1571.20
614.22	1562.48
614.57	1553.46
614.92	1544.25
615.27	1535.60
615.61	1526.04
615.96	1517.59
616.31	1509.02
616.65	1501.19
617.00	1493.14
617.35	1484.54
617.70	1475.76
618.04	1466.91
618.39	1457.52
618.74	1449.34
619.08	1441.08
619.43	1432.96
619.78	1425.53
620.12	1417.30
620.47	1409.79
620.82	1401.77
621.16	1393.93
621.51	1385.72
621.85	1377.86
622.20	1369.90
622.55	1361.48
622.89	1353.64
623.24	1345.82
623.59	1337.63
623.93	1329.24
624.28	1321.15
624.62	1313.20
624.97	1305.29
625.32	1297.69
625.66	1290.87
626.01	1284.13
626.35	1277.22
626.70	1269.48
627.04	1262.11
627.39	1254.92
627.73	1247.45
628.08	1240.77
628.43	1233.70
628.77	1226.58
629.12	1219.08
629.46	1212.39
629.81	1205.39
630.15	1198.26
630.50	1190.85
630.84	1183.90
631.19	1176.98
631.53	1170.32
631.88	1162.86
632.22	1155.60
632.57	1148.69
632.91	1141.28
633.26	1133.67
633.60	1126.34
633.95	1119.85
634.29	1112.94
634.64	1106.44
634.98	1099.67
635.32	1092.75
635.67	1086.35
636.01	1079.91
636.36	1073.40
636.70	1066.99
637.05	1060.83
637.39	1054.58
637.73	1048.45
638.08	1042.79
638.42	1036.97
638.77	1030.70
639.11	1024.71
639.45	1018.84
639.80	1012.54
640.14	1006.06
640.49	1000.02
640.83	994.15
641.17	988.13
641.52	982.03
641.86	975.60
642.20	969.87
642.55	963.39
642.89	957.00
643.23	950.73
643.58	945.11
643.92	938.66
644.26	932.46
644.61	926.39
644.95	920.60
645.29	914.24
645.64	907.88
645.98	901.79
646.32	896.09
646.66	890.00
647.01	884.21
647.35	878.61
647.69	872.34
648.04	866.44
648.38	860.40
648.72	854.36
649.06	848.38
649.41	842.23
649.75	836.55
650.09	830.96
650.43	825.09
650.78	818.86
651.12	812.94
651.46	807.20
651.80	801.58
652.14	795.59
652.49	789.86
652.83	784.26
653.17	778.39
653.51	772.82
653.85	767.17
654.20	761.40
654.54	755.78
654.88	750.49
655.22	744.90
655.56	739.22
655.90	733.61
656.25	728.06
656.59	722.79
656.93	717.64
657.27	712.52
657.61	707.25
657.95	702.27
658.29	697.33
658.64	692.40
658.98	687.29
659.32	682.08
659.66	677.16
660.00	671.81
660.34	666.70
660.68	661.52
661.02	656.56
661.36	651.93
661.70	647.17
662.05	642.57
662.39	638.18
662.73	633.96
663.07	629.91
663.41	625.73
663.75	621.22
664.09	616.79
664.43	612.21
664.77	608.01
665.11	603.75
665.45	599.56
665.79	595.17
666.13	590.81
666.47	586.76
666.81	582.55
667.15	578.77
667.49	575.11
667.83	571.19
668.17	567.55
668.51	563.78
668.85	560.11
669.19	556.60
669.53	552.77
669.87	548.73
670.21	544.90
670.55	541.16
670.89	537.76
671.23	534.41
671.57	531.10
671.91	527.67
672.25	524.26
672.58	520.87
672.92	517.50
673.26	514.39
673.60	511.15
673.94	507.98
674.28	504.77
674.62	501.58
674.96	498.57
675.30	495.50
675.64	492.37
675.97	489.28
676.31	486.19
676.65	483.38
676.99	480.82
677.33	477.92
677.67	475.02
678.01	472.14
678.34	469.08
678.68	466.22
679.02	463.19
679.36	460.45
679.70	457.68
680.04	454.84
680.37	452.05
680.71	449.49
681.05	446.93
681.39	444.26
681.73	441.58
682.06	438.98
682.40	436.45
682.74	433.97
683.08	431.51
683.42	429.06
683.75	426.55
684.09	424.00
684.43	421.64
684.77	419.19
685.10	416.60
685.44	414.14
685.78	411.72
686.12	409.56
686.45	407.18
686.79	404.97
687.13	402.87
687.46	400.80
687.80	398.55
688.14	396.26
688.48	394.16
688.81	392.00
689.15	389.94
689.49	387.75
689.82	385.54
690.16	383.29
690.50	381.05
690.83	378.75
691.17	376.59
691.51	374.44
691.84	372.46
692.18	370.57
692.52	368.71
692.85	366.85
693.19	365.06
693.52	363.15
693.86	361.23
694.20	359.42
694.53	357.52
694.87	355.72
695.21	353.88
695.54	352.04
695.88	350.12
696.21	348.29
696.55	346.69
696.88	345.16
697.22	343.51
697.56	342.02
697.89	340.51
698.23	338.95
698.56	337.40
698.90	335.95
699.23	334.38
699.57	332.97
699.90	331.39
700.24	329.70
700.58	328.16
700.91	326.66
701.25	325.27
701.58	323.88
701.92	322.40
702.25	321.06
702.59	319.67
702.92	318.53
703.26	317.23
703.59	315.90
703.93	314.73
704.26	313.44
704.60	312.02
704.93	310.86
705.26	309.62
705.60	308.46
705.93	307.21
706.27	306.00
706.60	304.81
706.94	303.75
707.27	302.71
707.61	301.64
707.94	300.53
708.27	299.21
708.61	298.09
708.94	297.05
709.28	295.89
709.61	294.90
709.94	293.83
710.28	292.76
710.61	291.72
710.95	290.58
711.28	289.76
711.61	288.83
711.95	287.87
712.28	286.85
712.61	285.81
712.95	284.88
713.28	284.05
713.61	283.07
713.95	282.18
714.28	281.32
714.61	280.43
714.95	279.53
715.28	278.74
715.61	277.87
715.95	276.96
716.28	276.24
716.61	275.40
716.95	274.56
717.28	273.75
717.61	273.04
717.94	272.26
718.28	271.37
718.61	270.56
718.94	269.73
719.27	268.99
719.61	268.32
719.94	267.68
720.27	266.92
720.60	266.15
720.94	265.30
721.27	264.59
721.60	263.94
721.93	263.30
722.27	262.76
722.60	262.18
722.93	261.57
723.26	260.98
723.59	260.41
723.93	259.90
724.26	259.32
724.59	258.72
724.92	258.21
725.25	257.73
725.59	257.19
725.92	256.70
726.25	256.18
726.58	255.73
726.91	255.19
727.24	254.72
727.57	254.30
727.91	253.80
728.24	253.43
728.57	252.95
728.90	252.48
729.23	251.95
729.56	251.56
729.89	251.11
730.22	250.59
730.55	250.06
730.89	249.53
731.22	249.08
731.55	248.58
731.88	248.12
732.21	247.55
732.54	247.13
732.87	246.68
733.20	246.31
733.53	245.87
733.86	245.45
734.19	245.06
734.52	244.72
734.85	244.51
735.18	243.95
735.51	243.59
735.84	243.26
736.17	242.95
736.50	242.47
736.83	242.23
737.16	241.92
737.49	241.60
737.82	241.29
738.15	241.01
738.48	240.73
738.81	240.36
739.14	240.13
739.47	239.80
739.80	239.52
740.13	239.24
740.46	238.87
740.79	238.52
741.12	238.12
741.45	237.67
741.78	237.20
742.11	237.06
742.44	236.71
742.77	236.41
743.10	236.09
743.43	235.79
743.75	235.34
744.08	235.27
744.41	234.98
744.74	234.63
745.07	234.37
745.40	234.08
745.73	233.86
746.06	233.55
746.39	233.22
746.71	232.88
747.04	232.50
747.37	232.22
747.70	232.00
748.03	231.80
748.36	231.62
748.68	231.42
749.01	231.07
749.34	230.88
749.67	230.60
750.00	230.30
750.33	230.21
750.65	230.00
750.98	229.57
751.31	229.37
751.64	229.18
751.97	228.97
752.29	228.76
752.62	228.50
752.95	228.33
753.28	228.18
753.60	228.03
753.93	227.88
754.26	227.70
754.59	227.42
754.91	227.20
755.24	226.99
755.57	226.74
755.90	226.55
756.22	226.25
756.55	226.11
756.88	225.95
757.20	225.66
757.53	225.43
757.86	225.28
758.19	225.06
758.51	224.92
758.84	224.66
759.17	224.47
759.49	224.33
759.82	224.22
760.15	224.06
760.47	223.90
760.80	223.76
761.13	223.63
761.45	223.48
761.78	223.30
762.11	223.14
762.43	223.09
762.76	222.92
763.08	222.94
763.41	222.76
763.74	222.63
764.06	222.42
764.39	222.36
764.71	222.08
765.04	221.92
765.37	221.77
765.69	221.62
766.02	221.52
766.34	221.31
766.67	221.13
767.00	221.03
767.32	221.00
767.65	220.98
767.97	220.78
768.30	220.71
768.62	220.60
768.95	220.53
769.27	220.36
769.60	220.34
769.92	220.14
770.25	220.02
770.57	219.83
770.90	219.80
771.22	219.69
771.55	219.66
771.87	219.57
772.20	219.44
772.52	219.48
772.85	219.48
773.17	219.42
773.50	219.31
773.82	219.20
774.15	218.98
774.47	218.77
774.80	218.73
775.12	218.66
775.45	218.64
775.77	218.61
776.09	218.62
776.42	218.48
776.74	218.47
777.07	218.41
777.39	218.44
777.72	218.32
778.04	218.22
778.36	218.14
778.69	218.07
779.01	218.03
779.33	217.87
779.66	217.68
779.98	217.68
780.31	217.64
780.63	217.65
780.95	217.69
781.28	217.68
781.60	217.60
781.92	217.52
782.25	217.42
782.57	217.31
782.89	217.20
783.22	217.15
783.54	217.03
783.86	216.95
784.19	216.84
784.51	216.90
784.83	216.86
785.16	216.75
785.48	216.75
785.80	216.65
786.12	216.54
786.45	216.55
