SpectraSuite Data File
++++++++++++++++++++++++++++++++++++
Date: Mon Feb 25 17:36:06 EST 2013
User: group
Dark Spectrum Present: No
Reference Spectrum Present: No
Number of Sampled Component Spectra: 1
Spectrometers: USB2E7196
Integration Time (usec): 52000 (USB2E7196)
Spectra Averaged: 20 (USB2E7196)
Boxcar Smoothing: 10 (USB2E7196)
Correct for Electrical Dark: No (USB2E7196)
Strobe/Lamp Enabled: No (USB2E7196)
Correct for Detector Non-linearity: No (USB2E7196)
Correct for Stray Light: No (USB2E7196)
Number of Pixels in Processed Spectrum: 2048
>>>>>Begin Processed Spectral Data<<<<<
339.09	0.00
339.48	200.05
339.86	200.25
340.24	203.00
340.63	202.45
341.01	208.25
341.39	206.25
341.78	207.00
342.16	208.70
342.54	209.65
342.93	198.50
343.31	208.55
343.69	209.01
344.07	209.52
344.46	209.87
344.84	210.48
345.22	210.74
345.60	211.04
345.99	211.41
346.37	211.65
346.75	211.82
347.13	212.01
347.52	212.21
347.90	212.41
348.28	212.56
348.66	212.73
349.05	212.88
349.43	213.10
349.81	213.25
350.19	213.39
350.57	213.55
350.96	213.66
351.34	213.83
351.72	214.08
352.10	214.22
352.48	214.50
352.87	214.54
353.25	214.61
353.63	214.72
354.01	214.76
354.39	214.84
354.77	214.96
355.15	215.05
355.54	215.12
355.92	215.14
356.30	215.20
356.68	215.45
357.06	215.42
357.44	215.41
357.82	215.53
358.20	215.64
358.58	215.70
358.97	215.82
359.35	215.92
359.73	215.99
360.11	216.08
360.49	216.04
360.87	216.03
361.25	216.07
361.63	216.23
362.01	216.29
362.39	216.34
362.77	216.33
363.15	216.30
363.53	216.32
363.91	216.35
364.29	216.38
364.67	216.21
365.05	216.27
365.43	216.31
365.81	216.28
366.19	216.38
366.57	216.44
366.95	216.37
367.33	216.35
367.71	216.35
368.09	216.39
368.47	216.36
368.85	216.42
369.23	216.45
369.61	216.26
369.99	216.24
370.37	216.23
370.75	216.32
371.13	216.27
371.51	216.20
371.89	216.19
372.27	216.26
372.65	216.27
373.03	216.18
373.41	216.10
373.78	216.02
374.16	215.88
374.54	215.86
374.92	215.86
375.30	215.81
375.68	215.74
376.06	215.67
376.44	215.67
376.82	215.57
377.19	215.51
377.57	215.52
377.95	215.47
378.33	215.39
378.71	215.24
379.09	215.26
379.47	215.27
379.84	215.25
380.22	215.10
380.60	214.99
380.98	215.01
381.36	215.03
381.73	215.09
382.11	215.10
382.49	215.05
382.87	215.02
383.25	214.98
383.62	215.21
384.00	215.21
384.38	215.20
384.76	215.21
385.13	215.31
385.51	215.27
385.89	215.20
386.27	215.20
386.64	215.21
387.02	215.20
387.40	215.24
387.78	215.21
388.15	215.20
388.53	215.28
388.91	215.27
389.29	215.27
389.66	215.26
390.04	215.23
390.42	215.26
390.79	215.24
391.17	215.26
391.55	215.08
391.92	215.09
392.30	215.11
392.68	215.16
393.05	215.18
393.43	215.30
393.81	215.37
394.18	215.41
394.56	215.48
394.94	215.57
395.31	215.58
395.69	215.64
396.06	215.76
396.44	215.82
396.82	215.88
397.19	216.09
397.57	216.16
397.95	216.35
398.32	216.44
398.70	216.62
399.07	216.90
399.45	217.06
399.82	217.23
400.20	217.46
400.58	217.64
400.95	217.80
401.33	218.06
401.70	218.52
402.08	218.84
402.45	219.24
402.83	219.68
403.20	220.11
403.58	220.63
403.95	221.25
404.33	221.79
404.71	222.35
405.08	223.02
405.46	223.79
405.83	224.53
406.21	225.27
406.58	226.20
406.96	227.07
407.33	228.11
407.70	229.29
408.08	230.68
408.45	232.13
408.83	233.64
409.20	235.15
409.58	236.65
409.95	238.43
410.33	240.34
410.70	242.38
411.08	244.60
411.45	246.94
411.82	249.39
412.20	252.08
412.57	255.19
412.95	258.10
413.32	261.35
413.69	264.77
414.07	268.50
414.44	272.59
414.82	276.75
415.19	281.60
415.56	286.59
415.94	291.93
416.31	297.65
416.68	303.41
417.06	310.01
417.43	316.24
417.81	323.51
418.18	330.96
418.55	338.95
418.93	347.58
419.30	356.47
419.67	365.70
420.04	375.50
420.42	385.80
420.79	397.06
421.16	408.97
421.54	420.88
421.91	433.66
422.28	446.92
422.66	461.06
423.03	474.54
423.40	488.88
423.77	504.36
424.15	520.09
424.52	536.73
424.89	554.64
425.26	572.55
425.64	589.41
426.01	608.00
426.38	627.53
426.75	646.99
427.13	667.60
427.50	689.29
427.87	711.92
428.24	734.81
428.61	757.27
428.99	780.83
429.36	807.63
429.73	833.32
430.10	858.84
430.47	885.20
430.85	913.55
431.22	942.65
431.59	972.93
431.96	1002.85
432.33	1035.98
432.70	1068.26
433.08	1105.81
433.45	1141.38
433.82	1177.00
434.19	1216.37
434.56	1255.18
434.93	1292.78
435.30	1330.32
435.68	1371.81
436.05	1413.09
436.42	1454.41
436.79	1492.30
437.16	1532.80
437.53	1576.32
437.90	1619.53
438.27	1661.91
438.64	1706.16
439.01	1747.29
439.38	1785.30
439.75	1821.45
440.13	1862.07
440.50	1900.78
440.87	1933.06
441.24	1966.99
441.61	2004.01
441.98	2032.67
442.35	2065.42
442.72	2097.95
443.09	2129.31
443.46	2150.37
443.83	2165.62
444.20	2179.42
444.57	2198.01
444.94	2208.74
445.31	2219.25
445.68	2228.74
446.05	2235.78
446.42	2235.44
446.79	2234.22
447.16	2232.36
447.53	2231.95
447.90	2220.75
448.27	2209.17
448.64	2191.17
449.01	2178.62
449.37	2153.74
449.74	2129.66
450.11	2099.58
450.48	2068.05
450.85	2035.90
451.22	2008.17
451.59	1981.19
451.96	1955.76
452.33	1920.73
452.70	1889.06
453.07	1851.02
453.43	1812.67
453.80	1774.81
454.17	1738.31
454.54	1704.32
454.91	1667.48
455.28	1631.58
455.65	1597.77
456.02	1561.85
456.38	1532.88
456.75	1496.38
457.12	1466.54
457.49	1436.61
457.86	1408.77
458.23	1383.04
458.59	1355.54
458.96	1327.45
459.33	1302.97
459.70	1277.88
460.07	1258.23
460.43	1235.57
460.80	1213.77
461.17	1195.12
461.54	1175.44
461.91	1156.69
462.27	1137.82
462.64	1121.63
463.01	1103.43
463.38	1085.39
463.74	1069.86
464.11	1054.83
464.48	1041.61
464.85	1026.99
465.21	1015.67
465.58	1003.40
465.95	989.36
466.32	977.11
466.68	965.11
467.05	953.16
467.42	941.46
467.78	929.17
468.15	917.52
468.52	908.73
468.88	897.56
469.25	887.68
469.62	879.43
469.98	870.58
470.35	862.33
470.72	854.58
471.08	846.67
471.45	839.20
471.82	831.43
472.18	823.45
472.55	817.68
472.92	811.01
473.28	805.19
473.65	799.64
474.02	794.26
474.38	789.56
474.75	785.39
475.11	780.99
475.48	777.30
475.85	774.38
476.21	771.73
476.58	769.30
476.94	767.44
477.31	765.33
477.67	763.35
478.04	761.86
478.41	761.10
478.77	760.38
479.14	759.53
479.50	759.46
479.87	760.06
480.23	760.96
480.60	761.16
480.96	761.62
481.33	762.91
481.69	764.67
482.06	766.02
482.42	767.14
482.79	768.76
483.15	771.78
483.52	775.41
483.88	778.48
484.25	781.65
484.61	785.02
484.98	788.55
485.34	792.89
485.71	797.54
486.07	802.44
486.44	807.57
486.80	813.69
487.17	819.90
487.53	826.97
487.90	833.93
488.26	841.59
488.62	849.72
488.99	858.08
489.35	866.13
489.72	875.69
490.08	885.91
490.44	896.01
490.81	906.06
491.17	915.78
491.54	926.82
491.90	937.81
492.26	949.85
492.63	962.29
492.99	975.26
493.36	988.42
493.72	1002.23
494.08	1016.51
494.45	1031.37
494.81	1047.02
495.17	1062.86
495.54	1079.27
495.90	1096.54
496.26	1113.95
496.63	1131.71
496.99	1150.07
497.35	1168.39
497.72	1187.49
498.08	1206.71
498.44	1226.27
498.80	1247.15
499.17	1268.05
499.53	1289.34
499.89	1311.23
500.26	1332.99
500.62	1354.35
500.98	1377.15
501.34	1399.89
501.71	1423.02
502.07	1446.44
502.43	1470.17
502.79	1493.47
503.16	1517.28
503.52	1541.08
503.88	1564.28
504.24	1587.97
504.60	1612.17
504.97	1637.35
505.33	1661.69
505.69	1687.52
506.05	1713.17
506.41	1738.05
506.78	1762.70
507.14	1787.68
507.50	1812.76
507.86	1838.34
508.22	1864.50
508.59	1889.48
508.95	1915.17
509.31	1940.82
509.67	1966.58
510.03	1991.90
510.39	2018.04
510.75	2043.26
511.12	2067.84
511.48	2093.10
511.84	2118.17
512.20	2142.63
512.56	2167.12
512.92	2192.04
513.28	2216.27
513.64	2240.35
514.00	2263.74
514.37	2287.35
514.73	2311.21
515.09	2333.89
515.45	2356.58
515.81	2378.92
516.17	2401.75
516.53	2423.36
516.89	2445.14
517.25	2464.83
517.61	2484.87
517.97	2504.46
518.33	2523.38
518.69	2543.58
519.05	2563.26
519.41	2582.77
519.77	2602.37
520.13	2620.56
520.49	2638.24
520.85	2655.24
521.21	2672.12
521.57	2690.60
521.93	2706.95
522.29	2723.80
522.65	2740.70
523.01	2757.08
523.37	2772.29
523.73	2787.57
524.09	2802.39
524.45	2816.36
524.81	2831.11
525.17	2845.97
525.53	2860.32
525.89	2875.27
526.25	2888.82
526.61	2901.21
526.97	2913.90
527.33	2926.26
527.68	2939.16
528.04	2951.64
528.40	2963.09
528.76	2974.94
529.12	2985.86
529.48	2997.61
529.84	3006.95
530.20	3016.97
530.56	3026.90
530.91	3037.86
531.27	3048.06
531.63	3058.58
531.99	3068.40
532.35	3078.15
532.71	3086.95
533.07	3097.22
533.42	3106.40
533.78	3116.10
534.14	3125.61
534.50	3134.15
534.86	3143.41
535.21	3150.16
535.57	3158.23
535.93	3166.50
536.29	3173.54
536.65	3181.17
537.00	3187.88
537.36	3195.57
537.72	3201.89
538.08	3208.63
538.44	3214.97
538.79	3221.06
539.15	3226.81
539.51	3233.60
539.87	3240.56
540.22	3246.58
540.58	3252.15
540.94	3257.90
541.29	3261.74
541.65	3263.89
542.01	3266.97
542.37	3269.95
542.72	3274.14
543.08	3276.82
543.44	3279.95
543.79	3282.90
544.15	3284.68
544.51	3288.56
544.87	3291.96
545.22	3294.43
545.58	3295.67
545.94	3296.52
546.29	3296.82
546.65	3296.69
547.01	3296.24
547.36	3296.39
547.72	3297.08
548.07	3296.30
548.43	3295.07
548.79	3293.68
549.14	3294.91
549.50	3296.00
549.86	3295.96
550.21	3294.84
550.57	3294.80
550.92	3293.57
551.28	3292.25
551.64	3290.81
551.99	3289.27
552.35	3288.18
552.70	3287.52
553.06	3287.30
553.41	3287.01
553.77	3286.16
554.13	3286.21
554.48	3287.25
554.84	3286.03
555.19	3283.83
555.55	3283.15
555.90	3282.86
556.26	3282.95
556.61	3281.72
556.97	3278.65
557.32	3276.03
557.68	3274.07
558.03	3271.21
558.39	3268.87
558.74	3268.16
559.10	3267.55
559.45	3265.66
559.81	3263.79
560.16	3261.78
560.52	3259.81
560.87	3257.51
561.23	3254.52
561.58	3251.47
561.94	3246.76
562.29	3242.21
562.64	3239.42
563.00	3235.00
563.35	3229.76
563.71	3225.89
564.06	3223.16
564.42	3220.69
564.77	3217.60
565.12	3214.70
565.48	3211.39
565.83	3208.93
566.19	3206.20
566.54	3202.41
566.89	3197.96
567.25	3193.50
567.60	3189.57
567.96	3184.43
568.31	3179.12
568.66	3175.66
569.02	3171.84
569.37	3168.38
569.72	3166.12
570.08	3162.60
570.43	3157.98
570.78	3155.00
571.14	3151.28
571.49	3146.56
571.84	3143.01
572.20	3138.27
572.55	3134.32
572.90	3128.97
573.26	3122.86
573.61	3115.61
573.96	3108.44
574.31	3102.76
574.67	3096.53
575.02	3089.45
575.37	3082.83
575.72	3077.09
576.08	3070.04
576.43	3062.71
576.78	3055.26
577.13	3048.08
577.49	3041.10
577.84	3034.32
578.19	3026.23
578.54	3018.33
578.90	3010.59
579.25	3000.81
579.60	2991.75
579.95	2982.18
580.30	2974.67
580.66	2966.92
581.01	2958.55
581.36	2949.65
581.71	2940.79
582.06	2932.35
582.42	2924.99
582.77	2916.31
583.12	2906.84
583.47	2897.75
583.82	2889.14
584.17	2879.44
584.53	2870.24
584.88	2860.49
585.23	2851.12
585.58	2842.18
585.93	2832.81
586.28	2824.28
586.63	2816.15
586.98	2808.05
587.34	2799.47
587.69	2789.39
588.04	2780.11
588.39	2770.96
588.74	2761.89
589.09	2752.47
589.44	2741.68
589.79	2731.11
590.14	2722.26
590.49	2711.95
590.84	2702.62
591.19	2693.24
591.54	2683.26
591.89	2671.96
592.25	2661.72
592.60	2650.66
592.95	2639.43
593.30	2628.81
593.65	2617.82
594.00	2607.53
594.35	2598.00
594.70	2587.93
595.05	2578.72
595.40	2568.27
595.75	2557.23
596.10	2547.21
596.45	2536.41
596.80	2527.50
597.15	2517.83
597.50	2507.30
597.85	2498.34
598.19	2487.28
598.54	2475.97
598.89	2466.02
599.24	2456.30
599.59	2445.80
599.94	2436.37
600.29	2426.54
600.64	2416.20
600.99	2405.07
601.34	2394.97
601.69	2383.31
602.04	2372.14
602.39	2361.95
602.74	2352.90
603.08	2344.83
603.43	2336.54
603.78	2327.31
604.13	2317.02
604.48	2305.86
604.83	2296.67
605.18	2286.92
605.53	2278.29
605.87	2269.28
606.22	2260.25
606.57	2251.04
606.92	2240.80
607.27	2230.88
607.62	2221.57
607.96	2212.22
608.31	2203.75
608.66	2193.72
609.01	2184.21
609.36	2174.57
609.70	2164.00
610.05	2152.57
610.40	2141.22
610.75	2129.13
611.10	2118.45
611.44	2106.88
611.79	2097.11
612.14	2085.40
612.49	2073.27
612.83	2061.39
613.18	2049.31
613.53	2037.47
613.88	2024.89
614.22	2013.64
614.57	2001.95
614.92	1990.61
615.27	1979.29
615.61	1966.98
615.96	1955.29
616.31	1944.14
616.65	1933.78
617.00	1922.97
617.35	1912.33
617.70	1900.76
618.04	1889.43
618.39	1878.33
618.74	1867.52
619.08	1855.48
619.43	1844.06
619.78	1833.80
620.12	1823.81
620.47	1813.77
620.82	1803.25
621.16	1793.16
621.51	1782.53
621.85	1771.84
622.20	1760.62
622.55	1749.14
622.89	1738.60
623.24	1728.08
623.59	1717.45
623.93	1706.40
624.28	1695.78
624.62	1685.30
624.97	1675.33
625.32	1665.53
625.66	1655.63
626.01	1646.45
626.35	1638.28
626.70	1629.40
627.04	1619.71
627.39	1609.60
627.73	1600.08
628.08	1590.68
628.43	1581.04
628.77	1572.42
629.12	1563.21
629.46	1554.04
629.81	1544.33
630.15	1534.53
630.50	1524.84
630.84	1515.25
631.19	1505.34
631.53	1495.70
631.88	1485.70
632.22	1476.10
632.57	1467.50
632.91	1458.04
633.26	1448.32
633.60	1437.84
633.95	1428.83
634.29	1420.18
634.64	1411.62
634.98	1402.28
635.32	1393.26
635.67	1384.93
636.01	1376.09
636.36	1367.32
636.70	1358.77
637.05	1350.97
637.39	1343.10
637.73	1334.85
638.08	1327.02
638.42	1319.41
638.77	1311.74
639.11	1304.02
639.45	1296.16
639.80	1287.53
640.14	1279.48
640.49	1271.14
640.83	1262.80
641.17	1254.02
641.52	1245.62
641.86	1236.81
642.20	1228.90
642.55	1220.41
642.89	1211.58
643.23	1202.69
643.58	1194.54
643.92	1186.01
644.26	1177.61
644.61	1169.05
644.95	1160.76
645.29	1152.24
645.64	1143.58
645.98	1135.19
646.32	1127.41
646.66	1119.37
647.01	1111.46
647.35	1103.41
647.69	1095.59
648.04	1088.22
648.38	1080.26
648.72	1072.56
649.06	1065.07
649.41	1057.03
649.75	1048.87
650.09	1041.63
650.43	1034.58
650.78	1027.48
651.12	1020.31
651.46	1013.40
651.80	1006.52
652.14	999.78
652.49	992.85
652.83	985.82
653.17	978.22
653.51	970.77
653.85	963.75
654.20	956.96
654.54	950.07
654.88	943.00
655.22	935.70
655.56	928.23
655.90	920.51
656.25	913.14
656.59	906.37
656.93	900.10
657.27	893.46
657.61	886.58
657.95	879.84
658.29	873.07
658.64	866.52
658.98	860.34
659.32	853.62
659.66	846.96
660.00	840.65
660.34	834.95
660.68	828.82
661.02	822.35
661.36	815.96
661.70	810.00
662.05	804.63
662.39	799.21
662.73	794.15
663.07	789.16
663.41	784.17
663.75	779.06
664.09	773.59
664.43	767.87
664.77	762.30
665.11	756.77
665.45	751.88
665.79	746.71
666.13	741.52
666.47	736.72
666.81	732.01
667.15	727.31
667.49	722.35
667.83	717.46
668.17	712.90
668.51	708.37
668.85	703.59
669.19	698.63
669.53	693.60
669.87	688.54
670.21	683.78
670.55	678.80
670.89	674.11
671.23	669.84
671.57	665.54
671.91	661.14
672.25	656.91
672.58	652.39
672.92	647.75
673.26	643.39
673.60	639.02
673.94	634.90
674.28	630.81
674.62	626.72
674.96	622.69
675.30	618.89
675.64	614.98
675.97	611.32
676.31	607.94
676.65	604.55
676.99	601.54
677.33	598.14
677.67	594.80
678.01	590.90
678.34	586.95
678.68	583.30
679.02	579.84
679.36	576.28
679.70	572.86
680.04	569.49
680.37	565.93
680.71	562.48
681.05	559.06
681.39	555.73
681.73	552.30
682.06	548.96
682.40	545.44
682.74	541.86
683.08	538.36
683.42	534.81
683.75	531.32
684.09	527.62
684.43	524.01
684.77	520.67
685.10	517.44
685.44	514.19
685.78	510.94
686.12	507.76
686.45	504.70
686.79	501.69
687.13	498.88
687.46	495.94
687.80	492.91
688.14	489.85
688.48	486.78
688.81	483.90
689.15	481.05
689.49	478.04
689.82	475.19
690.16	472.13
690.50	469.20
690.83	466.34
691.17	463.50
691.51	460.81
691.84	458.01
692.18	455.45
692.52	453.06
692.85	450.50
693.19	447.97
693.52	445.20
693.86	442.36
694.20	439.71
694.53	437.05
694.87	434.50
695.21	431.83
695.54	429.32
695.88	426.80
696.21	424.35
696.55	422.10
696.88	419.87
697.22	417.62
697.56	415.52
697.89	413.29
698.23	411.26
698.56	409.03
698.90	406.85
699.23	404.67
699.57	402.32
699.90	400.18
700.24	397.97
700.58	395.90
700.91	393.95
701.25	391.86
701.58	389.94
701.92	388.14
702.25	386.45
702.59	384.59
702.92	382.75
703.26	380.84
703.59	379.10
703.93	377.40
704.26	375.71
704.60	373.74
704.93	371.89
705.26	369.94
705.60	368.25
705.93	366.59
706.27	364.93
706.60	363.54
706.94	361.94
707.27	360.21
707.61	358.53
707.94	356.90
708.27	355.23
708.61	353.63
708.94	351.93
709.28	350.25
709.61	348.61
709.94	346.93
710.28	345.30
710.61	343.71
710.95	341.92
711.28	340.39
711.61	338.89
711.95	337.51
712.28	336.13
712.61	334.72
712.95	333.25
713.28	331.92
713.61	330.35
713.95	328.95
714.28	327.75
714.61	326.61
714.95	325.39
715.28	324.01
715.61	322.59
715.95	321.28
716.28	319.95
716.61	318.60
716.95	317.39
717.28	316.15
717.61	314.88
717.94	313.72
718.28	312.43
718.61	311.26
718.94	310.05
719.27	308.94
719.61	307.89
719.94	306.87
720.27	305.71
720.60	304.76
720.94	303.84
721.27	302.93
721.60	301.94
721.93	300.89
722.27	300.11
722.60	299.32
722.93	298.35
723.26	297.48
723.59	296.70
723.93	295.89
724.26	295.10
724.59	294.27
724.92	293.46
725.25	292.72
725.59	291.85
725.92	291.15
726.25	290.37
726.58	289.42
726.91	288.61
727.24	287.72
727.57	286.84
727.91	285.82
728.24	284.86
728.57	284.04
728.90	283.37
729.23	282.54
729.56	281.80
729.89	281.13
730.22	280.36
730.55	279.57
730.89	278.79
731.22	277.96
731.55	277.29
731.88	276.49
732.21	275.80
732.54	275.19
732.87	274.41
733.20	273.71
733.53	273.10
733.86	272.38
734.19	271.77
734.52	271.21
734.85	270.84
735.18	270.28
735.51	269.75
735.84	269.02
736.17	268.39
736.50	267.79
736.83	267.32
737.16	266.80
737.49	266.32
737.82	265.74
738.15	265.25
738.48	264.63
738.81	264.12
739.14	263.48
739.47	262.85
739.80	262.30
740.13	261.77
740.46	261.18
740.79	260.67
741.12	260.10
741.45	259.50
741.78	258.90
742.11	258.37
742.44	257.73
742.77	257.32
743.10	256.76
743.43	256.22
743.75	255.55
744.08	255.24
744.41	254.58
744.74	254.09
745.07	253.52
745.40	253.09
745.73	252.66
746.06	252.22
746.39	251.84
746.71	251.34
747.04	250.83
747.37	250.48
747.70	250.05
748.03	249.66
748.36	249.35
748.68	248.87
749.01	248.34
749.34	247.95
749.67	247.48
750.00	247.15
750.33	246.80
750.65	246.40
750.98	245.68
751.31	245.39
751.64	244.99
751.97	244.73
752.29	244.35
752.62	243.92
752.95	243.54
753.28	243.03
753.60	242.75
753.93	242.50
754.26	242.02
754.59	241.62
754.91	241.27
755.24	240.75
755.57	240.37
755.90	240.09
756.22	239.70
756.55	239.32
756.88	238.99
757.20	238.60
757.53	238.22
757.86	238.00
758.19	237.69
758.51	237.33
758.84	236.92
759.17	236.60
759.49	236.28
759.82	236.02
760.15	235.83
760.47	235.47
760.80	235.14
761.13	234.83
761.45	234.52
761.78	234.28
762.11	234.10
762.43	233.80
762.76	233.45
763.08	233.23
763.41	233.00
763.74	232.69
764.06	232.39
764.39	232.17
764.71	231.99
765.04	231.74
765.37	231.55
765.69	231.29
766.02	231.02
766.34	230.77
766.67	230.45
767.00	230.21
767.32	230.14
767.65	229.99
767.97	229.81
768.30	229.67
768.62	229.39
768.95	229.17
769.27	229.01
769.60	228.95
769.92	228.73
770.25	228.51
770.57	228.29
770.90	228.18
771.22	227.95
771.55	227.74
771.87	227.44
772.20	227.23
772.52	227.21
772.85	227.27
773.17	227.05
773.50	226.89
773.82	226.72
774.15	226.38
774.47	226.06
774.80	225.89
775.12	225.69
775.45	225.54
775.77	225.37
776.09	225.24
776.42	225.06
776.74	224.93
777.07	224.71
777.39	224.53
777.72	224.31
778.04	224.20
778.36	223.99
778.69	223.96
779.01	223.81
779.33	223.51
779.66	223.10
779.98	222.99
780.31	222.91
780.63	222.87
780.95	222.91
781.28	222.76
781.60	222.65
781.92	222.54
782.25	222.38
782.57	222.20
