SpectraSuite Data File
++++++++++++++++++++++++++++++++++++
Date: Mon Feb 25 17:35:02 EST 2013
User: group
Dark Spectrum Present: No
Reference Spectrum Present: No
Number of Sampled Component Spectra: 1
Spectrometers: USB2E7196
Integration Time (usec): 52000 (USB2E7196)
Spectra Averaged: 20 (USB2E7196)
Boxcar Smoothing: 10 (USB2E7196)
Correct for Electrical Dark: No (USB2E7196)
Strobe/Lamp Enabled: No (USB2E7196)
Correct for Detector Non-linearity: No (USB2E7196)
Correct for Stray Light: No (USB2E7196)
Number of Pixels in Processed Spectrum: 2048
>>>>>Begin Processed Spectral Data<<<<<
339.09	0.00
339.48	198.80
339.86	201.40
340.24	201.55
340.63	201.90
341.01	206.55
341.39	205.40
341.78	206.15
342.16	209.20
342.54	208.25
342.93	198.06
343.31	208.06
343.69	208.60
344.07	208.94
344.46	209.45
344.84	209.88
345.22	210.20
345.60	210.48
345.99	210.73
346.37	210.87
346.75	211.05
347.13	211.17
347.52	211.24
347.90	211.39
348.28	211.37
348.66	211.42
349.05	211.37
349.43	211.59
349.81	211.69
350.19	211.78
350.57	211.79
350.96	211.93
351.34	212.05
351.72	212.15
352.10	212.37
352.48	212.32
352.87	212.35
353.25	212.29
353.63	212.30
354.01	212.35
354.39	212.40
354.77	212.47
355.15	212.50
355.54	212.60
355.92	212.59
356.30	212.63
356.68	212.83
357.06	212.96
357.44	212.91
357.82	213.03
358.20	213.13
358.58	213.20
358.97	213.21
359.35	213.33
359.73	213.43
360.11	213.43
360.49	213.56
360.87	213.69
361.25	213.77
361.63	213.92
362.01	213.98
362.39	214.05
362.77	214.07
363.15	214.07
363.53	214.13
363.91	214.21
364.29	214.32
364.67	214.20
365.05	214.14
365.43	214.08
365.81	214.14
366.19	214.22
366.57	214.28
366.95	214.26
367.33	214.22
367.71	214.19
368.09	214.20
368.47	214.18
368.85	214.13
369.23	214.18
369.61	214.15
369.99	214.18
370.37	214.18
370.75	214.29
371.13	214.31
371.51	214.30
371.89	214.20
372.27	214.13
372.65	214.07
373.03	214.10
373.41	214.08
373.78	213.97
374.16	213.82
374.54	213.67
374.92	213.66
375.30	213.57
375.68	213.55
376.06	213.58
376.44	213.59
376.82	213.52
377.19	213.40
377.57	213.33
377.95	213.21
378.33	213.10
378.71	212.91
379.09	212.91
379.47	212.86
379.84	212.85
380.22	212.77
380.60	212.73
380.98	212.73
381.36	212.64
381.73	212.60
382.11	212.61
382.49	212.61
382.87	212.55
383.25	212.58
383.62	212.69
384.00	212.55
384.38	212.44
384.76	212.54
385.13	212.64
385.51	212.60
385.89	212.51
386.27	212.51
386.64	212.56
387.02	212.47
387.40	212.33
387.78	212.28
388.15	212.25
388.53	212.23
388.91	212.21
389.29	212.21
389.66	212.23
390.04	212.15
390.42	212.21
390.79	212.15
391.17	212.07
391.55	211.93
391.92	211.95
392.30	212.02
392.68	211.90
393.05	211.81
393.43	211.82
393.81	211.85
394.18	211.81
394.56	211.74
394.94	211.78
395.31	211.84
395.69	211.89
396.06	211.97
396.44	211.90
396.82	211.81
397.19	211.88
397.57	211.90
397.95	211.90
398.32	211.82
398.70	211.87
399.07	211.95
399.45	211.92
399.82	211.90
400.20	211.92
400.58	212.01
400.95	212.05
401.33	212.07
401.70	212.29
402.08	212.32
402.45	212.37
402.83	212.44
403.20	212.47
403.58	212.50
403.95	212.55
404.33	212.67
404.71	212.79
405.08	213.00
405.46	213.06
405.83	213.24
406.21	213.35
406.58	213.52
406.96	213.71
407.33	213.91
407.70	214.19
408.08	214.46
408.45	214.70
408.83	214.95
409.20	215.19
409.58	215.27
409.95	215.59
410.33	215.89
410.70	216.19
411.08	216.56
411.45	216.97
411.82	217.42
412.20	217.94
412.57	218.48
412.95	218.81
413.32	219.41
413.69	219.93
414.07	220.59
414.44	221.20
414.82	221.70
415.19	222.42
415.56	223.09
415.94	223.82
416.31	224.71
416.68	225.54
417.06	226.63
417.43	227.67
417.81	228.74
418.18	229.89
418.55	231.14
418.93	232.45
419.30	233.73
419.67	235.08
420.04	236.51
420.42	238.14
420.79	239.97
421.16	241.65
421.54	243.62
421.91	245.46
422.28	247.45
422.66	249.59
423.03	251.71
423.40	253.89
423.77	256.19
424.15	258.39
424.52	260.86
424.89	263.40
425.26	265.90
425.64	268.35
426.01	270.96
426.38	273.65
426.75	276.42
427.13	279.21
427.50	282.26
427.87	285.35
428.24	288.34
428.61	291.14
428.99	294.37
429.36	297.85
429.73	301.33
430.10	304.72
430.47	308.25
430.85	311.79
431.22	315.69
431.59	319.87
431.96	323.96
432.33	328.34
432.70	332.59
433.08	337.57
433.45	342.21
433.82	346.82
434.19	351.88
434.56	356.94
434.93	361.79
435.30	366.55
435.68	371.85
436.05	377.18
436.42	382.45
436.79	387.19
437.16	392.14
437.53	397.57
437.90	402.95
438.27	408.18
438.64	413.69
439.01	418.64
439.38	422.91
439.75	426.93
440.13	431.86
440.50	436.35
440.87	439.94
441.24	443.76
441.61	447.96
441.98	451.11
442.35	454.81
442.72	458.59
443.09	461.99
443.46	464.00
443.83	465.37
444.20	466.54
444.57	468.41
444.94	469.30
445.31	469.98
445.68	470.70
446.05	470.85
446.42	470.12
446.79	469.36
447.16	468.47
447.53	467.94
447.90	465.59
448.27	463.55
448.64	460.64
449.01	458.56
449.37	454.95
449.74	451.37
450.11	447.07
450.48	442.48
450.85	437.91
451.22	433.95
451.59	430.15
451.96	426.54
452.33	421.63
452.70	417.14
453.07	412.01
453.43	406.66
453.80	401.73
454.17	396.99
454.54	392.45
454.91	387.71
455.28	382.93
455.65	378.57
456.02	374.12
456.38	370.45
456.75	365.77
457.12	361.85
457.49	358.06
457.86	354.23
458.23	350.95
458.59	347.50
458.96	343.99
459.33	340.75
459.70	337.58
460.07	335.07
460.43	332.27
460.80	329.50
461.17	327.15
461.54	324.76
461.91	322.36
462.27	319.97
462.64	317.85
463.01	315.54
463.38	313.45
463.74	311.22
464.11	309.32
464.48	307.60
464.85	305.81
465.21	304.45
465.58	303.07
465.95	301.34
466.32	299.89
466.68	298.41
467.05	296.94
467.42	295.50
467.78	293.98
468.15	292.57
468.52	291.54
468.88	290.23
469.25	288.97
469.62	288.06
469.98	286.99
470.35	286.09
470.72	285.30
471.08	284.34
471.45	283.62
471.82	282.90
472.18	282.04
472.55	281.48
472.92	280.77
473.28	280.11
473.65	279.51
474.02	278.92
474.38	278.48
474.75	278.11
475.11	277.76
475.48	277.46
475.85	277.20
476.21	276.96
476.58	276.87
476.94	276.79
477.31	276.58
477.67	276.57
478.04	276.58
478.41	276.70
478.77	276.94
479.14	276.99
479.50	277.21
479.87	277.53
480.23	277.93
480.60	278.31
480.96	278.69
481.33	279.35
481.69	279.96
482.06	280.59
482.42	281.27
482.79	281.97
483.15	282.92
483.52	283.98
483.88	285.02
484.25	285.98
484.61	287.13
484.98	288.34
485.34	289.70
485.71	291.08
486.07	292.51
486.44	293.92
486.80	295.49
487.17	297.04
487.53	298.87
487.90	300.69
488.26	302.57
488.62	304.68
488.99	306.81
489.35	308.96
489.72	311.37
490.08	313.88
490.44	316.30
490.81	318.93
491.17	321.54
491.54	324.40
491.90	327.45
492.26	330.52
492.63	333.90
492.99	337.25
493.36	340.92
493.72	344.82
494.08	348.71
494.45	353.07
494.81	357.63
495.17	362.29
495.54	367.15
495.90	372.28
496.26	377.52
496.63	383.02
496.99	388.81
497.35	394.75
497.72	400.90
498.08	407.54
498.44	414.27
498.80	421.49
499.17	428.99
499.53	436.65
499.89	444.89
500.26	453.01
500.62	461.40
500.98	470.14
501.34	479.20
501.71	488.79
502.07	498.41
502.43	508.29
502.79	518.50
503.16	529.25
503.52	540.16
503.88	551.48
504.24	562.84
504.60	574.84
504.97	587.18
505.33	599.80
505.69	613.05
506.05	626.67
506.41	640.19
506.78	653.98
507.14	668.17
507.50	682.81
507.86	697.86
508.22	713.42
508.59	728.87
508.95	744.99
509.31	761.10
509.67	778.03
510.03	795.06
510.39	812.81
510.75	830.69
511.12	848.86
511.48	867.23
511.84	886.20
512.20	904.86
512.56	924.10
512.92	943.88
513.28	963.42
513.64	983.16
514.00	1003.43
514.37	1023.85
514.73	1044.85
515.09	1065.61
515.45	1086.42
515.81	1107.69
516.17	1129.23
516.53	1150.72
516.89	1172.54
517.25	1194.01
517.61	1215.88
517.97	1237.26
518.33	1258.65
518.69	1280.27
519.05	1302.50
519.41	1324.72
519.77	1347.48
520.13	1369.78
520.49	1391.70
520.85	1414.55
521.21	1437.00
521.57	1459.82
521.93	1481.93
522.29	1504.79
522.65	1527.23
523.01	1550.03
523.37	1572.29
523.73	1594.67
524.09	1617.25
524.45	1639.71
524.81	1662.58
525.17	1685.06
525.53	1707.57
525.89	1730.27
526.25	1752.73
526.61	1774.48
526.97	1796.23
527.33	1817.48
527.68	1839.20
528.04	1860.84
528.40	1881.38
528.76	1902.35
529.12	1923.17
529.48	1945.06
529.84	1965.40
530.20	1986.11
530.56	2006.52
530.91	2027.32
531.27	2048.22
531.63	2068.17
531.99	2088.08
532.35	2107.40
532.71	2126.72
533.07	2146.72
533.42	2165.58
533.78	2184.78
534.14	2203.24
534.50	2220.63
534.86	2239.22
535.21	2256.03
535.57	2273.86
535.93	2291.16
536.29	2308.36
536.65	2325.34
537.00	2341.10
537.36	2356.67
537.72	2372.65
538.08	2388.35
538.44	2404.13
538.79	2419.46
539.15	2434.55
539.51	2449.21
539.87	2464.47
540.22	2479.32
540.58	2494.40
540.94	2508.98
541.29	2521.96
541.65	2534.60
542.01	2548.22
542.37	2559.99
542.72	2572.62
543.08	2583.58
543.44	2595.64
543.79	2606.11
544.15	2616.58
544.51	2627.86
544.87	2639.35
545.22	2648.02
545.58	2656.38
545.94	2663.53
546.29	2670.36
546.65	2676.91
547.01	2683.42
547.36	2689.18
547.72	2694.70
548.07	2698.70
548.43	2702.81
548.79	2706.93
549.14	2711.88
549.50	2716.22
549.86	2720.78
550.21	2725.14
550.57	2729.91
550.92	2733.04
551.28	2736.19
551.64	2738.86
551.99	2741.27
552.35	2742.61
552.70	2745.75
553.06	2748.76
553.41	2751.96
553.77	2754.68
554.13	2757.15
554.48	2759.36
554.84	2760.99
555.19	2762.09
555.55	2762.58
555.90	2763.32
556.26	2764.04
556.61	2763.91
556.97	2762.79
557.32	2762.07
557.68	2760.08
558.03	2758.41
558.39	2756.95
558.74	2756.31
559.10	2755.22
559.45	2753.30
559.81	2752.07
560.16	2749.44
560.52	2747.42
560.87	2744.38
561.23	2740.95
561.58	2738.58
561.94	2735.49
562.29	2731.77
562.64	2729.43
563.00	2727.23
563.35	2725.06
563.71	2723.46
564.06	2721.15
564.42	2719.54
564.77	2717.27
565.12	2715.68
565.48	2712.80
565.83	2710.03
566.19	2706.80
566.54	2702.69
566.89	2699.20
567.25	2695.90
567.60	2692.88
567.96	2689.01
568.31	2685.83
568.66	2682.18
569.02	2677.29
569.37	2672.41
569.72	2668.74
570.08	2663.26
570.43	2657.69
570.78	2651.83
571.14	2645.29
571.49	2638.82
571.84	2632.64
572.20	2625.60
572.55	2618.84
572.90	2612.04
573.26	2604.90
573.61	2597.94
573.96	2591.50
574.31	2583.59
574.67	2575.29
575.02	2566.73
575.37	2558.22
575.72	2548.75
576.08	2540.80
576.43	2532.30
576.78	2524.28
577.13	2515.82
577.49	2507.57
577.84	2500.02
578.19	2492.24
578.54	2484.85
578.90	2477.90
579.25	2469.13
579.60	2460.04
579.95	2450.75
580.30	2442.63
580.66	2434.21
581.01	2424.65
581.36	2414.86
581.71	2406.24
582.06	2397.70
582.42	2389.43
582.77	2380.42
583.12	2371.62
583.47	2362.94
583.82	2354.67
584.17	2345.10
584.53	2336.00
584.88	2326.95
585.23	2317.16
585.58	2307.49
585.93	2297.46
586.28	2287.87
586.63	2278.92
586.98	2270.66
587.34	2262.34
587.69	2253.00
588.04	2244.04
588.39	2235.92
588.74	2226.99
589.09	2218.04
589.44	2208.27
589.79	2199.54
590.14	2191.16
590.49	2182.74
590.84	2173.42
591.19	2164.86
591.54	2156.25
591.89	2146.24
592.25	2136.99
592.60	2127.50
592.95	2117.75
593.30	2108.45
593.65	2098.54
594.00	2088.92
594.35	2080.45
594.70	2070.98
595.05	2061.88
595.40	2052.75
595.75	2043.03
596.10	2034.67
596.45	2026.03
596.80	2018.16
597.15	2009.66
597.50	2000.40
597.85	1991.70
598.19	1982.90
598.54	1974.24
598.89	1966.14
599.24	1959.31
599.59	1952.01
599.94	1944.82
600.29	1937.08
600.64	1928.64
600.99	1920.44
601.34	1912.90
601.69	1903.99
602.04	1895.86
602.39	1887.76
602.74	1879.58
603.08	1872.84
603.43	1865.70
603.78	1857.52
604.13	1849.28
604.48	1841.32
604.83	1834.63
605.18	1827.62
605.53	1820.03
605.87	1812.24
606.22	1804.98
606.57	1796.68
606.92	1788.10
607.27	1780.05
607.62	1772.69
607.96	1765.95
608.31	1759.59
608.66	1751.67
609.01	1744.05
609.36	1736.39
609.70	1728.39
610.05	1720.56
610.40	1712.22
610.75	1703.43
611.10	1695.74
611.44	1686.55
611.79	1677.24
612.14	1667.37
612.49	1657.50
612.83	1648.77
613.18	1638.95
613.53	1629.72
613.88	1619.85
614.22	1611.03
614.57	1601.47
614.92	1592.26
615.27	1582.76
615.61	1572.70
615.96	1563.82
616.31	1555.01
616.65	1546.81
617.00	1538.38
617.35	1529.78
617.70	1520.70
618.04	1511.84
618.39	1502.52
618.74	1494.20
619.08	1485.44
619.43	1477.17
619.78	1469.45
620.12	1461.31
620.47	1453.59
620.82	1444.85
621.16	1436.68
621.51	1428.27
621.85	1419.95
622.20	1411.22
622.55	1402.64
622.89	1394.15
623.24	1386.05
623.59	1377.33
623.93	1368.65
624.28	1360.34
624.62	1352.10
624.97	1343.67
625.32	1335.70
625.66	1328.20
626.01	1320.90
626.35	1313.70
626.70	1306.20
627.04	1298.80
627.39	1291.07
627.73	1283.20
628.08	1275.97
628.43	1268.70
628.77	1261.05
629.12	1253.47
629.46	1246.71
629.81	1239.52
630.15	1232.47
630.50	1224.93
630.84	1217.79
631.19	1210.62
631.53	1203.66
631.88	1195.97
632.22	1188.60
632.57	1181.46
632.91	1173.87
633.26	1166.18
633.60	1158.76
633.95	1151.74
634.29	1144.13
634.64	1137.27
634.98	1130.46
635.32	1123.54
635.67	1116.97
636.01	1110.34
636.36	1103.79
636.70	1097.08
637.05	1090.73
637.39	1084.28
637.73	1077.93
638.08	1072.14
638.42	1066.30
638.77	1059.61
639.11	1053.30
639.45	1047.28
639.80	1040.54
640.14	1034.11
640.49	1027.74
640.83	1021.50
641.17	1015.34
641.52	1009.27
641.86	1002.70
642.20	996.34
642.55	989.67
642.89	983.20
643.23	976.78
643.58	970.81
643.92	964.27
644.26	957.60
644.61	951.50
644.95	945.35
645.29	938.70
645.64	931.85
645.98	925.71
646.32	919.84
646.66	913.52
647.01	907.74
647.35	901.98
647.69	895.82
648.04	889.74
648.38	883.50
648.72	877.32
649.06	871.25
649.41	865.24
649.75	859.44
650.09	853.65
650.43	847.56
650.78	841.28
651.12	835.12
651.46	829.41
651.80	823.22
652.14	817.27
652.49	811.40
652.83	805.49
653.17	799.41
653.51	793.35
653.85	787.49
654.20	781.46
654.54	775.51
654.88	769.95
655.22	764.17
655.56	758.20
655.90	752.50
656.25	746.69
656.59	741.12
656.93	735.90
657.27	730.52
657.61	725.28
657.95	719.97
658.29	714.79
658.64	709.54
658.98	704.42
659.32	698.93
659.66	693.78
660.00	688.50
660.34	683.18
660.68	678.05
661.02	673.07
661.36	668.46
661.70	663.58
662.05	658.80
662.39	654.28
662.73	649.99
663.07	645.51
663.41	641.19
663.75	636.69
664.09	631.64
664.43	626.87
664.77	622.50
665.11	618.15
665.45	613.72
665.79	609.30
666.13	604.82
666.47	600.57
666.81	596.29
667.15	592.19
667.49	588.33
667.83	584.43
668.17	580.42
668.51	576.51
668.85	572.71
669.19	569.05
669.53	565.12
669.87	560.91
670.21	557.10
670.55	553.14
670.89	549.49
671.23	546.27
671.57	542.70
671.91	538.93
672.25	535.37
672.58	531.87
672.92	528.40
673.26	525.17
673.60	521.96
673.94	518.75
674.28	515.50
674.62	512.26
674.96	508.94
675.30	505.80
675.64	502.51
675.97	499.41
676.31	496.23
676.65	493.33
676.99	490.72
677.33	487.55
677.67	484.69
678.01	481.60
678.34	478.53
678.68	475.56
679.02	472.69
679.36	469.85
679.70	467.11
680.04	464.14
680.37	461.23
680.71	458.39
681.05	455.72
681.39	453.02
681.73	450.34
682.06	447.95
682.40	445.50
682.74	442.89
683.08	440.20
683.42	437.58
683.75	434.99
684.09	432.33
684.43	429.99
684.77	427.38
685.10	424.95
685.44	422.44
685.78	420.07
686.12	417.78
686.45	415.26
686.79	412.96
687.13	410.79
687.46	408.49
687.80	406.27
688.14	403.85
688.48	401.63
688.81	399.33
689.15	396.88
689.49	394.53
689.82	392.27
690.16	389.96
690.50	387.76
690.83	385.44
691.17	383.23
691.51	380.89
691.84	378.75
692.18	376.64
692.52	374.67
692.85	372.67
693.19	370.74
693.52	368.86
693.86	366.75
694.20	364.88
694.53	363.05
694.87	361.09
695.21	359.21
695.54	357.27
695.88	355.38
696.21	353.55
696.55	351.75
696.88	349.89
697.22	348.17
697.56	346.44
697.89	344.84
698.23	343.19
698.56	341.66
698.90	340.17
699.23	338.47
699.57	336.79
699.90	335.19
700.24	333.44
700.58	331.72
700.91	330.13
701.25	328.63
701.58	327.11
701.92	325.59
702.25	324.15
702.59	322.75
702.92	321.40
703.26	320.08
703.59	318.84
703.93	317.80
704.26	316.52
704.60	315.31
704.93	313.94
705.26	312.57
705.60	311.30
705.93	309.99
706.27	308.90
706.60	307.74
706.94	306.61
707.27	305.42
707.61	304.28
707.94	303.15
708.27	301.94
708.61	300.82
708.94	299.78
709.28	298.56
709.61	297.51
709.94	296.51
710.28	295.46
710.61	294.27
710.95	293.04
711.28	292.07
711.61	290.93
711.95	290.00
712.28	289.00
712.61	287.99
712.95	287.10
713.28	286.22
713.61	285.26
713.95	284.27
714.28	283.34
714.61	282.38
714.95	281.56
715.28	280.63
715.61	279.73
715.95	278.71
716.28	278.00
716.61	277.06
716.95	276.21
717.28	275.34
717.61	274.61
717.94	273.76
718.28	272.94
718.61	272.21
718.94	271.39
719.27	270.69
719.61	270.01
719.94	269.23
720.27	268.43
720.60	267.72
720.94	267.00
721.27	266.35
721.60	265.73
721.93	265.12
722.27	264.54
722.60	263.85
722.93	263.32
723.26	262.65
723.59	262.14
723.93	261.54
724.26	261.01
724.59	260.33
724.92	259.93
725.25	259.35
725.59	258.73
725.92	258.21
726.25	257.69
726.58	257.15
726.91	256.66
727.24	256.15
727.57	255.57
727.91	255.09
728.24	254.62
728.57	254.13
728.90	253.56
729.23	253.08
729.56	252.69
729.89	252.18
730.22	251.61
730.55	251.14
730.89	250.64
731.22	250.19
731.55	249.74
731.88	249.11
732.21	248.63
732.54	248.19
732.87	247.80
733.20	247.38
733.53	246.95
733.86	246.58
734.19	246.09
734.52	245.78
734.85	245.47
735.18	245.09
735.51	244.75
735.84	244.40
736.17	244.04
736.50	243.62
736.83	243.51
737.16	243.15
737.49	242.72
737.82	242.31
738.15	241.96
738.48	241.67
738.81	241.41
739.14	241.05
739.47	240.71
739.80	240.31
740.13	239.98
740.46	239.54
740.79	239.10
741.12	238.77
741.45	238.46
741.78	238.09
742.11	237.85
742.44	237.53
742.77	237.25
743.10	236.88
743.43	236.54
743.75	235.96
744.08	235.95
744.41	235.68
744.74	235.35
745.07	235.07
745.40	234.74
745.73	234.49
746.06	234.22
746.39	233.99
746.71	233.72
747.04	233.36
747.37	233.15
747.70	232.97
748.03	232.78
748.36	232.47
748.68	232.12
749.01	231.68
749.34	231.47
749.67	231.21
750.00	230.99
750.33	230.79
750.65	230.60
750.98	230.13
751.31	229.93
751.64	229.81
751.97	229.64
752.29	229.39
752.62	229.13
752.95	228.92
753.28	228.65
753.60	228.44
753.93	228.28
754.26	228.10
754.59	227.82
754.91	227.52
755.24	227.32
755.57	227.17
755.90	227.08
756.22	226.81
756.55	226.59
756.88	226.39
757.20	226.20
757.53	225.91
757.86	225.70
758.19	225.52
758.51	225.26
758.84	224.97
759.17	224.81
759.49	224.58
759.82	224.40
760.15	224.26
760.47	224.10
760.80	223.90
761.13	223.73
761.45	223.57
761.78	223.51
762.11	223.39
762.43	223.21
762.76	222.99
763.08	222.90
763.41	222.80
763.74	222.66
764.06	222.47
764.39	222.38
764.71	222.27
765.04	222.07
765.37	221.89
765.69	221.79
766.02	221.66
766.34	221.55
766.67	221.44
767.00	221.34
767.32	221.30
767.65	221.27
767.97	221.10
768.30	220.95
768.62	220.76
768.95	220.60
769.27	220.48
769.60	220.46
769.92	220.28
770.25	220.10
770.57	220.02
770.90	219.91
771.22	219.90
771.55	219.75
771.87	219.67
772.20	219.63
772.52	219.61
772.85	219.72
773.17	219.67
773.50	219.53
773.82	219.42
774.15	219.23
774.47	219.03
774.80	218.95
775.12	218.90
775.45	218.81
775.77	218.70
776.09	218.65
776.42	218.50
776.74	218.47
777.07	218.38
777.39	218.24
777.72	218.11
778.04	217.98
778.36	217.93
778.69	217.84
779.01	217.80
779.33	217.60
779.66	217.37
779.98	217.30
780.31	217.23
780.63	217.22
780.95	217.21
781.28	217.15
781.60	217.10
781.92	217.06
782.25	217.04
782.57	217.06
782.89	216.97
783.22	216.92
783.54	216.81
783.86	216.76
784.19	216.68
784.51	216.75
784.83	216.67
785.16	216.62
785.48	216.58
785.80	216.49
786.12	216.45
786.45	216.35
