SpectraSuite Data File
++++++++++++++++++++++++++++++++++++
Date: Mon Feb 25 17:36:30 EST 2013
User: group
Dark Spectrum Present: No
Reference Spectrum Present: No
Number of Sampled Component Spectra: 1
Spectrometers: USB2E7196
Integration Time (usec): 52000 (USB2E7196)
Spectra Averaged: 20 (USB2E7196)
Boxcar Smoothing: 10 (USB2E7196)
Correct for Electrical Dark: No (USB2E7196)
Strobe/Lamp Enabled: No (USB2E7196)
Correct for Detector Non-linearity: No (USB2E7196)
Correct for Stray Light: No (USB2E7196)
Number of Pixels in Processed Spectrum: 2048
>>>>>Begin Processed Spectral Data<<<<<
339.09	0.00
339.48	198.75
339.86	199.20
340.24	203.30
340.63	202.90
341.01	206.90
341.39	206.10
341.78	208.45
342.16	208.60
342.54	210.40
342.93	198.45
343.31	208.42
343.69	208.99
344.07	209.61
344.46	210.02
344.84	210.51
345.22	210.76
345.60	211.11
345.99	211.36
346.37	211.60
346.75	211.79
347.13	212.03
347.52	212.15
347.90	212.38
348.28	212.52
348.66	212.64
349.05	212.77
349.43	212.87
349.81	213.02
350.19	213.10
350.57	213.23
350.96	213.33
351.34	213.58
351.72	213.78
352.10	213.85
352.48	213.97
352.87	214.09
353.25	214.20
353.63	214.24
354.01	214.32
354.39	214.36
354.77	214.37
355.15	214.51
355.54	214.62
355.92	214.58
356.30	214.67
356.68	214.84
357.06	214.83
357.44	214.88
357.82	214.85
358.20	214.95
358.58	215.05
358.97	215.07
359.35	215.12
359.73	215.25
360.11	215.27
360.49	215.32
360.87	215.33
361.25	215.43
361.63	215.55
362.01	215.61
362.39	215.62
362.77	215.69
363.15	215.55
363.53	215.56
363.91	215.62
364.29	215.64
364.67	215.53
365.05	215.55
365.43	215.63
365.81	215.69
366.19	215.77
366.57	215.81
366.95	215.84
367.33	215.85
367.71	215.81
368.09	215.86
368.47	215.92
368.85	215.79
369.23	215.75
369.61	215.68
369.99	215.64
370.37	215.67
370.75	215.69
371.13	215.72
371.51	215.68
371.89	215.72
372.27	215.66
372.65	215.69
373.03	215.72
373.41	215.64
373.78	215.64
374.16	215.58
374.54	215.50
374.92	215.47
375.30	215.46
375.68	215.45
376.06	215.41
376.44	215.29
376.82	215.38
377.19	215.33
377.57	215.35
377.95	215.27
378.33	215.25
378.71	215.25
379.09	215.22
379.47	215.22
379.84	215.12
380.22	215.10
380.60	214.98
380.98	214.89
381.36	214.90
381.73	214.87
382.11	214.82
382.49	214.87
382.87	214.82
383.25	214.81
383.62	214.94
384.00	214.94
384.38	214.97
384.76	214.93
385.13	215.05
385.51	214.91
385.89	214.94
386.27	214.96
386.64	214.90
387.02	214.88
387.40	214.78
387.78	214.80
388.15	214.83
388.53	214.85
388.91	214.90
389.29	214.94
389.66	214.92
390.04	214.92
390.42	214.89
390.79	214.91
391.17	214.87
391.55	214.77
391.92	214.85
392.30	214.83
392.68	214.90
393.05	214.93
393.43	215.05
393.81	215.11
394.18	215.11
394.56	215.21
394.94	215.33
395.31	215.51
395.69	215.67
396.06	215.84
396.44	215.96
396.82	216.02
397.19	216.17
397.57	216.25
397.95	216.42
398.32	216.60
398.70	216.80
399.07	216.99
399.45	217.03
399.82	217.21
400.20	217.53
400.58	217.79
400.95	217.91
401.33	218.27
401.70	218.63
402.08	219.00
402.45	219.34
402.83	219.74
403.20	220.15
403.58	220.55
403.95	221.02
404.33	221.60
404.71	222.18
405.08	222.97
405.46	223.69
405.83	224.47
406.21	225.18
406.58	226.11
406.96	227.07
407.33	228.10
407.70	229.19
408.08	230.47
408.45	231.80
408.83	233.23
409.20	234.63
409.58	236.12
409.95	237.77
410.33	239.64
410.70	241.55
411.08	243.65
411.45	245.88
411.82	248.27
412.20	250.83
412.57	253.81
412.95	256.58
413.32	259.73
413.69	263.08
414.07	266.64
414.44	270.51
414.82	274.59
415.19	279.27
415.56	284.03
415.94	289.15
416.31	294.72
416.68	300.48
417.06	306.92
417.43	313.00
417.81	320.12
418.18	327.36
418.55	335.16
418.93	343.53
419.30	352.18
419.67	361.28
420.04	370.79
420.42	380.87
420.79	391.93
421.16	403.61
421.54	415.37
421.91	427.92
422.28	440.86
422.66	454.66
423.03	467.87
423.40	482.05
423.77	497.39
424.15	512.92
424.52	529.17
424.89	546.71
425.26	564.09
425.64	580.66
426.01	599.04
426.38	618.18
426.75	637.27
427.13	657.53
427.50	678.91
427.87	701.25
428.24	723.85
428.61	746.02
428.99	769.28
429.36	795.23
429.73	820.42
430.10	845.67
430.47	871.64
430.85	899.49
431.22	928.28
431.59	958.40
431.96	988.15
432.33	1020.76
432.70	1052.57
433.08	1089.69
433.45	1124.67
433.82	1159.84
434.19	1198.71
434.56	1236.88
434.93	1273.99
435.30	1310.96
435.68	1351.83
436.05	1392.63
436.42	1433.05
436.79	1470.69
437.16	1511.38
437.53	1554.56
437.90	1597.39
438.27	1639.25
438.64	1682.84
439.01	1723.53
439.38	1760.94
439.75	1796.29
440.13	1836.85
440.50	1874.99
440.87	1907.47
441.24	1940.88
441.61	1977.15
441.98	2005.81
442.35	2038.69
442.72	2071.16
443.09	2102.41
443.46	2123.66
443.83	2138.80
444.20	2152.66
444.57	2171.32
444.94	2181.85
445.31	2192.87
445.68	2202.07
446.05	2209.70
446.42	2209.77
446.79	2208.72
447.16	2206.90
447.53	2206.71
447.90	2194.99
448.27	2183.74
448.64	2165.50
449.01	2153.47
449.37	2129.57
449.74	2105.73
450.11	2075.82
450.48	2044.72
450.85	2013.36
451.22	1985.56
451.59	1958.64
451.96	1933.42
452.33	1898.35
452.70	1866.96
453.07	1828.80
453.43	1790.64
453.80	1752.70
454.17	1716.34
454.54	1682.66
454.91	1645.70
455.28	1610.01
455.65	1576.92
456.02	1541.64
456.38	1512.78
456.75	1476.49
457.12	1446.41
457.49	1416.73
457.86	1389.03
458.23	1363.40
458.59	1335.50
458.96	1307.75
459.33	1283.68
459.70	1258.85
460.07	1239.29
460.43	1216.71
460.80	1194.98
461.17	1176.66
461.54	1157.05
461.91	1138.60
462.27	1119.40
462.64	1103.66
463.01	1085.58
463.38	1067.50
463.74	1051.86
464.11	1036.97
464.48	1023.86
464.85	1009.39
465.21	997.97
465.58	985.63
465.95	971.50
466.32	959.48
466.68	947.59
467.05	935.48
467.42	923.84
467.78	911.46
468.15	899.79
468.52	890.98
468.88	879.92
469.25	870.05
469.62	861.86
469.98	853.17
470.35	845.01
470.72	837.55
471.08	829.61
471.45	822.24
471.82	814.77
472.18	806.91
472.55	801.23
472.92	794.65
473.28	789.13
473.65	783.64
474.02	778.13
474.38	773.47
474.75	769.67
475.11	765.40
475.48	762.03
475.85	759.26
476.21	756.40
476.58	753.97
476.94	752.14
477.31	749.84
477.67	747.96
478.04	746.20
478.41	745.13
478.77	744.29
479.14	743.37
479.50	743.15
479.87	743.69
480.23	744.19
480.60	744.24
480.96	744.39
481.33	745.77
481.69	747.23
482.06	748.14
482.42	748.79
482.79	750.00
483.15	752.54
483.52	755.57
483.88	758.50
484.25	761.35
484.61	764.19
484.98	767.48
485.34	771.45
485.71	776.12
486.07	780.79
486.44	785.95
486.80	791.56
487.17	797.48
487.53	803.56
487.90	810.27
488.26	817.53
488.62	825.20
488.99	832.71
489.35	840.61
489.72	849.65
490.08	859.42
490.44	869.27
490.81	878.97
491.17	888.60
491.54	899.40
491.90	910.14
492.26	921.80
492.63	933.80
492.99	946.03
493.36	958.48
493.72	971.85
494.08	985.45
494.45	999.74
494.81	1014.86
495.17	1030.40
495.54	1046.29
495.90	1062.87
496.26	1079.86
496.63	1097.44
496.99	1115.22
497.35	1133.05
497.72	1150.96
498.08	1169.53
498.44	1188.47
498.80	1208.73
499.17	1228.61
499.53	1249.31
499.89	1270.33
500.26	1291.47
500.62	1312.51
500.98	1334.90
501.34	1356.97
501.71	1379.59
502.07	1402.22
502.43	1424.94
502.79	1447.75
503.16	1470.78
503.52	1494.00
503.88	1516.88
504.24	1539.77
504.60	1563.23
504.97	1587.55
505.33	1611.68
505.69	1636.97
506.05	1661.92
506.41	1686.15
506.78	1710.95
507.14	1735.24
507.50	1760.00
507.86	1784.89
508.22	1810.76
508.59	1835.20
508.95	1860.45
509.31	1885.56
509.67	1911.13
510.03	1936.25
510.39	1961.80
510.75	1986.86
511.12	2011.22
511.48	2035.73
511.84	2060.66
512.20	2084.88
512.56	2109.29
512.92	2133.77
513.28	2157.41
513.64	2181.68
514.00	2205.01
514.37	2227.88
514.73	2251.79
515.09	2274.54
515.45	2297.19
515.81	2319.39
516.17	2342.19
516.53	2363.70
516.89	2384.85
517.25	2404.72
517.61	2424.61
517.97	2444.00
518.33	2462.86
518.69	2482.39
519.05	2502.26
519.41	2521.70
519.77	2541.43
520.13	2560.34
520.49	2578.37
520.85	2596.25
521.21	2613.04
521.57	2631.21
521.93	2648.02
522.29	2664.73
522.65	2681.69
523.01	2698.26
523.37	2713.62
523.73	2728.91
524.09	2744.06
524.45	2759.10
524.81	2773.80
525.17	2789.13
525.53	2803.97
525.89	2819.47
526.25	2834.18
526.61	2847.05
526.97	2860.48
527.33	2873.57
527.68	2886.62
528.04	2900.01
528.40	2912.05
528.76	2924.70
529.12	2935.51
529.48	2947.82
529.84	2957.93
530.20	2969.07
530.56	2980.06
530.91	2991.76
531.27	3002.49
531.63	3013.21
531.99	3023.49
532.35	3034.22
532.71	3044.41
533.07	3056.08
533.42	3065.36
533.78	3075.66
534.14	3085.92
534.50	3094.67
534.86	3103.88
535.21	3111.08
535.57	3119.98
535.93	3128.03
536.29	3134.96
536.65	3143.99
537.00	3151.50
537.36	3160.15
537.72	3166.93
538.08	3174.35
538.44	3181.22
538.79	3188.13
539.15	3195.33
539.51	3202.62
539.87	3209.74
540.22	3215.81
540.58	3221.39
540.94	3227.94
541.29	3232.96
541.65	3236.12
542.01	3240.03
542.37	3243.86
542.72	3249.50
543.08	3252.50
543.44	3256.97
543.79	3260.74
544.15	3263.20
544.51	3266.76
544.87	3270.44
545.22	3272.90
545.58	3274.64
545.94	3276.15
546.29	3277.32
546.65	3277.93
547.01	3278.42
547.36	3279.81
547.72	3281.15
548.07	3280.76
548.43	3280.37
548.79	3279.67
549.14	3281.18
549.50	3282.60
549.86	3283.42
550.21	3282.41
550.57	3283.00
550.92	3281.88
551.28	3281.04
551.64	3280.18
551.99	3279.10
552.35	3278.33
552.70	3278.05
553.06	3277.41
553.41	3277.02
553.77	3277.02
554.13	3276.45
554.48	3277.18
554.84	3276.45
555.19	3274.58
555.55	3274.05
555.90	3273.74
556.26	3272.76
556.61	3271.88
556.97	3269.19
557.32	3265.84
557.68	3263.52
558.03	3260.56
558.39	3258.52
558.74	3258.41
559.10	3258.09
559.45	3257.25
559.81	3255.75
560.16	3254.15
560.52	3252.95
560.87	3250.94
561.23	3247.08
561.58	3244.23
561.94	3239.29
562.29	3234.48
562.64	3230.94
563.00	3227.64
563.35	3223.24
563.71	3220.03
564.06	3216.96
564.42	3214.31
564.77	3211.96
565.12	3209.54
565.48	3206.62
565.83	3203.91
566.19	3200.42
566.54	3196.44
566.89	3191.00
567.25	3185.25
567.60	3181.02
567.96	3176.01
568.31	3171.26
568.66	3167.79
569.02	3164.41
569.37	3161.30
569.72	3157.71
570.08	3154.00
570.43	3147.69
570.78	3143.08
571.14	3138.39
571.49	3132.75
571.84	3128.23
572.20	3122.27
572.55	3116.95
572.90	3110.99
573.26	3104.87
573.61	3097.21
573.96	3089.52
574.31	3082.81
574.67	3076.69
575.02	3068.88
575.37	3060.93
575.72	3053.60
576.08	3046.05
576.43	3037.30
576.78	3029.13
577.13	3021.40
577.49	3013.53
577.84	3006.99
578.19	2999.06
578.54	2991.01
578.90	2983.02
579.25	2973.53
579.60	2964.59
579.95	2955.39
580.30	2947.03
580.66	2937.84
581.01	2929.01
581.36	2919.66
581.71	2911.00
582.06	2902.33
582.42	2894.46
582.77	2885.20
583.12	2875.24
583.47	2866.07
583.82	2856.85
584.17	2846.63
584.53	2836.97
584.88	2826.73
585.23	2816.28
585.58	2806.92
585.93	2796.77
586.28	2788.02
586.63	2778.53
586.98	2769.12
587.34	2759.77
587.69	2749.37
588.04	2740.32
588.39	2730.98
588.74	2720.50
589.09	2710.71
589.44	2699.03
589.79	2687.71
590.14	2678.50
590.49	2667.88
590.84	2657.61
591.19	2647.94
591.54	2637.91
591.89	2626.79
592.25	2616.38
592.60	2605.31
592.95	2593.69
593.30	2582.38
593.65	2570.67
594.00	2560.31
594.35	2550.71
594.70	2539.31
595.05	2528.84
595.40	2516.55
595.75	2504.81
596.10	2494.52
596.45	2483.04
596.80	2473.42
597.15	2462.90
597.50	2451.42
597.85	2441.52
598.19	2429.24
598.54	2417.52
598.89	2406.43
599.24	2396.08
599.59	2385.04
599.94	2375.57
600.29	2365.95
600.64	2356.01
600.99	2344.35
601.34	2333.67
601.69	2321.82
602.04	2310.82
602.39	2300.45
602.74	2291.60
603.08	2283.11
603.43	2274.95
603.78	2265.67
604.13	2255.32
604.48	2244.64
604.83	2235.34
605.18	2225.33
605.53	2215.98
605.87	2206.10
606.22	2196.48
606.57	2186.50
606.92	2175.92
607.27	2164.93
607.62	2154.31
607.96	2144.51
608.31	2135.88
608.66	2125.33
609.01	2114.96
609.36	2104.71
609.70	2093.47
610.05	2081.63
610.40	2069.44
610.75	2056.67
611.10	2045.29
611.44	2033.70
611.79	2023.03
612.14	2011.24
612.49	1998.96
612.83	1987.68
613.18	1975.61
613.53	1964.12
613.88	1951.62
614.22	1939.97
614.57	1927.93
614.92	1915.28
615.27	1902.95
615.61	1889.80
615.96	1877.99
616.31	1866.79
616.65	1856.36
617.00	1846.05
617.35	1835.17
617.70	1823.54
618.04	1812.04
618.39	1800.17
618.74	1789.00
619.08	1776.96
619.43	1765.36
619.78	1754.56
620.12	1743.98
620.47	1734.12
620.82	1723.15
621.16	1712.95
621.51	1702.65
621.85	1691.95
622.20	1681.42
622.55	1670.17
622.89	1660.00
623.24	1649.51
623.59	1638.65
623.93	1627.61
624.28	1616.40
624.62	1605.76
624.97	1595.52
625.32	1585.62
625.66	1576.02
626.01	1566.13
626.35	1557.53
626.70	1548.18
627.04	1538.74
627.39	1528.58
627.73	1518.65
628.08	1509.23
628.43	1499.60
628.77	1490.87
629.12	1481.57
629.46	1472.49
629.81	1463.04
630.15	1453.35
630.50	1443.84
630.84	1434.29
631.19	1424.21
631.53	1414.78
631.88	1405.51
632.22	1396.80
632.57	1388.34
632.91	1379.59
633.26	1370.60
633.60	1361.15
633.95	1352.71
634.29	1344.37
634.64	1336.20
634.98	1327.00
635.32	1318.23
635.67	1310.17
636.01	1301.42
636.36	1293.10
636.70	1285.05
637.05	1277.14
637.39	1269.02
637.73	1260.95
638.08	1253.91
638.42	1247.06
638.77	1239.83
639.11	1232.09
639.45	1224.24
639.80	1216.05
640.14	1208.06
640.49	1200.37
640.83	1192.16
641.17	1183.95
641.52	1175.76
641.86	1167.68
642.20	1160.16
642.55	1151.83
642.89	1143.17
643.23	1135.00
643.58	1127.57
643.92	1119.40
644.26	1111.35
644.61	1103.54
644.95	1095.65
645.29	1087.45
645.64	1079.02
645.98	1070.83
646.32	1063.32
646.66	1055.80
647.01	1048.08
647.35	1040.37
647.69	1032.59
648.04	1025.25
648.38	1017.46
648.72	1010.05
649.06	1002.50
649.41	994.96
649.75	987.52
650.09	980.73
650.43	973.85
650.78	966.60
651.12	959.49
651.46	952.92
651.80	946.41
652.14	940.11
652.49	933.32
652.83	926.69
653.17	919.75
653.51	912.87
653.85	906.10
654.20	899.80
654.54	893.36
654.88	887.04
655.22	880.33
655.56	873.66
655.90	866.74
656.25	859.61
656.59	853.08
656.93	847.12
657.27	840.64
657.61	833.90
657.95	827.88
658.29	821.95
658.64	816.02
658.98	809.92
659.32	803.50
659.66	797.47
660.00	791.72
660.34	786.11
660.68	780.50
661.02	774.50
661.36	768.53
661.70	762.95
662.05	757.52
662.39	752.42
662.73	747.40
663.07	742.61
663.41	738.22
663.75	733.71
664.09	728.65
664.43	723.65
664.77	718.83
665.11	713.68
665.45	708.98
665.79	703.99
666.13	699.42
666.47	694.97
666.81	690.74
667.15	686.20
667.49	681.86
667.83	677.38
668.17	673.08
668.51	669.02
668.85	664.55
669.19	660.24
669.53	655.85
669.87	651.16
670.21	646.78
670.55	642.20
670.89	637.71
671.23	633.78
671.57	629.69
671.91	625.69
672.25	621.59
672.58	617.18
672.92	613.11
673.26	609.16
673.60	605.17
673.94	601.14
674.28	597.50
674.62	593.68
674.96	589.74
675.30	586.10
675.64	582.30
675.97	578.90
676.31	575.50
676.65	572.23
676.99	569.55
677.33	566.26
677.67	563.09
678.01	559.66
678.34	556.13
678.68	552.81
679.02	549.45
679.36	546.09
679.70	543.00
680.04	539.84
680.37	536.52
680.71	533.30
681.05	530.21
681.39	526.92
681.73	523.79
682.06	520.84
682.40	517.79
682.74	514.55
683.08	511.31
683.42	508.03
683.75	504.93
684.09	501.50
684.43	498.45
684.77	495.51
685.10	492.39
685.44	489.24
685.78	486.29
686.12	483.34
686.45	480.53
686.79	477.70
687.13	475.11
687.46	472.35
687.80	469.53
688.14	466.73
688.48	464.11
688.81	461.41
689.15	458.87
689.49	456.12
689.82	453.37
690.16	450.57
690.50	447.83
690.83	445.19
691.17	442.62
691.51	439.95
691.84	437.30
692.18	435.05
692.52	432.77
692.85	430.34
693.19	428.04
693.52	425.65
693.86	423.25
694.20	420.76
694.53	418.39
694.87	416.09
695.21	413.64
695.54	411.21
695.88	409.00
696.21	406.72
696.55	404.63
696.88	402.67
697.22	400.86
697.56	399.08
697.89	397.05
698.23	395.10
698.56	393.08
698.90	391.19
699.23	389.17
699.57	387.14
699.90	385.20
700.24	383.32
700.58	381.40
700.91	379.64
701.25	377.86
701.58	376.09
701.92	374.28
702.25	372.72
702.59	371.02
702.92	369.22
703.26	367.51
703.59	365.87
703.93	364.39
704.26	362.70
704.60	360.88
704.93	359.13
705.26	357.46
705.60	356.09
705.93	354.64
706.27	353.22
706.60	351.94
706.94	350.44
707.27	348.78
707.61	347.27
707.94	345.71
708.27	344.24
708.61	342.74
708.94	341.44
709.28	340.05
709.61	338.54
709.94	337.11
710.28	335.48
710.61	333.96
710.95	332.32
711.28	330.96
711.61	329.62
711.95	328.29
712.28	326.89
712.61	325.50
712.95	324.26
713.28	323.00
713.61	321.67
713.95	320.49
714.28	319.35
714.61	318.19
714.95	317.04
715.28	315.71
715.61	314.45
715.95	313.16
716.28	311.81
716.61	310.61
716.95	309.37
717.28	308.30
717.61	307.20
717.94	306.16
718.28	305.02
718.61	303.94
718.94	302.91
719.27	301.91
719.61	300.90
719.94	299.82
720.27	298.64
720.60	297.67
720.94	296.72
721.27	295.82
721.60	294.95
721.93	294.02
722.27	293.29
722.60	292.52
722.93	291.71
723.26	290.91
723.59	290.17
723.93	289.42
724.26	288.63
724.59	287.75
724.92	286.97
725.25	286.25
725.59	285.48
725.92	284.81
726.25	284.16
726.58	283.43
726.91	282.60
727.24	281.89
727.57	281.07
727.91	280.27
728.24	279.50
728.57	278.66
728.90	277.90
729.23	277.15
729.56	276.45
729.89	275.73
730.22	275.04
730.55	274.32
730.89	273.66
731.22	273.04
731.55	272.48
731.88	271.80
732.21	271.09
732.54	270.42
732.87	269.74
733.20	269.11
733.53	268.47
733.86	267.95
734.19	267.44
734.52	266.96
734.85	266.59
735.18	266.06
735.51	265.65
735.84	265.14
736.17	264.61
736.50	263.98
736.83	263.60
737.16	263.12
737.49	262.65
737.82	262.20
738.15	261.70
738.48	261.16
738.81	260.74
739.14	260.23
739.47	259.77
739.80	259.36
740.13	258.84
740.46	258.28
740.79	257.69
741.12	257.09
741.45	256.59
741.78	256.01
742.11	255.57
742.44	254.96
742.77	254.58
743.10	254.01
743.43	253.49
743.75	252.82
744.08	252.55
744.41	252.04
744.74	251.42
745.07	250.93
745.40	250.53
745.73	250.09
746.06	249.60
746.39	249.05
746.71	248.48
747.04	247.99
747.37	247.58
747.70	247.25
748.03	246.93
748.36	246.59
748.68	246.21
749.01	245.68
749.34	245.39
749.67	244.90
750.00	244.60
750.33	244.42
750.65	244.08
750.98	243.40
751.31	242.95
751.64	242.56
751.97	242.21
752.29	241.81
752.62	241.32
752.95	241.05
753.28	240.71
753.60	240.40
753.93	240.14
754.26	239.79
754.59	239.40
754.91	239.04
755.24	238.58
755.57	238.21
755.90	237.97
756.22	237.63
756.55	237.36
756.88	236.95
757.20	236.51
757.53	236.18
757.86	235.97
758.19	235.79
758.51	235.51
758.84	235.17
759.17	234.88
759.49	234.70
759.82	234.50
760.15	234.28
760.47	234.00
760.80	233.68
761.13	233.40
761.45	233.12
761.78	232.80
762.11	232.55
762.43	232.30
762.76	231.99
763.08	231.70
763.41	231.45
763.74	231.24
764.06	231.01
764.39	230.78
764.71	230.58
765.04	230.31
765.37	230.16
765.69	229.92
766.02	229.68
766.34	229.44
766.67	229.11
767.00	228.90
767.32	228.76
767.65	228.52
767.97	228.38
768.30	228.25
768.62	228.06
768.95	227.84
769.27	227.61
769.60	227.44
769.92	227.21
770.25	226.98
770.57	226.82
770.90	226.62
771.22	226.43
771.55	226.20
771.87	226.03
772.20	225.86
772.52	225.88
772.85	225.94
773.17	225.80
773.50	225.66
773.82	225.51
774.15	225.30
774.47	225.21
774.80	225.03
775.12	224.84
775.45	224.65
775.77	224.57
776.09	224.49
776.42	224.39
776.74	224.33
777.07	224.21
777.39	224.04
777.72	223.93
778.04	223.79
778.36	223.69
778.69	223.55
779.01	223.42
779.33	223.11
779.66	222.83
779.98	222.70
780.31	222.65
780.63	222.64
780.95	222.59
781.28	222.42
781.60	222.24
781.92	222.11
782.25	222.11
782.57	221.94
782.89	221.81
