SpectraSuite Data File
++++++++++++++++++++++++++++++++++++
Date: Mon Feb 25 17:35:45 EST 2013
User: group
Dark Spectrum Present: No
Reference Spectrum Present: No
Number of Sampled Component Spectra: 1
Spectrometers: USB2E7196
Integration Time (usec): 52000 (USB2E7196)
Spectra Averaged: 20 (USB2E7196)
Boxcar Smoothing: 10 (USB2E7196)
Correct for Electrical Dark: No (USB2E7196)
Strobe/Lamp Enabled: No (USB2E7196)
Correct for Detector Non-linearity: No (USB2E7196)
Correct for Stray Light: No (USB2E7196)
Number of Pixels in Processed Spectrum: 2048
>>>>>Begin Processed Spectral Data<<<<<
339.09	0.00
339.48	197.75
339.86	200.00
340.24	202.10
340.63	202.70
341.01	206.70
341.39	206.45
341.78	206.75
342.16	208.55
342.54	209.60
342.93	198.03
343.31	207.99
343.69	208.60
344.07	209.06
344.46	209.48
344.84	209.86
345.22	210.07
345.60	210.32
345.99	210.59
346.37	210.73
346.75	210.80
347.13	210.89
347.52	210.96
347.90	211.11
348.28	211.14
348.66	211.26
349.05	211.23
349.43	211.33
349.81	211.39
350.19	211.50
350.57	211.47
350.96	211.57
351.34	211.73
351.72	211.80
352.10	211.91
352.48	212.01
352.87	212.09
353.25	212.14
353.63	212.16
354.01	212.21
354.39	212.29
354.77	212.39
355.15	212.55
355.54	212.57
355.92	212.65
356.30	212.84
356.68	213.06
357.06	213.15
357.44	213.18
357.82	213.19
358.20	213.19
358.58	213.37
358.97	213.44
359.35	213.54
359.73	213.66
360.11	213.75
360.49	213.82
360.87	213.93
361.25	214.03
361.63	214.15
362.01	214.20
362.39	214.21
362.77	214.28
363.15	214.23
363.53	214.22
363.91	214.23
364.29	214.13
364.67	213.93
365.05	213.94
365.43	213.91
365.81	214.00
366.19	214.13
366.57	214.11
366.95	214.12
367.33	214.10
367.71	214.06
368.09	214.11
368.47	214.06
368.85	214.01
369.23	214.03
369.61	213.95
369.99	213.97
370.37	214.00
370.75	214.02
371.13	213.98
371.51	213.98
371.89	213.95
372.27	213.99
372.65	214.03
373.03	214.01
373.41	213.97
373.78	213.89
374.16	213.75
374.54	213.66
374.92	213.52
375.30	213.40
375.68	213.34
376.06	213.34
376.44	213.35
376.82	213.27
377.19	213.18
377.57	213.15
377.95	213.02
378.33	212.89
378.71	212.77
379.09	212.73
379.47	212.66
379.84	212.56
380.22	212.42
380.60	212.27
380.98	212.27
381.36	212.28
381.73	212.18
382.11	212.17
382.49	212.19
382.87	212.13
383.25	212.09
383.62	212.26
384.00	212.09
384.38	211.98
384.76	212.02
385.13	212.09
385.51	211.93
385.89	211.94
386.27	212.00
386.64	212.01
387.02	212.01
387.40	211.94
387.78	211.97
388.15	211.96
388.53	211.96
388.91	211.91
389.29	211.82
389.66	211.81
390.04	211.72
390.42	211.73
390.79	211.75
391.17	211.77
391.55	211.47
391.92	211.47
392.30	211.50
392.68	211.40
393.05	211.35
393.43	211.47
393.81	211.41
394.18	211.37
394.56	211.41
394.94	211.45
395.31	211.55
395.69	211.51
396.06	211.60
396.44	211.61
396.82	211.60
397.19	211.74
397.57	211.83
397.95	211.87
398.32	211.77
398.70	211.81
399.07	211.89
399.45	212.02
399.82	212.05
400.20	212.08
400.58	212.11
400.95	212.16
401.33	212.26
401.70	212.49
402.08	212.49
402.45	212.49
402.83	212.58
403.20	212.58
403.58	212.72
403.95	212.77
404.33	212.93
404.71	213.03
405.08	213.20
405.46	213.27
405.83	213.48
406.21	213.71
406.58	213.88
406.96	214.01
407.33	214.15
407.70	214.37
408.08	214.70
408.45	215.01
408.83	215.20
409.20	215.40
409.58	215.49
409.95	215.83
410.33	216.20
410.70	216.43
411.08	216.83
411.45	217.13
411.82	217.52
412.20	217.91
412.57	218.52
412.95	218.86
413.32	219.42
413.69	219.92
414.07	220.46
414.44	221.08
414.82	221.72
415.19	222.47
415.56	223.21
415.94	224.00
416.31	224.76
416.68	225.69
417.06	226.70
417.43	227.69
417.81	228.82
418.18	229.90
418.55	231.15
418.93	232.40
419.30	233.75
419.67	235.21
420.04	236.74
420.42	238.17
420.79	239.98
421.16	241.71
421.54	243.55
421.91	245.43
422.28	247.36
422.66	249.49
423.03	251.48
423.40	253.61
423.77	255.80
424.15	258.12
424.52	260.47
424.89	263.00
425.26	265.49
425.64	267.80
426.01	270.40
426.38	273.11
426.75	275.81
427.13	278.75
427.50	281.82
427.87	284.84
428.24	287.96
428.61	290.93
428.99	294.22
429.36	297.72
429.73	301.25
430.10	304.86
430.47	308.33
430.85	312.07
431.22	316.02
431.59	320.23
431.96	324.26
432.33	328.57
432.70	332.80
433.08	337.83
433.45	342.52
433.82	347.11
434.19	352.24
434.56	357.31
434.93	362.09
435.30	366.71
435.68	372.07
436.05	377.34
436.42	382.54
436.79	387.35
437.16	392.49
437.53	397.80
437.90	403.08
438.27	408.30
438.64	413.74
439.01	418.74
439.38	423.19
439.75	427.43
440.13	432.45
440.50	437.12
440.87	440.79
441.24	444.60
441.61	448.95
441.98	452.17
442.35	455.75
442.72	459.44
443.09	463.11
443.46	465.23
443.83	466.63
444.20	467.82
444.57	469.53
444.94	470.27
445.31	471.04
445.68	471.82
446.05	472.19
446.42	471.41
446.79	470.63
447.16	469.66
447.53	469.11
447.90	466.98
448.27	464.81
448.64	461.94
449.01	459.92
449.37	456.21
449.74	452.61
450.11	448.52
450.48	443.91
450.85	439.20
451.22	435.21
451.59	431.35
451.96	427.61
452.33	422.78
452.70	418.47
453.07	413.36
453.43	408.00
453.80	402.83
454.17	398.15
454.54	393.59
454.91	388.70
455.28	383.78
455.65	379.29
456.02	374.97
456.38	371.16
456.75	366.48
457.12	362.51
457.49	358.61
457.86	354.75
458.23	351.59
458.59	348.02
458.96	344.36
459.33	341.25
459.70	338.07
460.07	335.55
460.43	332.61
460.80	329.84
461.17	327.42
461.54	324.91
461.91	322.47
462.27	320.01
462.64	318.01
463.01	315.76
463.38	313.59
463.74	311.27
464.11	309.39
464.48	307.71
464.85	306.04
465.21	304.72
465.58	303.39
465.95	301.51
466.32	300.08
466.68	298.69
467.05	297.23
467.42	295.83
467.78	294.37
468.15	292.95
468.52	291.94
468.88	290.68
469.25	289.48
469.62	288.57
469.98	287.52
470.35	286.59
470.72	285.71
471.08	284.74
471.45	283.98
471.82	283.09
472.18	282.22
472.55	281.66
472.92	280.89
473.28	280.25
473.65	279.66
474.02	279.20
474.38	278.77
474.75	278.46
475.11	278.15
475.48	277.82
475.85	277.60
476.21	277.43
476.58	277.30
476.94	277.33
477.31	277.23
477.67	277.21
478.04	277.18
478.41	277.37
478.77	277.70
479.14	277.88
479.50	278.28
479.87	278.67
480.23	278.91
480.60	279.26
480.96	279.61
481.33	280.28
481.69	280.80
482.06	281.38
482.42	281.93
482.79	282.57
483.15	283.42
483.52	284.30
483.88	285.19
484.25	286.10
484.61	287.08
484.98	288.09
485.34	289.32
485.71	290.72
486.07	292.07
486.44	293.30
486.80	294.77
487.17	296.28
487.53	297.94
487.90	299.80
488.26	301.72
488.62	303.80
488.99	305.78
489.35	307.85
489.72	310.16
490.08	312.56
490.44	315.03
490.81	317.65
491.17	320.33
491.54	323.18
491.90	326.10
492.26	329.30
492.63	332.73
492.99	336.17
493.36	339.86
493.72	343.72
494.08	347.81
494.45	351.98
494.81	356.49
495.17	361.02
495.54	365.91
495.90	370.99
496.26	376.20
496.63	381.77
496.99	387.57
497.35	393.57
497.72	399.82
498.08	406.45
498.44	413.29
498.80	420.55
499.17	427.97
499.53	435.71
499.89	443.73
500.26	451.87
500.62	460.27
500.98	468.99
501.34	478.05
501.71	487.50
502.07	497.20
502.43	507.16
502.79	517.51
503.16	528.12
503.52	539.05
503.88	550.30
504.24	561.93
504.60	573.94
504.97	586.34
505.33	598.89
505.69	612.20
506.05	625.65
506.41	639.31
506.78	653.24
507.14	667.57
507.50	682.33
507.86	697.38
508.22	713.02
508.59	728.68
508.95	744.81
509.31	761.13
509.67	777.99
510.03	795.03
510.39	812.66
510.75	830.49
511.12	848.70
511.48	867.28
511.84	885.95
512.20	904.83
512.56	924.04
512.92	943.78
513.28	963.25
513.64	983.13
514.00	1003.25
514.37	1023.74
514.73	1044.53
515.09	1065.37
515.45	1086.44
515.81	1107.71
516.17	1129.13
516.53	1150.55
516.89	1172.26
517.25	1193.67
517.61	1215.41
517.97	1236.90
518.33	1258.65
518.69	1280.40
519.05	1302.43
519.41	1324.94
519.77	1347.33
520.13	1369.70
520.49	1391.86
520.85	1414.78
521.21	1437.45
521.57	1460.79
521.93	1482.94
522.29	1506.11
522.65	1528.93
523.01	1551.47
523.37	1573.66
523.73	1596.00
524.09	1618.49
524.45	1641.16
524.81	1663.96
525.17	1686.51
525.53	1709.44
525.89	1731.93
526.25	1754.33
526.61	1776.12
526.97	1797.92
527.33	1819.62
527.68	1841.10
528.04	1862.85
528.40	1883.44
528.76	1904.48
529.12	1924.99
529.48	1946.86
529.84	1967.25
530.20	1987.93
530.56	2008.93
530.91	2029.87
531.27	2050.56
531.63	2070.85
531.99	2090.55
532.35	2110.14
532.71	2129.78
533.07	2149.38
533.42	2168.25
533.78	2187.57
534.14	2206.09
534.50	2223.87
534.86	2242.34
535.21	2259.64
535.57	2277.37
535.93	2295.01
536.29	2312.19
536.65	2329.20
537.00	2344.96
537.36	2360.74
537.72	2375.98
538.08	2391.33
538.44	2406.65
538.79	2422.15
539.15	2437.31
539.51	2452.04
539.87	2467.41
540.22	2481.93
540.58	2497.07
540.94	2511.90
541.29	2524.74
541.65	2537.43
542.01	2550.47
542.37	2562.48
542.72	2574.82
543.08	2585.78
543.44	2597.60
543.79	2607.89
544.15	2618.31
544.51	2629.66
544.87	2640.87
545.22	2650.63
545.58	2659.22
545.94	2666.59
546.29	2673.30
546.65	2679.82
547.01	2686.57
547.36	2692.24
547.72	2698.11
548.07	2701.83
548.43	2705.72
548.79	2709.93
549.14	2714.86
549.50	2719.52
549.86	2723.62
550.21	2728.05
550.57	2732.69
550.92	2735.81
551.28	2738.81
551.64	2741.43
551.99	2743.85
552.35	2745.66
552.70	2748.43
553.06	2751.43
553.41	2755.39
553.77	2758.73
554.13	2761.07
554.48	2763.41
554.84	2765.33
555.19	2766.04
555.55	2766.88
555.90	2767.52
556.26	2768.03
556.61	2768.13
556.97	2766.92
557.32	2766.62
557.68	2765.19
558.03	2763.93
558.39	2762.62
558.74	2762.61
559.10	2761.54
559.45	2760.02
559.81	2758.69
560.16	2756.12
560.52	2753.61
560.87	2750.22
561.23	2746.51
561.58	2744.17
561.94	2740.94
562.29	2737.08
562.64	2735.07
563.00	2733.02
563.35	2731.25
563.71	2729.71
564.06	2727.56
564.42	2725.95
564.77	2723.89
565.12	2721.85
565.48	2718.52
565.83	2715.18
566.19	2711.63
566.54	2707.49
566.89	2703.39
567.25	2700.01
567.60	2697.20
567.96	2694.06
568.31	2690.64
568.66	2687.08
569.02	2682.47
569.37	2677.16
569.72	2673.31
570.08	2667.79
570.43	2662.02
570.78	2656.15
571.14	2649.95
571.49	2643.34
571.84	2637.54
572.20	2630.30
572.55	2623.97
572.90	2617.23
573.26	2610.39
573.61	2603.14
573.96	2596.88
574.31	2589.05
574.67	2580.43
575.02	2571.30
575.37	2562.17
575.72	2552.97
576.08	2545.30
576.43	2536.32
576.78	2528.80
577.13	2520.90
577.49	2512.67
577.84	2504.74
578.19	2496.67
578.54	2489.12
578.90	2482.08
579.25	2472.74
579.60	2463.54
579.95	2453.53
580.30	2445.56
580.66	2437.13
581.01	2428.00
581.36	2418.21
581.71	2409.88
582.06	2401.18
582.42	2392.85
582.77	2383.64
583.12	2374.74
583.47	2365.76
583.82	2357.60
584.17	2348.13
584.53	2338.87
584.88	2330.09
585.23	2320.76
585.58	2311.11
585.93	2301.10
586.28	2291.90
586.63	2283.28
586.98	2274.92
587.34	2266.79
587.69	2257.15
588.04	2247.88
588.39	2239.61
588.74	2230.75
589.09	2221.58
589.44	2211.70
589.79	2203.24
590.14	2195.42
590.49	2186.83
590.84	2177.46
591.19	2169.23
591.54	2160.23
591.89	2150.01
592.25	2140.62
592.60	2131.28
592.95	2121.95
593.30	2112.44
593.65	2102.31
594.00	2092.49
594.35	2084.30
594.70	2075.15
595.05	2066.73
595.40	2058.01
595.75	2048.14
596.10	2039.85
596.45	2031.39
596.80	2024.04
597.15	2015.39
597.50	2005.87
597.85	1997.46
598.19	1988.99
598.54	1980.23
598.89	1972.43
599.24	1965.65
599.59	1958.28
599.94	1951.02
600.29	1943.03
600.64	1935.05
600.99	1926.56
601.34	1919.06
601.69	1909.92
602.04	1901.80
602.39	1893.24
602.74	1885.08
603.08	1878.45
603.43	1871.07
603.78	1862.98
604.13	1854.56
604.48	1846.43
604.83	1839.73
605.18	1832.55
605.53	1824.54
605.87	1816.67
606.22	1809.37
606.57	1801.22
606.92	1792.35
607.27	1783.81
607.62	1776.47
607.96	1769.35
608.31	1762.88
608.66	1755.19
609.01	1747.37
609.36	1739.37
609.70	1731.51
610.05	1723.66
610.40	1715.15
610.75	1706.31
611.10	1698.47
611.44	1689.37
611.79	1680.30
612.14	1670.64
612.49	1660.74
612.83	1651.98
613.18	1642.10
613.53	1632.35
613.88	1622.42
614.22	1613.76
614.57	1604.51
614.92	1594.95
615.27	1585.67
615.61	1575.73
615.96	1566.45
616.31	1558.18
616.65	1550.15
617.00	1541.60
617.35	1532.79
617.70	1523.80
618.04	1514.77
618.39	1505.33
618.74	1496.79
619.08	1487.99
619.43	1479.84
619.78	1472.11
620.12	1463.79
620.47	1456.21
620.82	1447.79
621.16	1439.68
621.51	1431.16
621.85	1423.05
622.20	1414.50
622.55	1405.83
622.89	1397.55
623.24	1389.55
623.59	1380.65
623.93	1371.99
624.28	1363.54
624.62	1355.43
624.97	1346.95
625.32	1338.83
625.66	1331.37
626.01	1323.99
626.35	1316.63
626.70	1308.64
627.04	1301.16
627.39	1293.39
627.73	1285.80
628.08	1278.79
628.43	1271.16
628.77	1263.44
629.12	1255.76
629.46	1249.02
629.81	1241.62
630.15	1234.20
630.50	1226.46
630.84	1219.08
631.19	1211.85
631.53	1204.98
631.88	1197.11
632.22	1189.71
632.57	1182.84
632.91	1175.18
633.26	1167.64
633.60	1160.45
633.95	1153.80
634.29	1146.20
634.64	1139.48
634.98	1132.32
635.32	1125.04
635.67	1118.65
636.01	1112.22
636.36	1105.45
636.70	1098.65
637.05	1092.05
637.39	1085.70
637.73	1079.47
638.08	1073.48
638.42	1067.43
638.77	1060.85
639.11	1054.74
639.45	1048.60
639.80	1041.80
640.14	1035.48
640.49	1029.20
640.83	1022.83
641.17	1016.06
641.52	1009.95
641.86	1003.45
642.20	997.29
642.55	990.69
642.89	983.94
643.23	977.31
643.58	971.35
643.92	964.82
644.26	958.53
644.61	952.35
644.95	946.37
645.29	940.15
645.64	933.57
645.98	927.30
646.32	921.28
646.66	914.95
647.01	908.92
647.35	902.95
647.69	896.61
648.04	890.66
648.38	884.83
648.72	878.75
649.06	872.74
649.41	866.46
649.75	860.59
650.09	854.92
650.43	849.09
650.78	842.69
651.12	836.69
651.46	831.02
651.80	825.10
652.14	818.82
652.49	812.83
652.83	806.69
653.17	800.69
653.51	794.78
653.85	789.17
654.20	783.42
654.54	777.56
654.88	772.13
655.22	766.00
655.56	759.92
655.90	753.86
656.25	748.15
656.59	742.57
656.93	737.25
657.27	731.80
657.61	726.24
657.95	721.08
658.29	715.88
658.64	710.56
658.98	705.24
659.32	699.95
659.66	694.58
660.00	689.29
660.34	683.80
660.68	678.59
661.02	673.39
661.36	668.57
661.70	663.74
662.05	658.90
662.39	654.54
662.73	650.26
663.07	645.92
663.41	641.32
663.75	636.64
664.09	631.81
664.43	627.10
664.77	622.73
665.11	618.20
665.45	613.74
665.79	609.16
666.13	604.57
666.47	600.25
666.81	596.12
667.15	592.02
667.49	588.30
667.83	584.43
668.17	580.45
668.51	576.50
668.85	572.66
669.19	568.90
669.53	564.98
669.87	560.82
670.21	557.03
670.55	553.22
670.89	549.81
671.23	546.49
671.57	543.08
671.91	539.44
672.25	535.87
672.58	532.32
672.92	528.99
673.26	525.80
673.60	522.63
673.94	519.26
674.28	515.97
674.62	512.76
674.96	509.48
675.30	506.48
675.64	503.40
675.97	500.16
676.31	497.01
676.65	494.01
676.99	491.37
677.33	488.42
677.67	485.42
678.01	482.25
678.34	479.24
678.68	476.25
679.02	473.25
679.36	470.51
679.70	467.75
680.04	464.80
680.37	461.93
680.71	459.07
681.05	456.42
681.39	453.67
681.73	450.90
682.06	448.29
682.40	445.68
682.74	443.08
683.08	440.52
683.42	437.92
683.75	435.39
684.09	432.73
684.43	430.17
684.77	427.55
685.10	425.15
685.44	422.47
685.78	419.97
686.12	417.75
686.45	415.35
686.79	412.96
687.13	410.89
687.46	408.66
687.80	406.49
688.14	404.12
688.48	402.05
688.81	399.76
689.15	397.52
689.49	395.18
689.82	392.78
690.16	390.38
690.50	388.01
690.83	385.73
691.17	383.40
691.51	381.25
691.84	379.21
692.18	377.13
692.52	375.32
692.85	373.45
693.19	371.50
693.52	369.52
693.86	367.52
694.20	365.51
694.53	363.54
694.87	361.43
695.21	359.56
695.54	357.57
695.88	355.75
696.21	353.86
696.55	352.13
696.88	350.47
697.22	348.86
697.56	347.35
697.89	345.70
698.23	344.11
698.56	342.35
698.90	340.81
699.23	339.15
699.57	337.47
699.90	335.72
700.24	333.97
700.58	332.30
700.91	330.79
701.25	329.38
701.58	327.98
701.92	326.56
702.25	325.05
702.59	323.64
702.92	322.10
703.26	320.76
703.59	319.39
703.93	318.25
704.26	316.83
704.60	315.53
704.93	314.30
705.26	312.98
705.60	311.85
705.93	310.56
706.27	309.36
706.60	308.25
706.94	307.20
707.27	306.07
707.61	304.93
707.94	303.73
708.27	302.38
708.61	301.08
708.94	300.00
709.28	298.85
709.61	297.70
709.94	296.70
710.28	295.65
710.61	294.65
710.95	293.45
711.28	292.65
711.61	291.54
711.95	290.47
712.28	289.52
712.61	288.52
712.95	287.62
713.28	286.70
713.61	285.60
713.95	284.65
714.28	283.76
714.61	282.87
714.95	282.01
715.28	281.18
715.61	280.31
715.95	279.38
716.28	278.52
716.61	277.60
716.95	276.80
717.28	276.00
717.61	275.13
717.94	274.38
718.28	273.40
718.61	272.59
718.94	271.85
719.27	271.11
719.61	270.36
719.94	269.55
720.27	268.81
720.60	268.16
720.94	267.40
721.27	266.71
721.60	266.15
721.93	265.45
722.27	264.86
722.60	264.21
722.93	263.55
723.26	263.06
723.59	262.53
723.93	261.89
724.26	261.30
724.59	260.73
724.92	260.10
725.25	259.63
725.59	259.09
725.92	258.56
726.25	257.94
726.58	257.47
726.91	256.93
727.24	256.45
727.57	255.99
727.91	255.43
728.24	254.95
728.57	254.37
728.90	253.88
729.23	253.35
729.56	253.04
729.89	252.62
730.22	252.07
730.55	251.61
730.89	251.20
731.22	250.75
731.55	250.33
731.88	249.85
732.21	249.36
732.54	248.99
732.87	248.44
733.20	248.09
733.53	247.64
733.86	247.30
734.19	246.83
734.52	246.45
734.85	246.23
735.18	245.79
735.51	245.43
735.84	245.10
736.17	244.76
736.50	244.31
736.83	244.15
737.16	243.84
737.49	243.43
737.82	243.03
738.15	242.65
738.48	242.22
738.81	241.87
739.14	241.53
739.47	241.10
739.80	240.86
740.13	240.44
740.46	240.01
740.79	239.60
741.12	239.27
741.45	238.82
741.78	238.33
742.11	238.15
742.44	237.78
742.77	237.51
743.10	237.25
743.43	236.87
743.75	236.36
744.08	236.24
744.41	236.04
744.74	235.73
745.07	235.35
745.40	235.16
745.73	234.92
746.06	234.61
746.39	234.34
746.71	234.01
747.04	233.83
747.37	233.60
747.70	233.25
748.03	232.99
748.36	232.80
748.68	232.58
749.01	232.24
749.34	232.02
749.67	231.73
750.00	231.32
750.33	231.25
750.65	231.00
750.98	230.50
751.31	230.19
751.64	229.97
751.97	229.85
752.29	229.50
752.62	229.25
752.95	229.05
753.28	228.74
753.60	228.56
753.93	228.29
754.26	228.10
754.59	228.00
754.91	227.75
755.24	227.52
755.57	227.27
755.90	226.95
756.22	226.76
756.55	226.61
756.88	226.46
757.20	226.14
757.53	225.91
757.86	225.72
758.19	225.57
758.51	225.34
758.84	225.08
759.17	224.95
759.49	224.79
759.82	224.66
760.15	224.59
760.47	224.39
760.80	224.20
761.13	224.04
761.45	223.81
761.78	223.68
762.11	223.42
762.43	223.24
762.76	223.19
763.08	223.05
763.41	222.83
763.74	222.70
764.06	222.57
764.39	222.47
764.71	222.33
765.04	222.13
765.37	222.08
765.69	221.91
766.02	221.75
766.34	221.53
766.67	221.37
767.00	221.27
767.32	221.19
767.65	221.14
767.97	221.02
768.30	220.84
768.62	220.67
768.95	220.63
769.27	220.57
769.60	220.50
769.92	220.38
770.25	220.22
770.57	220.09
770.90	220.00
771.22	219.87
771.55	219.74
771.87	219.64
772.20	219.47
772.52	219.54
772.85	219.66
773.17	219.60
773.50	219.51
773.82	219.39
774.15	219.18
774.47	218.95
774.80	218.85
775.12	218.85
775.45	218.81
775.77	218.71
776.09	218.65
776.42	218.54
776.74	218.47
777.07	218.41
777.39	218.28
777.72	218.21
778.04	218.17
778.36	218.09
778.69	217.98
779.01	217.91
779.33	217.68
779.66	217.39
779.98	217.37
780.31	217.29
780.63	217.34
780.95	217.36
781.28	217.35
781.60	217.30
781.92	217.15
782.25	217.05
782.57	217.01
782.89	216.90
783.22	216.81
783.54	216.66
783.86	216.60
784.19	216.54
784.51	216.47
784.83	216.34
785.16	216.29
785.48	216.31
785.80	216.28
786.12	216.25
786.45	216.19
