SpectraSuite Data File
++++++++++++++++++++++++++++++++++++
Date: Mon Feb 25 17:32:11 EST 2013
User: group
Dark Spectrum Present: No
Reference Spectrum Present: No
Number of Sampled Component Spectra: 1
Spectrometers: USB2E7196
Integration Time (usec): 52000 (USB2E7196)
Spectra Averaged: 20 (USB2E7196)
Boxcar Smoothing: 10 (USB2E7196)
Correct for Electrical Dark: No (USB2E7196)
Strobe/Lamp Enabled: No (USB2E7196)
Correct for Detector Non-linearity: No (USB2E7196)
Correct for Stray Light: No (USB2E7196)
Number of Pixels in Processed Spectrum: 2048
>>>>>Begin Processed Spectral Data<<<<<
339.09	0.00
339.48	199.35
339.86	201.25
340.24	201.95
340.63	202.40
341.01	207.30
341.39	205.15
341.78	206.95
342.16	209.25
342.54	209.70
342.93	198.15
343.31	208.12
343.69	208.68
344.07	209.10
344.46	209.57
344.84	209.98
345.22	210.14
345.60	210.42
345.99	210.61
346.37	210.71
346.75	210.83
347.13	210.91
347.52	210.94
347.90	211.12
348.28	211.21
348.66	211.38
349.05	211.31
349.43	211.32
349.81	211.47
350.19	211.54
350.57	211.65
350.96	211.70
351.34	211.80
351.72	211.83
352.10	211.91
352.48	211.93
352.87	212.04
353.25	212.14
353.63	212.18
354.01	212.30
354.39	212.37
354.77	212.42
355.15	212.50
355.54	212.60
355.92	212.64
356.30	212.69
356.68	212.81
357.06	212.96
357.44	213.05
357.82	213.02
358.20	213.15
358.58	213.24
358.97	213.33
359.35	213.52
359.73	213.68
360.11	213.75
360.49	213.82
360.87	213.81
361.25	213.90
361.63	214.08
362.01	214.07
362.39	214.14
362.77	214.19
363.15	214.20
363.53	214.18
363.91	214.26
364.29	214.25
364.67	214.12
365.05	214.14
365.43	214.28
365.81	214.36
366.19	214.43
366.57	214.48
366.95	214.52
367.33	214.42
367.71	214.37
368.09	214.39
368.47	214.42
368.85	214.46
369.23	214.49
369.61	214.36
369.99	214.48
370.37	214.49
370.75	214.53
371.13	214.53
371.51	214.60
371.89	214.46
372.27	214.49
372.65	214.50
373.03	214.43
373.41	214.30
373.78	214.26
374.16	214.14
374.54	214.06
374.92	213.94
375.30	213.90
375.68	213.84
376.06	213.85
376.44	213.78
376.82	213.76
377.19	213.69
377.57	213.74
377.95	213.60
378.33	213.47
378.71	213.24
379.09	213.21
379.47	213.10
379.84	213.09
380.22	213.01
380.60	212.86
380.98	212.83
381.36	212.80
381.73	212.67
382.11	212.65
382.49	212.61
382.87	212.63
383.25	212.58
383.62	212.76
384.00	212.70
384.38	212.56
384.76	212.63
385.13	212.65
385.51	212.49
385.89	212.44
386.27	212.37
386.64	212.43
387.02	212.35
387.40	212.33
387.78	212.29
388.15	212.22
388.53	212.15
388.91	212.07
389.29	211.92
389.66	211.95
390.04	211.88
390.42	211.90
390.79	211.83
391.17	211.79
391.55	211.54
391.92	211.45
392.30	211.53
392.68	211.34
393.05	211.28
393.43	211.30
393.81	211.30
394.18	211.34
394.56	211.39
394.94	211.39
395.31	211.31
395.69	211.37
396.06	211.48
396.44	211.60
396.82	211.63
397.19	211.80
397.57	211.77
397.95	211.78
398.32	211.66
398.70	211.73
399.07	211.84
399.45	211.83
399.82	211.91
400.20	211.96
400.58	212.04
400.95	212.06
401.33	212.22
401.70	212.33
402.08	212.39
402.45	212.36
402.83	212.46
403.20	212.60
403.58	212.64
403.95	212.70
404.33	212.79
404.71	212.89
405.08	213.05
405.46	213.20
405.83	213.38
406.21	213.60
406.58	213.75
406.96	213.88
407.33	214.05
407.70	214.25
408.08	214.51
408.45	214.68
408.83	214.88
409.20	215.00
409.58	215.20
409.95	215.46
410.33	215.85
410.70	216.15
411.08	216.57
411.45	216.91
411.82	217.19
412.20	217.65
412.57	218.18
412.95	218.48
413.32	219.01
413.69	219.48
414.07	220.05
414.44	220.59
414.82	221.22
415.19	222.00
415.56	222.67
415.94	223.38
416.31	224.25
416.68	225.11
417.06	226.14
417.43	227.10
417.81	228.20
418.18	229.29
418.55	230.38
418.93	231.56
419.30	232.97
419.67	234.39
420.04	235.76
420.42	237.23
420.79	239.08
421.16	240.78
421.54	242.65
421.91	244.45
422.28	246.38
422.66	248.41
423.03	250.42
423.40	252.51
423.77	254.79
424.15	257.06
424.52	259.40
424.89	261.91
425.26	264.36
425.64	266.69
426.01	269.24
426.38	272.00
426.75	274.69
427.13	277.43
427.50	280.35
427.87	283.45
428.24	286.41
428.61	289.32
428.99	292.45
429.36	295.93
429.73	299.39
430.10	302.76
430.47	306.28
430.85	309.94
431.22	313.79
431.59	317.90
431.96	321.76
432.33	325.97
432.70	330.31
433.08	335.20
433.45	339.77
433.82	344.35
434.19	349.47
434.56	354.40
434.93	359.17
435.30	363.78
435.68	368.90
436.05	374.12
436.42	379.17
436.79	383.93
437.16	388.94
437.53	394.19
437.90	399.53
438.27	404.65
438.64	409.99
439.01	414.87
439.38	419.24
439.75	423.45
440.13	428.34
440.50	432.71
440.87	436.46
441.24	440.31
441.61	444.45
441.98	447.46
442.35	451.03
442.72	454.59
443.09	458.17
443.46	460.28
443.83	461.65
444.20	462.81
444.57	464.51
444.94	465.25
445.31	466.14
445.68	466.85
446.05	467.01
446.42	466.21
446.79	465.53
447.16	464.63
447.53	464.08
447.90	461.94
448.27	459.89
448.64	456.93
449.01	454.84
449.37	451.31
449.74	447.88
450.11	443.85
450.48	439.43
450.85	434.93
451.22	430.95
451.59	427.19
451.96	423.65
452.33	418.95
452.70	414.65
453.07	409.51
453.43	404.34
453.80	399.45
454.17	394.75
454.54	390.19
454.91	385.35
455.28	380.63
455.65	376.31
456.02	372.01
456.38	368.35
456.75	363.67
457.12	359.85
457.49	355.97
457.86	352.21
458.23	349.00
458.59	345.51
458.96	342.08
459.33	339.05
459.70	336.00
460.07	333.50
460.43	330.58
460.80	327.92
461.17	325.52
461.54	323.02
461.91	320.74
462.27	318.46
462.64	316.43
463.01	314.24
463.38	312.07
463.74	309.75
464.11	307.87
464.48	306.28
464.85	304.51
465.21	303.14
465.58	301.79
465.95	300.09
466.32	298.72
466.68	297.30
467.05	295.88
467.42	294.46
467.78	293.06
468.15	291.81
468.52	290.74
468.88	289.49
469.25	288.41
469.62	287.45
469.98	286.47
470.35	285.63
470.72	284.75
471.08	283.88
471.45	283.21
471.82	282.43
472.18	281.54
472.55	280.91
472.92	280.18
473.28	279.52
473.65	278.88
474.02	278.28
474.38	277.86
474.75	277.56
475.11	277.09
475.48	276.82
475.85	276.58
476.21	276.46
476.58	276.27
476.94	276.31
477.31	276.27
477.67	276.26
478.04	276.33
478.41	276.52
478.77	276.86
479.14	276.99
479.50	277.22
479.87	277.68
480.23	278.09
480.60	278.51
480.96	278.89
481.33	279.67
481.69	280.29
482.06	280.91
482.42	281.54
482.79	282.30
483.15	283.08
483.52	284.04
483.88	284.95
484.25	286.02
484.61	286.98
484.98	288.12
485.34	289.29
485.71	290.56
486.07	291.84
486.44	293.10
486.80	294.68
487.17	296.39
487.53	298.16
487.90	299.94
488.26	301.94
488.62	304.12
488.99	306.08
489.35	308.20
489.72	310.48
490.08	312.89
490.44	315.38
490.81	318.03
491.17	320.70
491.54	323.64
491.90	326.60
492.26	329.80
492.63	333.20
492.99	336.77
493.36	340.45
493.72	344.36
494.08	348.34
494.45	352.58
494.81	356.90
495.17	361.45
495.54	366.35
495.90	371.51
496.26	376.70
496.63	382.25
496.99	388.01
497.35	393.98
497.72	400.21
498.08	406.71
498.44	413.45
498.80	420.57
499.17	427.99
499.53	435.67
499.89	443.75
500.26	451.72
500.62	459.91
500.98	468.83
501.34	477.95
501.71	487.45
502.07	497.01
502.43	506.95
502.79	517.23
503.16	528.06
503.52	538.81
503.88	550.04
504.24	561.55
504.60	573.45
504.97	585.79
505.33	598.27
505.69	611.52
506.05	625.04
506.41	638.45
506.78	652.17
507.14	666.28
507.50	680.65
507.86	695.84
508.22	711.11
508.59	726.54
508.95	742.51
509.31	758.67
509.67	775.33
510.03	792.44
510.39	809.85
510.75	827.37
511.12	845.38
511.48	863.40
511.84	881.87
512.20	900.52
512.56	919.74
512.92	939.13
513.28	958.71
513.64	978.45
514.00	998.35
514.37	1018.63
514.73	1039.34
515.09	1059.95
515.45	1080.55
515.81	1101.75
516.17	1123.00
516.53	1144.06
516.89	1165.55
517.25	1187.06
517.61	1208.44
517.97	1229.83
518.33	1251.12
518.69	1272.70
519.05	1294.88
519.41	1317.13
519.77	1339.89
520.13	1361.69
520.49	1383.74
520.85	1406.24
521.21	1428.44
521.57	1451.50
521.93	1473.42
522.29	1496.02
522.65	1518.90
523.01	1541.42
523.37	1563.65
523.73	1585.82
524.09	1608.09
524.45	1630.26
524.81	1652.62
525.17	1675.07
525.53	1697.53
525.89	1719.90
526.25	1741.93
526.61	1763.07
526.97	1784.43
527.33	1805.33
527.68	1826.74
528.04	1847.67
528.40	1867.83
528.76	1888.71
529.12	1909.19
529.48	1930.76
529.84	1951.07
530.20	1970.88
530.56	1991.03
530.91	2011.76
531.27	2032.16
531.63	2052.05
531.99	2071.92
532.35	2091.20
532.71	2110.10
533.07	2129.36
533.42	2147.63
533.78	2166.17
534.14	2184.75
534.50	2201.94
534.86	2219.85
535.21	2236.54
535.57	2254.11
535.93	2271.22
536.29	2287.87
536.65	2304.47
537.00	2319.47
537.36	2334.62
537.72	2349.87
538.08	2365.14
538.44	2379.77
538.79	2394.77
539.15	2409.36
539.51	2423.73
539.87	2438.60
540.22	2453.20
540.58	2467.85
540.94	2482.45
541.29	2495.36
541.65	2507.40
542.01	2520.45
542.37	2532.16
542.72	2544.74
543.08	2555.61
543.44	2567.48
543.79	2577.45
544.15	2587.59
544.51	2598.84
544.87	2609.72
545.22	2618.60
545.58	2626.81
545.94	2634.15
546.29	2640.44
546.65	2646.48
547.01	2652.74
547.36	2658.28
547.72	2663.21
548.07	2667.07
548.43	2670.47
548.79	2674.40
549.14	2678.93
549.50	2683.31
549.86	2687.11
550.21	2690.55
550.57	2694.90
550.92	2697.41
551.28	2700.27
551.64	2702.46
551.99	2704.79
552.35	2706.14
552.70	2709.04
553.06	2711.97
553.41	2715.05
553.77	2718.12
554.13	2720.44
554.48	2722.46
554.84	2723.83
555.19	2724.47
555.55	2724.97
555.90	2725.59
556.26	2725.82
556.61	2726.02
556.97	2724.84
557.32	2724.42
557.68	2722.47
558.03	2720.98
558.39	2719.44
558.74	2718.83
559.10	2717.44
559.45	2715.44
559.81	2714.21
560.16	2711.40
560.52	2708.44
560.87	2705.07
561.23	2701.29
561.58	2698.99
561.94	2695.39
562.29	2691.75
562.64	2689.62
563.00	2687.24
563.35	2685.24
563.71	2683.79
564.06	2681.33
564.42	2679.31
564.77	2676.94
565.12	2675.57
565.48	2672.12
565.83	2668.77
566.19	2665.54
566.54	2661.50
566.89	2657.85
567.25	2654.17
567.60	2650.92
567.96	2647.50
568.31	2644.12
568.66	2639.92
569.02	2635.51
569.37	2630.50
569.72	2626.40
570.08	2620.82
570.43	2614.85
570.78	2608.67
571.14	2602.10
571.49	2595.43
571.84	2589.53
572.20	2582.38
572.55	2575.76
572.90	2568.89
573.26	2562.33
573.61	2554.88
573.96	2548.41
574.31	2540.40
574.67	2532.49
575.02	2523.88
575.37	2515.37
575.72	2506.65
576.08	2499.58
576.43	2490.67
576.78	2482.99
577.13	2475.37
577.49	2467.26
577.84	2459.90
578.19	2452.51
578.54	2445.31
578.90	2438.27
579.25	2429.24
579.60	2420.29
579.95	2410.86
580.30	2403.06
580.66	2394.44
581.01	2385.37
581.36	2376.32
581.71	2367.88
582.06	2359.25
582.42	2351.31
582.77	2342.40
583.12	2333.73
583.47	2324.58
583.82	2316.49
584.17	2307.18
584.53	2297.95
584.88	2289.38
585.23	2280.10
585.58	2270.55
585.93	2260.43
586.28	2251.62
586.63	2243.07
586.98	2234.89
587.34	2226.77
587.69	2217.64
588.04	2208.80
588.39	2200.70
588.74	2191.43
589.09	2182.65
589.44	2173.06
589.79	2164.65
590.14	2156.71
590.49	2147.87
590.84	2138.97
591.19	2130.86
591.54	2122.29
591.89	2111.99
592.25	2102.79
592.60	2093.40
592.95	2084.18
593.30	2075.30
593.65	2065.50
594.00	2055.83
594.35	2047.70
594.70	2038.74
595.05	2030.19
595.40	2021.58
595.75	2011.83
596.10	2003.71
596.45	1995.71
596.80	1988.23
597.15	1980.07
597.50	1970.80
597.85	1962.61
598.19	1953.92
598.54	1945.23
598.89	1937.35
599.24	1930.91
599.59	1923.85
599.94	1916.93
600.29	1909.01
600.64	1900.92
600.99	1892.67
601.34	1885.72
601.69	1877.14
602.04	1868.79
602.39	1860.55
602.74	1852.67
603.08	1846.26
603.43	1839.37
603.78	1831.06
604.13	1823.06
604.48	1815.15
604.83	1808.33
605.18	1801.31
605.53	1794.00
605.87	1786.42
606.22	1779.53
606.57	1771.56
606.92	1763.07
607.27	1755.05
607.62	1748.13
607.96	1741.27
608.31	1735.17
608.66	1727.20
609.01	1719.59
609.36	1711.86
609.70	1703.94
610.05	1696.31
610.40	1688.46
610.75	1679.82
611.10	1672.28
611.44	1663.07
611.79	1653.89
612.14	1644.49
612.49	1635.15
612.83	1626.51
613.18	1616.90
613.53	1607.45
613.88	1597.82
614.22	1588.84
614.57	1579.80
614.92	1570.45
615.27	1561.34
615.61	1551.30
615.96	1542.50
616.31	1533.94
616.65	1526.37
617.00	1518.18
617.35	1509.49
617.70	1500.39
618.04	1491.40
618.39	1482.15
618.74	1473.78
619.08	1465.13
619.43	1457.24
619.78	1449.36
620.12	1441.37
620.47	1433.90
620.82	1425.40
621.16	1417.22
621.51	1409.07
621.85	1400.66
622.20	1392.24
622.55	1383.96
622.89	1375.94
623.24	1368.05
623.59	1359.46
623.93	1350.84
624.28	1342.67
624.62	1334.67
624.97	1326.44
625.32	1318.78
625.66	1311.35
626.01	1304.31
626.35	1297.29
626.70	1289.47
627.04	1282.12
627.39	1274.51
627.73	1266.72
628.08	1259.93
628.43	1252.75
628.77	1245.58
629.12	1238.24
629.46	1231.59
629.81	1224.18
630.15	1216.75
630.50	1209.30
630.84	1202.30
631.19	1195.11
631.53	1188.40
631.88	1180.90
632.22	1173.67
632.57	1166.65
632.91	1159.46
633.26	1152.01
633.60	1144.80
633.95	1138.16
634.29	1130.75
634.64	1124.12
634.98	1117.28
635.32	1110.02
635.67	1103.67
636.01	1097.07
636.36	1090.45
636.70	1083.91
637.05	1077.58
637.39	1071.59
637.73	1065.47
638.08	1059.46
638.42	1053.61
638.77	1047.09
639.11	1040.92
639.45	1034.98
639.80	1028.51
640.14	1022.21
640.49	1015.97
640.83	1009.72
641.17	1003.52
641.52	997.43
641.86	990.92
642.20	984.92
642.55	978.24
642.89	971.68
643.23	965.37
643.58	959.46
643.92	952.87
644.26	946.60
644.61	940.25
644.95	934.12
645.29	927.79
645.64	921.17
645.98	914.97
646.32	909.06
646.66	902.89
647.01	896.92
647.35	890.84
647.69	884.67
648.04	878.75
648.38	872.76
648.72	866.95
649.06	860.98
649.41	854.91
649.75	849.25
650.09	843.47
650.43	837.62
650.78	831.18
651.12	825.18
651.46	819.40
651.80	813.65
652.14	807.75
652.49	801.98
652.83	796.20
653.17	790.16
653.51	784.36
653.85	778.89
654.20	773.29
654.54	767.61
654.88	762.21
655.22	756.44
655.56	750.50
655.90	744.63
656.25	739.00
656.59	733.34
656.93	728.30
657.27	723.20
657.61	717.66
657.95	712.75
658.29	707.68
658.64	702.60
658.98	697.42
659.32	691.93
659.66	686.74
660.00	681.44
660.34	676.49
660.68	671.39
661.02	666.16
661.36	661.36
661.70	656.57
662.05	651.70
662.39	647.42
662.73	643.19
663.07	638.82
663.41	634.46
663.75	630.11
664.09	625.53
664.43	620.66
664.77	616.35
665.11	611.94
665.45	607.71
665.79	603.18
666.13	598.76
666.47	594.66
666.81	590.58
667.15	586.57
667.49	582.65
667.83	578.64
668.17	574.76
668.51	571.00
668.85	567.35
669.19	563.80
669.53	559.72
669.87	555.56
670.21	551.80
670.55	547.75
670.89	544.20
671.23	540.67
671.57	537.27
671.91	533.80
672.25	530.21
672.58	526.57
672.92	523.30
673.26	520.10
673.60	516.77
673.94	513.41
674.28	510.29
674.62	507.12
674.96	504.00
675.30	500.94
675.64	497.68
675.97	494.46
676.31	491.41
676.65	488.57
676.99	486.14
677.33	483.21
677.67	480.49
678.01	477.38
678.34	474.35
678.68	471.37
679.02	468.35
679.36	465.53
679.70	462.85
680.04	459.97
680.37	457.06
680.71	454.44
681.05	451.85
681.39	449.05
681.73	446.30
682.06	443.73
682.40	441.22
682.74	438.64
683.08	436.15
683.42	433.42
683.75	430.92
684.09	428.29
684.43	425.89
684.77	423.31
685.10	420.93
685.44	418.55
685.78	416.10
686.12	413.92
686.45	411.60
686.79	409.34
687.13	407.06
687.46	404.89
687.80	402.71
688.14	400.37
688.48	398.25
688.81	396.08
689.15	393.82
689.49	391.57
689.82	389.33
690.16	386.95
690.50	384.82
690.83	382.50
691.17	380.07
691.51	377.71
691.84	375.60
692.18	373.55
692.52	371.52
692.85	369.77
693.19	367.72
693.52	365.83
693.86	363.80
694.20	361.88
694.53	359.96
694.87	357.96
695.21	356.07
695.54	354.19
695.88	352.34
696.21	350.55
696.55	348.75
696.88	347.00
697.22	345.29
697.56	343.69
697.89	342.06
698.23	340.56
698.56	339.10
698.90	337.68
699.23	336.12
699.57	334.60
699.90	332.84
700.24	331.24
700.58	329.63
700.91	328.10
701.25	326.78
701.58	325.38
701.92	323.91
702.25	322.58
702.59	321.14
702.92	319.74
703.26	318.52
703.59	317.26
703.93	316.29
704.26	315.02
704.60	313.64
704.93	312.42
705.26	311.15
705.60	309.93
705.93	308.61
706.27	307.43
706.60	306.28
706.94	305.33
707.27	304.31
707.61	303.18
707.94	302.05
708.27	300.74
708.61	299.62
708.94	298.57
709.28	297.44
709.61	296.42
709.94	295.47
710.28	294.37
710.61	293.35
710.95	292.06
711.28	291.20
711.61	290.23
711.95	289.26
712.28	288.24
712.61	287.23
712.95	286.31
713.28	285.45
713.61	284.50
713.95	283.53
714.28	282.63
714.61	281.73
714.95	280.88
715.28	280.04
715.61	279.00
715.95	278.14
716.28	277.26
716.61	276.36
716.95	275.44
717.28	274.61
717.61	273.77
717.94	272.97
718.28	272.10
718.61	271.38
718.94	270.60
719.27	269.92
719.61	269.27
719.94	268.55
720.27	267.74
720.60	267.00
720.94	266.33
721.27	265.60
721.60	265.00
721.93	264.38
722.27	263.88
722.60	263.42
722.93	262.82
723.26	262.30
723.59	261.72
723.93	261.15
724.26	260.55
724.59	259.97
724.92	259.40
725.25	258.83
725.59	258.23
725.92	257.75
726.25	257.24
726.58	256.71
726.91	256.12
727.24	255.66
727.57	255.15
727.91	254.53
728.24	254.06
728.57	253.58
728.90	253.17
729.23	252.54
729.56	252.16
729.89	251.66
730.22	251.21
730.55	250.69
730.89	250.23
731.22	249.75
731.55	249.30
731.88	248.89
732.21	248.48
732.54	248.12
732.87	247.65
733.20	247.16
733.53	246.70
733.86	246.33
734.19	245.82
734.52	245.46
734.85	245.16
735.18	244.79
735.51	244.41
735.84	243.93
736.17	243.65
736.50	243.14
736.83	243.01
737.16	242.61
737.49	242.32
737.82	241.94
738.15	241.59
738.48	241.24
738.81	240.88
739.14	240.55
739.47	240.15
739.80	239.86
740.13	239.51
740.46	239.09
740.79	238.70
741.12	238.44
741.45	238.05
741.78	237.75
742.11	237.38
742.44	237.07
742.77	236.79
743.10	236.45
743.43	236.18
743.75	235.64
744.08	235.60
744.41	235.32
744.74	235.06
745.07	234.76
745.40	234.60
745.73	234.40
746.06	234.01
746.39	233.78
746.71	233.47
747.04	233.17
747.37	232.98
747.70	232.76
748.03	232.44
748.36	232.26
748.68	231.97
749.01	231.79
749.34	231.51
749.67	231.26
750.00	231.03
750.33	230.87
750.65	230.62
750.98	230.16
751.31	229.88
751.64	229.68
751.97	229.57
752.29	229.23
752.62	228.96
752.95	228.87
753.28	228.69
753.60	228.48
753.93	228.37
754.26	228.18
754.59	227.99
754.91	227.89
755.24	227.73
755.57	227.55
755.90	227.25
756.22	227.12
756.55	226.95
756.88	226.71
757.20	226.47
757.53	226.29
757.86	226.09
758.19	226.00
758.51	225.76
758.84	225.53
759.17	225.36
759.49	225.20
759.82	225.05
760.15	224.86
760.47	224.69
760.80	224.48
761.13	224.37
761.45	224.23
761.78	224.02
762.11	223.91
762.43	223.73
762.76	223.67
763.08	223.58
763.41	223.48
763.74	223.41
764.06	223.32
764.39	223.17
764.71	222.99
765.04	222.73
765.37	222.68
765.69	222.58
766.02	222.47
766.34	222.28
766.67	222.10
767.00	222.04
767.32	222.01
767.65	222.00
767.97	221.89
768.30	221.77
768.62	221.69
768.95	221.47
769.27	221.43
769.60	221.29
769.92	221.11
770.25	220.92
770.57	220.75
770.90	220.57
771.22	220.50
771.55	220.51
771.87	220.49
772.20	220.37
772.52	220.33
772.85	220.48
773.17	220.44
773.50	220.35
773.82	220.17
774.15	220.01
774.47	219.77
774.80	219.62
775.12	219.56
775.45	219.45
775.77	219.40
776.09	219.28
776.42	219.25
776.74	219.20
777.07	219.19
777.39	219.08
777.72	219.01
778.04	218.95
778.36	218.81
778.69	218.72
779.01	218.63
779.33	218.42
779.66	218.16
779.98	218.04
780.31	217.96
780.63	217.98
780.95	217.94
781.28	217.97
781.60	217.90
781.92	217.84
782.25	217.71
782.57	217.64
782.89	217.58
783.22	217.46
783.54	217.35
783.86	217.22
784.19	217.16
784.51	217.19
784.83	217.11
785.16	217.03
785.48	216.97
785.80	216.94
786.12	216.95
786.45	216.91
