SpectraSuite Data File
++++++++++++++++++++++++++++++++++++
Date: Mon Feb 25 17:35:07 EST 2013
User: group
Dark Spectrum Present: No
Reference Spectrum Present: No
Number of Sampled Component Spectra: 1
Spectrometers: USB2E7196
Integration Time (usec): 52000 (USB2E7196)
Spectra Averaged: 20 (USB2E7196)
Boxcar Smoothing: 10 (USB2E7196)
Correct for Electrical Dark: No (USB2E7196)
Strobe/Lamp Enabled: No (USB2E7196)
Correct for Detector Non-linearity: No (USB2E7196)
Correct for Stray Light: No (USB2E7196)
Number of Pixels in Processed Spectrum: 2048
>>>>>Begin Processed Spectral Data<<<<<
339.09	0.00
339.48	198.65
339.86	199.55
340.24	200.25
340.63	201.70
341.01	207.65
341.39	206.25
341.78	207.30
342.16	207.80
342.54	208.90
342.93	197.68
343.31	207.69
343.69	208.24
344.07	208.71
344.46	209.18
344.84	209.67
345.22	209.85
345.60	210.09
345.99	210.25
346.37	210.38
346.75	210.46
347.13	210.59
347.52	210.65
347.90	210.76
348.28	210.83
348.66	210.92
349.05	210.94
349.43	210.93
349.81	211.02
350.19	211.05
350.57	211.18
350.96	211.31
351.34	211.38
351.72	211.48
352.10	211.59
352.48	211.77
352.87	211.86
353.25	211.90
353.63	211.85
354.01	211.97
354.39	212.12
354.77	212.22
355.15	212.31
355.54	212.42
355.92	212.38
356.30	212.53
356.68	212.70
357.06	212.79
357.44	212.87
357.82	212.85
358.20	212.95
358.58	213.06
358.97	213.14
359.35	213.32
359.73	213.44
360.11	213.49
360.49	213.45
360.87	213.44
361.25	213.53
361.63	213.67
362.01	213.68
362.39	213.60
362.77	213.65
363.15	213.72
363.53	213.74
363.91	213.80
364.29	213.79
364.67	213.65
365.05	213.65
365.43	213.71
365.81	213.83
366.19	213.99
366.57	214.10
366.95	214.09
367.33	213.96
367.71	213.92
368.09	214.01
368.47	214.06
368.85	214.08
369.23	214.09
369.61	214.06
369.99	214.11
370.37	214.25
370.75	214.32
371.13	214.23
371.51	214.21
371.89	214.22
372.27	214.16
372.65	214.16
373.03	214.20
373.41	214.16
373.78	214.05
374.16	213.88
374.54	213.71
374.92	213.68
375.30	213.67
375.68	213.64
376.06	213.53
376.44	213.40
376.82	213.35
377.19	213.26
377.57	213.26
377.95	213.17
378.33	213.10
378.71	212.93
379.09	212.95
379.47	212.93
379.84	212.74
380.22	212.66
380.60	212.60
380.98	212.47
381.36	212.44
381.73	212.40
382.11	212.37
382.49	212.35
382.87	212.29
383.25	212.23
383.62	212.39
384.00	212.37
384.38	212.40
384.76	212.35
385.13	212.39
385.51	212.40
385.89	212.33
386.27	212.27
386.64	212.33
387.02	212.22
387.40	212.13
387.78	212.27
388.15	212.30
388.53	212.28
388.91	212.22
389.29	212.15
389.66	212.21
390.04	212.14
390.42	212.13
390.79	212.05
391.17	212.04
391.55	211.76
391.92	211.74
392.30	211.73
392.68	211.68
393.05	211.69
393.43	211.62
393.81	211.63
394.18	211.55
394.56	211.49
394.94	211.54
395.31	211.55
395.69	211.57
396.06	211.60
396.44	211.58
396.82	211.56
397.19	211.68
397.57	211.67
397.95	211.83
398.32	211.84
398.70	211.92
399.07	212.02
399.45	212.09
399.82	212.09
400.20	212.05
400.58	212.12
400.95	212.08
401.33	212.13
401.70	212.26
402.08	212.35
402.45	212.48
402.83	212.58
403.20	212.63
403.58	212.66
403.95	212.70
404.33	212.81
404.71	212.96
405.08	213.11
405.46	213.21
405.83	213.25
406.21	213.34
406.58	213.47
406.96	213.58
407.33	213.72
407.70	213.95
408.08	214.36
408.45	214.65
408.83	214.86
409.20	215.11
409.58	215.31
409.95	215.60
410.33	215.88
410.70	216.15
411.08	216.50
411.45	216.86
411.82	217.22
412.20	217.66
412.57	218.20
412.95	218.55
413.32	219.03
413.69	219.63
414.07	220.24
414.44	220.89
414.82	221.56
415.19	222.34
415.56	223.06
415.94	223.71
416.31	224.60
416.68	225.50
417.06	226.55
417.43	227.57
417.81	228.75
418.18	229.83
418.55	231.17
418.93	232.43
419.30	233.82
419.67	235.30
420.04	236.76
420.42	238.28
420.79	240.07
421.16	241.80
421.54	243.64
421.91	245.58
422.28	247.58
422.66	249.60
423.03	251.62
423.40	253.72
423.77	255.99
424.15	258.19
424.52	260.52
424.89	263.12
425.26	265.58
425.64	267.87
426.01	270.46
426.38	273.02
426.75	275.84
427.13	278.65
427.50	281.61
427.87	284.75
428.24	287.84
428.61	290.79
428.99	294.13
429.36	297.51
429.73	300.99
430.10	304.40
430.47	307.99
430.85	311.73
431.22	315.70
431.59	319.82
431.96	323.87
432.33	328.30
432.70	332.42
433.08	337.30
433.45	341.99
433.82	346.67
434.19	351.90
434.56	356.89
434.93	361.70
435.30	366.49
435.68	371.72
436.05	376.85
436.42	382.09
436.79	386.69
437.16	391.90
437.53	397.35
437.90	402.70
438.27	407.99
438.64	413.43
439.01	418.35
439.38	422.77
439.75	426.92
440.13	431.76
440.50	436.38
440.87	440.16
441.24	443.95
441.61	448.23
441.98	451.35
442.35	454.98
442.72	458.52
443.09	462.01
443.46	464.12
443.83	465.69
444.20	466.77
444.57	468.65
444.94	469.35
445.31	469.87
445.68	470.53
446.05	470.67
446.42	469.87
446.79	469.06
447.16	468.31
447.53	467.84
447.90	465.74
448.27	463.68
448.64	460.77
449.01	458.69
449.37	454.94
449.74	451.31
450.11	447.27
450.48	442.79
450.85	438.15
451.22	434.14
451.59	430.16
451.96	426.59
452.33	421.74
452.70	417.37
453.07	412.29
453.43	407.01
453.80	402.04
454.17	397.25
454.54	392.72
454.91	387.84
455.28	382.92
455.65	378.41
456.02	373.90
456.38	370.19
456.75	365.58
457.12	361.71
457.49	357.87
457.86	353.98
458.23	350.76
458.59	347.26
458.96	343.80
459.33	340.74
459.70	337.59
460.07	335.10
460.43	332.29
460.80	329.64
461.17	327.33
461.54	324.81
461.91	322.44
462.27	320.06
462.64	317.99
463.01	315.76
463.38	313.69
463.74	311.49
464.11	309.52
464.48	307.86
464.85	306.14
465.21	304.73
465.58	303.26
465.95	301.52
466.32	300.11
466.68	298.65
467.05	297.18
467.42	295.72
467.78	294.30
468.15	292.95
468.52	291.94
468.88	290.61
469.25	289.43
469.62	288.56
469.98	287.51
470.35	286.63
470.72	285.78
471.08	284.79
471.45	284.04
471.82	283.29
472.18	282.42
472.55	281.81
472.92	281.05
473.28	280.52
473.65	279.92
474.02	279.38
474.38	278.94
474.75	278.60
475.11	278.19
475.48	277.84
475.85	277.57
476.21	277.33
476.58	277.19
476.94	277.18
477.31	277.04
477.67	277.05
478.04	277.01
478.41	277.18
478.77	277.57
479.14	277.71
479.50	277.97
479.87	278.32
480.23	278.64
480.60	279.08
480.96	279.57
481.33	280.30
481.69	280.90
482.06	281.48
482.42	282.07
482.79	282.79
483.15	283.61
483.52	284.63
483.88	285.59
484.25	286.55
484.61	287.64
484.98	288.77
485.34	290.10
485.71	291.43
486.07	292.81
486.44	293.98
486.80	295.55
487.17	297.22
487.53	298.98
487.90	300.85
488.26	302.85
488.62	304.80
488.99	306.78
489.35	309.00
489.72	311.18
490.08	313.50
490.44	316.05
490.81	318.75
491.17	321.40
491.54	324.31
491.90	327.36
492.26	330.53
492.63	333.75
492.99	337.23
493.36	340.85
493.72	344.74
494.08	348.79
494.45	353.03
494.81	357.41
495.17	361.98
495.54	366.78
495.90	371.82
496.26	376.98
496.63	382.57
496.99	388.35
497.35	394.55
497.72	400.93
498.08	407.38
498.44	414.12
498.80	421.32
499.17	428.77
499.53	436.37
499.89	444.36
500.26	452.77
500.62	461.11
500.98	469.93
501.34	479.00
501.71	488.48
502.07	498.10
502.43	508.15
502.79	518.49
503.16	529.08
503.52	539.95
503.88	551.33
504.24	562.80
504.60	574.64
504.97	586.93
505.33	599.51
505.69	612.85
506.05	626.27
506.41	639.82
506.78	653.54
507.14	667.83
507.50	682.36
507.86	697.31
508.22	712.71
508.59	728.46
508.95	744.58
509.31	760.96
509.67	777.88
510.03	794.92
510.39	812.39
510.75	830.23
511.12	848.31
511.48	866.65
511.84	885.40
512.20	904.18
512.56	923.49
512.92	943.11
513.28	962.64
513.64	982.36
514.00	1002.49
514.37	1022.88
514.73	1043.90
515.09	1064.82
515.45	1085.62
515.81	1107.06
516.17	1128.63
516.53	1150.15
516.89	1171.68
517.25	1193.15
517.61	1214.57
517.97	1236.18
518.33	1257.80
518.69	1279.83
519.05	1302.11
519.41	1324.47
519.77	1346.92
520.13	1369.26
520.49	1391.39
520.85	1414.23
521.21	1437.11
521.57	1460.40
521.93	1482.87
522.29	1505.77
522.65	1528.64
523.01	1551.68
523.37	1573.79
523.73	1596.05
524.09	1618.17
524.45	1640.84
524.81	1663.69
525.17	1686.66
525.53	1709.31
525.89	1732.24
526.25	1754.36
526.61	1775.62
526.97	1797.40
527.33	1819.08
527.68	1840.58
528.04	1861.67
528.40	1882.14
528.76	1903.15
529.12	1924.06
529.48	1945.93
529.84	1966.24
530.20	1986.23
530.56	2006.65
530.91	2027.90
531.27	2048.52
531.63	2068.70
531.99	2088.62
532.35	2107.95
532.71	2126.95
533.07	2146.73
533.42	2165.23
533.78	2184.54
534.14	2203.40
534.50	2220.86
534.86	2239.42
535.21	2256.49
535.57	2274.66
535.93	2292.27
536.29	2309.38
536.65	2325.95
537.00	2341.32
537.36	2357.04
537.72	2373.00
538.08	2388.35
538.44	2403.30
538.79	2418.91
539.15	2434.17
539.51	2449.35
539.87	2464.62
540.22	2479.46
540.58	2494.17
540.94	2508.68
541.29	2521.76
541.65	2534.03
542.01	2547.41
542.37	2558.88
542.72	2571.46
543.08	2582.85
543.44	2595.00
543.79	2604.98
544.15	2615.35
544.51	2626.51
544.87	2637.44
545.22	2646.58
545.58	2655.26
545.94	2662.96
546.29	2669.56
546.65	2676.08
547.01	2682.07
547.36	2687.70
547.72	2693.40
548.07	2697.87
548.43	2702.00
548.79	2705.98
549.14	2711.26
549.50	2715.77
549.86	2720.30
550.21	2724.49
550.57	2729.04
550.92	2731.52
551.28	2734.53
551.64	2737.42
551.99	2740.07
552.35	2741.86
552.70	2745.00
553.06	2748.30
553.41	2751.48
553.77	2754.61
554.13	2756.83
554.48	2759.26
554.84	2760.84
555.19	2761.71
555.55	2762.51
555.90	2763.22
556.26	2764.00
556.61	2763.89
556.97	2762.75
557.32	2762.51
557.68	2760.89
558.03	2759.13
558.39	2757.98
558.74	2757.99
559.10	2756.72
559.45	2754.97
559.81	2753.95
560.16	2750.97
560.52	2748.44
560.87	2745.41
561.23	2741.42
561.58	2739.53
561.94	2736.14
562.29	2732.73
562.64	2730.46
563.00	2727.87
563.35	2725.74
563.71	2723.93
564.06	2721.68
564.42	2720.08
564.77	2717.75
565.12	2716.02
565.48	2712.74
565.83	2710.04
566.19	2706.72
566.54	2702.38
566.89	2698.54
567.25	2694.90
567.60	2691.97
567.96	2688.08
568.31	2684.90
568.66	2681.37
569.02	2676.36
569.37	2671.50
569.72	2667.86
570.08	2662.55
570.43	2656.73
570.78	2651.15
571.14	2644.46
571.49	2638.09
571.84	2632.05
572.20	2625.35
572.55	2618.75
572.90	2612.17
573.26	2604.66
573.61	2597.73
573.96	2591.17
574.31	2583.17
574.67	2575.15
575.02	2566.74
575.37	2558.25
575.72	2548.96
576.08	2541.41
576.43	2532.93
576.78	2525.02
577.13	2516.49
577.49	2508.04
577.84	2500.39
578.19	2492.47
578.54	2485.36
578.90	2478.24
579.25	2469.35
579.60	2459.81
579.95	2450.50
580.30	2442.20
580.66	2434.40
581.01	2425.02
581.36	2415.68
581.71	2407.55
582.06	2398.62
582.42	2390.27
582.77	2381.07
583.12	2372.23
583.47	2363.42
583.82	2354.95
584.17	2345.64
584.53	2336.66
584.88	2327.85
585.23	2318.47
585.58	2308.75
585.93	2298.73
586.28	2289.58
586.63	2280.70
586.98	2272.33
587.34	2263.84
587.69	2254.86
588.04	2245.43
588.39	2236.93
588.74	2228.19
589.09	2219.30
589.44	2209.80
589.79	2201.19
590.14	2193.07
590.49	2184.60
590.84	2175.16
591.19	2166.92
591.54	2158.03
591.89	2147.94
592.25	2138.83
592.60	2129.36
592.95	2119.95
593.30	2110.38
593.65	2100.05
594.00	2090.19
594.35	2081.70
594.70	2072.29
595.05	2063.32
595.40	2054.36
595.75	2044.48
596.10	2036.05
596.45	2027.13
596.80	2019.12
597.15	2010.53
597.50	2001.40
597.85	1992.71
598.19	1983.79
598.54	1974.82
598.89	1966.89
599.24	1960.18
599.59	1952.61
599.94	1945.52
600.29	1937.78
600.64	1929.82
600.99	1921.54
601.34	1914.40
601.69	1905.70
602.04	1897.67
602.39	1889.40
602.74	1881.61
603.08	1875.06
603.43	1867.70
603.78	1859.90
604.13	1851.89
604.48	1843.97
604.83	1837.09
605.18	1829.77
605.53	1822.40
605.87	1815.01
606.22	1807.60
606.57	1799.45
606.92	1790.89
607.27	1782.50
607.62	1774.99
607.96	1768.08
608.31	1762.05
608.66	1753.96
609.01	1746.15
609.36	1738.07
609.70	1730.38
610.05	1722.42
610.40	1714.09
610.75	1705.17
611.10	1697.42
611.44	1688.18
611.79	1678.66
612.14	1669.01
612.49	1659.43
612.83	1650.52
613.18	1640.44
613.53	1630.96
613.88	1620.96
614.22	1612.35
614.57	1602.98
614.92	1593.51
615.27	1584.09
615.61	1573.97
615.96	1564.91
616.31	1556.23
616.65	1548.46
617.00	1539.72
617.35	1530.78
617.70	1521.84
618.04	1512.89
618.39	1503.24
618.74	1494.59
619.08	1485.97
619.43	1477.63
619.78	1469.88
620.12	1461.82
620.47	1454.06
620.82	1445.24
621.16	1436.98
621.51	1428.35
621.85	1420.22
622.20	1411.54
622.55	1403.02
622.89	1394.57
623.24	1386.59
623.59	1377.98
623.93	1369.15
624.28	1360.81
624.62	1352.84
624.97	1344.33
625.32	1336.54
625.66	1329.20
626.01	1321.92
626.35	1314.65
626.70	1306.93
627.04	1299.39
627.39	1291.54
627.73	1283.89
628.08	1277.29
628.43	1269.77
628.77	1262.21
629.12	1254.73
629.46	1248.07
629.81	1240.75
630.15	1233.35
630.50	1225.61
630.84	1218.44
631.19	1211.10
631.53	1204.03
631.88	1196.36
632.22	1188.98
632.57	1181.94
632.91	1174.45
633.26	1167.00
633.60	1159.86
633.95	1152.99
634.29	1145.39
634.64	1138.65
634.98	1131.73
635.32	1124.39
635.67	1118.05
636.01	1111.52
636.36	1104.75
636.70	1097.97
637.05	1091.39
637.39	1085.12
637.73	1078.86
638.08	1072.73
638.42	1066.97
638.77	1060.38
639.11	1053.84
639.45	1047.61
639.80	1040.90
640.14	1034.13
640.49	1027.77
640.83	1021.47
641.17	1014.94
641.52	1008.87
641.86	1002.24
642.20	995.68
642.55	988.86
642.89	982.19
643.23	975.55
643.58	969.26
643.92	962.70
644.26	956.35
644.61	950.08
644.95	943.97
645.29	937.53
645.64	930.70
645.98	924.66
646.32	918.98
646.66	912.87
647.01	906.83
647.35	901.07
647.69	894.64
648.04	888.75
648.38	882.99
648.72	876.77
649.06	870.62
649.41	864.68
649.75	858.90
650.09	852.95
650.43	847.11
650.78	841.07
651.12	835.03
651.46	829.20
651.80	823.29
652.14	817.34
652.49	811.45
652.83	805.49
653.17	799.24
653.51	793.17
653.85	787.41
654.20	781.45
654.54	775.64
654.88	770.41
655.22	764.48
655.56	758.41
655.90	752.68
656.25	746.87
656.59	741.32
656.93	736.08
657.27	730.96
657.61	725.60
657.95	720.33
658.29	715.23
658.64	710.00
658.98	704.85
659.32	699.39
659.66	694.16
660.00	688.78
660.34	683.80
660.68	678.61
661.02	673.41
661.36	668.76
661.70	663.83
662.05	658.76
662.39	654.23
662.73	649.84
663.07	645.50
663.41	641.10
663.75	636.50
664.09	631.85
664.43	627.01
664.77	622.45
665.11	618.03
665.45	613.43
665.79	608.88
666.13	604.33
666.47	600.08
666.81	595.92
667.15	591.81
667.49	587.94
667.83	583.89
668.17	580.06
668.51	576.12
668.85	572.37
669.19	568.75
669.53	564.80
669.87	560.66
670.21	556.75
670.55	552.90
670.89	549.40
671.23	546.05
671.57	542.55
671.91	538.90
672.25	535.25
672.58	531.77
672.92	528.30
673.26	525.15
673.60	521.80
673.94	518.39
674.28	515.24
674.62	511.87
674.96	508.70
675.30	505.46
675.64	502.19
675.97	499.05
676.31	495.98
676.65	492.90
676.99	490.18
677.33	487.13
677.67	484.28
678.01	481.15
678.34	477.96
678.68	475.13
679.02	472.24
679.36	469.49
679.70	466.60
680.04	463.72
680.37	460.77
680.71	457.98
681.05	455.32
681.39	452.65
681.73	449.96
682.06	447.45
682.40	444.95
682.74	442.30
683.08	439.73
683.42	436.97
683.75	434.35
684.09	431.76
684.43	429.32
684.77	426.74
685.10	424.25
685.44	421.74
685.78	419.15
686.12	416.92
686.45	414.55
686.79	412.43
687.13	410.38
687.46	408.17
687.80	406.02
688.14	403.66
688.48	401.50
688.81	399.24
689.15	397.00
689.49	394.82
689.82	392.62
690.16	390.26
690.50	388.09
690.83	385.87
691.17	383.49
691.51	381.28
691.84	379.14
692.18	377.09
692.52	375.10
692.85	373.29
693.19	371.33
693.52	369.33
693.86	367.20
694.20	365.12
694.53	363.15
694.87	361.07
695.21	359.23
695.54	357.28
695.88	355.32
696.21	353.34
696.55	351.58
696.88	349.79
697.22	348.05
697.56	346.44
697.89	344.84
698.23	343.24
698.56	341.58
698.90	340.09
699.23	338.52
699.57	336.87
699.90	335.12
700.24	333.38
700.58	331.76
700.91	330.34
701.25	329.06
701.58	327.59
701.92	326.21
702.25	324.85
702.59	323.32
702.92	322.04
703.26	320.70
703.59	319.30
703.93	318.23
704.26	317.01
704.60	315.70
704.93	314.36
705.26	313.14
705.60	311.99
705.93	310.69
706.27	309.53
706.60	308.52
706.94	307.35
707.27	306.16
707.61	305.09
707.94	303.83
708.27	302.49
708.61	301.42
708.94	300.22
709.28	298.95
709.61	297.92
709.94	296.83
710.28	295.76
710.61	294.68
710.95	293.48
711.28	292.55
711.61	291.52
711.95	290.59
712.28	289.52
712.61	288.43
712.95	287.54
713.28	286.53
713.61	285.45
713.95	284.57
714.28	283.77
714.61	282.82
714.95	282.00
715.28	281.08
715.61	280.14
715.95	279.32
716.28	278.43
716.61	277.58
716.95	276.73
717.28	275.92
717.61	275.22
717.94	274.49
718.28	273.55
718.61	272.82
718.94	272.12
719.27	271.50
719.61	270.83
719.94	270.06
720.27	269.38
720.60	268.70
720.94	268.01
721.27	267.32
721.60	266.64
721.93	265.96
722.27	265.37
722.60	264.71
722.93	264.13
723.26	263.65
723.59	262.98
723.93	262.33
724.26	261.79
724.59	261.08
724.92	260.46
725.25	259.88
725.59	259.24
725.92	258.63
726.25	258.04
726.58	257.52
726.91	256.96
727.24	256.38
727.57	255.85
727.91	255.29
728.24	254.78
728.57	254.34
728.90	253.87
729.23	253.45
729.56	253.09
729.89	252.59
730.22	252.11
730.55	251.67
730.89	251.22
731.22	250.70
731.55	250.27
731.88	249.76
732.21	249.34
732.54	248.89
732.87	248.41
733.20	248.02
733.53	247.61
733.86	247.19
734.19	246.69
734.52	246.34
734.85	246.05
735.18	245.63
735.51	245.15
735.84	244.84
736.17	244.43
736.50	243.93
736.83	243.70
737.16	243.31
737.49	242.95
737.82	242.57
738.15	242.26
738.48	241.86
738.81	241.47
739.14	241.10
739.47	240.75
739.80	240.44
740.13	240.06
740.46	239.63
740.79	239.21
741.12	238.94
741.45	238.54
741.78	238.14
742.11	237.86
742.44	237.54
742.77	237.23
743.10	236.89
743.43	236.62
743.75	236.04
744.08	236.00
744.41	235.73
744.74	235.48
745.07	235.12
745.40	234.82
745.73	234.73
746.06	234.45
746.39	234.20
746.71	233.99
747.04	233.67
747.37	233.45
747.70	233.31
748.03	233.02
748.36	232.82
748.68	232.50
749.01	232.17
749.34	231.91
749.67	231.61
750.00	231.36
750.33	231.29
750.65	231.13
750.98	230.61
751.31	230.40
751.64	230.16
751.97	229.95
752.29	229.74
752.62	229.38
752.95	229.13
753.28	228.86
753.60	228.59
753.93	228.46
754.26	228.30
754.59	228.04
754.91	227.83
755.24	227.61
755.57	227.49
755.90	227.28
756.22	227.12
756.55	226.92
756.88	226.66
757.20	226.34
757.53	226.15
757.86	225.92
758.19	225.64
758.51	225.47
758.84	225.31
759.17	225.14
759.49	224.99
759.82	224.93
760.15	224.78
760.47	224.61
760.80	224.34
761.13	224.12
761.45	223.96
761.78	223.93
762.11	223.78
762.43	223.61
762.76	223.51
763.08	223.41
763.41	223.27
763.74	223.22
764.06	222.99
764.39	222.86
764.71	222.85
765.04	222.78
765.37	222.67
765.69	222.52
766.02	222.46
766.34	222.36
766.67	222.19
767.00	222.10
767.32	222.00
767.65	221.98
767.97	221.87
768.30	221.72
768.62	221.43
768.95	221.25
769.27	221.15
769.60	221.08
769.92	220.86
770.25	220.69
770.57	220.48
770.90	220.35
771.22	220.25
771.55	220.06
771.87	219.98
772.20	219.82
772.52	219.82
772.85	219.94
773.17	219.79
773.50	219.70
773.82	219.54
774.15	219.35
774.47	219.14
774.80	219.06
775.12	219.00
775.45	218.98
775.77	218.91
776.09	218.80
776.42	218.68
776.74	218.66
777.07	218.60
777.39	218.53
777.72	218.45
778.04	218.34
778.36	218.22
778.69	218.12
779.01	218.02
779.33	217.81
779.66	217.48
779.98	217.41
780.31	217.33
780.63	217.38
780.95	217.40
781.28	217.39
781.60	217.28
781.92	217.13
782.25	217.06
782.57	216.95
782.89	216.86
783.22	216.76
783.54	216.68
783.86	216.67
784.19	216.65
784.51	216.60
784.83	216.50
785.16	216.49
785.48	216.40
785.80	216.33
786.12	216.32
786.45	216.25
