SpectraSuite Data File
++++++++++++++++++++++++++++++++++++
Date: Mon Feb 25 17:30:27 EST 2013
User: group
Dark Spectrum Present: No
Reference Spectrum Present: No
Number of Sampled Component Spectra: 1
Spectrometers: USB2E7196
Integration Time (usec): 52000 (USB2E7196)
Spectra Averaged: 20 (USB2E7196)
Boxcar Smoothing: 10 (USB2E7196)
Correct for Electrical Dark: No (USB2E7196)
Strobe/Lamp Enabled: No (USB2E7196)
Correct for Detector Non-linearity: No (USB2E7196)
Correct for Stray Light: No (USB2E7196)
Number of Pixels in Processed Spectrum: 2048
>>>>>Begin Processed Spectral Data<<<<<
339.09	0.00
339.48	198.15
339.86	200.05
340.24	201.25
340.63	203.80
341.01	208.00
341.39	205.90
341.78	207.10
342.16	208.25
342.54	209.05
342.93	198.28
343.31	208.28
343.69	208.82
344.07	209.33
344.46	209.83
344.84	210.20
345.22	210.38
345.60	210.66
345.99	210.83
346.37	211.02
346.75	211.15
347.13	211.14
347.52	211.12
347.90	211.21
348.28	211.27
348.66	211.30
349.05	211.19
349.43	211.25
349.81	211.34
350.19	211.36
350.57	211.44
350.96	211.60
351.34	211.74
351.72	211.85
352.10	211.89
352.48	211.90
352.87	211.89
353.25	211.95
353.63	211.99
354.01	212.05
354.39	212.08
354.77	212.08
355.15	212.13
355.54	212.24
355.92	212.20
356.30	212.22
356.68	212.40
357.06	212.50
357.44	212.52
357.82	212.51
358.20	212.60
358.58	212.64
358.97	212.65
359.35	212.69
359.73	212.73
360.11	212.84
360.49	212.91
360.87	213.01
361.25	213.00
361.63	213.08
362.01	213.20
362.39	213.19
362.77	213.26
363.15	213.41
363.53	213.40
363.91	213.46
364.29	213.53
364.67	213.47
365.05	213.51
365.43	213.52
365.81	213.54
366.19	213.57
366.57	213.61
366.95	213.66
367.33	213.63
367.71	213.68
368.09	213.75
368.47	213.77
368.85	213.78
369.23	213.87
369.61	213.80
369.99	213.76
370.37	213.86
370.75	213.94
371.13	213.88
371.51	213.84
371.89	213.85
372.27	213.83
372.65	213.77
373.03	213.72
373.41	213.71
373.78	213.70
374.16	213.63
374.54	213.63
374.92	213.50
375.30	213.43
375.68	213.29
376.06	213.17
376.44	213.10
376.82	213.06
377.19	212.90
377.57	212.90
377.95	212.82
378.33	212.72
378.71	212.57
379.09	212.53
379.47	212.53
379.84	212.43
380.22	212.37
380.60	212.23
380.98	212.15
381.36	212.12
381.73	212.05
382.11	212.04
382.49	212.00
382.87	211.98
383.25	211.98
383.62	212.26
384.00	212.21
384.38	212.18
384.76	212.18
385.13	212.34
385.51	212.28
385.89	212.24
386.27	212.16
386.64	212.22
387.02	212.16
387.40	212.10
387.78	212.08
388.15	212.03
388.53	212.05
388.91	212.06
389.29	211.96
389.66	212.04
390.04	211.98
390.42	212.00
390.79	211.97
391.17	211.95
391.55	211.67
391.92	211.64
392.30	211.67
392.68	211.61
393.05	211.53
393.43	211.50
393.81	211.53
394.18	211.57
394.56	211.55
394.94	211.68
395.31	211.68
395.69	211.81
396.06	211.86
396.44	211.90
396.82	211.89
397.19	212.06
397.57	212.06
397.95	212.10
398.32	212.07
398.70	212.12
399.07	212.17
399.45	212.26
399.82	212.39
400.20	212.39
400.58	212.44
400.95	212.40
401.33	212.55
401.70	212.73
402.08	212.76
402.45	212.83
402.83	212.83
403.20	212.98
403.58	212.92
403.95	213.06
404.33	213.20
404.71	213.28
405.08	213.40
405.46	213.46
405.83	213.60
406.21	213.68
406.58	213.87
406.96	214.08
407.33	214.18
407.70	214.29
408.08	214.61
408.45	214.82
408.83	215.12
409.20	215.27
409.58	215.37
409.95	215.73
410.33	215.93
410.70	216.20
411.08	216.52
411.45	217.04
411.82	217.33
412.20	217.76
412.57	218.30
412.95	218.60
413.32	219.14
413.69	219.63
414.07	220.23
414.44	220.81
414.82	221.37
415.19	222.13
415.56	222.86
415.94	223.54
416.31	224.41
416.68	225.22
417.06	226.15
417.43	227.10
417.81	228.09
418.18	229.20
418.55	230.43
418.93	231.61
419.30	232.77
419.67	234.09
420.04	235.42
420.42	236.84
420.79	238.67
421.16	240.30
421.54	242.02
421.91	243.83
422.28	245.72
422.66	247.70
423.03	249.63
423.40	251.54
423.77	253.62
424.15	255.80
424.52	258.14
424.89	260.71
425.26	263.12
425.64	265.37
426.01	267.89
426.38	270.41
426.75	273.05
427.13	275.79
427.50	278.67
427.87	281.68
428.24	284.73
428.61	287.44
428.99	290.68
429.36	294.07
429.73	297.38
430.10	300.77
430.47	304.24
430.85	307.84
431.22	311.79
431.59	315.95
431.96	319.73
432.33	323.88
432.70	327.97
433.08	332.82
433.45	337.40
433.82	341.96
434.19	347.04
434.56	351.95
434.93	356.59
435.30	361.32
435.68	366.44
436.05	371.39
436.42	376.39
436.79	380.90
437.16	385.87
437.53	391.14
437.90	396.26
438.27	401.25
438.64	406.45
439.01	411.15
439.38	415.29
439.75	419.51
440.13	424.26
440.50	428.61
440.87	432.15
441.24	435.90
441.61	439.95
441.98	442.92
442.35	446.40
442.72	450.04
443.09	453.41
443.46	455.48
443.83	456.96
444.20	458.19
444.57	459.99
444.94	460.65
445.31	461.39
445.68	462.16
446.05	462.31
446.42	461.66
446.79	460.97
447.16	460.17
447.53	459.44
447.90	457.37
448.27	455.35
448.64	452.53
449.01	450.45
449.37	447.00
449.74	443.50
450.11	439.62
450.48	435.21
450.85	430.66
451.22	426.71
451.59	423.02
451.96	419.45
452.33	414.70
452.70	410.55
453.07	405.54
453.43	400.45
453.80	395.75
454.17	391.15
454.54	386.77
454.91	382.19
455.28	377.70
455.65	373.42
456.02	369.21
456.38	365.68
456.75	361.17
457.12	357.32
457.49	353.62
457.86	349.87
458.23	346.73
458.59	343.45
458.96	340.07
459.33	337.05
459.70	334.04
460.07	331.71
460.43	328.92
460.80	326.38
461.17	323.99
461.54	321.58
461.91	319.31
462.27	317.01
462.64	314.96
463.01	312.82
463.38	310.77
463.74	308.58
464.11	306.70
464.48	305.04
464.85	303.40
465.21	302.09
465.58	300.60
465.95	299.00
466.32	297.55
466.68	296.20
467.05	294.74
467.42	293.46
467.78	292.02
468.15	290.82
468.52	289.77
468.88	288.55
469.25	287.34
469.62	286.43
469.98	285.42
470.35	284.57
470.72	283.74
471.08	282.88
471.45	282.15
471.82	281.39
472.18	280.65
472.55	280.10
472.92	279.43
473.28	278.90
473.65	278.29
474.02	277.76
474.38	277.34
474.75	277.11
475.11	276.70
475.48	276.44
475.85	276.18
476.21	275.98
476.58	275.86
476.94	275.85
477.31	275.75
477.67	275.80
478.04	275.78
478.41	275.91
478.77	276.18
479.14	276.35
479.50	276.67
479.87	277.10
480.23	277.41
480.60	277.82
480.96	278.27
481.33	278.93
481.69	279.61
482.06	280.21
482.42	280.71
482.79	281.41
483.15	282.31
483.52	283.27
483.88	284.26
484.25	285.24
484.61	286.27
484.98	287.33
485.34	288.58
485.71	290.05
486.07	291.49
486.44	292.83
486.80	294.36
487.17	295.93
487.53	297.50
487.90	299.23
488.26	301.12
488.62	303.12
488.99	305.03
489.35	307.08
489.72	309.46
490.08	311.93
490.44	314.56
490.81	317.05
491.17	319.67
491.54	322.54
491.90	325.52
492.26	328.81
492.63	332.18
492.99	335.60
493.36	339.00
493.72	342.70
494.08	346.77
494.45	351.01
494.81	355.38
495.17	359.98
495.54	364.95
495.90	370.00
496.26	375.24
496.63	380.84
496.99	386.46
497.35	392.40
497.72	398.57
498.08	404.86
498.44	411.55
498.80	418.68
499.17	426.08
499.53	433.61
499.89	441.40
500.26	449.45
500.62	457.66
500.98	466.53
501.34	475.49
501.71	484.86
502.07	494.31
502.43	504.22
502.79	514.59
503.16	525.05
503.52	535.84
503.88	546.99
504.24	558.42
504.60	570.40
504.97	582.49
505.33	594.88
505.69	607.85
506.05	621.15
506.41	634.65
506.78	648.08
507.14	662.13
507.50	676.40
507.86	691.34
508.22	706.55
508.59	721.72
508.95	737.51
509.31	753.46
509.67	770.13
510.03	786.63
510.39	803.89
510.75	821.40
511.12	839.34
511.48	857.53
511.84	876.02
512.20	894.31
512.56	913.35
512.92	932.58
513.28	952.03
513.64	971.66
514.00	991.31
514.37	1011.55
514.73	1032.04
515.09	1052.51
515.45	1072.84
515.81	1093.76
516.17	1114.88
516.53	1135.93
516.89	1157.07
517.25	1178.12
517.61	1199.64
517.97	1220.59
518.33	1241.73
518.69	1263.15
519.05	1284.75
519.41	1306.41
519.77	1328.70
520.13	1350.06
520.49	1371.45
520.85	1393.65
521.21	1415.70
521.57	1438.07
521.93	1459.74
522.29	1482.20
522.65	1504.50
523.01	1526.53
523.37	1547.85
523.73	1569.72
524.09	1591.57
524.45	1613.24
524.81	1635.10
525.17	1657.00
525.53	1679.20
525.89	1700.98
526.25	1722.34
526.61	1743.21
526.97	1764.38
527.33	1785.02
527.68	1806.31
528.04	1827.18
528.40	1846.82
528.76	1866.89
529.12	1886.96
529.48	1908.17
529.84	1927.65
530.20	1947.48
530.56	1967.63
530.91	1987.98
531.27	2007.56
531.63	2026.84
531.99	2045.91
532.35	2064.33
532.71	2082.58
533.07	2101.25
533.42	2119.21
533.78	2137.61
534.14	2155.44
534.50	2171.99
534.86	2189.50
535.21	2205.41
535.57	2222.54
535.93	2239.55
536.29	2255.68
536.65	2271.79
537.00	2286.00
537.36	2300.78
537.72	2315.22
538.08	2329.64
538.44	2344.54
538.79	2359.46
539.15	2373.67
539.51	2387.87
539.87	2402.78
540.22	2416.87
540.58	2430.83
540.94	2444.42
541.29	2456.74
541.65	2468.22
542.01	2480.91
542.37	2492.26
542.72	2503.98
543.08	2514.60
543.44	2525.64
543.79	2535.30
544.15	2544.83
544.51	2555.55
544.87	2565.97
545.22	2574.73
545.58	2582.66
545.94	2589.15
546.29	2595.04
546.65	2600.90
547.01	2606.38
547.36	2611.44
547.72	2616.07
548.07	2619.38
548.43	2622.75
548.79	2626.15
549.14	2630.43
549.50	2634.24
549.86	2637.51
550.21	2641.39
550.57	2644.79
550.92	2646.99
551.28	2649.77
551.64	2651.63
551.99	2653.80
552.35	2654.98
552.70	2657.13
553.06	2659.46
553.41	2661.87
553.77	2664.37
554.13	2666.24
554.48	2667.96
554.84	2668.96
555.19	2669.49
555.55	2669.83
555.90	2670.43
556.26	2670.68
556.61	2670.37
556.97	2668.99
557.32	2668.66
557.68	2666.54
558.03	2664.79
558.39	2663.12
558.74	2662.58
559.10	2661.49
559.45	2659.12
559.81	2657.97
560.16	2655.01
560.52	2652.20
560.87	2649.48
561.23	2645.58
561.58	2643.24
561.94	2640.14
562.29	2636.30
562.64	2634.00
563.00	2631.57
563.35	2628.74
563.71	2626.81
564.06	2624.08
564.42	2621.92
564.77	2619.03
565.12	2617.24
565.48	2613.99
565.83	2610.96
566.19	2607.20
566.54	2602.83
566.89	2599.09
567.25	2595.17
567.60	2592.00
567.96	2588.44
568.31	2584.84
568.66	2580.86
569.02	2575.98
569.37	2570.70
569.72	2567.03
570.08	2561.64
570.43	2555.99
570.78	2550.61
571.14	2543.81
571.49	2537.53
571.84	2531.61
572.20	2524.85
572.55	2518.33
572.90	2511.85
573.26	2504.73
573.61	2497.45
573.96	2491.14
574.31	2483.32
574.67	2475.01
575.02	2466.92
575.37	2458.40
575.72	2449.08
576.08	2442.10
576.43	2433.96
576.78	2426.48
577.13	2418.51
577.49	2411.01
577.84	2403.39
578.19	2396.17
578.54	2389.02
578.90	2382.69
579.25	2374.06
579.60	2365.32
579.95	2356.26
580.30	2348.49
580.66	2340.68
581.01	2331.75
581.36	2322.64
581.71	2314.79
582.06	2306.79
582.42	2298.96
582.77	2290.26
583.12	2281.88
583.47	2273.14
583.82	2264.96
584.17	2256.01
584.53	2247.23
584.88	2238.49
585.23	2229.86
585.58	2220.62
585.93	2211.47
586.28	2202.24
586.63	2194.03
586.98	2186.24
587.34	2178.15
587.69	2169.22
588.04	2160.24
588.39	2152.42
588.74	2143.78
589.09	2135.14
589.44	2125.91
589.79	2117.34
590.14	2109.86
590.49	2102.14
590.84	2093.40
591.19	2085.57
591.54	2077.27
591.89	2067.69
592.25	2058.56
592.60	2049.50
592.95	2040.49
593.30	2031.33
593.65	2021.81
594.00	2012.03
594.35	2003.82
594.70	1995.02
595.05	1986.55
595.40	1978.02
595.75	1969.14
596.10	1961.37
596.45	1953.13
596.80	1945.69
597.15	1937.69
597.50	1929.02
597.85	1920.68
598.19	1912.50
598.54	1903.91
598.89	1896.21
599.24	1889.36
599.59	1882.33
599.94	1875.52
600.29	1867.70
600.64	1860.11
600.99	1851.95
601.34	1845.26
601.69	1836.88
602.04	1829.00
602.39	1821.29
602.74	1813.91
603.08	1807.26
603.43	1800.34
603.78	1792.58
604.13	1784.67
604.48	1777.03
604.83	1770.22
605.18	1763.39
605.53	1756.06
605.87	1749.02
606.22	1742.55
606.57	1735.22
606.92	1727.52
607.27	1719.65
607.62	1712.51
607.96	1706.13
608.31	1700.41
608.66	1692.70
609.01	1685.43
609.36	1677.87
609.70	1670.18
610.05	1662.80
610.40	1655.02
610.75	1646.64
611.10	1639.25
611.44	1630.80
611.79	1622.23
612.14	1613.11
612.49	1603.94
612.83	1595.58
613.18	1586.14
613.53	1576.53
613.88	1566.96
614.22	1558.16
614.57	1548.94
614.92	1540.08
615.27	1530.86
615.61	1521.39
615.96	1512.84
616.31	1504.55
616.65	1497.01
617.00	1489.06
617.35	1480.62
617.70	1472.01
618.04	1463.48
618.39	1454.72
618.74	1446.23
619.08	1437.82
619.43	1430.09
619.78	1422.37
620.12	1414.21
620.47	1406.74
620.82	1398.55
621.16	1390.75
621.51	1382.71
621.85	1375.02
622.20	1366.92
622.55	1358.61
622.89	1350.61
623.24	1343.04
623.59	1334.47
623.93	1325.89
624.28	1317.78
624.62	1309.90
624.97	1301.86
625.32	1294.10
625.66	1286.87
626.01	1279.70
626.35	1272.84
626.70	1265.25
627.04	1258.09
627.39	1251.03
627.73	1243.63
628.08	1237.27
628.43	1230.04
628.77	1222.90
629.12	1215.73
629.46	1209.31
629.81	1202.42
630.15	1195.36
630.50	1188.09
630.84	1181.11
631.19	1174.23
631.53	1167.54
631.88	1160.06
632.22	1152.61
632.57	1145.80
632.91	1138.52
633.26	1131.41
633.60	1124.20
633.95	1117.59
634.29	1110.49
634.64	1103.73
634.98	1096.94
635.32	1089.78
635.67	1083.61
636.01	1076.96
636.36	1070.29
636.70	1063.98
637.05	1057.72
637.39	1051.45
637.73	1045.19
638.08	1039.60
638.42	1033.94
638.77	1027.70
639.11	1021.73
639.45	1016.12
639.80	1009.88
640.14	1003.47
640.49	997.53
640.83	991.69
641.17	985.45
641.52	979.40
641.86	973.01
642.20	966.82
642.55	960.40
642.89	953.99
643.23	948.00
643.58	942.20
643.92	935.50
644.26	929.37
644.61	923.56
644.95	917.82
645.29	911.70
645.64	905.31
645.98	899.09
646.32	893.41
646.66	887.32
647.01	881.43
647.35	875.98
647.69	869.71
648.04	863.69
648.38	857.84
648.72	852.11
649.06	846.37
649.41	840.66
649.75	835.10
650.09	829.33
650.43	823.59
650.78	817.47
651.12	811.68
651.46	806.05
651.80	800.12
652.14	794.10
652.49	788.21
652.83	782.68
653.17	776.78
653.51	771.07
653.85	765.52
654.20	759.79
654.54	753.94
654.88	748.67
655.22	743.10
655.56	737.46
655.90	731.70
656.25	725.95
656.59	720.46
656.93	715.40
657.27	710.48
657.61	705.12
657.95	700.28
658.29	695.40
658.64	690.44
658.98	685.49
659.32	680.43
659.66	675.38
660.00	669.98
660.34	664.92
660.68	659.91
661.02	654.97
661.36	650.41
661.70	645.84
662.05	641.20
662.39	636.76
662.73	632.54
663.07	628.33
663.41	624.14
663.75	619.92
664.09	615.26
664.43	610.56
664.77	606.27
665.11	601.81
665.45	597.45
665.79	593.02
666.13	588.59
666.47	584.56
666.81	580.55
667.15	576.66
667.49	572.96
667.83	569.01
668.17	565.22
668.51	561.44
668.85	557.77
669.19	554.35
669.53	550.58
669.87	546.58
670.21	542.82
670.55	539.13
670.89	535.60
671.23	532.27
671.57	528.96
671.91	525.47
672.25	522.23
672.58	518.75
672.92	515.38
673.26	512.39
673.60	509.18
673.94	505.97
674.28	502.89
674.62	499.91
674.96	496.89
675.30	493.88
675.64	490.77
675.97	487.67
676.31	484.65
676.65	481.77
676.99	479.22
677.33	476.34
677.67	473.56
678.01	470.60
678.34	467.68
678.68	464.95
679.02	462.13
679.36	459.24
679.70	456.56
680.04	453.75
680.37	450.78
680.71	448.16
681.05	445.73
681.39	443.08
681.73	440.49
682.06	438.15
682.40	435.75
682.74	433.27
683.08	430.80
683.42	428.21
683.75	425.78
684.09	423.24
684.43	420.97
684.77	418.51
685.10	416.07
685.44	413.64
685.78	411.26
686.12	409.14
686.45	406.86
686.79	404.63
687.13	402.56
687.46	400.49
687.80	398.22
688.14	395.78
688.48	393.76
688.81	391.59
689.15	389.40
689.49	387.15
689.82	385.08
690.16	382.81
690.50	380.63
690.83	378.43
691.17	376.19
691.51	374.00
691.84	371.93
692.18	370.00
692.52	368.14
692.85	366.29
693.19	364.30
693.52	362.35
693.86	360.51
694.20	358.78
694.53	357.01
694.87	355.20
695.21	353.45
695.54	351.54
695.88	349.58
696.21	347.66
696.55	346.01
696.88	344.27
697.22	342.54
697.56	340.98
697.89	339.40
698.23	337.86
698.56	336.27
698.90	334.80
699.23	333.21
699.57	331.66
699.90	330.01
700.24	328.41
700.58	326.90
700.91	325.43
701.25	323.89
701.58	322.47
701.92	320.98
702.25	319.52
702.59	318.19
702.92	316.92
703.26	315.62
703.59	314.30
703.93	313.18
704.26	312.08
704.60	310.91
704.93	309.69
705.26	308.46
705.60	307.30
705.93	306.05
706.27	304.86
706.60	303.75
706.94	302.69
707.27	301.58
707.61	300.61
707.94	299.46
708.27	298.33
708.61	297.25
708.94	296.20
709.28	295.18
709.61	294.10
709.94	293.12
710.28	292.03
710.61	291.02
710.95	289.79
711.28	288.86
711.61	287.80
711.95	286.82
712.28	285.75
712.61	284.84
712.95	284.00
713.28	283.22
713.61	282.26
713.95	281.30
714.28	280.49
714.61	279.55
714.95	278.78
715.28	277.88
715.61	276.89
715.95	276.09
716.28	275.26
716.61	274.50
716.95	273.66
717.28	272.93
717.61	272.11
717.94	271.42
718.28	270.52
718.61	269.77
718.94	269.04
719.27	268.47
719.61	267.76
719.94	267.02
720.27	266.20
720.60	265.47
720.94	264.81
721.27	264.17
721.60	263.48
721.93	262.79
722.27	262.32
722.60	261.83
722.93	261.22
723.26	260.66
723.59	259.99
723.93	259.45
724.26	258.90
724.59	258.42
724.92	257.86
725.25	257.42
725.59	256.85
725.92	256.35
726.25	255.74
726.58	255.27
726.91	254.79
727.24	254.36
727.57	253.93
727.91	253.33
728.24	252.84
728.57	252.47
728.90	252.05
729.23	251.46
729.56	251.05
729.89	250.55
730.22	250.04
730.55	249.60
730.89	249.18
731.22	248.76
731.55	248.28
731.88	247.83
732.21	247.35
732.54	246.93
732.87	246.51
733.20	246.11
733.53	245.64
733.86	245.23
734.19	244.79
734.52	244.38
734.85	244.20
735.18	243.79
735.51	243.36
735.84	242.96
736.17	242.60
736.50	242.19
736.83	242.07
737.16	241.79
737.49	241.49
737.82	241.08
738.15	240.72
738.48	240.38
738.81	240.11
739.14	239.75
739.47	239.41
739.80	239.05
740.13	238.75
740.46	238.42
740.79	238.00
741.12	237.73
741.45	237.47
741.78	237.13
742.11	236.91
742.44	236.64
742.77	236.31
743.10	236.04
743.43	235.75
743.75	235.24
744.08	235.10
744.41	234.73
744.74	234.46
745.07	234.11
745.40	233.82
745.73	233.58
746.06	233.30
746.39	233.10
746.71	232.85
747.04	232.65
747.37	232.36
747.70	232.19
748.03	231.89
748.36	231.65
748.68	231.37
749.01	231.00
749.34	230.82
749.67	230.57
750.00	230.36
750.33	230.19
750.65	229.99
750.98	229.57
751.31	229.41
751.64	229.19
751.97	229.06
752.29	228.86
752.62	228.44
752.95	228.26
753.28	228.02
753.60	227.90
753.93	227.69
754.26	227.51
754.59	227.20
754.91	226.98
755.24	226.75
755.57	226.57
755.90	226.37
756.22	226.11
756.55	225.94
756.88	225.69
757.20	225.51
757.53	225.26
757.86	225.09
758.19	224.92
758.51	224.73
758.84	224.51
759.17	224.26
759.49	224.19
759.82	224.19
760.15	224.03
760.47	223.82
760.80	223.64
761.13	223.45
761.45	223.28
761.78	223.08
762.11	222.96
762.43	222.78
762.76	222.65
763.08	222.56
763.41	222.50
763.74	222.48
764.06	222.30
764.39	222.25
764.71	222.11
765.04	221.94
765.37	221.75
765.69	221.60
766.02	221.49
766.34	221.41
766.67	221.21
767.00	221.15
767.32	221.08
767.65	221.08
767.97	221.03
768.30	220.95
768.62	220.90
768.95	220.75
769.27	220.65
769.60	220.57
769.92	220.40
770.25	220.30
770.57	220.10
770.90	219.98
771.22	219.81
771.55	219.77
771.87	219.67
772.20	219.64
772.52	219.73
772.85	219.90
773.17	219.73
773.50	219.60
773.82	219.40
774.15	219.21
774.47	218.95
774.80	218.84
775.12	218.88
775.45	218.78
775.77	218.73
776.09	218.70
776.42	218.60
776.74	218.62
777.07	218.52
777.39	218.50
777.72	218.39
778.04	218.41
778.36	218.27
778.69	218.31
779.01	218.27
779.33	218.07
779.66	217.80
779.98	217.78
780.31	217.73
780.63	217.79
780.95	217.80
781.28	217.79
781.60	217.76
781.92	217.68
782.25	217.64
782.57	217.59
782.89	217.52
783.22	217.50
783.54	217.35
783.86	217.29
784.19	217.18
784.51	217.15
784.83	217.07
785.16	217.06
785.48	216.98
785.80	216.95
786.12	216.97
786.45	216.99
