SpectraSuite Data File
++++++++++++++++++++++++++++++++++++
Date: Mon Feb 25 17:33:14 EST 2013
User: group
Dark Spectrum Present: No
Reference Spectrum Present: No
Number of Sampled Component Spectra: 1
Spectrometers: USB2E7196
Integration Time (usec): 52000 (USB2E7196)
Spectra Averaged: 20 (USB2E7196)
Boxcar Smoothing: 10 (USB2E7196)
Correct for Electrical Dark: No (USB2E7196)
Strobe/Lamp Enabled: No (USB2E7196)
Correct for Detector Non-linearity: No (USB2E7196)
Correct for Stray Light: No (USB2E7196)
Number of Pixels in Processed Spectrum: 2048
>>>>>Begin Processed Spectral Data<<<<<
339.09	0.00
339.48	198.10
339.86	198.75
340.24	202.00
340.63	202.85
341.01	207.65
341.39	207.35
341.78	207.10
342.16	207.80
342.54	210.40
342.93	198.00
343.31	207.96
343.69	208.54
344.07	209.05
344.46	209.46
344.84	209.88
345.22	210.03
345.60	210.23
345.99	210.39
346.37	210.59
346.75	210.59
347.13	210.71
347.52	210.87
347.90	210.92
348.28	211.01
348.66	211.15
349.05	211.16
349.43	211.19
349.81	211.21
350.19	211.17
350.57	211.30
350.96	211.36
351.34	211.47
351.72	211.61
352.10	211.76
352.48	211.87
352.87	211.95
353.25	212.02
353.63	212.09
354.01	212.13
354.39	212.21
354.77	212.32
355.15	212.43
355.54	212.38
355.92	212.41
356.30	212.43
356.68	212.52
357.06	212.62
357.44	212.73
357.82	212.82
358.20	213.01
358.58	213.10
358.97	213.23
359.35	213.37
359.73	213.41
360.11	213.49
360.49	213.48
360.87	213.57
361.25	213.64
361.63	213.78
362.01	213.98
362.39	213.99
362.77	214.06
363.15	214.11
363.53	214.21
363.91	214.36
364.29	214.45
364.67	214.40
365.05	214.46
365.43	214.49
365.81	214.59
366.19	214.74
366.57	214.77
366.95	214.75
367.33	214.70
367.71	214.75
368.09	214.75
368.47	214.80
368.85	214.74
369.23	214.73
369.61	214.62
369.99	214.59
370.37	214.60
370.75	214.70
371.13	214.65
371.51	214.60
371.89	214.48
372.27	214.48
372.65	214.45
373.03	214.46
373.41	214.36
373.78	214.29
374.16	214.09
374.54	213.94
374.92	213.85
375.30	213.82
375.68	213.72
376.06	213.68
376.44	213.60
376.82	213.59
377.19	213.57
377.57	213.53
377.95	213.45
378.33	213.41
378.71	213.22
379.09	213.19
379.47	213.18
379.84	213.10
380.22	212.99
380.60	212.87
380.98	212.72
381.36	212.74
381.73	212.65
382.11	212.68
382.49	212.69
382.87	212.64
383.25	212.60
383.62	212.64
384.00	212.57
384.38	212.57
384.76	212.49
385.13	212.49
385.51	212.43
385.89	212.31
386.27	212.23
386.64	212.24
387.02	212.18
387.40	212.16
387.78	212.17
388.15	212.14
388.53	212.13
388.91	212.17
389.29	212.13
389.66	212.16
390.04	212.01
390.42	212.00
390.79	211.91
391.17	211.90
391.55	211.78
391.92	211.72
392.30	211.73
392.68	211.67
393.05	211.62
393.43	211.63
393.81	211.65
394.18	211.64
394.56	211.56
394.94	211.59
395.31	211.55
395.69	211.59
396.06	211.64
396.44	211.59
396.82	211.60
397.19	211.66
397.57	211.62
397.95	211.70
398.32	211.65
398.70	211.82
399.07	211.90
399.45	211.92
399.82	211.98
400.20	212.01
400.58	212.09
400.95	212.03
401.33	212.13
401.70	212.34
402.08	212.39
402.45	212.45
402.83	212.59
403.20	212.67
403.58	212.65
403.95	212.71
404.33	212.85
404.71	212.90
405.08	213.02
405.46	213.16
405.83	213.23
406.21	213.46
406.58	213.59
406.96	213.71
407.33	213.87
407.70	214.08
408.08	214.47
408.45	214.71
408.83	215.07
409.20	215.25
409.58	215.39
409.95	215.71
410.33	216.09
410.70	216.27
411.08	216.67
411.45	217.10
411.82	217.53
412.20	218.04
412.57	218.57
412.95	218.94
413.32	219.43
413.69	219.94
414.07	220.46
414.44	221.08
414.82	221.65
415.19	222.32
415.56	223.11
415.94	223.70
416.31	224.60
416.68	225.42
417.06	226.46
417.43	227.43
417.81	228.52
418.18	229.68
418.55	230.93
418.93	232.19
419.30	233.52
419.67	234.83
420.04	236.13
420.42	237.68
420.79	239.51
421.16	241.25
421.54	243.23
421.91	245.05
422.28	246.92
422.66	249.02
423.03	251.11
423.40	253.11
423.77	255.32
424.15	257.52
424.52	259.89
424.89	262.44
425.26	264.91
425.64	267.18
426.01	269.72
426.38	272.42
426.75	275.11
427.13	277.87
427.50	280.78
427.87	283.94
428.24	286.88
428.61	289.72
428.99	292.95
429.36	296.37
429.73	299.85
430.10	303.25
430.47	306.73
430.85	310.42
431.22	314.35
431.59	318.56
431.96	322.39
432.33	326.82
432.70	331.03
433.08	335.93
433.45	340.54
433.82	345.26
434.19	350.26
434.56	355.25
434.93	360.05
435.30	364.86
435.68	370.08
436.05	375.27
436.42	380.39
436.79	385.16
437.16	390.17
437.53	395.45
437.90	400.82
438.27	406.17
438.64	411.55
439.01	416.36
439.38	420.75
439.75	425.03
440.13	429.82
440.50	434.17
440.87	437.79
441.24	441.70
441.61	445.73
441.98	448.92
442.35	452.40
442.72	456.10
443.09	459.56
443.46	461.62
443.83	463.02
444.20	464.36
444.57	465.95
444.94	466.58
445.31	467.49
445.68	468.28
446.05	468.40
446.42	467.69
446.79	467.02
447.16	466.08
447.53	465.57
447.90	463.45
448.27	461.56
448.64	458.75
449.01	456.63
449.37	452.94
449.74	449.39
450.11	445.32
450.48	440.78
450.85	436.23
451.22	432.34
451.59	428.60
451.96	424.82
452.33	420.15
452.70	415.92
453.07	410.66
453.43	405.40
453.80	400.35
454.17	395.60
454.54	391.10
454.91	386.36
455.28	381.52
455.65	377.09
456.02	372.70
456.38	369.03
456.75	364.38
457.12	360.70
457.49	356.93
457.86	353.22
458.23	349.99
458.59	346.48
458.96	342.96
459.33	339.80
459.70	336.77
460.07	334.26
460.43	331.47
460.80	328.76
461.17	326.35
461.54	323.97
461.91	321.60
462.27	319.17
462.64	317.11
463.01	314.93
463.38	312.81
463.74	310.56
464.11	308.51
464.48	306.92
464.85	305.17
465.21	303.95
465.58	302.52
465.95	300.84
466.32	299.43
466.68	297.98
467.05	296.65
467.42	295.27
467.78	293.80
468.15	292.46
468.52	291.48
468.88	290.19
469.25	289.01
469.62	288.08
469.98	287.13
470.35	286.19
470.72	285.37
471.08	284.39
471.45	283.72
471.82	283.04
472.18	282.16
472.55	281.50
472.92	280.63
473.28	279.97
473.65	279.37
474.02	278.80
474.38	278.32
474.75	277.95
475.11	277.58
475.48	277.35
475.85	277.14
476.21	277.02
476.58	276.83
476.94	276.79
477.31	276.67
477.67	276.67
478.04	276.72
478.41	276.87
478.77	277.18
479.14	277.24
479.50	277.47
479.87	277.88
480.23	278.25
480.60	278.65
480.96	279.16
481.33	279.78
481.69	280.45
482.06	281.14
482.42	281.68
482.79	282.28
483.15	283.19
483.52	284.12
483.88	284.99
484.25	286.08
484.61	287.10
484.98	288.25
485.34	289.43
485.71	290.73
486.07	292.05
486.44	293.35
486.80	294.90
487.17	296.51
487.53	298.19
487.90	300.00
488.26	302.06
488.62	304.14
488.99	306.14
489.35	308.34
489.72	310.70
490.08	313.17
490.44	315.71
490.81	318.30
491.17	320.92
491.54	323.79
491.90	326.77
492.26	330.00
492.63	333.37
492.99	336.76
493.36	340.60
493.72	344.47
494.08	348.49
494.45	352.85
494.81	357.34
495.17	362.03
495.54	366.78
495.90	371.71
496.26	376.91
496.63	382.45
496.99	388.15
497.35	394.00
497.72	400.24
498.08	406.75
498.44	413.49
498.80	420.80
499.17	428.25
499.53	435.90
499.89	443.93
500.26	452.15
500.62	460.68
500.98	469.38
501.34	478.45
501.71	487.89
502.07	497.40
502.43	507.50
502.79	517.73
503.16	528.54
503.52	539.50
503.88	550.88
504.24	562.43
504.60	574.35
504.97	586.76
505.33	599.24
505.69	612.56
506.05	625.95
506.41	639.46
506.78	653.25
507.14	667.34
507.50	681.99
507.86	696.75
508.22	712.03
508.59	727.51
508.95	743.47
509.31	759.81
509.67	776.68
510.03	793.40
510.39	810.97
510.75	828.58
511.12	846.52
511.48	864.76
511.84	883.49
512.20	902.37
512.56	921.65
512.92	941.38
513.28	960.88
513.64	980.64
514.00	1000.62
514.37	1020.87
514.73	1041.83
515.09	1062.57
515.45	1083.60
515.81	1104.79
516.17	1125.98
516.53	1147.33
516.89	1168.88
517.25	1190.35
517.61	1212.24
517.97	1233.44
518.33	1255.19
518.69	1277.06
519.05	1298.76
519.41	1320.75
519.77	1343.09
520.13	1365.07
520.49	1386.93
520.85	1409.48
521.21	1432.12
521.57	1455.06
521.93	1477.12
522.29	1499.81
522.65	1522.37
523.01	1544.83
523.37	1567.15
523.73	1589.64
524.09	1611.88
524.45	1634.12
524.81	1656.51
525.17	1678.97
525.53	1701.73
525.89	1724.12
526.25	1745.96
526.61	1767.84
526.97	1789.69
527.33	1811.23
527.68	1833.00
528.04	1854.34
528.40	1874.47
528.76	1894.94
529.12	1915.37
529.48	1937.37
529.84	1957.64
530.20	1977.91
530.56	1998.70
530.91	2019.24
531.27	2039.87
531.63	2060.18
531.99	2080.03
532.35	2099.41
532.71	2118.27
533.07	2137.64
533.42	2155.96
533.78	2175.00
534.14	2193.34
534.50	2210.55
534.86	2228.70
535.21	2245.73
535.57	2263.55
535.93	2281.30
536.29	2298.32
536.65	2315.46
537.00	2330.53
537.36	2345.89
537.72	2360.95
538.08	2375.95
538.44	2391.22
538.79	2406.12
539.15	2420.90
539.51	2435.57
539.87	2450.71
540.22	2465.44
540.58	2480.21
540.94	2494.82
541.29	2507.75
541.65	2520.07
542.01	2533.56
542.37	2545.25
542.72	2557.40
543.08	2568.20
543.44	2579.95
543.79	2590.25
544.15	2600.37
544.51	2611.73
544.87	2623.10
545.22	2632.35
545.58	2640.93
545.94	2647.93
546.29	2655.11
546.65	2661.56
547.01	2667.62
547.36	2673.26
547.72	2678.72
548.07	2682.77
548.43	2686.82
548.79	2691.03
549.14	2695.85
549.50	2699.63
549.86	2703.45
550.21	2707.46
550.57	2711.77
550.92	2714.29
551.28	2717.10
551.64	2719.41
551.99	2721.76
552.35	2723.21
552.70	2726.30
553.06	2729.11
553.41	2732.72
553.77	2735.12
554.13	2737.30
554.48	2739.56
554.84	2740.75
555.19	2741.27
555.55	2741.74
555.90	2742.05
556.26	2742.16
556.61	2741.64
556.97	2740.70
557.32	2740.30
557.68	2738.38
558.03	2737.10
558.39	2735.94
558.74	2735.67
559.10	2734.71
559.45	2732.73
559.81	2731.68
560.16	2729.03
560.52	2726.43
560.87	2723.24
561.23	2719.77
561.58	2717.48
561.94	2714.38
562.29	2710.95
562.64	2708.65
563.00	2706.33
563.35	2704.09
563.71	2702.36
564.06	2700.71
564.42	2698.72
564.77	2696.67
565.12	2695.02
565.48	2691.69
565.83	2688.58
566.19	2684.96
566.54	2680.55
566.89	2676.61
567.25	2672.65
567.60	2669.27
567.96	2665.71
568.31	2662.19
568.66	2658.34
569.02	2653.58
569.37	2648.44
569.72	2644.76
570.08	2639.52
570.43	2633.93
570.78	2628.28
571.14	2621.87
571.49	2615.14
571.84	2609.60
572.20	2602.37
572.55	2595.78
572.90	2589.00
573.26	2581.79
573.61	2574.59
573.96	2568.22
574.31	2560.55
574.67	2552.20
575.02	2543.98
575.37	2535.33
575.72	2526.23
576.08	2518.29
576.43	2509.56
576.78	2501.83
577.13	2493.71
577.49	2485.71
577.84	2478.03
578.19	2470.55
578.54	2463.43
578.90	2456.63
579.25	2447.54
579.60	2438.59
579.95	2429.23
580.30	2421.23
580.66	2413.25
581.01	2404.27
581.36	2394.81
581.71	2386.20
582.06	2377.77
582.42	2369.51
582.77	2360.78
583.12	2351.94
583.47	2343.25
583.82	2335.00
584.17	2325.57
584.53	2316.08
584.88	2306.93
585.23	2297.62
585.58	2287.70
585.93	2277.87
586.28	2268.54
586.63	2259.62
586.98	2251.16
587.34	2242.84
587.69	2233.64
588.04	2224.64
588.39	2216.38
588.74	2207.45
589.09	2198.76
589.44	2189.11
589.79	2180.45
590.14	2172.18
590.49	2163.81
590.84	2154.76
591.19	2146.67
591.54	2138.17
591.89	2128.27
592.25	2119.33
592.60	2109.70
592.95	2100.56
593.30	2091.25
593.65	2081.12
594.00	2071.62
594.35	2063.51
594.70	2054.15
595.05	2045.37
595.40	2036.40
595.75	2027.09
596.10	2018.81
596.45	2010.50
596.80	2003.18
597.15	1994.90
597.50	1985.72
597.85	1977.30
598.19	1968.91
598.54	1960.05
598.89	1951.95
599.24	1945.13
599.59	1937.52
599.94	1930.71
600.29	1922.88
600.64	1914.82
600.99	1906.66
601.34	1899.55
601.69	1890.65
602.04	1882.44
602.39	1874.30
602.74	1866.61
603.08	1859.72
603.43	1852.39
603.78	1844.21
604.13	1836.17
604.48	1827.99
604.83	1821.05
605.18	1813.87
605.53	1806.33
605.87	1798.78
606.22	1791.79
606.57	1783.93
606.92	1775.82
607.27	1767.73
607.62	1760.42
607.96	1753.73
608.31	1747.57
608.66	1739.90
609.01	1732.31
609.36	1724.87
609.70	1717.13
610.05	1709.24
610.40	1700.85
610.75	1692.76
611.10	1685.40
611.44	1675.88
611.79	1666.78
612.14	1657.31
612.49	1647.93
612.83	1639.10
613.18	1629.41
613.53	1619.70
613.88	1609.99
614.22	1600.96
614.57	1591.36
614.92	1581.96
615.27	1572.32
615.61	1562.47
615.96	1553.51
616.31	1544.89
616.65	1536.90
617.00	1528.34
617.35	1519.82
617.70	1511.11
618.04	1501.84
618.39	1492.19
618.74	1483.96
619.08	1475.49
619.43	1467.33
619.78	1459.32
620.12	1450.95
620.47	1443.41
620.82	1435.06
621.16	1426.84
621.51	1418.48
621.85	1410.40
622.20	1401.88
622.55	1393.72
622.89	1385.53
623.24	1377.27
623.59	1368.91
623.93	1360.18
624.28	1352.00
624.62	1343.74
624.97	1335.47
625.32	1327.79
625.66	1320.45
626.01	1313.22
626.35	1306.04
626.70	1298.11
627.04	1290.58
627.39	1283.00
627.73	1275.20
628.08	1268.20
628.43	1260.76
628.77	1253.44
629.12	1245.89
629.46	1239.51
629.81	1232.15
630.15	1224.48
630.50	1217.00
630.84	1209.59
631.19	1202.46
631.53	1195.30
631.88	1187.85
632.22	1180.44
632.57	1173.22
632.91	1166.07
633.26	1158.40
633.60	1151.08
633.95	1144.52
634.29	1137.19
634.64	1130.47
634.98	1123.36
635.32	1116.17
635.67	1109.89
636.01	1103.36
636.36	1096.63
636.70	1089.57
637.05	1082.99
637.39	1076.89
637.73	1070.67
638.08	1064.82
638.42	1058.94
638.77	1052.43
639.11	1045.79
639.45	1039.81
639.80	1033.33
640.14	1026.67
640.49	1020.56
640.83	1014.50
641.17	1008.18
641.52	1002.24
641.86	995.79
642.20	989.58
642.55	982.85
642.89	976.27
643.23	969.69
643.58	963.93
643.92	957.59
644.26	951.32
644.61	945.33
644.95	939.05
645.29	932.74
645.64	926.03
645.98	920.02
646.32	914.29
646.66	907.76
647.01	901.87
647.35	896.02
647.69	889.56
648.04	883.38
648.38	877.30
648.72	871.23
649.06	865.20
649.41	859.25
649.75	853.48
650.09	847.55
650.43	841.76
650.78	835.33
651.12	829.13
651.46	823.37
651.80	817.31
652.14	811.42
652.49	805.40
652.83	799.52
653.17	793.33
653.51	787.44
653.85	782.07
654.20	776.16
654.54	770.22
654.88	764.96
655.22	759.02
655.56	753.17
655.90	747.25
656.25	741.58
656.59	736.05
656.93	730.99
657.27	726.01
657.61	720.43
657.95	715.50
658.29	710.58
658.64	705.36
658.98	700.08
659.32	694.73
659.66	689.49
660.00	684.23
660.34	679.28
660.68	674.22
661.02	668.98
661.36	664.11
661.70	659.38
662.05	654.64
662.39	650.34
662.73	645.99
663.07	641.82
663.41	637.47
663.75	632.94
664.09	628.16
664.43	623.27
664.77	619.02
665.11	614.50
665.45	609.99
665.79	605.53
666.13	601.39
666.47	597.27
666.81	593.13
667.15	589.15
667.49	585.36
667.83	581.45
668.17	577.63
668.51	573.81
668.85	569.95
669.19	566.24
669.53	562.25
669.87	558.18
670.21	554.20
670.55	550.21
670.89	546.68
671.23	543.39
671.57	539.88
671.91	536.32
672.25	532.85
672.58	529.35
672.92	525.92
673.26	522.55
673.60	519.22
673.94	515.98
674.28	512.70
674.62	509.39
674.96	506.09
675.30	502.97
675.64	499.90
675.97	496.77
676.31	493.56
676.65	490.72
676.99	488.04
677.33	485.00
677.67	482.25
678.01	479.20
678.34	476.24
678.68	473.32
679.02	470.33
679.36	467.50
679.70	464.59
680.04	461.81
680.37	458.87
680.71	456.13
681.05	453.58
681.39	450.81
681.73	448.17
682.06	445.69
682.40	443.24
682.74	440.66
683.08	438.15
683.42	435.62
683.75	432.94
684.09	430.36
684.43	427.93
684.77	425.36
685.10	422.87
685.44	420.26
685.78	417.89
686.12	415.67
686.45	413.32
686.79	411.07
687.13	408.88
687.46	406.66
687.80	404.50
688.14	401.96
688.48	399.82
688.81	397.51
689.15	395.25
689.49	392.81
689.82	390.50
690.16	388.05
690.50	385.73
690.83	383.52
691.17	381.14
691.51	378.85
691.84	376.76
692.18	374.76
692.52	372.86
692.85	370.88
693.19	369.01
693.52	367.03
693.86	365.10
694.20	363.19
694.53	361.24
694.87	359.27
695.21	357.42
695.54	355.45
695.88	353.61
696.21	351.70
696.55	350.00
696.88	348.18
697.22	346.51
697.56	345.00
697.89	343.34
698.23	341.86
698.56	340.42
698.90	338.88
699.23	337.20
699.57	335.53
699.90	333.97
700.24	332.29
700.58	330.68
700.91	329.22
701.25	327.77
701.58	326.43
701.92	324.97
702.25	323.65
702.59	322.34
702.92	321.02
703.26	319.66
703.59	318.36
703.93	317.25
704.26	316.07
704.60	314.75
704.93	313.58
705.26	312.35
705.60	311.08
705.93	309.78
706.27	308.67
706.60	307.63
706.94	306.57
707.27	305.34
707.61	304.22
707.94	303.18
708.27	301.95
708.61	300.77
708.94	299.70
709.28	298.55
709.61	297.42
709.94	296.34
710.28	295.27
710.61	294.21
710.95	293.11
711.28	292.15
711.61	291.11
711.95	290.14
712.28	289.15
712.61	288.14
712.95	287.21
713.28	286.29
713.61	285.29
713.95	284.27
714.28	283.42
714.61	282.46
714.95	281.40
715.28	280.49
715.61	279.53
715.95	278.68
716.28	277.80
716.61	277.00
716.95	276.15
717.28	275.42
717.61	274.61
717.94	273.84
718.28	272.97
718.61	272.15
718.94	271.35
719.27	270.57
719.61	269.91
719.94	269.18
720.27	268.50
720.60	267.75
720.94	267.03
721.27	266.32
721.60	265.74
721.93	265.13
722.27	264.60
722.60	263.98
722.93	263.32
723.26	262.70
723.59	262.06
723.93	261.36
724.26	260.76
724.59	260.24
724.92	259.64
725.25	259.09
725.59	258.58
725.92	257.99
726.25	257.41
726.58	256.92
726.91	256.45
727.24	255.91
727.57	255.38
727.91	254.89
728.24	254.55
728.57	254.01
728.90	253.55
729.23	253.01
729.56	252.70
729.89	252.18
730.22	251.70
730.55	251.25
730.89	250.81
731.22	250.32
731.55	249.76
731.88	249.29
732.21	248.84
732.54	248.35
732.87	247.95
733.20	247.59
733.53	247.08
733.86	246.65
734.19	246.11
734.52	245.81
734.85	245.47
735.18	244.96
735.51	244.71
735.84	244.34
736.17	244.02
736.50	243.47
736.83	243.32
737.16	243.06
737.49	242.72
737.82	242.36
738.15	241.99
738.48	241.70
738.81	241.35
739.14	240.93
739.47	240.59
739.80	240.26
740.13	239.92
740.46	239.58
740.79	239.21
741.12	238.93
741.45	238.55
741.78	238.19
742.11	237.92
742.44	237.54
742.77	237.30
743.10	236.92
743.43	236.68
743.75	236.13
744.08	236.05
744.41	235.69
744.74	235.44
745.07	235.13
745.40	234.90
745.73	234.68
746.06	234.38
746.39	234.18
746.71	233.89
747.04	233.49
747.37	233.22
747.70	232.94
748.03	232.70
748.36	232.40
748.68	232.10
749.01	231.82
749.34	231.56
749.67	231.26
750.00	231.00
750.33	230.83
750.65	230.67
750.98	230.13
751.31	229.87
751.64	229.65
751.97	229.56
752.29	229.28
752.62	228.97
752.95	228.77
753.28	228.46
753.60	228.25
753.93	228.21
754.26	228.00
754.59	227.75
754.91	227.47
755.24	227.28
755.57	227.08
755.90	226.83
756.22	226.60
756.55	226.39
756.88	226.18
757.20	225.88
757.53	225.62
757.86	225.42
758.19	225.26
758.51	225.03
758.84	224.75
759.17	224.53
759.49	224.41
759.82	224.34
760.15	224.19
760.47	223.99
760.80	223.71
761.13	223.57
761.45	223.45
761.78	223.32
762.11	223.18
762.43	223.01
762.76	222.87
763.08	222.68
763.41	222.52
763.74	222.38
764.06	222.28
764.39	222.13
764.71	222.02
765.04	221.92
765.37	221.79
765.69	221.71
766.02	221.62
766.34	221.51
766.67	221.30
767.00	221.25
767.32	221.29
767.65	221.26
767.97	221.12
768.30	220.95
768.62	220.85
768.95	220.78
769.27	220.68
769.60	220.62
769.92	220.47
770.25	220.33
770.57	220.18
770.90	220.04
771.22	219.97
771.55	219.83
771.87	219.71
772.20	219.62
772.52	219.64
772.85	219.74
773.17	219.62
773.50	219.57
773.82	219.42
774.15	219.20
774.47	219.04
774.80	218.94
775.12	218.88
775.45	218.83
775.77	218.76
776.09	218.69
776.42	218.65
776.74	218.73
777.07	218.67
777.39	218.58
777.72	218.47
778.04	218.38
778.36	218.41
778.69	218.40
779.01	218.31
779.33	218.05
779.66	217.81
779.98	217.72
780.31	217.67
780.63	217.78
780.95	217.70
781.28	217.68
781.60	217.65
781.92	217.58
782.25	217.44
782.57	217.35
782.89	217.35
783.22	217.19
783.54	217.05
783.86	217.00
784.19	216.99
784.51	217.02
784.83	216.95
785.16	216.88
785.48	216.84
785.80	216.78
786.12	216.78
786.45	216.68
