SpectraSuite Data File
++++++++++++++++++++++++++++++++++++
Date: Mon Feb 25 17:32:00 EST 2013
User: group
Dark Spectrum Present: No
Reference Spectrum Present: No
Number of Sampled Component Spectra: 1
Spectrometers: USB2E7196
Integration Time (usec): 52000 (USB2E7196)
Spectra Averaged: 20 (USB2E7196)
Boxcar Smoothing: 10 (USB2E7196)
Correct for Electrical Dark: No (USB2E7196)
Strobe/Lamp Enabled: No (USB2E7196)
Correct for Detector Non-linearity: No (USB2E7196)
Correct for Stray Light: No (USB2E7196)
Number of Pixels in Processed Spectrum: 2048
>>>>>Begin Processed Spectral Data<<<<<
339.09	0.00
339.48	197.55
339.86	199.40
340.24	201.30
340.63	203.65
341.01	207.25
341.39	205.80
341.78	207.75
342.16	208.00
342.54	209.50
342.93	197.80
343.31	207.81
343.69	208.38
344.07	208.86
344.46	209.35
344.84	209.73
345.22	209.93
345.60	210.21
345.99	210.40
346.37	210.54
346.75	210.60
347.13	210.57
347.52	210.73
347.90	210.86
348.28	210.85
348.66	210.90
349.05	210.90
349.43	211.01
349.81	211.15
350.19	211.25
350.57	211.40
350.96	211.45
351.34	211.60
351.72	211.70
352.10	211.81
352.48	211.86
352.87	211.97
353.25	212.03
353.63	212.00
354.01	212.10
354.39	212.15
354.77	212.22
355.15	212.47
355.54	212.55
355.92	212.53
356.30	212.73
356.68	212.94
357.06	213.07
357.44	213.10
357.82	213.09
358.20	213.25
358.58	213.28
358.97	213.39
359.35	213.46
359.73	213.62
360.11	213.66
360.49	213.73
360.87	213.79
361.25	213.85
361.63	214.03
362.01	214.06
362.39	214.13
362.77	214.23
363.15	214.20
363.53	214.24
363.91	214.30
364.29	214.33
364.67	214.20
365.05	214.25
365.43	214.29
365.81	214.39
366.19	214.39
366.57	214.47
366.95	214.49
367.33	214.44
367.71	214.41
368.09	214.52
368.47	214.54
368.85	214.48
369.23	214.53
369.61	214.46
369.99	214.48
370.37	214.52
370.75	214.61
371.13	214.62
371.51	214.58
371.89	214.56
372.27	214.50
372.65	214.48
373.03	214.38
373.41	214.31
373.78	214.25
374.16	214.14
374.54	214.13
374.92	214.05
375.30	214.06
375.68	214.02
376.06	213.98
376.44	213.92
376.82	213.91
377.19	213.85
377.57	213.82
377.95	213.73
378.33	213.64
378.71	213.45
379.09	213.36
379.47	213.31
379.84	213.27
380.22	213.20
380.60	213.12
380.98	213.13
381.36	213.15
381.73	213.04
382.11	212.92
382.49	212.91
382.87	212.85
383.25	212.75
383.62	212.86
384.00	212.76
384.38	212.75
384.76	212.71
385.13	212.74
385.51	212.67
385.89	212.59
386.27	212.60
386.64	212.57
387.02	212.47
387.40	212.39
387.78	212.35
388.15	212.30
388.53	212.20
388.91	212.09
389.29	211.94
389.66	211.91
390.04	212.00
390.42	211.91
390.79	211.86
391.17	211.87
391.55	211.66
391.92	211.55
392.30	211.48
392.68	211.43
393.05	211.34
393.43	211.30
393.81	211.29
394.18	211.26
394.56	211.30
394.94	211.29
395.31	211.23
395.69	211.28
396.06	211.32
396.44	211.45
396.82	211.48
397.19	211.62
397.57	211.64
397.95	211.62
398.32	211.55
398.70	211.64
399.07	211.65
399.45	211.65
399.82	211.72
400.20	211.73
400.58	211.83
400.95	211.83
401.33	211.93
401.70	212.14
402.08	212.12
402.45	212.08
402.83	212.21
403.20	212.37
403.58	212.41
403.95	212.57
404.33	212.63
404.71	212.71
405.08	212.85
405.46	212.98
405.83	213.13
406.21	213.28
406.58	213.37
406.96	213.53
407.33	213.77
407.70	214.04
408.08	214.37
408.45	214.54
408.83	214.81
409.20	215.00
409.58	215.12
409.95	215.46
410.33	215.86
410.70	216.13
411.08	216.42
411.45	216.70
411.82	216.94
412.20	217.33
412.57	217.90
412.95	218.31
413.32	218.83
413.69	219.27
414.07	219.90
414.44	220.49
414.82	221.15
415.19	221.81
415.56	222.51
415.94	223.19
416.31	224.10
416.68	224.89
417.06	225.85
417.43	226.73
417.81	227.82
418.18	228.89
418.55	230.07
418.93	231.32
419.30	232.68
419.67	234.12
420.04	235.59
420.42	237.04
420.79	238.82
421.16	240.50
421.54	242.37
421.91	244.17
422.28	246.10
422.66	248.10
423.03	250.12
423.40	252.16
423.77	254.39
424.15	256.57
424.52	258.95
424.89	261.61
425.26	264.17
425.64	266.50
426.01	268.96
426.38	271.71
426.75	274.46
427.13	277.35
427.50	280.33
427.87	283.35
428.24	286.32
428.61	289.09
428.99	292.35
429.36	295.82
429.73	299.35
430.10	302.80
430.47	306.25
430.85	309.84
431.22	313.79
431.59	317.86
431.96	321.80
432.33	326.16
432.70	330.25
433.08	335.12
433.45	339.73
433.82	344.33
434.19	349.42
434.56	354.40
434.93	359.03
435.30	363.67
435.68	368.92
436.05	374.15
436.42	379.30
436.79	383.86
437.16	388.81
437.53	394.04
437.90	399.35
438.27	404.53
438.64	409.89
439.01	414.73
439.38	419.04
439.75	423.20
440.13	428.07
440.50	432.48
440.87	436.18
441.24	439.91
441.61	444.23
441.98	447.12
442.35	450.71
442.72	454.36
443.09	457.86
443.46	459.95
443.83	461.33
444.20	462.58
444.57	464.36
444.94	465.15
445.31	465.91
445.68	466.58
446.05	466.81
446.42	466.17
446.79	465.41
447.16	464.63
447.53	464.07
447.90	461.81
448.27	459.82
448.64	456.90
449.01	454.93
449.37	451.25
449.74	447.91
450.11	443.70
450.48	439.19
450.85	434.71
451.22	430.64
451.59	426.86
451.96	423.22
452.33	418.62
452.70	414.39
453.07	409.39
453.43	404.19
453.80	399.20
454.17	394.42
454.54	389.95
454.91	385.16
455.28	380.39
455.65	376.03
456.02	371.74
456.38	368.09
456.75	363.46
457.12	359.62
457.49	355.86
457.86	352.25
458.23	349.09
458.59	345.55
458.96	342.25
459.33	339.23
459.70	336.16
460.07	333.50
460.43	330.57
460.80	327.91
461.17	325.55
461.54	323.14
461.91	320.90
462.27	318.55
462.64	316.50
463.01	314.41
463.38	312.36
463.74	310.05
464.11	308.05
464.48	306.38
464.85	304.62
465.21	303.18
465.58	301.76
465.95	300.05
466.32	298.70
466.68	297.28
467.05	295.85
467.42	294.39
467.78	292.99
468.15	291.67
468.52	290.58
468.88	289.34
469.25	288.16
469.62	287.16
469.98	286.19
470.35	285.29
470.72	284.40
471.08	283.45
471.45	282.75
471.82	282.06
472.18	281.14
472.55	280.60
472.92	279.94
473.28	279.38
473.65	278.90
474.02	278.29
474.38	277.78
474.75	277.37
475.11	277.05
475.48	276.82
475.85	276.59
476.21	276.34
476.58	276.23
476.94	276.25
477.31	276.17
477.67	276.07
478.04	276.11
478.41	276.23
478.77	276.56
479.14	276.71
479.50	276.99
479.87	277.51
480.23	277.89
480.60	278.22
480.96	278.65
481.33	279.16
481.69	279.80
482.06	280.44
482.42	281.11
482.79	281.87
483.15	282.72
483.52	283.72
483.88	284.75
484.25	285.63
484.61	286.65
484.98	287.79
485.34	289.13
485.71	290.58
486.07	291.95
486.44	293.26
486.80	294.88
487.17	296.49
487.53	298.17
487.90	299.91
488.26	301.93
488.62	303.95
488.99	306.07
489.35	308.20
489.72	310.55
490.08	312.97
490.44	315.40
490.81	318.02
491.17	320.68
491.54	323.59
491.90	326.62
492.26	329.79
492.63	333.19
492.99	336.75
493.36	340.26
493.72	344.22
494.08	348.32
494.45	352.61
494.81	356.98
495.17	361.53
495.54	366.47
495.90	371.55
496.26	376.81
496.63	382.38
496.99	388.11
497.35	393.97
497.72	400.26
498.08	406.83
498.44	413.57
498.80	420.81
499.17	428.26
499.53	436.04
499.89	444.02
500.26	452.14
500.62	460.39
500.98	469.31
501.34	478.23
501.71	487.67
502.07	497.33
502.43	507.32
502.79	517.47
503.16	528.17
503.52	538.99
503.88	550.19
504.24	561.62
504.60	573.48
504.97	585.94
505.33	598.43
505.69	611.77
506.05	625.29
506.41	638.70
506.78	652.32
507.14	666.42
507.50	680.95
507.86	696.00
508.22	711.17
508.59	726.50
508.95	742.33
509.31	758.28
509.67	774.75
510.03	791.70
510.39	809.33
510.75	826.63
511.12	844.50
511.48	862.66
511.84	881.18
512.20	899.90
512.56	918.94
512.92	938.42
513.28	957.67
513.64	977.42
514.00	997.37
514.37	1017.69
514.73	1038.51
515.09	1059.31
515.45	1079.84
515.81	1101.06
516.17	1122.35
516.53	1143.79
516.89	1165.52
517.25	1187.11
517.61	1208.58
517.97	1229.69
518.33	1251.38
518.69	1273.43
519.05	1295.59
519.41	1317.78
519.77	1340.19
520.13	1362.07
520.49	1383.90
520.85	1406.52
521.21	1428.84
521.57	1451.65
521.93	1473.53
522.29	1495.97
522.65	1518.35
523.01	1540.85
523.37	1562.70
523.73	1584.95
524.09	1606.97
524.45	1628.84
524.81	1650.92
525.17	1673.30
525.53	1695.68
525.89	1717.71
526.25	1739.22
526.61	1760.35
526.97	1781.75
527.33	1802.87
527.68	1824.49
528.04	1845.66
528.40	1865.62
528.76	1886.27
529.12	1906.66
529.48	1928.22
529.84	1948.25
530.20	1968.41
530.56	1988.88
530.91	2009.46
531.27	2029.55
531.63	2049.50
531.99	2069.38
532.35	2088.50
532.71	2107.29
533.07	2126.75
533.42	2145.30
533.78	2164.13
534.14	2182.27
534.50	2199.25
534.86	2217.14
535.21	2233.51
535.57	2251.20
535.93	2268.46
536.29	2285.06
536.65	2301.57
537.00	2316.86
537.36	2332.07
537.72	2347.10
538.08	2361.95
538.44	2377.19
538.79	2392.49
539.15	2407.02
539.51	2421.54
539.87	2436.55
540.22	2450.82
540.58	2465.32
540.94	2479.59
541.29	2492.37
541.65	2504.18
542.01	2517.11
542.37	2528.65
542.72	2541.14
543.08	2552.00
543.44	2564.04
543.79	2574.00
544.15	2583.88
544.51	2594.75
544.87	2605.73
545.22	2614.60
545.58	2622.94
545.94	2630.06
546.29	2636.38
546.65	2642.90
547.01	2649.01
547.36	2654.26
547.72	2659.83
548.07	2663.67
548.43	2667.58
548.79	2671.44
549.14	2676.40
549.50	2680.72
549.86	2684.71
550.21	2688.58
550.57	2692.41
550.92	2694.25
551.28	2696.97
551.64	2699.55
551.99	2701.80
552.35	2703.00
552.70	2705.98
553.06	2708.69
553.41	2711.55
553.77	2714.37
554.13	2716.24
554.48	2717.84
554.84	2719.42
555.19	2720.03
555.55	2720.87
555.90	2721.24
556.26	2721.92
556.61	2722.00
556.97	2720.57
557.32	2720.07
557.68	2717.97
558.03	2716.80
558.39	2715.44
558.74	2714.76
559.10	2713.21
559.45	2710.88
559.81	2710.13
560.16	2707.20
560.52	2704.59
560.87	2701.39
561.23	2697.65
561.58	2695.48
561.94	2692.30
562.29	2688.61
562.64	2686.28
563.00	2683.43
563.35	2681.16
563.71	2679.09
564.06	2676.59
564.42	2675.12
564.77	2672.70
565.12	2670.98
565.48	2667.48
565.83	2664.58
566.19	2661.39
566.54	2657.41
566.89	2654.10
567.25	2649.66
567.60	2646.69
567.96	2643.10
568.31	2639.84
568.66	2635.83
569.02	2630.72
569.37	2625.74
569.72	2622.04
570.08	2616.38
570.43	2610.65
570.78	2604.67
571.14	2598.23
571.49	2591.71
571.84	2585.80
572.20	2578.84
572.55	2572.06
572.90	2565.01
573.26	2558.07
573.61	2550.84
573.96	2544.28
574.31	2536.19
574.67	2528.30
575.02	2519.85
575.37	2510.97
575.72	2501.62
576.08	2494.12
576.43	2485.96
576.78	2478.02
577.13	2470.00
577.49	2461.95
577.84	2454.51
578.19	2447.04
578.54	2439.72
578.90	2432.85
579.25	2423.71
579.60	2414.58
579.95	2405.62
580.30	2397.84
580.66	2389.62
581.01	2381.00
581.36	2371.69
581.71	2363.41
582.06	2355.01
582.42	2346.67
582.77	2337.85
583.12	2329.42
583.47	2320.57
583.82	2312.16
584.17	2303.08
584.53	2294.04
584.88	2285.41
585.23	2276.38
585.58	2266.73
585.93	2257.31
586.28	2248.10
586.63	2239.27
586.98	2231.49
587.34	2223.28
587.69	2214.20
588.04	2205.27
588.39	2196.98
588.74	2188.43
589.09	2179.87
589.44	2170.56
589.79	2161.93
590.14	2154.28
590.49	2145.96
590.84	2137.29
591.19	2129.21
591.54	2120.59
591.89	2110.61
592.25	2101.43
592.60	2092.02
592.95	2082.97
593.30	2073.25
593.65	2063.31
594.00	2053.97
594.35	2045.65
594.70	2036.25
595.05	2027.69
595.40	2019.01
595.75	2009.49
596.10	2001.21
596.45	1993.08
596.80	1985.47
597.15	1977.18
597.50	1968.22
597.85	1959.67
598.19	1951.12
598.54	1942.67
598.89	1935.06
599.24	1928.65
599.59	1921.61
599.94	1914.45
600.29	1906.68
600.64	1898.77
600.99	1890.61
601.34	1883.35
601.69	1874.46
602.04	1866.42
602.39	1858.64
602.74	1850.83
603.08	1844.31
603.43	1837.01
603.78	1828.82
604.13	1820.81
604.48	1812.92
604.83	1805.86
605.18	1799.07
605.53	1791.57
605.87	1783.85
606.22	1776.80
606.57	1768.79
606.92	1760.65
607.27	1752.64
607.62	1745.55
607.96	1739.01
608.31	1732.80
608.66	1725.26
609.01	1717.79
609.36	1710.15
609.70	1701.83
610.05	1694.32
610.40	1685.88
610.75	1677.59
611.10	1669.98
611.44	1660.89
611.79	1652.05
612.14	1642.95
612.49	1633.42
612.83	1624.64
613.18	1615.01
613.53	1605.66
613.88	1595.93
614.22	1586.82
614.57	1577.60
614.92	1568.10
615.27	1558.66
615.61	1549.05
615.96	1540.24
616.31	1532.09
616.65	1524.44
617.00	1516.41
617.35	1507.95
617.70	1499.13
618.04	1490.14
618.39	1480.87
618.74	1472.50
619.08	1464.05
619.43	1455.73
619.78	1447.85
620.12	1439.76
620.47	1432.30
620.82	1423.80
621.16	1415.55
621.51	1407.31
621.85	1399.34
622.20	1391.09
622.55	1382.71
622.89	1374.76
623.24	1366.87
623.59	1358.06
623.93	1349.41
624.28	1341.09
624.62	1332.76
624.97	1324.70
625.32	1317.10
625.66	1309.78
626.01	1302.65
626.35	1295.57
626.70	1288.14
627.04	1280.88
627.39	1273.36
627.73	1265.80
628.08	1258.90
628.43	1251.53
628.77	1244.40
629.12	1236.94
629.46	1230.41
629.81	1223.29
630.15	1215.90
630.50	1208.33
630.84	1201.24
631.19	1194.19
631.53	1187.43
631.88	1179.91
632.22	1172.38
632.57	1165.29
632.91	1157.74
633.26	1150.23
633.60	1142.99
633.95	1136.07
634.29	1128.74
634.64	1121.95
634.98	1114.88
635.32	1107.67
635.67	1101.44
636.01	1094.89
636.36	1088.23
636.70	1081.58
637.05	1075.14
637.39	1068.79
637.73	1062.62
638.08	1056.91
638.42	1051.17
638.77	1044.84
639.11	1038.64
639.45	1032.86
639.80	1026.44
640.14	1020.12
640.49	1014.14
640.83	1008.07
641.17	1001.66
641.52	995.55
641.86	989.11
642.20	983.11
642.55	976.56
642.89	969.97
643.23	963.54
643.58	957.76
643.92	951.27
644.26	945.10
644.61	939.04
644.95	933.11
645.29	926.83
645.64	919.94
645.98	913.53
646.32	907.86
646.66	901.80
647.01	896.09
647.35	890.39
647.69	884.07
648.04	877.92
648.38	872.22
648.72	866.38
649.06	860.50
649.41	854.65
649.75	849.06
650.09	843.37
650.43	837.42
650.78	831.22
651.12	825.31
651.46	819.72
651.80	813.87
652.14	807.79
652.49	801.79
652.83	796.15
653.17	790.22
653.51	784.25
653.85	778.36
654.20	772.47
654.54	766.58
654.88	761.22
655.22	755.47
655.56	749.53
655.90	743.57
656.25	737.90
656.59	732.23
656.93	727.06
657.27	721.81
657.61	716.36
657.95	711.24
658.29	706.18
658.64	700.90
658.98	695.78
659.32	690.45
659.66	685.30
660.00	680.06
660.34	674.91
660.68	669.71
661.02	664.84
661.36	660.18
661.70	655.52
662.05	650.77
662.39	646.58
662.73	642.31
663.07	638.27
663.41	634.01
663.75	629.54
664.09	624.78
664.43	620.05
664.77	615.86
665.11	611.40
665.45	607.05
665.79	602.51
666.13	598.22
666.47	594.16
666.81	590.11
667.15	586.18
667.49	582.46
667.83	578.51
668.17	574.63
668.51	570.74
668.85	567.11
669.19	563.48
669.53	559.48
669.87	555.52
670.21	551.39
670.55	547.46
670.89	544.07
671.23	540.70
671.57	537.32
671.91	533.80
672.25	530.38
672.58	526.78
672.92	523.50
673.26	520.26
673.60	516.98
673.94	513.58
674.28	510.26
674.62	507.05
674.96	503.99
675.30	500.90
675.64	497.71
675.97	494.46
676.31	491.39
676.65	488.36
676.99	485.69
677.33	482.83
677.67	479.89
678.01	476.74
678.34	473.78
678.68	470.90
679.02	467.94
679.36	464.95
679.70	462.35
680.04	459.54
680.37	456.69
680.71	454.01
681.05	451.38
681.39	448.68
681.73	446.00
682.06	443.37
682.40	440.74
682.74	438.14
683.08	435.58
683.42	433.00
683.75	430.58
684.09	427.89
684.43	425.40
684.77	422.92
685.10	420.57
685.44	418.07
685.78	415.68
686.12	413.40
686.45	411.14
686.79	408.77
687.13	406.69
687.46	404.33
687.80	402.07
688.14	399.73
688.48	397.59
688.81	395.31
689.15	393.24
689.49	391.06
689.82	388.95
690.16	386.55
690.50	384.25
690.83	381.94
691.17	379.77
691.51	377.63
691.84	375.60
692.18	373.40
692.52	371.41
692.85	369.53
693.19	367.56
693.52	365.65
693.86	363.65
694.20	361.59
694.53	359.77
694.87	357.73
695.21	355.87
695.54	354.04
695.88	352.22
696.21	350.26
696.55	348.48
696.88	346.71
697.22	345.11
697.56	343.66
697.89	342.06
698.23	340.42
698.56	338.91
698.90	337.35
699.23	335.82
699.57	334.32
699.90	332.70
700.24	331.15
700.58	329.60
700.91	328.11
701.25	326.78
701.58	325.41
701.92	324.15
702.25	322.83
702.59	321.46
702.92	320.17
703.26	318.94
703.59	317.74
703.93	316.65
704.26	315.44
704.60	313.94
704.93	312.70
705.26	311.43
705.60	310.21
705.93	308.95
706.27	307.82
706.60	306.71
706.94	305.57
707.27	304.41
707.61	303.21
707.94	302.09
708.27	300.69
708.61	299.50
708.94	298.31
709.28	297.14
709.61	296.00
709.94	294.91
710.28	293.81
710.61	292.77
710.95	291.61
711.28	290.63
711.61	289.70
711.95	288.71
712.28	287.79
712.61	286.77
712.95	286.00
713.28	285.03
713.61	284.04
713.95	283.14
714.28	282.26
714.61	281.35
714.95	280.49
715.28	279.71
715.61	278.82
715.95	278.00
716.28	277.16
716.61	276.38
716.95	275.56
717.28	274.79
717.61	273.96
717.94	273.12
718.28	272.24
718.61	271.45
718.94	270.66
719.27	269.92
719.61	269.23
719.94	268.43
720.27	267.68
720.60	266.96
720.94	266.27
721.27	265.54
721.60	264.93
721.93	264.30
722.27	263.75
722.60	263.16
722.93	262.55
723.26	261.99
723.59	261.33
723.93	260.74
724.26	260.09
724.59	259.43
724.92	258.86
725.25	258.35
725.59	257.76
725.92	257.29
726.25	256.80
726.58	256.23
726.91	255.74
727.24	255.31
727.57	254.82
727.91	254.26
728.24	253.78
728.57	253.30
728.90	252.88
729.23	252.34
729.56	251.92
729.89	251.50
730.22	251.00
730.55	250.60
730.89	250.15
731.22	249.78
731.55	249.42
731.88	248.95
732.21	248.42
732.54	248.06
732.87	247.66
733.20	247.16
733.53	246.82
733.86	246.37
734.19	245.87
734.52	245.46
734.85	245.25
735.18	244.83
735.51	244.57
735.84	244.16
736.17	243.88
736.50	243.44
736.83	243.20
737.16	242.85
737.49	242.48
737.82	242.12
738.15	241.79
738.48	241.40
738.81	241.10
739.14	240.82
739.47	240.50
739.80	240.08
740.13	239.74
740.46	239.40
740.79	239.00
741.12	238.71
741.45	238.34
741.78	237.90
742.11	237.63
742.44	237.23
742.77	236.90
743.10	236.50
743.43	236.17
743.75	235.65
744.08	235.52
744.41	235.25
744.74	234.91
745.07	234.45
745.40	234.16
745.73	233.88
746.06	233.51
746.39	233.17
746.71	232.88
747.04	232.69
747.37	232.36
747.70	232.14
748.03	231.86
748.36	231.68
748.68	231.39
749.01	231.07
749.34	230.82
749.67	230.52
750.00	230.28
750.33	230.23
750.65	230.06
750.98	229.64
751.31	229.37
751.64	229.13
751.97	229.13
752.29	228.91
752.62	228.61
752.95	228.44
753.28	228.25
753.60	228.07
753.93	227.81
754.26	227.64
754.59	227.42
754.91	227.17
755.24	226.95
755.57	226.81
755.90	226.73
756.22	226.56
756.55	226.42
756.88	226.28
757.20	225.92
757.53	225.63
757.86	225.43
758.19	225.27
758.51	225.08
758.84	224.71
759.17	224.49
759.49	224.36
759.82	224.28
760.15	224.11
760.47	224.01
760.80	223.82
761.13	223.68
761.45	223.60
761.78	223.50
762.11	223.34
762.43	223.11
762.76	222.91
763.08	222.81
763.41	222.67
763.74	222.50
764.06	222.40
764.39	222.31
764.71	222.19
765.04	222.05
765.37	221.95
765.69	221.89
766.02	221.78
766.34	221.67
766.67	221.44
767.00	221.49
767.32	221.37
767.65	221.37
767.97	221.25
768.30	221.03
768.62	220.83
768.95	220.72
769.27	220.67
769.60	220.57
769.92	220.41
770.25	220.34
770.57	220.22
770.90	220.15
771.22	220.03
771.55	219.93
771.87	219.86
772.20	219.75
772.52	219.84
772.85	220.00
773.17	219.89
773.50	219.82
773.82	219.65
774.15	219.41
774.47	219.23
774.80	219.12
775.12	219.02
775.45	219.00
775.77	218.85
776.09	218.80
776.42	218.70
776.74	218.60
777.07	218.50
777.39	218.41
777.72	218.25
778.04	218.22
778.36	218.14
778.69	218.06
779.01	218.01
779.33	217.72
779.66	217.44
779.98	217.39
780.31	217.36
780.63	217.32
780.95	217.29
781.28	217.17
781.60	217.14
781.92	217.17
782.25	217.07
782.57	217.01
782.89	216.86
783.22	216.80
783.54	216.71
783.86	216.61
784.19	216.50
784.51	216.47
784.83	216.43
785.16	216.39
785.48	216.33
785.80	216.26
786.12	216.25
786.45	216.20
