SpectraSuite Data File
++++++++++++++++++++++++++++++++++++
Date: Mon Feb 25 17:32:40 EST 2013
User: group
Dark Spectrum Present: No
Reference Spectrum Present: No
Number of Sampled Component Spectra: 1
Spectrometers: USB2E7196
Integration Time (usec): 52000 (USB2E7196)
Spectra Averaged: 20 (USB2E7196)
Boxcar Smoothing: 10 (USB2E7196)
Correct for Electrical Dark: No (USB2E7196)
Strobe/Lamp Enabled: No (USB2E7196)
Correct for Detector Non-linearity: No (USB2E7196)
Correct for Stray Light: No (USB2E7196)
Number of Pixels in Processed Spectrum: 2048
>>>>>Begin Processed Spectral Data<<<<<
339.09	0.00
339.48	199.10
339.86	200.00
340.24	201.40
340.63	202.15
341.01	206.60
341.39	205.65
341.78	207.70
342.16	208.20
342.54	208.45
342.93	198.13
343.31	208.19
343.69	208.71
344.07	209.14
344.46	209.61
344.84	210.03
345.22	210.22
345.60	210.49
345.99	210.65
346.37	210.81
346.75	210.84
347.13	210.92
347.52	210.98
347.90	211.07
348.28	211.14
348.66	211.17
349.05	211.19
349.43	211.26
349.81	211.36
350.19	211.38
350.57	211.45
350.96	211.52
351.34	211.61
351.72	211.70
352.10	211.88
352.48	211.97
352.87	212.07
353.25	212.20
353.63	212.30
354.01	212.42
354.39	212.47
354.77	212.70
355.15	212.80
355.54	212.82
355.92	212.84
356.30	212.85
356.68	212.97
357.06	213.09
357.44	213.07
357.82	213.22
358.20	213.29
358.58	213.32
358.97	213.39
359.35	213.52
359.73	213.70
360.11	213.75
360.49	213.80
360.87	213.80
361.25	213.89
361.63	214.00
362.01	214.02
362.39	214.12
362.77	214.14
363.15	214.13
363.53	214.19
363.91	214.27
364.29	214.36
364.67	214.28
365.05	214.25
365.43	214.31
365.81	214.33
366.19	214.46
366.57	214.58
366.95	214.64
367.33	214.56
367.71	214.54
368.09	214.58
368.47	214.55
368.85	214.59
369.23	214.57
369.61	214.38
369.99	214.43
370.37	214.43
370.75	214.51
371.13	214.54
371.51	214.53
371.89	214.49
372.27	214.44
372.65	214.38
373.03	214.43
373.41	214.40
373.78	214.24
374.16	214.03
374.54	213.88
374.92	213.83
375.30	213.77
375.68	213.69
376.06	213.65
376.44	213.59
376.82	213.53
377.19	213.45
377.57	213.49
377.95	213.35
378.33	213.26
378.71	213.08
379.09	212.99
379.47	212.94
379.84	212.86
380.22	212.82
380.60	212.76
380.98	212.65
381.36	212.59
381.73	212.54
382.11	212.55
382.49	212.50
382.87	212.39
383.25	212.31
383.62	212.36
384.00	212.31
384.38	212.29
384.76	212.31
385.13	212.35
385.51	212.32
385.89	212.28
386.27	212.26
386.64	212.24
387.02	212.27
387.40	212.27
387.78	212.27
388.15	212.18
388.53	212.25
388.91	212.10
389.29	212.01
389.66	212.04
390.04	212.02
390.42	212.03
390.79	212.01
391.17	212.03
391.55	211.90
391.92	211.88
392.30	211.80
392.68	211.70
393.05	211.66
393.43	211.57
393.81	211.55
394.18	211.47
394.56	211.50
394.94	211.42
395.31	211.32
395.69	211.37
396.06	211.44
396.44	211.38
396.82	211.46
397.19	211.65
397.57	211.68
397.95	211.72
398.32	211.70
398.70	211.76
399.07	211.80
399.45	211.84
399.82	211.82
400.20	211.89
400.58	211.96
400.95	211.94
401.33	212.16
401.70	212.38
402.08	212.50
402.45	212.55
402.83	212.73
403.20	212.82
403.58	212.90
403.95	212.99
404.33	213.16
404.71	213.25
405.08	213.42
405.46	213.58
405.83	213.73
406.21	213.92
406.58	214.03
406.96	214.14
407.33	214.32
407.70	214.52
408.08	214.89
408.45	215.14
408.83	215.42
409.20	215.51
409.58	215.61
409.95	215.89
410.33	216.23
410.70	216.40
411.08	216.82
411.45	217.10
411.82	217.42
412.20	217.77
412.57	218.37
412.95	218.71
413.32	219.16
413.69	219.67
414.07	220.18
414.44	220.80
414.82	221.46
415.19	222.15
415.56	222.85
415.94	223.54
416.31	224.38
416.68	225.24
417.06	226.28
417.43	227.29
417.81	228.40
418.18	229.45
418.55	230.67
418.93	231.89
419.30	233.26
419.67	234.69
420.04	236.15
420.42	237.55
420.79	239.27
421.16	241.02
421.54	242.81
421.91	244.67
422.28	246.58
422.66	248.57
423.03	250.62
423.40	252.72
423.77	254.91
424.15	257.20
424.52	259.55
424.89	262.13
425.26	264.60
425.64	266.90
426.01	269.54
426.38	272.22
426.75	274.91
427.13	277.72
427.50	280.65
427.87	283.64
428.24	286.72
428.61	289.71
428.99	292.92
429.36	296.35
429.73	299.80
430.10	303.26
430.47	306.87
430.85	310.52
431.22	314.39
431.59	318.62
431.96	322.50
432.33	326.83
432.70	330.90
433.08	335.72
433.45	340.29
433.82	344.79
434.19	349.87
434.56	355.00
434.93	359.74
435.30	364.44
435.68	369.81
436.05	374.95
436.42	380.03
436.79	384.79
437.16	389.84
437.53	395.10
437.90	400.25
438.27	405.32
438.64	410.69
439.01	415.68
439.38	420.03
439.75	424.22
440.13	429.02
440.50	433.61
440.87	437.33
441.24	441.19
441.61	445.42
441.98	448.57
442.35	452.05
442.72	455.66
443.09	459.20
443.46	461.29
443.83	462.71
444.20	463.87
444.57	465.60
444.94	466.30
445.31	467.17
445.68	468.08
446.05	468.37
446.42	467.65
446.79	467.04
447.16	466.11
447.53	465.55
447.90	463.50
448.27	461.42
448.64	458.55
449.01	456.35
449.37	452.76
449.74	449.28
450.11	445.23
450.48	440.85
450.85	436.25
451.22	432.16
451.59	428.43
451.96	424.78
452.33	419.91
452.70	415.62
453.07	410.39
453.43	405.15
453.80	400.16
454.17	395.49
454.54	390.80
454.91	386.01
455.28	381.32
455.65	376.90
456.02	372.61
456.38	368.85
456.75	364.37
457.12	360.52
457.49	356.73
457.86	352.91
458.23	349.57
458.59	346.10
458.96	342.62
459.33	339.43
459.70	336.40
460.07	333.95
460.43	331.14
460.80	328.54
461.17	326.14
461.54	323.73
461.91	321.30
462.27	318.92
462.64	316.90
463.01	314.70
463.38	312.59
463.74	310.25
464.11	308.39
464.48	306.72
464.85	304.92
465.21	303.56
465.58	302.20
465.95	300.55
466.32	299.12
466.68	297.73
467.05	296.34
467.42	294.94
467.78	293.48
468.15	292.16
468.52	291.10
468.88	289.81
469.25	288.69
469.62	287.76
469.98	286.77
470.35	285.81
470.72	284.87
471.08	283.88
471.45	283.20
471.82	282.47
472.18	281.56
472.55	281.03
472.92	280.25
473.28	279.68
473.65	279.13
474.02	278.59
474.38	278.21
474.75	277.85
475.11	277.44
475.48	277.16
475.85	276.95
476.21	276.83
476.58	276.68
476.94	276.55
477.31	276.47
477.67	276.45
478.04	276.53
478.41	276.70
478.77	277.04
479.14	277.12
479.50	277.45
479.87	277.85
480.23	278.25
480.60	278.62
480.96	278.99
481.33	279.63
481.69	280.36
482.06	280.90
482.42	281.61
482.79	282.28
483.15	283.23
483.52	284.21
483.88	285.11
484.25	286.08
484.61	287.10
484.98	288.22
485.34	289.56
485.71	290.88
486.07	292.23
486.44	293.57
486.80	295.18
487.17	296.70
487.53	298.43
487.90	300.17
488.26	302.17
488.62	304.22
488.99	306.25
489.35	308.23
489.72	310.53
490.08	312.91
490.44	315.46
490.81	318.10
491.17	320.70
491.54	323.61
491.90	326.77
492.26	329.98
492.63	333.34
492.99	336.70
493.36	340.30
493.72	344.20
494.08	348.16
494.45	352.46
494.81	356.94
495.17	361.50
495.54	366.41
495.90	371.40
496.26	376.56
496.63	382.05
496.99	387.93
497.35	394.07
497.72	400.35
498.08	406.83
498.44	413.50
498.80	420.67
499.17	428.11
499.53	435.66
499.89	443.64
500.26	451.70
500.62	460.05
500.98	469.00
501.34	478.13
501.71	487.74
502.07	497.42
502.43	507.48
502.79	517.63
503.16	528.19
503.52	539.00
503.88	550.13
504.24	561.61
504.60	573.44
504.97	585.63
505.33	598.14
505.69	611.51
506.05	624.98
506.41	638.49
506.78	652.22
507.14	666.20
507.50	680.71
507.86	695.56
508.22	711.09
508.59	726.47
508.95	742.55
509.31	758.67
509.67	775.21
510.03	792.13
510.39	809.70
510.75	827.48
511.12	845.69
511.48	864.11
511.84	882.85
512.20	901.61
512.56	920.76
512.92	940.43
513.28	959.63
513.64	979.27
514.00	999.30
514.37	1019.66
514.73	1040.56
515.09	1061.50
515.45	1082.40
515.81	1103.22
516.17	1124.41
516.53	1145.59
516.89	1166.85
517.25	1188.39
517.61	1209.95
517.97	1231.44
518.33	1252.84
518.69	1274.36
519.05	1296.35
519.41	1318.23
519.77	1340.91
520.13	1362.95
520.49	1384.77
520.85	1407.61
521.21	1430.30
521.57	1453.11
521.93	1475.11
522.29	1497.98
522.65	1520.30
523.01	1542.67
523.37	1564.72
523.73	1587.11
524.09	1609.35
524.45	1631.87
524.81	1654.09
525.17	1676.45
525.53	1698.81
525.89	1721.02
526.25	1743.19
526.61	1764.48
526.97	1786.29
527.33	1807.31
527.68	1828.95
528.04	1850.13
528.40	1870.19
528.76	1891.01
529.12	1911.69
529.48	1933.44
529.84	1953.82
530.20	1974.16
530.56	1994.72
530.91	2015.54
531.27	2035.75
531.63	2055.70
531.99	2075.67
532.35	2094.79
532.71	2113.76
533.07	2133.16
533.42	2151.93
533.78	2170.69
534.14	2189.16
534.50	2206.20
534.86	2223.98
535.21	2240.31
535.57	2258.28
535.93	2275.89
536.29	2292.56
536.65	2308.89
537.00	2324.17
537.36	2339.01
537.72	2354.21
538.08	2369.48
538.44	2384.78
538.79	2400.23
539.15	2415.06
539.51	2429.22
539.87	2444.61
540.22	2459.35
540.58	2474.14
540.94	2488.30
541.29	2501.38
541.65	2513.76
542.01	2526.98
542.37	2539.06
542.72	2551.51
543.08	2562.40
543.44	2574.09
543.79	2584.21
544.15	2594.54
544.51	2605.35
544.87	2616.65
545.22	2625.62
545.58	2634.06
545.94	2641.27
546.29	2647.44
546.65	2653.69
547.01	2660.05
547.36	2665.46
547.72	2670.74
548.07	2674.66
548.43	2678.60
548.79	2682.52
549.14	2687.12
549.50	2691.47
549.86	2695.28
550.21	2699.55
550.57	2703.34
550.92	2705.77
551.28	2708.57
551.64	2711.06
551.99	2713.55
552.35	2714.87
552.70	2717.61
553.06	2720.47
553.41	2723.21
553.77	2726.25
554.13	2728.28
554.48	2730.22
554.84	2731.85
555.19	2732.35
555.55	2732.99
555.90	2733.39
556.26	2733.54
556.61	2733.52
556.97	2732.19
557.32	2731.71
557.68	2729.93
558.03	2728.67
558.39	2727.46
558.74	2727.03
559.10	2725.57
559.45	2723.81
559.81	2722.77
560.16	2720.25
560.52	2717.73
560.87	2715.08
561.23	2711.50
561.58	2709.52
561.94	2706.35
562.29	2702.72
562.64	2700.58
563.00	2698.04
563.35	2696.10
563.71	2694.34
564.06	2692.06
564.42	2690.99
564.77	2688.62
565.12	2686.57
565.48	2683.04
565.83	2680.02
566.19	2676.23
566.54	2672.34
566.89	2668.24
567.25	2664.16
567.60	2660.92
567.96	2657.21
568.31	2653.89
568.66	2650.21
569.02	2645.30
569.37	2640.30
569.72	2636.34
570.08	2630.95
570.43	2625.32
570.78	2619.30
571.14	2613.09
571.49	2606.52
571.84	2600.25
572.20	2593.45
572.55	2587.10
572.90	2580.48
573.26	2573.29
573.61	2566.71
573.96	2560.27
574.31	2552.61
574.67	2544.87
575.02	2536.30
575.37	2527.62
575.72	2518.38
576.08	2510.54
576.43	2501.84
576.78	2493.82
577.13	2485.74
577.49	2477.43
577.84	2469.76
578.19	2462.26
578.54	2454.81
578.90	2447.92
579.25	2438.84
579.60	2429.96
579.95	2420.26
580.30	2412.15
580.66	2404.03
581.01	2394.73
581.36	2385.30
581.71	2376.85
582.06	2368.07
582.42	2360.08
582.77	2350.97
583.12	2341.92
583.47	2333.44
583.82	2325.17
584.17	2315.94
584.53	2306.66
584.88	2297.81
585.23	2288.47
585.58	2279.18
585.93	2269.24
586.28	2259.78
586.63	2250.92
586.98	2242.48
587.34	2234.53
587.69	2225.44
588.04	2216.40
588.39	2208.27
588.74	2199.43
589.09	2190.78
589.44	2181.33
589.79	2172.75
590.14	2165.03
590.49	2156.84
590.84	2147.52
591.19	2139.56
591.54	2130.91
591.89	2120.84
592.25	2111.97
592.60	2102.72
592.95	2092.91
593.30	2083.77
593.65	2074.23
594.00	2064.69
594.35	2056.49
594.70	2047.34
595.05	2038.62
595.40	2029.65
595.75	2019.89
596.10	2011.70
596.45	2003.04
596.80	1995.51
597.15	1987.05
597.50	1977.72
597.85	1969.29
598.19	1960.69
598.54	1952.02
598.89	1944.35
599.24	1938.15
599.59	1930.63
599.94	1923.48
600.29	1915.85
600.64	1907.90
600.99	1899.46
601.34	1892.42
601.69	1883.28
602.04	1874.93
602.39	1867.01
602.74	1859.66
603.08	1852.99
603.43	1846.05
603.78	1838.47
604.13	1830.25
604.48	1822.42
604.83	1815.62
605.18	1808.75
605.53	1801.38
605.87	1793.56
606.22	1786.48
606.57	1778.57
606.92	1770.39
607.27	1762.50
607.62	1755.52
607.96	1748.69
608.31	1742.40
608.66	1734.52
609.01	1727.30
609.36	1719.78
609.70	1711.77
610.05	1703.82
610.40	1695.45
610.75	1686.74
611.10	1678.89
611.44	1669.82
611.79	1660.78
612.14	1651.50
612.49	1641.69
612.83	1632.91
613.18	1623.29
613.53	1613.65
613.88	1603.73
614.22	1594.79
614.57	1585.40
614.92	1575.79
615.27	1566.49
615.61	1556.70
615.96	1547.73
616.31	1539.13
616.65	1531.16
617.00	1523.19
617.35	1514.53
617.70	1505.72
618.04	1496.68
618.39	1487.33
618.74	1478.90
619.08	1470.33
619.43	1462.08
619.78	1454.62
620.12	1446.45
620.47	1438.81
620.82	1430.34
621.16	1422.18
621.51	1413.86
621.85	1405.56
622.20	1397.16
622.55	1388.64
622.89	1380.67
623.24	1372.73
623.59	1364.02
623.93	1355.36
624.28	1346.75
624.62	1338.28
624.97	1330.35
625.32	1322.63
625.66	1315.23
626.01	1308.16
626.35	1300.96
626.70	1293.34
627.04	1285.70
627.39	1277.94
627.73	1270.59
628.08	1264.00
628.43	1256.50
628.77	1249.10
629.12	1241.75
629.46	1235.09
629.81	1227.83
630.15	1220.49
630.50	1213.02
630.84	1206.01
631.19	1198.86
631.53	1192.04
631.88	1184.71
632.22	1177.14
632.57	1170.03
632.91	1162.63
633.26	1155.00
633.60	1147.79
633.95	1141.10
634.29	1133.66
634.64	1127.16
634.98	1120.20
635.32	1112.91
635.67	1106.74
636.01	1100.19
636.36	1093.50
636.70	1086.70
637.05	1080.45
637.39	1074.08
637.73	1067.81
638.08	1061.81
638.42	1056.00
638.77	1049.58
639.11	1043.38
639.45	1037.47
639.80	1031.01
640.14	1024.65
640.49	1018.60
640.83	1012.53
641.17	1006.03
641.52	999.89
641.86	993.14
642.20	986.71
642.55	980.01
642.89	973.20
643.23	966.77
643.58	960.89
643.92	954.74
644.26	948.31
644.61	942.20
644.95	936.03
645.29	929.64
645.64	923.19
645.98	916.93
646.32	911.18
646.66	905.03
647.01	899.09
647.35	893.19
647.69	886.79
648.04	880.69
648.38	874.80
648.72	868.78
649.06	862.88
649.41	857.05
649.75	851.37
650.09	845.75
650.43	839.96
650.78	833.71
651.12	827.44
651.46	821.94
651.80	815.98
652.14	810.05
652.49	804.35
652.83	798.42
653.17	792.29
653.51	786.23
653.85	780.51
654.20	774.67
654.54	768.90
654.88	763.47
655.22	757.72
655.56	751.71
655.90	746.00
656.25	740.46
656.59	734.79
656.93	729.57
657.27	724.44
657.61	719.00
657.95	713.94
658.29	708.94
658.64	703.55
658.98	698.41
659.32	693.03
659.66	687.87
660.00	682.61
660.34	677.63
660.68	672.53
661.02	667.50
661.36	662.70
661.70	657.80
662.05	653.08
662.39	648.73
662.73	644.43
663.07	640.19
663.41	635.78
663.75	631.31
664.09	626.58
664.43	621.73
664.77	617.27
665.11	612.88
665.45	608.60
665.79	604.35
666.13	599.89
666.47	595.71
666.81	591.59
667.15	587.52
667.49	583.72
667.83	579.67
668.17	575.72
668.51	571.90
668.85	568.23
669.19	564.57
669.53	560.55
669.87	556.57
670.21	552.70
670.55	548.77
670.89	545.34
671.23	542.03
671.57	538.51
671.91	534.91
672.25	531.37
672.58	527.83
672.92	524.29
673.26	521.19
673.60	517.99
673.94	514.63
674.28	511.51
674.62	508.22
674.96	505.18
675.30	502.15
675.64	498.98
675.97	495.78
676.31	492.70
676.65	489.71
676.99	487.07
677.33	484.10
677.67	481.28
678.01	478.10
678.34	475.06
678.68	472.30
679.02	469.35
679.36	466.58
679.70	463.78
680.04	460.87
680.37	457.93
680.71	455.15
681.05	452.55
681.39	449.70
681.73	447.08
682.06	444.54
682.40	441.87
682.74	439.28
683.08	436.67
683.42	434.05
683.75	431.65
684.09	428.92
684.43	426.45
684.77	423.89
685.10	421.56
685.44	418.99
685.78	416.47
686.12	414.27
686.45	411.89
686.79	409.55
687.13	407.42
687.46	405.26
687.80	403.09
688.14	400.66
688.48	398.53
688.81	396.25
689.15	394.11
689.49	391.86
689.82	389.72
690.16	387.42
690.50	385.29
690.83	383.00
691.17	380.91
691.51	378.64
691.84	376.55
692.18	374.51
692.52	372.56
692.85	370.64
693.19	368.79
693.52	366.85
693.86	364.91
694.20	363.05
694.53	361.19
694.87	359.12
695.21	357.26
695.54	355.37
695.88	353.45
696.21	351.59
696.55	349.94
696.88	348.14
697.22	346.53
697.56	344.89
697.89	343.26
698.23	341.63
698.56	340.00
698.90	338.53
699.23	336.89
699.57	335.34
699.90	333.74
700.24	332.11
700.58	330.57
700.91	329.02
701.25	327.58
701.58	326.05
701.92	324.62
702.25	323.25
702.59	321.91
702.92	320.64
703.26	319.25
703.59	317.95
703.93	316.83
704.26	315.64
704.60	314.26
704.93	312.94
705.26	311.69
705.60	310.57
705.93	309.25
706.27	308.10
706.60	306.96
706.94	305.89
707.27	304.68
707.61	303.47
707.94	302.37
708.27	301.08
708.61	299.96
708.94	299.01
709.28	297.89
709.61	296.78
709.94	295.67
710.28	294.65
710.61	293.64
710.95	292.39
711.28	291.35
711.61	290.34
711.95	289.32
712.28	288.32
712.61	287.30
712.95	286.34
713.28	285.35
713.61	284.43
713.95	283.50
714.28	282.65
714.61	281.70
714.95	280.78
715.28	279.92
715.61	279.00
715.95	278.06
716.28	277.21
716.61	276.41
716.95	275.56
717.28	274.70
717.61	273.83
717.94	273.20
718.28	272.39
718.61	271.66
718.94	270.91
719.27	270.09
719.61	269.40
719.94	268.62
720.27	267.91
720.60	267.16
720.94	266.42
721.27	265.76
721.60	265.24
721.93	264.61
722.27	264.00
722.60	263.42
722.93	262.78
723.26	262.15
723.59	261.47
723.93	260.85
724.26	260.28
724.59	259.65
724.92	259.09
725.25	258.57
725.59	258.08
725.92	257.66
726.25	257.18
726.58	256.64
726.91	256.19
727.24	255.71
727.57	255.28
727.91	254.69
728.24	254.17
728.57	253.65
728.90	253.24
729.23	252.75
729.56	252.32
729.89	251.90
730.22	251.48
730.55	251.04
730.89	250.65
731.22	250.17
731.55	249.81
731.88	249.36
732.21	248.72
732.54	248.25
732.87	247.75
733.20	247.33
733.53	246.88
733.86	246.50
734.19	246.06
734.52	245.62
734.85	245.47
735.18	245.07
735.51	244.69
735.84	244.30
736.17	243.96
736.50	243.50
736.83	243.35
737.16	242.98
737.49	242.63
737.82	242.21
738.15	241.93
738.48	241.49
738.81	241.06
739.14	240.91
739.47	240.62
739.80	240.23
740.13	239.94
740.46	239.68
740.79	239.27
741.12	238.97
741.45	238.69
741.78	238.33
742.11	238.10
742.44	237.77
742.77	237.51
743.10	237.15
743.43	236.96
743.75	236.44
744.08	236.38
744.41	236.09
744.74	235.82
745.07	235.48
745.40	235.29
745.73	235.14
746.06	234.81
746.39	234.52
746.71	234.32
747.04	234.02
747.37	233.70
747.70	233.56
748.03	233.30
748.36	233.04
748.68	232.74
749.01	232.37
749.34	232.11
749.67	231.84
750.00	231.67
750.33	231.44
750.65	231.21
750.98	230.69
751.31	230.44
751.64	230.26
751.97	230.21
752.29	229.87
752.62	229.55
752.95	229.27
753.28	228.99
753.60	228.67
753.93	228.44
754.26	228.17
754.59	227.84
754.91	227.56
755.24	227.35
755.57	227.10
755.90	226.96
756.22	226.75
756.55	226.55
756.88	226.29
757.20	225.99
757.53	225.75
757.86	225.56
758.19	225.33
758.51	225.12
758.84	224.76
759.17	224.69
759.49	224.44
759.82	224.40
760.15	224.29
760.47	224.20
760.80	224.05
761.13	224.00
761.45	223.86
761.78	223.71
762.11	223.55
762.43	223.35
762.76	223.24
763.08	223.12
763.41	222.95
763.74	222.81
764.06	222.75
764.39	222.64
764.71	222.56
765.04	222.40
765.37	222.31
765.69	222.26
766.02	222.14
766.34	222.04
766.67	221.85
767.00	221.75
767.32	221.67
767.65	221.71
767.97	221.60
768.30	221.46
768.62	221.41
768.95	221.30
769.27	221.21
769.60	221.10
769.92	220.95
770.25	220.86
770.57	220.70
770.90	220.55
771.22	220.40
771.55	220.30
771.87	220.24
772.20	220.03
772.52	220.01
772.85	220.05
773.17	219.98
773.50	219.86
773.82	219.77
774.15	219.65
774.47	219.35
774.80	219.19
775.12	219.11
775.45	218.92
775.77	218.80
776.09	218.71
776.42	218.55
776.74	218.57
777.07	218.47
777.39	218.43
777.72	218.38
778.04	218.31
778.36	218.17
778.69	218.14
779.01	218.14
779.33	217.88
779.66	217.58
779.98	217.45
780.31	217.33
780.63	217.26
780.95	217.20
781.28	217.15
781.60	217.10
781.92	217.08
782.25	217.08
782.57	217.03
782.89	216.98
783.22	216.94
783.54	216.76
783.86	216.70
784.19	216.58
784.51	216.54
784.83	216.50
785.16	216.49
785.48	216.37
785.80	216.29
786.12	216.31
786.45	216.31
