SpectraSuite Data File
++++++++++++++++++++++++++++++++++++
Date: Mon Feb 25 17:30:02 EST 2013
User: group
Dark Spectrum Present: No
Reference Spectrum Present: No
Number of Sampled Component Spectra: 1
Spectrometers: USB2E7196
Integration Time (usec): 52000 (USB2E7196)
Spectra Averaged: 20 (USB2E7196)
Boxcar Smoothing: 10 (USB2E7196)
Correct for Electrical Dark: No (USB2E7196)
Strobe/Lamp Enabled: No (USB2E7196)
Correct for Detector Non-linearity: No (USB2E7196)
Correct for Stray Light: No (USB2E7196)
Number of Pixels in Processed Spectrum: 2048
>>>>>Begin Processed Spectral Data<<<<<
339.09	0.00
339.48	200.70
339.86	201.60
340.24	202.75
340.63	203.00
341.01	207.40
341.39	206.00
341.78	207.65
342.16	208.00
342.54	208.80
342.93	198.69
343.31	208.70
343.69	209.11
344.07	209.48
344.46	209.86
344.84	210.26
345.22	210.40
345.60	210.65
345.99	210.85
346.37	211.05
346.75	211.22
347.13	211.33
347.52	211.44
347.90	211.53
348.28	211.61
348.66	211.65
349.05	211.60
349.43	211.63
349.81	211.61
350.19	211.71
350.57	211.76
350.96	211.80
351.34	211.92
351.72	212.09
352.10	212.20
352.48	212.29
352.87	212.30
353.25	212.38
353.63	212.40
354.01	212.47
354.39	212.50
354.77	212.52
355.15	212.60
355.54	212.65
355.92	212.57
356.30	212.64
356.68	212.78
357.06	212.83
357.44	212.85
357.82	212.89
358.20	212.87
358.58	212.99
358.97	213.05
359.35	213.09
359.73	213.14
360.11	213.19
360.49	213.23
360.87	213.29
361.25	213.39
361.63	213.55
362.01	213.58
362.39	213.64
362.77	213.68
363.15	213.72
363.53	213.67
363.91	213.69
364.29	213.67
364.67	213.57
365.05	213.65
365.43	213.69
365.81	213.76
366.19	213.85
366.57	213.90
366.95	213.88
367.33	213.85
367.71	213.80
368.09	213.85
368.47	213.88
368.85	213.90
369.23	213.93
369.61	213.83
369.99	213.85
370.37	213.79
370.75	213.81
371.13	213.86
371.51	213.91
371.89	214.01
372.27	213.99
372.65	213.94
373.03	213.87
373.41	213.89
373.78	213.78
374.16	213.62
374.54	213.55
374.92	213.49
375.30	213.40
375.68	213.40
376.06	213.32
376.44	213.28
376.82	213.20
377.19	213.11
377.57	213.10
377.95	212.98
378.33	212.98
378.71	212.92
379.09	212.78
379.47	212.65
379.84	212.55
380.22	212.48
380.60	212.42
380.98	212.33
381.36	212.25
381.73	212.26
382.11	212.27
382.49	212.25
382.87	212.12
383.25	212.20
383.62	212.28
384.00	212.23
384.38	212.04
384.76	212.08
385.13	212.11
385.51	212.02
385.89	212.03
386.27	212.05
386.64	212.02
387.02	212.04
387.40	212.09
387.78	212.01
388.15	212.01
388.53	212.03
388.91	212.01
389.29	211.97
389.66	211.98
390.04	211.95
390.42	211.85
390.79	211.96
391.17	211.91
391.55	211.72
391.92	211.75
392.30	211.82
392.68	211.70
393.05	211.67
393.43	211.72
393.81	211.73
394.18	211.61
394.56	211.56
394.94	211.52
395.31	211.46
395.69	211.55
396.06	211.60
396.44	211.55
396.82	211.56
397.19	211.66
397.57	211.67
397.95	211.70
398.32	211.77
398.70	211.80
399.07	211.85
399.45	211.91
399.82	211.96
400.20	212.05
400.58	212.16
400.95	212.14
401.33	212.20
401.70	212.33
402.08	212.37
402.45	212.41
402.83	212.50
403.20	212.58
403.58	212.60
403.95	212.59
404.33	212.68
404.71	212.81
405.08	213.02
405.46	213.05
405.83	213.12
406.21	213.17
406.58	213.28
406.96	213.40
407.33	213.57
407.70	213.73
408.08	213.94
408.45	214.13
408.83	214.38
409.20	214.53
409.58	214.65
409.95	214.98
410.33	215.25
410.70	215.54
411.08	215.90
411.45	216.28
411.82	216.70
412.20	217.07
412.57	217.52
412.95	217.71
413.32	218.33
413.69	218.80
414.07	219.32
414.44	219.91
414.82	220.48
415.19	221.17
415.56	221.89
415.94	222.64
416.31	223.53
416.68	224.32
417.06	225.31
417.43	226.20
417.81	227.27
418.18	228.42
418.55	229.57
418.93	230.75
419.30	232.03
419.67	233.36
420.04	234.71
420.42	236.18
420.79	237.93
421.16	239.55
421.54	241.25
421.91	243.06
422.28	244.86
422.66	246.81
423.03	248.76
423.40	250.77
423.77	252.90
424.15	254.99
424.52	257.25
424.89	259.72
425.26	262.12
425.64	264.34
426.01	266.83
426.38	269.45
426.75	272.14
427.13	274.90
427.50	277.79
427.87	280.92
428.24	283.90
428.61	286.72
428.99	289.84
429.36	293.28
429.73	296.59
430.10	299.98
430.47	303.43
430.85	306.94
431.22	310.65
431.59	314.70
431.96	318.45
432.33	322.72
432.70	326.75
433.08	331.45
433.45	335.90
433.82	340.35
434.19	345.19
434.56	349.94
434.93	354.51
435.30	359.04
435.68	364.05
436.05	369.00
436.42	373.98
436.79	378.45
437.16	383.35
437.53	388.45
437.90	393.57
438.27	398.58
438.64	403.68
439.01	408.45
439.38	412.63
439.75	416.69
440.13	421.46
440.50	425.94
440.87	429.70
441.24	433.48
441.61	437.31
441.98	440.26
442.35	443.78
442.72	447.20
443.09	450.56
443.46	452.53
443.83	453.93
444.20	454.99
444.57	456.85
444.94	457.47
445.31	458.30
445.68	459.00
446.05	459.31
446.42	458.77
446.79	458.16
447.16	457.39
447.53	456.84
447.90	454.48
448.27	452.35
448.64	449.51
449.01	447.39
449.37	444.12
449.74	440.80
450.11	436.69
450.48	432.43
450.85	428.05
451.22	424.21
451.59	420.57
451.96	417.21
452.33	412.55
452.70	408.49
453.07	403.56
453.43	398.46
453.80	393.61
454.17	388.99
454.54	384.46
454.91	379.71
455.28	375.24
455.65	371.21
456.02	367.12
456.38	363.49
456.75	359.07
457.12	355.32
457.49	351.65
457.86	348.16
458.23	345.02
458.59	341.70
458.96	338.37
459.33	335.28
459.70	332.20
460.07	329.78
460.43	326.96
460.80	324.41
461.17	322.17
461.54	319.74
461.91	317.47
462.27	315.33
462.64	313.39
463.01	311.26
463.38	309.21
463.74	307.09
464.11	305.33
464.48	303.73
464.85	302.10
465.21	300.87
465.58	299.55
465.95	298.00
466.32	296.58
466.68	295.28
467.05	294.01
467.42	292.71
467.78	291.23
468.15	290.01
468.52	288.97
468.88	287.73
469.25	286.67
469.62	285.88
469.98	284.99
470.35	284.18
470.72	283.35
471.08	282.45
471.45	281.61
471.82	280.77
472.18	280.03
472.55	279.35
472.92	278.60
473.28	278.09
473.65	277.52
474.02	276.95
474.38	276.47
474.75	276.05
475.11	275.69
475.48	275.55
475.85	275.44
476.21	275.26
476.58	275.18
476.94	275.22
477.31	275.12
477.67	275.00
478.04	275.01
478.41	275.11
478.77	275.40
479.14	275.64
479.50	275.96
479.87	276.23
480.23	276.66
480.60	277.05
480.96	277.32
481.33	277.99
481.69	278.62
482.06	279.27
482.42	280.00
482.79	280.71
483.15	281.52
483.52	282.43
483.88	283.45
484.25	284.37
484.61	285.28
484.98	286.27
485.34	287.51
485.71	288.82
486.07	290.16
486.44	291.41
486.80	292.84
487.17	294.50
487.53	296.22
487.90	298.05
488.26	299.98
488.62	302.00
488.99	303.96
489.35	306.09
489.72	308.35
490.08	310.67
490.44	313.24
490.81	315.85
491.17	318.49
491.54	321.28
491.90	324.26
492.26	327.51
492.63	330.97
492.99	334.41
493.36	338.10
493.72	341.98
494.08	346.08
494.45	350.43
494.81	354.87
495.17	359.45
495.54	364.39
495.90	369.37
496.26	374.54
496.63	380.12
496.99	385.92
497.35	391.92
497.72	398.14
498.08	404.50
498.44	411.22
498.80	418.33
499.17	425.75
499.53	433.34
499.89	441.27
500.26	449.23
500.62	457.50
500.98	466.16
501.34	475.20
501.71	484.52
502.07	493.98
502.43	503.77
502.79	513.96
503.16	524.32
503.52	535.10
503.88	546.28
504.24	557.62
504.60	569.14
504.97	581.21
505.33	593.59
505.69	606.75
506.05	619.99
506.41	633.45
506.78	646.92
507.14	660.99
507.50	675.02
507.86	689.79
508.22	704.97
508.59	720.09
508.95	735.87
509.31	751.78
509.67	768.15
510.03	784.69
510.39	801.87
510.75	819.28
511.12	836.99
511.48	855.14
511.84	873.35
512.20	892.02
512.56	910.88
512.92	929.92
513.28	948.93
513.64	968.18
514.00	987.66
514.37	1007.73
514.73	1027.83
515.09	1048.36
515.45	1068.92
515.81	1089.66
516.17	1110.76
516.53	1131.46
516.89	1152.64
517.25	1173.63
517.61	1194.70
517.97	1215.54
518.33	1236.57
518.69	1257.74
519.05	1279.08
519.41	1300.67
519.77	1322.37
520.13	1343.78
520.49	1365.09
520.85	1387.00
521.21	1408.81
521.57	1431.10
521.93	1452.20
522.29	1474.55
522.65	1496.51
523.01	1518.15
523.37	1539.70
523.73	1561.44
524.09	1582.89
524.45	1604.23
524.81	1625.95
525.17	1647.84
525.53	1669.50
525.89	1691.15
526.25	1712.35
526.61	1732.80
526.97	1753.60
527.33	1773.99
527.68	1794.78
528.04	1815.55
528.40	1835.11
528.76	1855.35
529.12	1875.02
529.48	1896.03
529.84	1915.46
530.20	1935.06
530.56	1954.24
530.91	1973.96
531.27	1993.22
531.63	2012.53
531.99	2031.56
532.35	2049.88
532.71	2067.91
533.07	2086.77
533.42	2104.26
533.78	2122.54
534.14	2140.16
534.50	2156.77
534.86	2174.12
535.21	2190.13
535.57	2206.64
535.93	2223.06
536.29	2238.69
536.65	2254.45
537.00	2268.77
537.36	2283.14
537.72	2296.82
538.08	2311.42
538.44	2325.52
538.79	2340.04
539.15	2353.51
539.51	2366.99
539.87	2381.34
540.22	2394.53
540.58	2408.02
540.94	2421.26
541.29	2432.71
541.65	2443.90
542.01	2456.02
542.37	2467.01
542.72	2478.18
543.08	2488.47
543.44	2499.54
543.79	2509.19
544.15	2518.31
544.51	2528.77
544.87	2538.69
545.22	2547.47
545.58	2555.10
545.94	2561.61
546.29	2567.30
546.65	2573.26
547.01	2579.04
547.36	2583.89
547.72	2589.05
548.07	2592.62
548.43	2596.46
548.79	2600.16
549.14	2604.44
549.50	2608.06
549.86	2611.39
550.21	2615.26
550.57	2618.89
550.92	2620.76
551.28	2622.74
551.64	2624.80
551.99	2626.42
552.35	2627.74
552.70	2630.11
553.06	2632.58
553.41	2635.52
553.77	2637.97
554.13	2639.84
554.48	2641.35
554.84	2642.42
555.19	2642.64
555.55	2642.76
555.90	2642.95
556.26	2643.06
556.61	2642.62
556.97	2641.37
557.32	2640.54
557.68	2638.22
558.03	2636.14
558.39	2634.31
558.74	2633.60
559.10	2632.17
559.45	2630.23
559.81	2628.88
560.16	2625.65
560.52	2622.71
560.87	2619.01
561.23	2614.75
561.58	2612.36
561.94	2608.80
562.29	2605.07
562.64	2602.40
563.00	2599.54
563.35	2596.72
563.71	2594.58
564.06	2592.05
564.42	2589.66
564.77	2586.81
565.12	2584.67
565.48	2581.22
565.83	2578.24
566.19	2574.75
566.54	2570.87
566.89	2566.67
567.25	2562.76
567.60	2559.73
567.96	2556.24
568.31	2552.81
568.66	2549.15
569.02	2544.17
569.37	2539.17
569.72	2535.19
570.08	2529.84
570.43	2524.28
570.78	2518.46
571.14	2512.18
571.49	2505.79
571.84	2499.81
572.20	2493.33
572.55	2486.95
572.90	2480.45
573.26	2473.62
573.61	2466.45
573.96	2459.70
574.31	2452.40
574.67	2444.13
575.02	2435.84
575.37	2427.76
575.72	2419.05
576.08	2411.53
576.43	2403.22
576.78	2395.87
577.13	2388.02
577.49	2380.24
577.84	2372.75
578.19	2365.50
578.54	2358.54
578.90	2351.81
579.25	2343.59
579.60	2334.66
579.95	2325.55
580.30	2317.90
580.66	2310.26
581.01	2301.86
581.36	2293.02
581.71	2284.78
582.06	2277.02
582.42	2269.23
582.77	2260.50
583.12	2251.92
583.47	2243.63
583.82	2235.51
584.17	2226.47
584.53	2217.95
584.88	2209.64
585.23	2201.06
585.58	2192.12
585.93	2182.93
586.28	2174.16
586.63	2165.79
586.98	2158.29
587.34	2150.69
587.69	2142.13
588.04	2133.11
588.39	2125.07
588.74	2116.54
589.09	2108.23
589.44	2098.89
589.79	2090.84
590.14	2083.26
590.49	2075.60
590.84	2067.12
591.19	2059.60
591.54	2051.31
591.89	2041.50
592.25	2032.91
592.60	2023.99
592.95	2015.14
593.30	2005.94
593.65	1996.92
594.00	1987.80
594.35	1980.00
594.70	1971.38
595.05	1962.92
595.40	1954.91
595.75	1946.09
596.10	1938.44
596.45	1930.58
596.80	1923.50
597.15	1915.34
597.50	1906.59
597.85	1898.58
598.19	1890.38
598.54	1881.99
598.89	1874.79
599.24	1868.42
599.59	1861.36
599.94	1854.72
600.29	1847.32
600.64	1839.83
600.99	1831.44
601.34	1824.62
601.69	1815.98
602.04	1808.21
602.39	1800.55
602.74	1793.02
603.08	1786.71
603.43	1779.89
603.78	1772.28
604.13	1764.20
604.48	1756.79
604.83	1750.25
605.18	1743.33
605.53	1736.10
605.87	1728.74
606.22	1721.94
606.57	1714.36
606.92	1706.77
607.27	1698.60
607.62	1691.51
607.96	1684.96
608.31	1678.97
608.66	1671.47
609.01	1664.22
609.36	1656.80
609.70	1649.21
610.05	1641.55
610.40	1633.59
610.75	1625.28
611.10	1617.81
611.44	1609.54
611.79	1600.82
612.14	1591.84
612.49	1582.77
612.83	1574.45
613.18	1565.51
613.53	1556.06
613.88	1546.84
614.22	1538.26
614.57	1529.80
614.92	1521.07
615.27	1512.21
615.61	1503.21
615.96	1494.58
616.31	1486.65
616.65	1479.05
617.00	1471.21
617.35	1463.32
617.70	1454.87
618.04	1446.44
618.39	1437.63
618.74	1429.55
619.08	1421.49
619.43	1413.83
619.78	1406.27
620.12	1398.50
620.47	1391.06
620.82	1383.39
621.16	1375.71
621.51	1367.67
621.85	1359.59
622.20	1351.48
622.55	1343.40
622.89	1335.36
623.24	1327.92
623.59	1319.65
623.93	1311.42
624.28	1303.67
624.62	1295.73
624.97	1288.01
625.32	1280.39
625.66	1273.26
626.01	1266.34
626.35	1259.38
626.70	1251.79
627.04	1244.89
627.39	1237.59
627.73	1230.32
628.08	1223.49
628.43	1216.32
628.77	1209.12
629.12	1202.07
629.46	1195.76
629.81	1189.01
630.15	1182.10
630.50	1174.95
630.84	1167.97
631.19	1161.04
631.53	1154.17
631.88	1146.92
632.22	1139.48
632.57	1132.86
632.91	1125.89
633.26	1118.59
633.60	1111.72
633.95	1105.27
634.29	1098.10
634.64	1091.73
634.98	1085.14
635.32	1078.53
635.67	1072.51
636.01	1066.18
636.36	1059.95
636.70	1053.53
637.05	1047.25
637.39	1041.32
637.73	1035.15
638.08	1029.49
638.42	1023.89
638.77	1017.72
639.11	1011.78
639.45	1006.22
639.80	1000.09
640.14	993.67
640.49	987.87
640.83	981.79
641.17	975.70
641.52	969.83
641.86	963.57
642.20	957.57
642.55	951.14
642.89	944.85
643.23	938.87
643.58	933.25
643.92	926.82
644.26	920.81
644.61	914.87
644.95	908.97
645.29	903.08
645.64	896.72
645.98	890.90
646.32	885.09
646.66	879.03
647.01	873.17
647.35	867.81
647.69	861.80
648.04	856.28
648.38	850.44
648.72	844.67
649.06	838.73
649.41	833.07
649.75	827.54
650.09	822.02
650.43	816.18
650.78	810.08
651.12	804.36
651.46	798.73
651.80	793.21
652.14	787.72
652.49	781.88
652.83	776.44
653.17	770.59
653.51	765.09
653.85	759.62
654.20	754.07
654.54	748.32
654.88	743.00
655.22	737.36
655.56	731.78
655.90	726.19
656.25	720.91
656.59	715.55
656.93	710.48
657.27	705.35
657.61	700.15
657.95	695.09
658.29	690.10
658.64	685.22
658.98	680.07
659.32	674.76
659.66	669.90
660.00	664.69
660.34	659.76
660.68	654.56
661.02	649.69
661.36	644.97
661.70	640.31
662.05	635.89
662.39	631.55
662.73	627.46
663.07	623.35
663.41	619.13
663.75	614.73
664.09	610.15
664.43	605.74
664.77	601.58
665.11	597.51
665.45	593.32
665.79	589.00
666.13	584.79
666.47	580.89
666.81	576.72
667.15	572.85
667.49	569.19
667.83	565.51
668.17	561.91
668.51	558.24
668.85	554.69
669.19	551.00
669.53	547.19
669.87	543.21
670.21	539.43
670.55	535.60
670.89	532.24
671.23	528.99
671.57	525.67
671.91	522.24
672.25	518.69
672.58	515.43
672.92	512.15
673.26	509.14
673.60	505.97
673.94	502.98
674.28	499.82
674.62	496.72
674.96	493.84
675.30	490.81
675.64	487.82
675.97	484.88
676.31	482.00
676.65	479.24
676.99	476.71
677.33	473.95
677.67	471.22
678.01	468.26
678.34	465.54
678.68	462.61
679.02	459.72
679.36	457.06
679.70	454.37
680.04	451.69
680.37	448.87
680.71	446.21
681.05	443.56
681.39	440.87
681.73	438.25
682.06	435.83
682.40	433.30
682.74	430.72
683.08	428.24
683.42	425.73
683.75	423.18
684.09	420.54
684.43	418.16
684.77	415.66
685.10	413.38
685.44	410.90
685.78	408.49
686.12	406.41
686.45	404.13
686.79	401.91
687.13	399.75
687.46	397.47
687.80	395.26
688.14	393.00
688.48	391.08
688.81	388.89
689.15	386.61
689.49	384.53
689.82	382.44
690.16	380.10
690.50	377.91
690.83	375.85
691.17	373.78
691.51	371.57
691.84	369.59
692.18	367.42
692.52	365.38
692.85	363.64
693.19	361.81
693.52	359.92
693.86	357.96
694.20	356.16
694.53	354.53
694.87	352.61
695.21	350.83
695.54	348.86
695.88	347.10
696.21	345.38
696.55	343.70
696.88	342.05
697.22	340.46
697.56	338.96
697.89	337.45
698.23	335.96
698.56	334.55
698.90	333.15
699.23	331.68
699.57	330.29
699.90	328.75
700.24	327.15
700.58	325.60
700.91	324.17
701.25	322.78
701.58	321.33
701.92	319.98
702.25	318.58
702.59	317.36
702.92	316.11
703.26	314.80
703.59	313.53
703.93	312.40
704.26	311.17
704.60	309.90
704.93	308.60
705.26	307.39
705.60	306.18
705.93	304.90
706.27	303.85
706.60	302.76
706.94	301.72
707.27	300.50
707.61	299.52
707.94	298.43
708.27	297.25
708.61	296.20
708.94	295.20
709.28	294.26
709.61	293.17
709.94	292.12
710.28	291.13
710.61	290.11
710.95	289.01
711.28	288.13
711.61	287.18
711.95	286.30
712.28	285.33
712.61	284.39
712.95	283.61
713.28	282.73
713.61	281.81
713.95	280.92
714.28	280.23
714.61	279.35
714.95	278.48
715.28	277.60
715.61	276.70
715.95	275.89
716.28	275.02
716.61	274.23
716.95	273.42
717.28	272.73
717.61	271.97
717.94	271.29
718.28	270.54
718.61	269.76
718.94	268.91
719.27	268.20
719.61	267.53
719.94	266.80
720.27	266.10
720.60	265.39
720.94	264.65
721.27	263.88
721.60	263.24
721.93	262.66
722.27	262.20
722.60	261.67
722.93	261.08
723.26	260.47
723.59	259.89
723.93	259.25
724.26	258.58
724.59	258.02
724.92	257.45
725.25	256.90
725.59	256.38
725.92	255.88
726.25	255.38
726.58	254.82
726.91	254.34
727.24	253.90
727.57	253.39
727.91	252.82
728.24	252.42
728.57	251.98
728.90	251.55
729.23	251.01
729.56	250.56
729.89	250.04
730.22	249.65
730.55	249.24
730.89	248.86
731.22	248.48
731.55	248.00
731.88	247.56
732.21	247.10
732.54	246.62
732.87	246.21
733.20	245.73
733.53	245.40
733.86	245.01
734.19	244.50
734.52	244.17
734.85	244.02
735.18	243.62
735.51	243.32
735.84	242.95
736.17	242.64
736.50	242.16
736.83	242.04
737.16	241.75
737.49	241.41
737.82	241.07
738.15	240.70
738.48	240.40
738.81	240.13
739.14	239.82
739.47	239.52
739.80	239.22
740.13	238.93
740.46	238.47
740.79	238.06
741.12	237.74
741.45	237.38
741.78	236.94
742.11	236.77
742.44	236.35
742.77	236.11
743.10	235.72
743.43	235.48
743.75	234.98
744.08	234.85
744.41	234.53
744.74	234.21
745.07	233.90
745.40	233.68
745.73	233.44
746.06	233.10
746.39	232.83
746.71	232.55
747.04	232.27
747.37	232.01
747.70	231.76
748.03	231.53
748.36	231.39
748.68	231.13
749.01	230.71
749.34	230.52
749.67	230.33
750.00	230.15
750.33	230.07
750.65	229.89
750.98	229.43
751.31	229.21
751.64	229.05
751.97	229.00
752.29	228.71
752.62	228.37
752.95	228.16
753.28	227.88
753.60	227.67
753.93	227.52
754.26	227.34
754.59	227.16
754.91	226.96
755.24	226.68
755.57	226.51
755.90	226.36
756.22	226.19
756.55	225.82
756.88	225.63
757.20	225.27
757.53	225.03
757.86	224.83
758.19	224.62
758.51	224.44
758.84	224.06
759.17	223.86
759.49	223.71
759.82	223.63
760.15	223.59
760.47	223.39
760.80	223.20
761.13	223.15
761.45	222.92
761.78	222.77
762.11	222.63
762.43	222.48
762.76	222.37
763.08	222.17
763.41	222.03
763.74	221.93
764.06	221.82
764.39	221.75
764.71	221.65
765.04	221.53
765.37	221.45
765.69	221.39
766.02	221.34
766.34	221.20
766.67	221.06
767.00	220.96
767.32	221.00
767.65	221.02
767.97	220.90
768.30	220.88
768.62	220.77
768.95	220.70
769.27	220.57
769.60	220.47
769.92	220.37
770.25	220.33
770.57	220.18
770.90	220.09
771.22	219.89
771.55	219.75
771.87	219.68
772.20	219.52
772.52	219.55
772.85	219.70
773.17	219.65
773.50	219.60
773.82	219.44
774.15	219.28
774.47	219.05
774.80	218.96
775.12	218.90
775.45	218.85
775.77	218.81
776.09	218.75
776.42	218.69
776.74	218.70
777.07	218.64
777.39	218.61
777.72	218.47
778.04	218.44
778.36	218.36
778.69	218.34
779.01	218.32
779.33	218.11
779.66	217.83
779.98	217.74
780.31	217.66
780.63	217.68
780.95	217.62
781.28	217.55
781.60	217.41
781.92	217.35
782.25	217.26
782.57	217.20
782.89	217.16
783.22	217.07
783.54	217.01
783.86	216.96
784.19	216.90
784.51	216.93
784.83	216.88
785.16	216.90
785.48	216.82
785.80	216.70
786.12	216.67
786.45	216.49
786.77	216.47
