SpectraSuite Data File
++++++++++++++++++++++++++++++++++++
Date: Mon Feb 25 17:33:11 EST 2013
User: group
Dark Spectrum Present: No
Reference Spectrum Present: No
Number of Sampled Component Spectra: 1
Spectrometers: USB2E7196
Integration Time (usec): 52000 (USB2E7196)
Spectra Averaged: 20 (USB2E7196)
Boxcar Smoothing: 10 (USB2E7196)
Correct for Electrical Dark: No (USB2E7196)
Strobe/Lamp Enabled: No (USB2E7196)
Correct for Detector Non-linearity: No (USB2E7196)
Correct for Stray Light: No (USB2E7196)
Number of Pixels in Processed Spectrum: 2048
>>>>>Begin Processed Spectral Data<<<<<
339.09	0.00
339.48	199.00
339.86	200.05
340.24	201.30
340.63	202.30
341.01	206.45
341.39	206.15
341.78	207.35
342.16	208.40
342.54	208.40
342.93	197.92
343.31	207.95
343.69	208.47
344.07	208.91
344.46	209.33
344.84	209.75
345.22	209.93
345.60	210.15
345.99	210.36
346.37	210.44
346.75	210.49
347.13	210.56
347.52	210.60
347.90	210.75
348.28	210.84
348.66	210.89
349.05	210.82
349.43	210.90
349.81	210.95
350.19	210.95
350.57	211.03
350.96	211.02
351.34	211.12
351.72	211.27
352.10	211.36
352.48	211.42
352.87	211.47
353.25	211.56
353.63	211.68
354.01	211.63
354.39	211.72
354.77	211.88
355.15	211.97
355.54	212.13
355.92	212.10
356.30	212.15
356.68	212.37
357.06	212.43
357.44	212.43
357.82	212.45
358.20	212.64
358.58	212.69
358.97	212.84
359.35	212.87
359.73	212.90
360.11	212.95
360.49	213.06
360.87	213.12
361.25	213.20
361.63	213.27
362.01	213.48
362.39	213.56
362.77	213.59
363.15	213.64
363.53	213.59
363.91	213.64
364.29	213.68
364.67	213.50
365.05	213.54
365.43	213.63
365.81	213.78
366.19	213.83
366.57	213.91
366.95	213.86
367.33	213.90
367.71	213.94
368.09	214.04
368.47	214.02
368.85	214.02
369.23	214.05
369.61	214.02
369.99	214.00
370.37	214.01
370.75	214.09
371.13	214.12
371.51	214.15
371.89	214.13
372.27	214.05
372.65	214.05
373.03	214.10
373.41	214.04
373.78	213.90
374.16	213.78
374.54	213.73
374.92	213.76
375.30	213.73
375.68	213.68
376.06	213.64
376.44	213.62
376.82	213.60
377.19	213.54
377.57	213.45
377.95	213.32
378.33	213.31
378.71	213.21
379.09	213.15
379.47	213.06
379.84	213.02
380.22	213.06
380.60	213.01
380.98	212.93
381.36	212.87
381.73	212.82
382.11	212.79
382.49	212.73
382.87	212.66
383.25	212.55
383.62	212.73
384.00	212.64
384.38	212.58
384.76	212.57
385.13	212.59
385.51	212.51
385.89	212.45
386.27	212.33
386.64	212.32
387.02	212.22
387.40	212.28
387.78	212.27
388.15	212.20
388.53	212.24
388.91	212.24
389.29	212.21
389.66	212.23
390.04	212.15
390.42	212.11
390.79	212.02
391.17	212.05
391.55	211.76
391.92	211.76
392.30	211.77
392.68	211.75
393.05	211.74
393.43	211.75
393.81	211.78
394.18	211.77
394.56	211.73
394.94	211.79
395.31	211.68
395.69	211.65
396.06	211.70
396.44	211.67
396.82	211.63
397.19	211.72
397.57	211.70
397.95	211.80
398.32	211.75
398.70	211.81
399.07	211.80
399.45	211.84
399.82	211.93
400.20	211.95
400.58	212.03
400.95	211.94
401.33	212.04
401.70	212.21
402.08	212.28
402.45	212.37
402.83	212.49
403.20	212.57
403.58	212.70
403.95	212.81
404.33	212.89
404.71	213.00
405.08	213.27
405.46	213.35
405.83	213.42
406.21	213.62
406.58	213.79
406.96	214.00
407.33	214.12
407.70	214.27
408.08	214.61
408.45	214.80
408.83	215.16
409.20	215.38
409.58	215.56
409.95	215.87
410.33	216.12
410.70	216.34
411.08	216.74
411.45	217.10
411.82	217.46
412.20	217.96
412.57	218.48
412.95	218.72
413.32	219.30
413.69	219.91
414.07	220.44
414.44	221.04
414.82	221.74
415.19	222.52
415.56	223.23
415.94	223.93
416.31	224.77
416.68	225.58
417.06	226.66
417.43	227.65
417.81	228.73
418.18	229.94
418.55	231.12
418.93	232.42
419.30	233.69
419.67	235.13
420.04	236.48
420.42	237.98
420.79	239.78
421.16	241.50
421.54	243.27
421.91	245.11
422.28	247.05
422.66	248.98
423.03	251.08
423.40	253.10
423.77	255.34
424.15	257.59
424.52	259.92
424.89	262.40
425.26	264.83
425.64	267.15
426.01	269.63
426.38	272.38
426.75	275.08
427.13	277.86
427.50	280.68
427.87	283.83
428.24	286.92
428.61	289.84
428.99	293.00
429.36	296.42
429.73	299.92
430.10	303.29
430.47	306.90
430.85	310.52
431.22	314.48
431.59	318.62
431.96	322.49
432.33	326.86
432.70	331.03
433.08	335.86
433.45	340.60
433.82	345.24
434.19	350.13
434.56	355.13
434.93	359.96
435.30	364.87
435.68	369.94
436.05	375.03
436.42	380.15
436.79	384.84
437.16	389.93
437.53	395.26
437.90	400.57
438.27	405.63
438.64	410.91
439.01	415.81
439.38	420.20
439.75	424.40
440.13	429.13
440.50	433.68
440.87	437.36
441.24	440.99
441.61	445.21
441.98	448.37
442.35	452.03
442.72	455.65
443.09	458.98
443.46	461.15
443.83	462.61
444.20	463.78
444.57	465.56
444.94	466.40
445.31	467.15
445.68	467.93
446.05	468.18
446.42	467.51
446.79	466.70
447.16	465.80
447.53	465.23
447.90	463.17
448.27	461.06
448.64	458.21
449.01	456.28
449.37	452.60
449.74	449.15
450.11	444.93
450.48	440.42
450.85	435.87
451.22	431.96
451.59	428.16
451.96	424.59
452.33	419.75
452.70	415.43
453.07	410.26
453.43	405.10
453.80	400.18
454.17	395.38
454.54	390.87
454.91	386.05
455.28	381.32
455.65	376.99
456.02	372.76
456.38	369.12
456.75	364.42
457.12	360.69
457.49	356.87
457.86	353.12
458.23	349.97
458.59	346.56
458.96	342.96
459.33	339.86
459.70	336.71
460.07	334.25
460.43	331.30
460.80	328.65
461.17	326.24
461.54	323.81
461.91	321.57
462.27	319.25
462.64	317.24
463.01	315.03
463.38	312.89
463.74	310.57
464.11	308.64
464.48	306.95
464.85	305.07
465.21	303.78
465.58	302.38
465.95	300.66
466.32	299.25
466.68	297.85
467.05	296.46
467.42	295.14
467.78	293.71
468.15	292.34
468.52	291.32
468.88	290.00
469.25	288.80
469.62	287.92
469.98	286.94
470.35	286.00
470.72	285.11
471.08	284.18
471.45	283.46
471.82	282.71
472.18	281.83
472.55	281.29
472.92	280.55
473.28	279.92
473.65	279.31
474.02	278.66
474.38	278.29
474.75	277.82
475.11	277.35
475.48	277.13
475.85	276.95
476.21	276.76
476.58	276.62
476.94	276.62
477.31	276.48
477.67	276.47
478.04	276.52
478.41	276.71
478.77	276.99
479.14	277.10
479.50	277.31
479.87	277.72
480.23	278.12
480.60	278.43
480.96	278.89
481.33	279.48
481.69	280.16
482.06	280.80
482.42	281.50
482.79	282.27
483.15	283.12
483.52	284.12
483.88	285.08
484.25	286.05
484.61	287.07
484.98	288.15
485.34	289.41
485.71	290.77
486.07	292.16
486.44	293.45
486.80	294.96
487.17	296.64
487.53	298.42
487.90	300.11
488.26	302.16
488.62	304.21
488.99	306.36
489.35	308.47
489.72	310.71
490.08	313.15
490.44	315.69
490.81	318.25
491.17	320.92
491.54	323.76
491.90	326.71
492.26	329.83
492.63	333.24
492.99	336.60
493.36	340.20
493.72	344.11
494.08	348.09
494.45	352.51
494.81	356.95
495.17	361.56
495.54	366.51
495.90	371.44
496.26	376.65
496.63	382.12
496.99	387.88
497.35	393.93
497.72	400.18
498.08	406.58
498.44	413.51
498.80	420.75
499.17	428.29
499.53	436.09
499.89	444.24
500.26	452.25
500.62	460.73
500.98	469.53
501.34	478.53
501.71	487.92
502.07	497.44
502.43	507.33
502.79	517.46
503.16	528.10
503.52	539.12
503.88	550.26
504.24	561.69
504.60	573.51
504.97	585.83
505.33	598.30
505.69	611.61
506.05	624.81
506.41	638.28
506.78	651.80
507.14	666.00
507.50	680.41
507.86	695.35
508.22	710.65
508.59	726.29
508.95	742.36
509.31	758.75
509.67	775.47
510.03	792.43
510.39	810.12
510.75	827.76
511.12	845.73
511.48	864.12
511.84	882.85
512.20	901.54
512.56	920.76
512.92	940.14
513.28	959.60
513.64	979.53
514.00	999.49
514.37	1020.03
514.73	1040.67
515.09	1061.52
515.45	1082.47
515.81	1103.74
516.17	1125.00
516.53	1146.50
516.89	1168.03
517.25	1189.67
517.61	1211.48
517.97	1232.68
518.33	1254.38
518.69	1276.00
519.05	1298.09
519.41	1320.57
519.77	1343.23
520.13	1365.13
520.49	1387.44
520.85	1410.31
521.21	1432.99
521.57	1456.14
521.93	1478.10
522.29	1500.96
522.65	1523.70
523.01	1546.45
523.37	1568.41
523.73	1590.82
524.09	1612.88
524.45	1635.03
524.81	1657.36
525.17	1679.62
525.53	1702.36
525.89	1724.78
526.25	1747.15
526.61	1768.62
526.97	1790.06
527.33	1811.44
527.68	1833.08
528.04	1854.34
528.40	1874.50
528.76	1894.96
529.12	1915.56
529.48	1937.44
529.84	1957.64
530.20	1977.65
530.56	1997.94
530.91	2018.82
531.27	2038.95
531.63	2058.79
531.99	2078.93
532.35	2098.19
532.71	2117.19
533.07	2136.60
533.42	2154.86
533.78	2173.70
534.14	2192.30
534.50	2209.83
534.86	2227.92
535.21	2244.95
535.57	2262.72
535.93	2280.23
536.29	2297.29
536.65	2314.14
537.00	2329.28
537.36	2344.81
537.72	2360.35
538.08	2375.64
538.44	2390.81
538.79	2406.25
539.15	2421.16
539.51	2435.70
539.87	2450.71
540.22	2465.67
540.58	2480.33
540.94	2495.15
541.29	2507.92
541.65	2520.00
542.01	2533.03
542.37	2544.79
542.72	2556.69
543.08	2567.57
543.44	2579.15
543.79	2589.63
544.15	2599.55
544.51	2610.86
544.87	2621.99
545.22	2631.18
545.58	2639.77
545.94	2647.12
546.29	2653.48
546.65	2659.93
547.01	2666.16
547.36	2672.12
547.72	2677.30
548.07	2681.56
548.43	2685.49
548.79	2689.58
549.14	2694.14
549.50	2698.29
549.86	2702.60
550.21	2706.82
550.57	2710.86
550.92	2713.35
551.28	2716.20
551.64	2718.63
551.99	2720.72
552.35	2722.15
552.70	2724.72
553.06	2727.24
553.41	2730.20
553.77	2733.32
554.13	2735.83
554.48	2737.72
554.84	2738.83
555.19	2739.40
555.55	2739.95
555.90	2740.30
556.26	2740.84
556.61	2740.85
556.97	2739.67
557.32	2738.86
557.68	2737.05
558.03	2735.70
558.39	2734.64
558.74	2734.01
559.10	2732.97
559.45	2731.24
559.81	2730.17
560.16	2727.84
560.52	2725.49
560.87	2722.57
561.23	2718.64
561.58	2716.13
561.94	2712.97
562.29	2709.48
562.64	2707.45
563.00	2704.88
563.35	2702.53
563.71	2700.86
564.06	2698.72
564.42	2697.11
564.77	2694.81
565.12	2693.14
565.48	2690.01
565.83	2686.72
566.19	2683.49
566.54	2679.01
566.89	2675.36
567.25	2671.70
567.60	2668.50
567.96	2664.72
568.31	2661.58
568.66	2658.20
569.02	2653.76
569.37	2648.83
569.72	2644.94
570.08	2639.70
570.43	2634.28
570.78	2628.83
571.14	2622.28
571.49	2615.73
571.84	2609.60
572.20	2602.76
572.55	2596.43
572.90	2589.46
573.26	2582.73
573.61	2575.35
573.96	2569.00
574.31	2561.20
574.67	2552.78
575.02	2543.99
575.37	2535.20
575.72	2525.93
576.08	2518.00
576.43	2509.23
576.78	2501.06
577.13	2493.19
577.49	2484.75
577.84	2476.87
578.19	2469.03
578.54	2461.77
578.90	2455.09
579.25	2446.26
579.60	2437.24
579.95	2427.57
580.30	2419.64
580.66	2411.19
581.01	2402.08
581.36	2392.76
581.71	2384.30
582.06	2375.87
582.42	2367.63
582.77	2358.85
583.12	2350.09
583.47	2341.78
583.82	2333.41
584.17	2324.50
584.53	2315.16
584.88	2306.44
585.23	2297.15
585.58	2287.47
585.93	2277.50
586.28	2268.06
586.63	2259.32
586.98	2251.12
587.34	2243.30
587.69	2234.22
588.04	2225.40
588.39	2217.32
588.74	2208.41
589.09	2199.55
589.44	2189.70
589.79	2181.28
590.14	2173.71
590.49	2165.16
590.84	2155.76
591.19	2147.64
591.54	2138.98
591.89	2129.20
592.25	2120.28
592.60	2110.86
592.95	2101.68
593.30	2092.41
593.65	2082.48
594.00	2072.74
594.35	2064.30
594.70	2054.91
595.05	2046.20
595.40	2037.25
595.75	2027.41
596.10	2019.37
596.45	2010.94
596.80	2003.62
597.15	1995.04
597.50	1985.66
597.85	1976.92
598.19	1968.34
598.54	1959.77
598.89	1951.70
599.24	1944.63
599.59	1936.90
599.94	1929.74
600.29	1921.98
600.64	1913.93
600.99	1905.89
601.34	1898.87
601.69	1890.17
602.04	1881.91
602.39	1873.69
602.74	1865.78
603.08	1859.25
603.43	1851.70
603.78	1843.82
604.13	1835.71
604.48	1828.05
604.83	1820.90
605.18	1814.07
605.53	1806.30
605.87	1798.62
606.22	1791.60
606.57	1783.91
606.92	1775.82
607.27	1767.76
607.62	1760.50
607.96	1753.85
608.31	1747.30
608.66	1739.38
609.01	1731.68
609.36	1724.15
609.70	1716.45
610.05	1708.75
610.40	1700.36
610.75	1691.85
611.10	1683.92
611.44	1674.58
611.79	1665.37
612.14	1655.95
612.49	1646.48
612.83	1638.06
613.18	1628.20
613.53	1618.50
613.88	1608.69
614.22	1599.70
614.57	1590.45
614.92	1580.85
615.27	1571.44
615.61	1561.51
615.96	1552.59
616.31	1544.00
616.65	1535.71
617.00	1527.21
617.35	1518.54
617.70	1509.70
618.04	1500.91
618.39	1491.47
618.74	1483.27
619.08	1474.68
619.43	1466.52
619.78	1458.54
620.12	1450.23
620.47	1442.52
620.82	1434.31
621.16	1425.96
621.51	1417.78
621.85	1409.48
622.20	1401.13
622.55	1392.55
622.89	1384.51
623.24	1376.55
623.59	1367.82
623.93	1359.22
624.28	1350.84
624.62	1342.65
624.97	1334.58
625.32	1326.58
625.66	1319.48
626.01	1312.02
626.35	1304.65
626.70	1296.90
627.04	1289.39
627.39	1281.70
627.73	1274.22
628.08	1267.35
628.43	1260.10
628.77	1252.42
629.12	1244.95
629.46	1238.36
629.81	1231.14
630.15	1223.84
630.50	1216.29
630.84	1209.25
631.19	1202.16
631.53	1195.20
631.88	1187.77
632.22	1180.26
632.57	1173.60
632.91	1165.87
633.26	1158.52
633.60	1151.40
633.95	1144.72
634.29	1137.45
634.64	1130.84
634.98	1123.66
635.32	1116.45
635.67	1110.05
636.01	1103.47
636.36	1096.84
636.70	1090.15
637.05	1083.60
637.39	1077.35
637.73	1070.97
638.08	1064.97
638.42	1058.95
638.77	1052.53
639.11	1046.16
639.45	1040.02
639.80	1033.10
640.14	1026.88
640.49	1020.65
640.83	1014.45
641.17	1008.16
641.52	1002.02
641.86	995.41
642.20	989.18
642.55	982.47
642.89	975.83
643.23	969.46
643.58	963.42
643.92	956.73
644.26	950.50
644.61	944.10
644.95	937.97
645.29	931.60
645.64	925.12
645.98	919.00
646.32	913.20
646.66	906.92
647.01	901.14
647.35	895.31
647.69	888.96
648.04	882.93
648.38	877.00
648.72	870.99
649.06	864.89
649.41	858.88
649.75	853.13
650.09	847.21
650.43	841.27
650.78	835.00
651.12	829.07
651.46	823.19
651.80	817.27
652.14	811.30
652.49	805.45
652.83	799.75
653.17	793.68
653.51	787.55
653.85	781.95
654.20	776.23
654.54	770.44
654.88	764.99
655.22	759.18
655.56	753.11
655.90	747.26
656.25	741.63
656.59	736.13
656.93	730.64
657.27	725.71
657.61	720.29
657.95	715.44
658.29	710.44
658.64	705.38
658.98	700.28
659.32	694.87
659.66	689.77
660.00	684.12
660.34	678.97
660.68	673.92
661.02	668.89
661.36	663.96
661.70	659.05
662.05	654.28
662.39	649.97
662.73	645.77
663.07	641.51
663.41	637.17
663.75	632.54
664.09	628.07
664.43	623.23
664.77	618.83
665.11	614.25
665.45	609.81
665.79	605.43
666.13	601.11
666.47	597.02
666.81	592.66
667.15	588.80
667.49	584.95
667.83	581.12
668.17	577.18
668.51	573.42
668.85	569.66
669.19	565.97
669.53	562.01
669.87	557.97
670.21	554.10
670.55	550.20
670.89	546.78
671.23	543.43
671.57	539.90
671.91	536.45
672.25	532.87
672.58	529.26
672.92	525.78
673.26	522.69
673.60	519.44
673.94	516.19
674.28	512.89
674.62	509.72
674.96	506.46
675.30	503.40
675.64	500.12
675.97	496.91
676.31	494.03
676.65	491.00
676.99	488.38
677.33	485.44
677.67	482.52
678.01	479.51
678.34	476.48
678.68	473.52
679.02	470.49
679.36	467.68
679.70	464.96
680.04	462.03
680.37	458.82
680.71	455.99
681.05	453.38
681.39	450.73
681.73	448.04
682.06	445.57
682.40	443.02
682.74	440.42
683.08	437.85
683.42	435.11
683.75	432.56
684.09	429.83
684.43	427.30
684.77	424.82
685.10	422.30
685.44	419.61
685.78	417.33
686.12	415.19
686.45	412.87
686.79	410.54
687.13	408.49
687.46	406.41
687.80	404.36
688.14	402.04
688.48	399.97
688.81	397.70
689.15	395.36
689.49	392.98
689.82	390.86
690.16	388.62
690.50	386.36
690.83	384.00
691.17	381.70
691.51	379.44
691.84	377.32
692.18	375.34
692.52	373.44
692.85	371.40
693.19	369.47
693.52	367.49
693.86	365.46
694.20	363.61
694.53	361.75
694.87	359.67
695.21	357.75
695.54	355.66
695.88	353.70
696.21	351.98
696.55	350.29
696.88	348.43
697.22	346.75
697.56	345.12
697.89	343.65
698.23	342.13
698.56	340.66
698.90	339.16
699.23	337.52
699.57	335.90
699.90	334.29
700.24	332.59
700.58	330.98
700.91	329.40
701.25	327.83
701.58	326.28
701.92	324.84
702.25	323.46
702.59	322.21
702.92	320.84
703.26	319.39
703.59	318.03
703.93	316.78
704.26	315.48
704.60	314.22
704.93	312.84
705.26	311.51
705.60	310.23
705.93	308.93
706.27	307.77
706.60	306.71
706.94	305.67
707.27	304.47
707.61	303.35
707.94	302.25
708.27	300.98
708.61	299.93
708.94	298.78
709.28	297.64
709.61	296.53
709.94	295.53
710.28	294.47
710.61	293.40
710.95	292.36
711.28	291.44
711.61	290.40
711.95	289.45
712.28	288.52
712.61	287.46
712.95	286.54
713.28	285.63
713.61	284.58
713.95	283.61
714.28	282.71
714.61	281.84
714.95	280.93
715.28	280.01
715.61	279.07
715.95	278.26
716.28	277.38
716.61	276.60
716.95	275.77
717.28	274.95
717.61	274.14
717.94	273.35
718.28	272.44
718.61	271.65
718.94	270.89
719.27	270.16
719.61	269.60
719.94	268.83
720.27	268.04
720.60	267.35
720.94	266.68
721.27	266.02
721.60	265.37
721.93	264.85
722.27	264.36
722.60	263.76
722.93	263.15
723.26	262.62
723.59	261.95
723.93	261.39
724.26	260.80
724.59	260.25
724.92	259.64
725.25	259.13
725.59	258.59
725.92	258.14
726.25	257.56
726.58	257.01
726.91	256.57
727.24	256.04
727.57	255.57
727.91	254.96
728.24	254.48
728.57	253.96
728.90	253.53
729.23	253.02
729.56	252.65
729.89	252.11
730.22	251.66
730.55	251.20
730.89	250.75
731.22	250.32
731.55	249.92
731.88	249.55
732.21	249.01
732.54	248.58
732.87	248.06
733.20	247.65
733.53	247.21
733.86	246.76
734.19	246.40
734.52	246.08
734.85	245.89
735.18	245.50
735.51	245.20
735.84	244.80
736.17	244.48
736.50	243.97
736.83	243.85
737.16	243.47
737.49	243.07
737.82	242.58
738.15	242.22
738.48	241.85
738.81	241.45
739.14	241.20
739.47	240.76
739.80	240.45
740.13	240.15
740.46	239.73
740.79	239.35
741.12	239.02
741.45	238.64
741.78	238.23
742.11	237.95
742.44	237.62
742.77	237.31
743.10	236.99
743.43	236.67
743.75	236.09
744.08	236.00
744.41	235.69
744.74	235.45
745.07	235.15
745.40	234.92
745.73	234.70
746.06	234.39
746.39	234.25
746.71	233.94
747.04	233.64
747.37	233.38
747.70	233.11
748.03	232.89
748.36	232.63
748.68	232.32
749.01	232.01
749.34	231.71
749.67	231.43
750.00	231.16
750.33	231.09
750.65	230.96
750.98	230.44
751.31	230.22
751.64	230.04
751.97	229.90
752.29	229.64
752.62	229.35
752.95	229.03
753.28	228.69
753.60	228.47
753.93	228.29
754.26	228.15
754.59	227.93
754.91	227.63
755.24	227.42
755.57	227.22
755.90	227.06
756.22	226.88
756.55	226.70
756.88	226.46
757.20	226.20
757.53	225.93
757.86	225.74
758.19	225.61
758.51	225.42
758.84	225.11
759.17	224.91
759.49	224.76
759.82	224.71
760.15	224.62
760.47	224.38
760.80	224.21
761.13	224.04
761.45	223.88
761.78	223.76
762.11	223.54
762.43	223.38
762.76	223.22
763.08	223.03
763.41	222.89
763.74	222.78
764.06	222.50
764.39	222.40
764.71	222.27
765.04	222.15
765.37	221.96
765.69	221.84
766.02	221.73
766.34	221.66
766.67	221.43
767.00	221.37
767.32	221.45
767.65	221.38
767.97	221.21
768.30	221.06
768.62	220.95
768.95	220.90
769.27	220.79
769.60	220.70
769.92	220.63
770.25	220.42
770.57	220.25
770.90	220.17
771.22	220.05
771.55	219.96
771.87	219.85
772.20	219.77
772.52	219.85
772.85	219.99
773.17	219.82
773.50	219.74
773.82	219.57
774.15	219.40
774.47	219.15
774.80	219.09
775.12	219.01
775.45	218.86
775.77	218.67
776.09	218.54
776.42	218.39
776.74	218.27
777.07	218.21
777.39	218.17
777.72	218.17
778.04	218.17
778.36	218.08
778.69	218.00
779.01	217.96
779.33	217.78
779.66	217.51
779.98	217.34
780.31	217.33
780.63	217.26
780.95	217.20
781.28	217.20
781.60	217.12
781.92	217.07
782.25	216.98
782.57	216.97
782.89	216.89
783.22	216.81
783.54	216.71
783.86	216.65
784.19	216.57
784.51	216.54
784.83	216.41
785.16	216.38
785.48	216.30
785.80	216.19
786.12	216.02
786.45	215.96
