SpectraSuite Data File
++++++++++++++++++++++++++++++++++++
Date: Mon Feb 25 17:33:30 EST 2013
User: group
Dark Spectrum Present: No
Reference Spectrum Present: No
Number of Sampled Component Spectra: 1
Spectrometers: USB2E7196
Integration Time (usec): 52000 (USB2E7196)
Spectra Averaged: 20 (USB2E7196)
Boxcar Smoothing: 10 (USB2E7196)
Correct for Electrical Dark: No (USB2E7196)
Strobe/Lamp Enabled: No (USB2E7196)
Correct for Detector Non-linearity: No (USB2E7196)
Correct for Stray Light: No (USB2E7196)
Number of Pixels in Processed Spectrum: 2048
>>>>>Begin Processed Spectral Data<<<<<
339.09	0.00
339.48	199.30
339.86	200.75
340.24	202.20
340.63	203.10
341.01	207.00
341.39	205.75
341.78	207.05
342.16	208.10
342.54	208.15
342.93	198.09
343.31	208.10
343.69	208.70
344.07	209.12
344.46	209.57
344.84	209.99
345.22	210.18
345.60	210.47
345.99	210.65
346.37	210.78
346.75	210.96
347.13	210.99
347.52	211.13
347.90	211.24
348.28	211.31
348.66	211.38
349.05	211.39
349.43	211.40
349.81	211.53
350.19	211.62
350.57	211.71
350.96	211.85
351.34	212.00
351.72	212.00
352.10	212.12
352.48	212.17
352.87	212.18
353.25	212.32
353.63	212.40
354.01	212.57
354.39	212.65
354.77	212.71
355.15	212.84
355.54	212.85
355.92	212.85
356.30	212.94
356.68	213.13
357.06	213.22
357.44	213.32
357.82	213.33
358.20	213.44
358.58	213.46
358.97	213.50
359.35	213.49
359.73	213.55
360.11	213.64
360.49	213.74
360.87	213.80
361.25	213.81
361.63	213.90
362.01	213.86
362.39	213.95
362.77	214.02
363.15	214.02
363.53	214.01
363.91	214.01
364.29	214.00
364.67	213.77
365.05	213.76
365.43	213.80
365.81	213.88
366.19	213.93
366.57	213.93
366.95	213.88
367.33	213.86
367.71	213.89
368.09	213.90
368.47	213.80
368.85	213.75
369.23	213.68
369.61	213.58
369.99	213.62
370.37	213.60
370.75	213.63
371.13	213.56
371.51	213.57
371.89	213.57
372.27	213.53
372.65	213.53
373.03	213.48
373.41	213.42
373.78	213.30
374.16	213.18
374.54	213.15
374.92	213.05
375.30	213.09
375.68	212.99
376.06	212.95
376.44	212.88
376.82	212.88
377.19	212.86
377.57	212.74
377.95	212.65
378.33	212.59
378.71	212.41
379.09	212.39
379.47	212.31
379.84	212.20
380.22	212.14
380.60	212.11
380.98	212.06
381.36	211.95
381.73	211.93
382.11	211.93
382.49	211.91
382.87	211.93
383.25	211.91
383.62	212.03
384.00	211.93
384.38	211.91
384.76	211.90
385.13	211.99
385.51	212.04
385.89	211.95
386.27	211.94
386.64	211.92
387.02	211.89
387.40	211.85
387.78	211.85
388.15	211.89
388.53	211.81
388.91	211.80
389.29	211.78
389.66	211.84
390.04	211.75
390.42	211.74
390.79	211.69
391.17	211.58
391.55	211.53
391.92	211.49
392.30	211.57
392.68	211.52
393.05	211.44
393.43	211.37
393.81	211.45
394.18	211.39
394.56	211.35
394.94	211.44
395.31	211.49
395.69	211.60
396.06	211.55
396.44	211.58
396.82	211.56
397.19	211.72
397.57	211.74
397.95	211.83
398.32	211.79
398.70	211.87
399.07	211.97
399.45	211.89
399.82	211.95
400.20	211.96
400.58	212.06
400.95	212.09
401.33	212.27
401.70	212.44
402.08	212.51
402.45	212.68
402.83	212.73
403.20	212.76
403.58	212.76
403.95	212.91
404.33	213.05
404.71	213.19
405.08	213.32
405.46	213.39
405.83	213.51
406.21	213.68
406.58	213.81
406.96	213.98
407.33	214.20
407.70	214.50
408.08	214.82
408.45	215.01
408.83	215.20
409.20	215.38
409.58	215.55
409.95	215.91
410.33	216.15
410.70	216.46
411.08	216.78
411.45	217.18
411.82	217.49
412.20	217.95
412.57	218.50
412.95	218.80
413.32	219.35
413.69	219.90
414.07	220.53
414.44	221.16
414.82	221.72
415.19	222.38
415.56	223.07
415.94	223.72
416.31	224.65
416.68	225.60
417.06	226.59
417.43	227.49
417.81	228.51
418.18	229.68
418.55	230.81
418.93	232.16
419.30	233.48
419.67	234.93
420.04	236.43
420.42	237.95
420.79	239.77
421.16	241.50
421.54	243.35
421.91	245.09
422.28	247.06
422.66	249.12
423.03	251.23
423.40	253.31
423.77	255.62
424.15	257.76
424.52	260.02
424.89	262.55
425.26	265.06
425.64	267.41
426.01	269.94
426.38	272.62
426.75	275.31
427.13	278.15
427.50	281.18
427.87	284.16
428.24	287.15
428.61	290.11
428.99	293.36
429.36	296.79
429.73	300.30
430.10	303.71
430.47	307.29
430.85	310.92
431.22	314.86
431.59	319.03
431.96	323.03
432.33	327.47
432.70	331.68
433.08	336.57
433.45	341.24
433.82	345.87
434.19	351.07
434.56	356.07
434.93	360.84
435.30	365.44
435.68	370.71
436.05	375.88
436.42	381.00
436.79	385.73
437.16	390.80
437.53	396.15
437.90	401.50
438.27	406.74
438.64	412.06
439.01	416.92
439.38	421.18
439.75	425.52
440.13	430.34
440.50	434.88
440.87	438.57
441.24	442.30
441.61	446.65
441.98	449.74
442.35	453.40
442.72	457.02
443.09	460.52
443.46	462.63
443.83	464.04
444.20	465.14
444.57	466.86
444.94	467.65
445.31	468.37
445.68	469.14
446.05	469.39
446.42	468.63
446.79	467.96
447.16	467.18
447.53	466.50
447.90	464.39
448.27	462.30
448.64	459.41
449.01	457.36
449.37	453.65
449.74	450.11
450.11	445.95
450.48	441.47
450.85	436.98
451.22	433.08
451.59	429.32
451.96	425.90
452.33	421.12
452.70	416.77
453.07	411.68
453.43	406.29
453.80	401.15
454.17	396.48
454.54	391.85
454.91	386.99
455.28	382.13
455.65	377.68
456.02	373.31
456.38	369.67
456.75	365.06
457.12	361.06
457.49	357.25
457.86	353.44
458.23	350.15
458.59	346.62
458.96	343.05
459.33	339.89
459.70	336.66
460.07	334.13
460.43	331.25
460.80	328.51
461.17	326.18
461.54	323.81
461.91	321.54
462.27	319.14
462.64	317.08
463.01	314.90
463.38	312.71
463.74	310.39
464.11	308.42
464.48	306.86
464.85	305.13
465.21	303.69
465.58	302.30
465.95	300.64
466.32	299.27
466.68	297.89
467.05	296.43
467.42	294.98
467.78	293.60
468.15	292.28
468.52	291.33
468.88	290.15
469.25	288.91
469.62	287.96
469.98	286.96
470.35	286.12
470.72	285.34
471.08	284.45
471.45	283.79
471.82	283.02
472.18	282.06
472.55	281.56
472.92	280.86
473.28	280.30
473.65	279.69
474.02	279.11
474.38	278.64
474.75	278.30
475.11	277.98
475.48	277.65
475.85	277.41
476.21	277.16
476.58	276.98
476.94	276.94
477.31	276.86
477.67	276.96
478.04	276.97
478.41	277.03
478.77	277.35
479.14	277.52
479.50	277.80
479.87	278.11
480.23	278.50
480.60	278.91
480.96	279.29
481.33	279.95
481.69	280.58
482.06	281.22
482.42	281.88
482.79	282.55
483.15	283.48
483.52	284.47
483.88	285.46
484.25	286.46
484.61	287.50
484.98	288.66
485.34	289.85
485.71	291.17
486.07	292.54
486.44	293.85
486.80	295.37
487.17	297.00
487.53	298.80
487.90	300.62
488.26	302.49
488.62	304.54
488.99	306.67
489.35	308.75
489.72	311.02
490.08	313.48
490.44	315.96
490.81	318.59
491.17	321.17
491.54	324.08
491.90	327.05
492.26	330.25
492.63	333.55
492.99	337.08
493.36	340.75
493.72	344.65
494.08	348.64
494.45	352.87
494.81	357.26
495.17	361.83
495.54	366.61
495.90	371.64
496.26	376.88
496.63	382.32
496.99	388.13
497.35	394.15
497.72	400.39
498.08	406.99
498.44	413.71
498.80	421.03
499.17	428.49
499.53	436.13
499.89	444.13
500.26	452.25
500.62	460.50
500.98	469.35
501.34	478.36
501.71	487.85
502.07	497.65
502.43	507.62
502.79	517.82
503.16	528.49
503.52	539.49
503.88	550.70
504.24	562.31
504.60	574.30
504.97	586.67
505.33	599.24
505.69	612.49
506.05	625.73
506.41	639.18
506.78	652.93
507.14	667.11
507.50	681.61
507.86	696.65
508.22	712.10
508.59	727.55
508.95	743.53
509.31	759.79
509.67	776.46
510.03	793.38
510.39	810.82
510.75	828.66
511.12	846.76
511.48	865.28
511.84	883.97
512.20	902.46
512.56	921.56
512.92	941.10
513.28	960.38
513.64	980.26
514.00	1000.26
514.37	1020.54
514.73	1041.20
515.09	1061.81
515.45	1082.64
515.81	1103.93
516.17	1125.48
516.53	1146.86
516.89	1168.57
517.25	1189.99
517.61	1211.71
517.97	1233.21
518.33	1254.53
518.69	1276.28
519.05	1298.15
519.41	1320.20
519.77	1342.63
520.13	1364.61
520.49	1386.72
520.85	1409.63
521.21	1432.20
521.57	1455.53
521.93	1477.89
522.29	1500.74
522.65	1523.65
523.01	1546.13
523.37	1568.38
523.73	1590.58
524.09	1612.86
524.45	1635.15
524.81	1658.01
525.17	1680.74
525.53	1703.32
525.89	1725.82
526.25	1747.82
526.61	1769.11
526.97	1790.71
527.33	1812.26
527.68	1833.88
528.04	1855.13
528.40	1875.36
528.76	1895.95
529.12	1916.30
529.48	1938.03
529.84	1958.63
530.20	1978.90
530.56	1999.47
530.91	2020.02
531.27	2040.60
531.63	2060.46
531.99	2080.39
532.35	2099.67
532.71	2118.59
533.07	2138.45
533.42	2157.10
533.78	2176.07
534.14	2194.96
534.50	2212.40
534.86	2230.66
535.21	2247.67
535.57	2265.44
535.93	2283.02
536.29	2300.18
536.65	2316.90
537.00	2332.11
537.36	2347.33
537.72	2362.78
538.08	2378.20
538.44	2393.56
538.79	2408.72
539.15	2424.08
539.51	2438.85
539.87	2454.02
540.22	2468.61
540.58	2483.34
540.94	2497.81
541.29	2511.10
541.65	2523.10
542.01	2536.57
542.37	2548.50
542.72	2560.78
543.08	2571.61
543.44	2583.64
543.79	2593.80
544.15	2604.12
544.51	2615.21
544.87	2626.83
545.22	2636.19
545.58	2644.75
545.94	2651.90
546.29	2658.79
546.65	2664.96
547.01	2671.10
547.36	2676.78
547.72	2682.64
548.07	2686.30
548.43	2690.09
548.79	2693.77
549.14	2698.80
549.50	2702.85
549.86	2706.63
550.21	2710.98
550.57	2715.21
550.92	2717.60
551.28	2720.62
551.64	2723.13
551.99	2725.46
552.35	2726.39
552.70	2728.95
553.06	2731.64
553.41	2734.69
553.77	2737.22
554.13	2739.28
554.48	2741.28
554.84	2742.64
555.19	2743.12
555.55	2743.90
555.90	2744.66
556.26	2745.21
556.61	2745.15
556.97	2743.96
557.32	2743.76
557.68	2741.68
558.03	2740.49
558.39	2739.17
558.74	2738.50
559.10	2737.23
559.45	2735.55
559.81	2734.31
560.16	2732.17
560.52	2729.44
560.87	2726.59
561.23	2723.31
561.58	2721.60
561.94	2718.36
562.29	2714.52
562.64	2712.20
563.00	2709.62
563.35	2707.52
563.71	2705.65
564.06	2703.80
564.42	2702.25
564.77	2700.05
565.12	2698.42
565.48	2695.06
565.83	2691.87
566.19	2688.39
566.54	2684.28
566.89	2680.24
567.25	2677.06
567.60	2673.64
567.96	2670.51
568.31	2667.12
568.66	2662.95
569.02	2657.95
569.37	2653.00
569.72	2649.20
570.08	2643.72
570.43	2638.36
570.78	2632.43
571.14	2626.00
571.49	2618.80
571.84	2612.64
572.20	2605.72
572.55	2599.06
572.90	2592.36
573.26	2585.45
573.61	2578.61
573.96	2572.14
574.31	2564.51
574.67	2556.01
575.02	2547.32
575.37	2538.52
575.72	2529.47
576.08	2522.00
576.43	2513.33
576.78	2505.30
577.13	2497.16
577.49	2489.04
577.84	2481.26
578.19	2473.82
578.54	2466.55
578.90	2460.01
579.25	2451.40
579.60	2441.93
579.95	2432.70
580.30	2424.50
580.66	2416.48
581.01	2407.49
581.36	2398.25
581.71	2389.61
582.06	2380.94
582.42	2372.51
582.77	2363.51
583.12	2354.40
583.47	2345.69
583.82	2337.53
584.17	2328.41
584.53	2319.40
584.88	2310.59
585.23	2301.13
585.58	2291.38
585.93	2281.73
586.28	2272.11
586.63	2263.27
586.98	2255.38
587.34	2247.05
587.69	2237.80
588.04	2228.36
588.39	2219.89
588.74	2210.86
589.09	2202.23
589.44	2192.67
589.79	2184.33
590.14	2176.42
590.49	2168.58
590.84	2159.18
591.19	2150.82
591.54	2142.07
591.89	2131.67
592.25	2122.46
592.60	2113.37
592.95	2103.79
593.30	2094.40
593.65	2084.44
594.00	2074.62
594.35	2065.84
594.70	2056.64
595.05	2048.12
595.40	2039.29
595.75	2029.79
596.10	2021.54
596.45	2012.84
596.80	2005.42
597.15	1997.12
597.50	1987.89
597.85	1979.10
598.19	1970.61
598.54	1961.89
598.89	1954.00
599.24	1947.59
599.59	1940.26
599.94	1933.09
600.29	1925.41
600.64	1917.31
600.99	1909.21
601.34	1901.99
601.69	1893.11
602.04	1884.66
602.39	1876.28
602.74	1868.70
603.08	1861.81
603.43	1854.47
603.78	1846.84
604.13	1838.65
604.48	1830.53
604.83	1823.64
605.18	1816.57
605.53	1809.05
605.87	1801.35
606.22	1793.95
606.57	1785.97
606.92	1777.65
607.27	1769.24
607.62	1762.02
607.96	1755.28
608.31	1749.03
608.66	1741.27
609.01	1734.15
609.36	1726.76
609.70	1719.27
610.05	1711.37
610.40	1703.28
610.75	1694.71
611.10	1686.90
611.44	1677.69
611.79	1668.67
612.14	1659.03
612.49	1649.44
612.83	1640.41
613.18	1630.77
613.53	1621.64
613.88	1612.00
614.22	1603.08
614.57	1593.98
614.92	1584.75
615.27	1575.13
615.61	1565.40
615.96	1556.51
616.31	1547.72
616.65	1539.50
617.00	1530.77
617.35	1522.24
617.70	1513.43
618.04	1504.32
618.39	1494.83
618.74	1486.56
619.08	1477.92
619.43	1469.69
619.78	1461.84
620.12	1453.89
620.47	1446.26
620.82	1437.55
621.16	1429.16
621.51	1420.50
621.85	1412.16
622.20	1403.63
622.55	1395.25
622.89	1387.03
623.24	1378.76
623.59	1370.09
623.93	1361.48
624.28	1353.33
624.62	1344.88
624.97	1336.57
625.32	1328.95
625.66	1321.37
626.01	1313.90
626.35	1306.72
626.70	1298.79
627.04	1291.05
627.39	1283.44
627.73	1275.69
628.08	1268.81
628.43	1261.33
628.77	1254.12
629.12	1246.63
629.46	1239.67
629.81	1232.54
630.15	1225.05
630.50	1217.68
630.84	1210.37
631.19	1203.23
631.53	1196.54
631.88	1188.94
632.22	1181.33
632.57	1174.37
632.91	1167.07
633.26	1159.29
633.60	1151.97
633.95	1145.39
634.29	1138.14
634.64	1131.43
634.98	1124.28
635.32	1117.14
635.67	1110.56
636.01	1103.92
636.36	1097.21
636.70	1090.63
637.05	1084.00
637.39	1077.60
637.73	1071.17
638.08	1065.40
638.42	1059.53
638.77	1052.75
639.11	1046.50
639.45	1040.56
639.80	1033.86
640.14	1027.32
640.49	1021.52
640.83	1015.37
641.17	1008.91
641.52	1002.95
641.86	996.44
642.20	990.39
642.55	983.81
642.89	977.41
643.23	970.80
643.58	964.85
643.92	958.31
644.26	952.00
644.61	945.91
644.95	939.85
645.29	933.51
645.64	927.00
645.98	920.96
646.32	915.10
646.66	908.75
647.01	902.81
647.35	897.07
647.69	890.52
648.04	884.32
648.38	878.36
648.72	872.26
649.06	866.15
649.41	860.25
649.75	854.38
650.09	848.51
650.43	842.68
650.78	836.63
651.12	830.58
651.46	824.77
651.80	818.78
652.14	812.83
652.49	807.04
652.83	801.15
653.17	794.85
653.51	789.01
653.85	783.53
654.20	777.57
654.54	771.65
654.88	766.35
655.22	760.60
655.56	754.75
655.90	748.83
656.25	743.03
656.59	737.37
656.93	732.05
657.27	726.91
657.61	721.69
657.95	716.47
658.29	711.51
658.64	706.37
658.98	701.10
659.32	695.73
659.66	690.42
660.00	685.13
660.34	680.02
660.68	674.74
661.02	669.65
661.36	665.00
661.70	660.28
662.05	655.51
662.39	651.01
662.73	646.62
663.07	642.24
663.41	637.93
663.75	633.38
664.09	628.72
664.43	623.98
664.77	619.54
665.11	615.00
665.45	610.56
665.79	606.17
666.13	601.79
666.47	597.59
666.81	593.41
667.15	589.33
667.49	585.58
667.83	581.77
668.17	577.89
668.51	574.04
668.85	570.28
669.19	566.51
669.53	562.55
669.87	558.62
670.21	554.97
670.55	551.02
670.89	547.50
671.23	544.11
671.57	540.50
671.91	536.88
672.25	533.42
672.58	529.80
672.92	526.34
673.26	523.17
673.60	519.76
673.94	516.35
674.28	513.11
674.62	509.84
674.96	506.65
675.30	503.43
675.64	500.16
675.97	496.99
676.31	493.94
676.65	491.05
676.99	488.30
677.33	485.29
677.67	482.51
678.01	479.43
678.34	476.56
678.68	473.75
679.02	470.68
679.36	467.92
679.70	465.11
680.04	462.30
680.37	459.33
680.71	456.73
681.05	454.11
681.39	451.40
681.73	448.72
682.06	446.25
682.40	443.70
682.74	441.13
683.08	438.52
683.42	435.96
683.75	433.38
684.09	430.81
684.43	428.15
684.77	425.51
685.10	422.97
685.44	420.31
685.78	417.83
686.12	415.73
686.45	413.25
686.79	410.91
687.13	408.76
687.46	406.60
687.80	404.32
688.14	402.06
688.48	399.83
688.81	397.46
689.15	395.08
689.49	392.78
689.82	390.54
690.16	388.18
690.50	385.75
690.83	383.50
691.17	381.11
691.51	379.01
691.84	376.85
692.18	374.95
692.52	372.93
692.85	371.07
693.19	369.05
693.52	367.13
693.86	365.31
694.20	363.31
694.53	361.40
694.87	359.39
695.21	357.48
695.54	355.49
695.88	353.68
696.21	351.87
696.55	350.17
696.88	348.46
697.22	346.81
697.56	345.28
697.89	343.69
698.23	342.05
698.56	340.42
698.90	338.93
699.23	337.32
699.57	335.77
699.90	334.12
700.24	332.55
700.58	330.89
700.91	329.32
701.25	327.94
701.58	326.52
701.92	325.17
702.25	323.76
702.59	322.40
702.92	321.10
703.26	319.74
703.59	318.47
703.93	317.29
704.26	316.02
704.60	314.74
704.93	313.45
705.26	312.30
705.60	311.10
705.93	309.82
706.27	308.58
706.60	307.55
706.94	306.55
707.27	305.35
707.61	304.22
707.94	303.04
708.27	301.73
708.61	300.61
708.94	299.47
709.28	298.33
709.61	297.26
709.94	296.16
710.28	295.11
710.61	293.98
710.95	292.79
711.28	291.92
711.61	290.90
711.95	289.97
712.28	289.00
712.61	288.00
712.95	287.07
713.28	286.19
713.61	285.12
713.95	284.06
714.28	283.24
714.61	282.42
714.95	281.48
715.28	280.62
715.61	279.69
715.95	278.83
716.28	278.03
716.61	277.16
716.95	276.29
717.28	275.43
717.61	274.63
717.94	273.87
718.28	272.94
718.61	272.20
718.94	271.33
719.27	270.49
719.61	269.71
719.94	269.06
720.27	268.25
720.60	267.56
720.94	266.85
721.27	266.15
721.60	265.47
721.93	264.75
722.27	264.11
722.60	263.50
722.93	262.82
723.26	262.13
723.59	261.54
723.93	260.98
724.26	260.45
724.59	259.76
724.92	259.16
725.25	258.66
725.59	258.11
725.92	257.65
726.25	257.21
726.58	256.72
726.91	256.19
727.24	255.69
727.57	255.15
727.91	254.64
728.24	254.16
728.57	253.63
728.90	253.38
729.23	252.84
729.56	252.46
729.89	252.02
730.22	251.59
730.55	251.05
730.89	250.57
731.22	250.10
731.55	249.74
731.88	249.35
732.21	248.84
732.54	248.39
732.87	247.95
733.20	247.43
733.53	247.06
733.86	246.64
734.19	246.18
734.52	245.74
734.85	245.53
735.18	245.13
735.51	244.80
735.84	244.36
736.17	244.06
736.50	243.54
736.83	243.36
737.16	243.00
737.49	242.66
737.82	242.28
738.15	241.99
738.48	241.63
738.81	241.35
739.14	240.96
739.47	240.55
739.80	240.24
740.13	240.00
740.46	239.50
740.79	239.06
741.12	238.71
741.45	238.42
741.78	237.98
742.11	237.74
742.44	237.33
742.77	237.00
743.10	236.61
743.43	236.38
743.75	235.89
744.08	235.75
744.41	235.49
744.74	235.17
745.07	234.83
745.40	234.62
745.73	234.26
746.06	234.01
746.39	233.75
746.71	233.45
747.04	233.15
747.37	232.92
747.70	232.72
748.03	232.49
748.36	232.27
748.68	232.03
749.01	231.62
749.34	231.44
749.67	231.19
750.00	230.97
750.33	230.76
750.65	230.51
750.98	230.07
751.31	229.89
751.64	229.68
751.97	229.49
752.29	229.21
752.62	228.92
752.95	228.71
753.28	228.50
753.60	228.21
753.93	227.99
754.26	227.89
754.59	227.63
754.91	227.45
755.24	227.31
755.57	227.00
755.90	226.85
756.22	226.62
756.55	226.40
756.88	226.21
757.20	226.00
757.53	225.81
757.86	225.56
758.19	225.35
758.51	225.15
758.84	224.89
759.17	224.74
759.49	224.66
759.82	224.55
760.15	224.40
760.47	224.29
760.80	224.12
761.13	223.92
761.45	223.77
761.78	223.60
762.11	223.37
762.43	223.28
762.76	223.10
763.08	223.00
763.41	222.87
763.74	222.75
764.06	222.55
764.39	222.42
764.71	222.35
765.04	222.25
765.37	222.18
765.69	222.03
766.02	221.94
766.34	221.76
766.67	221.58
767.00	221.50
767.32	221.42
767.65	221.40
767.97	221.23
768.30	221.14
768.62	220.92
768.95	220.75
769.27	220.65
769.60	220.57
769.92	220.38
770.25	220.30
770.57	220.11
770.90	220.01
771.22	219.89
771.55	219.78
771.87	219.62
772.20	219.49
772.52	219.64
772.85	219.71
773.17	219.58
773.50	219.47
773.82	219.28
774.15	219.10
774.47	218.88
774.80	218.76
775.12	218.73
775.45	218.74
775.77	218.75
776.09	218.64
776.42	218.58
776.74	218.64
777.07	218.45
777.39	218.41
777.72	218.37
778.04	218.30
778.36	218.26
778.69	218.16
779.01	218.09
779.33	217.74
779.66	217.45
779.98	217.41
780.31	217.40
780.63	217.42
780.95	217.49
781.28	217.38
781.60	217.34
781.92	217.23
782.25	217.21
782.57	217.13
782.89	217.11
783.22	217.03
783.54	216.86
783.86	216.85
784.19	216.80
784.51	216.76
784.83	216.67
785.16	216.55
785.48	216.56
785.80	216.56
786.12	216.56
786.45	216.48
