SpectraSuite Data File
++++++++++++++++++++++++++++++++++++
Date: Mon Feb 25 17:36:25 EST 2013
User: group
Dark Spectrum Present: No
Reference Spectrum Present: No
Number of Sampled Component Spectra: 1
Spectrometers: USB2E7196
Integration Time (usec): 52000 (USB2E7196)
Spectra Averaged: 20 (USB2E7196)
Boxcar Smoothing: 10 (USB2E7196)
Correct for Electrical Dark: No (USB2E7196)
Strobe/Lamp Enabled: No (USB2E7196)
Correct for Detector Non-linearity: No (USB2E7196)
Correct for Stray Light: No (USB2E7196)
Number of Pixels in Processed Spectrum: 2048
>>>>>Begin Processed Spectral Data<<<<<
339.09	0.00
339.48	199.00
339.86	200.35
340.24	202.80
340.63	202.70
341.01	207.25
341.39	206.05
341.78	206.45
342.16	210.80
342.54	209.70
342.93	198.31
343.31	208.35
343.69	208.93
344.07	209.40
344.46	209.88
344.84	210.46
345.22	210.68
345.60	211.08
345.99	211.41
346.37	211.55
346.75	211.75
347.13	211.93
347.52	212.15
347.90	212.30
348.28	212.47
348.66	212.62
349.05	212.58
349.43	212.78
349.81	213.00
350.19	213.11
350.57	213.30
350.96	213.51
351.34	213.67
351.72	213.83
352.10	214.04
352.48	214.13
352.87	214.10
353.25	214.21
353.63	214.19
354.01	214.27
354.39	214.33
354.77	214.35
355.15	214.44
355.54	214.44
355.92	214.55
356.30	214.61
356.68	214.74
357.06	214.85
357.44	214.89
357.82	214.86
358.20	214.91
358.58	215.00
358.97	215.08
359.35	215.19
359.73	215.24
360.11	215.24
360.49	215.28
360.87	215.26
361.25	215.35
361.63	215.47
362.01	215.47
362.39	215.49
362.77	215.47
363.15	215.54
363.53	215.54
363.91	215.54
364.29	215.58
364.67	215.41
365.05	215.48
365.43	215.51
365.81	215.57
366.19	215.69
366.57	215.72
366.95	215.67
367.33	215.58
367.71	215.61
368.09	215.70
368.47	215.71
368.85	215.80
369.23	215.81
369.61	215.79
369.99	215.87
370.37	215.90
370.75	216.02
371.13	215.95
371.51	215.97
371.89	216.01
372.27	215.96
372.65	215.98
373.03	215.91
373.41	215.84
373.78	215.79
374.16	215.65
374.54	215.54
374.92	215.57
375.30	215.63
375.68	215.61
376.06	215.53
376.44	215.45
376.82	215.42
377.19	215.35
377.57	215.26
377.95	215.20
378.33	215.10
378.71	215.01
379.09	215.02
379.47	215.01
379.84	214.93
380.22	214.98
380.60	214.92
380.98	214.92
381.36	214.92
381.73	214.90
382.11	214.99
382.49	215.04
382.87	214.95
383.25	214.89
383.62	215.01
384.00	214.95
384.38	214.98
384.76	214.95
385.13	215.11
385.51	215.14
385.89	215.06
386.27	215.13
386.64	215.14
387.02	215.04
387.40	215.05
387.78	215.05
388.15	215.03
388.53	215.04
388.91	215.09
389.29	215.11
389.66	215.11
390.04	215.08
390.42	215.10
390.79	215.16
391.17	215.21
391.55	215.01
391.92	215.04
392.30	215.07
392.68	215.08
393.05	215.00
393.43	215.06
393.81	215.15
394.18	215.13
394.56	215.19
394.94	215.42
395.31	215.46
395.69	215.56
396.06	215.65
396.44	215.78
396.82	215.80
397.19	215.93
397.57	216.08
397.95	216.21
398.32	216.29
398.70	216.48
399.07	216.63
399.45	216.86
399.82	217.11
400.20	217.29
400.58	217.62
400.95	217.87
401.33	218.18
401.70	218.58
402.08	218.94
402.45	219.35
402.83	219.71
403.20	220.19
403.58	220.55
403.95	221.13
404.33	221.62
404.71	222.20
405.08	222.98
405.46	223.63
405.83	224.35
406.21	225.14
406.58	225.92
406.96	226.90
407.33	227.89
407.70	229.02
408.08	230.34
408.45	231.65
408.83	233.05
409.20	234.45
409.58	235.94
409.95	237.68
410.33	239.50
410.70	241.46
411.08	243.39
411.45	245.71
411.82	248.06
412.20	250.65
412.57	253.61
412.95	256.42
413.32	259.63
413.69	263.01
414.07	266.66
414.44	270.65
414.82	274.66
415.19	279.34
415.56	284.08
415.94	289.17
416.31	294.76
416.68	300.40
417.06	306.83
417.43	312.94
417.81	319.95
418.18	327.27
418.55	335.07
418.93	343.49
419.30	352.09
419.67	361.19
420.04	370.84
420.42	381.07
420.79	392.04
421.16	403.54
421.54	415.24
421.91	427.55
422.28	440.60
422.66	454.51
423.03	467.77
423.40	482.10
423.77	497.49
424.15	513.01
424.52	529.32
424.89	546.93
425.26	564.31
425.64	580.81
426.01	598.95
426.38	617.98
426.75	637.31
427.13	657.47
427.50	678.90
427.87	701.21
428.24	723.53
428.61	745.44
428.99	768.74
429.36	794.91
429.73	820.26
430.10	845.23
430.47	871.21
430.85	898.98
431.22	927.47
431.59	957.34
431.96	986.99
432.33	1019.63
432.70	1051.24
433.08	1088.46
433.45	1123.75
433.82	1158.83
434.19	1197.83
434.56	1236.20
434.93	1273.49
435.30	1310.42
435.68	1351.20
436.05	1392.00
436.42	1432.76
436.79	1470.18
437.16	1510.45
437.53	1553.43
437.90	1596.09
438.27	1638.05
438.64	1681.68
439.01	1722.24
439.38	1759.60
439.75	1794.99
440.13	1835.02
440.50	1873.19
440.87	1905.19
441.24	1938.66
441.61	1975.03
441.98	2003.48
442.35	2035.65
442.72	2067.72
443.09	2099.08
443.46	2119.77
443.83	2134.73
444.20	2148.58
444.57	2167.44
444.94	2178.25
445.31	2188.87
445.68	2197.97
446.05	2204.60
446.42	2204.21
446.79	2202.85
447.16	2200.99
447.53	2200.83
447.90	2189.72
448.27	2178.47
448.64	2160.27
449.01	2147.41
449.37	2123.17
449.74	2099.29
450.11	2069.43
450.48	2038.21
450.85	2006.32
451.22	1978.87
451.59	1952.35
451.96	1927.26
452.33	1892.06
452.70	1860.45
453.07	1822.63
453.43	1785.02
453.80	1747.68
454.17	1711.95
454.54	1678.46
454.91	1641.84
455.28	1606.02
455.65	1572.52
456.02	1536.87
456.38	1508.00
456.75	1472.09
457.12	1442.53
457.49	1412.65
457.86	1385.13
458.23	1360.00
458.59	1332.20
458.96	1304.51
459.33	1280.30
459.70	1255.21
460.07	1235.73
460.43	1213.16
460.80	1191.46
461.17	1172.83
461.54	1153.32
461.91	1134.44
462.27	1115.60
462.64	1099.56
463.01	1081.47
463.38	1063.69
463.74	1048.26
464.11	1033.61
464.48	1020.68
464.85	1005.93
465.21	994.70
465.58	982.46
465.95	968.09
466.32	956.30
466.68	944.20
467.05	932.10
467.42	920.36
467.78	908.04
468.15	896.50
468.52	887.75
468.88	876.61
469.25	866.53
469.62	858.37
469.98	849.65
470.35	841.49
470.72	834.01
471.08	826.00
471.45	818.80
471.82	811.23
472.18	803.31
472.55	797.89
472.92	791.44
473.28	785.90
473.65	780.59
474.02	774.90
474.38	770.52
474.75	766.52
475.11	762.27
475.48	758.90
475.85	755.89
476.21	753.11
476.58	750.73
476.94	749.11
477.31	746.94
477.67	744.88
478.04	743.51
478.41	742.37
478.77	741.63
479.14	740.69
479.50	740.57
479.87	741.08
480.23	741.53
480.60	741.55
480.96	741.48
481.33	742.81
481.69	744.48
482.06	745.58
482.42	746.54
482.79	747.97
483.15	750.60
483.52	753.93
483.88	756.81
484.25	759.85
484.61	762.79
484.98	766.03
485.34	770.14
485.71	774.37
486.07	779.15
486.44	784.36
486.80	789.81
487.17	795.47
487.53	801.81
487.90	808.32
488.26	815.39
488.62	823.29
488.99	830.72
489.35	838.38
489.72	847.29
490.08	856.95
490.44	866.57
490.81	876.17
491.17	885.61
491.54	896.43
491.90	907.11
492.26	918.44
492.63	930.48
492.99	943.04
493.36	955.81
493.72	969.11
494.08	982.48
494.45	997.11
494.81	1012.12
495.17	1027.31
495.54	1043.41
495.90	1060.18
496.26	1077.10
496.63	1094.53
496.99	1112.28
497.35	1129.97
497.72	1148.34
498.08	1166.70
498.44	1185.58
498.80	1205.91
499.17	1225.85
499.53	1246.44
499.89	1267.84
500.26	1288.84
500.62	1309.72
500.98	1331.96
501.34	1354.31
501.71	1376.95
502.07	1399.52
502.43	1422.64
502.79	1445.54
503.16	1468.59
503.52	1491.77
503.88	1514.64
504.24	1537.88
504.60	1561.49
504.97	1586.14
505.33	1609.99
505.69	1635.42
506.05	1660.33
506.41	1684.50
506.78	1709.14
507.14	1733.83
507.50	1758.56
507.86	1783.76
508.22	1809.40
508.59	1833.90
508.95	1858.84
509.31	1884.07
509.67	1909.84
510.03	1935.13
510.39	1960.98
510.75	1986.11
511.12	2010.40
511.48	2035.06
511.84	2059.98
512.20	2084.34
512.56	2108.62
512.92	2133.24
513.28	2157.43
513.64	2181.62
514.00	2205.07
514.37	2228.56
514.73	2252.38
515.09	2274.75
515.45	2297.50
515.81	2319.71
516.17	2342.53
516.53	2364.17
516.89	2385.55
517.25	2405.22
517.61	2424.90
517.97	2444.36
518.33	2463.29
518.69	2483.18
519.05	2503.19
519.41	2522.59
519.77	2542.17
520.13	2560.99
520.49	2578.86
520.85	2596.31
521.21	2613.53
521.57	2631.99
521.93	2648.25
522.29	2665.21
522.65	2682.72
523.01	2699.34
523.37	2715.10
523.73	2730.50
524.09	2745.75
524.45	2760.70
524.81	2775.31
525.17	2790.67
525.53	2805.32
525.89	2820.61
526.25	2835.69
526.61	2848.26
526.97	2861.58
527.33	2874.49
527.68	2887.56
528.04	2900.55
528.40	2912.90
528.76	2925.16
529.12	2936.02
529.48	2948.09
529.84	2957.88
530.20	2969.03
530.56	2979.80
530.91	2991.08
531.27	3001.83
531.63	3012.57
531.99	3022.78
532.35	3033.55
532.71	3043.40
533.07	3054.63
533.42	3063.67
533.78	3073.36
534.14	3083.31
534.50	3091.79
534.86	3101.57
535.21	3108.97
535.57	3118.28
535.93	3126.42
536.29	3134.15
536.65	3142.98
537.00	3150.70
537.36	3159.14
537.72	3165.82
538.08	3172.97
538.44	3179.60
538.79	3185.77
539.15	3192.98
539.51	3200.44
539.87	3207.70
540.22	3213.97
540.58	3219.98
540.94	3226.40
541.29	3231.28
541.65	3234.58
542.01	3239.09
542.37	3242.73
542.72	3247.91
543.08	3250.97
543.44	3255.07
543.79	3258.11
544.15	3260.47
544.51	3264.19
544.87	3267.59
545.22	3269.68
545.58	3271.36
545.94	3273.25
546.29	3274.98
546.65	3275.55
547.01	3275.77
547.36	3276.66
547.72	3277.59
548.07	3276.97
548.43	3276.77
548.79	3275.92
549.14	3277.68
549.50	3278.45
549.86	3279.06
550.21	3278.00
550.57	3278.10
550.92	3276.64
551.28	3275.25
551.64	3274.10
551.99	3272.99
552.35	3272.56
552.70	3272.43
553.06	3271.97
553.41	3271.20
553.77	3270.82
554.13	3269.85
554.48	3269.96
554.84	3268.74
555.19	3267.02
555.55	3266.57
555.90	3265.84
556.26	3265.02
556.61	3263.72
556.97	3260.98
557.32	3257.23
557.68	3254.64
558.03	3251.25
558.39	3249.22
558.74	3249.37
559.10	3248.64
559.45	3247.68
559.81	3245.76
560.16	3243.92
560.52	3242.78
560.87	3241.09
561.23	3237.04
561.58	3233.90
561.94	3229.45
562.29	3224.87
562.64	3221.30
563.00	3217.49
563.35	3213.65
563.71	3210.45
564.06	3207.41
564.42	3204.74
564.77	3202.40
565.12	3199.70
565.48	3196.92
565.83	3193.93
566.19	3190.71
566.54	3186.94
566.89	3181.24
567.25	3175.66
567.60	3171.67
567.96	3166.43
568.31	3161.33
568.66	3157.65
569.02	3153.90
569.37	3150.65
569.72	3147.35
570.08	3143.24
570.43	3136.79
570.78	3131.70
571.14	3126.61
571.49	3121.00
571.84	3116.14
572.20	3109.90
572.55	3104.94
572.90	3098.84
573.26	3092.51
573.61	3084.70
573.96	3077.14
574.31	3069.72
574.67	3063.07
575.02	3054.61
575.37	3046.28
575.72	3038.76
576.08	3031.40
576.43	3023.25
576.78	3014.52
577.13	3006.65
577.49	2999.13
577.84	2992.99
578.19	2985.13
578.54	2976.86
578.90	2968.75
579.25	2959.42
579.60	2950.11
579.95	2940.46
580.30	2932.12
580.66	2923.20
581.01	2913.56
581.36	2903.51
581.71	2895.10
582.06	2886.20
582.42	2878.43
582.77	2869.20
583.12	2859.29
583.47	2850.06
583.82	2840.85
584.17	2830.94
584.53	2821.24
584.88	2810.76
585.23	2799.84
585.58	2790.12
585.93	2780.08
586.28	2770.68
586.63	2761.51
586.98	2752.79
587.34	2743.60
587.69	2733.27
588.04	2724.32
588.39	2715.72
588.74	2705.78
589.09	2696.23
589.44	2685.34
589.79	2674.28
590.14	2664.76
590.49	2653.93
590.84	2643.94
591.19	2634.41
591.54	2624.29
591.89	2612.59
592.25	2602.59
592.60	2591.38
592.95	2580.24
593.30	2569.38
593.65	2558.28
594.00	2547.65
594.35	2538.19
594.70	2527.11
595.05	2516.82
595.40	2504.59
595.75	2492.40
596.10	2482.15
596.45	2470.93
596.80	2461.05
597.15	2450.86
597.50	2439.88
597.85	2430.65
598.19	2418.66
598.54	2406.67
598.89	2395.56
599.24	2385.64
599.59	2374.67
599.94	2365.55
600.29	2355.67
600.64	2345.19
600.99	2333.40
601.34	2322.86
601.69	2310.94
602.04	2299.98
602.39	2289.75
602.74	2281.09
603.08	2272.94
603.43	2264.39
603.78	2254.57
604.13	2244.20
604.48	2233.47
604.83	2224.17
605.18	2214.03
605.53	2204.75
605.87	2194.82
606.22	2185.67
606.57	2175.78
606.92	2164.71
607.27	2153.57
607.62	2142.89
607.96	2133.05
608.31	2124.58
608.66	2114.44
609.01	2104.41
609.36	2093.95
609.70	2082.98
610.05	2071.12
610.40	2059.04
610.75	2046.65
611.10	2035.78
611.44	2023.97
611.79	2013.12
612.14	2001.60
612.49	1989.17
612.83	1977.60
613.18	1965.55
613.53	1953.93
613.88	1941.50
614.22	1930.30
614.57	1918.75
614.92	1906.99
615.27	1895.18
615.61	1882.39
615.96	1870.37
616.31	1859.13
616.65	1848.52
617.00	1837.88
617.35	1827.18
617.70	1815.37
618.04	1803.98
618.39	1792.30
618.74	1781.60
619.08	1769.77
619.43	1758.04
619.78	1747.49
620.12	1737.27
620.47	1727.64
620.82	1716.58
621.16	1706.58
621.51	1696.53
621.85	1686.02
622.20	1675.02
622.55	1663.85
622.89	1653.56
623.24	1643.15
623.59	1632.15
623.93	1621.52
624.28	1610.54
624.62	1599.49
624.97	1589.62
625.32	1579.94
625.66	1570.37
626.01	1560.45
626.35	1551.81
626.70	1542.76
627.04	1533.25
627.39	1522.81
627.73	1513.01
628.08	1503.88
628.43	1494.51
628.77	1485.61
629.12	1476.25
629.46	1467.52
629.81	1458.04
630.15	1448.45
630.50	1438.91
630.84	1429.46
631.19	1419.75
631.53	1410.55
631.88	1401.64
632.22	1393.07
632.57	1384.60
632.91	1375.87
633.26	1367.40
633.60	1357.93
633.95	1349.47
634.29	1341.12
634.64	1333.18
634.98	1324.10
635.32	1315.85
635.67	1307.99
636.01	1299.41
636.36	1290.93
636.70	1282.58
637.05	1274.90
637.39	1266.97
637.73	1258.98
638.08	1251.94
638.42	1245.00
638.77	1237.55
639.11	1230.10
639.45	1222.06
639.80	1213.75
640.14	1205.79
640.49	1198.02
640.83	1189.97
641.17	1181.66
641.52	1173.80
641.86	1165.92
642.20	1158.26
642.55	1149.59
642.89	1140.68
643.23	1132.45
643.58	1125.16
643.92	1116.99
644.26	1108.78
644.61	1100.93
644.95	1093.16
645.29	1084.99
645.64	1076.65
645.98	1069.01
646.32	1061.36
646.66	1054.13
647.01	1046.73
647.35	1039.22
647.69	1031.33
648.04	1024.17
648.38	1016.61
648.72	1009.22
649.06	1001.73
649.41	994.38
649.75	986.87
650.09	980.21
650.43	973.50
650.78	966.24
651.12	959.44
651.46	953.11
651.80	946.74
652.14	940.35
652.49	933.67
652.83	927.14
653.17	919.71
653.51	913.01
653.85	906.29
654.20	899.85
654.54	893.43
654.88	886.98
655.22	880.40
655.56	873.52
655.90	866.26
656.25	859.30
656.59	852.85
656.93	846.78
657.27	840.33
657.61	833.51
657.95	827.46
658.29	821.39
658.64	815.44
658.98	809.21
659.32	803.07
659.66	797.25
660.00	791.32
660.34	786.03
660.68	780.26
661.02	774.12
661.36	768.36
661.70	762.59
662.05	757.32
662.39	752.08
662.73	747.31
663.07	742.85
663.41	738.42
663.75	733.76
664.09	728.85
664.43	723.86
664.77	719.03
665.11	714.02
665.45	709.31
665.79	704.56
666.13	699.96
666.47	695.50
666.81	690.95
667.15	686.37
667.49	682.00
667.83	677.50
668.17	673.40
668.51	669.15
668.85	664.91
669.19	660.57
669.53	656.09
669.87	651.38
670.21	647.04
670.55	642.29
670.89	638.08
671.23	634.15
671.57	629.86
671.91	625.86
672.25	621.82
672.58	617.60
672.92	613.43
673.26	609.57
673.60	605.64
673.94	601.88
674.28	598.42
674.62	594.59
674.96	590.76
675.30	587.02
675.64	583.36
675.97	579.99
676.31	576.60
676.65	573.37
676.99	570.54
677.33	567.24
677.67	564.12
678.01	560.52
678.34	557.11
678.68	554.08
679.02	550.80
679.36	547.49
679.70	544.47
680.04	541.30
680.37	538.00
680.71	534.72
681.05	531.65
681.39	528.43
681.73	525.31
682.06	522.33
682.40	519.30
682.74	516.10
683.08	512.84
683.42	509.62
683.75	506.54
684.09	503.30
684.43	500.12
684.77	497.02
685.10	494.02
685.44	490.84
685.78	487.72
686.12	484.77
686.45	481.89
686.79	479.01
687.13	476.34
687.46	473.58
687.80	470.80
688.14	467.93
688.48	465.10
688.81	462.39
689.15	459.67
689.49	457.05
689.82	454.26
690.16	451.35
690.50	448.55
690.83	445.82
691.17	443.14
691.51	440.61
691.84	438.11
692.18	435.65
692.52	433.35
692.85	430.99
693.19	428.67
693.52	426.36
693.86	423.94
694.20	421.39
694.53	418.92
694.87	416.43
695.21	413.92
695.54	411.47
695.88	409.07
696.21	406.83
696.55	404.50
696.88	402.66
697.22	400.81
697.56	398.99
697.89	396.96
698.23	394.93
698.56	392.90
698.90	390.99
699.23	389.09
699.57	387.07
699.90	385.15
700.24	383.18
700.58	381.10
700.91	379.20
701.25	377.48
701.58	375.94
701.92	374.27
702.25	372.69
702.59	371.17
702.92	369.44
703.26	367.82
703.59	366.31
703.93	364.69
704.26	363.02
704.60	361.27
704.93	359.53
705.26	357.92
705.60	356.43
705.93	354.86
706.27	353.37
706.60	351.97
706.94	350.40
707.27	348.77
707.61	347.39
707.94	345.86
708.27	344.17
708.61	342.52
708.94	341.13
709.28	339.77
709.61	338.31
709.94	336.81
710.28	335.15
710.61	333.70
710.95	332.11
711.28	330.69
711.61	329.20
711.95	328.01
712.28	326.70
712.61	325.25
712.95	324.01
713.28	322.65
713.61	321.37
713.95	320.19
714.28	319.12
714.61	317.98
714.95	316.87
715.28	315.73
715.61	314.45
715.95	313.22
716.28	311.88
716.61	310.65
716.95	309.54
717.28	308.53
717.61	307.24
717.94	306.21
718.28	305.10
718.61	304.15
718.94	303.04
719.27	301.97
719.61	300.94
719.94	299.83
720.27	298.85
720.60	297.83
720.94	296.93
721.27	296.05
721.60	295.12
721.93	294.18
722.27	293.33
722.60	292.57
722.93	291.72
723.26	290.95
723.59	290.15
723.93	289.40
724.26	288.55
724.59	287.89
724.92	287.11
725.25	286.37
725.59	285.57
725.92	284.80
726.25	284.05
726.58	283.35
726.91	282.71
727.24	281.92
727.57	281.11
727.91	280.30
728.24	279.45
728.57	278.69
728.90	278.04
729.23	277.26
729.56	276.63
729.89	275.88
730.22	275.16
730.55	274.56
730.89	273.84
731.22	273.20
731.55	272.48
731.88	271.80
732.21	271.15
732.54	270.55
732.87	270.00
733.20	269.35
733.53	268.72
733.86	268.05
734.19	267.53
734.52	267.08
734.85	266.61
735.18	266.09
735.51	265.62
735.84	264.96
736.17	264.43
736.50	263.75
736.83	263.50
737.16	262.95
737.49	262.35
737.82	261.77
738.15	261.22
738.48	260.70
738.81	260.15
739.14	259.63
739.47	259.06
739.80	258.49
740.13	258.05
740.46	257.55
740.79	257.01
741.12	256.54
741.45	256.02
741.78	255.46
742.11	255.00
742.44	254.36
742.77	253.93
743.10	253.46
743.43	253.03
743.75	252.29
744.08	252.05
744.41	251.52
744.74	251.04
745.07	250.50
745.40	250.13
745.73	249.81
746.06	249.35
746.39	248.86
746.71	248.43
747.04	247.95
747.37	247.58
747.70	247.25
748.03	246.81
748.36	246.48
748.68	245.99
749.01	245.54
749.34	245.18
749.67	244.80
750.00	244.41
750.33	244.07
750.65	243.70
750.98	243.11
751.31	242.77
751.64	242.47
751.97	242.21
752.29	241.82
752.62	241.32
752.95	240.96
753.28	240.64
753.60	240.29
753.93	240.02
754.26	239.56
754.59	239.14
754.91	238.72
755.24	238.36
755.57	238.13
755.90	237.82
756.22	237.57
756.55	237.18
756.88	236.88
757.20	236.51
757.53	236.19
757.86	235.89
758.19	235.59
758.51	235.25
758.84	234.92
759.17	234.64
759.49	234.40
759.82	234.20
760.15	233.91
760.47	233.70
760.80	233.30
761.13	233.12
761.45	232.86
761.78	232.67
762.11	232.38
762.43	232.05
762.76	231.78
763.08	231.57
763.41	231.38
763.74	231.07
764.06	230.80
764.39	230.63
764.71	230.39
765.04	230.23
765.37	230.00
765.69	229.80
766.02	229.64
766.34	229.39
766.67	229.06
767.00	228.94
767.32	228.77
767.65	228.80
767.97	228.53
768.30	228.35
768.62	228.20
768.95	228.01
769.27	227.89
769.60	227.74
769.92	227.49
770.25	227.32
770.57	227.16
770.90	227.00
771.22	226.76
771.55	226.61
771.87	226.38
772.20	226.20
772.52	226.22
772.85	226.14
773.17	226.11
773.50	226.00
773.82	225.86
774.15	225.60
774.47	225.31
774.80	225.28
775.12	225.13
775.45	224.93
775.77	224.82
776.09	224.71
776.42	224.59
776.74	224.48
777.07	224.29
777.39	224.19
777.72	224.14
778.04	224.00
778.36	223.87
778.69	223.83
779.01	223.77
779.33	223.40
779.66	223.20
779.98	222.97
780.31	222.84
780.63	222.74
780.95	222.68
781.28	222.56
781.60	222.41
781.92	222.33
782.25	222.18
782.57	222.08
782.89	221.98
