SpectraSuite Data File
++++++++++++++++++++++++++++++++++++
Date: Mon Feb 25 17:33:39 EST 2013
User: group
Dark Spectrum Present: No
Reference Spectrum Present: No
Number of Sampled Component Spectra: 1
Spectrometers: USB2E7196
Integration Time (usec): 52000 (USB2E7196)
Spectra Averaged: 20 (USB2E7196)
Boxcar Smoothing: 10 (USB2E7196)
Correct for Electrical Dark: No (USB2E7196)
Strobe/Lamp Enabled: No (USB2E7196)
Correct for Detector Non-linearity: No (USB2E7196)
Correct for Stray Light: No (USB2E7196)
Number of Pixels in Processed Spectrum: 2048
>>>>>Begin Processed Spectral Data<<<<<
339.09	0.00
339.48	198.40
339.86	200.15
340.24	201.65
340.63	202.20
341.01	205.65
341.39	206.45
341.78	207.45
342.16	207.65
342.54	208.20
342.93	197.93
343.31	207.87
343.69	208.43
344.07	208.92
344.46	209.36
344.84	209.74
345.22	209.97
345.60	210.24
345.99	210.42
346.37	210.61
346.75	210.74
347.13	210.79
347.52	210.87
347.90	211.00
348.28	211.08
348.66	211.09
349.05	211.09
349.43	211.13
349.81	211.15
350.19	211.27
350.57	211.31
350.96	211.29
351.34	211.49
351.72	211.58
352.10	211.66
352.48	211.66
352.87	211.72
353.25	211.80
353.63	211.81
354.01	211.87
354.39	211.88
354.77	211.98
355.15	212.12
355.54	212.17
355.92	212.11
356.30	212.20
356.68	212.44
357.06	212.54
357.44	212.58
357.82	212.69
358.20	212.70
358.58	212.72
358.97	212.87
359.35	212.93
359.73	213.00
360.11	213.09
360.49	213.21
360.87	213.27
361.25	213.38
361.63	213.46
362.01	213.53
362.39	213.71
362.77	213.69
363.15	213.80
363.53	213.83
363.91	213.98
364.29	214.01
364.67	213.85
365.05	213.85
365.43	213.88
365.81	213.95
366.19	214.06
366.57	214.23
366.95	214.17
367.33	214.15
367.71	214.22
368.09	214.26
368.47	214.26
368.85	214.30
369.23	214.34
369.61	214.32
369.99	214.38
370.37	214.28
370.75	214.38
371.13	214.25
371.51	214.19
371.89	214.07
372.27	214.02
372.65	213.98
373.03	213.92
373.41	213.87
373.78	213.78
374.16	213.70
374.54	213.54
374.92	213.46
375.30	213.41
375.68	213.25
376.06	213.19
376.44	213.11
376.82	213.04
377.19	212.96
377.57	212.92
377.95	212.77
378.33	212.73
378.71	212.66
379.09	212.62
379.47	212.69
379.84	212.60
380.22	212.56
380.60	212.56
380.98	212.50
381.36	212.46
381.73	212.36
382.11	212.31
382.49	212.29
382.87	212.29
383.25	212.33
383.62	212.54
384.00	212.45
384.38	212.41
384.76	212.45
385.13	212.47
385.51	212.45
385.89	212.50
386.27	212.47
386.64	212.45
387.02	212.46
387.40	212.36
387.78	212.47
388.15	212.44
388.53	212.34
388.91	212.33
389.29	212.33
389.66	212.35
390.04	212.33
390.42	212.38
390.79	212.41
391.17	212.32
391.55	212.17
391.92	212.22
392.30	212.25
392.68	212.16
393.05	212.16
393.43	212.10
393.81	212.02
394.18	211.99
394.56	211.95
394.94	212.01
395.31	211.99
395.69	212.01
396.06	212.03
396.44	212.04
396.82	212.02
397.19	212.13
397.57	212.14
397.95	212.15
398.32	212.08
398.70	212.06
399.07	212.13
399.45	212.08
399.82	212.02
400.20	212.04
400.58	212.13
400.95	212.07
401.33	212.10
401.70	212.33
402.08	212.38
402.45	212.45
402.83	212.47
403.20	212.51
403.58	212.46
403.95	212.55
404.33	212.68
404.71	212.81
405.08	212.95
405.46	213.07
405.83	213.20
406.21	213.34
406.58	213.44
406.96	213.50
407.33	213.67
407.70	213.95
408.08	214.25
408.45	214.46
408.83	214.67
409.20	214.90
409.58	214.99
409.95	215.30
410.33	215.62
410.70	215.85
411.08	216.29
411.45	216.69
411.82	217.07
412.20	217.52
412.57	218.05
412.95	218.30
413.32	218.78
413.69	219.30
414.07	219.86
414.44	220.55
414.82	221.24
415.19	221.93
415.56	222.66
415.94	223.37
416.31	224.20
416.68	225.16
417.06	226.13
417.43	227.16
417.81	228.21
418.18	229.24
418.55	230.51
418.93	231.80
419.30	233.11
419.67	234.52
420.04	235.95
420.42	237.39
420.79	239.26
421.16	240.99
421.54	242.81
421.91	244.63
422.28	246.48
422.66	248.51
423.03	250.70
423.40	252.75
423.77	255.00
424.15	257.19
424.52	259.44
424.89	262.13
425.26	264.57
425.64	266.94
426.01	269.52
426.38	272.19
426.75	274.91
427.13	277.72
427.50	280.66
427.87	283.75
428.24	286.93
428.61	289.83
428.99	293.15
429.36	296.65
429.73	300.18
430.10	303.70
430.47	307.26
430.85	310.78
431.22	314.68
431.59	318.80
431.96	322.80
432.33	327.21
432.70	331.38
433.08	336.34
433.45	340.96
433.82	345.61
434.19	350.67
434.56	355.69
434.93	360.52
435.30	365.31
435.68	370.65
436.05	375.76
436.42	380.93
436.79	385.65
437.16	390.85
437.53	396.24
437.90	401.51
438.27	406.69
438.64	412.15
439.01	417.15
439.38	421.54
439.75	425.87
440.13	430.64
440.50	435.05
440.87	438.79
441.24	442.65
441.61	446.83
441.98	449.87
442.35	453.31
442.72	456.94
443.09	460.44
443.46	462.47
443.83	463.83
444.20	464.99
444.57	466.80
444.94	467.51
445.31	468.30
445.68	469.05
446.05	469.29
446.42	468.56
446.79	467.87
447.16	466.99
447.53	466.39
447.90	464.39
448.27	462.35
448.64	459.37
449.01	457.29
449.37	453.77
449.74	450.41
450.11	446.40
450.48	441.96
450.85	437.43
451.22	433.38
451.59	429.67
451.96	426.10
452.33	421.29
452.70	416.96
453.07	411.80
453.43	406.55
453.80	401.54
454.17	396.76
454.54	392.16
454.91	387.35
455.28	382.59
455.65	378.13
456.02	373.92
456.38	370.12
456.75	365.45
457.12	361.59
457.49	357.80
457.86	353.98
458.23	350.70
458.59	347.20
458.96	343.74
459.33	340.55
459.70	337.34
460.07	334.73
460.43	331.80
460.80	329.02
461.17	326.63
461.54	324.08
461.91	321.80
462.27	319.37
462.64	317.30
463.01	315.03
463.38	312.95
463.74	310.71
464.11	308.92
464.48	307.32
464.85	305.45
465.21	303.96
465.58	302.66
465.95	300.97
466.32	299.51
466.68	298.03
467.05	296.64
467.42	295.37
467.78	293.98
468.15	292.63
468.52	291.69
468.88	290.36
469.25	289.16
469.62	288.25
469.98	287.22
470.35	286.40
470.72	285.60
471.08	284.56
471.45	283.77
471.82	282.94
472.18	282.04
472.55	281.55
472.92	280.87
473.28	280.18
473.65	279.55
474.02	279.02
474.38	278.68
474.75	278.32
475.11	277.81
475.48	277.58
475.85	277.35
476.21	277.13
476.58	277.00
476.94	277.08
477.31	276.97
477.67	276.98
478.04	277.02
478.41	277.14
478.77	277.53
479.14	277.64
479.50	277.89
479.87	278.34
480.23	278.66
480.60	279.08
480.96	279.57
481.33	280.22
481.69	280.78
482.06	281.42
482.42	282.08
482.79	282.89
483.15	283.72
483.52	284.75
483.88	285.71
484.25	286.77
484.61	287.78
484.98	288.81
485.34	290.12
485.71	291.34
486.07	292.72
486.44	293.98
486.80	295.57
487.17	297.20
487.53	298.97
487.90	300.89
488.26	302.84
488.62	304.91
488.99	306.98
489.35	309.09
489.72	311.26
490.08	313.57
490.44	315.96
490.81	318.54
491.17	321.05
491.54	323.87
491.90	326.85
492.26	330.15
492.63	333.62
492.99	336.94
493.36	340.77
493.72	344.60
494.08	348.65
494.45	352.85
494.81	357.44
495.17	361.98
495.54	366.81
495.90	371.74
496.26	376.94
496.63	382.45
496.99	388.27
497.35	394.38
497.72	400.74
498.08	407.30
498.44	414.08
498.80	421.37
499.17	428.83
499.53	436.56
499.89	444.53
500.26	452.42
500.62	460.74
500.98	469.42
501.34	478.49
501.71	487.94
502.07	497.56
502.43	507.50
502.79	517.64
503.16	528.22
503.52	539.16
503.88	550.35
504.24	561.98
504.60	573.86
504.97	586.22
505.33	598.81
505.69	612.21
506.05	625.79
506.41	639.41
506.78	653.15
507.14	667.29
507.50	681.74
507.86	697.04
508.22	712.53
508.59	727.99
508.95	744.03
509.31	760.31
509.67	776.97
510.03	793.87
510.39	811.50
510.75	829.17
511.12	847.43
511.48	865.81
511.84	884.28
512.20	902.93
512.56	921.98
512.92	941.44
513.28	960.85
513.64	980.33
514.00	1000.23
514.37	1020.66
514.73	1041.42
515.09	1062.38
515.45	1083.17
515.81	1104.32
516.17	1125.68
516.53	1147.19
516.89	1168.70
517.25	1190.51
517.61	1212.14
517.97	1233.71
518.33	1255.38
518.69	1277.08
519.05	1299.15
519.41	1321.57
519.77	1344.16
520.13	1366.64
520.49	1388.88
520.85	1411.78
521.21	1434.57
521.57	1457.89
521.93	1479.98
522.29	1503.00
522.65	1525.77
523.01	1548.21
523.37	1570.41
523.73	1592.84
524.09	1614.88
524.45	1637.35
524.81	1659.82
525.17	1682.42
525.53	1704.86
525.89	1727.26
526.25	1749.42
526.61	1771.08
526.97	1792.82
527.33	1814.03
527.68	1835.35
528.04	1856.61
528.40	1876.85
528.76	1897.83
529.12	1918.08
529.48	1939.97
529.84	1960.50
530.20	1980.52
530.56	2001.08
530.91	2021.98
531.27	2042.34
531.63	2062.77
531.99	2082.68
532.35	2101.91
532.71	2120.90
533.07	2140.73
533.42	2159.32
533.78	2177.98
534.14	2196.37
534.50	2213.43
534.86	2232.11
535.21	2249.10
535.57	2267.02
535.93	2284.70
536.29	2301.63
536.65	2318.27
537.00	2333.70
537.36	2348.85
537.72	2364.26
538.08	2379.69
538.44	2395.02
538.79	2410.77
539.15	2425.40
539.51	2440.22
539.87	2455.49
540.22	2469.98
540.58	2484.65
540.94	2499.28
541.29	2512.84
541.65	2525.03
542.01	2538.29
542.37	2549.80
542.72	2562.30
543.08	2573.26
543.44	2584.91
543.79	2594.84
544.15	2605.55
544.51	2616.46
544.87	2627.53
545.22	2637.07
545.58	2645.72
545.94	2653.21
546.29	2659.40
546.65	2665.87
547.01	2671.70
547.36	2677.36
547.72	2683.08
548.07	2687.15
548.43	2690.65
548.79	2694.05
549.14	2699.03
549.50	2703.89
549.86	2708.11
550.21	2711.99
550.57	2715.99
550.92	2718.78
551.28	2721.82
551.64	2724.28
551.99	2726.77
552.35	2728.17
552.70	2730.96
553.06	2733.52
553.41	2736.72
553.77	2739.90
554.13	2742.55
554.48	2744.64
554.84	2746.38
555.19	2746.61
555.55	2747.49
555.90	2748.37
556.26	2749.37
556.61	2749.14
556.97	2747.40
557.32	2747.22
557.68	2745.58
558.03	2744.07
558.39	2742.45
558.74	2742.34
559.10	2740.95
559.45	2739.13
559.81	2737.96
560.16	2735.22
560.52	2732.94
560.87	2729.72
561.23	2726.05
561.58	2723.70
561.94	2720.55
562.29	2716.80
562.64	2714.91
563.00	2712.07
563.35	2709.92
563.71	2708.05
564.06	2705.99
564.42	2704.54
564.77	2701.74
565.12	2700.16
565.48	2697.21
565.83	2694.18
566.19	2690.58
566.54	2686.61
566.89	2682.79
567.25	2679.41
567.60	2676.09
567.96	2672.46
568.31	2669.16
568.66	2665.37
569.02	2660.31
569.37	2655.53
569.72	2651.29
570.08	2645.99
570.43	2640.25
570.78	2634.31
571.14	2627.84
571.49	2621.00
571.84	2614.91
572.20	2608.01
572.55	2601.12
572.90	2594.19
573.26	2587.37
573.61	2580.18
573.96	2573.35
574.31	2565.65
574.67	2557.31
575.02	2548.86
575.37	2540.34
575.72	2531.13
576.08	2523.53
576.43	2514.77
576.78	2506.84
577.13	2498.91
577.49	2490.96
577.84	2483.45
578.19	2475.69
578.54	2468.25
578.90	2461.51
579.25	2452.73
579.60	2443.56
579.95	2434.11
580.30	2425.98
580.66	2417.65
581.01	2408.58
581.36	2399.50
581.71	2390.80
582.06	2382.32
582.42	2373.98
582.77	2364.83
583.12	2355.79
583.47	2346.78
583.82	2338.59
584.17	2329.41
584.53	2320.28
584.88	2311.04
585.23	2301.69
585.58	2292.30
585.93	2282.51
586.28	2273.24
586.63	2264.45
586.98	2256.11
587.34	2247.95
587.69	2239.17
588.04	2229.80
588.39	2221.48
588.74	2212.55
589.09	2203.90
589.44	2194.53
589.79	2186.04
590.14	2177.83
590.49	2169.37
590.84	2160.42
591.19	2152.29
591.54	2143.78
591.89	2133.75
592.25	2124.76
592.60	2115.21
592.95	2105.76
593.30	2096.55
593.65	2086.51
594.00	2076.48
594.35	2068.65
594.70	2059.38
595.05	2050.34
595.40	2041.50
595.75	2031.73
596.10	2023.25
596.45	2014.75
596.80	2006.87
597.15	1998.30
597.50	1989.22
597.85	1980.80
598.19	1972.03
598.54	1963.46
598.89	1955.38
599.24	1948.72
599.59	1941.13
599.94	1934.14
600.29	1926.34
600.64	1918.20
600.99	1909.95
601.34	1903.05
601.69	1893.67
602.04	1885.53
602.39	1877.13
602.74	1869.37
603.08	1862.82
603.43	1855.57
603.78	1847.51
604.13	1839.27
604.48	1831.42
604.83	1824.59
605.18	1817.64
605.53	1810.01
605.87	1802.29
606.22	1794.81
606.57	1786.59
606.92	1778.39
607.27	1770.30
607.62	1763.05
607.96	1756.12
608.31	1749.83
608.66	1741.90
609.01	1734.48
609.36	1726.71
609.70	1719.10
610.05	1711.54
610.40	1703.18
610.75	1694.60
611.10	1686.96
611.44	1677.62
611.79	1668.66
612.14	1659.41
612.49	1649.44
612.83	1640.71
613.18	1630.84
613.53	1621.56
613.88	1612.00
614.22	1603.25
614.57	1593.75
614.92	1584.32
615.27	1574.95
615.61	1564.95
615.96	1556.00
616.31	1547.65
616.65	1539.74
617.00	1531.51
617.35	1522.78
617.70	1513.65
618.04	1504.58
618.39	1495.23
618.74	1486.92
619.08	1478.10
619.43	1469.70
619.78	1462.07
620.12	1453.81
620.47	1446.09
620.82	1437.41
621.16	1429.17
621.51	1420.71
621.85	1412.45
622.20	1404.03
622.55	1395.32
622.89	1387.30
623.24	1379.44
623.59	1370.49
623.93	1361.88
624.28	1353.36
624.62	1344.84
624.97	1336.89
625.32	1329.07
625.66	1321.48
626.01	1314.10
626.35	1306.99
626.70	1299.18
627.04	1291.60
627.39	1283.99
627.73	1276.37
628.08	1269.53
628.43	1261.86
628.77	1254.24
629.12	1247.07
629.46	1240.47
629.81	1233.41
630.15	1225.81
630.50	1218.14
630.84	1211.04
631.19	1203.70
631.53	1196.75
631.88	1189.23
632.22	1181.53
632.57	1174.52
632.91	1167.09
633.26	1159.71
633.60	1152.54
633.95	1145.71
634.29	1138.62
634.64	1131.96
634.98	1124.98
635.32	1117.76
635.67	1111.59
636.01	1104.95
636.36	1098.04
636.70	1091.20
637.05	1084.56
637.39	1078.46
637.73	1072.19
638.08	1066.49
638.42	1060.72
638.77	1054.28
639.11	1048.19
639.45	1042.21
639.80	1035.82
640.14	1029.47
640.49	1023.40
640.83	1016.85
641.17	1010.34
641.52	1004.05
641.86	997.45
642.20	991.21
642.55	984.52
642.89	977.99
643.23	971.66
643.58	965.86
643.92	959.42
644.26	953.25
644.61	947.25
644.95	941.06
645.29	934.50
645.64	927.83
645.98	921.75
646.32	915.84
646.66	909.56
647.01	903.55
647.35	897.56
647.69	891.18
648.04	885.45
648.38	879.51
648.72	873.49
649.06	867.41
649.41	861.36
649.75	855.69
650.09	849.75
650.43	843.95
650.78	837.48
651.12	831.43
651.46	825.75
651.80	819.69
652.14	813.82
652.49	807.94
652.83	802.16
653.17	795.98
653.51	790.00
653.85	784.49
654.20	778.70
654.54	772.93
654.88	767.43
655.22	761.50
655.56	755.63
655.90	749.69
656.25	744.00
656.59	738.55
656.93	733.37
657.27	728.14
657.61	722.75
657.95	717.76
658.29	712.65
658.64	707.65
658.98	702.30
659.32	696.78
659.66	691.62
660.00	686.10
660.34	681.00
660.68	675.91
661.02	670.70
661.36	665.80
661.70	660.96
662.05	656.08
662.39	651.63
662.73	647.38
663.07	643.24
663.41	638.73
663.75	634.02
664.09	629.29
664.43	624.40
664.77	619.81
665.11	615.35
665.45	610.92
665.79	606.28
666.13	602.10
666.47	597.97
666.81	593.79
667.15	589.87
667.49	585.96
667.83	582.01
668.17	578.26
668.51	574.38
668.85	570.65
669.19	566.96
669.53	563.01
669.87	558.93
670.21	554.95
670.55	551.34
670.89	547.92
671.23	544.50
671.57	541.19
671.91	537.65
672.25	534.03
672.58	530.54
672.92	526.96
673.26	523.77
673.60	520.49
673.94	517.12
674.28	513.75
674.62	510.41
674.96	507.30
675.30	504.06
675.64	500.94
675.97	497.79
676.31	494.77
676.65	491.81
676.99	489.15
677.33	486.29
677.67	483.20
678.01	480.14
678.34	477.13
678.68	474.28
679.02	471.41
679.36	468.65
679.70	465.76
680.04	462.94
680.37	459.75
680.71	456.96
681.05	454.16
681.39	451.41
681.73	448.78
682.06	446.20
682.40	443.67
682.74	441.11
683.08	438.61
683.42	436.12
683.75	433.62
684.09	430.94
684.43	428.28
684.77	425.75
685.10	423.21
685.44	420.67
685.78	418.03
686.12	415.73
686.45	413.30
686.79	411.06
687.13	409.05
687.46	407.04
687.80	404.80
688.14	402.60
688.48	400.47
688.81	398.26
689.15	396.07
689.49	393.85
689.82	391.56
690.16	389.13
690.50	386.71
690.83	384.42
691.17	382.21
691.51	380.10
691.84	378.08
692.18	376.09
692.52	374.16
692.85	372.40
693.19	370.49
693.52	368.54
693.86	366.48
694.20	364.47
694.53	362.53
694.87	360.54
695.21	358.58
695.54	356.67
695.88	354.75
696.21	352.76
696.55	351.01
696.88	349.22
697.22	347.52
697.56	345.88
697.89	344.18
698.23	342.50
698.56	340.90
698.90	339.29
699.23	337.65
699.57	336.01
699.90	334.29
700.24	332.70
700.58	331.15
700.91	329.62
701.25	328.20
701.58	326.62
701.92	325.16
702.25	323.90
702.59	322.54
702.92	321.21
703.26	319.88
703.59	318.48
703.93	317.33
704.26	316.07
704.60	314.83
704.93	313.51
705.26	312.21
705.60	310.92
705.93	309.75
706.27	308.59
706.60	307.49
706.94	306.41
707.27	305.05
707.61	303.92
707.94	302.90
708.27	301.61
708.61	300.54
708.94	299.51
709.28	298.31
709.61	297.20
709.94	296.16
710.28	295.16
710.61	294.14
710.95	292.99
711.28	291.99
711.61	290.93
711.95	290.04
712.28	289.08
712.61	288.10
712.95	287.14
713.28	286.19
713.61	285.13
713.95	284.23
714.28	283.42
714.61	282.46
714.95	281.42
715.28	280.44
715.61	279.52
715.95	278.59
716.28	277.70
716.61	276.88
716.95	275.99
717.28	275.10
717.61	274.22
717.94	273.47
718.28	272.65
718.61	271.90
718.94	271.15
719.27	270.44
719.61	269.69
719.94	268.92
720.27	268.14
720.60	267.44
720.94	266.64
721.27	265.90
721.60	265.25
721.93	264.61
722.27	264.02
722.60	263.40
722.93	262.87
723.26	262.31
723.59	261.62
723.93	260.99
724.26	260.48
724.59	259.96
724.92	259.38
725.25	258.83
725.59	258.27
725.92	257.69
726.25	257.10
726.58	256.65
726.91	256.14
727.24	255.68
727.57	255.18
727.91	254.68
728.24	254.23
728.57	253.69
728.90	253.27
729.23	252.81
729.56	252.42
729.89	251.93
730.22	251.44
730.55	251.00
730.89	250.55
731.22	250.05
731.55	249.60
731.88	249.05
732.21	248.63
732.54	248.12
732.87	247.73
733.20	247.37
733.53	246.85
733.86	246.47
734.19	246.03
734.52	245.74
734.85	245.49
735.18	245.03
735.51	244.74
735.84	244.36
736.17	244.13
736.50	243.72
736.83	243.56
737.16	243.16
737.49	242.87
737.82	242.54
738.15	242.26
738.48	241.93
738.81	241.66
739.14	241.27
739.47	240.94
739.80	240.57
740.13	240.20
740.46	239.93
740.79	239.56
741.12	239.22
741.45	238.88
741.78	238.50
742.11	238.35
742.44	238.04
742.77	237.75
743.10	237.32
743.43	237.03
743.75	236.55
744.08	236.49
744.41	236.13
744.74	235.90
745.07	235.53
745.40	235.28
745.73	235.07
746.06	234.80
746.39	234.58
746.71	234.30
747.04	234.05
747.37	233.79
747.70	233.55
748.03	233.30
748.36	232.96
748.68	232.68
749.01	232.38
749.34	232.09
749.67	231.83
750.00	231.65
750.33	231.49
750.65	231.23
750.98	230.84
751.31	230.61
751.64	230.27
751.97	230.16
752.29	229.84
752.62	229.53
752.95	229.33
753.28	229.12
753.60	228.93
753.93	228.73
754.26	228.53
754.59	228.26
754.91	227.98
755.24	227.80
755.57	227.57
755.90	227.36
756.22	227.14
756.55	226.90
756.88	226.61
757.20	226.28
757.53	226.00
757.86	225.71
758.19	225.52
758.51	225.43
758.84	225.09
759.17	224.93
759.49	224.82
759.82	224.73
760.15	224.49
760.47	224.31
760.80	224.17
761.13	223.99
761.45	223.83
761.78	223.72
762.11	223.51
762.43	223.32
762.76	223.15
763.08	223.06
763.41	222.97
763.74	222.84
764.06	222.70
764.39	222.62
764.71	222.55
765.04	222.39
765.37	222.14
765.69	222.02
766.02	221.91
766.34	221.70
766.67	221.55
767.00	221.55
767.32	221.53
767.65	221.44
767.97	221.30
768.30	221.23
768.62	221.07
768.95	221.00
769.27	220.94
769.60	220.88
769.92	220.70
770.25	220.56
770.57	220.44
770.90	220.36
771.22	220.25
771.55	220.16
771.87	220.14
772.20	220.05
772.52	220.12
772.85	220.21
773.17	220.17
773.50	219.99
773.82	219.83
774.15	219.67
774.47	219.46
774.80	219.39
775.12	219.27
775.45	219.21
775.77	219.16
776.09	219.12
776.42	219.00
776.74	219.02
777.07	218.92
777.39	218.87
777.72	218.73
778.04	218.68
778.36	218.50
778.69	218.45
779.01	218.46
779.33	218.27
779.66	217.99
779.98	217.86
780.31	217.79
780.63	217.77
780.95	217.66
781.28	217.63
781.60	217.54
781.92	217.46
782.25	217.38
782.57	217.29
782.89	217.22
783.22	217.19
783.54	217.04
783.86	217.00
784.19	216.93
784.51	216.98
784.83	216.95
785.16	217.04
785.48	216.95
785.80	216.85
786.12	216.81
786.45	216.83
