SpectraSuite Data File
++++++++++++++++++++++++++++++++++++
Date: Mon Feb 25 17:30:48 EST 2013
User: group
Dark Spectrum Present: No
Reference Spectrum Present: No
Number of Sampled Component Spectra: 1
Spectrometers: USB2E7196
Integration Time (usec): 52000 (USB2E7196)
Spectra Averaged: 20 (USB2E7196)
Boxcar Smoothing: 10 (USB2E7196)
Correct for Electrical Dark: No (USB2E7196)
Strobe/Lamp Enabled: No (USB2E7196)
Correct for Detector Non-linearity: No (USB2E7196)
Correct for Stray Light: No (USB2E7196)
Number of Pixels in Processed Spectrum: 2048
>>>>>Begin Processed Spectral Data<<<<<
339.09	0.00
339.48	198.10
339.86	199.20
340.24	202.00
340.63	203.05
341.01	206.90
341.39	204.50
341.78	207.80
342.16	208.20
342.54	207.65
342.93	197.81
343.31	207.81
343.69	208.36
344.07	208.83
344.46	209.17
344.84	209.59
345.22	209.84
345.60	210.10
345.99	210.25
346.37	210.34
346.75	210.53
347.13	210.55
347.52	210.64
347.90	210.74
348.28	210.78
348.66	210.81
349.05	210.84
349.43	210.85
349.81	210.97
350.19	211.05
350.57	211.07
350.96	211.14
351.34	211.19
351.72	211.27
352.10	211.47
352.48	211.57
352.87	211.61
353.25	211.65
353.63	211.77
354.01	211.85
354.39	212.00
354.77	212.04
355.15	212.22
355.54	212.22
355.92	212.25
356.30	212.36
356.68	212.52
357.06	212.63
357.44	212.65
357.82	212.68
358.20	212.76
358.58	212.85
358.97	212.85
359.35	213.05
359.73	213.20
360.11	213.17
360.49	213.30
360.87	213.33
361.25	213.41
361.63	213.55
362.01	213.61
362.39	213.59
362.77	213.61
363.15	213.63
363.53	213.70
363.91	213.78
364.29	213.83
364.67	213.77
365.05	213.70
365.43	213.78
365.81	213.83
366.19	213.96
366.57	214.04
366.95	214.10
367.33	214.03
367.71	214.04
368.09	214.08
368.47	214.06
368.85	214.07
369.23	214.01
369.61	213.91
369.99	213.90
370.37	213.97
370.75	214.01
371.13	214.00
371.51	213.93
371.89	213.92
372.27	213.88
372.65	213.91
373.03	213.95
373.41	213.95
373.78	213.92
374.16	213.77
374.54	213.67
374.92	213.60
375.30	213.58
375.68	213.44
376.06	213.39
376.44	213.34
376.82	213.33
377.19	213.22
377.57	213.13
377.95	213.08
378.33	213.00
378.71	212.96
379.09	212.96
379.47	213.04
379.84	212.98
380.22	212.96
380.60	212.82
380.98	212.76
381.36	212.67
381.73	212.59
382.11	212.58
382.49	212.50
382.87	212.52
383.25	212.45
383.62	212.64
384.00	212.66
384.38	212.58
384.76	212.47
385.13	212.58
385.51	212.59
385.89	212.50
386.27	212.49
386.64	212.43
387.02	212.33
387.40	212.18
387.78	212.09
388.15	212.12
388.53	212.06
388.91	212.07
389.29	212.05
389.66	212.06
390.04	212.07
390.42	212.12
390.79	212.06
391.17	212.02
391.55	211.81
391.92	211.71
392.30	211.79
392.68	211.75
393.05	211.74
393.43	211.75
393.81	211.72
394.18	211.71
394.56	211.75
394.94	211.75
395.31	211.77
395.69	211.79
396.06	211.76
396.44	211.85
396.82	211.76
397.19	211.86
397.57	211.79
397.95	211.81
398.32	211.83
398.70	211.90
399.07	211.90
399.45	211.93
399.82	211.99
400.20	211.99
400.58	212.05
400.95	212.01
401.33	212.07
401.70	212.29
402.08	212.32
402.45	212.35
402.83	212.44
403.20	212.48
403.58	212.52
403.95	212.54
404.33	212.66
404.71	212.80
405.08	213.00
405.46	213.16
405.83	213.27
406.21	213.30
406.58	213.34
406.96	213.62
407.33	213.76
407.70	213.94
408.08	214.20
408.45	214.42
408.83	214.68
409.20	214.92
409.58	215.01
409.95	215.32
410.33	215.57
410.70	215.85
411.08	216.18
411.45	216.61
411.82	217.01
412.20	217.34
412.57	217.83
412.95	218.05
413.32	218.54
413.69	218.97
414.07	219.59
414.44	220.25
414.82	220.72
415.19	221.41
415.56	222.20
415.94	222.96
416.31	223.84
416.68	224.66
417.06	225.50
417.43	226.55
417.81	227.62
418.18	228.76
418.55	229.93
418.93	231.19
419.30	232.45
419.67	233.76
420.04	235.18
420.42	236.65
420.79	238.45
421.16	240.11
421.54	241.95
421.91	243.69
422.28	245.56
422.66	247.71
423.03	249.80
423.40	251.76
423.77	253.91
424.15	256.13
424.52	258.46
424.89	261.07
425.26	263.36
425.64	265.68
426.01	268.20
426.38	270.71
426.75	273.37
427.13	276.08
427.50	278.92
427.87	281.96
428.24	285.00
428.61	287.88
428.99	291.17
429.36	294.59
429.73	297.97
430.10	301.34
430.47	304.83
430.85	308.32
431.22	312.15
431.59	316.15
431.96	319.98
432.33	324.22
432.70	328.28
433.08	333.15
433.45	337.61
433.82	342.10
434.19	347.21
434.56	352.14
434.93	356.91
435.30	361.58
435.68	366.71
436.05	371.80
436.42	376.75
436.79	381.25
437.16	386.10
437.53	391.37
437.90	396.51
438.27	401.44
438.64	406.80
439.01	411.65
439.38	416.00
439.75	420.11
440.13	424.96
440.50	429.40
440.87	433.14
441.24	436.95
441.61	441.11
441.98	444.01
442.35	447.59
442.72	451.07
443.09	454.57
443.46	456.69
443.83	458.15
444.20	459.29
444.57	461.00
444.94	461.83
445.31	462.44
445.68	463.30
446.05	463.54
446.42	462.77
446.79	461.99
447.16	461.16
447.53	460.59
447.90	458.35
448.27	456.25
448.64	453.32
449.01	451.09
449.37	447.58
449.74	444.21
450.11	440.24
450.48	435.89
450.85	431.35
451.22	427.41
451.59	423.60
451.96	420.20
452.33	415.50
452.70	411.25
453.07	406.37
453.43	401.18
453.80	396.42
454.17	391.75
454.54	387.27
454.91	382.48
455.28	377.98
455.65	373.71
456.02	369.55
456.38	365.82
456.75	361.42
457.12	357.66
457.49	354.00
457.86	350.19
458.23	347.03
458.59	343.69
458.96	340.19
459.33	337.00
459.70	333.90
460.07	331.43
460.43	328.69
460.80	326.16
461.17	323.75
461.54	321.27
461.91	318.95
462.27	316.70
462.64	314.84
463.01	312.56
463.38	310.53
463.74	308.41
464.11	306.65
464.48	305.07
464.85	303.32
465.21	301.97
465.58	300.61
465.95	298.97
466.32	297.49
466.68	296.17
467.05	294.97
467.42	293.57
467.78	292.21
468.15	290.83
468.52	289.78
468.88	288.60
469.25	287.44
469.62	286.66
469.98	285.77
470.35	284.79
470.72	283.94
471.08	282.94
471.45	282.14
471.82	281.36
472.18	280.50
472.55	279.93
472.92	279.24
473.28	278.72
473.65	278.04
474.02	277.50
474.38	277.06
474.75	276.73
475.11	276.38
475.48	276.14
475.85	276.00
476.21	275.81
476.58	275.72
476.94	275.73
477.31	275.59
477.67	275.50
478.04	275.65
478.41	275.84
478.77	276.22
479.14	276.45
479.50	276.71
479.87	277.14
480.23	277.49
480.60	277.91
480.96	278.32
481.33	279.07
481.69	279.78
482.06	280.43
482.42	281.04
482.79	281.81
483.15	282.74
483.52	283.71
483.88	284.68
484.25	285.74
484.61	286.77
484.98	287.96
485.34	289.25
485.71	290.47
486.07	291.87
486.44	293.24
486.80	294.79
487.17	296.41
487.53	298.09
487.90	299.90
488.26	301.81
488.62	303.94
488.99	306.00
489.35	308.06
489.72	310.42
490.08	312.80
490.44	315.21
490.81	317.80
491.17	320.40
491.54	323.23
491.90	326.18
492.26	329.38
492.63	332.61
492.99	336.08
493.36	339.75
493.72	343.57
494.08	347.64
494.45	351.91
494.81	356.34
495.17	360.88
495.54	365.69
495.90	370.70
496.26	375.73
496.63	381.22
496.99	387.05
497.35	393.00
497.72	399.21
498.08	405.79
498.44	412.50
498.80	419.63
499.17	427.00
499.53	434.59
499.89	442.55
500.26	450.62
500.62	458.87
500.98	467.69
501.34	476.83
501.71	486.17
502.07	495.71
502.43	505.69
502.79	516.01
503.16	526.58
503.52	537.55
503.88	548.65
504.24	560.10
504.60	571.99
504.97	584.06
505.33	596.53
505.69	609.60
506.05	623.04
506.41	636.33
506.78	650.22
507.14	664.23
507.50	678.77
507.86	693.75
508.22	709.21
508.59	724.40
508.95	740.01
509.31	756.05
509.67	772.71
510.03	789.53
510.39	806.92
510.75	824.46
511.12	842.23
511.48	860.50
511.84	878.94
512.20	897.26
512.56	916.46
512.92	935.62
513.28	954.91
513.64	974.48
514.00	994.26
514.37	1014.15
514.73	1034.67
515.09	1055.08
515.45	1075.66
515.81	1096.59
516.17	1117.93
516.53	1139.09
516.89	1160.45
517.25	1181.47
517.61	1202.70
517.97	1223.74
518.33	1245.18
518.69	1266.86
519.05	1288.58
519.41	1310.38
519.77	1332.71
520.13	1354.00
520.49	1375.88
520.85	1398.08
521.21	1419.89
521.57	1442.70
521.93	1464.68
522.29	1487.16
522.65	1509.33
523.01	1531.49
523.37	1552.82
523.73	1574.63
524.09	1596.37
524.45	1618.14
524.81	1640.19
525.17	1662.43
525.53	1684.50
525.89	1706.36
526.25	1727.83
526.61	1748.79
526.97	1770.07
527.33	1790.75
527.68	1812.23
528.04	1832.99
528.40	1853.01
528.76	1873.48
529.12	1893.60
529.48	1914.50
529.84	1934.45
530.20	1954.34
530.56	1974.33
530.91	1994.92
531.27	2014.93
531.63	2034.64
531.99	2053.95
532.35	2072.75
532.71	2091.13
533.07	2110.28
533.42	2128.19
533.78	2146.53
534.14	2164.77
534.50	2181.74
534.86	2199.52
535.21	2215.68
535.57	2232.88
535.93	2249.76
536.29	2266.07
536.65	2282.02
537.00	2297.16
537.36	2311.80
537.72	2326.41
538.08	2341.11
538.44	2355.70
538.79	2370.40
539.15	2384.71
539.51	2398.85
539.87	2413.61
540.22	2427.58
540.58	2441.68
540.94	2455.64
541.29	2468.14
541.65	2479.66
542.01	2492.15
542.37	2503.42
542.72	2515.43
543.08	2526.12
543.44	2537.34
543.79	2547.10
544.15	2557.10
544.51	2567.41
544.87	2578.05
545.22	2586.84
545.58	2595.25
545.94	2602.14
546.29	2608.06
546.65	2614.05
547.01	2619.85
547.36	2624.98
547.72	2630.24
548.07	2634.26
548.43	2637.82
548.79	2641.42
549.14	2645.89
549.50	2649.97
549.86	2653.97
550.21	2657.73
550.57	2661.73
550.92	2664.21
551.28	2666.80
551.64	2668.97
551.99	2670.98
552.35	2672.32
552.70	2674.64
553.06	2676.88
553.41	2679.52
553.77	2682.22
554.13	2684.17
554.48	2685.95
554.84	2687.44
555.19	2687.65
555.55	2687.70
555.90	2687.87
556.26	2688.44
556.61	2687.87
556.97	2686.65
557.32	2685.63
557.68	2683.37
558.03	2681.29
558.39	2679.67
558.74	2678.89
559.10	2677.69
559.45	2675.69
559.81	2674.09
560.16	2671.73
560.52	2668.90
560.87	2665.95
561.23	2661.80
561.58	2659.29
561.94	2656.11
562.29	2652.18
562.64	2649.55
563.00	2646.63
563.35	2644.34
563.71	2641.94
564.06	2639.82
564.42	2637.75
564.77	2635.00
565.12	2633.46
565.48	2630.38
565.83	2627.09
566.19	2623.78
566.54	2619.12
566.89	2615.34
567.25	2611.63
567.60	2608.12
567.96	2604.42
568.31	2600.70
568.66	2597.22
569.02	2592.63
569.37	2587.47
569.72	2583.67
570.08	2578.46
570.43	2572.87
570.78	2567.61
571.14	2561.13
571.49	2554.50
571.84	2548.32
572.20	2541.78
572.55	2535.11
572.90	2528.25
573.26	2521.57
573.61	2514.54
573.96	2508.27
574.31	2500.47
574.67	2492.54
575.02	2483.99
575.37	2475.52
575.72	2466.81
576.08	2459.12
576.43	2450.56
576.78	2442.86
577.13	2434.71
577.49	2427.11
577.84	2419.59
578.19	2411.70
578.54	2404.68
578.90	2397.91
579.25	2389.46
579.60	2380.45
579.95	2371.38
580.30	2363.89
580.66	2355.62
581.01	2346.78
581.36	2337.76
581.71	2329.58
582.06	2321.30
582.42	2313.67
582.77	2304.96
583.12	2296.11
583.47	2287.92
583.82	2279.93
584.17	2270.84
584.53	2261.97
584.88	2253.20
585.23	2244.45
585.58	2235.05
585.93	2225.51
586.28	2216.65
586.63	2208.06
586.98	2200.26
587.34	2192.18
587.69	2183.04
588.04	2174.21
588.39	2165.99
588.74	2157.24
589.09	2148.82
589.44	2139.47
589.79	2130.93
590.14	2123.29
590.49	2115.18
590.84	2106.16
591.19	2098.49
591.54	2090.31
591.89	2080.11
592.25	2070.92
592.60	2061.86
592.95	2052.99
593.30	2043.75
593.65	2033.93
594.00	2024.39
594.35	2016.09
594.70	2007.05
595.05	1998.54
595.40	1990.07
595.75	1980.99
596.10	1973.00
596.45	1964.80
596.80	1957.40
597.15	1949.49
597.50	1940.36
597.85	1932.22
598.19	1923.84
598.54	1915.17
598.89	1907.65
599.24	1901.42
599.59	1894.26
599.94	1887.04
600.29	1879.42
600.64	1871.82
600.99	1863.93
601.34	1857.04
601.69	1848.65
602.04	1840.74
602.39	1832.81
602.74	1825.24
603.08	1818.94
603.43	1812.10
603.78	1804.50
604.13	1796.39
604.48	1788.20
604.83	1781.60
605.18	1774.66
605.53	1767.50
605.87	1760.00
606.22	1753.02
606.57	1745.39
606.92	1737.61
607.27	1729.78
607.62	1722.94
607.96	1716.28
608.31	1710.12
608.66	1702.59
609.01	1695.30
609.36	1688.09
609.70	1680.34
610.05	1672.87
610.40	1664.60
610.75	1656.02
611.10	1648.23
611.44	1639.72
611.79	1631.46
612.14	1622.18
612.49	1612.95
612.83	1604.43
613.18	1594.92
613.53	1585.25
613.88	1575.72
614.22	1566.95
614.57	1557.95
614.92	1548.51
615.27	1539.45
615.61	1530.05
615.96	1521.27
616.31	1513.00
616.65	1505.11
617.00	1497.06
617.35	1488.69
617.70	1479.97
618.04	1471.25
618.39	1462.17
618.74	1453.75
619.08	1445.18
619.43	1437.51
619.78	1429.80
620.12	1421.73
620.47	1414.45
620.82	1406.28
621.16	1398.30
621.51	1390.33
621.85	1382.30
622.20	1373.99
622.55	1365.70
622.89	1357.64
623.24	1350.00
623.59	1341.47
623.93	1332.74
624.28	1324.72
624.62	1316.64
624.97	1308.70
625.32	1300.87
625.66	1293.83
626.01	1286.80
626.35	1279.80
626.70	1272.10
627.04	1264.81
627.39	1257.50
627.73	1249.84
628.08	1243.36
628.43	1236.26
628.77	1229.11
629.12	1221.75
629.46	1215.35
629.81	1208.39
630.15	1201.11
630.50	1193.91
630.84	1186.70
631.19	1179.98
631.53	1173.19
631.88	1165.81
632.22	1158.50
632.57	1151.79
632.91	1144.22
633.26	1136.88
633.60	1129.78
633.95	1123.28
634.29	1116.27
634.64	1109.68
634.98	1102.99
635.32	1095.81
635.67	1089.41
636.01	1082.79
636.36	1076.51
636.70	1070.00
637.05	1063.48
637.39	1057.24
637.73	1050.84
638.08	1045.12
638.42	1039.30
638.77	1033.03
639.11	1026.82
639.45	1021.02
639.80	1014.85
640.14	1008.87
640.49	1003.01
640.83	996.95
641.17	990.61
641.52	984.65
641.86	978.20
642.20	972.15
642.55	965.64
642.89	959.35
643.23	953.03
643.58	947.13
643.92	940.74
644.26	934.76
644.61	928.78
644.95	922.85
645.29	916.80
645.64	910.54
645.98	904.40
646.32	898.76
646.66	892.64
647.01	886.70
647.35	881.05
647.69	874.81
648.04	868.85
648.38	863.03
648.72	856.94
649.06	850.95
649.41	844.98
649.75	839.35
650.09	833.70
650.43	828.09
650.78	821.83
651.12	815.79
651.46	810.04
651.80	804.35
652.14	798.32
652.49	792.44
652.83	786.63
653.17	780.79
653.51	775.09
653.85	769.63
654.20	764.06
654.54	758.29
654.88	752.90
655.22	747.29
655.56	741.50
655.90	735.94
656.25	730.40
656.59	725.01
656.93	719.88
657.27	714.64
657.61	709.19
657.95	704.31
658.29	699.44
658.64	694.53
658.98	689.51
659.32	684.40
659.66	679.31
660.00	674.08
660.34	668.96
660.68	663.74
661.02	658.64
661.36	653.94
661.70	649.16
662.05	644.50
662.39	640.12
662.73	635.89
663.07	631.62
663.41	627.45
663.75	623.01
664.09	618.33
664.43	613.83
664.77	609.59
665.11	605.22
665.45	600.95
665.79	596.60
666.13	592.20
666.47	588.20
666.81	584.15
667.15	580.11
667.49	576.23
667.83	572.48
668.17	568.84
668.51	564.93
668.85	561.16
669.19	557.50
669.53	553.68
669.87	549.70
670.21	546.02
670.55	542.18
670.89	538.66
671.23	535.54
671.57	532.14
671.91	528.68
672.25	525.26
672.58	521.72
672.92	518.25
673.26	515.11
673.60	511.94
673.94	508.59
674.28	505.49
674.62	502.49
674.96	499.35
675.30	496.16
675.64	493.13
675.97	490.14
676.31	487.12
676.65	484.25
676.99	481.65
677.33	478.62
677.67	475.68
678.01	472.76
678.34	469.74
678.68	466.95
679.02	464.13
679.36	461.35
679.70	458.69
680.04	455.86
680.37	453.07
680.71	450.33
681.05	447.76
681.39	445.05
681.73	442.36
682.06	439.87
682.40	437.41
682.74	434.79
683.08	432.24
683.42	429.66
683.75	427.11
684.09	424.48
684.43	422.11
684.77	419.77
685.10	417.30
685.44	414.70
685.78	412.16
686.12	409.89
686.45	407.54
686.79	405.32
687.13	403.23
687.46	401.11
687.80	398.88
688.14	396.63
688.48	394.62
688.81	392.37
689.15	390.28
689.49	387.99
689.82	385.85
690.16	383.60
690.50	381.34
690.83	379.19
691.17	377.10
691.51	375.00
691.84	372.89
692.18	370.80
692.52	369.07
692.85	367.39
693.19	365.55
693.52	363.68
693.86	361.77
694.20	359.84
694.53	357.98
694.87	356.05
695.21	354.25
695.54	352.31
695.88	350.45
696.21	348.59
696.55	346.98
696.88	345.37
697.22	343.69
697.56	342.24
697.89	340.68
698.23	338.95
698.56	337.32
698.90	335.81
699.23	334.36
699.57	332.73
699.90	331.05
700.24	329.35
700.58	327.78
700.91	326.32
701.25	325.09
701.58	323.68
701.92	322.39
702.25	321.06
702.59	319.73
702.92	318.45
703.26	317.01
703.59	315.69
703.93	314.46
704.26	313.29
704.60	311.98
704.93	310.66
705.26	309.52
705.60	308.35
705.93	307.17
706.27	305.99
706.60	304.87
706.94	303.84
707.27	302.87
707.61	301.92
707.94	300.76
708.27	299.42
708.61	298.26
708.94	297.12
709.28	296.08
709.61	295.10
709.94	294.13
710.28	293.15
710.61	292.17
710.95	291.02
711.28	290.10
711.61	289.06
711.95	288.16
712.28	287.15
712.61	286.28
712.95	285.37
713.28	284.47
713.61	283.52
713.95	282.50
714.28	281.57
714.61	280.54
714.95	279.64
715.28	278.80
715.61	277.90
715.95	277.06
716.28	276.15
716.61	275.18
716.95	274.36
717.28	273.54
717.61	272.66
717.94	271.94
718.28	271.00
718.61	270.36
718.94	269.58
719.27	268.88
719.61	268.10
719.94	267.48
720.27	266.72
720.60	266.06
720.94	265.43
721.27	264.70
721.60	264.17
721.93	263.55
722.27	263.05
722.60	262.45
722.93	261.82
723.26	261.30
723.59	260.72
723.93	260.10
724.26	259.64
724.59	259.04
724.92	258.51
725.25	258.11
725.59	257.54
725.92	257.00
726.25	256.53
726.58	256.02
726.91	255.43
727.24	254.90
727.57	254.38
727.91	253.75
728.24	253.28
728.57	252.73
728.90	252.37
729.23	251.78
729.56	251.40
729.89	250.95
730.22	250.43
730.55	249.97
730.89	249.57
731.22	249.03
731.55	248.66
731.88	248.20
732.21	247.69
732.54	247.23
732.87	246.81
733.20	246.36
733.53	245.93
733.86	245.56
734.19	245.20
734.52	244.87
734.85	244.72
735.18	244.27
735.51	243.97
735.84	243.49
736.17	243.19
736.50	242.71
736.83	242.58
737.16	242.23
737.49	241.89
737.82	241.56
738.15	241.21
738.48	240.85
738.81	240.53
739.14	240.15
739.47	239.75
739.80	239.41
740.13	239.08
740.46	238.74
740.79	238.29
741.12	237.95
741.45	237.62
741.78	237.20
742.11	236.97
742.44	236.68
742.77	236.50
743.10	236.16
743.43	235.91
743.75	235.40
744.08	235.38
744.41	235.09
744.74	234.71
745.07	234.48
745.40	234.15
745.73	233.85
746.06	233.66
746.39	233.46
746.71	233.24
747.04	232.97
747.37	232.70
747.70	232.55
748.03	232.35
748.36	232.17
748.68	231.92
749.01	231.68
749.34	231.41
749.67	231.14
750.00	230.89
750.33	230.69
750.65	230.49
750.98	229.96
751.31	229.73
751.64	229.50
751.97	229.31
752.29	229.12
752.62	228.87
752.95	228.63
753.28	228.36
753.60	228.16
753.93	227.98
754.26	227.85
754.59	227.60
754.91	227.38
755.24	227.13
755.57	226.92
755.90	226.70
756.22	226.42
756.55	226.15
756.88	225.92
757.20	225.67
757.53	225.34
757.86	225.23
758.19	225.09
758.51	225.02
758.84	224.75
759.17	224.63
759.49	224.46
759.82	224.28
760.15	224.20
760.47	223.96
760.80	223.80
761.13	223.59
761.45	223.38
761.78	223.23
762.11	223.03
762.43	222.88
762.76	222.76
763.08	222.71
763.41	222.60
763.74	222.47
764.06	222.34
764.39	222.34
764.71	222.19
765.04	222.03
765.37	221.84
765.69	221.66
766.02	221.50
766.34	221.40
766.67	221.29
767.00	221.18
767.32	221.22
767.65	221.15
767.97	220.99
768.30	220.95
768.62	220.78
768.95	220.66
769.27	220.51
769.60	220.44
769.92	220.26
770.25	220.09
770.57	220.03
770.90	219.86
771.22	219.73
771.55	219.65
771.87	219.56
772.20	219.43
772.52	219.57
772.85	219.73
773.17	219.70
773.50	219.61
773.82	219.48
774.15	219.30
774.47	219.01
774.80	218.97
775.12	218.87
775.45	218.84
775.77	218.77
776.09	218.75
776.42	218.65
776.74	218.61
777.07	218.56
777.39	218.48
777.72	218.48
778.04	218.43
778.36	218.32
778.69	218.28
779.01	218.22
779.33	217.95
779.66	217.68
779.98	217.52
780.31	217.47
780.63	217.41
780.95	217.31
781.28	217.35
781.60	217.31
781.92	217.21
782.25	217.20
782.57	217.12
782.89	217.03
783.22	216.90
783.54	216.81
783.86	216.77
784.19	216.69
784.51	216.61
784.83	216.46
785.16	216.46
785.48	216.45
785.80	216.38
786.12	216.42
786.45	216.26
