SpectraSuite Data File
++++++++++++++++++++++++++++++++++++
Date: Mon Feb 25 17:34:10 EST 2013
User: group
Dark Spectrum Present: No
Reference Spectrum Present: No
Number of Sampled Component Spectra: 1
Spectrometers: USB2E7196
Integration Time (usec): 52000 (USB2E7196)
Spectra Averaged: 20 (USB2E7196)
Boxcar Smoothing: 10 (USB2E7196)
Correct for Electrical Dark: No (USB2E7196)
Strobe/Lamp Enabled: No (USB2E7196)
Correct for Detector Non-linearity: No (USB2E7196)
Correct for Stray Light: No (USB2E7196)
Number of Pixels in Processed Spectrum: 2048
>>>>>Begin Processed Spectral Data<<<<<
339.09	0.00
339.48	199.50
339.86	200.45
340.24	201.30
340.63	203.50
341.01	207.45
341.39	205.10
341.78	207.90
342.16	208.25
342.54	208.55
342.93	197.93
343.31	207.96
343.69	208.45
344.07	208.90
344.46	209.30
344.84	209.65
345.22	209.84
345.60	210.09
345.99	210.26
346.37	210.43
346.75	210.57
347.13	210.69
347.52	210.77
347.90	210.90
348.28	210.93
348.66	211.06
349.05	211.06
349.43	211.20
349.81	211.28
350.19	211.34
350.57	211.46
350.96	211.52
351.34	211.57
351.72	211.66
352.10	211.80
352.48	211.92
352.87	211.99
353.25	212.01
353.63	212.17
354.01	212.18
354.39	212.27
354.77	212.37
355.15	212.44
355.54	212.50
355.92	212.53
356.30	212.61
356.68	212.80
357.06	212.92
357.44	213.00
357.82	213.06
358.20	213.18
358.58	213.24
358.97	213.43
359.35	213.60
359.73	213.68
360.11	213.71
360.49	213.78
360.87	213.87
361.25	214.02
361.63	214.08
362.01	214.21
362.39	214.19
362.77	214.21
363.15	214.32
363.53	214.30
363.91	214.29
364.29	214.39
364.67	214.19
365.05	214.19
365.43	214.15
365.81	214.18
366.19	214.30
366.57	214.45
366.95	214.42
367.33	214.40
367.71	214.45
368.09	214.55
368.47	214.58
368.85	214.55
369.23	214.60
369.61	214.51
369.99	214.58
370.37	214.62
370.75	214.70
371.13	214.65
371.51	214.73
371.89	214.71
372.27	214.64
372.65	214.62
373.03	214.67
373.41	214.69
373.78	214.63
374.16	214.43
374.54	214.26
374.92	214.19
375.30	214.11
375.68	214.05
376.06	213.96
376.44	213.90
376.82	213.93
377.19	213.78
377.57	213.80
377.95	213.62
378.33	213.55
378.71	213.43
379.09	213.34
379.47	213.25
379.84	213.18
380.22	213.14
380.60	213.04
380.98	212.99
381.36	212.92
381.73	212.85
382.11	212.90
382.49	212.89
382.87	212.75
383.25	212.68
383.62	212.80
384.00	212.65
384.38	212.59
384.76	212.52
385.13	212.51
385.51	212.40
385.89	212.35
386.27	212.31
386.64	212.30
387.02	212.20
387.40	212.10
387.78	212.13
388.15	212.04
388.53	212.09
388.91	212.00
389.29	211.95
389.66	211.99
390.04	211.83
390.42	211.75
390.79	211.74
391.17	211.72
391.55	211.50
391.92	211.55
392.30	211.57
392.68	211.45
393.05	211.45
393.43	211.48
393.81	211.47
394.18	211.43
394.56	211.39
394.94	211.47
395.31	211.47
395.69	211.43
396.06	211.46
396.44	211.38
396.82	211.37
397.19	211.36
397.57	211.30
397.95	211.43
398.32	211.45
398.70	211.48
399.07	211.52
399.45	211.52
399.82	211.49
400.20	211.46
400.58	211.56
400.95	211.55
401.33	211.60
401.70	211.83
402.08	211.99
402.45	211.97
402.83	212.07
403.20	212.18
403.58	212.28
403.95	212.43
404.33	212.64
404.71	212.77
405.08	213.04
405.46	213.11
405.83	213.20
406.21	213.35
406.58	213.57
406.96	213.76
407.33	214.04
407.70	214.26
408.08	214.61
408.45	214.83
408.83	215.12
409.20	215.37
409.58	215.47
409.95	215.70
410.33	216.13
410.70	216.39
411.08	216.73
411.45	217.12
411.82	217.47
412.20	217.89
412.57	218.47
412.95	218.81
413.32	219.40
413.69	219.89
414.07	220.45
414.44	221.03
414.82	221.65
415.19	222.32
415.56	223.04
415.94	223.82
416.31	224.75
416.68	225.64
417.06	226.70
417.43	227.65
417.81	228.70
418.18	229.76
418.55	231.03
418.93	232.32
419.30	233.67
419.67	235.07
420.04	236.44
420.42	237.85
420.79	239.60
421.16	241.27
421.54	243.18
421.91	245.00
422.28	246.92
422.66	248.97
423.03	251.02
423.40	253.16
423.77	255.30
424.15	257.57
424.52	259.90
424.89	262.38
425.26	264.88
425.64	267.25
426.01	269.91
426.38	272.56
426.75	275.34
427.13	278.15
427.50	281.08
427.87	284.25
428.24	287.34
428.61	290.27
428.99	293.67
429.36	297.10
429.73	300.63
430.10	304.14
430.47	307.81
430.85	311.54
431.22	315.41
431.59	319.63
431.96	323.48
432.33	327.83
432.70	332.00
433.08	336.94
433.45	341.65
433.82	346.25
434.19	351.39
434.56	356.38
434.93	361.25
435.30	365.98
435.68	371.25
436.05	376.41
436.42	381.65
436.79	386.29
437.16	391.40
437.53	396.73
437.90	402.01
438.27	407.13
438.64	412.54
439.01	417.50
439.38	421.88
439.75	426.27
440.13	431.30
440.50	435.96
440.87	439.80
441.24	443.65
441.61	447.90
441.98	450.93
442.35	454.45
442.72	457.96
443.09	461.45
443.46	463.37
443.83	464.85
444.20	465.96
444.57	467.69
444.94	468.41
445.31	469.20
445.68	470.06
446.05	470.23
446.42	469.49
446.79	468.72
447.16	467.97
447.53	467.25
447.90	465.01
448.27	462.87
448.64	459.92
449.01	457.83
449.37	454.18
449.74	450.66
450.11	446.65
450.48	442.20
450.85	437.69
451.22	433.77
451.59	430.03
451.96	426.50
452.33	421.78
452.70	417.51
453.07	412.31
453.43	406.93
453.80	401.98
454.17	397.18
454.54	392.71
454.91	387.68
455.28	382.94
455.65	378.43
456.02	374.06
456.38	370.32
456.75	365.62
457.12	361.67
457.49	357.90
457.86	354.09
458.23	350.87
458.59	347.24
458.96	343.78
459.33	340.48
459.70	337.14
460.07	334.61
460.43	331.66
460.80	329.07
461.17	326.64
461.54	324.15
461.91	321.78
462.27	319.40
462.64	317.43
463.01	315.20
463.38	313.15
463.74	310.89
464.11	308.91
464.48	307.24
464.85	305.45
465.21	304.11
465.58	302.70
465.95	300.96
466.32	299.74
466.68	298.26
467.05	296.94
467.42	295.69
467.78	294.23
468.15	293.01
468.52	291.91
468.88	290.67
469.25	289.50
469.62	288.57
469.98	287.49
470.35	286.51
470.72	285.74
471.08	284.75
471.45	284.00
471.82	283.26
472.18	282.38
472.55	281.86
472.92	281.14
473.28	280.50
473.65	279.90
474.02	279.29
474.38	278.93
474.75	278.57
475.11	278.15
475.48	277.80
475.85	277.49
476.21	277.31
476.58	277.17
476.94	277.12
477.31	277.07
477.67	277.03
478.04	277.05
478.41	277.18
478.77	277.50
479.14	277.64
479.50	277.90
479.87	278.29
480.23	278.60
480.60	279.00
480.96	279.48
481.33	280.14
481.69	280.79
482.06	281.37
482.42	281.96
482.79	282.68
483.15	283.59
483.52	284.59
483.88	285.53
484.25	286.55
484.61	287.54
484.98	288.70
485.34	289.98
485.71	291.37
486.07	292.62
486.44	294.01
486.80	295.65
487.17	297.25
487.53	299.00
487.90	300.83
488.26	302.69
488.62	304.66
488.99	306.71
489.35	308.68
489.72	310.93
490.08	313.37
490.44	315.77
490.81	318.40
491.17	321.09
491.54	324.00
491.90	326.97
492.26	330.20
492.63	333.45
492.99	336.99
493.36	340.63
493.72	344.61
494.08	348.47
494.45	352.70
494.81	357.16
495.17	361.75
495.54	366.62
495.90	371.72
496.26	376.95
496.63	382.49
496.99	388.42
497.35	394.45
497.72	400.86
498.08	407.43
498.44	414.21
498.80	421.37
499.17	428.76
499.53	436.52
499.89	444.56
500.26	452.78
500.62	461.01
500.98	469.89
501.34	478.98
501.71	488.34
502.07	497.91
502.43	507.88
502.79	518.09
503.16	528.78
503.52	539.71
503.88	551.09
504.24	562.62
504.60	574.58
504.97	586.89
505.33	599.31
505.69	612.72
506.05	626.12
506.41	639.68
506.78	653.46
507.14	667.73
507.50	682.28
507.86	697.20
508.22	712.74
508.59	728.09
508.95	743.98
509.31	760.58
509.67	777.36
510.03	794.48
510.39	812.14
510.75	830.08
511.12	848.16
511.48	866.56
511.84	885.17
512.20	903.55
512.56	922.91
512.92	942.57
513.28	961.88
513.64	981.71
514.00	1001.78
514.37	1022.12
514.73	1042.66
515.09	1063.45
515.45	1084.41
515.81	1105.13
516.17	1126.72
516.53	1148.13
516.89	1169.75
517.25	1191.39
517.61	1213.04
517.97	1234.45
518.33	1256.05
518.69	1278.31
519.05	1300.33
519.41	1322.39
519.77	1345.36
520.13	1367.41
520.49	1389.38
520.85	1412.21
521.21	1434.74
521.57	1457.86
521.93	1480.20
522.29	1503.15
522.65	1525.68
523.01	1548.39
523.37	1570.89
523.73	1593.20
524.09	1615.40
524.45	1637.74
524.81	1660.25
525.17	1682.85
525.53	1705.41
525.89	1727.67
526.25	1749.45
526.61	1770.98
526.97	1792.86
527.33	1814.14
527.68	1835.85
528.04	1857.30
528.40	1877.40
528.76	1898.56
529.12	1919.09
529.48	1940.76
529.84	1961.47
530.20	1981.97
530.56	2002.49
530.91	2023.85
531.27	2044.25
531.63	2064.50
531.99	2084.45
532.35	2103.66
532.71	2122.83
533.07	2142.30
533.42	2160.98
533.78	2179.82
534.14	2198.51
534.50	2215.88
534.86	2234.28
535.21	2251.21
535.57	2269.15
535.93	2287.14
536.29	2303.71
536.65	2320.88
537.00	2336.69
537.36	2351.84
537.72	2367.34
538.08	2382.80
538.44	2397.79
538.79	2413.48
539.15	2428.70
539.51	2443.35
539.87	2458.56
540.22	2473.30
540.58	2488.57
540.94	2503.19
541.29	2516.55
541.65	2528.84
542.01	2542.25
542.37	2554.07
542.72	2566.62
543.08	2577.60
543.44	2589.28
543.79	2600.03
544.15	2609.90
544.51	2620.99
544.87	2632.28
545.22	2641.61
545.58	2650.18
545.94	2657.68
546.29	2663.99
546.65	2670.55
547.01	2676.83
547.36	2682.84
547.72	2688.56
548.07	2692.43
548.43	2696.34
548.79	2700.39
549.14	2705.11
549.50	2709.52
549.86	2713.63
550.21	2717.71
550.57	2722.05
550.92	2724.99
551.28	2727.85
551.64	2730.90
551.99	2733.29
552.35	2734.81
552.70	2737.49
553.06	2740.07
553.41	2743.14
553.77	2746.58
554.13	2748.75
554.48	2751.06
554.84	2752.49
555.19	2753.02
555.55	2753.48
555.90	2754.30
556.26	2754.81
556.61	2754.86
556.97	2753.78
557.32	2753.39
557.68	2751.61
558.03	2750.07
558.39	2748.63
558.74	2748.20
559.10	2746.89
559.45	2744.95
559.81	2743.84
560.16	2741.31
560.52	2738.86
560.87	2735.65
561.23	2731.67
561.58	2729.49
561.94	2726.17
562.29	2722.64
562.64	2720.39
563.00	2718.14
563.35	2716.02
563.71	2713.95
564.06	2712.05
564.42	2710.15
564.77	2707.61
565.12	2705.88
565.48	2702.85
565.83	2699.96
566.19	2696.43
566.54	2692.25
566.89	2688.29
567.25	2684.61
567.60	2681.49
567.96	2678.30
568.31	2675.04
568.66	2671.34
569.02	2666.49
569.37	2661.33
569.72	2657.72
570.08	2652.41
570.43	2646.79
570.78	2640.92
571.14	2634.76
571.49	2627.50
571.84	2621.42
572.20	2614.62
572.55	2608.15
572.90	2601.56
573.26	2594.60
573.61	2587.50
573.96	2580.90
574.31	2573.28
574.67	2565.13
575.02	2556.60
575.37	2547.79
575.72	2539.05
576.08	2531.41
576.43	2522.77
576.78	2514.90
577.13	2506.49
577.49	2498.38
577.84	2490.64
578.19	2482.87
578.54	2475.36
578.90	2468.93
579.25	2460.49
579.60	2451.09
579.95	2441.53
580.30	2433.22
580.66	2424.89
581.01	2415.85
581.36	2406.54
581.71	2398.05
582.06	2389.46
582.42	2381.37
582.77	2372.12
583.12	2362.89
583.47	2353.95
583.82	2345.57
584.17	2336.26
584.53	2327.03
584.88	2317.97
585.23	2308.88
585.58	2299.26
585.93	2289.41
586.28	2279.72
586.63	2270.76
586.98	2262.75
587.34	2254.55
587.69	2245.26
588.04	2236.09
588.39	2227.87
588.74	2218.97
589.09	2210.21
589.44	2200.64
589.79	2191.89
590.14	2183.94
590.49	2175.54
590.84	2166.46
591.19	2158.20
591.54	2149.58
591.89	2139.32
592.25	2129.99
592.60	2120.37
592.95	2110.94
593.30	2101.56
593.65	2091.75
594.00	2081.62
594.35	2073.32
594.70	2063.89
595.05	2055.19
595.40	2046.15
595.75	2036.45
596.10	2028.02
596.45	2019.19
596.80	2011.37
597.15	2002.86
597.50	1993.73
597.85	1985.16
598.19	1976.43
598.54	1967.76
598.89	1959.69
599.24	1953.12
599.59	1945.78
599.94	1938.41
600.29	1930.71
600.64	1922.76
600.99	1914.43
601.34	1907.57
601.69	1898.52
602.04	1890.31
602.39	1882.24
602.74	1874.29
603.08	1867.40
603.43	1859.99
603.78	1852.15
604.13	1843.89
604.48	1835.75
604.83	1828.71
605.18	1821.81
605.53	1814.25
605.87	1806.52
606.22	1799.48
606.57	1791.34
606.92	1783.00
607.27	1775.15
607.62	1767.76
607.96	1760.85
608.31	1754.77
608.66	1746.64
609.01	1739.13
609.36	1731.40
609.70	1723.37
610.05	1715.46
610.40	1707.37
610.75	1698.79
611.10	1691.32
611.44	1682.29
611.79	1673.19
612.14	1663.92
612.49	1654.10
612.83	1645.40
613.18	1635.57
613.53	1625.82
613.88	1615.92
614.22	1607.00
614.57	1597.60
614.92	1588.23
615.27	1578.72
615.61	1568.95
615.96	1560.14
616.31	1551.61
616.65	1543.92
617.00	1535.68
617.35	1527.15
617.70	1517.83
618.04	1508.84
618.39	1499.12
618.74	1490.55
619.08	1481.81
619.43	1473.20
619.78	1465.20
620.12	1456.82
620.47	1449.34
620.82	1440.82
621.16	1432.80
621.51	1424.27
621.85	1416.01
622.20	1407.43
622.55	1398.92
622.89	1390.46
623.24	1382.46
623.59	1373.71
623.93	1364.81
624.28	1356.27
624.62	1348.07
624.97	1340.03
625.32	1332.18
625.66	1324.90
626.01	1317.72
626.35	1310.50
626.70	1302.94
627.04	1295.52
627.39	1287.89
627.73	1280.22
628.08	1273.40
628.43	1265.80
628.77	1258.41
629.12	1250.92
629.46	1244.08
629.81	1236.80
630.15	1229.49
630.50	1221.80
630.84	1214.48
631.19	1207.27
631.53	1200.25
631.88	1192.64
632.22	1184.97
632.57	1178.14
632.91	1170.44
633.26	1162.86
633.60	1155.93
633.95	1149.11
634.29	1141.68
634.64	1135.06
634.98	1127.88
635.32	1120.59
635.67	1114.33
636.01	1107.68
636.36	1100.78
636.70	1094.03
637.05	1087.54
637.39	1081.16
637.73	1074.87
638.08	1069.11
638.42	1063.07
638.77	1056.50
639.11	1050.41
639.45	1044.53
639.80	1037.69
640.14	1031.41
640.49	1025.25
640.83	1018.81
641.17	1012.30
641.52	1006.21
641.86	999.57
642.20	993.31
642.55	986.80
642.89	980.20
643.23	973.82
643.58	967.93
643.92	961.56
644.26	955.29
644.61	949.07
644.95	943.02
645.29	936.52
645.64	929.96
645.98	923.88
646.32	917.75
646.66	911.46
647.01	905.60
647.35	899.74
647.69	893.31
648.04	887.38
648.38	881.36
648.72	875.33
649.06	869.23
649.41	863.20
649.75	857.40
650.09	851.54
650.43	845.60
650.78	839.53
651.12	833.50
651.46	827.52
651.80	821.62
652.14	815.61
652.49	809.77
652.83	803.84
653.17	797.62
653.51	791.63
653.85	786.05
654.20	780.16
654.54	774.21
654.88	768.76
655.22	762.66
655.56	756.81
655.90	750.85
656.25	745.15
656.59	739.47
656.93	734.31
657.27	729.23
657.61	723.69
657.95	718.38
658.29	713.15
658.64	708.19
658.98	702.96
659.32	697.48
659.66	692.25
660.00	687.13
660.34	682.00
660.68	676.87
661.02	671.74
661.36	666.96
661.70	662.08
662.05	657.40
662.39	653.09
662.73	648.75
663.07	644.55
663.41	640.22
663.75	635.63
664.09	630.65
664.43	625.63
664.77	621.33
665.11	616.66
665.45	612.09
665.79	607.53
666.13	603.10
666.47	599.00
666.81	594.88
667.15	590.73
667.49	586.82
667.83	583.05
668.17	579.03
668.51	575.11
668.85	571.40
669.19	567.60
669.53	563.67
669.87	559.58
670.21	555.57
670.55	551.68
670.89	548.29
671.23	545.03
671.57	541.65
671.91	538.00
672.25	534.72
672.58	531.46
672.92	528.14
673.26	524.94
673.60	521.62
673.94	518.13
674.28	514.77
674.62	511.61
674.96	508.27
675.30	505.21
675.64	501.95
675.97	498.70
676.31	495.65
676.65	492.71
676.99	490.03
677.33	487.13
677.67	484.14
678.01	481.04
678.34	478.06
678.68	475.10
679.02	472.11
679.36	469.12
679.70	466.11
680.04	463.09
680.37	460.09
680.71	457.28
681.05	454.76
681.39	452.03
681.73	449.38
682.06	446.73
682.40	444.15
682.74	441.57
683.08	439.13
683.42	436.47
683.75	433.87
684.09	431.06
684.43	428.53
684.77	425.91
685.10	423.43
685.44	420.75
685.78	418.32
686.12	416.11
686.45	413.77
686.79	411.59
687.13	409.46
687.46	407.29
687.80	405.02
688.14	402.56
688.48	400.42
688.81	398.00
689.15	395.96
689.49	393.69
689.82	391.46
690.16	389.00
690.50	386.65
690.83	384.30
691.17	382.25
691.51	380.06
691.84	377.98
692.18	375.91
692.52	373.97
692.85	372.11
693.19	370.13
693.52	368.10
693.86	365.98
694.20	363.98
694.53	362.10
694.87	360.20
695.21	358.31
695.54	356.41
695.88	354.56
696.21	352.54
696.55	350.85
696.88	349.13
697.22	347.41
697.56	345.90
697.89	344.42
698.23	342.78
698.56	341.31
698.90	339.88
699.23	338.22
699.57	336.67
699.90	334.91
700.24	333.26
700.58	331.77
700.91	330.27
701.25	328.87
701.58	327.39
701.92	325.96
702.25	324.53
702.59	323.09
702.92	321.80
703.26	320.44
703.59	319.05
703.93	317.91
704.26	316.73
704.60	315.46
704.93	314.04
705.26	312.72
705.60	311.46
705.93	310.15
706.27	308.90
706.60	307.73
706.94	306.73
707.27	305.56
707.61	304.48
707.94	303.41
708.27	302.12
708.61	300.94
708.94	299.80
709.28	298.73
709.61	297.55
709.94	296.45
710.28	295.42
710.61	294.35
710.95	293.05
711.28	292.05
711.61	290.96
711.95	290.06
712.28	289.10
712.61	287.99
712.95	287.13
713.28	286.38
713.61	285.36
713.95	284.33
714.28	283.41
714.61	282.36
714.95	281.39
715.28	280.43
715.61	279.46
715.95	278.57
716.28	277.65
716.61	276.85
716.95	275.93
717.28	275.05
717.61	274.20
717.94	273.51
718.28	272.61
718.61	271.84
718.94	270.95
719.27	270.21
719.61	269.50
719.94	268.70
720.27	267.79
720.60	267.09
720.94	266.40
721.27	265.74
721.60	265.10
721.93	264.50
722.27	264.03
722.60	263.47
722.93	262.82
723.26	262.27
723.59	261.70
723.93	261.11
724.26	260.57
724.59	260.05
724.92	259.50
725.25	259.05
725.59	258.54
725.92	258.09
726.25	257.48
726.58	257.03
726.91	256.50
727.24	256.06
727.57	255.56
727.91	255.02
728.24	254.56
728.57	254.15
728.90	253.66
729.23	253.07
729.56	252.64
729.89	252.17
730.22	251.63
730.55	251.21
730.89	250.77
731.22	250.30
731.55	249.73
731.88	249.22
732.21	248.73
732.54	248.25
732.87	247.81
733.20	247.41
733.53	246.89
733.86	246.46
734.19	245.96
734.52	245.65
734.85	245.41
735.18	244.97
735.51	244.65
735.84	244.31
736.17	244.04
736.50	243.58
736.83	243.42
737.16	243.13
737.49	242.76
737.82	242.44
738.15	242.10
738.48	241.81
738.81	241.45
739.14	241.10
739.47	240.73
739.80	240.45
740.13	240.19
740.46	239.85
740.79	239.52
741.12	239.27
741.45	238.89
741.78	238.45
742.11	238.14
742.44	237.74
742.77	237.43
743.10	237.01
743.43	236.76
743.75	236.32
744.08	236.21
744.41	235.93
744.74	235.63
745.07	235.36
745.40	235.14
745.73	234.89
746.06	234.65
746.39	234.38
746.71	234.01
747.04	233.76
747.37	233.48
747.70	233.25
748.03	232.99
748.36	232.71
748.68	232.42
749.01	232.18
749.34	231.94
749.67	231.73
750.00	231.61
750.33	231.41
750.65	231.17
750.98	230.73
751.31	230.41
751.64	230.19
751.97	230.01
752.29	229.75
752.62	229.42
752.95	229.12
753.28	228.85
753.60	228.63
753.93	228.40
754.26	228.23
754.59	228.01
754.91	227.80
755.24	227.64
755.57	227.44
755.90	227.23
756.22	226.97
756.55	226.65
756.88	226.35
757.20	226.12
757.53	225.85
757.86	225.59
758.19	225.47
758.51	225.29
758.84	225.03
759.17	224.81
759.49	224.76
759.82	224.69
760.15	224.56
760.47	224.38
760.80	224.19
761.13	224.10
761.45	223.90
761.78	223.78
762.11	223.61
762.43	223.45
762.76	223.31
763.08	223.20
763.41	223.08
763.74	222.94
764.06	222.79
764.39	222.61
764.71	222.54
765.04	222.40
765.37	222.26
765.69	222.10
766.02	222.01
766.34	221.80
766.67	221.61
767.00	221.52
767.32	221.53
767.65	221.44
767.97	221.16
768.30	221.04
768.62	220.81
768.95	220.70
769.27	220.53
769.60	220.40
769.92	220.31
770.25	220.24
770.57	220.15
770.90	220.04
771.22	219.94
771.55	219.87
771.87	219.75
772.20	219.66
772.52	219.80
772.85	219.84
773.17	219.79
773.50	219.73
773.82	219.60
774.15	219.44
774.47	219.21
774.80	219.16
775.12	219.05
775.45	219.03
775.77	218.85
776.09	218.89
776.42	218.83
776.74	218.71
777.07	218.62
777.39	218.53
777.72	218.45
778.04	218.44
778.36	218.35
778.69	218.25
779.01	218.13
779.33	217.85
779.66	217.68
779.98	217.60
780.31	217.52
780.63	217.46
780.95	217.43
781.28	217.39
781.60	217.37
781.92	217.35
782.25	217.26
782.57	217.24
782.89	217.11
783.22	217.09
783.54	217.01
783.86	216.90
784.19	216.80
784.51	216.73
784.83	216.64
785.16	216.59
785.48	216.63
785.80	216.59
786.12	216.58
786.45	216.43
