SpectraSuite Data File
++++++++++++++++++++++++++++++++++++
Date: Mon Feb 25 17:30:34 EST 2013
User: group
Dark Spectrum Present: No
Reference Spectrum Present: No
Number of Sampled Component Spectra: 1
Spectrometers: USB2E7196
Integration Time (usec): 52000 (USB2E7196)
Spectra Averaged: 20 (USB2E7196)
Boxcar Smoothing: 10 (USB2E7196)
Correct for Electrical Dark: No (USB2E7196)
Strobe/Lamp Enabled: No (USB2E7196)
Correct for Detector Non-linearity: No (USB2E7196)
Correct for Stray Light: No (USB2E7196)
Number of Pixels in Processed Spectrum: 2048
>>>>>Begin Processed Spectral Data<<<<<
339.09	0.00
339.48	198.45
339.86	200.30
340.24	202.40
340.63	201.95
341.01	207.75
341.39	205.35
341.78	206.85
342.16	208.40
342.54	209.05
342.93	198.07
343.31	208.13
343.69	208.68
344.07	209.13
344.46	209.50
344.84	209.93
345.22	210.06
345.60	210.32
345.99	210.54
346.37	210.65
346.75	210.75
347.13	210.83
347.52	210.87
347.90	210.93
348.28	210.95
348.66	211.06
349.05	211.06
349.43	211.09
349.81	211.17
350.19	211.19
350.57	211.28
350.96	211.34
351.34	211.41
351.72	211.48
352.10	211.53
352.48	211.62
352.87	211.61
353.25	211.73
353.63	211.82
354.01	211.83
354.39	211.92
354.77	211.98
355.15	212.07
355.54	212.21
355.92	212.20
356.30	212.22
356.68	212.39
357.06	212.45
357.44	212.47
357.82	212.51
358.20	212.71
358.58	212.75
358.97	212.87
359.35	212.93
359.73	213.03
360.11	213.11
360.49	213.19
360.87	213.35
361.25	213.35
361.63	213.51
362.01	213.60
362.39	213.67
362.77	213.75
363.15	213.78
363.53	213.71
363.91	213.74
364.29	213.83
364.67	213.64
365.05	213.67
365.43	213.79
365.81	213.88
366.19	213.95
366.57	213.99
366.95	213.98
367.33	213.97
367.71	214.00
368.09	214.11
368.47	214.15
368.85	214.13
369.23	214.19
369.61	214.06
369.99	214.04
370.37	214.07
370.75	214.10
371.13	214.07
371.51	214.10
371.89	214.07
372.27	214.07
372.65	214.08
373.03	214.05
373.41	213.96
373.78	213.88
374.16	213.73
374.54	213.69
374.92	213.64
375.30	213.66
375.68	213.55
376.06	213.44
376.44	213.33
376.82	213.28
377.19	213.19
377.57	213.13
377.95	213.07
378.33	213.03
378.71	212.87
379.09	212.85
379.47	212.82
379.84	212.85
380.22	212.73
380.60	212.66
380.98	212.62
381.36	212.54
381.73	212.49
382.11	212.47
382.49	212.41
382.87	212.41
383.25	212.32
383.62	212.53
384.00	212.52
384.38	212.47
384.76	212.51
385.13	212.55
385.51	212.50
385.89	212.52
386.27	212.41
386.64	212.44
387.02	212.37
387.40	212.35
387.78	212.32
388.15	212.35
388.53	212.32
388.91	212.33
389.29	212.30
389.66	212.35
390.04	212.35
390.42	212.34
390.79	212.31
391.17	212.28
391.55	212.05
391.92	212.02
392.30	212.03
392.68	212.00
393.05	211.92
393.43	212.00
393.81	211.95
394.18	211.96
394.56	211.99
394.94	211.98
395.31	211.97
395.69	212.01
396.06	212.07
396.44	212.07
396.82	212.03
397.19	212.22
397.57	212.16
397.95	212.19
398.32	212.15
398.70	212.17
399.07	212.23
399.45	212.18
399.82	212.22
400.20	212.28
400.58	212.23
400.95	212.27
401.33	212.29
401.70	212.42
402.08	212.49
402.45	212.50
402.83	212.65
403.20	212.64
403.58	212.68
403.95	212.71
404.33	212.83
404.71	212.91
405.08	213.03
405.46	213.13
405.83	213.25
406.21	213.35
406.58	213.51
406.96	213.65
407.33	213.93
407.70	214.11
408.08	214.46
408.45	214.75
408.83	214.95
409.20	215.12
409.58	215.30
409.95	215.57
410.33	215.90
410.70	216.12
411.08	216.54
411.45	216.90
411.82	217.23
412.20	217.70
412.57	218.25
412.95	218.54
413.32	219.05
413.69	219.54
414.07	220.12
414.44	220.72
414.82	221.35
415.19	222.06
415.56	222.80
415.94	223.40
416.31	224.24
416.68	225.11
417.06	226.12
417.43	227.14
417.81	228.17
418.18	229.21
418.55	230.42
418.93	231.59
419.30	232.81
419.67	234.19
420.04	235.51
420.42	236.86
420.79	238.64
421.16	240.33
421.54	242.18
421.91	244.07
422.28	245.95
422.66	247.91
423.03	249.94
423.40	251.91
423.77	254.09
424.15	256.26
424.52	258.57
424.89	261.01
425.26	263.29
425.64	265.57
426.01	268.10
426.38	270.72
426.75	273.47
427.13	276.23
427.50	279.04
427.87	282.04
428.24	285.10
428.61	287.93
428.99	291.05
429.36	294.41
429.73	297.65
430.10	300.89
430.47	304.35
430.85	307.77
431.22	311.65
431.59	315.77
431.96	319.59
432.33	323.81
432.70	327.98
433.08	332.90
433.45	337.49
433.82	341.94
434.19	346.93
434.56	351.65
434.93	356.40
435.30	361.05
435.68	366.19
436.05	371.19
436.42	376.19
436.79	380.81
437.16	385.76
437.53	391.03
437.90	396.33
438.27	401.38
438.64	406.53
439.01	411.38
439.38	415.60
439.75	419.81
440.13	424.49
440.50	428.94
440.87	432.41
441.24	436.16
441.61	440.32
441.98	443.31
442.35	446.89
442.72	450.37
443.09	453.87
443.46	455.85
443.83	457.13
444.20	458.23
444.57	459.99
444.94	460.72
445.31	461.46
445.68	462.06
446.05	462.28
446.42	461.64
446.79	460.75
447.16	459.87
447.53	459.29
447.90	457.23
448.27	455.00
448.64	452.16
449.01	450.02
449.37	446.53
449.74	442.99
450.11	438.99
450.48	434.51
450.85	429.94
451.22	426.11
451.59	422.50
451.96	418.98
452.33	414.21
452.70	409.94
453.07	404.95
453.43	399.87
453.80	395.00
454.17	390.53
454.54	386.23
454.91	381.52
455.28	376.82
455.65	372.60
456.02	368.52
456.38	364.95
456.75	360.44
457.12	356.61
457.49	352.92
457.86	349.30
458.23	346.20
458.59	342.82
458.96	339.36
459.33	336.34
459.70	333.30
460.07	330.92
460.43	328.19
460.80	325.65
461.17	323.39
461.54	320.93
461.91	318.60
462.27	316.24
462.64	314.39
463.01	312.26
463.38	310.22
463.74	308.06
464.11	306.28
464.48	304.75
464.85	303.02
465.21	301.76
465.58	300.36
465.95	298.69
466.32	297.36
466.68	296.01
467.05	294.66
467.42	293.35
467.78	291.90
468.15	290.54
468.52	289.46
468.88	288.15
469.25	287.12
469.62	286.25
469.98	285.27
470.35	284.32
470.72	283.41
471.08	282.38
471.45	281.62
471.82	280.85
472.18	280.05
472.55	279.54
472.92	278.83
473.28	278.21
473.65	277.75
474.02	277.18
474.38	276.84
474.75	276.47
475.11	276.10
475.48	275.84
475.85	275.63
476.21	275.51
476.58	275.51
476.94	275.49
477.31	275.41
477.67	275.31
478.04	275.44
478.41	275.60
478.77	275.97
479.14	276.16
479.50	276.47
479.87	276.76
480.23	277.14
480.60	277.53
480.96	278.04
481.33	278.68
481.69	279.30
482.06	279.93
482.42	280.64
482.79	281.37
483.15	282.20
483.52	283.25
483.88	284.20
484.25	285.21
484.61	286.29
484.98	287.46
485.34	288.87
485.71	290.09
486.07	291.55
486.44	292.87
486.80	294.49
487.17	296.00
487.53	297.79
487.90	299.57
488.26	301.56
488.62	303.58
488.99	305.50
489.35	307.65
489.72	309.84
490.08	312.18
490.44	314.65
490.81	317.37
491.17	319.98
491.54	322.83
491.90	325.75
492.26	328.92
492.63	332.17
492.99	335.59
493.36	339.26
493.72	343.09
494.08	347.10
494.45	351.32
494.81	355.72
495.17	360.33
495.54	365.27
495.90	370.17
496.26	375.25
496.63	380.83
496.99	386.51
497.35	392.60
497.72	398.81
498.08	405.31
498.44	411.98
498.80	419.13
499.17	426.42
499.53	434.12
499.89	442.00
500.26	450.07
500.62	458.18
500.98	466.69
501.34	475.72
501.71	485.13
502.07	494.61
502.43	504.67
502.79	514.64
503.16	525.02
503.52	536.09
503.88	547.44
504.24	558.79
504.60	570.48
504.97	582.59
505.33	595.09
505.69	608.33
506.05	621.57
506.41	634.95
506.78	648.80
507.14	662.80
507.50	677.11
507.86	692.01
508.22	707.47
508.59	722.88
508.95	738.79
509.31	754.74
509.67	771.31
510.03	787.99
510.39	805.53
510.75	823.17
511.12	840.69
511.48	858.65
511.84	877.18
512.20	895.69
512.56	914.72
512.92	933.87
513.28	952.80
513.64	972.40
514.00	992.04
514.37	1011.95
514.73	1032.18
515.09	1052.82
515.45	1073.25
515.81	1094.20
516.17	1115.32
516.53	1136.34
516.89	1157.68
517.25	1179.00
517.61	1200.10
517.97	1221.10
518.33	1242.04
518.69	1263.79
519.05	1285.55
519.41	1307.11
519.77	1329.56
520.13	1351.09
520.49	1372.80
520.85	1395.02
521.21	1416.81
521.57	1439.37
521.93	1461.01
522.29	1483.32
522.65	1505.20
523.01	1527.52
523.37	1548.94
523.73	1570.85
524.09	1592.40
524.45	1614.20
524.81	1635.84
525.17	1657.90
525.53	1679.86
525.89	1701.95
526.25	1723.04
526.61	1743.98
526.97	1765.23
527.33	1785.74
527.68	1806.80
528.04	1827.54
528.40	1847.61
528.76	1868.08
529.12	1888.06
529.48	1909.08
529.84	1929.09
530.20	1949.02
530.56	1968.62
530.91	1989.13
531.27	2008.71
531.63	2028.20
531.99	2047.66
532.35	2066.20
532.71	2084.57
533.07	2103.42
533.42	2121.48
533.78	2139.75
534.14	2157.34
534.50	2173.90
534.86	2191.22
535.21	2207.42
535.57	2224.89
535.93	2241.51
536.29	2257.67
536.65	2273.65
537.00	2288.47
537.36	2302.98
537.72	2317.48
538.08	2332.08
538.44	2346.37
538.79	2361.29
539.15	2375.37
539.51	2389.11
539.87	2404.00
540.22	2417.76
540.58	2431.96
540.94	2445.77
541.29	2458.55
541.65	2470.40
542.01	2483.01
542.37	2494.46
542.72	2506.22
543.08	2516.11
543.44	2527.42
543.79	2537.22
544.15	2547.45
544.51	2558.10
544.87	2568.75
545.22	2577.68
545.58	2585.73
545.94	2592.46
546.29	2598.34
546.65	2604.45
547.01	2610.16
547.36	2614.98
547.72	2620.50
548.07	2624.12
548.43	2627.48
548.79	2630.91
549.14	2635.32
549.50	2639.24
549.86	2642.68
550.21	2646.22
550.57	2650.13
550.92	2652.04
551.28	2654.57
551.64	2656.35
551.99	2658.22
552.35	2659.51
552.70	2661.60
553.06	2664.08
553.41	2666.76
553.77	2669.33
554.13	2671.27
554.48	2673.23
554.84	2674.71
555.19	2674.99
555.55	2675.42
555.90	2675.72
556.26	2675.96
556.61	2675.60
556.97	2674.40
557.32	2673.75
557.68	2671.81
558.03	2669.94
558.39	2668.62
558.74	2667.72
559.10	2666.29
559.45	2664.32
559.81	2663.00
560.16	2660.50
560.52	2657.55
560.87	2654.69
561.23	2650.87
561.58	2648.55
561.94	2644.90
562.29	2641.14
562.64	2638.65
563.00	2635.70
563.35	2633.31
563.71	2631.28
564.06	2629.12
564.42	2627.00
564.77	2624.34
565.12	2622.55
565.48	2619.61
565.83	2616.21
566.19	2612.90
566.54	2608.86
566.89	2604.76
567.25	2600.80
567.60	2597.23
567.96	2594.08
568.31	2590.27
568.66	2586.70
569.02	2581.42
569.37	2576.36
569.72	2572.59
570.08	2567.13
570.43	2561.86
570.78	2556.23
571.14	2549.86
571.49	2542.99
571.84	2536.99
572.20	2530.39
572.55	2523.79
572.90	2516.68
573.26	2509.99
573.61	2502.89
573.96	2496.42
574.31	2488.86
574.67	2480.74
575.02	2472.43
575.37	2463.54
575.72	2454.63
576.08	2447.06
576.43	2439.06
576.78	2431.26
577.13	2423.24
577.49	2415.47
577.84	2407.74
578.19	2400.47
578.54	2393.45
578.90	2386.59
579.25	2378.15
579.60	2369.29
579.95	2360.43
580.30	2352.82
580.66	2344.99
581.01	2336.46
581.36	2327.20
581.71	2319.03
582.06	2311.04
582.42	2303.34
582.77	2294.43
583.12	2286.18
583.47	2277.29
583.82	2269.25
584.17	2260.33
584.53	2251.56
584.88	2242.88
585.23	2234.08
585.58	2224.68
585.93	2214.97
586.28	2206.06
586.63	2197.53
586.98	2189.47
587.34	2181.11
587.69	2172.45
588.04	2163.42
588.39	2155.06
588.74	2146.56
589.09	2138.10
589.44	2128.77
589.79	2120.36
590.14	2112.99
590.49	2104.73
590.84	2096.31
591.19	2088.47
591.54	2080.35
591.89	2070.59
592.25	2061.57
592.60	2052.45
592.95	2043.12
593.30	2034.29
593.65	2024.99
594.00	2015.70
594.35	2007.72
594.70	1999.11
595.05	1990.51
595.40	1982.19
595.75	1972.91
596.10	1965.03
596.45	1956.95
596.80	1949.46
597.15	1941.48
597.50	1932.93
597.85	1924.84
598.19	1916.46
598.54	1907.98
598.89	1900.17
599.24	1893.34
599.59	1886.29
599.94	1879.60
600.29	1872.36
600.64	1864.39
600.99	1856.39
601.34	1849.31
601.69	1841.02
602.04	1833.18
602.39	1825.35
602.74	1817.91
603.08	1811.44
603.43	1804.45
603.78	1796.62
604.13	1788.96
604.48	1781.28
604.83	1774.44
605.18	1767.56
605.53	1760.30
605.87	1752.91
606.22	1746.27
606.57	1739.02
606.92	1731.28
607.27	1723.22
607.62	1716.23
607.96	1709.81
608.31	1703.91
608.66	1696.61
609.01	1689.29
609.36	1681.96
609.70	1674.18
610.05	1666.65
610.40	1658.87
610.75	1650.38
611.10	1642.93
611.44	1634.10
611.79	1625.29
612.14	1616.29
612.49	1607.14
612.83	1598.56
613.18	1589.11
613.53	1579.96
613.88	1570.35
614.22	1561.57
614.57	1552.44
614.92	1543.19
615.27	1534.17
615.61	1524.54
615.96	1515.70
616.31	1507.40
616.65	1499.73
617.00	1491.84
617.35	1483.45
617.70	1474.79
618.04	1466.10
618.39	1457.15
618.74	1448.98
619.08	1440.40
619.43	1432.37
619.78	1424.78
620.12	1417.02
620.47	1409.63
620.82	1401.37
621.16	1393.60
621.51	1385.57
621.85	1377.75
622.20	1369.52
622.55	1361.17
622.89	1353.11
623.24	1345.23
623.59	1336.71
623.93	1328.09
624.28	1320.00
624.62	1312.10
624.97	1304.01
625.32	1296.51
625.66	1289.23
626.01	1282.22
626.35	1275.45
626.70	1268.00
627.04	1260.45
627.39	1253.02
627.73	1245.64
628.08	1238.48
628.43	1231.04
628.77	1223.84
629.12	1216.46
629.46	1209.97
629.81	1203.00
630.15	1196.04
630.50	1188.93
630.84	1182.02
631.19	1175.04
631.53	1168.46
631.88	1161.03
632.22	1153.97
632.57	1147.03
632.91	1139.71
633.26	1132.27
633.60	1125.22
633.95	1118.48
634.29	1111.49
634.64	1104.92
634.98	1098.06
635.32	1091.45
635.67	1085.38
636.01	1078.91
636.36	1072.47
636.70	1066.00
637.05	1059.56
637.39	1053.38
637.73	1047.13
638.08	1041.41
638.42	1035.60
638.77	1029.24
639.11	1022.91
639.45	1016.88
639.80	1010.70
640.14	1004.60
640.49	998.60
640.83	992.48
641.17	986.25
641.52	980.34
641.86	974.04
642.20	967.93
642.55	961.44
642.89	954.94
643.23	948.75
643.58	942.90
643.92	936.46
644.26	930.53
644.61	924.52
644.95	918.69
645.29	912.57
645.64	906.25
645.98	900.16
646.32	894.62
646.66	888.86
647.01	882.95
647.35	877.20
647.69	871.06
648.04	865.35
648.38	859.64
648.72	853.71
649.06	847.70
649.41	841.92
649.75	836.36
650.09	830.73
650.43	825.01
650.78	819.05
651.12	813.15
651.46	807.43
651.80	801.55
652.14	795.64
652.49	789.91
652.83	784.28
653.17	778.34
653.51	772.43
653.85	766.91
654.20	761.41
654.54	755.85
654.88	750.60
655.22	744.77
655.56	738.96
655.90	733.36
656.25	727.84
656.59	722.62
656.93	717.52
657.27	712.53
657.61	707.20
657.95	702.26
658.29	697.55
658.64	692.55
658.98	687.48
659.32	682.33
659.66	677.13
660.00	671.91
660.34	666.90
660.68	662.02
661.02	656.88
661.36	652.12
661.70	647.28
662.05	642.70
662.39	638.52
662.73	634.36
663.07	630.04
663.41	625.95
663.75	621.38
664.09	616.81
664.43	612.21
664.77	607.93
665.11	603.63
665.45	599.23
665.79	594.85
666.13	590.67
666.47	586.61
666.81	582.70
667.15	578.69
667.49	575.06
667.83	571.32
668.17	567.46
668.51	563.75
668.85	560.20
669.19	556.56
669.53	552.76
669.87	548.78
670.21	545.03
670.55	541.09
670.89	537.66
671.23	534.30
671.57	530.93
671.91	527.40
672.25	523.86
672.58	520.32
672.92	517.06
673.26	514.02
673.60	510.86
673.94	507.50
674.28	504.34
674.62	501.15
674.96	497.91
675.30	495.06
675.64	491.86
675.97	488.65
676.31	485.69
676.65	482.80
676.99	480.17
677.33	477.48
677.67	474.73
678.01	471.68
678.34	468.72
678.68	465.96
679.02	463.16
679.36	460.49
679.70	457.93
680.04	455.08
680.37	452.10
680.71	449.35
681.05	446.81
681.39	444.20
681.73	441.56
682.06	439.14
682.40	436.68
682.74	434.29
683.08	431.97
683.42	429.40
683.75	426.86
684.09	424.26
684.43	421.71
684.77	419.25
685.10	416.81
685.44	414.36
685.78	411.88
686.12	409.71
686.45	407.26
686.79	404.93
687.13	402.87
687.46	400.78
687.80	398.70
688.14	396.40
688.48	394.45
688.81	392.19
689.15	390.03
689.49	387.73
689.82	385.53
690.16	383.15
690.50	380.94
690.83	378.74
691.17	376.49
691.51	374.30
691.84	372.24
692.18	370.38
692.52	368.50
692.85	366.70
693.19	364.76
693.52	362.94
693.86	361.06
694.20	359.29
694.53	357.44
694.87	355.54
695.21	353.76
695.54	351.77
695.88	350.00
696.21	348.20
696.55	346.45
696.88	344.69
697.22	343.08
697.56	341.46
697.89	339.86
698.23	338.43
698.56	336.96
698.90	335.53
699.23	333.95
699.57	332.55
699.90	330.85
700.24	329.25
700.58	327.80
700.91	326.34
701.25	324.85
701.58	323.49
701.92	322.18
702.25	320.85
702.59	319.52
702.92	318.22
703.26	316.94
703.59	315.74
703.93	314.67
704.26	313.44
704.60	312.24
704.93	310.97
705.26	309.74
705.60	308.61
705.93	307.40
706.27	306.27
706.60	305.08
706.94	304.04
707.27	302.93
707.61	301.79
707.94	300.67
708.27	299.46
708.61	298.28
708.94	297.16
709.28	296.08
709.61	294.96
709.94	293.97
710.28	292.95
710.61	291.95
710.95	290.73
711.28	289.84
711.61	288.82
711.95	287.95
712.28	286.96
712.61	285.90
712.95	284.99
713.28	284.03
713.61	283.08
713.95	282.17
714.28	281.35
714.61	280.37
714.95	279.38
715.28	278.44
715.61	277.54
715.95	276.60
716.28	275.66
716.61	274.92
716.95	273.95
717.28	273.09
717.61	272.28
717.94	271.54
718.28	270.72
718.61	269.93
718.94	269.16
719.27	268.46
719.61	267.76
719.94	267.06
720.27	266.32
720.60	265.65
720.94	265.01
721.27	264.24
721.60	263.69
721.93	263.22
722.27	262.69
722.60	262.10
722.93	261.47
723.26	260.92
723.59	260.29
723.93	259.79
724.26	259.28
724.59	258.63
724.92	258.13
725.25	257.60
725.59	257.08
725.92	256.58
726.25	256.08
726.58	255.59
726.91	255.05
727.24	254.56
727.57	253.95
727.91	253.36
728.24	252.98
728.57	252.42
728.90	251.95
729.23	251.50
729.56	251.15
729.89	250.73
730.22	250.23
730.55	249.78
730.89	249.36
731.22	248.90
731.55	248.51
731.88	248.04
732.21	247.49
732.54	247.14
732.87	246.65
733.20	246.25
733.53	245.83
733.86	245.41
734.19	244.98
734.52	244.65
734.85	244.40
735.18	244.07
735.51	243.72
735.84	243.32
736.17	242.99
736.50	242.50
736.83	242.40
737.16	242.10
737.49	241.75
737.82	241.35
738.15	241.03
738.48	240.69
738.81	240.39
739.14	240.16
739.47	239.70
739.80	239.36
740.13	238.97
740.46	238.65
740.79	238.32
741.12	238.00
741.45	237.67
741.78	237.27
742.11	236.94
742.44	236.65
742.77	236.37
743.10	236.04
743.43	235.67
743.75	235.23
744.08	235.15
744.41	234.84
744.74	234.64
745.07	234.33
745.40	234.10
745.73	233.86
746.06	233.53
746.39	233.32
746.71	233.07
747.04	232.83
747.37	232.48
747.70	232.21
748.03	231.95
748.36	231.73
748.68	231.47
749.01	231.09
749.34	230.85
749.67	230.64
750.00	230.41
750.33	230.38
750.65	230.10
750.98	229.55
751.31	229.36
751.64	229.13
751.97	228.95
752.29	228.72
752.62	228.45
752.95	228.20
753.28	227.93
753.60	227.69
753.93	227.48
754.26	227.33
754.59	227.05
754.91	226.87
755.24	226.70
755.57	226.47
755.90	226.34
756.22	226.13
756.55	225.83
756.88	225.61
757.20	225.31
757.53	225.03
757.86	224.90
758.19	224.76
758.51	224.51
758.84	224.31
759.17	224.12
759.49	223.94
759.82	223.88
760.15	223.78
760.47	223.61
760.80	223.41
761.13	223.28
761.45	223.15
761.78	222.96
762.11	222.77
762.43	222.60
762.76	222.42
763.08	222.37
763.41	222.30
763.74	222.17
764.06	221.97
764.39	221.89
764.71	221.77
765.04	221.55
765.37	221.45
765.69	221.29
766.02	221.15
766.34	220.96
766.67	220.77
767.00	220.67
767.32	220.65
767.65	220.59
767.97	220.46
768.30	220.41
768.62	220.36
768.95	220.26
769.27	220.15
769.60	220.08
769.92	219.90
770.25	219.76
770.57	219.67
770.90	219.62
771.22	219.49
771.55	219.42
771.87	219.33
772.20	219.21
772.52	219.25
772.85	219.40
773.17	219.30
773.50	219.21
773.82	219.06
774.15	218.85
774.47	218.74
774.80	218.65
775.12	218.55
775.45	218.47
775.77	218.34
776.09	218.27
776.42	218.24
776.74	218.19
777.07	218.18
777.39	218.06
777.72	217.98
778.04	217.96
778.36	217.92
778.69	217.88
779.01	217.83
779.33	217.69
779.66	217.41
779.98	217.32
780.31	217.26
780.63	217.28
780.95	217.28
781.28	217.14
781.60	217.07
781.92	217.04
782.25	216.96
782.57	216.94
782.89	216.90
783.22	216.80
783.54	216.73
783.86	216.59
784.19	216.51
784.51	216.42
784.83	216.28
785.16	216.19
785.48	216.17
785.80	216.10
786.12	216.04
786.45	215.99
