SpectraSuite Data File
++++++++++++++++++++++++++++++++++++
Date: Mon Feb 25 17:36:13 EST 2013
User: group
Dark Spectrum Present: No
Reference Spectrum Present: No
Number of Sampled Component Spectra: 1
Spectrometers: USB2E7196
Integration Time (usec): 52000 (USB2E7196)
Spectra Averaged: 20 (USB2E7196)
Boxcar Smoothing: 10 (USB2E7196)
Correct for Electrical Dark: No (USB2E7196)
Strobe/Lamp Enabled: No (USB2E7196)
Correct for Detector Non-linearity: No (USB2E7196)
Correct for Stray Light: No (USB2E7196)
Number of Pixels in Processed Spectrum: 2048
>>>>>Begin Processed Spectral Data<<<<<
339.09	0.00
339.48	199.40
339.86	200.60
340.24	202.60
340.63	203.40
341.01	207.60
341.39	206.00
341.78	206.60
342.16	210.00
342.54	209.30
342.93	198.28
343.31	208.35
343.69	208.95
344.07	209.43
344.46	209.89
344.84	210.44
345.22	210.70
345.60	211.05
345.99	211.40
346.37	211.57
346.75	211.84
347.13	211.98
347.52	212.17
347.90	212.42
348.28	212.64
348.66	212.82
349.05	212.92
349.43	213.06
349.81	213.16
350.19	213.37
350.57	213.54
350.96	213.69
351.34	213.86
351.72	213.96
352.10	214.13
352.48	214.25
352.87	214.27
353.25	214.40
353.63	214.48
354.01	214.57
354.39	214.70
354.77	214.64
355.15	214.77
355.54	214.84
355.92	214.78
356.30	214.83
356.68	214.96
357.06	215.07
357.44	215.09
357.82	215.18
358.20	215.24
358.58	215.28
358.97	215.36
359.35	215.44
359.73	215.52
360.11	215.57
360.49	215.64
360.87	215.63
361.25	215.67
361.63	215.73
362.01	215.72
362.39	215.68
362.77	215.79
363.15	215.76
363.53	215.78
363.91	215.84
364.29	215.78
364.67	215.71
365.05	215.81
365.43	215.88
365.81	215.93
366.19	216.03
366.57	216.10
366.95	216.12
367.33	216.08
367.71	216.09
368.09	216.18
368.47	216.19
368.85	216.17
369.23	216.20
369.61	216.13
369.99	216.13
370.37	216.20
370.75	216.30
371.13	216.25
371.51	216.25
371.89	216.25
372.27	216.35
372.65	216.33
373.03	216.28
373.41	216.26
373.78	216.22
374.16	216.11
374.54	216.05
374.92	216.01
375.30	215.93
375.68	215.93
376.06	215.85
376.44	215.77
376.82	215.73
377.19	215.62
377.57	215.61
377.95	215.57
378.33	215.45
378.71	215.25
379.09	215.30
379.47	215.34
379.84	215.32
380.22	215.23
380.60	215.09
380.98	215.01
381.36	214.96
381.73	214.90
382.11	214.94
382.49	214.94
382.87	214.84
383.25	214.84
383.62	214.98
384.00	215.03
384.38	215.03
384.76	215.11
385.13	215.13
385.51	215.15
385.89	215.14
386.27	215.20
386.64	215.25
387.02	215.25
387.40	215.14
387.78	215.10
388.15	215.06
388.53	215.11
388.91	215.08
389.29	215.09
389.66	215.13
390.04	215.04
390.42	215.04
390.79	215.15
391.17	215.24
391.55	215.05
391.92	215.01
392.30	215.08
392.68	215.10
393.05	215.15
393.43	215.19
393.81	215.25
394.18	215.23
394.56	215.25
394.94	215.33
395.31	215.35
395.69	215.45
396.06	215.57
396.44	215.66
396.82	215.76
397.19	215.94
397.57	216.00
397.95	216.25
398.32	216.40
398.70	216.51
399.07	216.65
399.45	216.90
399.82	217.06
400.20	217.21
400.58	217.47
400.95	217.69
401.33	218.02
401.70	218.47
402.08	218.87
402.45	219.19
402.83	219.70
403.20	220.22
403.58	220.72
403.95	221.33
404.33	221.90
404.71	222.47
405.08	223.17
405.46	223.91
405.83	224.65
406.21	225.46
406.58	226.43
406.96	227.40
407.33	228.33
407.70	229.53
408.08	230.92
408.45	232.23
408.83	233.68
409.20	235.16
409.58	236.62
409.95	238.35
410.33	240.37
410.70	242.23
411.08	244.35
411.45	246.61
411.82	249.05
412.20	251.69
412.57	254.77
412.95	257.70
413.32	261.00
413.69	264.46
414.07	268.11
414.44	272.06
414.82	276.20
415.19	280.90
415.56	285.74
415.94	290.96
416.31	296.71
416.68	302.44
417.06	308.92
417.43	315.10
417.81	322.22
418.18	329.52
418.55	337.66
418.93	346.11
419.30	355.00
419.67	364.28
420.04	374.00
420.42	384.33
420.79	395.59
421.16	407.41
421.54	419.31
421.91	432.01
422.28	445.26
422.66	459.28
423.03	472.80
423.40	487.19
423.77	502.67
424.15	518.46
424.52	534.98
424.89	553.11
425.26	570.84
425.64	587.77
426.01	606.33
426.38	625.66
426.75	645.20
427.13	665.59
427.50	687.47
427.87	710.35
428.24	733.21
428.61	755.70
428.99	779.20
429.36	805.58
429.73	831.30
430.10	856.80
430.47	883.53
430.85	911.57
431.22	940.71
431.59	971.15
431.96	1001.21
432.33	1034.50
432.70	1066.38
433.08	1103.99
433.45	1139.26
433.82	1175.02
434.19	1214.05
434.56	1252.85
434.93	1290.67
435.30	1327.82
435.68	1368.94
436.05	1409.72
436.42	1450.53
436.79	1488.25
437.16	1529.04
437.53	1572.19
437.90	1615.11
438.27	1656.93
438.64	1701.13
439.01	1742.18
439.38	1779.61
439.75	1815.27
440.13	1855.67
440.50	1894.02
440.87	1926.04
441.24	1959.92
441.61	1996.26
441.98	2024.75
442.35	2057.03
442.72	2089.20
443.09	2120.27
443.46	2141.03
443.83	2156.20
444.20	2170.06
444.57	2188.78
444.94	2199.01
445.31	2209.79
445.68	2218.73
446.05	2225.90
446.42	2225.52
446.79	2223.96
447.16	2222.25
447.53	2221.45
447.90	2209.57
448.27	2197.93
448.64	2180.00
449.01	2166.99
449.37	2142.11
449.74	2118.24
450.11	2088.48
450.48	2056.98
450.85	2024.89
451.22	1997.22
451.59	1970.29
451.96	1944.56
452.33	1909.26
452.70	1877.87
453.07	1839.30
453.43	1801.52
453.80	1763.45
454.17	1727.04
454.54	1693.02
454.91	1655.72
455.28	1620.11
455.65	1586.56
456.02	1550.79
456.38	1521.55
456.75	1485.18
457.12	1455.54
457.49	1425.55
457.86	1397.46
458.23	1371.68
458.59	1343.95
458.96	1315.73
459.33	1291.25
459.70	1266.19
460.07	1246.42
460.43	1223.36
460.80	1201.59
461.17	1182.57
461.54	1162.56
461.91	1143.65
462.27	1124.56
462.64	1108.59
463.01	1090.23
463.38	1072.38
463.74	1056.70
464.11	1041.58
464.48	1028.51
464.85	1013.69
465.21	1002.00
465.58	989.65
465.95	975.50
466.32	963.40
466.68	951.67
467.05	939.69
467.42	927.84
467.78	915.55
468.15	903.96
468.52	895.50
468.88	884.29
469.25	874.45
469.62	866.22
469.98	857.61
470.35	849.43
470.72	841.85
471.08	833.93
471.45	826.60
471.82	819.17
472.18	811.36
472.55	805.93
472.92	799.74
473.28	794.11
473.65	788.74
474.02	783.32
474.38	778.46
474.75	774.38
475.11	770.20
475.48	766.99
475.85	764.21
476.21	761.11
476.58	758.94
476.94	757.23
477.31	755.06
477.67	752.94
478.04	751.47
478.41	750.56
478.77	749.69
479.14	748.95
479.50	748.86
479.87	749.61
480.23	750.24
480.60	750.39
480.96	750.61
481.33	751.99
481.69	753.55
482.06	754.86
482.42	755.95
482.79	757.50
483.15	759.91
483.52	763.33
483.88	766.53
484.25	769.65
484.61	773.05
484.98	776.67
485.34	780.82
485.71	785.40
486.07	790.25
486.44	795.48
486.80	801.21
487.17	807.27
487.53	813.90
487.90	820.70
488.26	828.00
488.62	835.88
488.99	843.68
489.35	851.87
489.72	861.12
490.08	871.18
490.44	881.02
490.81	891.16
491.17	901.03
491.54	912.15
491.90	923.06
492.26	934.67
492.63	947.00
492.99	959.89
493.36	972.81
493.72	986.63
494.08	1000.65
494.45	1015.35
494.81	1030.67
495.17	1046.27
495.54	1062.45
495.90	1079.61
496.26	1096.92
496.63	1114.68
496.99	1132.72
497.35	1150.81
497.72	1169.39
498.08	1188.60
498.44	1208.04
498.80	1228.55
499.17	1248.69
499.53	1269.66
499.89	1291.20
500.26	1312.53
500.62	1333.95
500.98	1356.62
501.34	1378.97
501.71	1401.78
502.07	1425.50
502.43	1448.84
502.79	1472.26
503.16	1495.95
503.52	1519.85
503.88	1543.25
504.24	1567.05
504.60	1591.25
504.97	1616.47
505.33	1640.92
505.69	1666.65
506.05	1691.74
506.41	1716.71
506.78	1741.75
507.14	1766.76
507.50	1791.93
507.86	1817.49
508.22	1843.37
508.59	1868.41
508.95	1893.75
509.31	1919.46
509.67	1944.81
510.03	1970.64
510.39	1996.70
510.75	2022.03
511.12	2046.60
511.48	2071.98
511.84	2097.06
512.20	2121.47
512.56	2146.16
512.92	2171.00
513.28	2195.19
513.64	2219.63
514.00	2243.16
514.37	2267.19
514.73	2291.35
515.09	2314.29
515.45	2337.11
515.81	2359.80
516.17	2382.63
516.53	2405.15
516.89	2427.20
517.25	2447.55
517.61	2467.67
517.97	2487.17
518.33	2506.65
518.69	2526.45
519.05	2546.19
519.41	2565.70
519.77	2585.64
520.13	2604.28
520.49	2622.38
520.85	2640.10
521.21	2657.40
521.57	2675.91
521.93	2692.75
522.29	2710.11
522.65	2727.41
523.01	2743.96
523.37	2759.66
523.73	2775.31
524.09	2790.18
524.45	2804.88
524.81	2819.85
525.17	2835.08
525.53	2850.46
525.89	2865.52
526.25	2880.35
526.61	2893.30
526.97	2906.40
527.33	2918.95
527.68	2932.07
528.04	2945.24
528.40	2957.44
528.76	2969.93
529.12	2981.18
529.48	2993.09
529.84	3002.77
530.20	3013.13
530.56	3024.00
530.91	3035.49
531.27	3046.55
531.63	3057.79
531.99	3068.19
532.35	3077.78
532.71	3086.82
533.07	3097.20
533.42	3106.84
533.78	3116.53
534.14	3126.27
534.50	3135.01
534.86	3144.27
535.21	3151.19
535.57	3159.19
535.93	3166.98
536.29	3173.80
536.65	3181.83
537.00	3188.52
537.36	3195.98
537.72	3203.08
538.08	3210.35
538.44	3216.59
538.79	3222.40
539.15	3228.23
539.51	3234.86
539.87	3242.71
540.22	3249.14
540.58	3254.84
540.94	3260.69
541.29	3265.10
541.65	3268.04
542.01	3272.02
542.37	3275.79
542.72	3280.86
543.08	3284.46
543.44	3288.67
543.79	3291.91
544.15	3293.77
544.51	3297.73
544.87	3301.60
545.22	3303.57
545.58	3304.62
545.94	3305.92
546.29	3307.21
546.65	3307.60
547.01	3307.44
547.36	3307.83
547.72	3308.81
548.07	3307.46
548.43	3306.64
548.79	3305.45
549.14	3306.78
549.50	3307.62
549.86	3308.06
550.21	3306.61
550.57	3306.28
550.92	3304.28
551.28	3302.83
551.64	3301.93
551.99	3300.98
552.35	3299.91
552.70	3299.37
553.06	3299.16
553.41	3298.05
553.77	3297.09
554.13	3296.39
554.48	3297.04
554.84	3295.60
555.19	3293.64
555.55	3293.48
555.90	3292.29
556.26	3291.59
556.61	3289.65
556.97	3286.08
557.32	3282.54
557.68	3280.20
558.03	3276.89
558.39	3274.74
558.74	3274.17
559.10	3273.06
559.45	3270.63
559.81	3268.52
560.16	3266.59
560.52	3264.80
560.87	3262.98
561.23	3259.08
561.58	3255.65
561.94	3250.43
562.29	3245.39
562.64	3241.97
563.00	3237.56
563.35	3232.90
563.71	3229.21
564.06	3225.93
564.42	3223.37
564.77	3220.34
565.12	3217.24
565.48	3214.13
565.83	3210.76
566.19	3207.65
566.54	3204.01
566.89	3199.37
567.25	3193.88
567.60	3189.72
567.96	3183.78
568.31	3178.79
568.66	3175.07
569.02	3171.57
569.37	3168.22
569.72	3164.95
570.08	3160.13
570.43	3154.52
570.78	3150.50
571.14	3145.70
571.49	3140.74
571.84	3135.99
572.20	3130.05
572.55	3125.33
572.90	3119.65
573.26	3113.80
573.61	3106.06
573.96	3098.17
574.31	3090.99
574.67	3084.63
575.02	3076.50
575.37	3069.23
575.72	3061.95
576.08	3054.63
576.43	3046.05
576.78	3037.42
577.13	3029.55
577.49	3022.20
577.84	3014.85
578.19	3006.90
578.54	2998.62
578.90	2990.43
579.25	2980.84
579.60	2972.10
579.95	2962.24
580.30	2953.43
580.66	2944.04
581.01	2934.56
581.36	2924.62
581.71	2915.60
582.06	2906.92
582.42	2899.43
582.77	2889.97
583.12	2880.62
583.47	2871.21
583.82	2862.32
584.17	2853.09
584.53	2843.89
584.88	2833.90
585.23	2823.91
585.58	2814.09
585.93	2804.21
586.28	2794.80
586.63	2786.08
586.98	2777.31
587.34	2768.39
587.69	2758.34
588.04	2749.31
588.39	2740.20
588.74	2730.94
589.09	2721.55
589.44	2710.39
589.79	2699.16
590.14	2689.67
590.49	2678.37
590.84	2668.54
591.19	2659.03
591.54	2648.06
591.89	2636.78
592.25	2626.44
592.60	2615.25
592.95	2604.13
593.30	2593.43
593.65	2582.98
594.00	2572.67
594.35	2563.13
594.70	2552.98
595.05	2543.00
595.40	2532.10
595.75	2521.13
596.10	2510.90
596.45	2500.38
596.80	2491.05
597.15	2480.98
597.50	2470.24
597.85	2461.10
598.19	2449.23
598.54	2437.55
598.89	2427.13
599.24	2417.18
599.59	2406.54
599.94	2397.22
600.29	2387.27
600.64	2376.77
600.99	2364.46
601.34	2354.16
601.69	2342.09
602.04	2330.42
602.39	2320.27
602.74	2311.12
603.08	2302.31
603.43	2293.58
603.78	2283.50
604.13	2273.00
604.48	2262.21
604.83	2253.14
605.18	2243.22
605.53	2234.11
605.87	2224.70
606.22	2215.85
606.57	2205.68
606.92	2194.93
607.27	2184.62
607.62	2174.20
607.96	2164.41
608.31	2156.01
608.66	2145.51
609.01	2135.59
609.36	2125.66
609.70	2114.81
610.05	2103.17
610.40	2091.67
610.75	2079.75
611.10	2068.81
611.44	2057.11
611.79	2046.29
612.14	2034.70
612.49	2022.16
612.83	2010.78
613.18	1998.91
613.53	1986.99
613.88	1974.77
614.22	1963.62
614.57	1952.05
614.92	1940.65
615.27	1929.45
615.61	1917.32
615.96	1905.72
616.31	1894.79
616.65	1884.15
617.00	1873.35
617.35	1862.63
617.70	1851.22
618.04	1839.70
618.39	1828.32
618.74	1817.68
619.08	1806.21
619.43	1794.67
619.78	1784.92
620.12	1774.85
620.47	1764.76
620.82	1754.18
621.16	1744.41
621.51	1734.23
621.85	1723.96
622.20	1713.38
622.55	1702.15
622.89	1691.81
623.24	1681.41
623.59	1670.79
623.93	1660.30
624.28	1649.74
624.62	1639.20
624.97	1629.08
625.32	1619.94
625.66	1610.44
626.01	1600.99
626.35	1592.64
626.70	1584.13
627.04	1574.53
627.39	1564.37
627.73	1554.73
628.08	1545.97
628.43	1536.72
628.77	1528.01
629.12	1518.59
629.46	1509.52
629.81	1499.99
630.15	1490.24
630.50	1480.71
630.84	1470.96
631.19	1460.89
631.53	1451.70
631.88	1442.33
632.22	1433.35
632.57	1424.29
632.91	1415.20
633.26	1406.13
633.60	1396.53
633.95	1387.39
634.29	1378.73
634.64	1370.45
634.98	1361.44
635.32	1352.21
635.67	1343.84
636.01	1334.97
636.36	1326.35
636.70	1317.74
637.05	1310.11
637.39	1302.50
637.73	1294.47
638.08	1287.13
638.42	1279.85
638.77	1272.03
639.11	1264.37
639.45	1256.39
639.80	1248.03
640.14	1240.15
640.49	1232.09
640.83	1223.61
641.17	1215.36
641.52	1207.20
641.86	1199.05
642.20	1191.26
642.55	1182.81
642.89	1174.12
643.23	1165.71
643.58	1157.98
643.92	1150.11
644.26	1142.00
644.61	1133.77
644.95	1125.90
645.29	1117.80
645.64	1109.60
645.98	1101.54
646.32	1093.80
646.66	1086.32
647.01	1078.72
647.35	1070.84
647.69	1063.10
648.04	1056.22
648.38	1048.63
648.72	1041.18
649.06	1033.68
649.41	1026.16
649.75	1018.58
650.09	1011.69
650.43	1004.79
650.78	997.61
651.12	990.52
651.46	983.67
651.80	976.88
652.14	970.27
652.49	963.23
652.83	956.27
653.17	948.99
653.51	941.95
653.85	935.25
654.20	928.67
654.54	922.09
654.88	915.39
655.22	908.15
655.56	900.90
655.90	893.50
656.25	886.17
656.59	879.46
656.93	873.29
657.27	866.79
657.61	860.03
657.95	853.70
658.29	847.24
658.64	841.06
658.98	835.10
659.32	828.70
659.66	822.72
660.00	816.94
660.34	811.58
660.68	805.88
661.02	799.59
661.36	793.63
661.70	787.91
662.05	782.43
662.39	777.04
662.73	772.10
663.07	767.30
663.41	762.79
663.75	757.83
664.09	752.65
664.43	747.27
664.77	742.23
665.11	737.05
665.45	732.21
665.79	727.24
666.13	722.25
666.47	717.65
666.81	712.88
667.15	707.93
667.49	703.05
667.83	698.37
668.17	693.96
668.51	689.40
668.85	684.82
669.19	680.32
669.53	675.78
669.87	670.98
670.21	666.31
670.55	661.47
670.89	657.11
671.23	652.95
671.57	648.55
671.91	644.31
672.25	640.10
672.58	635.86
672.92	631.47
673.26	627.39
673.60	623.14
673.94	619.28
674.28	615.70
674.62	611.92
674.96	608.04
675.30	604.37
675.64	600.68
675.97	597.23
676.31	593.90
676.65	590.58
676.99	587.57
677.33	584.34
677.67	580.97
678.01	577.37
678.34	573.66
678.68	570.34
679.02	567.08
679.36	563.71
679.70	560.38
680.04	556.93
680.37	553.27
680.71	549.95
681.05	546.84
681.39	543.62
681.73	540.37
682.06	537.38
682.40	534.13
682.74	530.70
683.08	527.28
683.42	523.83
683.75	520.50
684.09	517.08
684.43	513.73
684.77	510.60
685.10	507.37
685.44	504.30
685.78	501.07
686.12	497.95
686.45	494.86
686.79	491.96
687.13	489.31
687.46	486.66
687.80	483.81
688.14	480.60
688.48	477.70
688.81	474.76
689.15	471.84
689.49	469.05
689.82	466.34
690.16	463.36
690.50	460.50
690.83	457.77
691.17	454.89
691.51	452.37
691.84	449.70
692.18	447.15
692.52	444.68
692.85	442.26
693.19	439.74
693.52	437.32
693.86	434.70
694.20	432.10
694.53	429.51
694.87	426.85
695.21	424.43
695.54	421.80
695.88	419.51
696.21	416.94
696.55	414.57
696.88	412.48
697.22	410.38
697.56	408.41
697.89	406.34
698.23	404.44
698.56	402.27
698.90	400.25
699.23	398.20
699.57	396.15
699.90	394.12
700.24	392.01
700.58	389.85
700.91	387.96
701.25	386.21
701.58	384.43
701.92	382.77
702.25	381.04
702.59	379.32
702.92	377.50
703.26	375.88
703.59	374.22
703.93	372.78
704.26	371.14
704.60	369.25
704.93	367.38
705.26	365.56
705.60	363.88
705.93	362.24
706.27	360.72
706.60	359.11
706.94	357.60
707.27	355.96
707.61	354.50
707.94	352.77
708.27	351.12
708.61	349.50
708.94	347.90
709.28	346.38
709.61	344.82
709.94	343.28
710.28	341.64
710.61	340.00
710.95	338.08
711.28	336.63
711.61	335.15
711.95	333.84
712.28	332.41
712.61	331.06
712.95	329.71
713.28	328.41
713.61	327.17
713.95	325.85
714.28	324.73
714.61	323.44
714.95	322.28
715.28	320.92
715.61	319.57
715.95	318.38
716.28	317.07
716.61	315.87
716.95	314.61
717.28	313.51
717.61	312.38
717.94	311.25
718.28	310.08
718.61	309.07
718.94	307.98
719.27	306.94
719.61	305.85
719.94	304.80
720.27	303.63
720.60	302.56
720.94	301.61
721.27	300.60
721.60	299.73
721.93	298.80
722.27	297.96
722.60	297.20
722.93	296.27
723.26	295.54
723.59	294.66
723.93	293.86
724.26	293.02
724.59	292.21
724.92	291.55
725.25	290.71
725.59	289.80
725.92	289.00
726.25	288.22
726.58	287.42
726.91	286.58
727.24	285.77
727.57	284.96
727.91	284.14
728.24	283.24
728.57	282.28
728.90	281.49
729.23	280.71
729.56	280.06
729.89	279.28
730.22	278.51
730.55	277.68
730.89	276.91
731.22	276.20
731.55	275.45
731.88	274.64
732.21	273.94
732.54	273.31
732.87	272.66
733.20	271.92
733.53	271.30
733.86	270.67
734.19	270.11
734.52	269.52
734.85	269.06
735.18	268.54
735.51	268.09
735.84	267.54
736.17	266.93
736.50	266.15
736.83	265.77
737.16	265.17
737.49	264.68
737.82	264.10
738.15	263.43
738.48	262.92
738.81	262.42
739.14	261.87
739.47	261.24
739.80	260.66
740.13	260.24
740.46	259.67
740.79	259.15
741.12	258.52
741.45	257.98
741.78	257.26
742.11	256.82
742.44	256.30
742.77	255.88
743.10	255.36
743.43	254.87
743.75	254.19
744.08	253.86
744.41	253.35
744.74	252.90
745.07	252.49
745.40	252.00
745.73	251.49
746.06	251.03
746.39	250.65
746.71	250.21
747.04	249.69
747.37	249.32
747.70	248.92
748.03	248.55
748.36	248.17
748.68	247.75
749.01	247.33
749.34	246.90
749.67	246.42
750.00	246.10
750.33	245.83
750.65	245.45
750.98	244.88
751.31	244.52
751.64	244.11
751.97	243.84
752.29	243.44
752.62	243.07
752.95	242.73
753.28	242.39
753.60	242.04
753.93	241.75
754.26	241.24
754.59	240.92
754.91	240.58
755.24	240.24
755.57	239.95
755.90	239.50
756.22	239.16
756.55	238.72
756.88	238.34
757.20	237.96
757.53	237.58
757.86	237.26
758.19	236.90
758.51	236.61
758.84	236.25
759.17	235.92
759.49	235.64
759.82	235.45
760.15	235.14
760.47	234.78
760.80	234.40
761.13	234.28
761.45	233.86
761.78	233.54
762.11	233.33
762.43	233.09
762.76	232.86
763.08	232.57
763.41	232.43
763.74	232.21
764.06	231.98
764.39	231.78
764.71	231.55
765.04	231.34
765.37	231.09
765.69	230.78
766.02	230.57
766.34	230.36
766.67	229.97
767.00	229.83
767.32	229.73
767.65	229.65
767.97	229.42
768.30	229.28
768.62	229.08
768.95	228.73
769.27	228.54
769.60	228.37
769.92	228.10
770.25	227.91
770.57	227.66
770.90	227.38
771.22	227.10
771.55	226.89
771.87	226.73
772.20	226.50
772.52	226.56
772.85	226.62
773.17	226.42
773.50	226.25
773.82	225.99
774.15	225.74
774.47	225.55
774.80	225.33
775.12	225.15
775.45	225.07
775.77	225.01
776.09	224.87
776.42	224.74
776.74	224.70
777.07	224.54
777.39	224.44
777.72	224.33
778.04	224.34
778.36	224.17
778.69	224.03
779.01	223.96
779.33	223.57
779.66	223.25
779.98	223.15
780.31	223.06
780.63	223.07
780.95	222.98
781.28	222.84
781.60	222.77
781.92	222.62
782.25	222.43
782.57	222.27
782.89	222.11
