SpectraSuite Data File
++++++++++++++++++++++++++++++++++++
Date: Mon Feb 25 17:31:01 EST 2013
User: group
Dark Spectrum Present: No
Reference Spectrum Present: No
Number of Sampled Component Spectra: 1
Spectrometers: USB2E7196
Integration Time (usec): 52000 (USB2E7196)
Spectra Averaged: 20 (USB2E7196)
Boxcar Smoothing: 10 (USB2E7196)
Correct for Electrical Dark: No (USB2E7196)
Strobe/Lamp Enabled: No (USB2E7196)
Correct for Detector Non-linearity: No (USB2E7196)
Correct for Stray Light: No (USB2E7196)
Number of Pixels in Processed Spectrum: 2048
>>>>>Begin Processed Spectral Data<<<<<
339.09	0.00
339.48	198.95
339.86	199.70
340.24	200.70
340.63	201.80
341.01	206.55
341.39	205.90
341.78	207.50
342.16	208.35
342.54	208.20
342.93	197.93
343.31	207.96
343.69	208.50
344.07	208.96
344.46	209.48
344.84	209.97
345.22	210.15
345.60	210.42
345.99	210.63
346.37	210.78
346.75	210.91
347.13	211.00
347.52	211.16
347.90	211.31
348.28	211.43
348.66	211.49
349.05	211.44
349.43	211.43
349.81	211.57
350.19	211.59
350.57	211.64
350.96	211.77
351.34	211.83
351.72	211.90
352.10	212.02
352.48	212.09
352.87	212.15
353.25	212.31
353.63	212.36
354.01	212.38
354.39	212.49
354.77	212.58
355.15	212.67
355.54	212.65
355.92	212.70
356.30	212.71
356.68	212.93
357.06	213.10
357.44	213.11
357.82	213.18
358.20	213.28
358.58	213.36
358.97	213.38
359.35	213.55
359.73	213.67
360.11	213.74
360.49	213.82
360.87	213.85
361.25	213.94
361.63	214.09
362.01	214.20
362.39	214.20
362.77	214.20
363.15	214.25
363.53	214.31
363.91	214.39
364.29	214.49
364.67	214.30
365.05	214.27
365.43	214.43
365.81	214.38
366.19	214.44
366.57	214.47
366.95	214.50
367.33	214.43
367.71	214.43
368.09	214.51
368.47	214.48
368.85	214.45
369.23	214.41
369.61	214.28
369.99	214.29
370.37	214.28
370.75	214.50
371.13	214.45
371.51	214.43
371.89	214.37
372.27	214.33
372.65	214.36
373.03	214.35
373.41	214.29
373.78	214.20
374.16	214.10
374.54	214.03
374.92	213.95
375.30	213.86
375.68	213.78
376.06	213.67
376.44	213.62
376.82	213.68
377.19	213.58
377.57	213.48
377.95	213.36
378.33	213.33
378.71	213.08
379.09	213.03
379.47	213.01
379.84	212.92
380.22	212.87
380.60	212.79
380.98	212.71
381.36	212.62
381.73	212.61
382.11	212.56
382.49	212.54
382.87	212.46
383.25	212.44
383.62	212.55
384.00	212.49
384.38	212.45
384.76	212.42
385.13	212.41
385.51	212.43
385.89	212.35
386.27	212.29
386.64	212.26
387.02	212.19
387.40	212.15
387.78	212.15
388.15	212.12
388.53	212.06
388.91	211.96
389.29	211.97
389.66	212.00
390.04	211.97
390.42	211.98
390.79	212.04
391.17	212.04
391.55	211.94
391.92	211.94
392.30	211.89
392.68	211.76
393.05	211.75
393.43	211.79
393.81	211.76
394.18	211.74
394.56	211.76
394.94	211.78
395.31	211.73
395.69	211.84
396.06	211.84
396.44	211.85
396.82	211.91
397.19	212.00
397.57	211.94
397.95	211.97
398.32	211.92
398.70	211.96
399.07	212.04
399.45	211.99
399.82	212.05
400.20	212.18
400.58	212.27
400.95	212.25
401.33	212.33
401.70	212.54
402.08	212.64
402.45	212.69
402.83	212.77
403.20	212.93
403.58	212.96
403.95	213.05
404.33	213.19
404.71	213.32
405.08	213.45
405.46	213.57
405.83	213.73
406.21	213.84
406.58	213.91
406.96	214.05
407.33	214.23
407.70	214.47
408.08	214.78
408.45	215.03
408.83	215.31
409.20	215.51
409.58	215.69
409.95	215.97
410.33	216.31
410.70	216.58
411.08	216.90
411.45	217.25
411.82	217.62
412.20	218.07
412.57	218.59
412.95	218.95
413.32	219.46
413.69	219.89
414.07	220.47
414.44	221.08
414.82	221.67
415.19	222.39
415.56	223.00
415.94	223.61
416.31	224.44
416.68	225.32
417.06	226.28
417.43	227.21
417.81	228.25
418.18	229.30
418.55	230.47
418.93	231.67
419.30	232.96
419.67	234.36
420.04	235.71
420.42	237.16
420.79	238.87
421.16	240.60
421.54	242.47
421.91	244.31
422.28	246.27
422.66	248.31
423.03	250.27
423.40	252.33
423.77	254.46
424.15	256.61
424.52	258.85
424.89	261.39
425.26	263.87
425.64	266.11
426.01	268.58
426.38	271.19
426.75	273.86
427.13	276.56
427.50	279.47
427.87	282.46
428.24	285.47
428.61	288.32
428.99	291.54
429.36	294.90
429.73	298.26
430.10	301.61
430.47	305.08
430.85	308.66
431.22	312.54
431.59	316.68
431.96	320.60
432.33	324.99
432.70	329.12
433.08	333.85
433.45	338.55
433.82	343.13
434.19	348.09
434.56	352.98
434.93	357.65
435.30	362.23
435.68	367.29
436.05	372.37
436.42	377.42
436.79	381.90
437.16	386.86
437.53	392.13
437.90	397.30
438.27	402.37
438.64	407.65
439.01	412.50
439.38	416.76
439.75	421.00
440.13	425.74
440.50	430.16
440.87	433.72
441.24	437.48
441.61	441.58
441.98	444.65
442.35	448.14
442.72	451.69
443.09	455.19
443.46	457.33
443.83	458.72
444.20	459.88
444.57	461.69
444.94	462.46
445.31	463.22
445.68	463.99
446.05	464.20
446.42	463.61
446.79	462.85
447.16	461.99
447.53	461.40
447.90	459.19
448.27	457.23
448.64	454.45
449.01	452.27
449.37	448.80
449.74	445.42
450.11	441.42
450.48	437.03
450.85	432.55
451.22	428.64
451.59	424.97
451.96	421.47
452.33	416.75
452.70	412.58
453.07	407.55
453.43	402.30
453.80	397.52
454.17	392.86
454.54	388.41
454.91	383.73
455.28	378.95
455.65	374.62
456.02	370.26
456.38	366.64
456.75	362.14
457.12	358.35
457.49	354.60
457.86	350.92
458.23	347.82
458.59	344.35
458.96	340.98
459.33	337.85
459.70	334.76
460.07	332.40
460.43	329.51
460.80	326.82
461.17	324.59
461.54	321.97
461.91	319.59
462.27	317.24
462.64	315.22
463.01	313.02
463.38	311.09
463.74	308.87
464.11	307.03
464.48	305.41
464.85	303.66
465.21	302.40
465.58	301.03
465.95	299.29
466.32	298.01
466.68	296.65
467.05	295.25
467.42	293.89
467.78	292.38
468.15	291.07
468.52	290.13
468.88	288.87
469.25	287.72
469.62	286.86
469.98	285.89
470.35	285.03
470.72	284.12
471.08	283.04
471.45	282.36
471.82	281.61
472.18	280.73
472.55	280.09
472.92	279.35
473.28	278.70
473.65	278.12
474.02	277.44
474.38	276.94
474.75	276.66
475.11	276.19
475.48	275.93
475.85	275.76
476.21	275.56
476.58	275.42
476.94	275.50
477.31	275.36
477.67	275.38
478.04	275.42
478.41	275.75
478.77	276.17
479.14	276.26
479.50	276.52
479.87	276.88
480.23	277.34
480.60	277.72
480.96	278.19
481.33	278.86
481.69	279.45
482.06	280.10
482.42	280.67
482.79	281.55
483.15	282.47
483.52	283.40
483.88	284.38
484.25	285.30
484.61	286.33
484.98	287.48
485.34	288.74
485.71	290.05
486.07	291.39
486.44	292.70
486.80	294.33
487.17	295.98
487.53	297.72
487.90	299.51
488.26	301.38
488.62	303.41
488.99	305.42
489.35	307.66
489.72	310.01
490.08	312.46
490.44	314.80
490.81	317.36
491.17	319.87
491.54	322.77
491.90	325.83
492.26	328.99
492.63	332.30
492.99	335.72
493.36	339.32
493.72	343.15
494.08	347.05
494.45	351.27
494.81	355.62
495.17	360.25
495.54	365.11
495.90	370.22
496.26	375.50
496.63	380.98
496.99	386.57
497.35	392.51
497.72	398.81
498.08	405.36
498.44	412.18
498.80	419.40
499.17	426.85
499.53	434.39
499.89	442.36
500.26	450.45
500.62	458.69
500.98	467.54
501.34	476.62
501.71	486.13
502.07	495.75
502.43	505.71
502.79	515.85
503.16	526.32
503.52	537.00
503.88	548.01
504.24	559.57
504.60	571.63
504.97	583.85
505.33	596.22
505.69	609.41
506.05	622.65
506.41	636.09
506.78	649.66
507.14	663.75
507.50	678.11
507.86	692.90
508.22	708.38
508.59	723.78
508.95	739.50
509.31	755.60
509.67	772.21
510.03	788.99
510.39	806.35
510.75	823.94
511.12	841.92
511.48	860.19
511.84	878.52
512.20	897.00
512.56	916.00
512.92	935.27
513.28	954.60
513.64	974.26
514.00	994.07
514.37	1014.16
514.73	1034.92
515.09	1055.70
515.45	1076.46
515.81	1097.10
516.17	1118.15
516.53	1139.39
516.89	1160.83
517.25	1182.12
517.61	1203.52
517.97	1224.79
518.33	1246.13
518.69	1267.65
519.05	1289.24
519.41	1311.20
519.77	1333.39
520.13	1355.43
520.49	1377.27
520.85	1399.44
521.21	1421.56
521.57	1444.02
521.93	1465.62
522.29	1487.76
522.65	1510.00
523.01	1532.25
523.37	1554.16
523.73	1576.12
524.09	1597.71
524.45	1619.55
524.81	1641.41
525.17	1663.76
525.53	1685.72
525.89	1707.87
526.25	1729.56
526.61	1750.75
526.97	1772.07
527.33	1792.83
527.68	1813.60
528.04	1834.47
528.40	1854.28
528.76	1874.72
529.12	1895.15
529.48	1916.40
529.84	1936.44
530.20	1956.30
530.56	1976.15
530.91	1996.62
531.27	2016.53
531.63	2036.22
531.99	2055.69
532.35	2074.51
532.71	2093.10
533.07	2112.35
533.42	2130.29
533.78	2148.95
534.14	2166.97
534.50	2183.76
534.86	2201.61
535.21	2218.19
535.57	2235.29
535.93	2252.42
536.29	2268.61
536.65	2284.69
537.00	2299.90
537.36	2314.99
537.72	2329.68
538.08	2344.46
538.44	2359.29
538.79	2373.95
539.15	2388.53
539.51	2402.55
539.87	2417.34
540.22	2431.35
540.58	2445.40
540.94	2459.39
541.29	2471.86
541.65	2483.67
542.01	2496.52
542.37	2507.77
542.72	2519.90
543.08	2530.40
543.44	2541.93
543.79	2552.17
544.15	2561.85
544.51	2572.61
544.87	2583.14
545.22	2592.44
545.58	2601.20
545.94	2608.13
546.29	2614.31
546.65	2620.00
547.01	2626.07
547.36	2631.24
547.72	2636.25
548.07	2640.28
548.43	2643.96
548.79	2647.37
549.14	2651.77
549.50	2655.42
549.86	2659.30
550.21	2662.69
550.57	2666.87
550.92	2669.03
551.28	2671.23
551.64	2674.12
551.99	2676.29
552.35	2677.67
552.70	2679.85
553.06	2682.13
553.41	2685.02
553.77	2688.15
554.13	2690.34
554.48	2691.91
554.84	2693.22
555.19	2693.66
555.55	2693.86
555.90	2694.35
556.26	2694.64
556.61	2694.39
556.97	2693.31
557.32	2692.61
557.68	2691.14
558.03	2689.48
558.39	2687.98
558.74	2687.75
559.10	2686.20
559.45	2684.03
559.81	2682.59
560.16	2679.83
560.52	2676.83
560.87	2673.65
561.23	2669.75
561.58	2667.25
561.94	2663.89
562.29	2660.34
562.64	2658.08
563.00	2655.57
563.35	2653.01
563.71	2651.19
564.06	2648.92
564.42	2647.10
564.77	2644.72
565.12	2642.45
565.48	2639.18
565.83	2636.19
566.19	2632.42
566.54	2627.87
566.89	2623.72
567.25	2620.03
567.60	2616.88
567.96	2613.40
568.31	2609.68
568.66	2606.01
569.02	2601.51
569.37	2596.30
569.72	2592.67
570.08	2587.33
570.43	2581.67
570.78	2576.12
571.14	2569.68
571.49	2563.31
571.84	2557.04
572.20	2550.05
572.55	2543.45
572.90	2536.70
573.26	2529.92
573.61	2522.75
573.96	2516.52
574.31	2508.79
574.67	2500.52
575.02	2491.93
575.37	2483.08
575.72	2474.26
576.08	2466.71
576.43	2458.17
576.78	2450.67
577.13	2442.53
577.49	2434.45
577.84	2426.57
578.19	2419.07
578.54	2412.22
578.90	2405.08
579.25	2396.72
579.60	2387.68
579.95	2378.55
580.30	2370.62
580.66	2362.65
581.01	2354.21
581.36	2344.97
581.71	2336.94
582.06	2328.70
582.42	2320.71
582.77	2312.11
583.12	2303.29
583.47	2294.48
583.82	2286.35
584.17	2277.63
584.53	2268.41
584.88	2260.01
585.23	2251.33
585.58	2241.76
585.93	2232.07
586.28	2223.00
586.63	2214.49
586.98	2206.91
587.34	2199.08
587.69	2189.90
588.04	2180.46
588.39	2172.27
588.74	2163.66
589.09	2155.30
589.44	2146.04
589.79	2137.78
590.14	2130.26
590.49	2122.27
590.84	2113.39
591.19	2105.72
591.54	2097.23
591.89	2087.77
592.25	2078.59
592.60	2069.13
592.95	2059.92
593.30	2050.63
593.65	2041.16
594.00	2031.62
594.35	2023.33
594.70	2014.23
595.05	2005.97
595.40	1997.69
595.75	1988.15
596.10	1979.99
596.45	1971.58
596.80	1963.89
597.15	1955.79
597.50	1946.69
597.85	1938.35
598.19	1930.02
598.54	1921.27
598.89	1913.36
599.24	1906.38
599.59	1898.97
599.94	1892.21
600.29	1884.76
600.64	1876.90
600.99	1868.93
601.34	1861.82
601.69	1853.17
602.04	1845.41
602.39	1837.50
602.74	1829.88
603.08	1823.56
603.43	1816.63
603.78	1809.02
604.13	1801.04
604.48	1793.01
604.83	1786.32
605.18	1779.59
605.53	1772.29
605.87	1764.84
606.22	1757.90
606.57	1750.39
606.92	1742.62
607.27	1734.85
607.62	1727.69
607.96	1721.05
608.31	1715.18
608.66	1707.71
609.01	1700.12
609.36	1692.72
609.70	1684.93
610.05	1677.33
610.40	1669.18
610.75	1660.87
611.10	1653.21
611.44	1644.53
611.79	1635.85
612.14	1626.89
612.49	1617.25
612.83	1608.72
613.18	1599.18
613.53	1589.72
613.88	1580.30
614.22	1571.57
614.57	1562.50
614.92	1553.39
615.27	1544.27
615.61	1534.49
615.96	1525.77
616.31	1517.55
616.65	1509.61
617.00	1501.49
617.35	1493.04
617.70	1484.35
618.04	1475.54
618.39	1466.25
618.74	1458.11
619.08	1449.55
619.43	1441.45
619.78	1434.00
620.12	1426.00
620.47	1418.61
620.82	1410.50
621.16	1402.24
621.51	1393.90
621.85	1385.82
622.20	1377.66
622.55	1369.31
622.89	1361.27
623.24	1353.34
623.59	1345.08
623.93	1336.42
624.28	1328.33
624.62	1320.45
624.97	1312.43
625.32	1304.70
625.66	1297.56
626.01	1290.49
626.35	1283.68
626.70	1275.92
627.04	1268.53
627.39	1261.11
627.73	1253.79
628.08	1247.23
628.43	1240.17
628.77	1233.07
629.12	1225.66
629.46	1219.00
629.81	1212.00
630.15	1204.80
630.50	1197.65
630.84	1190.51
631.19	1183.43
631.53	1176.81
631.88	1169.35
632.22	1161.94
632.57	1155.19
632.91	1147.85
633.26	1140.31
633.60	1133.16
633.95	1126.51
634.29	1119.20
634.64	1112.55
634.98	1105.48
635.32	1098.14
635.67	1091.80
636.01	1085.29
636.36	1078.65
636.70	1072.26
637.05	1065.87
637.39	1059.53
637.73	1053.21
638.08	1047.28
638.42	1041.61
638.77	1035.03
639.11	1028.78
639.45	1023.02
639.80	1016.41
640.14	1010.30
640.49	1004.35
640.83	998.14
641.17	991.93
641.52	986.01
641.86	979.62
642.20	973.68
642.55	967.33
642.89	960.90
643.23	954.79
643.58	949.11
643.92	942.62
644.26	936.43
644.61	930.58
644.95	924.67
645.29	918.69
645.64	912.26
645.98	906.35
646.32	900.64
646.66	894.49
647.01	888.73
647.35	882.86
647.69	876.58
648.04	870.66
648.38	864.77
648.72	858.72
649.06	852.78
649.41	846.84
649.75	841.29
650.09	835.65
650.43	829.46
650.78	823.33
651.12	817.27
651.46	811.66
651.80	805.97
652.14	800.13
652.49	794.15
652.83	788.41
653.17	782.34
653.51	776.52
653.85	770.97
654.20	765.22
654.54	759.44
654.88	754.07
655.22	748.29
655.56	742.46
655.90	736.77
656.25	731.12
656.59	725.63
656.93	720.34
657.27	715.21
657.61	710.10
657.95	705.21
658.29	700.30
658.64	695.32
658.98	690.11
659.32	684.85
659.66	679.81
660.00	674.64
660.34	669.57
660.68	664.60
661.02	659.49
661.36	654.89
661.70	650.22
662.05	645.67
662.39	641.36
662.73	637.26
663.07	633.27
663.41	628.94
663.75	624.59
664.09	619.94
664.43	615.15
664.77	610.90
665.11	606.47
665.45	602.15
665.79	597.81
666.13	593.48
666.47	589.34
666.81	585.27
667.15	581.30
667.49	577.56
667.83	573.64
668.17	569.85
668.51	566.00
668.85	562.40
669.19	558.71
669.53	555.00
669.87	550.90
670.21	547.01
670.55	543.29
670.89	539.79
671.23	536.51
671.57	533.23
671.91	529.64
672.25	525.96
672.58	522.59
672.92	519.11
673.26	516.03
673.60	512.85
673.94	509.60
674.28	506.33
674.62	503.28
674.96	500.27
675.30	497.29
675.64	494.27
675.97	491.20
676.31	488.24
676.65	485.28
676.99	482.69
677.33	479.78
677.67	477.04
678.01	474.00
678.34	471.08
678.68	468.26
679.02	465.51
679.36	462.86
679.70	460.11
680.04	457.28
680.37	454.32
680.71	451.48
681.05	448.85
681.39	446.18
681.73	443.59
682.06	441.01
682.40	438.48
682.74	435.86
683.08	433.30
683.42	430.70
683.75	428.20
684.09	425.65
684.43	423.26
684.77	420.59
685.10	418.14
685.44	415.69
685.78	413.29
686.12	411.00
686.45	408.70
686.79	406.44
687.13	404.42
687.46	402.23
687.80	400.13
688.14	397.77
688.48	395.71
688.81	393.44
689.15	391.19
689.49	389.05
689.82	386.92
690.16	384.62
690.50	382.43
690.83	380.25
691.17	377.95
691.51	375.84
691.84	373.90
692.18	371.85
692.52	369.90
692.85	368.09
693.19	366.23
693.52	364.42
693.86	362.54
694.20	360.64
694.53	358.86
694.87	357.02
695.21	355.27
695.54	353.45
695.88	351.50
696.21	349.70
696.55	347.90
696.88	346.19
697.22	344.50
697.56	342.91
697.89	341.31
698.23	339.78
698.56	338.10
698.90	336.54
699.23	335.01
699.57	333.45
699.90	331.70
700.24	330.04
700.58	328.49
700.91	326.86
701.25	325.42
701.58	323.97
701.92	322.55
702.25	321.14
702.59	319.82
702.92	318.63
703.26	317.33
703.59	316.04
703.93	314.95
704.26	313.71
704.60	312.48
704.93	311.31
705.26	310.04
705.60	308.95
705.93	307.74
706.27	306.60
706.60	305.48
706.94	304.43
707.27	303.26
707.61	302.09
707.94	301.01
708.27	299.89
708.61	298.74
708.94	297.55
709.28	296.52
709.61	295.45
709.94	294.41
710.28	293.35
710.61	292.43
710.95	291.17
711.28	290.30
711.61	289.24
711.95	288.16
712.28	287.28
712.61	286.33
712.95	285.48
713.28	284.61
713.61	283.65
713.95	282.75
714.28	281.96
714.61	281.11
714.95	280.22
715.28	279.29
715.61	278.45
715.95	277.60
716.28	276.66
716.61	275.79
716.95	274.92
717.28	274.12
717.61	273.30
717.94	272.57
718.28	271.69
718.61	270.98
718.94	270.32
719.27	269.55
719.61	268.84
719.94	268.10
720.27	267.37
720.60	266.67
720.94	266.01
721.27	265.29
721.60	264.65
721.93	264.10
722.27	263.48
722.60	262.84
722.93	262.24
723.26	261.66
723.59	261.06
723.93	260.43
724.26	259.88
724.59	259.22
724.92	258.71
725.25	258.19
725.59	257.63
725.92	257.05
726.25	256.57
726.58	255.92
726.91	255.35
727.24	254.89
727.57	254.40
727.91	253.91
728.24	253.47
728.57	253.01
728.90	252.56
729.23	252.07
729.56	251.67
729.89	251.21
730.22	250.76
730.55	250.33
730.89	249.87
731.22	249.49
731.55	249.09
731.88	248.61
732.21	248.11
732.54	247.65
732.87	247.20
733.20	246.74
733.53	246.32
733.86	245.94
734.19	245.52
734.52	245.16
734.85	244.85
735.18	244.40
735.51	243.92
735.84	243.43
736.17	243.11
736.50	242.75
736.83	242.60
737.16	242.20
737.49	241.80
737.82	241.53
738.15	241.08
738.48	240.70
738.81	240.34
739.14	240.02
739.47	239.69
739.80	239.31
740.13	238.94
740.46	238.60
740.79	238.27
741.12	237.83
741.45	237.46
741.78	237.00
742.11	236.74
742.44	236.43
742.77	236.13
743.10	235.77
743.43	235.32
743.75	234.85
744.08	234.80
744.41	234.46
744.74	234.15
745.07	233.81
745.40	233.64
745.73	233.48
746.06	233.14
746.39	232.89
746.71	232.63
747.04	232.35
747.37	232.10
747.70	231.86
748.03	231.67
748.36	231.48
748.68	231.21
749.01	230.91
749.34	230.66
749.67	230.50
750.00	230.33
750.33	230.28
750.65	230.05
750.98	229.67
751.31	229.50
751.64	229.30
751.97	229.25
752.29	229.01
752.62	228.71
752.95	228.59
753.28	228.36
753.60	228.20
753.93	228.10
754.26	227.96
754.59	227.76
754.91	227.57
755.24	227.33
755.57	227.18
755.90	226.99
756.22	226.85
756.55	226.66
756.88	226.39
757.20	226.14
757.53	225.90
757.86	225.64
758.19	225.39
758.51	225.17
758.84	224.88
759.17	224.72
759.49	224.55
759.82	224.40
760.15	224.28
760.47	224.13
760.80	223.92
761.13	223.74
761.45	223.57
761.78	223.42
762.11	223.30
762.43	223.15
762.76	223.05
763.08	222.90
763.41	222.74
763.74	222.62
764.06	222.48
764.39	222.38
764.71	222.28
765.04	222.24
765.37	222.09
765.69	221.97
766.02	221.78
766.34	221.70
766.67	221.53
767.00	221.33
767.32	221.28
767.65	221.20
767.97	221.13
768.30	220.97
768.62	220.90
768.95	220.75
769.27	220.68
769.60	220.65
769.92	220.55
770.25	220.41
770.57	220.29
770.90	220.15
771.22	220.02
771.55	219.96
771.87	219.82
772.20	219.75
772.52	219.77
772.85	219.89
773.17	219.77
773.50	219.62
773.82	219.63
774.15	219.44
774.47	219.25
774.80	219.15
775.12	218.98
775.45	218.80
775.77	218.80
776.09	218.70
776.42	218.53
776.74	218.50
777.07	218.43
777.39	218.42
777.72	218.32
778.04	218.27
778.36	218.13
778.69	218.00
779.01	217.95
779.33	217.75
779.66	217.52
779.98	217.41
780.31	217.36
780.63	217.27
780.95	217.20
781.28	217.10
781.60	217.01
781.92	217.03
782.25	216.97
782.57	216.80
782.89	216.68
783.22	216.65
783.54	216.48
783.86	216.38
784.19	216.25
784.51	216.20
784.83	216.10
785.16	216.07
785.48	216.07
785.80	215.96
786.12	215.94
786.45	215.78
