SpectraSuite Data File
++++++++++++++++++++++++++++++++++++
Date: Mon Feb 25 17:32:45 EST 2013
User: group
Dark Spectrum Present: No
Reference Spectrum Present: No
Number of Sampled Component Spectra: 1
Spectrometers: USB2E7196
Integration Time (usec): 52000 (USB2E7196)
Spectra Averaged: 20 (USB2E7196)
Boxcar Smoothing: 10 (USB2E7196)
Correct for Electrical Dark: No (USB2E7196)
Strobe/Lamp Enabled: No (USB2E7196)
Correct for Detector Non-linearity: No (USB2E7196)
Correct for Stray Light: No (USB2E7196)
Number of Pixels in Processed Spectrum: 2048
>>>>>Begin Processed Spectral Data<<<<<
339.09	0.00
339.48	200.70
339.86	200.85
340.24	202.65
340.63	203.50
341.01	207.95
341.39	205.80
341.78	208.35
342.16	207.95
342.54	208.85
342.93	198.49
343.31	208.50
343.69	209.01
344.07	209.46
344.46	209.85
344.84	210.23
345.22	210.39
345.60	210.65
345.99	210.84
346.37	211.03
346.75	211.15
347.13	211.25
347.52	211.32
347.90	211.36
348.28	211.39
348.66	211.43
349.05	211.53
349.43	211.59
349.81	211.67
350.19	211.80
350.57	211.86
350.96	211.93
351.34	212.02
351.72	212.05
352.10	212.13
352.48	212.17
352.87	212.21
353.25	212.29
353.63	212.32
354.01	212.37
354.39	212.45
354.77	212.52
355.15	212.65
355.54	212.69
355.92	212.71
356.30	212.75
356.68	212.88
357.06	212.94
357.44	213.01
357.82	212.98
358.20	213.05
358.58	213.03
358.97	213.14
359.35	213.26
359.73	213.34
360.11	213.40
360.49	213.53
360.87	213.58
361.25	213.65
361.63	213.75
362.01	213.75
362.39	213.69
362.77	213.65
363.15	213.64
363.53	213.66
363.91	213.67
364.29	213.68
364.67	213.58
365.05	213.63
365.43	213.59
365.81	213.63
366.19	213.64
366.57	213.80
366.95	213.70
367.33	213.60
367.71	213.60
368.09	213.66
368.47	213.62
368.85	213.63
369.23	213.61
369.61	213.55
369.99	213.61
370.37	213.59
370.75	213.74
371.13	213.64
371.51	213.57
371.89	213.59
372.27	213.62
372.65	213.60
373.03	213.51
373.41	213.54
373.78	213.52
374.16	213.45
374.54	213.39
374.92	213.38
375.30	213.38
375.68	213.35
376.06	213.28
376.44	213.22
376.82	213.13
377.19	213.07
377.57	213.05
377.95	212.91
378.33	212.96
378.71	212.79
379.09	212.81
379.47	212.82
379.84	212.73
380.22	212.64
380.60	212.50
380.98	212.44
381.36	212.39
381.73	212.36
382.11	212.28
382.49	212.24
382.87	212.20
383.25	212.10
383.62	212.21
384.00	212.18
384.38	212.18
384.76	212.25
385.13	212.30
385.51	212.24
385.89	212.16
386.27	212.04
386.64	212.05
387.02	211.99
387.40	211.92
387.78	211.92
388.15	211.91
388.53	211.98
388.91	211.95
389.29	211.90
389.66	211.87
390.04	211.87
390.42	211.89
390.79	211.84
391.17	211.88
391.55	211.67
391.92	211.56
392.30	211.57
392.68	211.47
393.05	211.39
393.43	211.40
393.81	211.46
394.18	211.49
394.56	211.53
394.94	211.55
395.31	211.57
395.69	211.65
396.06	211.72
396.44	211.72
396.82	211.73
397.19	211.79
397.57	211.78
397.95	211.78
398.32	211.69
398.70	211.75
399.07	211.87
399.45	211.94
399.82	212.05
400.20	212.06
400.58	212.13
400.95	212.17
401.33	212.21
401.70	212.38
402.08	212.46
402.45	212.51
402.83	212.67
403.20	212.73
403.58	212.78
403.95	212.86
404.33	212.92
404.71	213.00
405.08	213.17
405.46	213.29
405.83	213.45
406.21	213.60
406.58	213.79
406.96	213.92
407.33	214.05
407.70	214.18
408.08	214.56
408.45	214.79
408.83	214.96
409.20	215.20
409.58	215.34
409.95	215.58
410.33	215.82
410.70	216.03
411.08	216.40
411.45	216.73
411.82	217.01
412.20	217.53
412.57	218.02
412.95	218.39
413.32	218.90
413.69	219.45
414.07	219.95
414.44	220.53
414.82	221.09
415.19	221.89
415.56	222.59
415.94	223.26
416.31	224.12
416.68	225.03
417.06	226.05
417.43	227.02
417.81	228.16
418.18	229.32
418.55	230.55
418.93	231.83
419.30	233.09
419.67	234.61
420.04	235.98
420.42	237.48
420.79	239.32
421.16	241.05
421.54	242.79
421.91	244.68
422.28	246.63
422.66	248.72
423.03	250.78
423.40	252.95
423.77	255.06
424.15	257.33
424.52	259.67
424.89	262.16
425.26	264.60
425.64	266.95
426.01	269.50
426.38	272.15
426.75	274.83
427.13	277.63
427.50	280.49
427.87	283.55
428.24	286.51
428.61	289.37
428.99	292.65
429.36	296.21
429.73	299.65
430.10	303.11
430.47	306.60
430.85	310.14
431.22	313.99
431.59	318.23
431.96	322.11
432.33	326.44
432.70	330.74
433.08	335.71
433.45	340.28
433.82	344.85
434.19	349.97
434.56	354.90
434.93	359.69
435.30	364.31
435.68	369.59
436.05	374.95
436.42	380.17
436.79	384.90
437.16	389.98
437.53	395.44
437.90	400.72
438.27	405.89
438.64	411.22
439.01	416.26
439.38	420.47
439.75	424.68
440.13	429.57
440.50	433.91
440.87	437.55
441.24	441.43
441.61	445.66
441.98	448.70
442.35	452.31
442.72	455.98
443.09	459.58
443.46	461.73
443.83	462.99
444.20	464.01
444.57	465.66
444.94	466.37
445.31	466.93
445.68	467.65
446.05	467.85
446.42	467.33
446.79	466.37
447.16	465.53
447.53	465.04
447.90	462.90
448.27	460.85
448.64	457.98
449.01	455.82
449.37	452.13
449.74	448.59
450.11	444.48
450.48	440.07
450.85	435.56
451.22	431.50
451.59	427.74
451.96	424.13
452.33	419.32
452.70	414.90
453.07	409.87
453.43	404.50
453.80	399.60
454.17	394.68
454.54	390.27
454.91	385.55
455.28	380.73
455.65	376.37
456.02	372.17
456.38	368.54
456.75	363.92
457.12	360.22
457.49	356.52
457.86	352.85
458.23	349.58
458.59	346.09
458.96	342.55
459.33	339.52
459.70	336.40
460.07	333.98
460.43	331.20
460.80	328.54
461.17	326.22
461.54	323.74
461.91	321.46
462.27	319.10
462.64	317.12
463.01	314.83
463.38	312.70
463.74	310.47
464.11	308.41
464.48	306.82
464.85	304.99
465.21	303.59
465.58	302.19
465.95	300.44
466.32	298.97
466.68	297.65
467.05	296.13
467.42	294.86
467.78	293.34
468.15	291.97
468.52	290.98
468.88	289.71
469.25	288.54
469.62	287.63
469.98	286.66
470.35	285.71
470.72	284.87
471.08	283.94
471.45	283.15
471.82	282.41
472.18	281.52
472.55	280.92
472.92	280.21
473.28	279.57
473.65	279.02
474.02	278.53
474.38	278.16
474.75	277.91
475.11	277.48
475.48	277.38
475.85	277.24
476.21	276.99
476.58	276.93
476.94	276.90
477.31	276.89
477.67	276.81
478.04	276.92
478.41	277.09
478.77	277.44
479.14	277.58
479.50	277.94
479.87	278.46
480.23	278.85
480.60	279.23
480.96	279.64
481.33	280.36
481.69	280.93
482.06	281.49
482.42	282.03
482.79	282.75
483.15	283.48
483.52	284.30
483.88	285.25
484.25	286.29
484.61	287.29
484.98	288.42
485.34	289.64
485.71	290.89
486.07	292.32
486.44	293.64
486.80	295.12
487.17	296.73
487.53	298.32
487.90	300.20
488.26	302.22
488.62	304.30
488.99	306.31
489.35	308.51
489.72	310.83
490.08	313.38
490.44	315.87
490.81	318.58
491.17	321.33
491.54	324.20
491.90	327.17
492.26	330.42
492.63	333.68
492.99	337.22
493.36	340.92
493.72	344.78
494.08	348.70
494.45	353.07
494.81	357.53
495.17	362.06
495.54	366.90
495.90	371.85
496.26	377.03
496.63	382.48
496.99	388.27
497.35	394.25
497.72	400.40
498.08	406.82
498.44	413.51
498.80	420.73
499.17	428.18
499.53	435.85
499.89	443.75
500.26	451.84
500.62	460.24
500.98	468.94
501.34	477.96
501.71	487.54
502.07	497.26
502.43	507.10
502.79	517.48
503.16	528.12
503.52	539.01
503.88	550.21
504.24	561.75
504.60	573.52
504.97	585.76
505.33	598.34
505.69	611.67
506.05	625.02
506.41	638.50
506.78	652.27
507.14	666.27
507.50	680.81
507.86	695.70
508.22	710.95
508.59	726.54
508.95	742.29
509.31	758.35
509.67	774.83
510.03	791.72
510.39	809.07
510.75	826.92
511.12	844.95
511.48	863.33
511.84	882.10
512.20	900.80
512.56	920.04
512.92	939.55
513.28	958.80
513.64	978.55
514.00	998.44
514.37	1018.84
514.73	1039.75
515.09	1060.45
515.45	1081.52
515.81	1102.64
516.17	1123.89
516.53	1145.50
516.89	1166.96
517.25	1188.47
517.61	1210.12
517.97	1231.74
518.33	1252.98
518.69	1274.75
519.05	1296.70
519.41	1318.79
519.77	1341.16
520.13	1362.99
520.49	1385.00
520.85	1407.61
521.21	1430.10
521.57	1453.19
521.93	1475.18
522.29	1498.06
522.65	1520.63
523.01	1543.07
523.37	1565.32
523.73	1587.69
524.09	1609.81
524.45	1632.15
524.81	1654.75
525.17	1677.42
525.53	1699.72
525.89	1722.26
526.25	1744.18
526.61	1765.68
526.97	1787.32
527.33	1808.52
527.68	1830.42
528.04	1851.60
528.40	1872.18
528.76	1893.12
529.12	1913.69
529.48	1935.28
529.84	1955.11
530.20	1975.50
530.56	1996.20
530.91	2016.94
531.27	2037.25
531.63	2057.34
531.99	2077.23
532.35	2096.58
532.71	2115.80
533.07	2135.39
533.42	2153.72
533.78	2172.59
534.14	2190.85
534.50	2207.85
534.86	2225.92
535.21	2242.46
535.57	2260.29
535.93	2277.59
536.29	2294.37
536.65	2311.00
537.00	2326.30
537.36	2341.58
537.72	2356.67
538.08	2371.48
538.44	2386.74
538.79	2402.00
539.15	2416.67
539.51	2431.05
539.87	2445.92
540.22	2460.04
540.58	2474.82
540.94	2489.28
541.29	2502.33
541.65	2514.58
542.01	2527.81
542.37	2539.71
542.72	2551.93
543.08	2562.46
543.44	2574.37
543.79	2584.29
544.15	2594.25
544.51	2605.27
544.87	2616.53
545.22	2625.72
545.58	2634.34
545.94	2641.33
546.29	2647.60
546.65	2653.72
547.01	2659.86
547.36	2665.31
547.72	2670.98
548.07	2674.92
548.43	2678.68
548.79	2682.30
549.14	2686.91
549.50	2691.16
549.86	2695.39
550.21	2699.32
550.57	2703.57
550.92	2705.83
551.28	2708.58
551.64	2711.10
551.99	2713.67
552.35	2715.18
552.70	2718.03
553.06	2720.74
553.41	2723.72
553.77	2726.77
554.13	2729.09
554.48	2731.09
554.84	2732.44
555.19	2732.71
555.55	2733.33
555.90	2734.04
556.26	2734.67
556.61	2734.54
556.97	2733.27
557.32	2732.49
557.68	2730.92
558.03	2729.50
558.39	2728.29
558.74	2728.15
559.10	2726.92
559.45	2724.90
559.81	2723.69
560.16	2721.08
560.52	2718.44
560.87	2715.32
561.23	2711.51
561.58	2709.27
561.94	2706.01
562.29	2702.59
562.64	2700.47
563.00	2697.90
563.35	2695.66
563.71	2693.63
564.06	2691.68
564.42	2690.06
564.77	2687.88
565.12	2686.16
565.48	2682.80
565.83	2679.48
566.19	2675.91
566.54	2671.61
566.89	2667.40
567.25	2663.78
567.60	2660.40
567.96	2657.18
568.31	2653.74
568.66	2650.35
569.02	2645.62
569.37	2640.63
569.72	2636.60
570.08	2631.22
570.43	2625.54
570.78	2619.58
571.14	2613.28
571.49	2606.50
571.84	2600.47
572.20	2593.05
572.55	2586.23
572.90	2579.63
573.26	2573.06
573.61	2565.90
573.96	2559.64
574.31	2552.15
574.67	2543.71
575.02	2535.32
575.37	2526.34
575.72	2517.48
576.08	2509.87
576.43	2501.33
576.78	2493.76
577.13	2485.83
577.49	2477.59
577.84	2469.85
578.19	2462.28
578.54	2455.14
578.90	2448.22
579.25	2439.31
579.60	2430.76
579.95	2421.57
580.30	2413.74
580.66	2405.33
581.01	2396.35
581.36	2387.04
581.71	2378.49
582.06	2370.07
582.42	2361.82
582.77	2352.79
583.12	2343.79
583.47	2334.91
583.82	2326.44
584.17	2317.12
584.53	2307.75
584.88	2298.83
585.23	2289.56
585.58	2279.97
585.93	2270.19
586.28	2260.96
586.63	2252.16
586.98	2243.85
587.34	2235.38
587.69	2226.12
588.04	2217.14
588.39	2209.00
588.74	2200.07
589.09	2191.57
589.44	2182.21
589.79	2173.86
590.14	2165.75
590.49	2157.37
590.84	2148.33
591.19	2140.31
591.54	2131.56
591.89	2121.61
592.25	2112.75
592.60	2103.32
592.95	2093.91
593.30	2084.56
593.65	2074.60
594.00	2064.85
594.35	2056.71
594.70	2047.81
595.05	2039.19
595.40	2030.23
595.75	2020.42
596.10	2012.08
596.45	2003.50
596.80	1995.69
597.15	1987.22
597.50	1978.23
597.85	1970.10
598.19	1961.44
598.54	1952.91
598.89	1944.88
599.24	1938.45
599.59	1930.99
599.94	1923.85
600.29	1916.32
600.64	1908.47
600.99	1900.35
601.34	1893.52
601.69	1884.38
602.04	1876.23
602.39	1867.89
602.74	1860.00
603.08	1853.33
603.43	1846.35
603.78	1838.34
604.13	1830.34
604.48	1822.38
604.83	1815.49
605.18	1808.12
605.53	1800.60
605.87	1792.85
606.22	1785.91
606.57	1778.03
606.92	1769.88
607.27	1761.75
607.62	1754.41
607.96	1747.44
608.31	1741.33
608.66	1733.36
609.01	1725.99
609.36	1718.35
609.70	1710.54
610.05	1702.78
610.40	1694.75
610.75	1686.11
611.10	1678.77
611.44	1669.61
611.79	1660.31
612.14	1651.06
612.49	1641.67
612.83	1632.92
613.18	1623.41
613.53	1614.23
613.88	1604.55
614.22	1595.78
614.57	1586.70
614.92	1577.37
615.27	1568.04
615.61	1558.16
615.96	1549.14
616.31	1540.58
616.65	1532.56
617.00	1524.50
617.35	1516.18
617.70	1507.04
618.04	1498.09
618.39	1488.48
618.74	1480.35
619.08	1471.99
619.43	1463.59
619.78	1455.61
620.12	1447.43
620.47	1439.83
620.82	1431.19
621.16	1422.81
621.51	1414.40
621.85	1406.22
622.20	1397.57
622.55	1389.24
622.89	1381.04
623.24	1373.34
623.59	1364.85
623.93	1356.05
624.28	1347.50
624.62	1339.07
624.97	1331.15
625.32	1323.40
625.66	1316.15
626.01	1308.78
626.35	1301.78
626.70	1294.26
627.04	1286.77
627.39	1279.17
627.73	1271.39
628.08	1264.40
628.43	1256.94
628.77	1249.47
629.12	1241.97
629.46	1235.57
629.81	1228.41
630.15	1221.10
630.50	1213.46
630.84	1206.13
631.19	1199.18
631.53	1192.50
631.88	1185.04
632.22	1177.61
632.57	1170.76
632.91	1163.35
633.26	1155.85
633.60	1148.48
633.95	1141.78
634.29	1134.64
634.64	1127.76
634.98	1121.00
635.32	1113.80
635.67	1107.52
636.01	1100.77
636.36	1094.10
636.70	1087.38
637.05	1080.71
637.39	1074.58
637.73	1068.40
638.08	1062.43
638.42	1056.39
638.77	1049.88
639.11	1043.75
639.45	1037.73
639.80	1030.96
640.14	1024.39
640.49	1018.24
640.83	1012.01
641.17	1005.64
641.52	999.58
641.86	993.06
642.20	986.58
642.55	979.96
642.89	973.46
643.23	967.22
643.58	961.35
643.92	954.92
644.26	948.60
644.61	942.25
644.95	936.19
645.29	930.01
645.64	923.49
645.98	917.11
646.32	911.29
646.66	905.01
647.01	898.96
647.35	893.14
647.69	886.82
648.04	880.72
648.38	874.70
648.72	868.60
649.06	862.66
649.41	856.77
649.75	851.15
650.09	845.37
650.43	839.50
650.78	833.28
651.12	827.24
651.46	821.56
651.80	815.69
652.14	809.56
652.49	803.78
652.83	798.00
653.17	792.14
653.51	786.14
653.85	780.49
654.20	774.81
654.54	768.93
654.88	763.40
655.22	757.71
655.56	751.82
655.90	746.02
656.25	740.34
656.59	734.74
656.93	729.43
657.27	724.33
657.61	718.83
657.95	713.81
658.29	708.59
658.64	703.44
658.98	698.30
659.32	693.04
659.66	687.81
660.00	682.49
660.34	677.25
660.68	672.17
661.02	667.21
661.36	662.60
661.70	657.93
662.05	653.30
662.39	648.91
662.73	644.56
663.07	640.33
663.41	636.03
663.75	631.52
664.09	626.87
664.43	622.09
664.77	617.77
665.11	613.19
665.45	608.94
665.79	604.55
666.13	600.25
666.47	596.15
666.81	591.97
667.15	587.99
667.49	584.29
667.83	580.38
668.17	576.45
668.51	572.51
668.85	568.79
669.19	565.03
669.53	561.13
669.87	557.18
670.21	553.27
670.55	549.44
670.89	546.16
671.23	542.80
671.57	539.23
671.91	535.69
672.25	532.16
672.58	528.69
672.92	525.29
673.26	522.12
673.60	518.86
673.94	515.48
674.28	512.24
674.62	508.97
674.96	505.75
675.30	502.66
675.64	499.43
675.97	496.14
676.31	493.10
676.65	490.14
676.99	487.44
677.33	484.53
677.67	481.70
678.01	478.47
678.34	475.54
678.68	472.60
679.02	469.64
679.36	466.73
679.70	463.91
680.04	460.97
680.37	457.97
680.71	455.16
681.05	452.55
681.39	449.66
681.73	447.01
682.06	444.48
682.40	441.93
682.74	439.26
683.08	436.86
683.42	434.12
683.75	431.50
684.09	428.74
684.43	426.22
684.77	423.63
685.10	421.23
685.44	418.65
685.78	416.26
686.12	414.02
686.45	411.80
686.79	409.57
687.13	407.57
687.46	405.26
687.80	403.00
688.14	400.79
688.48	398.80
688.81	396.53
689.15	394.30
689.49	392.00
689.82	389.89
690.16	387.46
690.50	385.27
690.83	383.03
691.17	380.88
691.51	378.74
691.84	376.61
692.18	374.49
692.52	372.50
692.85	370.66
693.19	368.66
693.52	366.73
693.86	364.70
694.20	362.83
694.53	360.96
694.87	359.08
695.21	357.11
695.54	355.19
695.88	353.35
696.21	351.54
696.55	349.83
696.88	348.19
697.22	346.51
697.56	345.03
697.89	343.46
698.23	341.89
698.56	340.31
698.90	338.87
699.23	337.25
699.57	335.63
699.90	333.94
700.24	332.39
700.58	330.84
700.91	329.29
701.25	327.73
701.58	326.43
701.92	325.16
702.25	323.81
702.59	322.51
702.92	321.15
703.26	319.74
703.59	318.39
703.93	317.24
704.26	316.04
704.60	314.79
704.93	313.56
705.26	312.32
705.60	311.17
705.93	309.85
706.27	308.72
706.60	307.74
706.94	306.69
707.27	305.55
707.61	304.41
707.94	303.27
708.27	302.02
708.61	300.78
708.94	299.50
709.28	298.36
709.61	297.24
709.94	296.17
710.28	295.14
710.61	294.21
710.95	292.95
711.28	292.04
711.61	290.84
711.95	289.92
712.28	288.94
712.61	287.82
712.95	286.91
713.28	285.99
713.61	284.96
713.95	284.00
714.28	283.08
714.61	282.16
714.95	281.35
715.28	280.44
715.61	279.49
715.95	278.65
716.28	277.77
716.61	276.94
716.95	276.08
717.28	275.30
717.61	274.44
717.94	273.62
718.28	272.72
718.61	272.09
718.94	271.24
719.27	270.45
719.61	269.86
719.94	269.15
720.27	268.43
720.60	267.68
720.94	266.91
721.27	266.24
721.60	265.63
721.93	264.92
722.27	264.38
722.60	263.80
722.93	263.16
723.26	262.59
723.59	261.94
723.93	261.37
724.26	260.70
724.59	260.07
724.92	259.54
725.25	259.01
725.59	258.43
725.92	257.85
726.25	257.27
726.58	256.67
726.91	256.15
727.24	255.64
727.57	255.24
727.91	254.75
728.24	254.30
728.57	253.79
728.90	253.23
729.23	252.72
729.56	252.41
729.89	251.94
730.22	251.49
730.55	251.00
730.89	250.57
731.22	250.10
731.55	249.65
731.88	249.19
732.21	248.67
732.54	248.27
732.87	247.87
733.20	247.45
733.53	247.03
733.86	246.61
734.19	246.18
734.52	245.70
734.85	245.51
735.18	245.07
735.51	244.68
735.84	244.39
736.17	244.05
736.50	243.60
736.83	243.45
737.16	242.97
737.49	242.64
737.82	242.33
738.15	241.98
738.48	241.63
738.81	241.30
739.14	240.97
739.47	240.58
739.80	240.21
740.13	239.96
740.46	239.59
740.79	239.20
741.12	238.80
741.45	238.48
741.78	238.01
742.11	237.71
742.44	237.32
742.77	236.99
743.10	236.67
743.43	236.27
743.75	235.79
744.08	235.83
744.41	235.54
744.74	235.15
745.07	234.84
745.40	234.58
745.73	234.35
746.06	234.10
746.39	233.82
746.71	233.51
747.04	233.19
747.37	232.98
747.70	232.77
748.03	232.55
748.36	232.35
748.68	232.12
749.01	231.90
749.34	231.79
749.67	231.59
750.00	231.41
750.33	231.34
750.65	231.13
750.98	230.63
751.31	230.35
751.64	230.16
751.97	230.13
752.29	229.85
752.62	229.50
752.95	229.28
753.28	229.09
753.60	228.98
753.93	228.74
754.26	228.48
754.59	228.14
754.91	227.95
755.24	227.68
755.57	227.42
755.90	227.14
756.22	226.80
756.55	226.64
756.88	226.35
757.20	226.02
757.53	225.78
757.86	225.57
758.19	225.40
758.51	225.20
758.84	224.82
759.17	224.65
759.49	224.57
759.82	224.50
760.15	224.27
760.47	224.01
760.80	223.85
761.13	223.71
761.45	223.67
761.78	223.51
762.11	223.45
762.43	223.37
762.76	223.21
763.08	223.15
763.41	222.90
763.74	222.81
764.06	222.73
764.39	222.58
764.71	222.45
765.04	222.29
765.37	222.21
765.69	222.12
766.02	222.03
766.34	221.86
766.67	221.58
767.00	221.63
767.32	221.63
767.65	221.61
767.97	221.42
768.30	221.30
768.62	221.16
768.95	220.95
769.27	220.75
769.60	220.65
769.92	220.46
770.25	220.42
770.57	220.26
770.90	220.08
771.22	219.97
771.55	219.84
771.87	219.80
772.20	219.61
772.52	219.67
772.85	219.80
773.17	219.70
773.50	219.65
773.82	219.45
774.15	219.23
774.47	219.05
774.80	218.95
775.12	218.82
775.45	218.75
775.77	218.70
776.09	218.68
776.42	218.60
776.74	218.59
777.07	218.48
777.39	218.33
777.72	218.26
778.04	218.22
778.36	218.20
778.69	218.13
779.01	218.06
779.33	217.86
779.66	217.50
779.98	217.40
780.31	217.34
780.63	217.30
780.95	217.27
781.28	217.16
781.60	217.17
781.92	217.11
782.25	217.02
782.57	216.89
782.89	216.73
783.22	216.67
783.54	216.64
783.86	216.55
784.19	216.50
784.51	216.48
784.83	216.34
785.16	216.22
785.48	216.12
785.80	216.10
786.12	216.04
786.45	216.08
