SpectraSuite Data File
++++++++++++++++++++++++++++++++++++
Date: Mon Feb 25 17:34:56 EST 2013
User: group
Dark Spectrum Present: No
Reference Spectrum Present: No
Number of Sampled Component Spectra: 1
Spectrometers: USB2E7196
Integration Time (usec): 52000 (USB2E7196)
Spectra Averaged: 20 (USB2E7196)
Boxcar Smoothing: 10 (USB2E7196)
Correct for Electrical Dark: No (USB2E7196)
Strobe/Lamp Enabled: No (USB2E7196)
Correct for Detector Non-linearity: No (USB2E7196)
Correct for Stray Light: No (USB2E7196)
Number of Pixels in Processed Spectrum: 2048
>>>>>Begin Processed Spectral Data<<<<<
339.09	0.00
339.48	198.10
339.86	199.20
340.24	201.55
340.63	203.60
341.01	206.80
341.39	205.70
341.78	205.95
342.16	207.75
342.54	208.60
342.93	198.05
343.31	208.05
343.69	208.61
344.07	209.13
344.46	209.59
344.84	210.02
345.22	210.23
345.60	210.45
345.99	210.60
346.37	210.87
346.75	210.94
347.13	210.95
347.52	211.01
347.90	211.04
348.28	211.04
348.66	211.18
349.05	211.16
349.43	211.33
349.81	211.33
350.19	211.30
350.57	211.28
350.96	211.35
351.34	211.44
351.72	211.54
352.10	211.62
352.48	211.70
352.87	211.64
353.25	211.70
353.63	211.79
354.01	211.93
354.39	211.91
354.77	212.06
355.15	212.17
355.54	212.18
355.92	212.21
356.30	212.23
356.68	212.37
357.06	212.47
357.44	212.46
357.82	212.51
358.20	212.59
358.58	212.68
358.97	212.72
359.35	212.81
359.73	212.87
360.11	212.95
360.49	212.90
360.87	212.95
361.25	213.07
361.63	213.15
362.01	213.20
362.39	213.20
362.77	213.22
363.15	213.30
363.53	213.37
363.91	213.42
364.29	213.49
364.67	213.29
365.05	213.30
365.43	213.36
365.81	213.42
366.19	213.52
366.57	213.60
366.95	213.55
367.33	213.47
367.71	213.51
368.09	213.55
368.47	213.67
368.85	213.65
369.23	213.64
369.61	213.59
369.99	213.66
370.37	213.73
370.75	213.82
371.13	213.78
371.51	213.78
371.89	213.76
372.27	213.77
372.65	213.75
373.03	213.74
373.41	213.63
373.78	213.58
374.16	213.37
374.54	213.23
374.92	213.20
375.30	213.23
375.68	213.13
376.06	213.06
376.44	213.00
376.82	212.98
377.19	212.93
377.57	212.88
377.95	212.78
378.33	212.68
378.71	212.51
379.09	212.48
379.47	212.43
379.84	212.37
380.22	212.29
380.60	212.28
380.98	212.27
381.36	212.21
381.73	212.14
382.11	212.20
382.49	212.17
382.87	212.19
383.25	212.14
383.62	212.27
384.00	212.21
384.38	212.19
384.76	212.21
385.13	212.19
385.51	212.12
385.89	212.12
386.27	212.09
386.64	212.06
387.02	212.00
387.40	211.98
387.78	211.95
388.15	211.93
388.53	211.94
388.91	211.80
389.29	211.84
389.66	211.83
390.04	211.79
390.42	211.87
390.79	211.82
391.17	211.78
391.55	211.58
391.92	211.57
392.30	211.51
392.68	211.49
393.05	211.51
393.43	211.55
393.81	211.48
394.18	211.50
394.56	211.47
394.94	211.46
395.31	211.36
395.69	211.40
396.06	211.43
396.44	211.45
396.82	211.49
397.19	211.58
397.57	211.59
397.95	211.57
398.32	211.52
398.70	211.61
399.07	211.67
399.45	211.76
399.82	211.79
400.20	211.82
400.58	211.87
400.95	211.85
401.33	211.93
401.70	212.15
402.08	212.15
402.45	212.23
402.83	212.37
403.20	212.48
403.58	212.54
403.95	212.65
404.33	212.74
404.71	212.82
405.08	213.00
405.46	213.14
405.83	213.28
406.21	213.35
406.58	213.45
406.96	213.56
407.33	213.72
407.70	213.90
408.08	214.20
408.45	214.38
408.83	214.64
409.20	214.86
409.58	214.96
409.95	215.30
410.33	215.58
410.70	215.83
411.08	216.25
411.45	216.62
411.82	216.98
412.20	217.44
412.57	218.04
412.95	218.27
413.32	218.81
413.69	219.35
414.07	220.01
414.44	220.62
414.82	221.32
415.19	222.05
415.56	222.81
415.94	223.52
416.31	224.41
416.68	225.24
417.06	226.23
417.43	227.28
417.81	228.37
418.18	229.53
418.55	230.75
418.93	232.03
419.30	233.39
419.67	234.81
420.04	236.18
420.42	237.69
420.79	239.57
421.16	241.27
421.54	243.20
421.91	245.03
422.28	247.08
422.66	249.18
423.03	251.20
423.40	253.36
423.77	255.62
424.15	257.89
424.52	260.34
424.89	262.95
425.26	265.42
425.64	267.72
426.01	270.35
426.38	273.14
426.75	275.92
427.13	278.72
427.50	281.72
427.87	284.85
428.24	287.91
428.61	290.91
428.99	294.24
429.36	297.72
429.73	301.21
430.10	304.58
430.47	308.22
430.85	312.01
431.22	315.83
431.59	320.03
431.96	324.05
432.33	328.44
432.70	332.61
433.08	337.57
433.45	342.30
433.82	346.97
434.19	352.05
434.56	357.01
434.93	361.88
435.30	366.60
435.68	371.90
436.05	377.17
436.42	382.22
436.79	386.95
437.16	392.01
437.53	397.51
437.90	402.86
438.27	407.94
438.64	413.22
439.01	418.24
439.38	422.55
439.75	426.86
440.13	431.82
440.50	436.36
440.87	440.01
441.24	443.86
441.61	448.05
441.98	451.14
442.35	454.76
442.72	458.44
443.09	462.04
443.46	464.08
443.83	465.50
444.20	466.81
444.57	468.58
444.94	469.47
445.31	470.22
445.68	470.91
446.05	471.05
446.42	470.48
446.79	469.75
447.16	469.05
447.53	468.41
447.90	466.18
448.27	464.09
448.64	461.18
449.01	459.09
449.37	455.42
449.74	451.86
450.11	447.84
450.48	443.22
450.85	438.50
451.22	434.49
451.59	430.63
451.96	427.01
452.33	422.14
452.70	417.68
453.07	412.41
453.43	407.15
453.80	402.18
454.17	397.33
454.54	392.85
454.91	387.85
455.28	383.08
455.65	378.62
456.02	374.22
456.38	370.51
456.75	365.81
457.12	361.92
457.49	358.05
457.86	354.18
458.23	350.95
458.59	347.53
458.96	344.04
459.33	340.89
459.70	337.65
460.07	335.16
460.43	332.29
460.80	329.58
461.17	327.17
461.54	324.74
461.91	322.28
462.27	319.71
462.64	317.67
463.01	315.39
463.38	313.24
463.74	311.07
464.11	309.12
464.48	307.53
464.85	305.75
465.21	304.40
465.58	302.99
465.95	301.27
466.32	299.85
466.68	298.40
467.05	296.95
467.42	295.55
467.78	294.03
468.15	292.60
468.52	291.55
468.88	290.22
469.25	289.01
469.62	288.21
469.98	287.26
470.35	286.39
470.72	285.46
471.08	284.43
471.45	283.59
471.82	282.88
472.18	281.91
472.55	281.36
472.92	280.65
473.28	279.94
473.65	279.30
474.02	278.68
474.38	278.32
474.75	277.93
475.11	277.50
475.48	277.23
475.85	277.07
476.21	276.87
476.58	276.79
476.94	276.79
477.31	276.61
477.67	276.59
478.04	276.60
478.41	276.75
478.77	277.15
479.14	277.41
479.50	277.55
479.87	277.94
480.23	278.22
480.60	278.66
480.96	279.08
481.33	279.75
481.69	280.43
482.06	281.06
482.42	281.75
482.79	282.51
483.15	283.42
483.52	284.32
483.88	285.26
484.25	286.18
484.61	287.23
484.98	288.41
485.34	289.73
485.71	291.06
486.07	292.47
486.44	293.78
486.80	295.30
487.17	296.93
487.53	298.68
487.90	300.54
488.26	302.53
488.62	304.65
488.99	306.75
489.35	308.82
489.72	311.14
490.08	313.57
490.44	315.96
490.81	318.58
491.17	321.44
491.54	324.39
491.90	327.42
492.26	330.64
492.63	333.89
492.99	337.35
493.36	341.01
493.72	344.84
494.08	348.83
494.45	353.12
494.81	357.72
495.17	362.35
495.54	367.21
495.90	372.21
496.26	377.30
496.63	382.83
496.99	388.65
497.35	394.47
497.72	400.70
498.08	407.31
498.44	414.15
498.80	421.21
499.17	428.58
499.53	436.28
499.89	444.21
500.26	452.38
500.62	460.62
500.98	469.53
501.34	478.63
501.71	488.04
502.07	497.57
502.43	507.47
502.79	517.75
503.16	528.49
503.52	539.45
503.88	550.73
504.24	562.19
504.60	574.00
504.97	586.41
505.33	599.12
505.69	612.50
506.05	625.80
506.41	639.35
506.78	653.10
507.14	667.42
507.50	682.11
507.86	697.29
508.22	712.78
508.59	728.26
508.95	744.15
509.31	760.52
509.67	777.55
510.03	794.73
510.39	812.17
510.75	830.07
511.12	848.04
511.48	866.65
511.84	885.26
512.20	904.10
512.56	923.47
512.92	942.99
513.28	962.52
513.64	982.24
514.00	1002.51
514.37	1022.99
514.73	1043.72
515.09	1064.74
515.45	1085.61
515.81	1106.82
516.17	1128.33
516.53	1149.84
516.89	1171.40
517.25	1192.77
517.61	1214.40
517.97	1236.12
518.33	1257.69
518.69	1279.85
519.05	1302.01
519.41	1324.50
519.77	1347.39
520.13	1369.63
520.49	1391.72
520.85	1414.49
521.21	1437.24
521.57	1460.36
521.93	1482.62
522.29	1505.56
522.65	1528.12
523.01	1550.72
523.37	1573.14
523.73	1595.73
524.09	1618.26
524.45	1640.88
524.81	1663.51
525.17	1686.29
525.53	1708.80
525.89	1731.16
526.25	1753.25
526.61	1774.54
526.97	1796.32
527.33	1817.36
527.68	1839.24
528.04	1860.85
528.40	1881.34
528.76	1902.35
529.12	1922.92
529.48	1945.06
529.84	1965.59
530.20	1986.01
530.56	2006.62
530.91	2027.31
531.27	2047.81
531.63	2067.87
531.99	2087.71
532.35	2107.04
532.71	2126.17
533.07	2145.83
533.42	2164.50
533.78	2183.55
534.14	2202.44
534.50	2219.81
534.86	2238.33
535.21	2254.81
535.57	2272.82
535.93	2290.19
536.29	2307.27
536.65	2324.15
537.00	2339.71
537.36	2355.26
537.72	2370.70
538.08	2385.87
538.44	2401.51
538.79	2416.83
539.15	2432.00
539.51	2447.02
539.87	2462.36
540.22	2476.83
540.58	2492.30
540.94	2507.14
541.29	2520.28
541.65	2533.06
542.01	2546.61
542.37	2558.51
542.72	2571.42
543.08	2582.56
543.44	2594.78
543.79	2605.55
544.15	2615.81
544.51	2626.81
544.87	2638.05
545.22	2647.55
545.58	2656.45
545.94	2663.86
546.29	2670.63
546.65	2677.43
547.01	2683.58
547.36	2689.64
547.72	2695.47
548.07	2699.12
548.43	2703.05
548.79	2707.11
549.14	2711.71
549.50	2716.43
549.86	2720.69
550.21	2724.85
550.57	2729.11
550.92	2731.68
551.28	2734.28
551.64	2737.07
551.99	2739.82
552.35	2741.55
552.70	2744.34
553.06	2747.33
553.41	2750.71
553.77	2753.46
554.13	2755.29
554.48	2757.42
554.84	2758.90
555.19	2759.62
555.55	2760.70
555.90	2761.36
556.26	2761.88
556.61	2761.97
556.97	2760.58
557.32	2760.14
557.68	2758.40
558.03	2756.98
558.39	2755.86
558.74	2755.76
559.10	2754.92
559.45	2752.93
559.81	2751.52
560.16	2749.06
560.52	2746.57
560.87	2743.65
561.23	2740.41
561.58	2738.39
561.94	2735.39
562.29	2731.80
562.64	2729.70
563.00	2727.12
563.35	2725.22
563.71	2723.59
564.06	2721.11
564.42	2719.62
564.77	2717.59
565.12	2715.78
565.48	2712.58
565.83	2709.70
566.19	2706.00
566.54	2701.82
566.89	2698.15
567.25	2694.58
567.60	2691.36
567.96	2688.29
568.31	2684.49
568.66	2680.84
569.02	2676.03
569.37	2671.14
569.72	2667.30
570.08	2662.09
570.43	2656.64
570.78	2650.76
571.14	2644.53
571.49	2638.45
571.84	2632.57
572.20	2625.40
572.55	2618.86
572.90	2611.82
573.26	2604.69
573.61	2597.76
573.96	2590.94
574.31	2582.85
574.67	2574.86
575.02	2566.06
575.37	2556.89
575.72	2547.92
576.08	2540.13
576.43	2531.54
576.78	2523.62
577.13	2515.60
577.49	2507.17
577.84	2499.13
578.19	2491.28
578.54	2483.70
578.90	2476.39
579.25	2467.05
579.60	2458.30
579.95	2449.05
580.30	2441.12
580.66	2432.90
581.01	2423.55
581.36	2414.19
581.71	2405.81
582.06	2396.90
582.42	2388.65
582.77	2379.76
583.12	2370.87
583.47	2361.74
583.82	2353.52
584.17	2344.03
584.53	2334.75
584.88	2325.96
585.23	2316.72
585.58	2307.18
585.93	2297.14
586.28	2287.73
586.63	2279.00
586.98	2269.96
587.34	2261.32
587.69	2251.96
588.04	2242.90
588.39	2234.90
588.74	2226.01
589.09	2217.00
589.44	2207.82
589.79	2199.23
590.14	2191.15
590.49	2182.98
590.84	2173.92
591.19	2165.59
591.54	2156.80
591.89	2146.71
592.25	2137.24
592.60	2127.48
592.95	2118.02
593.30	2108.63
593.65	2098.76
594.00	2088.88
594.35	2080.71
594.70	2071.56
595.05	2062.84
595.40	2053.71
595.75	2043.66
596.10	2034.93
596.45	2026.55
596.80	2018.35
597.15	2010.13
597.50	2000.85
597.85	1992.00
598.19	1983.17
598.54	1974.57
598.89	1966.47
599.24	1959.87
599.59	1952.45
599.94	1945.28
600.29	1937.41
600.64	1929.33
600.99	1920.62
601.34	1913.28
601.69	1904.46
602.04	1896.04
602.39	1887.62
602.74	1879.61
603.08	1873.02
603.43	1865.63
603.78	1857.37
604.13	1849.28
604.48	1841.07
604.83	1834.19
605.18	1826.90
605.53	1819.37
605.87	1811.59
606.22	1804.31
606.57	1796.07
606.92	1787.61
607.27	1779.41
607.62	1771.75
607.96	1764.99
608.31	1759.11
608.66	1751.18
609.01	1743.39
609.36	1735.77
609.70	1728.00
610.05	1719.99
610.40	1711.43
610.75	1703.04
611.10	1695.45
611.44	1686.32
611.79	1677.15
612.14	1667.46
612.49	1657.83
612.83	1648.86
613.18	1639.00
613.53	1629.79
613.88	1620.10
614.22	1611.39
614.57	1601.98
614.92	1592.59
615.27	1583.12
615.61	1573.21
615.96	1564.24
616.31	1555.78
616.65	1547.64
617.00	1539.05
617.35	1530.58
617.70	1521.76
618.04	1512.87
618.39	1503.47
618.74	1494.99
619.08	1486.33
619.43	1478.07
619.78	1470.42
620.12	1462.55
620.47	1454.71
620.82	1445.98
621.16	1437.47
621.51	1428.97
621.85	1421.10
622.20	1412.94
622.55	1404.15
622.89	1395.75
623.24	1387.55
623.59	1378.89
623.93	1370.41
624.28	1362.16
624.62	1353.89
624.97	1345.76
625.32	1337.80
625.66	1330.06
626.01	1322.56
626.35	1315.18
626.70	1307.35
627.04	1299.59
627.39	1291.72
627.73	1284.08
628.08	1277.08
628.43	1269.67
628.77	1262.25
629.12	1254.74
629.46	1247.60
629.81	1240.41
630.15	1233.06
630.50	1225.62
630.84	1218.20
631.19	1210.89
631.53	1203.85
631.88	1196.11
632.22	1188.45
632.57	1181.38
632.91	1174.04
633.26	1166.72
633.60	1159.60
633.95	1152.89
634.29	1145.48
634.64	1138.80
634.98	1131.80
635.32	1124.49
635.67	1117.98
636.01	1111.10
636.36	1104.09
636.70	1097.65
637.05	1091.06
637.39	1084.41
637.73	1078.25
638.08	1072.34
638.42	1066.21
638.77	1059.82
639.11	1053.70
639.45	1047.60
639.80	1040.78
640.14	1034.15
640.49	1027.72
640.83	1021.39
641.17	1014.92
641.52	1008.76
641.86	1002.04
642.20	995.64
642.55	989.08
642.89	982.39
643.23	975.99
643.58	970.02
643.92	963.24
644.26	956.96
644.61	951.10
644.95	944.69
645.29	938.35
645.64	931.66
645.98	925.33
646.32	919.29
646.66	913.11
647.01	907.20
647.35	901.51
647.69	895.25
648.04	889.18
648.38	882.88
648.72	876.78
649.06	870.86
649.41	864.78
649.75	858.94
650.09	853.20
650.43	847.19
650.78	840.98
651.12	835.05
651.46	829.33
651.80	823.36
652.14	817.53
652.49	811.57
652.83	805.93
653.17	799.82
653.51	793.96
653.85	788.28
654.20	782.43
654.54	776.47
654.88	771.10
655.22	765.13
655.56	759.35
655.90	753.43
656.25	747.56
656.59	742.01
656.93	736.77
657.27	731.47
657.61	726.02
657.95	720.80
658.29	715.54
658.64	710.24
658.98	704.85
659.32	699.39
659.66	694.13
660.00	688.60
660.34	683.40
660.68	678.29
661.02	673.08
661.36	668.21
661.70	663.30
662.05	658.38
662.39	654.06
662.73	649.70
663.07	645.48
663.41	641.09
663.75	636.58
664.09	631.87
664.43	627.11
664.77	622.77
665.11	618.20
665.45	613.76
665.79	609.43
666.13	604.93
666.47	600.75
666.81	596.73
667.15	592.77
667.49	589.05
667.83	584.84
668.17	580.87
668.51	577.18
668.85	573.47
669.19	569.54
669.53	565.51
669.87	561.47
670.21	557.50
670.55	553.45
670.89	549.90
671.23	546.53
671.57	542.92
671.91	539.30
672.25	535.83
672.58	532.18
672.92	528.60
673.26	525.35
673.60	521.99
673.94	518.52
674.28	515.17
674.62	511.80
674.96	508.70
675.30	505.58
675.64	502.17
675.97	498.86
676.31	496.00
676.65	493.04
676.99	490.41
677.33	487.41
677.67	484.75
678.01	481.59
678.34	478.49
678.68	475.60
679.02	472.57
679.36	469.61
679.70	466.94
680.04	463.98
680.37	461.11
680.71	458.34
681.05	455.70
681.39	452.95
681.73	450.21
682.06	447.63
682.40	444.98
682.74	442.48
683.08	440.09
683.42	437.36
683.75	434.80
684.09	432.08
684.43	429.64
684.77	426.96
685.10	424.41
685.44	421.93
685.78	419.45
686.12	417.15
686.45	414.84
686.79	412.49
687.13	410.46
687.46	408.22
687.80	406.04
688.14	403.79
688.48	401.61
688.81	399.45
689.15	397.23
689.49	395.00
689.82	392.77
690.16	390.42
690.50	388.22
690.83	385.89
691.17	383.52
691.51	381.27
691.84	379.21
692.18	377.25
692.52	375.14
692.85	373.23
693.19	371.27
693.52	369.33
693.86	367.33
694.20	365.38
694.53	363.46
694.87	361.38
695.21	359.28
695.54	357.30
695.88	355.33
696.21	353.40
696.55	351.74
696.88	349.90
697.22	348.09
697.56	346.49
697.89	344.93
698.23	343.40
698.56	341.79
698.90	340.23
699.23	338.56
699.57	337.02
699.90	335.35
700.24	333.72
700.58	332.07
700.91	330.55
701.25	329.04
701.58	327.65
701.92	326.11
702.25	324.71
702.59	323.40
702.92	322.06
703.26	320.65
703.59	319.18
703.93	318.03
704.26	316.67
704.60	315.30
704.93	314.02
705.26	312.72
705.60	311.50
705.93	310.07
706.27	308.92
706.60	307.77
706.94	306.76
707.27	305.61
707.61	304.38
707.94	303.19
708.27	301.88
708.61	300.72
708.94	299.67
709.28	298.59
709.61	297.35
709.94	296.27
710.28	295.25
710.61	294.22
710.95	293.09
711.28	292.16
711.61	291.10
711.95	290.04
712.28	289.04
712.61	288.01
712.95	287.14
713.28	286.19
713.61	285.15
713.95	284.14
714.28	283.21
714.61	282.31
714.95	281.51
715.28	280.70
715.61	279.69
715.95	278.86
716.28	277.89
716.61	277.09
716.95	276.20
717.28	275.37
717.61	274.62
717.94	273.78
718.28	272.95
718.61	272.19
718.94	271.40
719.27	270.66
719.61	269.94
719.94	269.21
720.27	268.41
720.60	267.73
720.94	267.04
721.27	266.39
721.60	265.81
721.93	265.19
722.27	264.55
722.60	263.99
722.93	263.31
723.26	262.85
723.59	262.28
723.93	261.81
724.26	261.15
724.59	260.54
724.92	260.06
725.25	259.53
725.59	258.95
725.92	258.49
726.25	257.90
726.58	257.48
726.91	256.97
727.24	256.47
727.57	255.94
727.91	255.34
728.24	254.81
728.57	254.32
728.90	253.83
729.23	253.32
729.56	252.90
729.89	252.48
730.22	251.89
730.55	251.33
730.89	250.78
731.22	250.33
731.55	249.78
731.88	249.27
732.21	248.77
732.54	248.36
732.87	247.94
733.20	247.55
733.53	247.03
733.86	246.64
734.19	246.26
734.52	245.94
734.85	245.73
735.18	245.36
735.51	245.03
735.84	244.56
736.17	244.21
736.50	243.81
736.83	243.68
737.16	243.40
737.49	243.11
737.82	242.76
738.15	242.42
738.48	242.06
738.81	241.66
739.14	241.32
739.47	240.94
739.80	240.55
740.13	240.22
740.46	239.82
740.79	239.41
741.12	239.10
741.45	238.73
741.78	238.33
742.11	238.03
742.44	237.63
742.77	237.40
743.10	237.03
743.43	236.67
743.75	236.17
744.08	236.00
744.41	235.70
744.74	235.42
745.07	235.15
745.40	234.91
745.73	234.77
746.06	234.40
746.39	234.08
746.71	233.83
747.04	233.61
747.37	233.36
747.70	233.08
748.03	232.79
748.36	232.50
748.68	232.18
749.01	231.93
749.34	231.73
749.67	231.46
750.00	231.28
750.33	231.15
750.65	230.88
750.98	230.47
751.31	230.17
751.64	229.93
751.97	229.76
752.29	229.63
752.62	229.34
752.95	229.14
753.28	228.99
753.60	228.75
753.93	228.53
754.26	228.37
754.59	228.11
754.91	227.86
755.24	227.69
755.57	227.42
755.90	227.19
756.22	226.98
756.55	226.70
756.88	226.49
757.20	226.12
757.53	225.91
757.86	225.69
758.19	225.55
758.51	225.37
758.84	225.05
759.17	224.77
759.49	224.66
759.82	224.60
760.15	224.40
760.47	224.22
760.80	224.01
761.13	223.90
761.45	223.81
761.78	223.70
762.11	223.55
762.43	223.46
762.76	223.25
763.08	223.12
763.41	223.04
763.74	222.90
764.06	222.79
764.39	222.66
764.71	222.51
765.04	222.33
765.37	222.13
765.69	222.02
766.02	221.84
766.34	221.63
766.67	221.44
767.00	221.24
767.32	221.23
767.65	221.10
767.97	220.91
768.30	220.82
768.62	220.69
768.95	220.56
769.27	220.43
769.60	220.33
769.92	220.15
770.25	220.05
770.57	219.87
770.90	219.79
771.22	219.65
771.55	219.61
771.87	219.52
772.20	219.44
772.52	219.52
772.85	219.66
773.17	219.50
773.50	219.39
773.82	219.30
774.15	219.05
774.47	218.94
774.80	218.86
775.12	218.73
775.45	218.65
775.77	218.45
776.09	218.40
776.42	218.35
776.74	218.33
777.07	218.22
777.39	218.15
777.72	218.02
778.04	217.99
778.36	217.80
778.69	217.71
779.01	217.67
779.33	217.45
779.66	217.17
779.98	217.06
780.31	217.00
780.63	217.06
780.95	217.03
781.28	216.91
781.60	216.77
781.92	216.66
782.25	216.60
782.57	216.64
782.89	216.58
783.22	216.53
783.54	216.43
783.86	216.35
784.19	216.26
784.51	216.31
784.83	216.20
785.16	216.20
785.48	216.18
785.80	216.07
786.12	216.09
786.45	216.07
