SpectraSuite Data File
++++++++++++++++++++++++++++++++++++
Date: Mon Feb 25 17:32:35 EST 2013
User: group
Dark Spectrum Present: No
Reference Spectrum Present: No
Number of Sampled Component Spectra: 1
Spectrometers: USB2E7196
Integration Time (usec): 52000 (USB2E7196)
Spectra Averaged: 20 (USB2E7196)
Boxcar Smoothing: 10 (USB2E7196)
Correct for Electrical Dark: No (USB2E7196)
Strobe/Lamp Enabled: No (USB2E7196)
Correct for Detector Non-linearity: No (USB2E7196)
Correct for Stray Light: No (USB2E7196)
Number of Pixels in Processed Spectrum: 2048
>>>>>Begin Processed Spectral Data<<<<<
339.09	0.00
339.48	200.75
339.86	199.25
340.24	201.80
340.63	201.70
341.01	206.80
341.39	207.55
341.78	207.80
342.16	209.30
342.54	209.35
342.93	198.26
343.31	208.33
343.69	208.80
344.07	209.33
344.46	209.77
344.84	210.24
345.22	210.48
345.60	210.72
345.99	210.85
346.37	211.00
346.75	211.09
347.13	211.19
347.52	211.29
347.90	211.34
348.28	211.39
348.66	211.47
349.05	211.45
349.43	211.52
349.81	211.54
350.19	211.58
350.57	211.63
350.96	211.77
351.34	211.85
351.72	211.91
352.10	211.99
352.48	212.08
352.87	212.17
353.25	212.28
353.63	212.31
354.01	212.38
354.39	212.48
354.77	212.52
355.15	212.64
355.54	212.70
355.92	212.70
356.30	212.83
356.68	212.98
357.06	213.10
357.44	213.12
357.82	213.24
358.20	213.39
358.58	213.45
358.97	213.46
359.35	213.54
359.73	213.65
360.11	213.68
360.49	213.72
360.87	213.74
361.25	213.73
361.63	213.87
362.01	213.98
362.39	213.95
362.77	214.02
363.15	214.03
363.53	214.05
363.91	214.07
364.29	214.04
364.67	213.92
365.05	213.91
365.43	213.97
365.81	213.97
366.19	213.97
366.57	214.08
366.95	214.09
367.33	213.99
367.71	213.96
368.09	214.00
368.47	213.95
368.85	213.91
369.23	213.95
369.61	213.83
369.99	213.80
370.37	213.79
370.75	213.84
371.13	213.81
371.51	213.73
371.89	213.76
372.27	213.72
372.65	213.76
373.03	213.76
373.41	213.69
373.78	213.68
374.16	213.57
374.54	213.44
374.92	213.35
375.30	213.33
375.68	213.24
376.06	213.24
376.44	213.18
376.82	213.19
377.19	213.11
377.57	213.04
377.95	212.99
378.33	212.95
378.71	212.83
379.09	212.78
379.47	212.80
379.84	212.70
380.22	212.74
380.60	212.65
380.98	212.61
381.36	212.59
381.73	212.47
382.11	212.46
382.49	212.42
382.87	212.32
383.25	212.25
383.62	212.46
384.00	212.29
384.38	212.33
384.76	212.26
385.13	212.30
385.51	212.28
385.89	212.23
386.27	212.17
386.64	212.13
387.02	212.10
387.40	212.06
387.78	212.06
388.15	211.94
388.53	211.89
388.91	211.84
389.29	211.79
389.66	211.82
390.04	211.68
390.42	211.74
390.79	211.79
391.17	211.82
391.55	211.62
391.92	211.74
392.30	211.74
392.68	211.69
393.05	211.67
393.43	211.65
393.81	211.71
394.18	211.67
394.56	211.70
394.94	211.71
395.31	211.65
395.69	211.62
396.06	211.72
396.44	211.80
396.82	211.80
397.19	211.92
397.57	211.89
397.95	212.08
398.32	211.98
398.70	212.01
399.07	212.03
399.45	212.04
399.82	212.03
400.20	212.03
400.58	212.17
400.95	212.15
401.33	212.27
401.70	212.39
402.08	212.48
402.45	212.54
402.83	212.65
403.20	212.73
403.58	212.76
403.95	212.83
404.33	212.90
404.71	212.99
405.08	213.08
405.46	213.19
405.83	213.27
406.21	213.43
406.58	213.62
406.96	213.80
407.33	213.95
407.70	214.12
408.08	214.43
408.45	214.58
408.83	214.81
409.20	214.98
409.58	215.14
409.95	215.43
410.33	215.76
410.70	215.93
411.08	216.34
411.45	216.80
411.82	217.18
412.20	217.70
412.57	218.28
412.95	218.62
413.32	219.15
413.69	219.62
414.07	220.20
414.44	220.72
414.82	221.37
415.19	222.10
415.56	222.90
415.94	223.58
416.31	224.49
416.68	225.39
417.06	226.37
417.43	227.32
417.81	228.34
418.18	229.45
418.55	230.69
418.93	231.90
419.30	233.18
419.67	234.58
420.04	235.89
420.42	237.34
420.79	239.20
421.16	240.92
421.54	242.76
421.91	244.57
422.28	246.51
422.66	248.51
423.03	250.46
423.40	252.52
423.77	254.67
424.15	256.90
424.52	259.17
424.89	261.67
425.26	264.07
425.64	266.38
426.01	268.90
426.38	271.66
426.75	274.35
427.13	277.25
427.50	280.18
427.87	283.25
428.24	286.27
428.61	289.11
428.99	292.35
429.36	295.81
429.73	299.25
430.10	302.69
430.47	306.19
430.85	309.92
431.22	313.83
431.59	318.06
431.96	321.91
432.33	326.23
432.70	330.49
433.08	335.45
433.45	340.17
433.82	344.77
434.19	349.76
434.56	354.71
434.93	359.40
435.30	364.13
435.68	369.45
436.05	374.67
436.42	379.77
436.79	384.50
437.16	389.61
437.53	394.95
437.90	400.20
438.27	405.36
438.64	410.65
439.01	415.53
439.38	419.86
439.75	424.18
440.13	429.05
440.50	433.55
440.87	437.16
441.24	440.89
441.61	445.03
441.98	448.09
442.35	451.77
442.72	455.42
443.09	458.87
443.46	460.76
443.83	462.05
444.20	463.27
444.57	464.98
444.94	465.69
445.31	466.64
445.68	467.44
446.05	467.66
446.42	467.08
446.79	466.23
447.16	465.38
447.53	464.76
447.90	462.57
448.27	460.46
448.64	457.65
449.01	455.62
449.37	452.04
449.74	448.62
450.11	444.46
450.48	439.96
450.85	435.42
451.22	431.57
451.59	427.84
451.96	424.25
452.33	419.49
452.70	415.13
453.07	409.92
453.43	404.71
453.80	399.79
454.17	395.14
454.54	390.72
454.91	385.99
455.28	381.15
455.65	376.77
456.02	372.61
456.38	368.95
456.75	364.33
457.12	360.55
457.49	356.67
457.86	352.90
458.23	349.73
458.59	346.21
458.96	342.71
459.33	339.68
459.70	336.55
460.07	334.04
460.43	331.31
460.80	328.63
461.17	326.23
461.54	323.63
461.91	321.19
462.27	318.71
462.64	316.62
463.01	314.45
463.38	312.41
463.74	310.05
464.11	308.16
464.48	306.50
464.85	304.72
465.21	303.43
465.58	302.12
465.95	300.35
466.32	298.99
466.68	297.61
467.05	296.18
467.42	294.79
467.78	293.33
468.15	291.95
468.52	290.95
468.88	289.78
469.25	288.73
469.62	287.84
469.98	286.97
470.35	286.05
470.72	285.22
471.08	284.17
471.45	283.46
471.82	282.55
472.18	281.79
472.55	281.26
472.92	280.48
473.28	279.83
473.65	279.31
474.02	278.74
474.38	278.30
474.75	277.99
475.11	277.58
475.48	277.33
475.85	277.07
476.21	276.90
476.58	276.70
476.94	276.77
477.31	276.67
477.67	276.60
478.04	276.71
478.41	276.90
478.77	277.29
479.14	277.46
479.50	277.86
479.87	278.19
480.23	278.54
480.60	279.01
480.96	279.44
481.33	280.05
481.69	280.66
482.06	281.23
482.42	281.79
482.79	282.54
483.15	283.50
483.52	284.44
483.88	285.29
484.25	286.21
484.61	287.14
484.98	288.28
485.34	289.63
485.71	290.90
486.07	292.28
486.44	293.58
486.80	295.12
487.17	296.68
487.53	298.35
487.90	300.18
488.26	302.16
488.62	304.17
488.99	306.13
489.35	308.25
489.72	310.65
490.08	313.02
490.44	315.50
490.81	318.03
491.17	320.70
491.54	323.59
491.90	326.69
492.26	330.03
492.63	333.35
492.99	336.76
493.36	340.45
493.72	344.16
494.08	348.20
494.45	352.49
494.81	356.96
495.17	361.59
495.54	366.39
495.90	371.39
496.26	376.59
496.63	382.16
496.99	388.01
497.35	394.05
497.72	400.43
498.08	406.96
498.44	413.68
498.80	420.91
499.17	428.44
499.53	436.11
499.89	443.87
500.26	451.95
500.62	460.18
500.98	468.92
501.34	478.04
501.71	487.50
502.07	496.96
502.43	507.03
502.79	517.30
503.16	528.00
503.52	538.77
503.88	550.07
504.24	561.57
504.60	573.38
504.97	585.52
505.33	598.01
505.69	611.18
506.05	624.59
506.41	638.21
506.78	651.88
507.14	665.94
507.50	680.57
507.86	695.60
508.22	711.14
508.59	726.72
508.95	742.80
509.31	759.12
509.67	775.72
510.03	792.28
510.39	809.79
510.75	827.62
511.12	845.94
511.48	864.36
511.84	882.98
512.20	901.47
512.56	920.82
512.92	940.16
513.28	959.48
513.64	979.27
514.00	999.22
514.37	1019.65
514.73	1040.45
515.09	1061.16
515.45	1081.86
515.81	1102.64
516.17	1123.86
516.53	1145.12
516.89	1166.65
517.25	1188.27
517.61	1210.27
517.97	1231.76
518.33	1253.17
518.69	1274.63
519.05	1296.51
519.41	1318.87
519.77	1341.50
520.13	1363.44
520.49	1385.52
520.85	1408.28
521.21	1430.50
521.57	1453.25
521.93	1475.09
522.29	1498.02
522.65	1520.68
523.01	1543.13
523.37	1565.49
523.73	1587.84
524.09	1610.23
524.45	1632.24
524.81	1654.57
525.17	1676.71
525.53	1698.93
525.89	1721.09
526.25	1742.92
526.61	1764.27
526.97	1785.69
527.33	1806.92
527.68	1828.30
528.04	1849.62
528.40	1869.73
528.76	1890.71
529.12	1911.21
529.48	1933.04
529.84	1953.22
530.20	1973.52
530.56	1993.65
530.91	2014.34
531.27	2034.55
531.63	2054.48
531.99	2074.32
532.35	2093.67
532.71	2113.07
533.07	2132.42
533.42	2150.91
533.78	2169.94
534.14	2188.34
534.50	2205.53
534.86	2223.40
535.21	2239.99
535.57	2257.50
535.93	2275.08
536.29	2291.76
536.65	2308.35
537.00	2323.60
537.36	2338.55
537.72	2353.58
538.08	2369.10
538.44	2384.45
538.79	2399.79
539.15	2414.50
539.51	2429.04
539.87	2444.08
540.22	2458.08
540.58	2472.92
540.94	2487.40
541.29	2500.44
541.65	2512.59
542.01	2525.61
542.37	2537.30
542.72	2549.66
543.08	2560.66
543.44	2572.36
543.79	2582.49
544.15	2592.82
544.51	2603.78
544.87	2615.07
545.22	2624.39
545.58	2632.68
545.94	2639.80
546.29	2646.00
546.65	2652.10
547.01	2658.30
547.36	2664.07
547.72	2669.66
548.07	2673.38
548.43	2677.36
548.79	2681.11
549.14	2685.91
549.50	2690.41
549.86	2694.63
550.21	2698.54
550.57	2702.57
550.92	2705.25
551.28	2707.97
551.64	2710.30
551.99	2712.75
552.35	2714.09
552.70	2716.53
553.06	2719.05
553.41	2721.96
553.77	2724.83
554.13	2727.18
554.48	2728.85
554.84	2729.79
555.19	2730.33
555.55	2730.87
555.90	2731.24
556.26	2731.60
556.61	2731.29
556.97	2729.99
557.32	2729.47
557.68	2727.73
558.03	2726.27
558.39	2724.55
558.74	2724.15
559.10	2722.85
559.45	2720.61
559.81	2719.33
560.16	2716.60
560.52	2714.37
560.87	2711.23
561.23	2707.80
561.58	2705.41
561.94	2702.54
562.29	2699.21
562.64	2696.95
563.00	2694.61
563.35	2692.42
563.71	2690.75
564.06	2688.83
564.42	2686.90
564.77	2684.63
565.12	2683.19
565.48	2680.14
565.83	2677.03
566.19	2673.94
566.54	2669.94
566.89	2666.09
567.25	2662.33
567.60	2659.47
567.96	2655.94
568.31	2652.45
568.66	2648.55
569.02	2643.75
569.37	2638.57
569.72	2634.68
570.08	2629.32
570.43	2623.79
570.78	2617.64
571.14	2611.21
571.49	2604.25
571.84	2598.34
572.20	2591.41
572.55	2584.61
572.90	2577.85
573.26	2571.06
573.61	2563.59
573.96	2556.81
574.31	2549.27
574.67	2541.40
575.02	2532.62
575.37	2524.05
575.72	2515.18
576.08	2507.46
576.43	2498.76
576.78	2491.16
577.13	2482.90
577.49	2474.78
577.84	2467.18
578.19	2459.87
578.54	2452.44
578.90	2445.96
579.25	2436.83
579.60	2427.77
579.95	2418.44
580.30	2410.13
580.66	2401.96
581.01	2393.07
581.36	2383.71
581.71	2375.31
582.06	2366.82
582.42	2358.86
582.77	2349.80
583.12	2340.68
583.47	2332.25
583.82	2324.25
584.17	2314.94
584.53	2305.80
584.88	2297.25
585.23	2287.87
585.58	2277.90
585.93	2268.12
586.28	2258.76
586.63	2250.19
586.98	2241.75
587.34	2233.45
587.69	2224.16
588.04	2215.10
588.39	2206.74
588.74	2198.44
589.09	2189.83
589.44	2180.22
589.79	2171.45
590.14	2163.61
590.49	2155.35
590.84	2146.05
591.19	2137.76
591.54	2129.07
591.89	2119.06
592.25	2109.67
592.60	2100.32
592.95	2091.30
593.30	2082.10
593.65	2071.91
594.00	2062.35
594.35	2054.37
594.70	2045.29
595.05	2036.70
595.40	2027.95
595.75	2018.14
596.10	2009.50
596.45	2000.86
596.80	1993.25
597.15	1985.12
597.50	1975.94
597.85	1967.54
598.19	1959.09
598.54	1950.31
598.89	1942.74
599.24	1936.10
599.59	1928.67
599.94	1921.58
600.29	1914.17
600.64	1906.41
600.99	1898.31
601.34	1891.20
601.69	1882.27
602.04	1874.08
602.39	1866.25
602.74	1858.37
603.08	1852.49
603.43	1845.45
603.78	1837.44
604.13	1829.22
604.48	1820.95
604.83	1814.09
605.18	1807.32
605.53	1799.75
605.87	1792.49
606.22	1785.08
606.57	1777.31
606.92	1769.37
607.27	1761.49
607.62	1754.07
607.96	1746.80
608.31	1740.77
608.66	1732.95
609.01	1725.44
609.36	1717.60
609.70	1709.62
610.05	1702.05
610.40	1693.66
610.75	1685.08
611.10	1677.54
611.44	1668.63
611.79	1659.64
612.14	1650.24
612.49	1640.49
612.83	1631.78
613.18	1622.13
613.53	1612.80
613.88	1602.93
614.22	1593.93
614.57	1584.53
614.92	1574.90
615.27	1565.91
615.61	1555.96
615.96	1546.95
616.31	1538.61
616.65	1531.12
617.00	1522.73
617.35	1513.99
617.70	1504.90
618.04	1495.99
618.39	1486.51
618.74	1478.22
619.08	1469.72
619.43	1461.66
619.78	1453.78
620.12	1445.83
620.47	1437.99
620.82	1429.23
621.16	1421.20
621.51	1413.00
621.85	1404.83
622.20	1396.66
622.55	1388.16
622.89	1380.24
623.24	1372.34
623.59	1363.52
623.93	1354.81
624.28	1346.68
624.62	1338.53
624.97	1330.33
625.32	1322.65
625.66	1315.33
626.01	1307.84
626.35	1300.62
626.70	1292.78
627.04	1285.50
627.39	1277.61
627.73	1270.00
628.08	1263.29
628.43	1255.83
628.77	1248.39
629.12	1241.04
629.46	1234.49
629.81	1227.33
630.15	1219.97
630.50	1212.50
630.84	1205.37
631.19	1198.15
631.53	1191.24
631.88	1183.67
632.22	1176.41
632.57	1169.35
632.91	1162.11
633.26	1154.50
633.60	1147.58
633.95	1141.02
634.29	1133.52
634.64	1126.95
634.98	1120.14
635.32	1113.12
635.67	1106.83
636.01	1100.14
636.36	1093.38
636.70	1086.42
637.05	1079.93
637.39	1073.51
637.73	1067.27
638.08	1061.50
638.42	1055.58
638.77	1049.07
639.11	1042.87
639.45	1036.68
639.80	1030.09
640.14	1023.66
640.49	1017.72
640.83	1011.39
641.17	1004.99
641.52	998.93
641.86	992.39
642.20	985.96
642.55	979.23
642.89	972.67
643.23	966.32
643.58	960.54
643.92	954.20
644.26	947.92
644.61	941.75
644.95	935.73
645.29	929.38
645.64	922.71
645.98	916.57
646.32	910.63
646.66	904.45
647.01	898.67
647.35	892.79
647.69	886.54
648.04	880.65
648.38	874.70
648.72	868.87
649.06	862.76
649.41	856.89
649.75	851.31
650.09	845.59
650.43	839.63
650.78	833.30
651.12	827.10
651.46	821.46
651.80	815.56
652.14	809.75
652.49	803.86
652.83	798.10
653.17	792.20
653.51	786.40
653.85	780.70
654.20	774.70
654.54	768.78
654.88	763.27
655.22	757.40
655.56	751.38
655.90	745.60
656.25	740.13
656.59	734.66
656.93	729.35
657.27	724.19
657.61	718.82
657.95	713.63
658.29	708.87
658.64	703.71
658.98	698.62
659.32	693.10
659.66	687.95
660.00	682.75
660.34	677.54
660.68	672.38
661.02	667.47
661.36	662.72
661.70	658.00
662.05	653.23
662.39	648.88
662.73	644.75
663.07	640.30
663.41	635.91
663.75	631.44
664.09	626.76
664.43	622.04
664.77	617.79
665.11	613.46
665.45	609.02
665.79	604.43
666.13	600.13
666.47	595.96
666.81	591.71
667.15	587.70
667.49	583.93
667.83	580.07
668.17	576.24
668.51	572.57
668.85	568.88
669.19	565.29
669.53	561.35
669.87	557.09
670.21	553.31
670.55	549.45
670.89	546.01
671.23	542.67
671.57	539.20
671.91	535.60
672.25	532.08
672.58	528.56
672.92	525.28
673.26	522.02
673.60	518.84
673.94	515.46
674.28	512.20
674.62	508.98
674.96	505.79
675.30	502.62
675.64	499.30
675.97	496.07
676.31	492.94
676.65	490.02
676.99	487.50
677.33	484.58
677.67	481.61
678.01	478.40
678.34	475.36
678.68	472.43
679.02	469.37
679.36	466.53
679.70	463.62
680.04	460.58
680.37	457.66
680.71	454.89
681.05	452.28
681.39	449.63
681.73	446.92
682.06	444.44
682.40	441.81
682.74	439.35
683.08	436.89
683.42	434.30
683.75	431.83
684.09	429.16
684.43	426.63
684.77	424.11
685.10	421.70
685.44	419.16
685.78	416.68
686.12	414.50
686.45	412.18
686.79	410.01
687.13	408.00
687.46	405.83
687.80	403.57
688.14	401.24
688.48	399.11
688.81	396.81
689.15	394.51
689.49	392.37
689.82	390.02
690.16	387.61
690.50	385.20
690.83	382.86
691.17	380.63
691.51	378.44
691.84	376.35
692.18	374.37
692.52	372.39
692.85	370.50
693.19	368.65
693.52	366.65
693.86	364.62
694.20	362.68
694.53	360.70
694.87	358.83
695.21	356.93
695.54	355.00
695.88	353.11
696.21	351.32
696.55	349.63
696.88	347.92
697.22	346.22
697.56	344.81
697.89	343.05
698.23	341.50
698.56	339.92
698.90	338.44
699.23	336.70
699.57	335.11
699.90	333.48
700.24	331.76
700.58	330.15
700.91	328.71
701.25	327.21
701.58	325.78
701.92	324.34
702.25	322.99
702.59	321.59
702.92	320.25
703.26	318.89
703.59	317.54
703.93	316.35
704.26	315.13
704.60	313.75
704.93	312.62
705.26	311.35
705.60	310.13
705.93	308.85
706.27	307.68
706.60	306.55
706.94	305.45
707.27	304.31
707.61	303.24
707.94	302.02
708.27	300.81
708.61	299.70
708.94	298.51
709.28	297.50
709.61	296.42
709.94	295.40
710.28	294.32
710.61	293.22
710.95	292.10
711.28	291.15
711.61	290.17
711.95	289.19
712.28	288.15
712.61	287.16
712.95	286.31
713.28	285.65
713.61	284.71
713.95	283.88
714.28	282.96
714.61	282.04
714.95	281.22
715.28	280.39
715.61	279.55
715.95	278.73
716.28	277.80
716.61	276.94
716.95	276.08
717.28	275.30
717.61	274.53
717.94	273.75
718.28	272.95
718.61	272.20
718.94	271.40
719.27	270.70
719.61	270.04
719.94	269.26
720.27	268.32
720.60	267.76
720.94	266.98
721.27	266.38
721.60	265.80
721.93	265.15
722.27	264.57
722.60	263.88
722.93	263.28
723.26	262.73
723.59	262.12
723.93	261.57
724.26	260.93
724.59	260.24
724.92	259.71
725.25	259.22
725.59	258.67
725.92	258.19
726.25	257.72
726.58	257.16
726.91	256.65
727.24	256.20
727.57	255.54
727.91	254.95
728.24	254.38
728.57	253.95
728.90	253.45
729.23	252.94
729.56	252.59
729.89	252.16
730.22	251.65
730.55	251.20
730.89	250.70
731.22	250.26
731.55	249.85
731.88	249.33
732.21	248.77
732.54	248.28
732.87	247.83
733.20	247.30
733.53	246.88
733.86	246.46
734.19	245.98
734.52	245.64
734.85	245.43
735.18	245.05
735.51	244.60
735.84	244.19
736.17	243.78
736.50	243.30
736.83	243.10
737.16	242.76
737.49	242.45
737.82	242.10
738.15	241.77
738.48	241.41
738.81	241.08
739.14	240.67
739.47	240.33
739.80	239.99
740.13	239.65
740.46	239.27
740.79	238.81
741.12	238.45
741.45	238.09
741.78	237.65
742.11	237.36
742.44	237.02
742.77	236.79
743.10	236.45
743.43	236.16
743.75	235.60
744.08	235.50
744.41	235.13
744.74	234.86
745.07	234.55
745.40	234.30
745.73	234.09
746.06	233.90
746.39	233.66
746.71	233.36
747.04	233.05
747.37	232.76
747.70	232.59
748.03	232.30
748.36	232.10
748.68	231.88
749.01	231.58
749.34	231.29
749.67	231.03
750.00	230.90
750.33	230.73
750.65	230.56
750.98	230.10
751.31	229.88
751.64	229.61
751.97	229.43
752.29	229.18
752.62	228.90
752.95	228.65
753.28	228.40
753.60	228.24
753.93	228.12
754.26	227.98
754.59	227.73
754.91	227.57
755.24	227.28
755.57	227.07
755.90	226.88
756.22	226.74
756.55	226.51
756.88	226.22
757.20	225.95
757.53	225.73
757.86	225.54
758.19	225.39
758.51	225.20
758.84	225.01
759.17	224.89
759.49	224.71
759.82	224.67
760.15	224.52
760.47	224.35
760.80	224.10
761.13	223.93
761.45	223.79
761.78	223.65
762.11	223.58
762.43	223.39
762.76	223.24
763.08	223.12
763.41	223.00
763.74	222.86
764.06	222.69
764.39	222.54
764.71	222.36
765.04	222.16
765.37	221.95
765.69	221.72
766.02	221.58
766.34	221.44
766.67	221.24
767.00	221.18
767.32	221.12
767.65	221.21
767.97	221.03
768.30	220.92
768.62	220.85
768.95	220.66
769.27	220.56
769.60	220.55
769.92	220.36
770.25	220.20
770.57	220.09
770.90	220.05
771.22	219.90
771.55	219.89
771.87	219.75
772.20	219.75
772.52	219.85
772.85	219.93
773.17	219.81
773.50	219.61
773.82	219.40
774.15	219.15
774.47	218.88
774.80	218.81
775.12	218.74
775.45	218.55
775.77	218.47
776.09	218.48
776.42	218.35
776.74	218.39
777.07	218.35
777.39	218.26
777.72	218.13
778.04	218.04
778.36	217.86
778.69	217.87
779.01	217.75
779.33	217.56
779.66	217.27
779.98	217.26
780.31	217.24
780.63	217.24
780.95	217.26
781.28	217.22
781.60	217.17
781.92	217.07
782.25	217.06
782.57	216.96
782.89	216.78
783.22	216.64
783.54	216.50
783.86	216.46
784.19	216.37
784.51	216.34
784.83	216.32
785.16	216.32
785.48	216.25
785.80	216.18
786.12	216.09
786.45	216.01
