SpectraSuite Data File
++++++++++++++++++++++++++++++++++++
Date: Mon Feb 25 17:36:15 EST 2013
User: group
Dark Spectrum Present: No
Reference Spectrum Present: No
Number of Sampled Component Spectra: 1
Spectrometers: USB2E7196
Integration Time (usec): 52000 (USB2E7196)
Spectra Averaged: 20 (USB2E7196)
Boxcar Smoothing: 10 (USB2E7196)
Correct for Electrical Dark: No (USB2E7196)
Strobe/Lamp Enabled: No (USB2E7196)
Correct for Detector Non-linearity: No (USB2E7196)
Correct for Stray Light: No (USB2E7196)
Number of Pixels in Processed Spectrum: 2048
>>>>>Begin Processed Spectral Data<<<<<
339.09	0.00
339.48	197.75
339.86	199.05
340.24	202.20
340.63	203.70
341.01	206.55
341.39	205.70
341.78	207.95
342.16	209.45
342.54	209.30
342.93	198.25
343.31	208.30
343.69	208.90
344.07	209.50
344.46	209.95
344.84	210.42
345.22	210.70
345.60	211.07
345.99	211.33
346.37	211.52
346.75	211.73
347.13	211.90
347.52	212.04
347.90	212.22
348.28	212.35
348.66	212.55
349.05	212.67
349.43	212.78
349.81	212.90
350.19	213.04
350.57	213.16
350.96	213.48
351.34	213.66
351.72	213.86
352.10	214.02
352.48	214.11
352.87	214.14
353.25	214.23
353.63	214.25
354.01	214.33
354.39	214.48
354.77	214.57
355.15	214.73
355.54	214.78
355.92	214.79
356.30	214.95
356.68	215.20
357.06	215.26
357.44	215.34
357.82	215.38
358.20	215.42
358.58	215.44
358.97	215.40
359.35	215.46
359.73	215.53
360.11	215.54
360.49	215.64
360.87	215.76
361.25	215.84
361.63	216.00
362.01	216.08
362.39	216.02
362.77	216.04
363.15	216.09
363.53	216.13
363.91	216.18
364.29	216.14
364.67	215.88
365.05	215.83
365.43	215.92
365.81	215.99
366.19	216.07
366.57	216.18
366.95	216.22
367.33	216.20
367.71	216.19
368.09	216.24
368.47	216.20
368.85	216.23
369.23	216.30
369.61	216.24
369.99	216.25
370.37	216.30
370.75	216.39
371.13	216.33
371.51	216.25
371.89	216.22
372.27	216.26
372.65	216.28
373.03	216.39
373.41	216.29
373.78	216.27
374.16	216.15
374.54	216.03
374.92	215.98
375.30	215.97
375.68	215.96
376.06	215.95
376.44	215.98
376.82	215.84
377.19	215.80
377.57	215.71
377.95	215.65
378.33	215.59
378.71	215.35
379.09	215.40
379.47	215.37
379.84	215.37
380.22	215.26
380.60	215.20
380.98	215.13
381.36	215.14
381.73	215.00
382.11	215.04
382.49	214.99
382.87	214.93
383.25	214.87
383.62	214.99
384.00	214.93
384.38	214.90
384.76	214.91
385.13	214.91
385.51	214.90
385.89	214.89
386.27	214.88
386.64	214.97
387.02	214.88
387.40	214.93
387.78	214.96
388.15	215.03
388.53	215.02
388.91	214.98
389.29	214.97
389.66	215.06
390.04	215.02
390.42	215.12
390.79	215.22
391.17	215.23
391.55	215.15
391.92	215.16
392.30	215.16
392.68	215.25
393.05	215.26
393.43	215.37
393.81	215.40
394.18	215.44
394.56	215.53
394.94	215.66
395.31	215.71
395.69	215.76
396.06	215.83
396.44	215.97
396.82	216.07
397.19	216.31
397.57	216.40
397.95	216.57
398.32	216.74
398.70	216.85
399.07	217.08
399.45	217.30
399.82	217.47
400.20	217.75
400.58	217.98
400.95	218.19
401.33	218.50
401.70	218.92
402.08	219.36
402.45	219.69
402.83	220.13
403.20	220.58
403.58	221.00
403.95	221.49
404.33	222.01
404.71	222.62
405.08	223.29
405.46	223.99
405.83	224.77
406.21	225.57
406.58	226.51
406.96	227.47
407.33	228.44
407.70	229.63
408.08	230.98
408.45	232.35
408.83	233.81
409.20	235.25
409.58	236.67
409.95	238.37
410.33	240.34
410.70	242.24
411.08	244.26
411.45	246.55
411.82	249.02
412.20	251.72
412.57	254.67
412.95	257.44
413.32	260.70
413.69	264.07
414.07	267.69
414.44	271.67
414.82	275.66
415.19	280.39
415.56	285.18
415.94	290.39
416.31	296.02
416.68	301.77
417.06	308.30
417.43	314.47
417.81	321.64
418.18	328.82
418.55	336.66
418.93	345.22
419.30	353.95
419.67	363.14
420.04	372.66
420.42	382.94
420.79	394.23
421.16	405.93
421.54	417.79
421.91	430.32
422.28	443.35
422.66	457.45
423.03	470.65
423.40	484.88
423.77	500.27
424.15	516.06
424.52	532.36
424.89	549.94
425.26	567.60
425.64	584.23
426.01	602.84
426.38	622.22
426.75	641.56
427.13	662.13
427.50	683.67
427.87	706.44
428.24	729.08
428.61	751.08
428.99	774.56
429.36	801.00
429.73	826.38
430.10	851.83
430.47	877.98
430.85	906.06
431.22	934.97
431.59	965.26
431.96	994.80
432.33	1027.81
432.70	1059.70
433.08	1096.83
433.45	1132.07
433.82	1167.55
434.19	1206.53
434.56	1245.02
434.93	1282.10
435.30	1319.22
435.68	1360.36
436.05	1401.13
436.42	1442.28
436.79	1479.91
437.16	1520.11
437.53	1563.35
437.90	1606.16
438.27	1648.23
438.64	1692.09
439.01	1732.88
439.38	1770.34
439.75	1806.06
440.13	1846.28
440.50	1884.81
440.87	1916.75
441.24	1950.06
441.61	1986.25
441.98	2014.32
442.35	2046.73
442.72	2078.85
443.09	2110.13
443.46	2130.63
443.83	2145.91
444.20	2159.45
444.57	2178.00
444.94	2188.54
445.31	2199.26
445.68	2207.92
446.05	2214.84
446.42	2214.62
446.79	2213.19
447.16	2211.13
447.53	2210.44
447.90	2198.83
448.27	2187.11
448.64	2169.14
449.01	2156.57
449.37	2132.01
449.74	2108.35
450.11	2078.22
450.48	2047.06
450.85	2014.80
451.22	1986.95
451.59	1959.86
451.96	1934.30
452.33	1899.30
452.70	1867.79
453.07	1829.52
453.43	1791.95
453.80	1754.12
454.17	1717.68
454.54	1683.87
454.91	1647.00
455.28	1611.26
455.65	1577.65
456.02	1542.04
456.38	1512.97
456.75	1476.90
457.12	1446.93
457.49	1416.93
457.86	1389.21
458.23	1363.49
458.59	1335.80
458.96	1308.01
459.33	1283.50
459.70	1258.60
460.07	1238.75
460.43	1215.93
460.80	1194.07
461.17	1175.11
461.54	1155.18
461.91	1136.36
462.27	1117.43
462.64	1101.27
463.01	1083.04
463.38	1065.35
463.74	1049.80
464.11	1035.26
464.48	1022.18
464.85	1007.81
465.21	996.73
465.58	984.58
465.95	970.78
466.32	959.03
466.68	947.20
467.05	935.27
467.42	923.70
467.78	911.42
468.15	899.94
468.52	891.42
468.88	880.55
469.25	870.92
469.62	862.61
469.98	853.76
470.35	845.70
470.72	838.36
471.08	830.44
471.45	823.09
471.82	815.40
472.18	807.64
472.55	801.85
472.92	795.36
473.28	789.73
473.65	784.22
474.02	778.60
474.38	773.83
474.75	770.02
475.11	765.79
475.48	762.51
475.85	759.66
476.21	756.87
476.58	754.42
476.94	752.83
477.31	751.07
477.67	749.16
478.04	747.70
478.41	746.70
478.77	745.93
479.14	745.25
479.50	745.10
479.87	745.50
480.23	746.31
480.60	746.43
480.96	746.77
481.33	748.01
481.69	749.60
482.06	750.95
482.42	751.90
482.79	753.17
483.15	755.94
483.52	759.30
483.88	762.17
484.25	765.64
484.61	768.72
484.98	772.10
485.34	776.56
485.71	781.13
486.07	786.05
486.44	791.27
486.80	796.70
487.17	802.68
487.53	809.39
487.90	816.19
488.26	823.45
488.62	831.28
488.99	839.07
489.35	847.34
489.72	856.54
490.08	866.45
490.44	876.44
490.81	886.13
491.17	896.06
491.54	907.16
491.90	917.57
492.26	929.16
492.63	941.20
492.99	954.04
493.36	966.91
493.72	980.50
494.08	994.26
494.45	1008.97
494.81	1024.18
495.17	1039.57
495.54	1055.77
495.90	1072.70
496.26	1089.73
496.63	1107.35
496.99	1125.12
497.35	1143.26
497.72	1161.93
498.08	1180.78
498.44	1199.81
498.80	1220.21
499.17	1240.47
499.53	1261.39
499.89	1283.07
500.26	1304.40
500.62	1325.21
500.98	1347.68
501.34	1370.05
501.71	1392.84
502.07	1415.95
502.43	1439.49
502.79	1462.92
503.16	1486.32
503.52	1509.81
503.88	1533.35
504.24	1557.04
504.60	1581.34
504.97	1605.80
505.33	1630.18
505.69	1655.87
506.05	1681.45
506.41	1706.16
506.78	1731.05
507.14	1755.88
507.50	1780.84
507.86	1806.53
508.22	1832.31
508.59	1857.17
508.95	1882.56
509.31	1908.31
509.67	1933.90
510.03	1959.32
510.39	1985.28
510.75	2010.63
511.12	2035.41
511.48	2060.45
511.84	2085.63
512.20	2110.11
512.56	2135.11
512.92	2159.78
513.28	2184.30
513.64	2208.43
514.00	2232.08
514.37	2256.07
514.73	2280.54
515.09	2303.56
515.45	2326.42
515.81	2349.44
516.17	2372.69
516.53	2395.13
516.89	2416.91
517.25	2437.13
517.61	2456.98
517.97	2476.84
518.33	2496.13
518.69	2516.22
519.05	2536.00
519.41	2555.54
519.77	2575.17
520.13	2593.76
520.49	2611.72
520.85	2629.27
521.21	2646.70
521.57	2665.10
521.93	2681.67
522.29	2698.98
522.65	2716.24
523.01	2733.27
523.37	2749.13
523.73	2764.83
524.09	2779.90
524.45	2794.76
524.81	2809.83
525.17	2825.60
525.53	2840.58
525.89	2855.96
526.25	2870.89
526.61	2883.69
526.97	2896.69
527.33	2909.40
527.68	2922.66
528.04	2936.08
528.40	2948.24
528.76	2960.94
529.12	2972.20
529.48	2984.48
529.84	2994.09
530.20	3004.62
530.56	3014.98
530.91	3026.09
531.27	3036.99
531.63	3047.98
531.99	3057.82
532.35	3067.86
532.71	3077.02
533.07	3087.80
533.42	3097.04
533.78	3106.81
534.14	3116.95
534.50	3125.51
534.86	3134.79
535.21	3141.60
535.57	3149.83
535.93	3157.67
536.29	3164.21
536.65	3172.56
537.00	3179.27
537.36	3187.03
537.72	3193.83
538.08	3200.85
538.44	3207.12
538.79	3212.87
539.15	3218.56
539.51	3225.82
539.87	3233.25
540.22	3239.60
540.58	3245.10
540.94	3251.05
541.29	3255.50
541.65	3258.29
542.01	3262.63
542.37	3266.31
542.72	3271.94
543.08	3274.58
543.44	3278.62
543.79	3282.28
544.15	3283.92
544.51	3287.59
544.87	3291.10
545.22	3293.08
545.58	3294.20
545.94	3295.34
546.29	3296.43
546.65	3297.25
547.01	3297.12
547.36	3298.10
547.72	3298.98
548.07	3298.07
548.43	3297.43
548.79	3295.71
549.14	3296.58
549.50	3297.18
549.86	3297.55
550.21	3296.24
550.57	3296.65
550.92	3295.21
551.28	3292.81
551.64	3292.33
551.99	3291.20
552.35	3290.15
552.70	3289.80
553.06	3289.46
553.41	3288.69
553.77	3287.81
554.13	3286.61
554.48	3287.17
554.84	3285.78
555.19	3283.57
555.55	3283.14
555.90	3282.10
556.26	3281.63
556.61	3279.91
556.97	3276.47
557.32	3272.98
557.68	3269.88
558.03	3266.35
558.39	3263.67
558.74	3264.27
559.10	3262.74
559.45	3261.05
559.81	3259.15
560.16	3256.51
560.52	3254.58
560.87	3252.44
561.23	3248.92
561.58	3245.71
561.94	3240.61
562.29	3235.76
562.64	3232.24
563.00	3227.74
563.35	3223.12
563.71	3219.63
564.06	3217.00
564.42	3214.32
564.77	3211.54
565.12	3208.64
565.48	3205.85
565.83	3203.07
566.19	3199.57
566.54	3195.85
566.89	3190.55
567.25	3185.27
567.60	3181.54
567.96	3176.54
568.31	3171.74
568.66	3167.75
569.02	3163.94
569.37	3160.45
569.72	3156.76
570.08	3152.15
570.43	3145.91
570.78	3141.72
571.14	3136.65
571.49	3130.84
571.84	3126.17
572.20	3120.02
572.55	3115.12
572.90	3109.22
573.26	3102.61
573.61	3094.63
573.96	3086.65
574.31	3079.45
574.67	3072.80
575.02	3064.35
575.37	3056.12
575.72	3048.45
576.08	3040.98
576.43	3032.50
576.78	3023.83
577.13	3015.83
577.49	3008.60
577.84	3001.90
578.19	2993.76
578.54	2985.37
578.90	2977.18
579.25	2967.48
579.60	2958.27
579.95	2948.14
580.30	2939.00
580.66	2929.88
581.01	2920.49
581.36	2910.27
581.71	2901.55
582.06	2892.28
582.42	2884.54
582.77	2875.34
583.12	2865.97
583.47	2856.51
583.82	2847.35
584.17	2837.39
584.53	2827.82
584.88	2817.37
585.23	2807.04
585.58	2797.25
585.93	2787.25
586.28	2777.98
586.63	2769.23
586.98	2760.83
587.34	2752.27
587.69	2742.26
588.04	2732.76
588.39	2723.90
588.74	2714.60
589.09	2705.09
589.44	2694.05
589.79	2683.15
590.14	2673.74
590.49	2662.75
590.84	2652.89
591.19	2643.23
591.54	2632.83
591.89	2621.47
592.25	2611.26
592.60	2600.31
592.95	2589.48
593.30	2578.98
593.65	2568.53
594.00	2558.11
594.35	2548.50
594.70	2537.85
595.05	2528.08
595.40	2517.10
595.75	2505.72
596.10	2495.36
596.45	2484.13
596.80	2474.69
597.15	2464.30
597.50	2453.31
597.85	2443.75
598.19	2431.83
598.54	2420.26
598.89	2409.70
599.24	2399.68
599.59	2388.88
599.94	2379.53
600.29	2369.04
600.64	2358.44
600.99	2346.55
601.34	2336.24
601.69	2324.14
602.04	2312.70
602.39	2302.03
602.74	2293.04
603.08	2284.50
603.43	2276.18
603.78	2266.56
604.13	2256.37
604.48	2246.12
604.83	2236.99
605.18	2227.13
605.53	2217.88
605.87	2208.67
606.22	2199.67
606.57	2189.84
606.92	2179.06
607.27	2168.63
607.62	2158.20
607.96	2148.63
608.31	2139.57
608.66	2128.91
609.01	2118.79
609.36	2109.22
609.70	2098.47
610.05	2086.64
610.40	2074.68
610.75	2062.40
611.10	2051.50
611.44	2039.75
611.79	2028.85
612.14	2017.17
612.49	2004.90
612.83	1993.36
613.18	1981.57
613.53	1969.96
613.88	1957.52
614.22	1946.50
614.57	1934.45
614.92	1923.12
615.27	1911.69
615.61	1899.63
615.96	1887.85
616.31	1876.93
616.65	1866.14
617.00	1855.88
617.35	1845.39
617.70	1833.90
618.04	1822.83
618.39	1811.31
618.74	1800.49
619.08	1789.06
619.43	1777.73
619.78	1767.64
620.12	1757.88
620.47	1748.02
620.82	1737.34
621.16	1727.59
621.51	1717.72
621.85	1707.49
622.20	1696.69
622.55	1685.17
622.89	1675.17
623.24	1665.09
623.59	1654.37
623.93	1643.66
624.28	1632.79
624.62	1622.16
624.97	1611.96
625.32	1602.11
625.66	1592.66
626.01	1583.30
626.35	1574.64
626.70	1565.71
627.04	1556.29
627.39	1545.80
627.73	1535.84
628.08	1526.65
628.43	1517.52
628.77	1508.28
629.12	1499.32
629.46	1490.38
629.81	1481.19
630.15	1471.05
630.50	1461.62
630.84	1451.91
631.19	1442.05
631.53	1432.79
631.88	1423.47
632.22	1414.66
632.57	1406.06
632.91	1397.03
633.26	1388.13
633.60	1378.46
633.95	1369.55
634.29	1360.74
634.64	1352.48
634.98	1343.34
635.32	1334.57
635.67	1326.36
636.01	1317.79
636.36	1308.86
636.70	1300.28
637.05	1292.44
637.39	1284.85
637.73	1276.98
638.08	1269.89
638.42	1262.49
638.77	1254.84
639.11	1247.28
639.45	1239.30
639.80	1230.87
640.14	1222.91
640.49	1214.78
640.83	1206.64
641.17	1198.53
641.52	1190.80
641.86	1183.08
642.20	1175.43
642.55	1167.14
642.89	1158.19
643.23	1149.77
643.58	1142.28
643.92	1134.42
644.26	1126.34
644.61	1118.11
644.95	1110.02
645.29	1101.93
645.64	1093.70
645.98	1085.56
646.32	1077.85
646.66	1070.50
647.01	1063.37
647.35	1055.78
647.69	1048.24
648.04	1041.11
648.38	1033.56
648.72	1025.97
649.06	1018.21
649.41	1010.76
649.75	1003.19
650.09	996.35
650.43	989.61
650.78	982.42
651.12	975.39
651.46	968.83
651.80	962.50
652.14	956.02
652.49	949.02
652.83	942.18
653.17	935.03
653.51	928.20
653.85	921.39
654.20	914.66
654.54	908.10
654.88	901.33
655.22	894.45
655.56	887.12
655.90	879.98
656.25	873.03
656.59	866.65
656.93	860.40
657.27	854.15
657.61	847.58
657.95	841.31
658.29	835.17
658.64	829.00
658.98	822.76
659.32	816.49
659.66	810.56
660.00	805.05
660.34	799.98
660.68	794.14
661.02	788.03
661.36	782.14
661.70	776.42
662.05	771.07
662.39	765.80
662.73	761.13
663.07	756.41
663.41	751.75
663.75	746.65
664.09	741.73
664.43	736.38
664.77	731.20
665.11	726.13
665.45	721.37
665.79	716.41
666.13	711.54
666.47	706.78
666.81	702.20
667.15	697.26
667.49	692.45
667.83	688.01
668.17	683.98
668.51	679.59
668.85	675.01
669.19	670.67
669.53	666.10
669.87	661.28
670.21	656.72
670.55	651.95
670.89	647.61
671.23	643.41
671.57	639.30
671.91	635.27
672.25	631.25
672.58	627.02
672.92	622.79
673.26	618.83
673.60	614.88
673.94	610.94
674.28	607.41
674.62	603.74
674.96	599.79
675.30	595.90
675.64	592.36
675.97	588.96
676.31	585.52
676.65	582.34
676.99	579.33
677.33	576.12
677.67	572.89
678.01	569.42
678.34	565.88
678.68	562.47
679.02	559.15
679.36	555.73
679.70	552.36
680.04	549.06
680.37	545.87
680.71	542.59
681.05	539.49
681.39	536.29
681.73	533.09
682.06	530.13
682.40	526.95
682.74	523.66
683.08	520.34
683.42	517.02
683.75	513.80
684.09	510.58
684.43	507.27
684.77	504.14
685.10	501.01
685.44	497.81
685.78	494.77
686.12	491.70
686.45	488.72
686.79	485.96
687.13	483.37
687.46	480.64
687.80	477.75
688.14	474.75
688.48	471.95
688.81	468.92
689.15	466.20
689.49	463.44
689.82	460.56
690.16	457.75
690.50	454.99
690.83	452.10
691.17	449.30
691.51	446.63
691.84	444.10
692.18	441.73
692.52	439.53
692.85	437.08
693.19	434.72
693.52	432.23
693.86	429.65
694.20	426.96
694.53	424.32
694.87	421.75
695.21	419.25
695.54	416.77
695.88	414.50
696.21	411.95
696.55	409.64
696.88	407.64
697.22	405.63
697.56	403.64
697.89	401.77
698.23	399.93
698.56	397.95
698.90	396.04
699.23	393.85
699.57	391.79
699.90	389.72
700.24	387.64
700.58	385.69
700.91	383.71
701.25	381.86
701.58	380.04
701.92	378.46
702.25	376.86
702.59	375.04
702.92	373.32
703.26	371.65
703.59	370.06
703.93	368.31
704.26	366.57
704.60	364.72
704.93	362.92
705.26	361.10
705.60	359.38
705.93	357.78
706.27	356.31
706.60	354.78
706.94	353.35
707.27	351.79
707.61	350.15
707.94	348.61
708.27	347.02
708.61	345.54
708.94	343.99
709.28	342.41
709.61	340.84
709.94	339.25
710.28	337.68
710.61	336.10
710.95	334.50
711.28	333.11
711.61	331.71
711.95	330.30
712.28	328.87
712.61	327.59
712.95	326.21
713.28	324.99
713.61	323.63
713.95	322.29
714.28	321.03
714.61	319.98
714.95	318.78
715.28	317.62
715.61	316.21
715.95	314.93
716.28	313.72
716.61	312.58
716.95	311.36
717.28	310.24
717.61	309.05
717.94	307.97
718.28	306.81
718.61	305.72
718.94	304.65
719.27	303.60
719.61	302.66
719.94	301.63
720.27	300.45
720.60	299.44
720.94	298.49
721.27	297.63
721.60	296.58
721.93	295.76
722.27	294.95
722.60	294.18
722.93	293.30
723.26	292.42
723.59	291.62
723.93	290.86
724.26	290.07
724.59	289.30
724.92	288.45
725.25	287.73
725.59	286.98
725.92	286.25
726.25	285.50
726.58	284.64
726.91	283.84
727.24	283.07
727.57	282.19
727.91	281.31
728.24	280.60
728.57	279.88
728.90	279.10
729.23	278.33
729.56	277.69
729.89	276.93
730.22	276.26
730.55	275.44
730.89	274.69
731.22	274.10
731.55	273.41
731.88	272.72
732.21	271.94
732.54	271.30
732.87	270.65
733.20	270.02
733.53	269.40
733.86	268.85
734.19	268.21
734.52	267.80
734.85	267.48
735.18	266.91
735.51	266.48
735.84	265.93
736.17	265.29
736.50	264.59
736.83	264.28
737.16	263.82
737.49	263.35
737.82	262.85
738.15	262.23
738.48	261.62
738.81	261.15
739.14	260.64
739.47	260.11
739.80	259.54
740.13	259.13
740.46	258.59
740.79	258.02
741.12	257.57
741.45	256.95
741.78	256.33
742.11	255.77
742.44	255.13
742.77	254.60
743.10	254.16
743.43	253.75
743.75	253.05
744.08	252.70
744.41	252.22
744.74	251.77
745.07	251.20
745.40	250.76
745.73	250.36
746.06	249.86
746.39	249.33
746.71	248.87
747.04	248.38
747.37	248.00
747.70	247.59
748.03	247.19
748.36	246.89
748.68	246.46
749.01	246.07
749.34	245.70
749.67	245.34
750.00	245.01
750.33	244.73
750.65	244.42
750.98	243.86
751.31	243.42
751.64	243.10
751.97	242.91
752.29	242.70
752.62	242.25
752.95	241.94
753.28	241.68
753.60	241.31
753.93	240.98
754.26	240.55
754.59	240.15
754.91	239.74
755.24	239.40
755.57	239.05
755.90	238.72
756.22	238.38
756.55	238.03
756.88	237.64
757.20	237.20
757.53	236.85
757.86	236.55
758.19	236.28
758.51	235.97
758.84	235.61
759.17	235.34
759.49	235.09
759.82	234.89
760.15	234.63
760.47	234.35
760.80	233.95
761.13	233.73
761.45	233.45
761.78	233.20
762.11	232.89
762.43	232.57
762.76	232.24
763.08	231.94
763.41	231.67
763.74	231.37
764.06	231.08
764.39	230.92
764.71	230.71
765.04	230.45
765.37	230.19
765.69	229.86
766.02	229.59
766.34	229.37
766.67	229.11
767.00	228.89
767.32	228.75
767.65	228.70
767.97	228.54
768.30	228.39
768.62	228.26
768.95	228.06
769.27	227.96
769.60	227.90
769.92	227.78
770.25	227.68
770.57	227.50
770.90	227.33
771.22	227.08
771.55	226.83
771.87	226.70
772.20	226.44
772.52	226.37
772.85	226.40
773.17	226.24
773.50	225.99
773.82	225.78
774.15	225.57
774.47	225.35
774.80	225.14
775.12	225.01
775.45	224.82
775.77	224.69
776.09	224.55
776.42	224.30
776.74	224.17
777.07	223.95
777.39	223.80
777.72	223.61
778.04	223.57
778.36	223.43
778.69	223.34
779.01	223.38
779.33	223.26
779.66	222.90
779.98	222.80
780.31	222.74
780.63	222.77
780.95	222.64
781.28	222.54
781.60	222.38
781.92	222.22
782.25	222.12
782.57	222.05
782.89	221.95
