SpectraSuite Data File
++++++++++++++++++++++++++++++++++++
Date: Mon Feb 25 17:34:41 EST 2013
User: group
Dark Spectrum Present: No
Reference Spectrum Present: No
Number of Sampled Component Spectra: 1
Spectrometers: USB2E7196
Integration Time (usec): 52000 (USB2E7196)
Spectra Averaged: 20 (USB2E7196)
Boxcar Smoothing: 10 (USB2E7196)
Correct for Electrical Dark: No (USB2E7196)
Strobe/Lamp Enabled: No (USB2E7196)
Correct for Detector Non-linearity: No (USB2E7196)
Correct for Stray Light: No (USB2E7196)
Number of Pixels in Processed Spectrum: 2048
>>>>>Begin Processed Spectral Data<<<<<
339.09	0.00
339.48	197.85
339.86	200.20
340.24	202.40
340.63	203.05
341.01	206.95
341.39	205.50
341.78	206.50
342.16	209.20
342.54	207.95
342.93	198.22
343.31	208.15
343.69	208.73
344.07	209.21
344.46	209.62
344.84	209.98
345.22	210.15
345.60	210.41
345.99	210.62
346.37	210.77
346.75	210.90
347.13	211.02
347.52	211.07
347.90	211.26
348.28	211.34
348.66	211.46
349.05	211.41
349.43	211.51
349.81	211.51
350.19	211.58
350.57	211.63
350.96	211.64
351.34	211.83
351.72	211.97
352.10	212.07
352.48	212.17
352.87	212.28
353.25	212.38
353.63	212.46
354.01	212.54
354.39	212.59
354.77	212.73
355.15	212.88
355.54	212.97
355.92	212.96
356.30	213.05
356.68	213.19
357.06	213.23
357.44	213.25
357.82	213.35
358.20	213.37
358.58	213.41
358.97	213.49
359.35	213.62
359.73	213.70
360.11	213.71
360.49	213.75
360.87	213.80
361.25	213.90
361.63	213.97
362.01	214.08
362.39	214.09
362.77	214.08
363.15	214.08
363.53	214.16
363.91	214.13
364.29	214.15
364.67	214.05
365.05	214.15
365.43	214.15
365.81	214.21
366.19	214.24
366.57	214.29
366.95	214.29
367.33	214.27
367.71	214.24
368.09	214.33
368.47	214.31
368.85	214.25
369.23	214.19
369.61	214.16
369.99	214.15
370.37	214.15
370.75	214.28
371.13	214.21
371.51	214.09
371.89	214.07
372.27	214.08
372.65	214.04
373.03	214.01
373.41	213.93
373.78	213.85
374.16	213.80
374.54	213.67
374.92	213.60
375.30	213.47
375.68	213.44
376.06	213.40
376.44	213.31
376.82	213.34
377.19	213.35
377.57	213.29
377.95	213.17
378.33	213.13
378.71	212.90
379.09	212.84
379.47	212.85
379.84	212.86
380.22	212.70
380.60	212.61
380.98	212.49
381.36	212.46
381.73	212.43
382.11	212.33
382.49	212.35
382.87	212.34
383.25	212.33
383.62	212.45
384.00	212.36
384.38	212.34
384.76	212.33
385.13	212.34
385.51	212.33
385.89	212.32
386.27	212.28
386.64	212.34
387.02	212.31
387.40	212.22
387.78	212.15
388.15	212.18
388.53	212.10
388.91	212.14
389.29	212.05
389.66	211.98
390.04	211.94
390.42	211.90
390.79	211.83
391.17	211.81
391.55	211.65
391.92	211.54
392.30	211.59
392.68	211.55
393.05	211.51
393.43	211.46
393.81	211.42
394.18	211.37
394.56	211.36
394.94	211.42
395.31	211.45
395.69	211.53
396.06	211.54
396.44	211.65
396.82	211.65
397.19	211.87
397.57	211.89
397.95	212.00
398.32	211.98
398.70	212.07
399.07	212.10
399.45	212.10
399.82	212.23
400.20	212.29
400.58	212.34
400.95	212.34
401.33	212.43
401.70	212.59
402.08	212.70
402.45	212.75
402.83	212.85
403.20	212.90
403.58	212.94
403.95	213.10
404.33	213.15
404.71	213.29
405.08	213.39
405.46	213.52
405.83	213.70
406.21	213.83
406.58	213.96
406.96	214.11
407.33	214.36
407.70	214.55
408.08	214.85
408.45	215.09
408.83	215.37
409.20	215.52
409.58	215.70
409.95	216.01
410.33	216.27
410.70	216.50
411.08	216.91
411.45	217.27
411.82	217.59
412.20	218.06
412.57	218.53
412.95	218.89
413.32	219.40
413.69	219.85
414.07	220.54
414.44	221.12
414.82	221.85
415.19	222.49
415.56	223.23
415.94	223.88
416.31	224.74
416.68	225.58
417.06	226.66
417.43	227.70
417.81	228.78
418.18	229.99
418.55	231.34
418.93	232.53
419.30	233.79
419.67	235.15
420.04	236.60
420.42	238.12
420.79	239.92
421.16	241.69
421.54	243.61
421.91	245.43
422.28	247.35
422.66	249.34
423.03	251.40
423.40	253.58
423.77	255.85
424.15	258.09
424.52	260.44
424.89	263.01
425.26	265.37
425.64	267.70
426.01	270.35
426.38	273.00
426.75	275.85
427.13	278.75
427.50	281.78
427.87	284.89
428.24	287.92
428.61	290.82
428.99	294.04
429.36	297.52
429.73	300.95
430.10	304.50
430.47	308.10
430.85	311.77
431.22	315.56
431.59	319.75
431.96	323.67
432.33	328.08
432.70	332.41
433.08	337.37
433.45	342.04
433.82	346.59
434.19	351.73
434.56	356.71
434.93	361.45
435.30	366.10
435.68	371.27
436.05	376.51
436.42	381.67
436.79	386.38
437.16	391.48
437.53	396.80
437.90	402.07
438.27	407.21
438.64	412.63
439.01	417.60
439.38	422.01
439.75	426.28
440.13	431.25
440.50	435.75
440.87	439.58
441.24	443.50
441.61	447.73
441.98	450.87
442.35	454.48
442.72	458.31
443.09	461.88
443.46	464.08
443.83	465.48
444.20	466.70
444.57	468.45
444.94	469.10
445.31	470.00
445.68	470.82
446.05	471.03
446.42	470.29
446.79	469.52
447.16	468.65
447.53	468.06
447.90	465.79
448.27	463.68
448.64	460.60
449.01	458.43
449.37	454.76
449.74	451.18
450.11	447.14
450.48	442.46
450.85	437.92
451.22	433.98
451.59	430.28
451.96	426.58
452.33	421.82
452.70	417.52
453.07	412.25
453.43	406.89
453.80	401.92
454.17	397.14
454.54	392.61
454.91	387.70
455.28	382.99
455.65	378.55
456.02	374.14
456.38	370.51
456.75	365.84
457.12	361.92
457.49	358.00
457.86	354.15
458.23	350.99
458.59	347.49
458.96	343.91
459.33	340.64
459.70	337.50
460.07	334.94
460.43	332.08
460.80	329.46
461.17	327.10
461.54	324.68
461.91	322.30
462.27	319.92
462.64	317.81
463.01	315.52
463.38	313.39
463.74	311.17
464.11	309.27
464.48	307.63
464.85	305.89
465.21	304.62
465.58	303.10
465.95	301.34
466.32	299.85
466.68	298.39
467.05	297.10
467.42	295.69
467.78	294.25
468.15	292.87
468.52	291.83
468.88	290.44
469.25	289.23
469.62	288.33
469.98	287.29
470.35	286.47
470.72	285.55
471.08	284.63
471.45	283.80
471.82	283.00
472.18	282.07
472.55	281.47
472.92	280.65
473.28	280.07
473.65	279.50
474.02	278.92
474.38	278.52
474.75	278.10
475.11	277.72
475.48	277.49
475.85	277.31
476.21	277.01
476.58	276.85
476.94	276.80
477.31	276.73
477.67	276.83
478.04	276.85
478.41	277.05
478.77	277.26
479.14	277.44
479.50	277.73
479.87	278.13
480.23	278.46
480.60	278.80
480.96	279.24
481.33	279.95
481.69	280.66
482.06	281.23
482.42	281.84
482.79	282.64
483.15	283.57
483.52	284.52
483.88	285.53
484.25	286.62
484.61	287.63
484.98	288.67
485.34	289.82
485.71	291.16
486.07	292.52
486.44	293.91
486.80	295.50
487.17	297.09
487.53	298.91
487.90	300.80
488.26	302.92
488.62	304.97
488.99	306.92
489.35	309.04
489.72	311.42
490.08	313.90
490.44	316.40
490.81	318.95
491.17	321.66
491.54	324.59
491.90	327.66
492.26	330.84
492.63	334.18
492.99	337.59
493.36	341.16
493.72	345.04
494.08	349.13
494.45	353.32
494.81	357.83
495.17	362.36
495.54	367.18
495.90	372.08
496.26	377.40
496.63	382.97
496.99	388.74
497.35	394.77
497.72	400.95
498.08	407.37
498.44	414.10
498.80	421.23
499.17	428.62
499.53	436.22
499.89	444.23
500.26	452.46
500.62	460.76
500.98	469.80
501.34	478.87
501.71	488.25
502.07	497.81
502.43	507.73
502.79	517.96
503.16	528.66
503.52	539.52
503.88	550.60
504.24	562.02
504.60	574.01
504.97	586.25
505.33	598.84
505.69	612.13
506.05	625.69
506.41	639.25
506.78	653.05
507.14	667.28
507.50	681.98
507.86	697.02
508.22	712.70
508.59	728.16
508.95	744.20
509.31	760.39
509.67	777.40
510.03	794.42
510.39	812.10
510.75	830.04
511.12	848.23
511.48	866.65
511.84	885.40
512.20	903.96
512.56	923.43
512.92	942.81
513.28	962.25
513.64	981.84
514.00	1001.90
514.37	1022.25
514.73	1043.12
515.09	1063.97
515.45	1084.73
515.81	1105.89
516.17	1127.39
516.53	1148.77
516.89	1170.48
517.25	1192.08
517.61	1213.81
517.97	1235.34
518.33	1256.65
518.69	1278.59
519.05	1300.85
519.41	1323.22
519.77	1346.11
520.13	1368.16
520.49	1390.70
520.85	1413.68
521.21	1436.46
521.57	1459.47
521.93	1481.79
522.29	1504.50
522.65	1527.19
523.01	1550.10
523.37	1572.41
523.73	1594.64
524.09	1617.18
524.45	1639.64
524.81	1662.20
525.17	1684.89
525.53	1707.55
525.89	1730.44
526.25	1752.60
526.61	1773.93
526.97	1795.75
527.33	1817.15
527.68	1838.96
528.04	1860.24
528.40	1880.76
528.76	1901.53
529.12	1922.49
529.48	1944.29
529.84	1964.97
530.20	1985.37
530.56	2005.97
530.91	2026.80
531.27	2047.55
531.63	2067.74
531.99	2087.87
532.35	2107.20
532.71	2126.19
533.07	2145.97
533.42	2164.50
533.78	2183.60
534.14	2202.50
534.50	2219.79
534.86	2238.08
535.21	2254.84
535.57	2272.90
535.93	2290.19
536.29	2307.40
536.65	2324.10
537.00	2339.60
537.36	2355.07
537.72	2370.85
538.08	2386.18
538.44	2401.35
538.79	2416.53
539.15	2431.30
539.51	2446.03
539.87	2461.40
540.22	2476.25
540.58	2491.10
540.94	2505.81
541.29	2518.85
541.65	2531.26
542.01	2544.79
542.37	2556.78
542.72	2569.44
543.08	2580.26
543.44	2592.39
543.79	2602.77
544.15	2613.23
544.51	2624.70
544.87	2635.61
545.22	2644.75
545.58	2653.51
545.94	2661.24
546.29	2668.05
546.65	2674.56
547.01	2681.04
547.36	2686.75
547.72	2692.35
548.07	2696.48
548.43	2700.30
548.79	2704.42
549.14	2709.21
549.50	2713.57
549.86	2717.80
550.21	2722.20
550.57	2726.85
550.92	2729.52
551.28	2732.24
551.64	2735.04
551.99	2737.24
552.35	2739.41
552.70	2742.17
553.06	2745.01
553.41	2748.31
553.77	2751.48
554.13	2754.04
554.48	2756.21
554.84	2757.69
555.19	2758.34
555.55	2758.62
555.90	2759.50
556.26	2760.34
556.61	2760.41
556.97	2759.31
557.32	2758.76
557.68	2756.84
558.03	2755.11
558.39	2753.90
558.74	2753.63
559.10	2752.39
559.45	2750.68
559.81	2749.40
560.16	2746.72
560.52	2744.26
560.87	2741.26
561.23	2737.65
561.58	2735.34
561.94	2732.03
562.29	2728.72
562.64	2726.75
563.00	2724.60
563.35	2722.50
563.71	2720.24
564.06	2718.09
564.42	2716.49
564.77	2714.41
565.12	2712.75
565.48	2709.88
565.83	2706.95
566.19	2704.03
566.54	2699.96
566.89	2696.01
567.25	2692.33
567.60	2689.08
567.96	2685.58
568.31	2681.81
568.66	2677.76
569.02	2673.27
569.37	2668.04
569.72	2664.05
570.08	2658.56
570.43	2652.55
570.78	2646.68
571.14	2640.52
571.49	2633.90
571.84	2627.92
572.20	2620.65
572.55	2614.09
572.90	2607.21
573.26	2600.08
573.61	2592.88
573.96	2586.13
574.31	2578.50
574.67	2570.33
575.02	2562.05
575.37	2553.38
575.72	2544.47
576.08	2536.70
576.43	2527.93
576.78	2520.35
577.13	2512.31
577.49	2504.28
577.84	2497.06
578.19	2489.57
578.54	2482.12
578.90	2475.35
579.25	2466.64
579.60	2457.70
579.95	2448.11
580.30	2440.13
580.66	2431.92
581.01	2422.58
581.36	2413.09
581.71	2404.55
582.06	2395.67
582.42	2387.47
582.77	2378.30
583.12	2369.43
583.47	2361.01
583.82	2352.50
584.17	2343.34
584.53	2334.00
584.88	2325.12
585.23	2315.55
585.58	2305.83
585.93	2295.96
586.28	2286.37
586.63	2277.30
586.98	2269.00
587.34	2260.61
587.69	2251.28
588.04	2242.03
588.39	2233.82
588.74	2224.75
589.09	2216.19
589.44	2206.62
589.79	2197.95
590.14	2189.94
590.49	2181.46
590.84	2172.09
591.19	2163.98
591.54	2154.97
591.89	2144.83
592.25	2135.47
592.60	2126.01
592.95	2116.09
593.30	2106.65
593.65	2096.84
594.00	2086.97
594.35	2078.52
594.70	2068.99
595.05	2060.12
595.40	2051.23
595.75	2041.28
596.10	2033.17
596.45	2024.53
596.80	2016.70
597.15	2008.01
597.50	1998.65
597.85	1990.12
598.19	1981.39
598.54	1972.60
598.89	1964.73
599.24	1957.69
599.59	1950.21
599.94	1943.21
600.29	1935.53
600.64	1927.44
600.99	1918.90
601.34	1911.41
601.69	1902.06
602.04	1894.25
602.39	1885.93
602.74	1878.00
603.08	1871.15
603.43	1863.75
603.78	1855.35
604.13	1847.46
604.48	1839.25
604.83	1832.34
605.18	1825.25
605.53	1817.53
605.87	1809.81
606.22	1802.37
606.57	1794.72
606.92	1786.61
607.27	1778.16
607.62	1770.95
607.96	1764.21
608.31	1757.92
608.66	1750.13
609.01	1743.01
609.36	1734.96
609.70	1727.19
610.05	1719.29
610.40	1711.40
610.75	1702.86
611.10	1695.16
611.44	1685.70
611.79	1676.77
612.14	1667.44
612.49	1657.78
612.83	1649.12
613.18	1639.08
613.53	1629.47
613.88	1619.54
614.22	1610.19
614.57	1601.07
614.92	1591.42
615.27	1581.86
615.61	1571.93
615.96	1562.88
616.31	1554.09
616.65	1546.04
617.00	1537.33
617.35	1528.78
617.70	1519.78
618.04	1510.78
618.39	1501.42
618.74	1493.02
619.08	1484.38
619.43	1476.05
619.78	1468.17
620.12	1459.92
620.47	1452.37
620.82	1444.01
621.16	1435.70
621.51	1427.43
621.85	1419.04
622.20	1410.74
622.55	1402.33
622.89	1394.09
623.24	1386.17
623.59	1377.37
623.93	1368.83
624.28	1360.43
624.62	1351.95
624.97	1343.36
625.32	1335.20
625.66	1327.78
626.01	1320.51
626.35	1313.23
626.70	1305.40
627.04	1297.80
627.39	1289.93
627.73	1282.25
628.08	1275.12
628.43	1267.91
628.77	1260.30
629.12	1252.87
629.46	1245.95
629.81	1238.37
630.15	1230.91
630.50	1223.43
630.84	1216.13
631.19	1208.90
631.53	1202.18
631.88	1194.50
632.22	1186.89
632.57	1180.00
632.91	1172.42
633.26	1164.95
633.60	1157.72
633.95	1150.70
634.29	1143.01
634.64	1136.33
634.98	1129.13
635.32	1121.94
635.67	1115.21
636.01	1108.69
636.36	1102.00
636.70	1095.33
637.05	1088.95
637.39	1082.63
637.73	1076.28
638.08	1070.50
638.42	1064.53
638.77	1058.00
639.11	1051.91
639.45	1045.91
639.80	1039.29
640.14	1032.92
640.49	1026.56
640.83	1020.09
641.17	1013.80
641.52	1007.94
641.86	1001.48
642.20	995.26
642.55	988.40
642.89	981.79
643.23	975.33
643.58	969.21
643.92	962.58
644.26	956.24
644.61	950.06
644.95	943.80
645.29	937.30
645.64	930.48
645.98	924.25
646.32	918.21
646.66	912.10
647.01	906.15
647.35	900.12
647.69	893.78
648.04	887.84
648.38	881.92
648.72	875.78
649.06	869.68
649.41	863.66
649.75	858.13
650.09	852.40
650.43	846.34
650.78	839.96
651.12	833.83
651.46	828.03
651.80	822.09
652.14	816.24
652.49	810.30
652.83	804.61
653.17	798.23
653.51	792.33
653.85	786.60
654.20	780.63
654.54	774.88
654.88	769.40
655.22	763.59
655.56	757.43
655.90	751.43
656.25	745.79
656.59	740.37
656.93	735.04
657.27	729.79
657.61	724.25
657.95	719.33
658.29	714.29
658.64	709.03
658.98	703.86
659.32	698.35
659.66	693.19
660.00	687.88
660.34	682.95
660.68	677.75
661.02	672.68
661.36	668.12
661.70	663.26
662.05	658.54
662.39	654.14
662.73	649.93
663.07	645.84
663.41	641.33
663.75	636.65
664.09	632.02
664.43	627.24
664.77	622.97
665.11	618.45
665.45	614.06
665.79	609.67
666.13	605.16
666.47	600.84
666.81	596.72
667.15	592.60
667.49	588.70
667.83	584.73
668.17	580.81
668.51	576.77
668.85	572.91
669.19	569.23
669.53	565.26
669.87	561.13
670.21	557.02
670.55	552.97
670.89	549.46
671.23	545.97
671.57	542.41
671.91	538.67
672.25	534.88
672.58	531.35
672.92	527.95
673.26	524.75
673.60	521.54
673.94	518.01
674.28	514.80
674.62	511.48
674.96	508.37
675.30	505.13
675.64	501.89
675.97	498.74
676.31	495.57
676.65	492.66
676.99	489.98
677.33	487.11
677.67	484.34
678.01	481.21
678.34	478.16
678.68	475.35
679.02	472.43
679.36	469.70
679.70	466.80
680.04	463.82
680.37	460.70
680.71	457.83
681.05	455.25
681.39	452.56
681.73	449.85
682.06	447.27
682.40	444.69
682.74	442.09
683.08	439.54
683.42	436.95
683.75	434.35
684.09	431.62
684.43	429.11
684.77	426.51
685.10	424.00
685.44	421.36
685.78	418.79
686.12	416.54
686.45	414.22
686.79	411.95
687.13	409.78
687.46	407.65
687.80	405.54
688.14	403.22
688.48	401.01
688.81	398.87
689.15	396.59
689.49	394.30
689.82	392.14
690.16	389.68
690.50	387.38
690.83	385.04
691.17	382.88
691.51	380.70
691.84	378.67
692.18	376.54
692.52	374.63
692.85	372.72
693.19	370.84
693.52	368.85
693.86	366.88
694.20	364.98
694.53	363.01
694.87	361.00
695.21	359.21
695.54	357.22
695.88	355.28
696.21	353.47
696.55	351.71
696.88	349.82
697.22	348.14
697.56	346.55
697.89	344.92
698.23	343.18
698.56	341.54
698.90	340.00
699.23	338.44
699.57	336.87
699.90	335.22
700.24	333.48
700.58	331.85
700.91	330.37
701.25	328.90
701.58	327.55
701.92	326.09
702.25	324.56
702.59	323.16
702.92	321.78
703.26	320.48
703.59	319.25
703.93	318.17
704.26	317.04
704.60	315.69
704.93	314.43
705.26	313.20
705.60	311.98
705.93	310.65
706.27	309.51
706.60	308.30
706.94	307.21
707.27	305.99
707.61	304.79
707.94	303.60
708.27	302.41
708.61	301.23
708.94	300.13
709.28	299.07
709.61	297.94
709.94	296.87
710.28	295.61
710.61	294.47
710.95	293.20
711.28	292.18
711.61	291.14
711.95	290.17
712.28	289.12
712.61	288.10
712.95	287.18
713.28	286.30
713.61	285.41
713.95	284.44
714.28	283.59
714.61	282.71
714.95	281.83
715.28	280.87
715.61	279.96
715.95	279.13
716.28	278.15
716.61	277.37
716.95	276.49
717.28	275.72
717.61	274.86
717.94	274.17
718.28	273.25
718.61	272.50
718.94	271.74
719.27	271.04
719.61	270.37
719.94	269.69
720.27	268.88
720.60	268.10
720.94	267.42
721.27	266.85
721.60	266.23
721.93	265.54
722.27	265.00
722.60	264.33
722.93	263.67
723.26	263.26
723.59	262.60
723.93	262.03
724.26	261.48
724.59	260.96
724.92	260.35
725.25	259.90
725.59	259.31
725.92	258.82
726.25	258.30
726.58	257.72
726.91	257.14
727.24	256.64
727.57	256.16
727.91	255.57
728.24	255.06
728.57	254.52
728.90	254.03
729.23	253.48
729.56	253.10
729.89	252.61
730.22	251.97
730.55	251.48
730.89	251.02
731.22	250.55
731.55	250.06
731.88	249.53
732.21	248.98
732.54	248.56
732.87	247.94
733.20	247.46
733.53	246.94
733.86	246.50
734.19	245.99
734.52	245.60
734.85	245.26
735.18	244.80
735.51	244.44
735.84	244.02
736.17	243.60
736.50	243.13
736.83	243.00
737.16	242.65
737.49	242.23
737.82	241.78
738.15	241.41
738.48	241.01
738.81	240.71
739.14	240.30
739.47	239.90
739.80	239.71
740.13	239.40
740.46	239.17
740.79	238.78
741.12	238.49
741.45	238.11
741.78	237.76
742.11	237.44
742.44	237.09
742.77	236.83
743.10	236.56
743.43	236.27
743.75	235.81
744.08	235.75
744.41	235.42
744.74	235.12
745.07	234.80
745.40	234.59
745.73	234.39
746.06	234.20
746.39	233.94
746.71	233.59
747.04	233.25
747.37	232.91
747.70	232.65
748.03	232.42
748.36	232.20
748.68	231.92
749.01	231.64
749.34	231.41
749.67	231.08
750.00	230.79
750.33	230.57
750.65	230.33
750.98	229.83
751.31	229.60
751.64	229.42
751.97	229.22
752.29	228.93
752.62	228.57
752.95	228.31
753.28	228.08
753.60	227.86
753.93	227.76
754.26	227.57
754.59	227.41
754.91	227.21
755.24	227.00
755.57	226.85
755.90	226.60
756.22	226.44
756.55	226.30
756.88	226.13
757.20	225.90
757.53	225.53
757.86	225.39
758.19	225.22
758.51	225.06
758.84	224.86
759.17	224.72
759.49	224.64
759.82	224.51
760.15	224.35
760.47	224.15
760.80	223.89
761.13	223.76
761.45	223.55
761.78	223.35
762.11	223.19
762.43	223.00
762.76	222.99
763.08	222.77
763.41	222.70
763.74	222.61
764.06	222.52
764.39	222.49
764.71	222.35
765.04	222.30
765.37	222.22
765.69	222.11
766.02	221.97
766.34	221.86
766.67	221.69
767.00	221.65
767.32	221.70
767.65	221.74
767.97	221.63
768.30	221.54
768.62	221.46
768.95	221.34
769.27	221.24
769.60	221.07
769.92	220.98
770.25	220.82
770.57	220.66
770.90	220.53
771.22	220.43
771.55	220.30
771.87	220.12
772.20	219.97
772.52	220.01
772.85	220.10
773.17	219.96
773.50	219.88
773.82	219.72
774.15	219.53
774.47	219.29
774.80	219.14
775.12	219.04
775.45	218.93
775.77	218.79
776.09	218.70
776.42	218.64
776.74	218.61
777.07	218.50
777.39	218.45
777.72	218.41
778.04	218.32
778.36	218.28
778.69	218.24
779.01	218.11
779.33	217.96
779.66	217.70
779.98	217.61
780.31	217.53
780.63	217.53
780.95	217.44
781.28	217.37
781.60	217.31
781.92	217.30
782.25	217.18
782.57	217.08
782.89	216.96
783.22	216.82
783.54	216.66
783.86	216.58
784.19	216.48
784.51	216.36
784.83	216.28
785.16	216.18
785.48	216.10
785.80	216.05
786.12	216.01
786.45	215.97
