SpectraSuite Data File
++++++++++++++++++++++++++++++++++++
Date: Mon Feb 25 17:33:53 EST 2013
User: group
Dark Spectrum Present: No
Reference Spectrum Present: No
Number of Sampled Component Spectra: 1
Spectrometers: USB2E7196
Integration Time (usec): 52000 (USB2E7196)
Spectra Averaged: 20 (USB2E7196)
Boxcar Smoothing: 10 (USB2E7196)
Correct for Electrical Dark: No (USB2E7196)
Strobe/Lamp Enabled: No (USB2E7196)
Correct for Detector Non-linearity: No (USB2E7196)
Correct for Stray Light: No (USB2E7196)
Number of Pixels in Processed Spectrum: 2048
>>>>>Begin Processed Spectral Data<<<<<
339.09	0.00
339.48	198.45
339.86	199.75
340.24	201.90
340.63	203.55
341.01	206.00
341.39	206.20
341.78	207.30
342.16	208.50
342.54	208.85
342.93	197.92
343.31	207.90
343.69	208.46
344.07	208.94
344.46	209.37
344.84	209.69
345.22	209.85
345.60	210.09
345.99	210.25
346.37	210.39
346.75	210.48
347.13	210.53
347.52	210.54
347.90	210.67
348.28	210.71
348.66	210.76
349.05	210.75
349.43	210.82
349.81	210.88
350.19	210.92
350.57	211.06
350.96	211.16
351.34	211.30
351.72	211.43
352.10	211.57
352.48	211.64
352.87	211.70
353.25	211.81
353.63	211.87
354.01	211.98
354.39	212.05
354.77	212.17
355.15	212.28
355.54	212.37
355.92	212.30
356.30	212.37
356.68	212.51
357.06	212.59
357.44	212.60
357.82	212.70
358.20	212.80
358.58	212.85
358.97	212.92
359.35	213.00
359.73	213.10
360.11	213.10
360.49	213.12
360.87	213.20
361.25	213.28
361.63	213.44
362.01	213.46
362.39	213.45
362.77	213.38
363.15	213.42
363.53	213.53
363.91	213.54
364.29	213.69
364.67	213.53
365.05	213.56
365.43	213.68
365.81	213.74
366.19	213.81
366.57	213.89
366.95	213.92
367.33	213.93
367.71	213.94
368.09	214.00
368.47	214.01
368.85	213.98
369.23	214.07
369.61	213.95
369.99	214.06
370.37	214.14
370.75	214.34
371.13	214.26
371.51	214.18
371.89	214.22
372.27	214.17
372.65	214.23
373.03	214.16
373.41	214.12
373.78	214.06
374.16	213.97
374.54	213.87
374.92	213.77
375.30	213.71
375.68	213.57
376.06	213.47
376.44	213.45
376.82	213.47
377.19	213.39
377.57	213.28
377.95	213.06
378.33	213.02
378.71	212.83
379.09	212.80
379.47	212.80
379.84	212.79
380.22	212.68
380.60	212.63
380.98	212.60
381.36	212.52
381.73	212.43
382.11	212.42
382.49	212.38
382.87	212.29
383.25	212.24
383.62	212.43
384.00	212.38
384.38	212.27
384.76	212.29
385.13	212.28
385.51	212.35
385.89	212.34
386.27	212.28
386.64	212.27
387.02	212.22
387.40	212.09
387.78	212.09
388.15	211.99
388.53	211.90
388.91	211.87
389.29	211.86
389.66	211.82
390.04	211.72
390.42	211.70
390.79	211.74
391.17	211.67
391.55	211.40
391.92	211.39
392.30	211.48
392.68	211.47
393.05	211.47
393.43	211.40
393.81	211.45
394.18	211.37
394.56	211.39
394.94	211.47
395.31	211.58
395.69	211.57
396.06	211.68
396.44	211.65
396.82	211.66
397.19	211.77
397.57	211.76
397.95	211.77
398.32	211.75
398.70	211.76
399.07	211.82
399.45	211.86
399.82	211.83
400.20	211.73
400.58	211.73
400.95	211.70
401.33	211.80
401.70	211.91
402.08	211.99
402.45	212.02
402.83	212.10
403.20	212.16
403.58	212.25
403.95	212.26
404.33	212.42
404.71	212.56
405.08	212.74
405.46	212.91
405.83	213.07
406.21	213.27
406.58	213.48
406.96	213.68
407.33	213.91
407.70	214.14
408.08	214.57
408.45	214.75
408.83	215.03
409.20	215.23
409.58	215.40
409.95	215.75
410.33	216.00
410.70	216.26
411.08	216.59
411.45	216.97
411.82	217.45
412.20	217.90
412.57	218.46
412.95	218.80
413.32	219.37
413.69	219.90
414.07	220.49
414.44	221.08
414.82	221.71
415.19	222.45
415.56	223.21
415.94	223.93
416.31	224.83
416.68	225.73
417.06	226.78
417.43	227.74
417.81	228.84
418.18	229.98
418.55	231.20
418.93	232.45
419.30	233.77
419.67	235.08
420.04	236.52
420.42	237.97
420.79	239.72
421.16	241.41
421.54	243.25
421.91	245.08
422.28	247.09
422.66	249.11
423.03	251.15
423.40	253.26
423.77	255.52
424.15	257.78
424.52	260.10
424.89	262.53
425.26	265.09
425.64	267.48
426.01	270.16
426.38	272.88
426.75	275.66
427.13	278.44
427.50	281.44
427.87	284.60
428.24	287.64
428.61	290.59
428.99	293.73
429.36	297.20
429.73	300.59
430.10	303.93
430.47	307.56
430.85	311.23
431.22	315.13
431.59	319.21
431.96	323.04
432.33	327.43
432.70	331.72
433.08	336.70
433.45	341.35
433.82	345.93
434.19	351.09
434.56	356.14
434.93	360.92
435.30	365.61
435.68	370.71
436.05	375.92
436.42	381.16
436.79	386.07
437.16	391.18
437.53	396.58
437.90	402.01
438.27	407.12
438.64	412.45
439.01	417.38
439.38	421.78
439.75	426.11
440.13	430.93
440.50	435.52
440.87	439.15
441.24	442.99
441.61	447.26
441.98	450.31
442.35	453.82
442.72	457.41
443.09	461.04
443.46	463.23
443.83	464.68
444.20	465.80
444.57	467.45
444.94	468.15
445.31	468.94
445.68	469.70
446.05	469.95
446.42	469.36
446.79	468.63
447.16	467.85
447.53	467.31
447.90	465.13
448.27	463.03
448.64	460.15
449.01	457.98
449.37	454.22
449.74	450.62
450.11	446.58
450.48	442.11
450.85	437.48
451.22	433.42
451.59	429.62
451.96	425.97
452.33	421.21
452.70	416.94
453.07	411.78
453.43	406.36
453.80	401.37
454.17	396.47
454.54	392.00
454.91	387.08
455.28	382.33
455.65	378.05
456.02	373.62
456.38	369.80
456.75	365.15
457.12	361.43
457.49	357.62
457.86	353.70
458.23	350.56
458.59	347.06
458.96	343.50
459.33	340.30
459.70	337.15
460.07	334.71
460.43	331.74
460.80	329.04
461.17	326.75
461.54	324.31
461.91	322.08
462.27	319.58
462.64	317.56
463.01	315.33
463.38	313.02
463.74	310.90
464.11	309.03
464.48	307.35
464.85	305.48
465.21	304.16
465.58	302.83
465.95	301.13
466.32	299.70
466.68	298.48
467.05	297.09
467.42	295.63
467.78	294.11
468.15	292.77
468.52	291.84
468.88	290.51
469.25	289.28
469.62	288.34
469.98	287.33
470.35	286.35
470.72	285.42
471.08	284.58
471.45	283.70
471.82	282.90
472.18	282.12
472.55	281.66
472.92	280.92
473.28	280.26
473.65	279.65
474.02	279.08
474.38	278.50
474.75	278.12
475.11	277.75
475.48	277.57
475.85	277.31
476.21	277.05
476.58	276.88
476.94	276.83
477.31	276.71
477.67	276.68
478.04	276.81
478.41	276.94
478.77	277.20
479.14	277.38
479.50	277.74
479.87	278.06
480.23	278.34
480.60	278.72
480.96	279.16
481.33	279.73
481.69	280.43
482.06	281.10
482.42	281.82
482.79	282.60
483.15	283.35
483.52	284.42
483.88	285.36
484.25	286.35
484.61	287.45
484.98	288.56
485.34	289.86
485.71	291.22
486.07	292.67
486.44	293.96
486.80	295.54
487.17	297.06
487.53	298.87
487.90	300.70
488.26	302.67
488.62	304.80
488.99	306.89
489.35	309.02
489.72	311.39
490.08	313.84
490.44	316.35
490.81	318.96
491.17	321.73
491.54	324.63
491.90	327.71
492.26	330.91
492.63	334.16
492.99	337.58
493.36	341.09
493.72	345.00
494.08	349.19
494.45	353.44
494.81	357.95
495.17	362.44
495.54	367.25
495.90	372.14
496.26	377.27
496.63	382.80
496.99	388.50
497.35	394.47
497.72	400.69
498.08	407.09
498.44	413.93
498.80	421.10
499.17	428.41
499.53	436.12
499.89	444.06
500.26	452.31
500.62	460.69
500.98	469.60
501.34	478.63
501.71	488.05
502.07	497.70
502.43	507.70
502.79	517.90
503.16	528.62
503.52	539.67
503.88	550.86
504.24	562.41
504.60	574.17
504.97	586.40
505.33	598.98
505.69	612.46
506.05	625.90
506.41	639.47
506.78	653.46
507.14	667.58
507.50	682.25
507.86	697.12
508.22	712.74
508.59	728.34
508.95	744.31
509.31	760.69
509.67	777.39
510.03	794.30
510.39	811.93
510.75	829.55
511.12	847.75
511.48	866.20
511.84	884.74
512.20	903.59
512.56	923.00
512.92	942.47
513.28	961.85
513.64	981.51
514.00	1001.42
514.37	1021.92
514.73	1042.56
515.09	1063.38
515.45	1084.29
515.81	1105.33
516.17	1126.75
516.53	1148.19
516.89	1169.77
517.25	1191.45
517.61	1213.18
517.97	1234.65
518.33	1256.43
518.69	1278.13
519.05	1300.25
519.41	1322.62
519.77	1345.27
520.13	1367.31
520.49	1389.47
520.85	1412.10
521.21	1434.86
521.57	1457.73
521.93	1479.64
522.29	1502.92
522.65	1525.35
523.01	1548.04
523.37	1570.23
523.73	1592.67
524.09	1615.09
524.45	1637.22
524.81	1659.59
525.17	1682.39
525.53	1705.03
525.89	1727.43
526.25	1749.84
526.61	1771.22
526.97	1792.94
527.33	1814.28
527.68	1835.95
528.04	1857.24
528.40	1877.77
528.76	1898.55
529.12	1919.37
529.48	1941.31
529.84	1961.40
530.20	1981.96
530.56	2002.72
530.91	2023.45
531.27	2043.68
531.63	2063.64
531.99	2083.51
532.35	2102.83
532.71	2121.94
533.07	2141.67
533.42	2160.41
533.78	2179.02
534.14	2197.56
534.50	2214.41
534.86	2232.75
535.21	2249.59
535.57	2267.62
535.93	2285.08
536.29	2302.16
536.65	2318.84
537.00	2334.30
537.36	2349.89
537.72	2365.18
538.08	2380.20
538.44	2395.56
538.79	2411.14
539.15	2425.93
539.51	2440.85
539.87	2456.25
540.22	2470.55
540.58	2485.17
540.94	2499.97
541.29	2513.03
541.65	2525.40
542.01	2539.28
542.37	2551.31
542.72	2563.95
543.08	2574.99
543.44	2587.08
543.79	2597.26
544.15	2607.80
544.51	2619.05
544.87	2630.15
545.22	2639.62
545.58	2648.13
545.94	2655.55
546.29	2662.10
546.65	2668.60
547.01	2674.94
547.36	2680.61
547.72	2686.62
548.07	2690.91
548.43	2694.61
548.79	2698.93
549.14	2704.00
549.50	2708.16
549.86	2711.91
550.21	2716.02
550.57	2720.17
550.92	2722.86
551.28	2725.51
551.64	2727.75
551.99	2730.14
552.35	2731.77
552.70	2734.68
553.06	2737.71
553.41	2741.13
553.77	2744.15
554.13	2746.51
554.48	2748.35
554.84	2750.00
555.19	2750.55
555.55	2750.73
555.90	2751.28
556.26	2751.49
556.61	2751.24
556.97	2750.03
557.32	2749.93
557.68	2748.11
558.03	2746.80
558.39	2744.98
558.74	2744.82
559.10	2744.01
559.45	2741.83
559.81	2740.76
560.16	2737.87
560.52	2735.57
560.87	2732.12
561.23	2728.33
561.58	2726.06
561.94	2722.89
562.29	2719.09
562.64	2716.71
563.00	2714.62
563.35	2712.22
563.71	2710.50
564.06	2708.58
564.42	2707.02
564.77	2704.35
565.12	2702.54
565.48	2699.40
565.83	2696.65
566.19	2693.26
566.54	2688.55
566.89	2685.05
567.25	2681.02
567.60	2677.68
567.96	2674.06
568.31	2670.90
568.66	2667.02
569.02	2662.43
569.37	2657.60
569.72	2653.79
570.08	2648.27
570.43	2642.48
570.78	2636.69
571.14	2630.60
571.49	2623.94
571.84	2617.94
572.20	2611.09
572.55	2604.62
572.90	2597.70
573.26	2590.78
573.61	2583.86
573.96	2577.84
574.31	2570.15
574.67	2562.01
575.02	2553.92
575.37	2545.16
575.72	2536.22
576.08	2528.56
576.43	2519.97
576.78	2511.86
577.13	2503.70
577.49	2495.74
577.84	2488.37
578.19	2480.99
578.54	2473.41
578.90	2466.21
579.25	2457.46
579.60	2448.31
579.95	2438.69
580.30	2430.48
580.66	2422.20
581.01	2412.82
581.36	2403.23
581.71	2394.64
582.06	2386.24
582.42	2377.78
582.77	2368.48
583.12	2359.33
583.47	2350.75
583.82	2342.30
584.17	2333.15
584.53	2324.02
584.88	2315.02
585.23	2305.38
585.58	2295.62
585.93	2285.82
586.28	2276.65
586.63	2267.87
586.98	2260.00
587.34	2251.68
587.69	2242.62
588.04	2233.43
588.39	2225.40
588.74	2216.67
589.09	2207.75
589.44	2198.04
589.79	2189.52
590.14	2181.85
590.49	2173.54
590.84	2164.37
591.19	2156.37
591.54	2147.77
591.89	2137.67
592.25	2128.47
592.60	2119.09
592.95	2109.63
593.30	2100.06
593.65	2090.20
594.00	2080.31
594.35	2071.73
594.70	2062.36
595.05	2053.40
595.40	2044.26
595.75	2034.45
596.10	2026.08
596.45	2017.52
596.80	2009.62
597.15	2001.15
597.50	1991.79
597.85	1983.10
598.19	1974.27
598.54	1965.35
598.89	1957.30
599.24	1950.43
599.59	1943.17
599.94	1936.00
600.29	1927.97
600.64	1920.11
600.99	1911.78
601.34	1904.37
601.69	1895.43
602.04	1887.46
602.39	1879.20
602.74	1871.89
603.08	1865.20
603.43	1857.96
603.78	1849.84
604.13	1841.78
604.48	1833.64
604.83	1826.76
605.18	1819.85
605.53	1812.50
605.87	1804.83
606.22	1797.63
606.57	1789.91
606.92	1781.48
607.27	1773.05
607.62	1766.08
607.96	1759.02
608.31	1752.77
608.66	1745.19
609.01	1737.66
609.36	1729.82
609.70	1722.06
610.05	1713.68
610.40	1705.54
610.75	1696.90
611.10	1689.44
611.44	1680.61
611.79	1671.53
612.14	1662.18
612.49	1652.33
612.83	1643.41
613.18	1633.55
613.53	1624.02
613.88	1614.26
614.22	1605.57
614.57	1596.45
614.92	1586.95
615.27	1577.80
615.61	1567.82
615.96	1558.88
616.31	1550.29
616.65	1542.48
617.00	1534.10
617.35	1525.79
617.70	1516.45
618.04	1507.43
618.39	1497.82
618.74	1488.89
619.08	1480.43
619.43	1472.07
619.78	1464.22
620.12	1456.23
620.47	1448.54
620.82	1439.83
621.16	1431.53
621.51	1422.82
621.85	1414.54
622.20	1405.93
622.55	1397.19
622.89	1388.98
623.24	1380.76
623.59	1371.91
623.93	1363.10
624.28	1354.79
624.62	1346.34
624.97	1338.23
625.32	1330.27
625.66	1322.81
626.01	1315.75
626.35	1308.43
626.70	1300.78
627.04	1293.43
627.39	1285.49
627.73	1277.96
628.08	1271.40
628.43	1263.82
628.77	1256.44
629.12	1249.30
629.46	1242.65
629.81	1235.62
630.15	1228.25
630.50	1220.72
630.84	1213.68
631.19	1206.37
631.53	1199.48
631.88	1191.94
632.22	1184.41
632.57	1177.41
632.91	1170.09
633.26	1162.46
633.60	1155.08
633.95	1148.21
634.29	1140.68
634.64	1134.23
634.98	1127.06
635.32	1119.65
635.67	1113.33
636.01	1106.75
636.36	1099.93
636.70	1093.21
637.05	1086.59
637.39	1080.22
637.73	1074.19
638.08	1068.36
638.42	1062.47
638.77	1055.77
639.11	1049.51
639.45	1043.41
639.80	1036.77
640.14	1030.34
640.49	1024.31
640.83	1018.32
641.17	1011.97
641.52	1006.10
641.86	999.42
642.20	993.13
642.55	986.48
642.89	979.82
643.23	973.25
643.58	967.25
643.92	960.86
644.26	954.49
644.61	948.42
644.95	942.09
645.29	935.43
645.64	928.83
645.98	922.65
646.32	916.85
646.66	910.83
647.01	905.09
647.35	899.10
647.69	892.66
648.04	886.50
648.38	880.41
648.72	874.24
649.06	868.08
649.41	862.27
649.75	856.58
650.09	850.69
650.43	844.79
650.78	838.43
651.12	832.29
651.46	826.54
651.80	820.40
652.14	814.43
652.49	808.58
652.83	802.76
653.17	796.70
653.51	790.73
653.85	784.86
654.20	778.78
654.54	772.96
654.88	767.50
655.22	761.59
655.56	755.63
655.90	749.77
656.25	744.11
656.59	738.41
656.93	733.10
657.27	727.92
657.61	722.41
657.95	717.24
658.29	712.09
658.64	706.88
658.98	701.55
659.32	696.03
659.66	690.83
660.00	685.51
660.34	680.35
660.68	675.29
661.02	670.13
661.36	665.52
661.70	660.78
662.05	656.02
662.39	651.60
662.73	647.28
663.07	642.91
663.41	638.49
663.75	634.01
664.09	629.34
664.43	624.58
664.77	620.19
665.11	615.86
665.45	611.34
665.79	606.97
666.13	602.70
666.47	598.75
666.81	594.56
667.15	590.49
667.49	586.71
667.83	582.66
668.17	578.98
668.51	574.93
668.85	571.15
669.19	567.48
669.53	563.47
669.87	559.29
670.21	555.46
670.55	551.53
670.89	547.93
671.23	544.62
671.57	541.21
671.91	537.66
672.25	534.08
672.58	530.58
672.92	526.90
673.26	523.64
673.60	520.19
673.94	516.83
674.28	513.54
674.62	510.29
674.96	507.19
675.30	504.05
675.64	500.86
675.97	497.61
676.31	494.54
676.65	491.74
676.99	489.20
677.33	486.22
677.67	483.32
678.01	480.35
678.34	477.31
678.68	474.37
679.02	471.43
679.36	468.65
679.70	465.93
680.04	463.13
680.37	460.21
680.71	457.56
681.05	454.96
681.39	452.28
681.73	449.68
682.06	446.99
682.40	444.37
682.74	441.79
683.08	439.22
683.42	436.57
683.75	433.99
684.09	431.24
684.43	428.79
684.77	426.23
685.10	423.64
685.44	421.05
685.78	418.62
686.12	416.30
686.45	413.81
686.79	411.50
687.13	409.38
687.46	407.26
687.80	405.00
688.14	402.67
688.48	400.55
688.81	398.25
689.15	396.05
689.49	393.76
689.82	391.58
690.16	389.26
690.50	386.92
690.83	384.61
691.17	382.44
691.51	380.15
691.84	378.13
692.18	375.99
692.52	374.12
692.85	372.19
693.19	370.34
693.52	368.32
693.86	366.35
694.20	364.42
694.53	362.56
694.87	360.55
695.21	358.56
695.54	356.56
695.88	354.58
696.21	352.77
696.55	351.04
696.88	349.23
697.22	347.55
697.56	346.00
697.89	344.38
698.23	342.72
698.56	341.14
698.90	339.66
699.23	338.10
699.57	336.44
699.90	334.81
700.24	333.09
700.58	331.60
700.91	330.14
701.25	328.73
701.58	327.26
701.92	325.90
702.25	324.59
702.59	323.24
702.92	321.93
703.26	320.53
703.59	319.26
703.93	318.15
704.26	316.90
704.60	315.64
704.93	314.29
705.26	313.05
705.60	311.92
705.93	310.52
706.27	309.45
706.60	308.30
706.94	307.12
707.27	305.98
707.61	304.85
707.94	303.65
708.27	302.34
708.61	301.15
708.94	299.94
709.28	298.80
709.61	297.64
709.94	296.53
710.28	295.47
710.61	294.38
710.95	293.17
711.28	292.25
711.61	291.17
711.95	290.30
712.28	289.28
712.61	288.29
712.95	287.38
713.28	286.40
713.61	285.42
713.95	284.58
714.28	283.80
714.61	282.81
714.95	281.96
715.28	281.01
715.61	280.08
715.95	279.22
716.28	278.30
716.61	277.56
716.95	276.69
717.28	275.85
717.61	274.95
717.94	274.12
718.28	273.20
718.61	272.48
718.94	271.59
719.27	270.77
719.61	269.97
719.94	269.25
720.27	268.45
720.60	267.70
720.94	266.94
721.27	266.05
721.60	265.49
721.93	264.84
722.27	264.34
722.60	263.73
722.93	263.11
723.26	262.60
723.59	261.84
723.93	261.21
724.26	260.66
724.59	260.07
724.92	259.51
725.25	258.98
725.59	258.42
725.92	257.99
726.25	257.49
726.58	256.90
726.91	256.35
727.24	255.86
727.57	255.38
727.91	254.82
728.24	254.38
728.57	253.79
728.90	253.22
729.23	252.72
729.56	252.28
729.89	251.86
730.22	251.32
730.55	250.88
730.89	250.46
731.22	249.98
731.55	249.62
731.88	249.22
732.21	248.71
732.54	248.15
732.87	247.72
733.20	247.30
733.53	246.89
733.86	246.47
734.19	246.03
734.52	245.66
734.85	245.36
735.18	245.02
735.51	244.73
735.84	244.45
736.17	244.09
736.50	243.70
736.83	243.44
737.16	243.09
737.49	242.76
737.82	242.42
738.15	242.14
738.48	241.71
738.81	241.30
739.14	241.00
739.47	240.77
739.80	240.39
740.13	240.10
740.46	239.74
740.79	239.34
741.12	238.98
741.45	238.62
741.78	238.21
742.11	237.90
742.44	237.54
742.77	237.28
743.10	236.90
743.43	236.57
743.75	236.12
744.08	236.01
744.41	235.70
744.74	235.40
745.07	235.03
745.40	234.83
745.73	234.71
746.06	234.41
746.39	234.14
746.71	233.84
747.04	233.50
747.37	233.21
747.70	233.06
748.03	232.84
748.36	232.59
748.68	232.31
749.01	231.97
749.34	231.77
749.67	231.54
750.00	231.40
750.33	231.20
750.65	230.92
750.98	230.43
751.31	230.22
751.64	229.92
751.97	229.83
752.29	229.57
752.62	229.26
752.95	229.03
753.28	228.75
753.60	228.53
753.93	228.34
754.26	228.18
754.59	227.89
754.91	227.66
755.24	227.46
755.57	227.34
755.90	227.16
756.22	226.90
756.55	226.64
756.88	226.39
757.20	226.12
757.53	225.83
757.86	225.74
758.19	225.48
758.51	225.34
758.84	225.04
759.17	224.92
759.49	224.76
759.82	224.61
760.15	224.47
760.47	224.21
760.80	224.04
761.13	223.87
761.45	223.71
761.78	223.57
762.11	223.46
762.43	223.25
762.76	223.09
763.08	222.98
763.41	222.84
763.74	222.74
764.06	222.59
764.39	222.54
764.71	222.38
765.04	222.35
765.37	222.17
765.69	222.05
766.02	221.82
766.34	221.68
766.67	221.56
767.00	221.43
767.32	221.56
767.65	221.61
767.97	221.49
768.30	221.36
768.62	221.24
768.95	221.06
769.27	220.95
769.60	220.90
769.92	220.77
770.25	220.59
770.57	220.41
770.90	220.38
771.22	220.25
771.55	220.12
771.87	220.04
772.20	220.00
772.52	220.00
772.85	220.06
773.17	219.90
773.50	219.71
773.82	219.58
774.15	219.41
774.47	219.09
774.80	219.04
775.12	218.96
775.45	218.90
775.77	218.88
776.09	218.85
776.42	218.74
776.74	218.76
777.07	218.67
777.39	218.62
777.72	218.45
778.04	218.42
778.36	218.33
778.69	218.24
779.01	218.14
779.33	217.99
779.66	217.75
779.98	217.69
780.31	217.70
780.63	217.78
780.95	217.72
781.28	217.69
781.60	217.53
781.92	217.51
782.25	217.39
782.57	217.25
782.89	217.11
783.22	217.09
783.54	216.92
783.86	216.92
784.19	216.82
784.51	216.82
784.83	216.75
785.16	216.74
785.48	216.66
785.80	216.68
786.12	216.67
786.45	216.65
