SpectraSuite Data File
++++++++++++++++++++++++++++++++++++
Date: Mon Feb 25 17:33:16 EST 2013
User: group
Dark Spectrum Present: No
Reference Spectrum Present: No
Number of Sampled Component Spectra: 1
Spectrometers: USB2E7196
Integration Time (usec): 52000 (USB2E7196)
Spectra Averaged: 20 (USB2E7196)
Boxcar Smoothing: 10 (USB2E7196)
Correct for Electrical Dark: No (USB2E7196)
Strobe/Lamp Enabled: No (USB2E7196)
Correct for Detector Non-linearity: No (USB2E7196)
Correct for Stray Light: No (USB2E7196)
Number of Pixels in Processed Spectrum: 2048
>>>>>Begin Processed Spectral Data<<<<<
339.09	0.00
339.48	197.45
339.86	202.05
340.24	201.75
340.63	203.20
341.01	206.65
341.39	206.45
341.78	207.20
342.16	209.80
342.54	208.70
342.93	198.59
343.31	208.61
343.69	209.24
344.07	209.65
344.46	210.08
344.84	210.46
345.22	210.72
345.60	211.01
345.99	211.25
346.37	211.35
346.75	211.43
347.13	211.59
347.52	211.67
347.90	211.79
348.28	211.77
348.66	211.88
349.05	211.88
349.43	212.01
349.81	212.12
350.19	212.12
350.57	212.10
350.96	212.13
351.34	212.24
351.72	212.27
352.10	212.37
352.48	212.47
352.87	212.54
353.25	212.58
353.63	212.60
354.01	212.68
354.39	212.77
354.77	212.91
355.15	212.96
355.54	213.00
355.92	212.93
356.30	213.01
356.68	213.15
357.06	213.21
357.44	213.25
357.82	213.28
358.20	213.30
358.58	213.38
358.97	213.47
359.35	213.55
359.73	213.75
360.11	213.74
360.49	213.81
360.87	213.78
361.25	213.86
361.63	213.95
362.01	213.99
362.39	213.99
362.77	214.06
363.15	214.08
363.53	214.08
363.91	214.16
364.29	214.17
364.67	214.00
365.05	214.00
365.43	214.03
365.81	214.08
366.19	214.16
366.57	214.21
366.95	214.20
367.33	214.15
367.71	214.09
368.09	214.14
368.47	214.10
368.85	214.17
369.23	214.18
369.61	214.06
369.99	214.08
370.37	214.09
370.75	214.04
371.13	213.95
371.51	213.94
371.89	213.85
372.27	213.86
372.65	213.88
373.03	213.82
373.41	213.77
373.78	213.66
374.16	213.62
374.54	213.48
374.92	213.38
375.30	213.37
375.68	213.27
376.06	213.22
376.44	213.17
376.82	213.12
377.19	213.04
377.57	213.02
377.95	212.91
378.33	212.85
378.71	212.82
379.09	212.80
379.47	212.75
379.84	212.69
380.22	212.63
380.60	212.56
380.98	212.55
381.36	212.49
381.73	212.48
382.11	212.43
382.49	212.45
382.87	212.45
383.25	212.36
383.62	212.51
384.00	212.47
384.38	212.45
384.76	212.45
385.13	212.51
385.51	212.47
385.89	212.42
386.27	212.42
386.64	212.31
387.02	212.33
387.40	212.29
387.78	212.31
388.15	212.25
388.53	212.24
388.91	212.18
389.29	212.12
389.66	212.06
390.04	211.95
390.42	211.94
390.79	211.90
391.17	211.84
391.55	211.66
391.92	211.64
392.30	211.66
392.68	211.57
393.05	211.55
393.43	211.53
393.81	211.53
394.18	211.50
394.56	211.56
394.94	211.55
395.31	211.53
395.69	211.59
396.06	211.61
396.44	211.60
396.82	211.59
397.19	211.68
397.57	211.68
397.95	211.79
398.32	211.79
398.70	211.83
399.07	211.95
399.45	211.99
399.82	212.02
400.20	212.03
400.58	212.15
400.95	212.09
401.33	212.22
401.70	212.42
402.08	212.47
402.45	212.53
402.83	212.67
403.20	212.81
403.58	212.83
403.95	212.97
404.33	213.03
404.71	213.15
405.08	213.42
405.46	213.55
405.83	213.65
406.21	213.76
406.58	213.95
406.96	214.12
407.33	214.30
407.70	214.49
408.08	214.83
408.45	215.08
408.83	215.32
409.20	215.53
409.58	215.65
409.95	215.91
410.33	216.16
410.70	216.39
411.08	216.77
411.45	217.10
411.82	217.45
412.20	217.92
412.57	218.45
412.95	218.70
413.32	219.32
413.69	219.81
414.07	220.43
414.44	221.02
414.82	221.57
415.19	222.30
415.56	223.06
415.94	223.80
416.31	224.58
416.68	225.45
417.06	226.46
417.43	227.35
417.81	228.48
418.18	229.64
418.55	230.81
418.93	231.98
419.30	233.34
419.67	234.71
420.04	236.11
420.42	237.58
420.79	239.41
421.16	241.08
421.54	242.90
421.91	244.73
422.28	246.64
422.66	248.81
423.03	250.74
423.40	252.83
423.77	255.03
424.15	257.32
424.52	259.67
424.89	262.21
425.26	264.80
425.64	267.23
426.01	269.80
426.38	272.53
426.75	275.27
427.13	278.13
427.50	281.13
427.87	284.22
428.24	287.30
428.61	290.21
428.99	293.47
429.36	296.98
429.73	300.45
430.10	303.94
430.47	307.48
430.85	311.25
431.22	315.15
431.59	319.34
431.96	323.24
432.33	327.65
432.70	331.74
433.08	336.62
433.45	341.09
433.82	345.69
434.19	350.72
434.56	355.79
434.93	360.60
435.30	365.36
435.68	370.57
436.05	375.78
436.42	380.88
436.79	385.66
437.16	390.76
437.53	396.14
437.90	401.36
438.27	406.41
438.64	411.60
439.01	416.43
439.38	420.68
439.75	424.87
440.13	429.68
440.50	434.30
440.87	437.94
441.24	441.81
441.61	446.13
441.98	449.20
442.35	452.64
442.72	456.23
443.09	459.72
443.46	461.92
443.83	463.26
444.20	464.49
444.57	466.04
444.94	466.77
445.31	467.48
445.68	468.23
446.05	468.54
446.42	468.00
446.79	467.28
447.16	466.37
447.53	465.69
447.90	463.50
448.27	461.39
448.64	458.47
449.01	456.46
449.37	452.85
449.74	449.42
450.11	445.34
450.48	440.79
450.85	436.17
451.22	432.08
451.59	428.26
451.96	424.69
452.33	420.02
452.70	415.66
453.07	410.54
453.43	405.27
453.80	400.30
454.17	395.50
454.54	391.05
454.91	386.38
455.28	381.75
455.65	377.31
456.02	372.98
456.38	369.27
456.75	364.54
457.12	360.54
457.49	356.60
457.86	352.91
458.23	349.79
458.59	346.34
458.96	342.88
459.33	339.74
459.70	336.54
460.07	334.06
460.43	331.21
460.80	328.53
461.17	326.27
461.54	323.76
461.91	321.48
462.27	319.01
462.64	316.88
463.01	314.65
463.38	312.63
463.74	310.49
464.11	308.56
464.48	306.92
464.85	305.20
465.21	304.04
465.58	302.68
465.95	300.85
466.32	299.36
466.68	297.98
467.05	296.68
467.42	295.32
467.78	293.84
468.15	292.49
468.52	291.49
468.88	290.13
469.25	288.95
469.62	287.98
469.98	286.99
470.35	286.20
470.72	285.34
471.08	284.40
471.45	283.54
471.82	282.84
472.18	282.10
472.55	281.46
472.92	280.60
473.28	280.00
473.65	279.44
474.02	278.90
474.38	278.51
474.75	278.14
475.11	277.78
475.48	277.60
475.85	277.38
476.21	277.15
476.58	277.05
476.94	277.10
477.31	277.10
477.67	277.16
478.04	277.09
478.41	277.29
478.77	277.57
479.14	277.68
479.50	278.00
479.87	278.37
480.23	278.80
480.60	279.22
480.96	279.66
481.33	280.33
481.69	280.95
482.06	281.49
482.42	282.10
482.79	282.80
483.15	283.55
483.52	284.56
483.88	285.47
484.25	286.39
484.61	287.32
484.98	288.39
485.34	289.66
485.71	291.13
486.07	292.47
486.44	293.83
486.80	295.43
487.17	297.06
487.53	298.80
487.90	300.63
488.26	302.60
488.62	304.61
488.99	306.60
489.35	308.78
489.72	311.13
490.08	313.57
490.44	315.99
490.81	318.77
491.17	321.44
491.54	324.36
491.90	327.43
492.26	330.65
492.63	334.06
492.99	337.54
493.36	341.01
493.72	344.87
494.08	348.91
494.45	353.17
494.81	357.55
495.17	362.09
495.54	366.98
495.90	372.08
496.26	377.31
496.63	382.77
496.99	388.61
497.35	394.62
497.72	400.96
498.08	407.49
498.44	414.10
498.80	421.10
499.17	428.42
499.53	436.10
499.89	444.11
500.26	452.10
500.62	460.48
500.98	469.32
501.34	478.41
501.71	487.82
502.07	497.46
502.43	507.57
502.79	517.85
503.16	528.47
503.52	539.31
503.88	550.53
504.24	562.26
504.60	574.04
504.97	586.20
505.33	598.58
505.69	611.82
506.05	625.47
506.41	639.07
506.78	653.05
507.14	667.22
507.50	681.89
507.86	696.86
508.22	712.08
508.59	727.51
508.95	743.43
509.31	759.57
509.67	776.16
510.03	792.99
510.39	810.50
510.75	828.26
511.12	846.18
511.48	864.33
511.84	882.98
512.20	901.74
512.56	921.19
512.92	940.84
513.28	960.29
513.64	979.80
514.00	999.82
514.37	1020.30
514.73	1041.15
515.09	1061.74
515.45	1082.72
515.81	1104.17
516.17	1125.70
516.53	1147.02
516.89	1168.61
517.25	1190.35
517.61	1212.09
517.97	1233.58
518.33	1255.02
518.69	1276.74
519.05	1298.99
519.41	1320.97
519.77	1343.67
520.13	1365.57
520.49	1387.64
520.85	1410.23
521.21	1432.80
521.57	1455.71
521.93	1477.63
522.29	1500.35
522.65	1523.11
523.01	1545.63
523.37	1567.44
523.73	1589.72
524.09	1611.90
524.45	1634.20
524.81	1656.49
525.17	1678.86
525.53	1701.53
525.89	1724.01
526.25	1746.40
526.61	1767.73
526.97	1789.36
527.33	1810.65
527.68	1832.24
528.04	1853.21
528.40	1873.85
528.76	1894.63
529.12	1915.29
529.48	1937.13
529.84	1957.53
530.20	1977.53
530.56	1997.75
530.91	2018.95
531.27	2039.16
531.63	2059.12
531.99	2078.93
532.35	2098.26
532.71	2117.33
533.07	2136.82
533.42	2155.34
533.78	2173.99
534.14	2192.67
534.50	2210.12
534.86	2228.27
535.21	2245.07
535.57	2263.23
535.93	2280.51
536.29	2297.28
536.65	2313.94
537.00	2329.07
537.36	2344.55
537.72	2360.16
538.08	2375.79
538.44	2390.67
538.79	2406.29
539.15	2421.52
539.51	2436.49
539.87	2451.51
540.22	2465.96
540.58	2480.53
540.94	2494.95
541.29	2507.85
541.65	2519.99
542.01	2533.34
542.37	2545.21
542.72	2557.76
543.08	2568.50
543.44	2580.31
543.79	2590.75
544.15	2601.00
544.51	2612.22
544.87	2623.21
545.22	2632.40
545.58	2640.83
545.94	2648.31
546.29	2655.11
546.65	2661.39
547.01	2667.35
547.36	2673.61
547.72	2678.89
548.07	2682.82
548.43	2686.77
548.79	2690.70
549.14	2695.39
549.50	2699.78
549.86	2703.68
550.21	2707.76
550.57	2711.97
550.92	2714.65
551.28	2717.35
551.64	2720.05
551.99	2722.20
552.35	2723.75
552.70	2726.58
553.06	2729.24
553.41	2732.21
553.77	2734.97
554.13	2737.24
554.48	2739.55
554.84	2740.44
555.19	2741.48
555.55	2742.47
555.90	2743.33
556.26	2743.88
556.61	2744.06
556.97	2742.55
557.32	2742.18
557.68	2740.48
558.03	2739.10
558.39	2737.72
558.74	2737.58
559.10	2736.54
559.45	2735.17
559.81	2733.95
560.16	2731.23
560.52	2728.75
560.87	2725.70
561.23	2721.83
561.58	2719.75
561.94	2716.43
562.29	2712.95
562.64	2710.69
563.00	2708.04
563.35	2705.68
563.71	2704.00
564.06	2701.71
564.42	2700.15
564.77	2697.66
565.12	2696.06
565.48	2692.73
565.83	2690.01
566.19	2686.49
566.54	2682.03
566.89	2677.88
567.25	2674.35
567.60	2671.03
567.96	2667.41
568.31	2663.82
568.66	2660.05
569.02	2654.96
569.37	2649.87
569.72	2646.12
570.08	2640.65
570.43	2634.66
570.78	2628.65
571.14	2622.38
571.49	2615.84
571.84	2609.62
572.20	2602.78
572.55	2595.83
572.90	2589.04
573.26	2581.81
573.61	2574.78
573.96	2568.37
574.31	2560.50
574.67	2551.94
575.02	2543.38
575.37	2534.70
575.72	2525.74
576.08	2518.13
576.43	2509.75
576.78	2501.85
577.13	2493.50
577.49	2485.46
577.84	2477.91
578.19	2470.45
578.54	2463.07
578.90	2456.28
579.25	2447.61
579.60	2438.73
579.95	2429.37
580.30	2421.28
580.66	2413.01
581.01	2403.90
581.36	2394.25
581.71	2385.89
582.06	2377.52
582.42	2369.38
582.77	2360.63
583.12	2351.95
583.47	2343.25
583.82	2334.91
584.17	2325.48
584.53	2316.42
584.88	2307.86
585.23	2298.63
585.58	2289.09
585.93	2279.09
586.28	2269.37
586.63	2260.32
586.98	2251.82
587.34	2243.51
587.69	2234.39
588.04	2225.19
588.39	2217.04
588.74	2208.32
589.09	2199.54
589.44	2189.85
589.79	2181.36
590.14	2173.52
590.49	2165.29
590.84	2155.93
591.19	2147.64
591.54	2139.01
591.89	2128.76
592.25	2119.48
592.60	2110.44
592.95	2101.04
593.30	2091.49
593.65	2081.70
594.00	2072.11
594.35	2064.14
594.70	2054.79
595.05	2046.17
595.40	2037.53
595.75	2027.66
596.10	2019.60
596.45	2011.20
596.80	2003.61
597.15	1994.96
597.50	1985.51
597.85	1976.78
598.19	1968.20
598.54	1959.73
598.89	1951.93
599.24	1945.49
599.59	1937.75
599.94	1930.39
600.29	1922.54
600.64	1914.92
600.99	1906.69
601.34	1899.56
601.69	1890.23
602.04	1882.24
602.39	1874.20
602.74	1866.20
603.08	1859.41
603.43	1852.04
603.78	1843.96
604.13	1835.75
604.48	1827.95
604.83	1821.04
605.18	1813.82
605.53	1806.50
605.87	1798.72
606.22	1791.59
606.57	1783.65
606.92	1775.69
607.27	1767.40
607.62	1759.98
607.96	1753.17
608.31	1746.95
608.66	1739.14
609.01	1731.62
609.36	1723.94
609.70	1715.83
610.05	1708.01
610.40	1700.02
610.75	1691.35
611.10	1683.58
611.44	1674.41
611.79	1665.54
612.14	1656.29
612.49	1646.79
612.83	1637.84
613.18	1628.15
613.53	1618.56
613.88	1608.84
614.22	1600.04
614.57	1590.82
614.92	1581.43
615.27	1571.78
615.61	1561.92
615.96	1553.08
616.31	1544.61
616.65	1536.90
617.00	1528.77
617.35	1520.25
617.70	1511.19
618.04	1502.35
618.39	1492.91
618.74	1484.74
619.08	1475.91
619.43	1467.75
619.78	1459.99
620.12	1451.92
620.47	1444.13
620.82	1435.67
621.16	1427.33
621.51	1418.52
621.85	1410.40
622.20	1402.01
622.55	1393.56
622.89	1385.25
623.24	1377.14
623.59	1368.68
623.93	1359.75
624.28	1351.31
624.62	1343.05
624.97	1334.87
625.32	1327.06
625.66	1319.87
626.01	1312.54
626.35	1305.35
626.70	1297.73
627.04	1290.15
627.39	1282.41
627.73	1275.05
628.08	1268.16
628.43	1260.78
628.77	1253.59
629.12	1246.03
629.46	1239.36
629.81	1232.23
630.15	1225.15
630.50	1217.70
630.84	1210.23
631.19	1203.08
631.53	1196.24
631.88	1188.71
632.22	1181.23
632.57	1174.21
632.91	1166.58
633.26	1159.00
633.60	1152.01
633.95	1144.95
634.29	1137.69
634.64	1131.10
634.98	1123.99
635.32	1116.95
635.67	1110.72
636.01	1103.98
636.36	1097.28
636.70	1090.47
637.05	1084.10
637.39	1077.75
637.73	1071.42
638.08	1065.71
638.42	1059.86
638.77	1053.27
639.11	1046.71
639.45	1040.88
639.80	1034.25
640.14	1027.78
640.49	1021.63
640.83	1015.24
641.17	1009.11
641.52	1003.10
641.86	996.53
642.20	990.17
642.55	983.46
642.89	976.82
643.23	970.53
643.58	964.59
643.92	958.20
644.26	951.88
644.61	945.93
644.95	940.01
645.29	933.35
645.64	926.46
645.98	920.28
646.32	914.54
646.66	908.12
647.01	902.33
647.35	896.72
647.69	890.36
648.04	884.35
648.38	878.07
648.72	871.98
649.06	865.75
649.41	859.76
649.75	854.00
650.09	848.08
650.43	842.14
650.78	835.93
651.12	829.95
651.46	824.10
651.80	817.89
652.14	811.87
652.49	806.16
652.83	800.46
653.17	794.49
653.51	788.73
653.85	783.15
654.20	777.17
654.54	771.23
654.88	765.81
655.22	760.02
655.56	754.14
655.90	748.31
656.25	742.61
656.59	737.22
656.93	732.08
657.27	726.93
657.61	721.46
657.95	716.26
658.29	711.25
658.64	706.19
658.98	700.92
659.32	695.42
659.66	690.14
660.00	684.79
660.34	679.65
660.68	674.44
661.02	669.24
661.36	664.48
661.70	659.75
662.05	654.95
662.39	650.51
662.73	646.17
663.07	641.71
663.41	637.50
663.75	632.98
664.09	628.19
664.43	623.46
664.77	619.04
665.11	614.65
665.45	610.20
665.79	605.77
666.13	601.49
666.47	597.33
666.81	593.26
667.15	589.37
667.49	585.41
667.83	581.54
668.17	577.73
668.51	573.86
668.85	570.09
669.19	566.45
669.53	562.52
669.87	558.46
670.21	554.74
670.55	550.86
670.89	547.26
671.23	543.81
671.57	540.39
671.91	536.91
672.25	533.40
672.58	529.78
672.92	526.30
673.26	522.95
673.60	519.66
673.94	516.31
674.28	513.01
674.62	509.79
674.96	506.66
675.30	503.55
675.64	500.41
675.97	497.14
676.31	494.06
676.65	491.05
676.99	488.41
677.33	485.33
677.67	482.38
678.01	479.36
678.34	476.41
678.68	473.51
679.02	470.56
679.36	467.74
679.70	464.90
680.04	462.05
680.37	459.13
680.71	456.38
681.05	453.64
681.39	450.98
681.73	448.25
682.06	445.69
682.40	443.13
682.74	440.54
683.08	438.15
683.42	435.47
683.75	432.97
684.09	430.30
684.43	427.80
684.77	425.36
685.10	422.77
685.44	420.15
685.78	417.76
686.12	415.46
686.45	413.13
686.79	410.95
687.13	408.77
687.46	406.65
687.80	404.46
688.14	402.24
688.48	400.02
688.81	397.90
689.15	395.54
689.49	393.24
689.82	390.91
690.16	388.56
690.50	386.30
690.83	384.10
691.17	381.97
691.51	379.88
691.84	377.70
692.18	375.66
692.52	373.79
692.85	371.81
693.19	369.85
693.52	367.84
693.86	365.84
694.20	363.97
694.53	362.16
694.87	360.11
695.21	358.22
695.54	356.25
695.88	354.25
696.21	352.50
696.55	350.72
696.88	349.08
697.22	347.34
697.56	345.90
697.89	344.24
698.23	342.52
698.56	340.89
698.90	339.45
699.23	337.96
699.57	336.36
699.90	334.64
700.24	333.04
700.58	331.50
700.91	329.92
701.25	328.50
701.58	326.89
701.92	325.56
702.25	324.15
702.59	322.83
702.92	321.59
703.26	320.27
703.59	319.02
703.93	317.91
704.26	316.63
704.60	315.21
704.93	313.96
705.26	312.79
705.60	311.62
705.93	310.34
706.27	309.05
706.60	308.00
706.94	306.95
707.27	305.74
707.61	304.61
707.94	303.45
708.27	302.13
708.61	301.05
708.94	299.98
709.28	298.90
709.61	297.75
709.94	296.62
710.28	295.52
710.61	294.41
710.95	293.14
711.28	292.15
711.61	291.15
711.95	290.16
712.28	289.08
712.61	287.97
712.95	287.00
713.28	286.08
713.61	284.97
713.95	283.97
714.28	283.12
714.61	282.16
714.95	281.40
715.28	280.45
715.61	279.44
715.95	278.41
716.28	277.46
716.61	276.57
716.95	275.72
717.28	274.89
717.61	274.15
717.94	273.36
718.28	272.47
718.61	271.65
718.94	270.87
719.27	270.14
719.61	269.47
719.94	268.78
720.27	268.08
720.60	267.34
720.94	266.71
721.27	266.02
721.60	265.46
721.93	264.72
722.27	264.14
722.60	263.64
722.93	263.16
723.26	262.67
723.59	262.15
723.93	261.60
724.26	261.00
724.59	260.28
724.92	259.75
725.25	259.23
725.59	258.69
725.92	258.17
726.25	257.70
726.58	257.24
726.91	256.73
727.24	256.22
727.57	255.70
727.91	255.15
728.24	254.65
728.57	254.07
728.90	253.60
729.23	253.06
729.56	252.72
729.89	252.16
730.22	251.67
730.55	251.19
730.89	250.71
731.22	250.26
731.55	249.83
731.88	249.29
732.21	248.85
732.54	248.40
732.87	247.94
733.20	247.41
733.53	246.94
733.86	246.48
734.19	245.97
734.52	245.66
734.85	245.41
735.18	245.00
735.51	244.70
735.84	244.37
736.17	244.11
736.50	243.60
736.83	243.44
737.16	243.03
737.49	242.71
737.82	242.32
738.15	241.97
738.48	241.70
738.81	241.48
739.14	241.08
739.47	240.77
739.80	240.38
740.13	240.03
740.46	239.58
740.79	239.24
741.12	238.93
741.45	238.57
741.78	238.14
742.11	237.88
742.44	237.53
742.77	237.18
743.10	236.79
743.43	236.46
743.75	236.00
744.08	235.93
744.41	235.61
744.74	235.27
745.07	234.92
745.40	234.63
745.73	234.34
746.06	234.02
746.39	233.81
746.71	233.51
747.04	233.30
747.37	233.03
747.70	232.77
748.03	232.55
748.36	232.34
748.68	232.05
749.01	231.79
749.34	231.46
749.67	231.18
750.00	231.00
750.33	230.88
750.65	230.64
750.98	230.06
751.31	229.84
751.64	229.67
751.97	229.57
752.29	229.35
752.62	229.08
752.95	228.93
753.28	228.63
753.60	228.41
753.93	228.20
754.26	228.08
754.59	227.85
754.91	227.55
755.24	227.34
755.57	227.11
755.90	226.89
756.22	226.68
756.55	226.60
756.88	226.40
757.20	226.17
757.53	225.88
757.86	225.80
758.19	225.58
758.51	225.37
758.84	225.06
759.17	224.81
759.49	224.71
759.82	224.59
760.15	224.45
760.47	224.32
760.80	224.18
761.13	224.02
761.45	223.86
761.78	223.74
762.11	223.56
762.43	223.41
762.76	223.20
763.08	223.08
763.41	222.93
763.74	222.78
764.06	222.61
764.39	222.51
764.71	222.33
765.04	222.22
765.37	222.16
765.69	222.07
766.02	222.03
766.34	221.84
766.67	221.66
767.00	221.51
767.32	221.47
767.65	221.44
767.97	221.35
768.30	221.21
768.62	221.15
768.95	221.05
769.27	220.95
769.60	220.92
769.92	220.88
770.25	220.73
770.57	220.57
770.90	220.43
771.22	220.27
771.55	220.18
771.87	220.09
772.20	219.93
772.52	219.97
772.85	220.04
773.17	219.93
773.50	219.82
773.82	219.76
774.15	219.55
774.47	219.38
774.80	219.23
775.12	219.18
775.45	219.02
775.77	218.95
776.09	218.85
776.42	218.83
776.74	218.75
777.07	218.68
777.39	218.61
777.72	218.55
778.04	218.51
778.36	218.45
778.69	218.37
779.01	218.32
779.33	218.10
779.66	217.72
779.98	217.66
780.31	217.63
780.63	217.61
780.95	217.56
781.28	217.44
781.60	217.33
781.92	217.30
782.25	217.22
782.57	217.17
782.89	217.10
783.22	216.98
783.54	216.84
783.86	216.73
784.19	216.59
784.51	216.60
784.83	216.56
785.16	216.51
785.48	216.44
785.80	216.37
786.12	216.30
786.45	216.30
