SpectraSuite Data File
++++++++++++++++++++++++++++++++++++
Date: Mon Feb 25 17:35:49 EST 2013
User: group
Dark Spectrum Present: No
Reference Spectrum Present: No
Number of Sampled Component Spectra: 1
Spectrometers: USB2E7196
Integration Time (usec): 52000 (USB2E7196)
Spectra Averaged: 20 (USB2E7196)
Boxcar Smoothing: 10 (USB2E7196)
Correct for Electrical Dark: No (USB2E7196)
Strobe/Lamp Enabled: No (USB2E7196)
Correct for Detector Non-linearity: No (USB2E7196)
Correct for Stray Light: No (USB2E7196)
Number of Pixels in Processed Spectrum: 2048
>>>>>Begin Processed Spectral Data<<<<<
339.09	0.00
339.48	198.20
339.86	200.30
340.24	202.80
340.63	203.25
341.01	207.95
341.39	206.70
341.78	208.15
342.16	208.90
342.54	209.00
342.93	198.50
343.31	208.55
343.69	209.12
344.07	209.54
344.46	209.96
344.84	210.34
345.22	210.50
345.60	210.78
345.99	210.95
346.37	211.04
346.75	211.15
347.13	211.30
347.52	211.39
347.90	211.47
348.28	211.51
348.66	211.46
349.05	211.40
349.43	211.48
349.81	211.53
350.19	211.53
350.57	211.63
350.96	211.67
351.34	211.69
351.72	211.80
352.10	211.95
352.48	211.93
352.87	211.97
353.25	211.98
353.63	212.00
354.01	212.05
354.39	212.21
354.77	212.26
355.15	212.32
355.54	212.37
355.92	212.41
356.30	212.42
356.68	212.60
357.06	212.67
357.44	212.75
357.82	212.80
358.20	212.85
358.58	212.92
358.97	212.99
359.35	213.15
359.73	213.28
360.11	213.35
360.49	213.42
360.87	213.43
361.25	213.50
361.63	213.60
362.01	213.61
362.39	213.57
362.77	213.58
363.15	213.56
363.53	213.59
363.91	213.59
364.29	213.60
364.67	213.49
365.05	213.54
365.43	213.55
365.81	213.57
366.19	213.65
366.57	213.75
366.95	213.72
367.33	213.70
367.71	213.65
368.09	213.69
368.47	213.66
368.85	213.76
369.23	213.76
369.61	213.65
369.99	213.69
370.37	213.71
370.75	213.77
371.13	213.78
371.51	213.69
371.89	213.71
372.27	213.66
372.65	213.62
373.03	213.56
373.41	213.54
373.78	213.54
374.16	213.43
374.54	213.30
374.92	213.30
375.30	213.16
375.68	213.09
376.06	213.02
376.44	213.04
376.82	212.93
377.19	212.90
377.57	212.89
377.95	212.85
378.33	212.79
378.71	212.68
379.09	212.63
379.47	212.63
379.84	212.52
380.22	212.50
380.60	212.42
380.98	212.37
381.36	212.29
381.73	212.17
382.11	212.13
382.49	212.15
382.87	212.06
383.25	212.06
383.62	212.20
384.00	212.14
384.38	212.10
384.76	212.17
385.13	212.19
385.51	212.23
385.89	212.17
386.27	212.09
386.64	212.13
387.02	212.15
387.40	212.17
387.78	212.19
388.15	212.21
388.53	212.23
388.91	212.23
389.29	212.15
389.66	212.19
390.04	212.20
390.42	212.12
390.79	212.14
391.17	212.12
391.55	211.95
391.92	211.92
392.30	211.95
392.68	211.86
393.05	211.86
393.43	211.77
393.81	211.73
394.18	211.70
394.56	211.65
394.94	211.61
395.31	211.54
395.69	211.54
396.06	211.53
396.44	211.55
396.82	211.53
397.19	211.63
397.57	211.59
397.95	211.59
398.32	211.56
398.70	211.61
399.07	211.70
399.45	211.70
399.82	211.74
400.20	211.71
400.58	211.80
400.95	211.78
401.33	211.83
401.70	212.04
402.08	212.18
402.45	212.19
402.83	212.27
403.20	212.36
403.58	212.45
403.95	212.57
404.33	212.69
404.71	212.83
405.08	213.06
405.46	213.20
405.83	213.34
406.21	213.48
406.58	213.63
406.96	213.81
407.33	214.00
407.70	214.17
408.08	214.48
408.45	214.63
408.83	214.90
409.20	215.10
409.58	215.21
409.95	215.47
410.33	215.78
410.70	216.10
411.08	216.48
411.45	216.85
411.82	217.18
412.20	217.59
412.57	218.08
412.95	218.44
413.32	218.93
413.69	219.49
414.07	220.10
414.44	220.62
414.82	221.25
415.19	222.04
415.56	222.82
415.94	223.60
416.31	224.54
416.68	225.44
417.06	226.54
417.43	227.55
417.81	228.63
418.18	229.79
418.55	230.95
418.93	232.23
419.30	233.56
419.67	234.96
420.04	236.46
420.42	237.99
420.79	239.81
421.16	241.61
421.54	243.47
421.91	245.30
422.28	247.29
422.66	249.34
423.03	251.36
423.40	253.44
423.77	255.63
424.15	257.82
424.52	260.17
424.89	262.71
425.26	265.19
425.64	267.53
426.01	270.15
426.38	272.88
426.75	275.67
427.13	278.50
427.50	281.50
427.87	284.62
428.24	287.68
428.61	290.45
428.99	293.74
429.36	297.31
429.73	300.77
430.10	304.35
430.47	307.91
430.85	311.57
431.22	315.48
431.59	319.65
431.96	323.67
432.33	328.06
432.70	332.30
433.08	337.36
433.45	342.09
433.82	346.75
434.19	351.93
434.56	356.89
434.93	361.71
435.30	366.65
435.68	371.75
436.05	377.03
436.42	382.40
436.79	387.01
437.16	392.08
437.53	397.47
437.90	402.66
438.27	407.90
438.64	413.23
439.01	418.28
439.38	422.81
439.75	427.08
440.13	432.10
440.50	436.67
440.87	440.33
441.24	444.17
441.61	448.35
441.98	451.50
442.35	455.10
442.72	458.86
443.09	462.32
443.46	464.50
443.83	465.83
444.20	467.00
444.57	468.88
444.94	469.60
445.31	470.43
445.68	471.31
446.05	471.65
446.42	471.11
446.79	470.35
447.16	469.49
447.53	468.84
447.90	466.62
448.27	464.46
448.64	461.57
449.01	459.44
449.37	455.85
449.74	452.34
450.11	448.31
450.48	443.68
450.85	438.98
451.22	435.03
451.59	431.23
451.96	427.55
452.33	422.82
452.70	418.36
453.07	413.15
453.43	407.83
453.80	402.64
454.17	397.89
454.54	393.27
454.91	388.32
455.28	383.48
455.65	378.99
456.02	374.74
456.38	371.00
456.75	366.36
457.12	362.45
457.49	358.52
457.86	354.68
458.23	351.53
458.59	348.02
458.96	344.52
459.33	341.39
459.70	338.20
460.07	335.63
460.43	332.82
460.80	330.19
461.17	327.69
461.54	325.22
461.91	322.76
462.27	320.40
462.64	318.36
463.01	316.20
463.38	314.06
463.74	311.69
464.11	309.73
464.48	308.00
464.85	306.24
465.21	304.91
465.58	303.48
465.95	301.67
466.32	300.22
466.68	298.73
467.05	297.27
467.42	295.89
467.78	294.34
468.15	293.03
468.52	291.99
468.88	290.76
469.25	289.64
469.62	288.68
469.98	287.67
470.35	286.72
470.72	285.89
471.08	284.85
471.45	284.19
471.82	283.45
472.18	282.64
472.55	282.06
472.92	281.25
473.28	280.60
473.65	280.00
474.02	279.43
474.38	279.03
474.75	278.67
475.11	278.24
475.48	278.01
475.85	277.68
476.21	277.45
476.58	277.35
476.94	277.19
477.31	277.09
477.67	277.01
478.04	277.05
478.41	277.09
478.77	277.47
479.14	277.60
479.50	277.84
479.87	278.18
480.23	278.50
480.60	278.97
480.96	279.39
481.33	280.03
481.69	280.68
482.06	281.34
482.42	281.99
482.79	282.80
483.15	283.60
483.52	284.59
483.88	285.47
484.25	286.34
484.61	287.40
484.98	288.45
485.34	289.77
485.71	291.04
486.07	292.36
486.44	293.69
486.80	295.14
487.17	296.60
487.53	298.32
487.90	300.17
488.26	302.02
488.62	304.04
488.99	306.12
489.35	308.12
489.72	310.28
490.08	312.74
490.44	315.18
490.81	317.76
491.17	320.43
491.54	323.44
491.90	326.42
492.26	329.61
492.63	333.06
492.99	336.43
493.36	340.13
493.72	344.01
494.08	348.03
494.45	352.37
494.81	356.90
495.17	361.54
495.54	366.47
495.90	371.55
496.26	376.80
496.63	382.26
496.99	388.13
497.35	394.28
497.72	400.53
498.08	407.04
498.44	413.94
498.80	421.14
499.17	428.43
499.53	436.27
499.89	444.36
500.26	452.45
500.62	460.90
500.98	469.78
501.34	479.01
501.71	488.46
502.07	498.12
502.43	508.33
502.79	518.67
503.16	529.26
503.52	540.10
503.88	551.30
504.24	562.98
504.60	574.96
504.97	587.33
505.33	599.93
505.69	613.19
506.05	626.58
506.41	640.23
506.78	654.17
507.14	668.43
507.50	682.93
507.86	698.15
508.22	713.76
508.59	729.30
508.95	745.22
509.31	761.58
509.67	778.24
510.03	795.01
510.39	812.71
510.75	830.67
511.12	848.75
511.48	867.20
511.84	886.02
512.20	904.65
512.56	923.88
512.92	943.35
513.28	962.91
513.64	982.84
514.00	1002.96
514.37	1023.39
514.73	1044.23
515.09	1065.16
515.45	1085.87
515.81	1106.82
516.17	1128.40
516.53	1149.80
516.89	1171.50
517.25	1193.08
517.61	1214.91
517.97	1236.19
518.33	1257.65
518.69	1279.91
519.05	1302.37
519.41	1324.44
519.77	1347.19
520.13	1369.62
520.49	1391.93
520.85	1414.98
521.21	1437.52
521.57	1460.67
521.93	1482.73
522.29	1505.63
522.65	1528.30
523.01	1551.22
523.37	1573.65
523.73	1595.98
524.09	1618.34
524.45	1640.87
524.81	1663.65
525.17	1686.71
525.53	1709.71
525.89	1732.40
526.25	1754.47
526.61	1775.83
526.97	1797.66
527.33	1819.19
527.68	1840.91
528.04	1862.26
528.40	1882.77
528.76	1903.89
529.12	1924.45
529.48	1946.93
529.84	1967.51
530.20	1988.38
530.56	2008.98
530.91	2029.95
531.27	2050.76
531.63	2071.18
531.99	2090.93
532.35	2110.33
532.71	2129.21
533.07	2148.80
533.42	2167.65
533.78	2187.00
534.14	2205.86
534.50	2223.60
534.86	2241.75
535.21	2258.80
535.57	2277.28
535.93	2295.05
536.29	2312.27
536.65	2329.34
537.00	2344.71
537.36	2360.28
537.72	2375.36
538.08	2390.76
538.44	2406.27
538.79	2421.58
539.15	2436.70
539.51	2451.81
539.87	2467.28
540.22	2482.01
540.58	2497.17
540.94	2511.97
541.29	2524.97
541.65	2537.57
542.01	2550.89
542.37	2562.89
542.72	2574.91
543.08	2585.85
543.44	2597.77
543.79	2608.13
544.15	2618.47
544.51	2629.31
544.87	2640.78
545.22	2650.65
545.58	2659.53
545.94	2666.66
546.29	2673.71
546.65	2680.42
547.01	2686.79
547.36	2692.39
547.72	2698.55
548.07	2702.75
548.43	2706.99
548.79	2711.08
549.14	2716.30
549.50	2721.13
549.86	2725.61
550.21	2730.49
550.57	2734.75
550.92	2737.49
551.28	2740.43
551.64	2743.41
551.99	2746.37
552.35	2748.02
552.70	2750.54
553.06	2753.46
553.41	2757.23
553.77	2760.16
554.13	2762.38
554.48	2764.62
554.84	2766.70
555.19	2767.05
555.55	2767.80
555.90	2768.40
556.26	2769.29
556.61	2769.06
556.97	2767.67
557.32	2767.60
557.68	2765.60
558.03	2764.55
558.39	2763.21
558.74	2762.93
559.10	2761.58
559.45	2759.60
559.81	2758.67
560.16	2756.23
560.52	2753.95
560.87	2751.11
561.23	2747.50
561.58	2745.39
561.94	2742.09
562.29	2738.31
562.64	2736.41
563.00	2733.97
563.35	2731.80
563.71	2729.94
564.06	2728.10
564.42	2726.54
564.77	2724.00
565.12	2722.40
565.48	2719.11
565.83	2716.10
566.19	2713.04
566.54	2709.07
566.89	2705.50
567.25	2701.68
567.60	2698.57
567.96	2695.26
568.31	2691.89
568.66	2687.95
569.02	2683.26
569.37	2678.59
569.72	2674.67
570.08	2669.25
570.43	2663.51
570.78	2657.85
571.14	2651.28
571.49	2644.32
571.84	2638.14
572.20	2631.29
572.55	2624.43
572.90	2617.51
573.26	2610.49
573.61	2603.14
573.96	2596.61
574.31	2588.88
574.67	2580.33
575.02	2571.91
575.37	2562.60
575.72	2553.46
576.08	2545.86
576.43	2536.98
576.78	2529.06
577.13	2521.22
577.49	2513.14
577.84	2505.36
578.19	2497.38
578.54	2489.96
578.90	2483.00
579.25	2474.16
579.60	2465.06
579.95	2455.89
580.30	2447.68
580.66	2439.55
581.01	2430.52
581.36	2421.10
581.71	2412.60
582.06	2404.19
582.42	2395.79
582.77	2386.87
583.12	2377.72
583.47	2369.07
583.82	2360.92
584.17	2351.42
584.53	2342.30
584.88	2333.15
585.23	2323.55
585.58	2313.74
585.93	2304.18
586.28	2294.49
586.63	2285.54
586.98	2277.10
587.34	2268.85
587.69	2259.62
588.04	2250.07
588.39	2241.52
588.74	2232.67
589.09	2223.70
589.44	2213.86
589.79	2205.00
590.14	2196.86
590.49	2188.64
590.84	2179.31
591.19	2171.27
591.54	2162.48
591.89	2152.07
592.25	2142.61
592.60	2132.99
592.95	2123.65
593.30	2113.88
593.65	2104.16
594.00	2094.59
594.35	2085.91
594.70	2076.41
595.05	2067.45
595.40	2058.88
595.75	2049.13
596.10	2040.41
596.45	2031.88
596.80	2024.30
597.15	2015.88
597.50	2006.88
597.85	1998.07
598.19	1989.29
598.54	1980.20
598.89	1972.27
599.24	1965.49
599.59	1958.17
599.94	1951.35
600.29	1943.49
600.64	1935.40
600.99	1926.94
601.34	1919.67
601.69	1910.99
602.04	1902.86
602.39	1894.74
602.74	1886.59
603.08	1879.76
603.43	1872.20
603.78	1863.72
604.13	1855.45
604.48	1847.26
604.83	1839.85
605.18	1832.44
605.53	1824.59
605.87	1816.69
606.22	1809.28
606.57	1801.05
606.92	1792.59
607.27	1784.30
607.62	1776.58
607.96	1769.45
608.31	1762.95
608.66	1754.58
609.01	1746.69
609.36	1738.80
609.70	1730.83
610.05	1722.84
610.40	1714.38
610.75	1706.02
611.10	1698.17
611.44	1688.82
611.79	1679.71
612.14	1670.38
612.49	1660.69
612.83	1652.01
613.18	1642.28
613.53	1632.73
613.88	1622.69
614.22	1613.57
614.57	1603.95
614.92	1594.68
615.27	1585.28
615.61	1575.30
615.96	1566.50
616.31	1558.02
616.65	1549.92
617.00	1541.23
617.35	1532.46
617.70	1523.63
618.04	1514.48
618.39	1504.99
618.74	1496.48
619.08	1487.89
619.43	1479.66
619.78	1471.75
620.12	1463.55
620.47	1455.93
620.82	1447.28
621.16	1439.12
621.51	1430.88
621.85	1422.57
622.20	1414.05
622.55	1405.52
622.89	1397.37
623.24	1389.27
623.59	1380.33
623.93	1371.62
624.28	1363.55
624.62	1355.34
624.97	1346.98
625.32	1339.09
625.66	1331.95
626.01	1324.71
626.35	1317.32
626.70	1309.55
627.04	1301.90
627.39	1294.02
627.73	1286.31
628.08	1279.54
628.43	1272.03
628.77	1264.36
629.12	1256.97
629.46	1250.35
629.81	1243.18
630.15	1235.64
630.50	1228.04
630.84	1220.96
631.19	1213.57
631.53	1206.55
631.88	1198.80
632.22	1191.25
632.57	1184.24
632.91	1176.41
633.26	1168.66
633.60	1161.58
633.95	1154.55
634.29	1147.10
634.64	1140.45
634.98	1133.09
635.32	1125.62
635.67	1119.17
636.01	1112.55
636.36	1105.84
636.70	1098.95
637.05	1092.33
637.39	1086.11
637.73	1079.54
638.08	1073.65
638.42	1067.80
638.77	1061.15
639.11	1054.81
639.45	1048.69
639.80	1042.03
640.14	1035.60
640.49	1029.51
640.83	1023.05
641.17	1016.57
641.52	1010.58
641.86	1003.90
642.20	997.80
642.55	991.07
642.89	984.45
643.23	978.08
643.58	972.01
643.92	965.30
644.26	958.75
644.61	952.52
644.95	946.46
645.29	939.85
645.64	933.08
645.98	926.79
646.32	921.02
646.66	914.69
647.01	908.65
647.35	902.77
647.69	896.26
648.04	890.09
648.38	884.15
648.72	878.00
649.06	871.81
649.41	865.60
649.75	859.85
650.09	853.93
650.43	847.89
650.78	841.64
651.12	835.72
651.46	829.94
651.80	823.88
652.14	817.86
652.49	811.95
652.83	806.23
653.17	800.20
653.51	794.29
653.85	788.73
654.20	782.86
654.54	777.04
654.88	771.57
655.22	765.76
655.56	759.75
655.90	753.88
656.25	748.31
656.59	742.71
656.93	737.41
657.27	732.24
657.61	726.64
657.95	721.30
658.29	716.03
658.64	710.95
658.98	705.69
659.32	700.34
659.66	695.22
660.00	689.72
660.34	684.34
660.68	679.01
661.02	673.69
661.36	668.88
661.70	664.10
662.05	659.42
662.39	655.00
662.73	650.65
663.07	646.37
663.41	641.89
663.75	637.42
664.09	632.74
664.43	627.93
664.77	623.48
665.11	619.06
665.45	614.62
665.79	610.11
666.13	605.76
666.47	601.55
666.81	597.16
667.15	593.04
667.49	589.23
667.83	585.26
668.17	581.50
668.51	577.66
668.85	573.86
669.19	570.06
669.53	566.07
669.87	561.99
670.21	558.06
670.55	554.07
670.89	550.54
671.23	547.22
671.57	543.78
671.91	540.32
672.25	536.74
672.58	533.22
672.92	529.70
673.26	526.45
673.60	523.17
673.94	519.90
674.28	516.75
674.62	513.61
674.96	510.42
675.30	507.19
675.64	503.88
675.97	500.62
676.31	497.53
676.65	494.52
676.99	491.75
677.33	488.69
677.67	485.77
678.01	482.55
678.34	479.42
678.68	476.43
679.02	473.32
679.36	470.54
679.70	467.66
680.04	464.66
680.37	461.56
680.71	458.66
681.05	455.90
681.39	453.08
681.73	450.30
682.06	447.63
682.40	445.05
682.74	442.48
683.08	439.87
683.42	437.14
683.75	434.75
684.09	432.05
684.43	429.58
684.77	426.99
685.10	424.57
685.44	421.93
685.78	419.38
686.12	417.12
686.45	414.68
686.79	412.27
687.13	410.31
687.46	408.16
687.80	405.96
688.14	403.59
688.48	401.51
688.81	399.26
689.15	397.11
689.49	394.77
689.82	392.42
690.16	390.12
690.50	387.78
690.83	385.41
691.17	383.17
691.51	381.01
691.84	378.83
692.18	376.68
692.52	374.73
692.85	372.87
693.19	370.98
693.52	369.03
693.86	367.13
694.20	365.12
694.53	363.25
694.87	361.25
695.21	359.35
695.54	357.26
695.88	355.29
696.21	353.43
696.55	351.70
696.88	349.98
697.22	348.10
697.56	346.49
697.89	344.77
698.23	343.20
698.56	341.58
698.90	340.15
699.23	338.55
699.57	336.89
699.90	335.14
700.24	333.43
700.58	331.75
700.91	330.20
701.25	328.73
701.58	327.31
701.92	325.89
702.25	324.42
702.59	323.04
702.92	321.71
703.26	320.24
703.59	318.88
703.93	317.74
704.26	316.53
704.60	315.28
704.93	314.07
705.26	312.77
705.60	311.50
705.93	310.20
706.27	309.02
706.60	307.94
706.94	306.90
707.27	305.76
707.61	304.73
707.94	303.57
708.27	302.26
708.61	301.01
708.94	299.86
709.28	298.80
709.61	297.65
709.94	296.55
710.28	295.50
710.61	294.44
710.95	293.22
711.28	292.28
711.61	291.23
711.95	290.18
712.28	289.19
712.61	288.16
712.95	287.32
713.28	286.45
713.61	285.46
713.95	284.43
714.28	283.56
714.61	282.65
714.95	281.69
715.28	280.75
715.61	279.82
715.95	278.89
716.28	278.00
716.61	277.16
716.95	276.30
717.28	275.55
717.61	274.76
717.94	273.97
718.28	273.09
718.61	272.31
718.94	271.57
719.27	270.75
719.61	269.99
719.94	269.18
720.27	268.36
720.60	267.64
720.94	266.96
721.27	266.23
721.60	265.52
721.93	264.98
722.27	264.42
722.60	263.79
722.93	263.23
723.26	262.72
723.59	262.14
723.93	261.57
724.26	260.90
724.59	260.23
724.92	259.69
725.25	259.16
725.59	258.62
725.92	258.03
726.25	257.55
726.58	257.13
726.91	256.51
727.24	256.08
727.57	255.56
727.91	255.04
728.24	254.55
728.57	254.05
728.90	253.53
729.23	253.03
729.56	252.62
729.89	252.07
730.22	251.52
730.55	251.05
730.89	250.62
731.22	250.23
731.55	249.87
731.88	249.48
732.21	249.01
732.54	248.59
732.87	248.24
733.20	247.79
733.53	247.27
733.86	246.99
734.19	246.51
734.52	246.17
734.85	245.83
735.18	245.41
735.51	245.09
735.84	244.75
736.17	244.46
736.50	244.07
736.83	244.01
737.16	243.71
737.49	243.41
737.82	243.03
738.15	242.68
738.48	242.25
738.81	241.79
739.14	241.36
739.47	240.94
739.80	240.60
740.13	240.30
740.46	239.91
740.79	239.47
741.12	239.10
741.45	238.68
741.78	238.35
742.11	238.10
742.44	237.84
742.77	237.50
743.10	237.17
743.43	236.83
743.75	236.31
744.08	236.15
744.41	235.82
744.74	235.51
745.07	235.21
745.40	234.94
745.73	234.76
746.06	234.53
746.39	234.35
746.71	234.01
747.04	233.73
747.37	233.50
747.70	233.31
748.03	233.09
748.36	232.91
748.68	232.64
749.01	232.28
749.34	231.95
749.67	231.78
750.00	231.53
750.33	231.34
750.65	231.04
750.98	230.64
751.31	230.40
751.64	230.13
751.97	229.97
752.29	229.78
752.62	229.45
752.95	229.30
753.28	229.05
753.60	228.81
753.93	228.57
754.26	228.35
754.59	228.15
754.91	227.84
755.24	227.59
755.57	227.38
755.90	227.28
756.22	227.13
756.55	226.87
756.88	226.58
757.20	226.30
757.53	226.06
757.86	225.83
758.19	225.69
758.51	225.55
758.84	225.24
759.17	224.98
759.49	224.85
759.82	224.62
760.15	224.46
760.47	224.30
760.80	224.14
761.13	223.95
761.45	223.67
761.78	223.55
762.11	223.32
762.43	223.17
762.76	222.87
763.08	222.66
763.41	222.50
763.74	222.33
764.06	222.24
764.39	222.17
764.71	222.06
765.04	221.86
765.37	221.70
765.69	221.63
766.02	221.56
766.34	221.41
766.67	221.29
767.00	221.17
767.32	221.17
767.65	221.09
767.97	220.97
768.30	220.81
768.62	220.67
768.95	220.60
769.27	220.48
769.60	220.50
769.92	220.35
770.25	220.23
770.57	220.18
770.90	220.08
771.22	219.91
771.55	219.85
771.87	219.78
772.20	219.70
772.52	219.67
772.85	219.77
773.17	219.67
773.50	219.62
773.82	219.45
774.15	219.22
774.47	219.04
774.80	219.02
775.12	219.00
775.45	218.98
775.77	218.99
776.09	218.95
776.42	218.82
776.74	218.77
777.07	218.74
777.39	218.68
777.72	218.61
778.04	218.55
778.36	218.39
778.69	218.30
779.01	218.22
779.33	218.05
779.66	217.75
779.98	217.69
780.31	217.55
780.63	217.62
780.95	217.62
781.28	217.60
781.60	217.46
781.92	217.37
782.25	217.22
782.57	217.16
782.89	217.06
783.22	216.97
783.54	216.84
783.86	216.75
784.19	216.64
784.51	216.64
784.83	216.57
785.16	216.49
785.48	216.46
785.80	216.42
786.12	216.43
786.45	216.36
