SpectraSuite Data File
++++++++++++++++++++++++++++++++++++
Date: Mon Feb 25 17:32:10 EST 2013
User: group
Dark Spectrum Present: No
Reference Spectrum Present: No
Number of Sampled Component Spectra: 1
Spectrometers: USB2E7196
Integration Time (usec): 52000 (USB2E7196)
Spectra Averaged: 20 (USB2E7196)
Boxcar Smoothing: 10 (USB2E7196)
Correct for Electrical Dark: No (USB2E7196)
Strobe/Lamp Enabled: No (USB2E7196)
Correct for Detector Non-linearity: No (USB2E7196)
Correct for Stray Light: No (USB2E7196)
Number of Pixels in Processed Spectrum: 2048
>>>>>Begin Processed Spectral Data<<<<<
339.09	0.00
339.48	199.05
339.86	201.25
340.24	202.55
340.63	203.10
341.01	206.05
341.39	204.95
341.78	208.20
342.16	208.40
342.54	207.55
342.93	198.24
343.31	208.21
343.69	208.74
344.07	209.18
344.46	209.57
344.84	209.97
345.22	210.22
345.60	210.52
345.99	210.69
346.37	210.84
346.75	211.05
347.13	211.11
347.52	211.17
347.90	211.27
348.28	211.38
348.66	211.44
349.05	211.38
349.43	211.43
349.81	211.43
350.19	211.54
350.57	211.62
350.96	211.69
351.34	211.81
351.72	211.91
352.10	211.99
352.48	212.04
352.87	212.08
353.25	212.17
353.63	212.27
354.01	212.39
354.39	212.43
354.77	212.47
355.15	212.60
355.54	212.69
355.92	212.74
356.30	212.71
356.68	212.93
357.06	213.08
357.44	213.16
357.82	213.27
358.20	213.30
358.58	213.31
358.97	213.35
359.35	213.54
359.73	213.67
360.11	213.70
360.49	213.75
360.87	213.80
361.25	213.90
361.63	213.98
362.01	213.90
362.39	213.98
362.77	214.05
363.15	214.07
363.53	214.05
363.91	213.95
364.29	214.06
364.67	213.87
365.05	213.81
365.43	213.84
365.81	213.85
366.19	213.97
366.57	214.13
366.95	214.18
367.33	214.04
367.71	214.03
368.09	214.07
368.47	214.14
368.85	214.09
369.23	214.06
369.61	214.00
369.99	214.09
370.37	214.06
370.75	214.10
371.13	214.00
371.51	213.95
371.89	214.00
372.27	213.96
372.65	213.98
373.03	213.91
373.41	213.87
373.78	213.79
374.16	213.60
374.54	213.39
374.92	213.30
375.30	213.25
375.68	213.13
376.06	213.11
376.44	213.00
376.82	212.99
377.19	212.93
377.57	212.86
377.95	212.71
378.33	212.72
378.71	212.57
379.09	212.59
379.47	212.54
379.84	212.52
380.22	212.40
380.60	212.40
380.98	212.36
381.36	212.31
381.73	212.26
382.11	212.24
382.49	212.25
382.87	212.19
383.25	212.16
383.62	212.34
384.00	212.30
384.38	212.20
384.76	212.22
385.13	212.26
385.51	212.21
385.89	212.16
386.27	212.11
386.64	212.15
387.02	212.07
387.40	212.07
387.78	212.09
388.15	212.11
388.53	211.97
388.91	211.96
389.29	211.91
389.66	211.83
390.04	211.84
390.42	211.89
390.79	211.85
391.17	211.78
391.55	211.51
391.92	211.48
392.30	211.48
392.68	211.41
393.05	211.30
393.43	211.35
393.81	211.39
394.18	211.34
394.56	211.23
394.94	211.28
395.31	211.24
395.69	211.25
396.06	211.27
396.44	211.34
396.82	211.35
397.19	211.51
397.57	211.59
397.95	211.65
398.32	211.63
398.70	211.69
399.07	211.80
399.45	211.83
399.82	211.84
400.20	211.89
400.58	211.89
400.95	211.96
401.33	212.05
401.70	212.21
402.08	212.28
402.45	212.43
402.83	212.55
403.20	212.68
403.58	212.70
403.95	212.78
404.33	212.86
404.71	212.94
405.08	213.08
405.46	213.18
405.83	213.30
406.21	213.33
406.58	213.55
406.96	213.70
407.33	213.91
407.70	214.09
408.08	214.45
408.45	214.67
408.83	214.85
409.20	214.98
409.58	215.10
409.95	215.42
410.33	215.75
410.70	215.97
411.08	216.24
411.45	216.59
411.82	216.91
412.20	217.38
412.57	217.90
412.95	218.18
413.32	218.71
413.69	219.23
414.07	219.84
414.44	220.41
414.82	221.03
415.19	221.71
415.56	222.44
415.94	223.15
416.31	224.11
416.68	224.99
417.06	225.98
417.43	226.99
417.81	227.95
418.18	229.01
418.55	230.18
418.93	231.54
419.30	232.87
419.67	234.23
420.04	235.53
420.42	237.01
420.79	238.79
421.16	240.47
421.54	242.27
421.91	244.16
422.28	246.09
422.66	248.11
423.03	250.23
423.40	252.29
423.77	254.46
424.15	256.63
424.52	259.02
424.89	261.60
425.26	264.00
425.64	266.37
426.01	268.97
426.38	271.67
426.75	274.32
427.13	277.16
427.50	280.11
427.87	283.19
428.24	286.19
428.61	289.09
428.99	292.38
429.36	295.80
429.73	299.16
430.10	302.58
430.47	306.23
430.85	309.80
431.22	313.64
431.59	317.85
431.96	321.82
432.33	326.09
432.70	330.21
433.08	335.13
433.45	339.73
433.82	344.30
434.19	349.42
434.56	354.33
434.93	359.04
435.30	363.82
435.68	369.03
436.05	374.24
436.42	379.35
436.79	384.00
437.16	389.07
437.53	394.34
437.90	399.53
438.27	404.56
438.64	409.89
439.01	414.81
439.38	419.11
439.75	423.30
440.13	428.14
440.50	432.58
440.87	436.22
441.24	439.96
441.61	444.08
441.98	447.10
442.35	450.75
442.72	454.34
443.09	457.82
443.46	459.95
443.83	461.27
444.20	462.36
444.57	464.08
444.94	464.70
445.31	465.50
445.68	466.25
446.05	466.37
446.42	465.65
446.79	464.87
447.16	463.95
447.53	463.35
447.90	461.29
448.27	459.30
448.64	456.43
449.01	454.42
449.37	450.84
449.74	447.40
450.11	443.28
450.48	438.96
450.85	434.33
451.22	430.34
451.59	426.74
451.96	423.30
452.33	418.53
452.70	414.23
453.07	409.17
453.43	403.98
453.80	399.17
454.17	394.44
454.54	390.07
454.91	385.32
455.28	380.64
455.65	376.21
456.02	371.92
456.38	368.23
456.75	363.62
457.12	359.77
457.49	355.91
457.86	352.21
458.23	348.94
458.59	345.66
458.96	342.20
459.33	339.00
459.70	335.76
460.07	333.35
460.43	330.73
460.80	328.01
461.17	325.72
461.54	323.25
461.91	320.94
462.27	318.48
462.64	316.49
463.01	314.21
463.38	312.16
463.74	309.91
464.11	308.10
464.48	306.53
464.85	304.82
465.21	303.51
465.58	302.10
465.95	300.30
466.32	298.78
466.68	297.37
467.05	296.00
467.42	294.69
467.78	293.17
468.15	291.68
468.52	290.69
468.88	289.39
469.25	288.20
469.62	287.24
469.98	286.25
470.35	285.34
470.72	284.43
471.08	283.46
471.45	282.75
471.82	281.92
472.18	281.05
472.55	280.50
472.92	279.77
473.28	279.19
473.65	278.68
474.02	278.04
474.38	277.66
474.75	277.34
475.11	276.90
475.48	276.72
475.85	276.45
476.21	276.19
476.58	276.10
476.94	276.06
477.31	276.11
477.67	276.14
478.04	276.20
478.41	276.37
478.77	276.67
479.14	276.84
479.50	277.16
479.87	277.49
480.23	277.93
480.60	278.31
480.96	278.74
481.33	279.42
481.69	280.11
482.06	280.80
482.42	281.44
482.79	282.20
483.15	283.07
483.52	284.21
483.88	285.23
484.25	286.10
484.61	287.22
484.98	288.28
485.34	289.56
485.71	290.91
486.07	292.33
486.44	293.73
486.80	295.23
487.17	296.83
487.53	298.55
487.90	300.27
488.26	302.25
488.62	304.22
488.99	306.20
489.35	308.32
489.72	310.64
490.08	313.00
490.44	315.54
490.81	318.20
491.17	320.82
491.54	323.68
491.90	326.72
492.26	329.84
492.63	333.10
492.99	336.57
493.36	340.17
493.72	343.97
494.08	347.87
494.45	352.13
494.81	356.57
495.17	361.25
495.54	366.13
495.90	371.19
496.26	376.35
496.63	381.99
496.99	387.80
497.35	393.69
497.72	399.91
498.08	406.34
498.44	413.00
498.80	420.13
499.17	427.53
499.53	435.18
499.89	443.14
500.26	451.29
500.62	459.67
500.98	468.58
501.34	477.75
501.71	487.10
502.07	496.69
502.43	506.70
502.79	516.85
503.16	527.44
503.52	538.23
503.88	549.61
504.24	561.11
504.60	572.96
504.97	585.23
505.33	597.65
505.69	610.98
506.05	624.50
506.41	637.95
506.78	651.76
507.14	665.82
507.50	680.39
507.86	695.48
508.22	710.80
508.59	726.27
508.95	742.15
509.31	758.27
509.67	774.93
510.03	791.78
510.39	809.34
510.75	826.94
511.12	844.90
511.48	863.11
511.84	881.81
512.20	900.28
512.56	919.49
512.92	939.02
513.28	958.54
513.64	978.15
514.00	998.10
514.37	1018.21
514.73	1039.05
515.09	1059.58
515.45	1080.09
515.81	1101.08
516.17	1122.18
516.53	1143.43
516.89	1165.03
517.25	1186.57
517.61	1208.11
517.97	1229.55
518.33	1251.16
518.69	1272.82
519.05	1294.85
519.41	1316.78
519.77	1339.47
520.13	1361.49
520.49	1383.54
520.85	1406.05
521.21	1428.23
521.57	1451.02
521.93	1473.00
522.29	1495.63
522.65	1517.93
523.01	1540.44
523.37	1562.53
523.73	1585.02
524.09	1607.05
524.45	1629.26
524.81	1651.31
525.17	1673.59
525.53	1695.69
525.89	1718.08
526.25	1740.00
526.61	1761.35
526.97	1782.87
527.33	1803.96
527.68	1825.34
528.04	1846.50
528.40	1866.32
528.76	1886.95
529.12	1907.69
529.48	1929.38
529.84	1949.47
530.20	1969.81
530.56	1990.37
530.91	2011.10
531.27	2031.20
531.63	2051.18
531.99	2070.94
532.35	2090.49
532.71	2109.28
533.07	2128.92
533.42	2147.02
533.78	2166.07
534.14	2184.40
534.50	2201.59
534.86	2219.61
535.21	2236.01
535.57	2253.44
535.93	2271.09
536.29	2288.03
536.65	2304.25
537.00	2319.47
537.36	2335.05
537.72	2350.38
538.08	2365.32
538.44	2380.50
538.79	2395.37
539.15	2410.09
539.51	2424.76
539.87	2439.81
540.22	2454.19
540.58	2468.89
540.94	2483.25
541.29	2495.82
541.65	2507.99
542.01	2521.05
542.37	2532.73
542.72	2545.52
543.08	2556.26
543.44	2567.91
543.79	2578.09
544.15	2588.28
544.51	2599.25
544.87	2610.22
545.22	2619.28
545.58	2627.84
545.94	2634.61
546.29	2641.15
546.65	2647.35
547.01	2653.03
547.36	2658.05
547.72	2664.02
548.07	2668.02
548.43	2671.68
548.79	2675.48
549.14	2679.86
549.50	2683.70
549.86	2687.85
550.21	2691.44
550.57	2695.80
550.92	2698.49
551.28	2701.10
551.64	2703.34
551.99	2705.45
552.35	2706.91
552.70	2709.52
553.06	2711.74
553.41	2714.90
553.77	2717.68
554.13	2719.83
554.48	2721.92
554.84	2723.62
555.19	2724.13
555.55	2724.30
555.90	2724.87
556.26	2725.25
556.61	2725.35
556.97	2724.32
557.32	2723.54
557.68	2721.50
558.03	2720.11
558.39	2718.06
558.74	2717.72
559.10	2716.62
559.45	2714.73
559.81	2712.95
560.16	2710.41
560.52	2708.59
560.87	2705.44
561.23	2701.76
561.58	2699.64
561.94	2696.23
562.29	2692.55
562.64	2689.65
563.00	2687.36
563.35	2685.22
563.71	2683.43
564.06	2681.12
564.42	2679.22
564.77	2676.81
565.12	2674.94
565.48	2671.68
565.83	2668.48
566.19	2665.02
566.54	2660.70
566.89	2656.79
567.25	2653.10
567.60	2649.78
567.96	2645.59
568.31	2642.43
568.66	2638.92
569.02	2634.11
569.37	2628.89
569.72	2625.14
570.08	2620.06
570.43	2614.05
570.78	2608.26
571.14	2601.85
571.49	2595.07
571.84	2589.34
572.20	2582.41
572.55	2576.31
572.90	2569.21
573.26	2562.61
573.61	2555.27
573.96	2549.20
574.31	2541.59
574.67	2533.42
575.02	2524.78
575.37	2516.32
575.72	2507.02
576.08	2499.17
576.43	2490.43
576.78	2482.92
577.13	2474.46
577.49	2466.30
577.84	2458.95
578.19	2451.44
578.54	2444.20
578.90	2437.39
579.25	2428.44
579.60	2419.39
579.95	2410.10
580.30	2402.23
580.66	2394.23
581.01	2385.53
581.36	2375.63
581.71	2367.20
582.06	2358.71
582.42	2350.53
582.77	2341.48
583.12	2332.62
583.47	2324.20
583.82	2315.90
584.17	2306.66
584.53	2297.79
584.88	2289.15
585.23	2279.93
585.58	2270.11
585.93	2260.51
586.28	2251.45
586.63	2242.73
586.98	2234.40
587.34	2225.91
587.69	2216.97
588.04	2207.97
588.39	2199.46
588.74	2190.94
589.09	2182.36
589.44	2173.15
589.79	2164.69
590.14	2156.80
590.49	2148.70
590.84	2139.32
591.19	2131.19
591.54	2122.87
591.89	2112.83
592.25	2103.50
592.60	2094.19
592.95	2085.10
593.30	2075.50
593.65	2065.62
594.00	2055.99
594.35	2047.82
594.70	2038.91
595.05	2029.93
595.40	2021.02
595.75	2011.48
596.10	2003.29
596.45	1994.74
596.80	1987.31
597.15	1979.26
597.50	1970.08
597.85	1961.46
598.19	1952.97
598.54	1944.65
598.89	1936.62
599.24	1929.97
599.59	1922.80
599.94	1915.46
600.29	1907.69
600.64	1900.04
600.99	1891.84
601.34	1884.83
601.69	1876.10
602.04	1867.95
602.39	1859.90
602.74	1852.35
603.08	1845.75
603.43	1838.83
603.78	1831.12
604.13	1822.70
604.48	1814.69
604.83	1807.97
605.18	1800.90
605.53	1793.62
605.87	1785.75
606.22	1778.68
606.57	1770.66
606.92	1762.51
607.27	1754.59
607.62	1747.18
607.96	1740.32
608.31	1734.21
608.66	1726.54
609.01	1719.25
609.36	1711.52
609.70	1703.87
610.05	1696.01
610.40	1687.98
610.75	1679.23
611.10	1671.51
611.44	1662.52
611.79	1653.62
612.14	1644.38
612.49	1635.01
612.83	1626.40
613.18	1617.03
613.53	1607.71
613.88	1598.46
614.22	1589.45
614.57	1580.32
614.92	1571.33
615.27	1562.09
615.61	1552.04
615.96	1543.18
616.31	1534.48
616.65	1526.69
617.00	1518.25
617.35	1509.65
617.70	1500.90
618.04	1492.08
618.39	1482.75
618.74	1474.55
619.08	1465.93
619.43	1457.85
619.78	1450.00
620.12	1441.39
620.47	1433.78
620.82	1425.21
621.16	1417.03
621.51	1408.70
621.85	1400.56
622.20	1392.20
622.55	1383.82
622.89	1375.92
623.24	1367.91
623.59	1359.29
623.93	1350.52
624.28	1342.55
624.62	1334.40
624.97	1326.25
625.32	1318.43
625.66	1311.11
626.01	1303.84
626.35	1296.70
626.70	1289.16
627.04	1281.69
627.39	1274.48
627.73	1266.86
628.08	1260.15
628.43	1252.56
628.77	1245.37
629.12	1237.74
629.46	1231.18
629.81	1224.06
630.15	1216.74
630.50	1209.19
630.84	1202.22
631.19	1195.25
631.53	1188.36
631.88	1180.84
632.22	1173.36
632.57	1166.70
632.91	1159.15
633.26	1151.76
633.60	1144.57
633.95	1137.58
634.29	1130.29
634.64	1123.81
634.98	1116.83
635.32	1109.80
635.67	1103.56
636.01	1097.02
636.36	1090.59
636.70	1083.84
637.05	1077.30
637.39	1071.05
637.73	1064.78
638.08	1058.86
638.42	1053.07
638.77	1046.54
639.11	1040.27
639.45	1034.24
639.80	1027.63
640.14	1021.43
640.49	1015.15
640.83	1008.85
641.17	1002.74
641.52	997.01
641.86	990.42
642.20	984.30
642.55	977.59
642.89	971.07
643.23	964.74
643.58	958.79
643.92	952.36
644.26	946.16
644.61	940.16
644.95	934.08
645.29	927.89
645.64	921.25
645.98	915.04
646.32	909.31
646.66	903.24
647.01	897.00
647.35	891.13
647.69	885.06
648.04	879.26
648.38	873.09
648.72	867.13
649.06	861.01
649.41	855.05
649.75	849.18
650.09	843.35
650.43	837.45
650.78	831.17
651.12	824.87
651.46	819.05
651.80	812.96
652.14	807.15
652.49	801.17
652.83	795.53
653.17	789.57
653.51	783.62
653.85	777.79
654.20	772.13
654.54	766.32
654.88	760.80
655.22	754.97
655.56	749.19
655.90	743.18
656.25	737.47
656.59	731.86
656.93	726.82
657.27	721.69
657.61	716.25
657.95	711.27
658.29	706.28
658.64	701.38
658.98	696.32
659.32	690.85
659.66	685.80
660.00	680.41
660.34	675.27
660.68	670.27
661.02	665.27
661.36	660.63
661.70	656.00
662.05	651.34
662.39	646.91
662.73	642.60
663.07	638.40
663.41	634.15
663.75	629.62
664.09	624.86
664.43	620.19
664.77	615.86
665.11	611.44
665.45	607.15
665.79	602.59
666.13	598.19
666.47	594.09
666.81	589.89
667.15	585.78
667.49	581.97
667.83	578.03
668.17	574.26
668.51	570.49
668.85	566.75
669.19	562.97
669.53	558.96
669.87	555.00
670.21	551.05
670.55	547.29
670.89	544.02
671.23	540.80
671.57	537.45
671.91	533.93
672.25	530.33
672.58	526.82
672.92	523.38
673.26	520.13
673.60	517.01
673.94	513.60
674.28	510.45
674.62	507.26
674.96	504.16
675.30	501.23
675.64	497.91
675.97	494.72
676.31	491.64
676.65	488.85
676.99	486.19
677.33	483.30
677.67	480.23
678.01	477.03
678.34	473.85
678.68	470.85
679.02	467.82
679.36	465.07
679.70	462.36
680.04	459.46
680.37	456.55
680.71	453.70
681.05	451.09
681.39	448.39
681.73	445.69
682.06	443.14
682.40	440.45
682.74	437.99
683.08	435.39
683.42	432.84
683.75	430.28
684.09	427.56
684.43	425.19
684.77	422.66
685.10	420.23
685.44	417.78
685.78	415.26
686.12	413.17
686.45	410.89
686.79	408.72
687.13	406.62
687.46	404.60
687.80	402.44
688.14	400.11
688.48	398.03
688.81	395.86
689.15	393.66
689.49	391.45
689.82	389.12
690.16	386.80
690.50	384.57
690.83	382.41
691.17	380.32
691.51	378.07
691.84	376.15
692.18	374.03
692.52	372.20
692.85	370.42
693.19	368.42
693.52	366.45
693.86	364.50
694.20	362.64
694.53	360.65
694.87	358.76
695.21	357.04
695.54	355.13
695.88	353.22
696.21	351.24
696.55	349.52
696.88	347.92
697.22	346.35
697.56	344.82
697.89	343.06
698.23	341.46
698.56	339.79
698.90	338.26
699.23	336.75
699.57	335.14
699.90	333.48
700.24	331.85
700.58	330.27
700.91	328.70
701.25	327.26
701.58	325.80
701.92	324.32
702.25	322.86
702.59	321.38
702.92	320.10
703.26	318.85
703.59	317.52
703.93	316.28
704.26	314.95
704.60	313.65
704.93	312.44
705.26	311.19
705.60	310.09
705.93	308.86
706.27	307.75
706.60	306.64
706.94	305.57
707.27	304.46
707.61	303.41
707.94	302.35
708.27	301.10
708.61	300.00
708.94	298.91
709.28	297.78
709.61	296.67
709.94	295.68
710.28	294.61
710.61	293.61
710.95	292.38
711.28	291.50
711.61	290.39
711.95	289.50
712.28	288.49
712.61	287.38
712.95	286.49
713.28	285.57
713.61	284.47
713.95	283.55
714.28	282.70
714.61	281.68
714.95	280.72
715.28	279.81
715.61	278.86
715.95	278.01
716.28	277.14
716.61	276.46
716.95	275.52
717.28	274.71
717.61	273.89
717.94	273.20
718.28	272.28
718.61	271.51
718.94	270.78
719.27	270.00
719.61	269.33
719.94	268.50
720.27	267.60
720.60	266.93
720.94	266.17
721.27	265.43
721.60	264.80
721.93	264.18
722.27	263.61
722.60	263.02
722.93	262.36
723.26	261.88
723.59	261.16
723.93	260.58
724.26	260.06
724.59	259.42
724.92	258.78
725.25	258.20
725.59	257.72
725.92	257.11
726.25	256.57
726.58	256.13
726.91	255.66
727.24	255.18
727.57	254.67
727.91	254.11
728.24	253.63
728.57	253.15
728.90	252.64
729.23	252.05
729.56	251.70
729.89	251.23
730.22	250.65
730.55	250.22
730.89	249.77
731.22	249.23
731.55	248.81
731.88	248.45
732.21	248.13
732.54	247.64
732.87	247.25
733.20	246.83
733.53	246.42
733.86	245.95
734.19	245.54
734.52	245.22
734.85	245.00
735.18	244.56
735.51	244.23
735.84	243.87
736.17	243.63
736.50	243.18
736.83	243.01
737.16	242.67
737.49	242.34
737.82	242.00
738.15	241.69
738.48	241.33
738.81	241.02
739.14	240.62
739.47	240.26
739.80	239.90
740.13	239.57
740.46	239.15
740.79	238.83
741.12	238.50
741.45	238.14
741.78	237.79
742.11	237.53
742.44	237.14
742.77	236.95
743.10	236.65
743.43	236.32
743.75	235.84
744.08	235.78
744.41	235.43
744.74	235.12
745.07	234.81
745.40	234.52
745.73	234.26
746.06	233.98
746.39	233.75
746.71	233.50
747.04	233.20
747.37	232.91
747.70	232.67
748.03	232.44
748.36	232.23
748.68	231.95
749.01	231.66
749.34	231.47
749.67	231.18
750.00	230.90
750.33	230.78
750.65	230.61
750.98	230.15
751.31	229.92
751.64	229.59
751.97	229.47
752.29	229.20
752.62	228.93
752.95	228.66
753.28	228.41
753.60	228.10
753.93	228.02
754.26	227.83
754.59	227.58
754.91	227.39
755.24	227.08
755.57	226.89
755.90	226.65
756.22	226.46
756.55	226.23
756.88	225.95
757.20	225.59
757.53	225.32
757.86	225.15
758.19	224.99
758.51	224.80
758.84	224.54
759.17	224.40
759.49	224.22
759.82	224.21
760.15	224.06
760.47	223.91
760.80	223.61
761.13	223.46
761.45	223.31
761.78	223.19
762.11	223.09
762.43	222.91
762.76	222.78
763.08	222.64
763.41	222.49
763.74	222.39
764.06	222.36
764.39	222.24
764.71	222.10
765.04	221.96
765.37	221.90
765.69	221.75
766.02	221.60
766.34	221.48
766.67	221.31
767.00	221.25
767.32	221.27
767.65	221.30
767.97	221.12
768.30	220.99
768.62	220.80
768.95	220.69
769.27	220.58
769.60	220.58
769.92	220.42
770.25	220.22
770.57	220.08
770.90	219.90
771.22	219.76
771.55	219.68
771.87	219.65
772.20	219.53
772.52	219.57
772.85	219.71
773.17	219.66
773.50	219.54
773.82	219.44
774.15	219.23
774.47	219.04
774.80	219.04
775.12	218.96
775.45	218.91
775.77	218.82
776.09	218.76
776.42	218.58
776.74	218.60
777.07	218.56
777.39	218.59
777.72	218.49
778.04	218.37
778.36	218.23
778.69	218.18
779.01	218.11
779.33	217.91
779.66	217.62
779.98	217.43
780.31	217.28
780.63	217.27
780.95	217.18
781.28	217.14
781.60	217.08
781.92	217.02
782.25	216.95
782.57	216.89
782.89	216.83
783.22	216.79
783.54	216.67
783.86	216.66
784.19	216.53
784.51	216.55
784.83	216.52
785.16	216.55
785.48	216.40
785.80	216.35
786.12	216.31
786.45	216.28
