SpectraSuite Data File
++++++++++++++++++++++++++++++++++++
Date: Mon Feb 25 17:30:16 EST 2013
User: group
Dark Spectrum Present: No
Reference Spectrum Present: No
Number of Sampled Component Spectra: 1
Spectrometers: USB2E7196
Integration Time (usec): 52000 (USB2E7196)
Spectra Averaged: 20 (USB2E7196)
Boxcar Smoothing: 10 (USB2E7196)
Correct for Electrical Dark: No (USB2E7196)
Strobe/Lamp Enabled: No (USB2E7196)
Correct for Detector Non-linearity: No (USB2E7196)
Correct for Stray Light: No (USB2E7196)
Number of Pixels in Processed Spectrum: 2048
>>>>>Begin Processed Spectral Data<<<<<
339.09	0.00
339.48	199.80
339.86	200.75
340.24	203.20
340.63	203.70
341.01	207.35
341.39	207.20
341.78	207.95
342.16	209.80
342.54	209.25
342.93	198.62
343.31	208.67
343.69	209.18
344.07	209.67
344.46	210.06
344.84	210.43
345.22	210.63
345.60	210.86
345.99	210.96
346.37	211.04
346.75	211.11
347.13	211.24
347.52	211.33
347.90	211.41
348.28	211.47
348.66	211.47
349.05	211.43
349.43	211.44
349.81	211.53
350.19	211.52
350.57	211.61
350.96	211.72
351.34	211.76
351.72	211.81
352.10	211.87
352.48	211.87
352.87	211.88
353.25	211.90
353.63	212.00
354.01	212.06
354.39	212.13
354.77	212.23
355.15	212.21
355.54	212.26
355.92	212.31
356.30	212.37
356.68	212.63
357.06	212.64
357.44	212.64
357.82	212.64
358.20	212.68
358.58	212.64
358.97	212.75
359.35	212.81
359.73	212.96
360.11	213.02
360.49	213.08
360.87	213.15
361.25	213.20
361.63	213.25
362.01	213.35
362.39	213.34
362.77	213.38
363.15	213.51
363.53	213.43
363.91	213.43
364.29	213.38
364.67	213.22
365.05	213.25
365.43	213.32
365.81	213.42
366.19	213.60
366.57	213.66
366.95	213.53
367.33	213.50
367.71	213.50
368.09	213.44
368.47	213.47
368.85	213.50
369.23	213.54
369.61	213.44
369.99	213.48
370.37	213.56
370.75	213.64
371.13	213.48
371.51	213.55
371.89	213.63
372.27	213.66
372.65	213.66
373.03	213.73
373.41	213.69
373.78	213.71
374.16	213.48
374.54	213.46
374.92	213.49
375.30	213.51
375.68	213.40
376.06	213.38
376.44	213.35
376.82	213.31
377.19	213.27
377.57	213.21
377.95	213.14
378.33	213.03
378.71	212.86
379.09	212.87
379.47	212.83
379.84	212.67
380.22	212.66
380.60	212.53
380.98	212.47
381.36	212.35
381.73	212.20
382.11	212.25
382.49	212.20
382.87	212.15
383.25	212.07
383.62	212.21
384.00	212.18
384.38	212.09
384.76	212.09
385.13	212.08
385.51	212.00
385.89	211.94
386.27	211.98
386.64	211.96
387.02	211.88
387.40	211.77
387.78	211.80
388.15	211.73
388.53	211.72
388.91	211.64
389.29	211.60
389.66	211.63
390.04	211.55
390.42	211.51
390.79	211.49
391.17	211.48
391.55	211.29
391.92	211.22
392.30	211.26
392.68	211.15
393.05	211.14
393.43	211.13
393.81	211.10
394.18	210.97
394.56	210.96
394.94	211.12
395.31	211.13
395.69	211.21
396.06	211.24
396.44	211.27
396.82	211.28
397.19	211.45
397.57	211.42
397.95	211.47
398.32	211.44
398.70	211.47
399.07	211.50
399.45	211.50
399.82	211.64
400.20	211.56
400.58	211.63
400.95	211.62
401.33	211.76
401.70	211.95
402.08	212.05
402.45	212.10
402.83	212.10
403.20	212.17
403.58	212.11
403.95	212.20
404.33	212.31
404.71	212.42
405.08	212.55
405.46	212.69
405.83	212.81
406.21	212.94
406.58	213.07
406.96	213.25
407.33	213.45
407.70	213.60
408.08	213.98
408.45	214.18
408.83	214.39
409.20	214.58
409.58	214.73
409.95	215.03
410.33	215.35
410.70	215.61
411.08	215.94
411.45	216.33
411.82	216.64
412.20	217.06
412.57	217.57
412.95	217.91
413.32	218.46
413.69	219.02
414.07	219.65
414.44	220.23
414.82	220.78
415.19	221.45
415.56	222.20
415.94	222.91
416.31	223.81
416.68	224.62
417.06	225.50
417.43	226.43
417.81	227.50
418.18	228.54
418.55	229.76
418.93	231.00
419.30	232.25
419.67	233.62
420.04	234.94
420.42	236.31
420.79	237.99
421.16	239.64
421.54	241.35
421.91	243.11
422.28	245.02
422.66	247.06
423.03	249.06
423.40	251.04
423.77	253.21
424.15	255.31
424.52	257.61
424.89	260.20
425.26	262.62
425.64	264.84
426.01	267.37
426.38	269.93
426.75	272.60
427.13	275.41
427.50	278.22
427.87	281.28
428.24	284.33
428.61	287.17
428.99	290.32
429.36	293.80
429.73	297.15
430.10	300.47
430.47	303.90
430.85	307.44
431.22	311.23
431.59	315.20
431.96	319.01
432.33	323.25
432.70	327.24
433.08	332.00
433.45	336.52
433.82	340.87
434.19	345.76
434.56	350.55
434.93	355.12
435.30	359.79
435.68	364.77
436.05	369.68
436.42	374.75
436.79	379.34
437.16	384.16
437.53	389.37
437.90	394.50
438.27	399.49
438.64	404.59
439.01	409.39
439.38	413.57
439.75	417.71
440.13	422.37
440.50	426.90
440.87	430.53
441.24	434.37
441.61	438.59
441.98	441.64
442.35	445.12
442.72	448.65
443.09	452.05
443.46	454.09
443.83	455.57
444.20	456.58
444.57	458.27
444.94	459.05
445.31	459.70
445.68	460.44
446.05	460.66
446.42	460.21
446.79	459.43
447.16	458.75
447.53	458.23
447.90	456.23
448.27	454.10
448.64	451.27
449.01	449.13
449.37	445.54
449.74	442.15
450.11	438.16
450.48	433.91
450.85	429.44
451.22	425.70
451.59	422.01
451.96	418.62
452.33	413.96
452.70	409.78
453.07	404.80
453.43	399.62
453.80	394.88
454.17	390.15
454.54	385.70
454.91	381.00
455.28	376.23
455.65	371.97
456.02	367.77
456.38	364.05
456.75	359.58
457.12	355.87
457.49	352.20
457.86	348.60
458.23	345.48
458.59	342.11
458.96	338.66
459.33	335.61
459.70	332.55
460.07	330.05
460.43	327.23
460.80	324.71
461.17	322.48
461.54	320.06
461.91	317.86
462.27	315.66
462.64	313.64
463.01	311.60
463.38	309.60
463.74	307.49
464.11	305.75
464.48	304.10
464.85	302.49
465.21	301.21
465.58	299.84
465.95	298.16
466.32	296.86
466.68	295.52
467.05	294.25
467.42	292.93
467.78	291.57
468.15	290.30
468.52	289.45
468.88	288.23
469.25	287.17
469.62	286.30
469.98	285.30
470.35	284.31
470.72	283.56
471.08	282.59
471.45	281.88
471.82	281.22
472.18	280.41
472.55	279.79
472.92	279.17
473.28	278.64
473.65	278.10
474.02	277.56
474.38	277.13
474.75	276.76
475.11	276.43
475.48	276.19
475.85	275.95
476.21	275.77
476.58	275.70
476.94	275.66
477.31	275.58
477.67	275.68
478.04	275.87
478.41	276.02
478.77	276.41
479.14	276.60
479.50	276.85
479.87	277.30
480.23	277.72
480.60	278.07
480.96	278.54
481.33	279.22
481.69	279.83
482.06	280.50
482.42	281.20
482.79	281.88
483.15	282.71
483.52	283.70
483.88	284.54
484.25	285.44
484.61	286.43
484.98	287.56
485.34	288.82
485.71	290.18
486.07	291.52
486.44	292.83
486.80	294.35
487.17	296.01
487.53	297.70
487.90	299.50
488.26	301.41
488.62	303.37
488.99	305.35
489.35	307.45
489.72	309.75
490.08	312.09
490.44	314.54
490.81	317.19
491.17	319.82
491.54	322.71
491.90	325.73
492.26	328.96
492.63	332.31
492.99	335.70
493.36	339.26
493.72	343.10
494.08	347.04
494.45	351.29
494.81	355.67
495.17	360.26
495.54	365.15
495.90	370.13
496.26	375.23
496.63	380.70
496.99	386.38
497.35	392.33
497.72	398.49
498.08	404.88
498.44	411.55
498.80	418.65
499.17	426.00
499.53	433.52
499.89	441.33
500.26	449.34
500.62	457.57
500.98	466.38
501.34	475.45
501.71	484.78
502.07	494.22
502.43	504.10
502.79	514.20
503.16	524.71
503.52	535.61
503.88	546.84
504.24	558.22
504.60	569.82
504.97	582.00
505.33	594.40
505.69	607.69
506.05	621.05
506.41	634.44
506.78	647.92
507.14	662.02
507.50	676.48
507.86	691.28
508.22	706.64
508.59	721.82
508.95	737.42
509.31	753.40
509.67	769.97
510.03	786.46
510.39	803.63
510.75	821.24
511.12	838.95
511.48	856.87
511.84	875.26
512.20	893.74
512.56	912.64
512.92	931.82
513.28	950.85
513.64	970.20
514.00	989.79
514.37	1009.99
514.73	1030.35
515.09	1050.73
515.45	1071.11
515.81	1091.83
516.17	1112.77
516.53	1133.88
516.89	1155.13
517.25	1176.09
517.61	1197.27
517.97	1218.33
518.33	1239.25
518.69	1260.47
519.05	1282.27
519.41	1303.93
519.77	1326.15
520.13	1347.89
520.49	1369.53
520.85	1391.78
521.21	1413.87
521.57	1436.50
521.93	1457.95
522.29	1480.16
522.65	1502.16
523.01	1524.18
523.37	1545.43
523.73	1567.32
524.09	1589.07
524.45	1610.62
524.81	1632.73
525.17	1654.92
525.53	1676.69
525.89	1698.53
526.25	1720.07
526.61	1740.73
526.97	1761.80
527.33	1782.48
527.68	1803.16
528.04	1823.67
528.40	1843.30
528.76	1863.26
529.12	1882.94
529.48	1903.84
529.84	1923.47
530.20	1943.20
530.56	1962.92
530.91	1983.29
531.27	2002.78
531.63	2022.04
531.99	2041.15
532.35	2059.63
532.71	2077.75
533.07	2096.86
533.42	2114.60
533.78	2132.97
534.14	2150.58
534.50	2166.95
534.86	2184.09
535.21	2200.19
535.57	2217.21
535.93	2234.01
536.29	2249.89
536.65	2266.29
537.00	2281.23
537.36	2295.99
537.72	2310.35
538.08	2325.18
538.44	2339.58
538.79	2354.33
539.15	2368.50
539.51	2382.35
539.87	2396.57
540.22	2410.07
540.58	2423.93
540.94	2437.82
541.29	2449.76
541.65	2461.66
542.01	2474.60
542.37	2486.07
542.72	2497.78
543.08	2508.04
543.44	2518.90
543.79	2528.69
544.15	2537.95
544.51	2548.07
544.87	2558.19
545.22	2566.92
545.58	2574.38
545.94	2581.18
546.29	2587.18
546.65	2592.67
547.01	2598.48
547.36	2603.78
547.72	2609.13
548.07	2612.61
548.43	2615.68
548.79	2619.10
549.14	2623.16
549.50	2626.96
549.86	2630.54
550.21	2633.94
550.57	2637.86
550.92	2640.20
551.28	2642.78
551.64	2644.82
551.99	2646.77
552.35	2648.05
552.70	2650.42
553.06	2652.95
553.41	2655.44
553.77	2657.60
554.13	2659.77
554.48	2661.33
554.84	2662.43
555.19	2662.92
555.55	2663.21
555.90	2663.82
556.26	2664.14
556.61	2663.63
556.97	2661.85
557.32	2661.08
557.68	2659.19
558.03	2657.46
558.39	2655.47
558.74	2654.65
559.10	2653.37
559.45	2651.30
559.81	2649.91
560.16	2647.05
560.52	2644.26
560.87	2641.37
561.23	2637.76
561.58	2635.20
561.94	2631.87
562.29	2628.27
562.64	2625.32
563.00	2622.65
563.35	2619.93
563.71	2617.91
564.06	2615.89
564.42	2613.91
564.77	2611.01
565.12	2609.26
565.48	2605.69
565.83	2602.77
566.19	2599.35
566.54	2594.93
566.89	2591.15
567.25	2587.31
567.60	2583.87
567.96	2580.06
568.31	2576.39
568.66	2572.37
569.02	2567.14
569.37	2562.16
569.72	2558.02
570.08	2552.85
570.43	2547.14
570.78	2541.37
571.14	2535.08
571.49	2528.39
571.84	2522.49
572.20	2515.67
572.55	2508.96
572.90	2502.41
573.26	2495.51
573.61	2488.37
573.96	2482.13
574.31	2474.44
574.67	2466.44
575.02	2458.14
575.37	2450.02
575.72	2441.03
576.08	2433.50
576.43	2425.45
576.78	2417.60
577.13	2409.63
577.49	2401.67
577.84	2393.92
578.19	2386.45
578.54	2379.29
578.90	2372.50
579.25	2364.15
579.60	2355.39
579.95	2346.34
580.30	2338.55
580.66	2330.64
581.01	2322.01
581.36	2312.67
581.71	2304.48
582.06	2296.30
582.42	2288.63
582.77	2279.72
583.12	2271.28
583.47	2263.02
583.82	2255.26
584.17	2246.61
584.53	2238.02
584.88	2229.61
585.23	2221.24
585.58	2211.92
585.93	2202.70
586.28	2193.94
586.63	2185.51
586.98	2177.52
587.34	2169.60
587.69	2160.77
588.04	2152.06
588.39	2144.22
588.74	2135.48
589.09	2127.05
589.44	2117.74
589.79	2109.20
590.14	2101.74
590.49	2093.62
590.84	2084.90
591.19	2077.00
591.54	2068.37
591.89	2058.57
592.25	2049.58
592.60	2040.29
592.95	2031.74
593.30	2022.55
593.65	2012.72
594.00	2003.32
594.35	1995.67
594.70	1986.88
595.05	1978.54
595.40	1970.18
595.75	1960.71
596.10	1953.10
596.45	1945.07
596.80	1937.48
597.15	1929.63
597.50	1921.02
597.85	1913.07
598.19	1904.86
598.54	1896.32
598.89	1888.90
599.24	1882.42
599.59	1875.56
599.94	1868.95
600.29	1861.28
600.64	1853.56
600.99	1845.88
601.34	1839.08
601.69	1830.46
602.04	1822.40
602.39	1814.33
602.74	1806.80
603.08	1800.65
603.43	1793.84
603.78	1786.05
604.13	1778.69
604.48	1770.85
604.83	1764.02
605.18	1757.19
605.53	1750.00
605.87	1742.66
606.22	1736.05
606.57	1728.64
606.92	1720.82
607.27	1712.89
607.62	1706.00
607.96	1699.56
608.31	1693.75
608.66	1685.94
609.01	1678.80
609.36	1671.65
609.70	1664.27
610.05	1656.90
610.40	1648.89
610.75	1640.86
611.10	1633.70
611.44	1624.88
611.79	1616.45
612.14	1607.44
612.49	1598.01
612.83	1589.59
613.18	1580.47
613.53	1571.13
613.88	1561.37
614.22	1552.54
614.57	1543.75
614.92	1534.74
615.27	1525.58
615.61	1515.88
615.96	1507.35
616.31	1499.16
616.65	1491.48
617.00	1483.56
617.35	1475.18
617.70	1466.72
618.04	1457.88
618.39	1448.94
618.74	1441.02
619.08	1432.55
619.43	1424.71
619.78	1417.19
620.12	1409.26
620.47	1401.91
620.82	1393.82
621.16	1386.15
621.51	1378.30
621.85	1370.27
622.20	1361.99
622.55	1353.88
622.89	1346.15
623.24	1338.63
623.59	1330.19
623.93	1321.71
624.28	1313.58
624.62	1305.56
624.97	1297.60
625.32	1289.96
625.66	1282.74
626.01	1275.62
626.35	1268.57
626.70	1261.03
627.04	1254.08
627.39	1247.06
627.73	1239.48
628.08	1232.93
628.43	1225.78
628.77	1218.85
629.12	1211.49
629.46	1205.18
629.81	1198.21
630.15	1191.11
630.50	1183.84
630.84	1176.98
631.19	1170.30
631.53	1163.74
631.88	1156.39
632.22	1149.07
632.57	1142.39
632.91	1135.20
633.26	1127.84
633.60	1120.89
633.95	1114.53
634.29	1107.44
634.64	1100.53
634.98	1093.94
635.32	1087.08
635.67	1081.07
636.01	1074.56
636.36	1068.40
636.70	1061.88
637.05	1055.56
637.39	1049.37
637.73	1043.12
638.08	1037.36
638.42	1031.55
638.77	1025.17
639.11	1019.17
639.45	1013.39
639.80	1006.90
640.14	1000.67
640.49	994.86
640.83	989.02
641.17	982.54
641.52	976.52
641.86	970.51
642.20	964.57
642.55	958.05
642.89	951.64
643.23	945.29
643.58	939.30
643.92	933.03
644.26	927.13
644.61	921.08
644.95	915.37
645.29	909.29
645.64	902.87
645.98	896.97
646.32	891.26
646.66	885.33
647.01	879.76
647.35	874.08
647.69	867.90
648.04	861.93
648.38	856.20
648.72	850.35
649.06	844.25
649.41	838.30
649.75	832.72
650.09	827.12
650.43	821.27
650.78	815.54
651.12	809.62
651.46	803.93
651.80	798.28
652.14	792.30
652.49	786.33
652.83	780.89
653.17	775.05
653.51	769.54
653.85	763.90
654.20	758.15
654.54	752.36
654.88	747.05
655.22	741.57
655.56	735.91
655.90	730.12
656.25	724.66
656.59	719.38
656.93	714.23
657.27	709.03
657.61	703.82
657.95	698.60
658.29	693.70
658.64	688.66
658.98	683.58
659.32	678.63
659.66	673.77
660.00	668.45
660.34	663.55
660.68	658.32
661.02	653.34
661.36	648.72
661.70	644.08
662.05	639.46
662.39	635.04
662.73	630.86
663.07	626.82
663.41	622.53
663.75	618.00
664.09	613.53
664.43	608.98
664.77	604.89
665.11	600.71
665.45	596.48
665.79	592.16
666.13	587.92
666.47	583.85
666.81	579.94
667.15	576.11
667.49	572.26
667.83	568.56
668.17	564.91
668.51	561.28
668.85	557.74
669.19	554.15
669.53	550.39
669.87	546.63
670.21	542.85
670.55	539.15
670.89	535.92
671.23	532.58
671.57	529.23
671.91	525.75
672.25	522.27
672.58	518.87
672.92	515.49
673.26	512.38
673.60	509.15
673.94	505.79
674.28	502.56
674.62	499.41
674.96	496.25
675.30	493.35
675.64	490.20
675.97	487.06
676.31	484.04
676.65	481.21
676.99	478.52
677.33	475.75
677.67	473.00
678.01	469.84
678.34	467.02
678.68	464.25
679.02	461.36
679.36	458.53
679.70	455.76
680.04	453.05
680.37	450.20
680.71	447.48
681.05	445.04
681.39	442.36
681.73	439.78
682.06	437.50
682.40	434.98
682.74	432.49
683.08	430.14
683.42	427.70
683.75	425.25
684.09	422.68
684.43	420.22
684.77	417.65
685.10	415.22
685.44	412.80
685.78	410.37
686.12	408.23
686.45	406.07
686.79	403.86
687.13	401.80
687.46	399.72
687.80	397.64
688.14	395.28
688.48	393.22
688.81	391.07
689.15	388.79
689.49	386.57
689.82	384.34
690.16	382.09
690.50	379.77
690.83	377.48
691.17	375.18
691.51	373.06
691.84	371.09
692.18	369.25
692.52	367.28
692.85	365.47
693.19	363.59
693.52	361.71
693.86	359.89
694.20	357.97
694.53	356.14
694.87	354.16
695.21	352.31
695.54	350.45
695.88	348.61
696.21	346.84
696.55	345.19
696.88	343.56
697.22	341.86
697.56	340.49
697.89	339.04
698.23	337.50
698.56	335.98
698.90	334.60
699.23	333.04
699.57	331.53
699.90	329.94
700.24	328.35
700.58	326.84
700.91	325.34
701.25	324.00
701.58	322.57
701.92	321.30
702.25	319.95
702.59	318.65
702.92	317.39
703.26	316.01
703.59	314.68
703.93	313.60
704.26	312.43
704.60	311.18
704.93	309.99
705.26	308.93
705.60	307.75
705.93	306.37
706.27	305.20
706.60	304.16
706.94	303.15
707.27	302.04
707.61	300.94
707.94	299.89
708.27	298.75
708.61	297.59
708.94	296.47
709.28	295.49
709.61	294.57
709.94	293.52
710.28	292.54
710.61	291.56
710.95	290.47
711.28	289.53
711.61	288.44
711.95	287.50
712.28	286.46
712.61	285.52
712.95	284.69
713.28	283.79
713.61	282.79
713.95	281.82
714.28	280.95
714.61	279.98
714.95	279.02
715.28	278.01
715.61	277.17
715.95	276.27
716.28	275.30
716.61	274.35
716.95	273.54
717.28	272.80
717.61	272.00
717.94	271.22
718.28	270.30
718.61	269.64
718.94	268.84
719.27	268.06
719.61	267.28
719.94	266.60
720.27	265.86
720.60	265.12
720.94	264.37
721.27	263.72
721.60	263.12
721.93	262.57
722.27	262.10
722.60	261.51
722.93	260.93
723.26	260.45
723.59	259.85
723.93	259.23
724.26	258.65
724.59	258.02
724.92	257.40
725.25	256.98
725.59	256.40
725.92	255.94
726.25	255.44
726.58	254.98
726.91	254.48
727.24	254.01
727.57	253.52
727.91	253.04
728.24	252.53
728.57	252.10
728.90	251.63
729.23	251.09
729.56	250.75
729.89	250.30
730.22	249.78
730.55	249.39
730.89	248.94
731.22	248.45
731.55	248.11
731.88	247.66
732.21	247.19
732.54	246.76
732.87	246.27
733.20	245.83
733.53	245.44
733.86	245.09
734.19	244.68
734.52	244.39
734.85	244.22
735.18	243.81
735.51	243.48
735.84	243.11
736.17	242.78
736.50	242.34
736.83	242.15
737.16	241.95
737.49	241.59
737.82	241.26
738.15	241.00
738.48	240.67
738.81	240.30
739.14	239.98
739.47	239.66
739.80	239.30
740.13	239.02
740.46	238.71
740.79	238.32
741.12	238.05
741.45	237.68
741.78	237.17
742.11	236.97
742.44	236.57
742.77	236.31
743.10	236.11
743.43	235.78
743.75	235.35
744.08	235.24
744.41	234.96
744.74	234.65
745.07	234.37
745.40	234.08
745.73	233.85
746.06	233.58
746.39	233.32
746.71	233.08
747.04	232.85
747.37	232.60
747.70	232.35
748.03	232.03
748.36	231.86
748.68	231.67
749.01	231.32
749.34	231.10
749.67	230.84
750.00	230.55
750.33	230.44
750.65	230.25
750.98	229.68
751.31	229.45
751.64	229.26
751.97	229.06
752.29	228.88
752.62	228.65
752.95	228.38
753.28	228.08
753.60	227.91
753.93	227.72
754.26	227.47
754.59	227.25
754.91	227.06
755.24	226.81
755.57	226.59
755.90	226.37
756.22	226.15
756.55	225.92
756.88	225.69
757.20	225.41
757.53	225.14
757.86	225.01
758.19	224.83
758.51	224.73
758.84	224.50
759.17	224.28
759.49	224.17
759.82	224.11
760.15	224.03
760.47	223.85
760.80	223.74
761.13	223.61
761.45	223.36
761.78	223.20
762.11	223.05
762.43	222.85
762.76	222.77
763.08	222.70
763.41	222.62
763.74	222.51
764.06	222.33
764.39	222.29
764.71	222.18
765.04	221.96
765.37	221.76
765.69	221.64
766.02	221.51
766.34	221.34
766.67	221.19
767.00	221.10
767.32	221.07
767.65	220.93
767.97	220.83
768.30	220.82
768.62	220.71
768.95	220.55
769.27	220.48
769.60	220.38
769.92	220.24
770.25	220.09
770.57	219.93
770.90	219.81
771.22	219.62
771.55	219.53
771.87	219.45
772.20	219.40
772.52	219.40
772.85	219.51
773.17	219.39
773.50	219.32
773.82	219.21
774.15	219.03
774.47	218.87
774.80	218.77
775.12	218.63
775.45	218.53
775.77	218.53
776.09	218.44
776.42	218.36
776.74	218.30
777.07	218.24
777.39	218.14
777.72	218.13
778.04	218.11
778.36	218.00
778.69	217.92
779.01	217.84
779.33	217.61
779.66	217.38
779.98	217.34
780.31	217.23
780.63	217.23
780.95	217.25
781.28	217.19
781.60	217.15
781.92	217.15
782.25	217.07
782.57	216.96
782.89	216.85
783.22	216.81
783.54	216.72
783.86	216.70
784.19	216.71
784.51	216.63
784.83	216.54
785.16	216.48
785.48	216.49
785.80	216.42
786.12	216.42
786.45	216.35
