SpectraSuite Data File
++++++++++++++++++++++++++++++++++++
Date: Mon Feb 25 17:35:51 EST 2013
User: group
Dark Spectrum Present: No
Reference Spectrum Present: No
Number of Sampled Component Spectra: 1
Spectrometers: USB2E7196
Integration Time (usec): 52000 (USB2E7196)
Spectra Averaged: 20 (USB2E7196)
Boxcar Smoothing: 10 (USB2E7196)
Correct for Electrical Dark: No (USB2E7196)
Strobe/Lamp Enabled: No (USB2E7196)
Correct for Detector Non-linearity: No (USB2E7196)
Correct for Stray Light: No (USB2E7196)
Number of Pixels in Processed Spectrum: 2048
>>>>>Begin Processed Spectral Data<<<<<
339.09	0.00
339.48	199.55
339.86	199.80
340.24	202.30
340.63	203.10
341.01	207.95
341.39	206.10
341.78	207.60
342.16	208.15
342.54	209.20
342.93	198.15
343.31	208.16
343.69	208.65
344.07	209.08
344.46	209.49
344.84	209.89
345.22	210.08
345.60	210.34
345.99	210.52
346.37	210.69
346.75	210.78
347.13	210.77
347.52	210.90
347.90	211.03
348.28	211.08
348.66	211.15
349.05	211.16
349.43	211.20
349.81	211.22
350.19	211.29
350.57	211.31
350.96	211.40
351.34	211.49
351.72	211.60
352.10	211.78
352.48	211.89
352.87	211.94
353.25	211.98
353.63	212.05
354.01	212.13
354.39	212.24
354.77	212.35
355.15	212.51
355.54	212.60
355.92	212.66
356.30	212.71
356.68	212.93
357.06	213.00
357.44	213.14
357.82	213.19
358.20	213.29
358.58	213.31
358.97	213.38
359.35	213.55
359.73	213.67
360.11	213.75
360.49	213.80
360.87	213.84
361.25	213.93
361.63	214.01
362.01	214.04
362.39	214.03
362.77	214.11
363.15	214.19
363.53	214.22
363.91	214.30
364.29	214.42
364.67	214.30
365.05	214.35
365.43	214.33
365.81	214.41
366.19	214.46
366.57	214.61
366.95	214.65
367.33	214.54
367.71	214.55
368.09	214.60
368.47	214.59
368.85	214.64
369.23	214.73
369.61	214.69
369.99	214.81
370.37	214.94
370.75	214.95
371.13	214.95
371.51	214.93
371.89	214.91
372.27	214.84
372.65	214.94
373.03	214.92
373.41	214.93
373.78	214.92
374.16	214.78
374.54	214.67
374.92	214.58
375.30	214.67
375.68	214.63
376.06	214.56
376.44	214.52
376.82	214.47
377.19	214.41
377.57	214.37
377.95	214.25
378.33	214.20
378.71	214.04
379.09	213.97
379.47	213.95
379.84	213.90
380.22	213.85
380.60	213.67
380.98	213.66
381.36	213.61
381.73	213.50
382.11	213.51
382.49	213.51
382.87	213.45
383.25	213.34
383.62	213.47
384.00	213.39
384.38	213.37
384.76	213.44
385.13	213.36
385.51	213.36
385.89	213.29
386.27	213.20
386.64	213.25
387.02	213.21
387.40	213.16
387.78	213.08
388.15	213.06
388.53	213.09
388.91	213.01
389.29	212.96
389.66	212.95
390.04	212.95
390.42	213.00
390.79	213.07
391.17	213.10
391.55	212.90
391.92	212.89
392.30	212.91
392.68	212.80
393.05	212.83
393.43	212.83
393.81	212.81
394.18	212.77
394.56	212.75
394.94	212.80
395.31	212.74
395.69	212.82
396.06	212.84
396.44	212.81
396.82	212.83
397.19	212.95
397.57	212.95
397.95	212.93
398.32	212.89
398.70	212.96
399.07	212.97
399.45	212.97
399.82	213.08
400.20	213.08
400.58	213.11
400.95	213.10
401.33	213.16
401.70	213.42
402.08	213.57
402.45	213.64
402.83	213.75
403.20	213.90
403.58	213.97
403.95	214.18
404.33	214.42
404.71	214.61
405.08	214.89
405.46	215.15
405.83	215.41
406.21	215.68
406.58	215.92
406.96	216.28
407.33	216.64
407.70	217.00
408.08	217.51
408.45	218.01
408.83	218.47
409.20	218.91
409.58	219.27
409.95	219.79
410.33	220.40
410.70	220.96
411.08	221.66
411.45	222.38
411.82	223.08
412.20	223.77
412.57	224.76
412.95	225.52
413.32	226.55
413.69	227.57
414.07	228.61
414.44	229.86
414.82	231.11
415.19	232.47
415.56	233.81
415.94	235.27
416.31	236.91
416.68	238.57
417.06	240.58
417.43	242.52
417.81	244.59
418.18	246.81
418.55	249.17
418.93	251.65
419.30	254.29
419.67	257.02
420.04	259.83
420.42	262.71
420.79	266.12
421.16	269.51
421.54	273.06
421.91	276.76
422.28	280.49
422.66	284.50
423.03	288.51
423.40	292.74
423.77	297.13
424.15	301.72
424.52	306.50
424.89	311.69
425.26	316.61
425.64	321.35
426.01	326.50
426.38	331.93
426.75	337.47
427.13	343.26
427.50	349.29
427.87	355.63
428.24	361.90
428.61	367.91
428.99	374.50
429.36	381.70
429.73	388.83
430.10	395.86
430.47	403.21
430.85	410.99
431.22	418.96
431.59	427.41
431.96	435.55
432.33	444.58
432.70	453.06
433.08	463.27
433.45	472.93
433.82	482.60
434.19	493.42
434.56	503.90
434.93	513.86
435.30	523.97
435.68	535.13
436.05	546.32
436.42	557.28
436.79	567.38
437.16	578.28
437.53	589.72
437.90	601.28
438.27	612.33
438.64	623.83
439.01	634.59
439.38	644.31
439.75	653.63
440.13	664.31
440.50	674.44
440.87	682.71
441.24	691.33
441.61	700.72
441.98	707.61
442.35	715.96
442.72	724.18
443.09	731.91
443.46	736.85
443.83	740.19
444.20	743.10
444.57	747.36
444.94	749.48
445.31	751.51
445.68	753.37
446.05	754.41
446.42	753.71
446.79	752.63
447.16	751.37
447.53	750.42
447.90	746.36
448.27	742.70
448.64	736.97
449.01	732.91
449.37	725.69
449.74	718.70
450.11	709.93
450.48	700.74
450.85	691.52
451.22	683.51
451.59	675.93
451.96	668.84
452.33	659.01
452.70	649.98
453.07	639.48
453.43	628.83
453.80	618.45
454.17	608.33
454.54	598.85
454.91	588.69
455.28	578.95
455.65	569.75
456.02	559.98
456.38	552.15
456.75	542.27
457.12	534.10
457.49	526.02
457.86	518.43
458.23	511.76
458.59	504.39
458.96	496.85
459.33	490.12
459.70	483.36
460.07	478.02
460.43	471.97
460.80	466.21
461.17	461.14
461.54	455.88
461.91	450.85
462.27	445.74
462.64	441.49
463.01	436.65
463.38	432.02
463.74	427.61
464.11	423.54
464.48	420.05
464.85	416.24
465.21	413.37
465.58	410.16
465.95	406.43
466.32	403.29
466.68	400.34
467.05	397.27
467.42	394.19
467.78	391.02
468.15	388.11
468.52	385.79
468.88	382.81
469.25	380.16
469.62	378.02
469.98	375.90
470.35	373.84
470.72	371.84
471.08	369.76
471.45	368.04
471.82	366.32
472.18	364.39
472.55	363.07
472.92	361.28
473.28	359.84
473.65	358.49
474.02	357.11
474.38	355.87
474.75	354.95
475.11	353.97
475.48	353.19
475.85	352.52
476.21	351.93
476.58	351.49
476.94	351.20
477.31	350.82
477.67	350.40
478.04	350.14
478.41	350.10
478.77	350.14
479.14	350.03
479.50	350.29
479.87	350.73
480.23	351.05
480.60	351.40
480.96	351.78
481.33	352.47
481.69	353.24
482.06	353.92
482.42	354.63
482.79	355.44
483.15	356.57
483.52	357.89
483.88	359.19
484.25	360.43
484.61	361.97
484.98	363.39
485.34	365.10
485.71	366.96
486.07	368.97
486.44	370.87
486.80	373.03
487.17	375.22
487.53	377.59
487.90	380.08
488.26	382.69
488.62	385.61
488.99	388.44
489.35	391.57
489.72	394.84
490.08	398.27
490.44	401.85
490.81	405.58
491.17	409.31
491.54	413.45
491.90	417.80
492.26	422.24
492.63	426.96
492.99	431.94
493.36	436.98
493.72	442.26
494.08	448.00
494.45	454.01
494.81	460.16
495.17	466.54
495.54	473.26
495.90	480.29
496.26	487.35
496.63	494.81
496.99	502.50
497.35	510.66
497.72	519.14
498.08	527.87
498.44	536.81
498.80	546.41
499.17	556.16
499.53	566.12
499.89	576.58
500.26	587.25
500.62	598.07
500.98	609.60
501.34	621.30
501.71	633.40
502.07	645.58
502.43	658.20
502.79	671.30
503.16	684.85
503.52	698.57
503.88	712.84
504.24	727.42
504.60	742.14
504.97	757.36
505.33	772.58
505.69	788.78
506.05	805.27
506.41	821.77
506.78	838.41
507.14	855.62
507.50	873.24
507.86	891.27
508.22	909.66
508.59	927.96
508.95	946.75
509.31	965.93
509.67	985.75
510.03	1005.75
510.39	1026.34
510.75	1047.01
511.12	1068.21
511.48	1089.65
511.84	1111.15
512.20	1132.73
512.56	1154.76
512.92	1177.30
513.28	1199.78
513.64	1222.61
514.00	1245.40
514.37	1268.66
514.73	1292.46
515.09	1315.75
515.45	1338.96
515.81	1362.60
516.17	1386.61
516.53	1410.36
516.89	1434.45
517.25	1458.03
517.61	1481.70
517.97	1505.18
518.33	1528.89
518.69	1552.47
519.05	1576.63
519.41	1600.87
519.77	1625.51
520.13	1650.10
520.49	1674.46
520.85	1698.85
521.21	1722.93
521.57	1747.76
521.93	1771.59
522.29	1796.07
522.65	1820.33
523.01	1844.65
523.37	1868.29
523.73	1891.99
524.09	1915.89
524.45	1939.52
524.81	1963.81
525.17	1987.95
525.53	2012.13
525.89	2036.02
526.25	2059.50
526.61	2081.71
526.97	2104.83
527.33	2127.54
527.68	2149.92
528.04	2172.15
528.40	2193.86
528.76	2215.70
529.12	2237.58
529.48	2260.79
529.84	2282.13
530.20	2304.09
530.56	2326.02
530.91	2348.56
531.27	2370.69
531.63	2392.28
531.99	2414.15
532.35	2434.82
532.71	2455.48
533.07	2476.47
533.42	2496.29
533.78	2516.88
534.14	2537.14
534.50	2555.64
534.86	2574.53
535.21	2592.13
535.57	2611.52
535.93	2630.51
536.29	2648.91
536.65	2666.99
537.00	2683.06
537.36	2699.74
537.72	2715.98
538.08	2732.44
538.44	2748.02
538.79	2763.55
539.15	2779.06
539.51	2794.26
539.87	2809.97
540.22	2824.94
540.58	2840.03
540.94	2855.08
541.29	2868.80
541.65	2881.61
542.01	2895.68
542.37	2908.68
542.72	2922.52
543.08	2933.66
543.44	2946.03
543.79	2956.94
544.15	2966.95
544.51	2978.53
544.87	2989.60
545.22	2999.65
545.58	3009.03
545.94	3017.88
546.29	3025.90
546.65	3033.35
547.01	3040.35
547.36	3046.89
547.72	3053.30
548.07	3058.26
548.43	3063.14
548.79	3067.10
549.14	3072.32
549.50	3076.85
549.86	3081.57
550.21	3085.54
550.57	3090.60
550.92	3093.01
551.28	3096.12
551.64	3099.58
551.99	3102.35
552.35	3104.47
552.70	3107.00
553.06	3109.24
553.41	3112.47
553.77	3115.29
554.13	3117.54
554.48	3119.39
554.84	3121.33
555.19	3122.15
555.55	3122.92
555.90	3123.63
556.26	3125.09
556.61	3125.67
556.97	3125.13
557.32	3125.38
557.68	3124.76
558.03	3123.52
558.39	3122.77
558.74	3122.93
559.10	3122.21
559.45	3120.93
559.81	3120.49
560.16	3118.38
560.52	3116.30
560.87	3113.19
561.23	3108.97
561.58	3106.54
561.94	3103.39
562.29	3099.35
562.64	3097.38
563.00	3094.92
563.35	3092.44
563.71	3090.29
564.06	3087.71
564.42	3085.21
564.77	3082.13
565.12	3079.67
565.48	3076.61
565.83	3073.34
566.19	3070.16
566.54	3065.66
566.89	3061.81
567.25	3057.44
567.60	3053.47
567.96	3049.37
568.31	3044.91
568.66	3041.44
569.02	3036.76
569.37	3031.58
569.72	3028.16
570.08	3022.71
570.43	3016.75
570.78	3010.75
571.14	3003.78
571.49	2997.26
571.84	2990.70
572.20	2983.36
572.55	2976.36
572.90	2968.60
573.26	2961.32
573.61	2952.77
573.96	2945.53
574.31	2937.28
574.67	2928.69
575.02	2919.62
575.37	2910.84
575.72	2901.69
576.08	2893.23
576.43	2883.59
576.78	2875.10
577.13	2866.09
577.49	2856.77
577.84	2847.70
578.19	2838.49
578.54	2830.63
578.90	2822.18
579.25	2812.72
579.60	2802.05
579.95	2791.40
580.30	2782.23
580.66	2772.77
581.01	2762.83
581.36	2752.55
581.71	2743.20
582.06	2733.82
582.42	2725.18
582.77	2715.36
583.12	2705.99
583.47	2696.71
583.82	2687.95
584.17	2677.75
584.53	2667.12
584.88	2657.17
585.23	2646.69
585.58	2636.63
585.93	2625.71
586.28	2615.57
586.63	2606.11
586.98	2597.59
587.34	2589.04
587.69	2578.80
588.04	2568.52
588.39	2559.09
588.74	2549.02
589.09	2538.65
589.44	2527.62
589.79	2517.69
590.14	2508.10
590.49	2497.61
590.84	2486.82
591.19	2477.46
591.54	2467.53
591.89	2456.41
592.25	2445.78
592.60	2435.23
592.95	2424.35
593.30	2413.46
593.65	2402.37
594.00	2391.30
594.35	2381.68
594.70	2370.50
595.05	2361.03
595.40	2350.95
595.75	2339.70
596.10	2329.72
596.45	2319.52
596.80	2310.26
597.15	2300.35
597.50	2289.82
597.85	2279.98
598.19	2269.90
598.54	2259.59
598.89	2250.45
599.24	2242.17
599.59	2233.33
599.94	2225.40
600.29	2216.60
600.64	2207.27
600.99	2197.47
601.34	2188.89
601.69	2177.93
602.04	2168.36
602.39	2158.55
602.74	2149.36
603.08	2141.63
603.43	2133.46
603.78	2124.32
604.13	2114.68
604.48	2104.99
604.83	2096.58
605.18	2088.49
605.53	2079.33
605.87	2070.20
606.22	2061.05
606.57	2051.72
606.92	2042.38
607.27	2032.90
607.62	2024.64
607.96	2016.51
608.31	2009.18
608.66	1999.84
609.01	1991.41
609.36	1982.88
609.70	1973.55
610.05	1964.39
610.40	1954.96
610.75	1945.00
611.10	1935.90
611.44	1926.10
611.79	1916.11
612.14	1905.73
612.49	1895.05
612.83	1885.34
613.18	1874.35
613.53	1863.55
613.88	1852.31
614.22	1841.61
614.57	1830.37
614.92	1818.60
615.27	1807.42
615.61	1795.75
615.96	1785.44
616.31	1775.46
616.65	1765.43
617.00	1755.15
617.35	1745.16
617.70	1734.66
618.04	1724.20
618.39	1713.17
618.74	1702.63
619.08	1692.44
619.43	1682.45
619.78	1672.99
620.12	1663.46
620.47	1654.09
620.82	1644.09
621.16	1634.51
621.51	1624.88
621.85	1615.57
622.20	1605.98
622.55	1596.34
622.89	1587.17
623.24	1577.62
623.59	1567.87
623.93	1558.18
624.28	1549.15
624.62	1539.69
624.97	1530.11
625.32	1520.90
625.66	1512.38
626.01	1503.97
626.35	1495.80
626.70	1487.26
627.04	1478.46
627.39	1469.79
627.73	1461.34
628.08	1453.53
628.43	1445.23
628.77	1437.10
629.12	1428.55
629.46	1421.04
629.81	1412.91
630.15	1404.22
630.50	1395.88
630.84	1387.05
631.19	1378.24
631.53	1369.84
631.88	1360.87
632.22	1352.10
632.57	1343.84
632.91	1335.07
633.26	1326.78
633.60	1318.25
633.95	1310.04
634.29	1301.91
634.64	1293.99
634.98	1285.64
635.32	1277.36
635.67	1269.89
636.01	1261.95
636.36	1254.02
636.70	1245.99
637.05	1238.37
637.39	1231.06
637.73	1223.56
638.08	1216.78
638.42	1210.29
638.77	1202.85
639.11	1195.50
639.45	1188.34
639.80	1180.77
640.14	1173.64
640.49	1166.49
640.83	1159.01
641.17	1151.58
641.52	1144.24
641.86	1136.63
642.20	1129.39
642.55	1121.65
642.89	1113.79
643.23	1106.29
643.58	1099.37
643.92	1091.88
644.26	1084.25
644.61	1076.92
644.95	1069.80
645.29	1062.28
645.64	1054.11
645.98	1046.78
646.32	1039.95
646.66	1032.77
647.01	1025.85
647.35	1018.84
647.69	1011.29
648.04	1004.52
648.38	997.51
648.72	990.39
649.06	983.07
649.41	975.98
649.75	968.94
650.09	961.83
650.43	955.02
650.78	947.78
651.12	940.72
651.46	934.14
651.80	927.25
652.14	920.29
652.49	913.48
652.83	907.00
653.17	899.97
653.51	892.95
653.85	886.54
654.20	879.78
654.54	873.01
654.88	866.49
655.22	859.32
655.56	852.20
655.90	845.40
656.25	838.97
656.59	832.57
656.93	826.85
657.27	820.90
657.61	814.48
657.95	808.53
658.29	802.68
658.64	796.62
658.98	790.43
659.32	783.99
659.66	778.19
660.00	772.22
660.34	766.40
660.68	760.65
661.02	754.57
661.36	748.96
661.70	743.44
662.05	737.97
662.39	732.97
662.73	728.10
663.07	722.90
663.41	717.65
663.75	712.25
664.09	706.73
664.43	701.36
664.77	696.29
665.11	691.10
665.45	685.93
665.79	680.78
666.13	675.83
666.47	671.24
666.81	666.21
667.15	661.39
667.49	656.83
667.83	652.21
668.17	647.78
668.51	643.41
668.85	639.00
669.19	634.78
669.53	630.12
669.87	625.44
670.21	621.10
670.55	616.62
670.89	612.60
671.23	608.46
671.57	604.26
671.91	599.99
672.25	595.85
672.58	591.77
672.92	587.67
673.26	583.80
673.60	579.87
673.94	575.95
674.28	572.25
674.62	568.35
674.96	564.62
675.30	561.04
675.64	557.21
675.97	553.55
676.31	549.87
676.65	546.51
676.99	543.27
677.33	539.59
677.67	536.22
678.01	532.53
678.34	529.01
678.68	525.71
679.02	522.28
679.36	518.90
679.70	515.48
680.04	512.12
680.37	508.69
680.71	505.34
681.05	502.23
681.39	498.92
681.73	495.83
682.06	492.92
682.40	489.88
682.74	486.76
683.08	483.61
683.42	480.39
683.75	477.38
684.09	474.30
684.43	471.49
684.77	468.49
685.10	465.56
685.44	462.56
685.78	459.56
686.12	456.76
686.45	454.07
686.79	451.41
687.13	448.95
687.46	446.36
687.80	443.84
688.14	441.14
688.48	438.55
688.81	435.74
689.15	433.00
689.49	430.16
689.82	427.55
690.16	424.84
690.50	422.30
690.83	419.61
691.17	417.02
691.51	414.38
691.84	411.95
692.18	409.44
692.52	407.07
692.85	404.90
693.19	402.67
693.52	400.30
693.86	398.02
694.20	395.62
694.53	393.41
694.87	391.12
695.21	388.92
695.54	386.71
695.88	384.58
696.21	382.41
696.55	380.34
696.88	378.30
697.22	376.27
697.56	374.36
697.89	372.54
698.23	370.63
698.56	368.79
698.90	366.98
699.23	365.19
699.57	363.36
699.90	361.41
700.24	359.49
700.58	357.57
700.91	355.74
701.25	354.08
701.58	352.31
701.92	350.55
702.25	348.89
702.59	347.12
702.92	345.50
703.26	343.74
703.59	342.30
703.93	340.79
704.26	339.39
704.60	337.85
704.93	336.26
705.26	334.70
705.60	333.28
705.93	331.80
706.27	330.44
706.60	329.12
706.94	327.81
707.27	326.44
707.61	325.17
707.94	323.75
708.27	322.37
708.61	320.96
708.94	319.61
709.28	318.24
709.61	317.06
709.94	315.86
710.28	314.68
710.61	313.34
710.95	312.01
711.28	310.81
711.61	309.58
711.95	308.44
712.28	307.25
712.61	306.10
712.95	304.87
713.28	303.76
713.61	302.55
713.95	301.37
714.28	300.24
714.61	299.04
714.95	298.05
715.28	296.90
715.61	295.74
715.95	294.61
716.28	293.49
716.61	292.38
716.95	291.21
717.28	290.20
717.61	289.24
717.94	288.42
718.28	287.29
718.61	286.40
718.94	285.40
719.27	284.58
719.61	283.70
719.94	282.93
720.27	281.99
720.60	281.05
720.94	280.21
721.27	279.40
721.60	278.75
721.93	277.95
722.27	277.28
722.60	276.66
722.93	276.05
723.26	275.42
723.59	274.66
723.93	274.01
724.26	273.41
724.59	272.66
724.92	271.89
725.25	271.30
725.59	270.66
725.92	270.03
726.25	269.33
726.58	268.66
726.91	267.92
727.24	267.37
727.57	266.83
727.91	266.13
728.24	265.50
728.57	264.86
728.90	264.28
729.23	263.61
729.56	263.09
729.89	262.41
730.22	261.80
730.55	261.24
730.89	260.72
731.22	260.09
731.55	259.56
731.88	259.02
732.21	258.41
732.54	257.84
732.87	257.29
733.20	256.77
733.53	256.21
733.86	255.68
734.19	255.16
734.52	254.67
734.85	254.35
735.18	253.89
735.51	253.45
735.84	252.88
736.17	252.44
736.50	251.94
736.83	251.71
737.16	251.29
737.49	250.85
737.82	250.38
738.15	249.97
738.48	249.52
738.81	249.13
739.14	248.74
739.47	248.30
739.80	247.87
740.13	247.45
740.46	247.00
740.79	246.59
741.12	246.11
741.45	245.69
741.78	245.25
742.11	244.96
742.44	244.54
742.77	244.29
743.10	243.91
743.43	243.42
743.75	242.86
744.08	242.69
744.41	242.34
744.74	241.99
745.07	241.58
745.40	241.30
745.73	240.95
746.06	240.57
746.39	240.26
746.71	239.90
747.04	239.59
747.37	239.38
747.70	239.06
748.03	238.79
748.36	238.49
748.68	238.14
749.01	237.65
749.34	237.29
749.67	237.00
750.00	236.69
750.33	236.58
750.65	236.27
750.98	235.79
751.31	235.50
751.64	235.18
751.97	235.07
752.29	234.78
752.62	234.38
752.95	234.11
753.28	233.83
753.60	233.53
753.93	233.30
754.26	232.91
754.59	232.60
754.91	232.34
755.24	232.07
755.57	231.78
755.90	231.61
756.22	231.38
756.55	231.07
756.88	230.76
757.20	230.40
757.53	230.08
757.86	229.85
758.19	229.60
758.51	229.40
758.84	229.04
759.17	228.78
759.49	228.66
759.82	228.59
760.15	228.36
760.47	228.20
760.80	227.87
761.13	227.64
761.45	227.41
761.78	227.16
762.11	227.00
762.43	226.81
762.76	226.58
763.08	226.37
763.41	226.20
763.74	226.06
764.06	225.85
764.39	225.69
764.71	225.46
765.04	225.34
765.37	225.17
765.69	224.89
766.02	224.69
766.34	224.44
766.67	224.18
767.00	224.05
767.32	224.01
767.65	224.00
767.97	223.93
768.30	223.83
768.62	223.79
768.95	223.53
769.27	223.40
769.60	223.31
769.92	223.14
770.25	222.96
770.57	222.76
770.90	222.67
771.22	222.61
771.55	222.48
771.87	222.27
772.20	222.14
772.52	222.24
772.85	222.34
773.17	222.30
773.50	222.18
773.82	222.00
774.15	221.76
774.47	221.53
774.80	221.37
775.12	221.28
775.45	221.06
775.77	221.02
776.09	220.95
776.42	220.82
776.74	220.77
777.07	220.66
777.39	220.63
777.72	220.50
778.04	220.36
778.36	220.29
778.69	220.30
779.01	220.28
779.33	220.04
779.66	219.78
779.98	219.65
780.31	219.59
780.63	219.58
780.95	219.56
781.28	219.44
781.60	219.34
781.92	219.21
782.25	219.18
782.57	219.11
782.89	218.96
783.22	218.86
783.54	218.70
783.86	218.69
784.19	218.59
784.51	218.57
784.83	218.46
785.16	218.39
785.48	218.33
785.80	218.17
