SpectraSuite Data File
++++++++++++++++++++++++++++++++++++
Date: Mon Feb 25 17:32:23 EST 2013
User: group
Dark Spectrum Present: No
Reference Spectrum Present: No
Number of Sampled Component Spectra: 1
Spectrometers: USB2E7196
Integration Time (usec): 52000 (USB2E7196)
Spectra Averaged: 20 (USB2E7196)
Boxcar Smoothing: 10 (USB2E7196)
Correct for Electrical Dark: No (USB2E7196)
Strobe/Lamp Enabled: No (USB2E7196)
Correct for Detector Non-linearity: No (USB2E7196)
Correct for Stray Light: No (USB2E7196)
Number of Pixels in Processed Spectrum: 2048
>>>>>Begin Processed Spectral Data<<<<<
339.09	0.00
339.48	198.00
339.86	200.45
340.24	201.50
340.63	201.90
341.01	207.20
341.39	204.45
341.78	207.70
342.16	208.50
342.54	208.50
342.93	198.15
343.31	208.16
343.69	208.76
344.07	209.18
344.46	209.61
344.84	210.05
345.22	210.23
345.60	210.54
345.99	210.74
346.37	210.89
346.75	211.05
347.13	211.14
347.52	211.17
347.90	211.35
348.28	211.42
348.66	211.51
349.05	211.53
349.43	211.53
349.81	211.57
350.19	211.61
350.57	211.61
350.96	211.77
351.34	211.90
351.72	212.03
352.10	212.19
352.48	212.28
352.87	212.34
353.25	212.43
353.63	212.50
354.01	212.56
354.39	212.62
354.77	212.65
355.15	212.77
355.54	212.85
355.92	212.75
356.30	212.80
356.68	212.87
357.06	212.86
357.44	212.89
357.82	212.88
358.20	212.96
358.58	213.10
358.97	213.10
359.35	213.14
359.73	213.19
360.11	213.24
360.49	213.27
360.87	213.33
361.25	213.44
361.63	213.50
362.01	213.59
362.39	213.57
362.77	213.67
363.15	213.67
363.53	213.65
363.91	213.76
364.29	213.77
364.67	213.66
365.05	213.72
365.43	213.75
365.81	213.84
366.19	213.95
366.57	213.96
366.95	213.97
367.33	213.92
367.71	213.92
368.09	213.96
368.47	213.99
368.85	213.96
369.23	213.93
369.61	213.87
369.99	213.83
370.37	213.92
370.75	213.90
371.13	213.88
371.51	213.82
371.89	213.80
372.27	213.76
372.65	213.78
373.03	213.73
373.41	213.66
373.78	213.61
374.16	213.37
374.54	213.27
374.92	213.24
375.30	213.20
375.68	213.05
376.06	212.99
376.44	212.87
376.82	212.89
377.19	212.78
377.57	212.78
377.95	212.71
378.33	212.63
378.71	212.55
379.09	212.51
379.47	212.52
379.84	212.39
380.22	212.31
380.60	212.21
380.98	212.19
381.36	212.19
381.73	212.17
382.11	212.24
382.49	212.20
382.87	212.01
383.25	211.99
383.62	212.14
384.00	212.05
384.38	211.96
384.76	211.92
385.13	212.00
385.51	211.89
385.89	211.82
386.27	211.78
386.64	211.72
387.02	211.64
387.40	211.59
387.78	211.62
388.15	211.65
388.53	211.61
388.91	211.53
389.29	211.48
389.66	211.49
390.04	211.44
390.42	211.49
390.79	211.51
391.17	211.48
391.55	211.34
391.92	211.33
392.30	211.42
392.68	211.35
393.05	211.26
393.43	211.26
393.81	211.26
394.18	211.29
394.56	211.35
394.94	211.35
395.31	211.39
395.69	211.47
396.06	211.47
396.44	211.54
396.82	211.56
397.19	211.69
397.57	211.64
397.95	211.73
398.32	211.67
398.70	211.80
399.07	211.90
399.45	211.93
399.82	211.99
400.20	211.99
400.58	212.07
400.95	212.08
401.33	212.27
401.70	212.43
402.08	212.48
402.45	212.53
402.83	212.66
403.20	212.70
403.58	212.71
403.95	212.83
404.33	212.94
404.71	213.11
405.08	213.30
405.46	213.43
405.83	213.50
406.21	213.64
406.58	213.77
406.96	213.87
407.33	214.08
407.70	214.30
408.08	214.68
408.45	214.93
408.83	215.14
409.20	215.31
409.58	215.49
409.95	215.78
410.33	216.09
410.70	216.40
411.08	216.75
411.45	217.13
411.82	217.49
412.20	217.90
412.57	218.39
412.95	218.75
413.32	219.33
413.69	219.81
414.07	220.41
414.44	221.02
414.82	221.64
415.19	222.30
415.56	223.02
415.94	223.72
416.31	224.63
416.68	225.54
417.06	226.55
417.43	227.54
417.81	228.57
418.18	229.68
418.55	230.87
418.93	232.11
419.30	233.39
419.67	234.86
420.04	236.25
420.42	237.78
420.79	239.53
421.16	241.22
421.54	243.09
421.91	244.97
422.28	246.86
422.66	248.96
423.03	250.99
423.40	253.09
423.77	255.24
424.15	257.40
424.52	259.79
424.89	262.32
425.26	264.67
425.64	267.01
426.01	269.56
426.38	272.19
426.75	274.93
427.13	277.65
427.50	280.54
427.87	283.67
428.24	286.64
428.61	289.50
428.99	292.70
429.36	296.15
429.73	299.48
430.10	302.90
430.47	306.39
430.85	310.08
431.22	313.94
431.59	318.11
431.96	322.03
432.33	326.29
432.70	330.39
433.08	335.29
433.45	339.93
433.82	344.45
434.19	349.53
434.56	354.50
434.93	359.26
435.30	363.95
435.68	369.13
436.05	374.37
436.42	379.55
436.79	384.15
437.16	389.21
437.53	394.50
437.90	399.68
438.27	404.86
438.64	410.18
439.01	415.09
439.38	419.46
439.75	423.74
440.13	428.41
440.50	432.92
440.87	436.68
441.24	440.46
441.61	444.70
441.98	447.89
442.35	451.39
442.72	455.07
443.09	458.56
443.46	460.64
443.83	461.89
444.20	463.10
444.57	464.87
444.94	465.56
445.31	466.31
445.68	467.14
446.05	467.39
446.42	466.66
446.79	465.86
447.16	464.96
447.53	464.25
447.90	462.20
448.27	460.07
448.64	457.13
449.01	455.00
449.37	451.50
449.74	447.92
450.11	443.87
450.48	439.29
450.85	434.67
451.22	430.69
451.59	427.00
451.96	423.29
452.33	418.53
452.70	414.25
453.07	409.16
453.43	403.99
453.80	398.95
454.17	394.30
454.54	389.79
454.91	385.08
455.28	380.44
455.65	376.16
456.02	372.02
456.38	368.36
456.75	363.77
457.12	359.90
457.49	356.12
457.86	352.43
458.23	349.38
458.59	345.98
458.96	342.49
459.33	339.37
459.70	336.28
460.07	333.86
460.43	331.00
460.80	328.43
461.17	326.12
461.54	323.71
461.91	321.44
462.27	319.16
462.64	317.10
463.01	314.84
463.38	312.81
463.74	310.59
464.11	308.71
464.48	307.11
464.85	305.29
465.21	303.99
465.58	302.63
465.95	300.88
466.32	299.47
466.68	298.15
467.05	296.72
467.42	295.40
467.78	293.87
468.15	292.55
468.52	291.60
468.88	290.25
469.25	289.09
469.62	288.10
469.98	287.10
470.35	286.23
470.72	285.37
471.08	284.30
471.45	283.46
471.82	282.75
472.18	281.93
472.55	281.37
472.92	280.55
473.28	279.90
473.65	279.32
474.02	278.84
474.38	278.37
474.75	278.12
475.11	277.72
475.48	277.49
475.85	277.29
476.21	277.04
476.58	276.92
476.94	276.79
477.31	276.73
477.67	276.68
478.04	276.69
478.41	276.89
478.77	277.20
479.14	277.39
479.50	277.51
479.87	277.95
480.23	278.29
480.60	278.67
480.96	279.07
481.33	279.73
481.69	280.37
482.06	281.06
482.42	281.68
482.79	282.35
483.15	283.24
483.52	284.28
483.88	285.22
484.25	286.12
484.61	287.25
484.98	288.31
485.34	289.53
485.71	290.79
486.07	292.16
486.44	293.50
486.80	295.07
487.17	296.76
487.53	298.40
487.90	300.22
488.26	302.20
488.62	304.22
488.99	306.23
489.35	308.30
489.72	310.45
490.08	312.80
490.44	315.34
490.81	318.00
491.17	320.52
491.54	323.41
491.90	326.52
492.26	329.65
492.63	332.99
492.99	336.43
493.36	340.14
493.72	343.91
494.08	348.00
494.45	352.21
494.81	356.74
495.17	361.30
495.54	366.12
495.90	371.23
496.26	376.44
496.63	381.91
496.99	387.75
497.35	393.79
497.72	400.05
498.08	406.39
498.44	413.08
498.80	420.32
499.17	427.66
499.53	435.24
499.89	443.23
500.26	451.39
500.62	459.75
500.98	468.66
501.34	477.91
501.71	487.27
502.07	496.86
502.43	506.81
502.79	517.08
503.16	527.69
503.52	538.57
503.88	549.81
504.24	561.32
504.60	573.00
504.97	585.44
505.33	597.97
505.69	611.38
506.05	624.82
506.41	638.32
506.78	652.14
507.14	666.27
507.50	680.72
507.86	695.65
508.22	710.97
508.59	726.29
508.95	742.16
509.31	758.45
509.67	775.20
510.03	792.12
510.39	809.57
510.75	827.39
511.12	845.40
511.48	863.80
511.84	882.60
512.20	901.40
512.56	920.61
512.92	940.14
513.28	959.60
513.64	979.39
514.00	999.48
514.37	1019.87
514.73	1040.66
515.09	1061.65
515.45	1082.41
515.81	1103.69
516.17	1124.95
516.53	1146.26
516.89	1167.64
517.25	1188.99
517.61	1210.51
517.97	1231.90
518.33	1253.02
518.69	1274.62
519.05	1296.57
519.41	1318.45
519.77	1340.96
520.13	1362.89
520.49	1384.65
520.85	1407.19
521.21	1429.42
521.57	1452.09
521.93	1473.78
522.29	1496.40
522.65	1518.88
523.01	1541.50
523.37	1563.55
523.73	1585.77
524.09	1607.89
524.45	1630.39
524.81	1652.67
525.17	1675.35
525.53	1697.69
525.89	1720.18
526.25	1742.11
526.61	1763.13
526.97	1784.90
527.33	1806.02
527.68	1827.21
528.04	1848.42
528.40	1868.51
528.76	1889.34
529.12	1909.81
529.48	1931.69
529.84	1952.11
530.20	1972.09
530.56	1992.21
530.91	2012.63
531.27	2033.27
531.63	2053.24
531.99	2072.61
532.35	2091.82
532.71	2110.47
533.07	2129.82
533.42	2148.00
533.78	2166.64
534.14	2185.28
534.50	2202.06
534.86	2220.05
535.21	2236.70
535.57	2254.41
535.93	2271.46
536.29	2288.23
536.65	2304.64
537.00	2319.60
537.36	2334.64
537.72	2349.86
538.08	2365.10
538.44	2380.21
538.79	2395.04
539.15	2409.71
539.51	2424.43
539.87	2439.76
540.22	2453.85
540.58	2468.75
540.94	2483.56
541.29	2496.41
541.65	2508.47
542.01	2521.75
542.37	2533.30
542.72	2545.92
543.08	2556.68
543.44	2568.61
543.79	2578.68
544.15	2588.89
544.51	2600.18
544.87	2611.06
545.22	2620.16
545.58	2628.37
545.94	2635.61
546.29	2642.07
546.65	2648.36
547.01	2654.33
547.36	2659.67
547.72	2665.42
548.07	2669.46
548.43	2673.17
548.79	2677.35
549.14	2681.80
549.50	2685.95
549.86	2689.98
550.21	2693.58
550.57	2697.70
550.92	2700.22
551.28	2702.94
551.64	2705.48
551.99	2707.67
552.35	2709.40
552.70	2712.16
553.06	2715.03
553.41	2718.06
553.77	2721.03
554.13	2723.16
554.48	2724.86
554.84	2726.03
555.19	2726.33
555.55	2726.51
555.90	2726.97
556.26	2727.42
556.61	2727.69
556.97	2726.59
557.32	2725.97
557.68	2724.35
558.03	2722.92
558.39	2721.70
558.74	2720.97
559.10	2719.54
559.45	2717.38
559.81	2716.07
560.16	2713.19
560.52	2710.60
560.87	2707.47
561.23	2703.57
561.58	2701.34
561.94	2698.27
562.29	2695.01
562.64	2693.05
563.00	2690.56
563.35	2688.19
563.71	2686.14
564.06	2683.94
564.42	2682.08
564.77	2680.06
565.12	2678.48
565.48	2675.20
565.83	2671.97
566.19	2669.19
566.54	2665.18
566.89	2661.48
567.25	2657.68
567.60	2654.65
567.96	2651.10
568.31	2647.72
568.66	2644.08
569.02	2639.22
569.37	2634.43
569.72	2630.47
570.08	2624.96
570.43	2619.10
570.78	2613.40
571.14	2607.12
571.49	2600.38
571.84	2594.45
572.20	2587.41
572.55	2580.40
572.90	2574.00
573.26	2567.02
573.61	2559.70
573.96	2553.19
574.31	2545.33
574.67	2537.25
575.02	2528.91
575.37	2520.11
575.72	2511.06
576.08	2503.42
576.43	2494.80
576.78	2486.87
577.13	2478.49
577.49	2470.53
577.84	2463.22
578.19	2455.68
578.54	2448.16
578.90	2441.41
579.25	2432.68
579.60	2423.74
579.95	2414.45
580.30	2406.17
580.66	2397.97
581.01	2388.76
581.36	2379.62
581.71	2371.87
582.06	2363.34
582.42	2355.00
582.77	2345.94
583.12	2337.25
583.47	2328.51
583.82	2320.55
584.17	2311.54
584.53	2302.61
584.88	2293.54
585.23	2284.25
585.58	2274.61
585.93	2265.07
586.28	2255.81
586.63	2247.23
586.98	2238.80
587.34	2230.72
587.69	2221.63
588.04	2212.80
588.39	2204.74
588.74	2195.62
589.09	2186.01
589.44	2176.47
589.79	2167.81
590.14	2160.15
590.49	2151.75
590.84	2142.60
591.19	2134.21
591.54	2125.43
591.89	2115.35
592.25	2106.42
592.60	2096.93
592.95	2087.97
593.30	2078.65
593.65	2068.82
594.00	2059.05
594.35	2051.04
594.70	2041.92
595.05	2033.35
595.40	2024.62
595.75	2014.88
596.10	2006.68
596.45	1998.64
596.80	1991.17
597.15	1982.97
597.50	1974.12
597.85	1965.65
598.19	1956.97
598.54	1948.24
598.89	1940.56
599.24	1933.97
599.59	1926.68
599.94	1919.92
600.29	1911.95
600.64	1904.19
600.99	1895.74
601.34	1888.62
601.69	1879.36
602.04	1871.48
602.39	1863.51
602.74	1855.67
603.08	1849.11
603.43	1842.23
603.78	1834.09
604.13	1825.80
604.48	1817.93
604.83	1810.85
605.18	1803.96
605.53	1796.41
605.87	1788.95
606.22	1781.97
606.57	1774.32
606.92	1766.08
607.27	1757.82
607.62	1750.58
607.96	1743.64
608.31	1737.59
608.66	1729.76
609.01	1722.90
609.36	1715.08
609.70	1707.09
610.05	1699.27
610.40	1691.17
610.75	1682.55
611.10	1675.09
611.44	1666.37
611.79	1657.22
612.14	1648.05
612.49	1638.41
612.83	1630.12
613.18	1620.52
613.53	1610.83
613.88	1600.98
614.22	1591.96
614.57	1582.66
614.92	1573.21
615.27	1563.85
615.61	1554.02
615.96	1545.05
616.31	1536.23
616.65	1528.52
617.00	1520.07
617.35	1511.51
617.70	1502.46
618.04	1493.54
618.39	1484.32
618.74	1475.65
619.08	1467.39
619.43	1459.24
619.78	1451.61
620.12	1443.46
620.47	1435.83
620.82	1427.50
621.16	1419.31
621.51	1411.27
621.85	1403.40
622.20	1395.10
622.55	1386.60
622.89	1378.56
623.24	1370.68
623.59	1362.26
623.93	1353.43
624.28	1345.23
624.62	1337.03
624.97	1329.07
625.32	1321.24
625.66	1313.98
626.01	1306.75
626.35	1299.55
626.70	1291.56
627.04	1283.89
627.39	1276.20
627.73	1268.72
628.08	1261.61
628.43	1254.35
628.77	1246.89
629.12	1239.33
629.46	1232.70
629.81	1225.71
630.15	1218.36
630.50	1210.88
630.84	1203.51
631.19	1196.51
631.53	1189.58
631.88	1182.08
632.22	1174.47
632.57	1167.37
632.91	1159.90
633.26	1152.39
633.60	1145.04
633.95	1138.53
634.29	1131.38
634.64	1124.85
634.98	1117.86
635.32	1111.04
635.67	1104.70
636.01	1098.01
636.36	1091.53
636.70	1084.96
637.05	1078.38
637.39	1072.33
637.73	1066.12
638.08	1060.28
638.42	1054.19
638.77	1047.97
639.11	1041.94
639.45	1036.15
639.80	1029.70
640.14	1023.23
640.49	1017.09
640.83	1010.90
641.17	1004.56
641.52	998.62
641.86	992.02
642.20	985.92
642.55	979.26
642.89	972.57
643.23	966.20
643.58	960.38
643.92	953.56
644.26	947.33
644.61	940.97
644.95	935.02
645.29	928.75
645.64	922.22
645.98	916.00
646.32	910.15
646.66	903.90
647.01	898.05
647.35	892.28
647.69	886.10
648.04	880.20
648.38	874.28
648.72	868.17
649.06	862.20
649.41	856.07
649.75	850.18
650.09	844.53
650.43	838.76
650.78	832.35
651.12	826.64
651.46	820.87
651.80	814.98
652.14	808.79
652.49	802.80
652.83	797.06
653.17	790.92
653.51	784.83
653.85	779.15
654.20	773.37
654.54	767.53
654.88	762.14
655.22	756.36
655.56	750.50
655.90	744.65
656.25	738.83
656.59	733.36
656.93	728.33
657.27	723.11
657.61	717.50
657.95	712.42
658.29	707.35
658.64	702.26
658.98	697.13
659.32	691.70
659.66	686.78
660.00	681.55
660.34	676.37
660.68	671.25
661.02	666.21
661.36	661.51
661.70	656.71
662.05	651.90
662.39	647.64
662.73	643.28
663.07	639.05
663.41	634.78
663.75	630.27
664.09	625.39
664.43	620.75
664.77	616.71
665.11	612.27
665.45	607.84
665.79	603.45
666.13	599.12
666.47	594.98
666.81	590.87
667.15	586.85
667.49	583.12
667.83	579.36
668.17	575.58
668.51	571.83
668.85	568.14
669.19	564.52
669.53	560.41
669.87	556.31
670.21	552.37
670.55	548.44
670.89	545.04
671.23	541.93
671.57	538.44
671.91	534.79
672.25	531.26
672.58	527.86
672.92	524.28
673.26	520.99
673.60	517.95
673.94	514.53
674.28	511.22
674.62	508.00
674.96	504.82
675.30	501.75
675.64	498.53
675.97	495.48
676.31	492.40
676.65	489.44
676.99	486.88
677.33	483.93
677.67	481.15
678.01	477.95
678.34	474.85
678.68	471.98
679.02	468.99
679.36	466.09
679.70	463.23
680.04	460.54
680.37	457.53
680.71	454.76
681.05	452.16
681.39	449.47
681.73	446.83
682.06	444.29
682.40	441.77
682.74	439.14
683.08	436.48
683.42	433.82
683.75	431.29
684.09	428.63
684.43	426.20
684.77	423.59
685.10	421.13
685.44	418.58
685.78	416.01
686.12	413.83
686.45	411.53
686.79	409.26
687.13	407.09
687.46	405.05
687.80	402.88
688.14	400.52
688.48	398.47
688.81	396.19
689.15	393.89
689.49	391.58
689.82	389.54
690.16	387.24
690.50	385.01
690.83	382.79
691.17	380.54
691.51	378.28
691.84	376.29
692.18	374.38
692.52	372.48
692.85	370.69
693.19	368.80
693.52	366.87
693.86	364.92
694.20	363.05
694.53	361.13
694.87	359.11
695.21	357.17
695.54	355.20
695.88	353.30
696.21	351.58
696.55	349.81
696.88	347.93
697.22	346.31
697.56	344.79
697.89	343.17
698.23	341.49
698.56	339.98
698.90	338.39
699.23	336.63
699.57	334.98
699.90	333.31
700.24	331.57
700.58	329.99
700.91	328.59
701.25	327.17
701.58	325.83
701.92	324.49
702.25	323.07
702.59	321.66
702.92	320.35
703.26	318.85
703.59	317.61
703.93	316.49
704.26	315.21
704.60	313.90
704.93	312.73
705.26	311.49
705.60	310.29
705.93	309.14
706.27	308.00
706.60	306.90
706.94	305.80
707.27	304.76
707.61	303.73
707.94	302.52
708.27	301.29
708.61	300.09
708.94	299.00
709.28	297.92
709.61	296.85
709.94	295.76
710.28	294.74
710.61	293.55
710.95	292.41
711.28	291.52
711.61	290.46
711.95	289.44
712.28	288.52
712.61	287.47
712.95	286.57
713.28	285.70
713.61	284.69
713.95	283.80
714.28	282.85
714.61	281.90
714.95	280.96
715.28	280.01
715.61	279.06
715.95	278.12
716.28	277.17
716.61	276.26
716.95	275.35
717.28	274.53
717.61	273.77
717.94	272.88
718.28	271.95
718.61	271.24
718.94	270.53
719.27	269.84
719.61	269.17
719.94	268.39
720.27	267.50
720.60	266.81
720.94	266.02
721.27	265.31
721.60	264.58
721.93	263.99
722.27	263.34
722.60	262.75
722.93	262.11
723.26	261.61
723.59	261.09
723.93	260.57
724.26	259.95
724.59	259.36
724.92	258.85
725.25	258.40
725.59	257.82
725.92	257.19
726.25	256.57
726.58	255.97
726.91	255.48
727.24	255.07
727.57	254.54
727.91	254.06
728.24	253.64
728.57	253.28
728.90	252.77
729.23	252.29
729.56	251.93
729.89	251.43
730.22	250.94
730.55	250.44
730.89	250.11
731.22	249.60
731.55	249.13
731.88	248.74
732.21	248.26
732.54	247.82
732.87	247.44
733.20	247.07
733.53	246.65
733.86	246.24
734.19	245.78
734.52	245.45
734.85	245.19
735.18	244.68
735.51	244.28
735.84	243.99
736.17	243.66
736.50	243.16
736.83	243.09
737.16	242.72
737.49	242.40
737.82	242.00
738.15	241.75
738.48	241.45
738.81	240.98
739.14	240.58
739.47	240.16
739.80	239.80
740.13	239.48
740.46	239.17
740.79	238.76
741.12	238.43
741.45	238.08
741.78	237.65
742.11	237.47
742.44	237.10
742.77	236.75
743.10	236.47
743.43	236.15
743.75	235.69
744.08	235.64
744.41	235.36
744.74	234.99
745.07	234.65
745.40	234.43
745.73	234.20
746.06	233.91
746.39	233.72
746.71	233.41
747.04	233.16
747.37	232.91
747.70	232.74
748.03	232.50
748.36	232.32
748.68	232.10
749.01	231.74
749.34	231.52
749.67	231.27
750.00	231.03
750.33	230.94
750.65	230.66
750.98	230.19
751.31	229.94
751.64	229.81
751.97	229.67
752.29	229.40
752.62	229.16
752.95	228.91
753.28	228.75
753.60	228.53
753.93	228.31
754.26	228.06
754.59	227.71
754.91	227.49
755.24	227.28
755.57	227.08
755.90	226.94
756.22	226.72
756.55	226.46
756.88	226.24
757.20	225.87
757.53	225.64
757.86	225.46
758.19	225.39
758.51	225.14
758.84	224.88
759.17	224.69
759.49	224.57
759.82	224.55
760.15	224.33
760.47	224.16
760.80	223.93
761.13	223.87
761.45	223.72
761.78	223.55
762.11	223.40
762.43	223.22
762.76	223.06
763.08	222.90
763.41	222.82
763.74	222.69
764.06	222.59
764.39	222.39
764.71	222.27
765.04	221.99
765.37	221.83
765.69	221.68
766.02	221.53
766.34	221.40
766.67	221.20
767.00	221.10
767.32	221.01
767.65	220.99
767.97	220.82
768.30	220.77
768.62	220.76
768.95	220.56
769.27	220.44
769.60	220.35
769.92	220.25
770.25	220.15
770.57	220.01
770.90	219.94
771.22	219.90
771.55	219.85
771.87	219.82
772.20	219.73
772.52	219.79
772.85	219.91
773.17	219.78
773.50	219.61
773.82	219.56
774.15	219.44
774.47	219.28
774.80	219.15
775.12	219.00
775.45	218.89
775.77	218.85
776.09	218.76
776.42	218.68
776.74	218.68
777.07	218.56
777.39	218.47
777.72	218.33
778.04	218.25
778.36	218.15
778.69	218.04
779.01	218.00
779.33	217.84
779.66	217.61
779.98	217.49
780.31	217.50
780.63	217.43
780.95	217.41
781.28	217.33
781.60	217.25
781.92	217.25
782.25	217.15
782.57	217.05
782.89	216.92
783.22	216.85
783.54	216.72
783.86	216.68
784.19	216.65
784.51	216.65
784.83	216.55
785.16	216.51
785.48	216.46
785.80	216.47
786.12	216.40
786.45	216.34
