SpectraSuite Data File
++++++++++++++++++++++++++++++++++++
Date: Mon Feb 25 17:30:19 EST 2013
User: group
Dark Spectrum Present: No
Reference Spectrum Present: No
Number of Sampled Component Spectra: 1
Spectrometers: USB2E7196
Integration Time (usec): 52000 (USB2E7196)
Spectra Averaged: 20 (USB2E7196)
Boxcar Smoothing: 10 (USB2E7196)
Correct for Electrical Dark: No (USB2E7196)
Strobe/Lamp Enabled: No (USB2E7196)
Correct for Detector Non-linearity: No (USB2E7196)
Correct for Stray Light: No (USB2E7196)
Number of Pixels in Processed Spectrum: 2048
>>>>>Begin Processed Spectral Data<<<<<
339.09	0.00
339.48	199.40
339.86	200.80
340.24	202.80
340.63	202.75
341.01	207.30
341.39	205.00
341.78	208.10
342.16	209.10
342.54	209.30
342.93	198.35
343.31	208.38
343.69	208.95
344.07	209.36
344.46	209.72
344.84	210.09
345.22	210.24
345.60	210.43
345.99	210.54
346.37	210.67
346.75	210.74
347.13	210.81
347.52	210.87
347.90	210.97
348.28	210.93
348.66	211.00
349.05	210.95
349.43	211.03
349.81	210.94
350.19	210.97
350.57	211.01
350.96	211.10
351.34	211.13
351.72	211.17
352.10	211.28
352.48	211.36
352.87	211.43
353.25	211.48
353.63	211.64
354.01	211.75
354.39	211.76
354.77	211.82
355.15	211.91
355.54	211.90
355.92	211.98
356.30	212.02
356.68	212.16
357.06	212.24
357.44	212.27
357.82	212.33
358.20	212.47
358.58	212.56
358.97	212.65
359.35	212.80
359.73	212.84
360.11	212.92
360.49	212.98
360.87	213.02
361.25	213.14
361.63	213.23
362.01	213.21
362.39	213.27
362.77	213.37
363.15	213.39
363.53	213.43
363.91	213.47
364.29	213.50
364.67	213.39
365.05	213.48
365.43	213.52
365.81	213.55
366.19	213.63
366.57	213.70
366.95	213.67
367.33	213.63
367.71	213.71
368.09	213.72
368.47	213.80
368.85	213.86
369.23	213.83
369.61	213.73
369.99	213.87
370.37	213.90
370.75	213.98
371.13	213.94
371.51	213.95
371.89	213.96
372.27	214.01
372.65	214.04
373.03	213.98
373.41	213.96
373.78	213.95
374.16	213.77
374.54	213.68
374.92	213.69
375.30	213.66
375.68	213.55
376.06	213.55
376.44	213.43
376.82	213.39
377.19	213.37
377.57	213.44
377.95	213.29
378.33	213.25
378.71	213.10
379.09	213.13
379.47	213.09
379.84	212.97
380.22	212.93
380.60	212.92
380.98	212.86
381.36	212.82
381.73	212.79
382.11	212.79
382.49	212.80
382.87	212.75
383.25	212.71
383.62	212.89
384.00	212.78
384.38	212.73
384.76	212.73
385.13	212.81
385.51	212.66
385.89	212.60
386.27	212.57
386.64	212.54
387.02	212.45
387.40	212.45
387.78	212.45
388.15	212.39
388.53	212.30
388.91	212.25
389.29	212.20
389.66	212.19
390.04	212.17
390.42	212.16
390.79	212.09
391.17	212.05
391.55	211.80
391.92	211.76
392.30	211.78
392.68	211.69
393.05	211.58
393.43	211.60
393.81	211.55
394.18	211.47
394.56	211.46
394.94	211.45
395.31	211.35
395.69	211.39
396.06	211.43
396.44	211.41
396.82	211.37
397.19	211.51
397.57	211.51
397.95	211.55
398.32	211.46
398.70	211.47
399.07	211.50
399.45	211.55
399.82	211.67
400.20	211.69
400.58	211.74
400.95	211.72
401.33	211.77
401.70	212.05
402.08	212.18
402.45	212.19
402.83	212.28
403.20	212.38
403.58	212.39
403.95	212.50
404.33	212.60
404.71	212.80
405.08	212.94
405.46	213.04
405.83	213.07
406.21	213.22
406.58	213.35
406.96	213.55
407.33	213.72
407.70	213.85
408.08	214.20
408.45	214.43
408.83	214.70
409.20	214.92
409.58	214.98
409.95	215.19
410.33	215.54
410.70	215.80
411.08	216.17
411.45	216.63
411.82	216.95
412.20	217.41
412.57	217.89
412.95	218.19
413.32	218.79
413.69	219.37
414.07	219.94
414.44	220.62
414.82	221.15
415.19	221.86
415.56	222.58
415.94	223.19
416.31	224.03
416.68	224.93
417.06	225.88
417.43	226.83
417.81	227.95
418.18	229.02
418.55	230.15
418.93	231.40
419.30	232.68
419.67	234.00
420.04	235.32
420.42	236.74
420.79	238.44
421.16	239.99
421.54	241.71
421.91	243.55
422.28	245.32
422.66	247.33
423.03	249.31
423.40	251.36
423.77	253.57
424.15	255.74
424.52	257.95
424.89	260.48
425.26	262.86
425.64	265.07
426.01	267.55
426.38	270.20
426.75	272.87
427.13	275.51
427.50	278.43
427.87	281.48
428.24	284.41
428.61	287.32
428.99	290.49
429.36	293.83
429.73	297.22
430.10	300.67
430.47	304.17
430.85	307.72
431.22	311.38
431.59	315.39
431.96	319.28
432.33	323.50
432.70	327.59
433.08	332.51
433.45	337.15
433.82	341.69
434.19	346.61
434.56	351.42
434.93	356.05
435.30	360.60
435.68	365.68
436.05	370.72
436.42	375.65
436.79	380.20
437.16	385.15
437.53	390.31
437.90	395.34
438.27	400.36
438.64	405.66
439.01	410.55
439.38	414.85
439.75	418.96
440.13	423.68
440.50	428.12
440.87	431.50
441.24	435.08
441.61	439.08
441.98	441.98
442.35	445.44
442.72	449.00
443.09	452.49
443.46	454.45
443.83	455.91
444.20	457.04
444.57	458.81
444.94	459.59
445.31	460.36
445.68	461.17
446.05	461.35
446.42	460.58
446.79	459.81
447.16	458.89
447.53	458.26
447.90	456.24
448.27	454.15
448.64	451.45
449.01	449.54
449.37	446.10
449.74	442.86
450.11	438.92
450.48	434.69
450.85	430.27
451.22	426.54
451.59	422.77
451.96	419.39
452.33	414.75
452.70	410.60
453.07	405.55
453.43	400.38
453.80	395.56
454.17	390.97
454.54	386.63
454.91	382.00
455.28	377.37
455.65	372.98
456.02	368.72
456.38	365.11
456.75	360.61
457.12	356.78
457.49	353.05
457.86	349.47
458.23	346.30
458.59	342.85
458.96	339.39
459.33	336.36
459.70	333.30
460.07	330.78
460.43	327.96
460.80	325.36
461.17	323.11
461.54	320.71
461.91	318.42
462.27	316.12
462.64	314.21
463.01	312.03
463.38	310.03
463.74	307.91
464.11	306.01
464.48	304.40
464.85	302.68
465.21	301.34
465.58	299.91
465.95	298.17
466.32	296.78
466.68	295.36
467.05	294.04
467.42	292.71
467.78	291.32
468.15	289.95
468.52	288.95
468.88	287.75
469.25	286.59
469.62	285.63
469.98	284.66
470.35	283.79
470.72	282.99
471.08	282.07
471.45	281.39
471.82	280.73
472.18	279.79
472.55	279.29
472.92	278.58
473.28	278.03
473.65	277.48
474.02	276.95
474.38	276.66
474.75	276.35
475.11	275.92
475.48	275.77
475.85	275.62
476.21	275.45
476.58	275.32
476.94	275.29
477.31	275.22
477.67	275.22
478.04	275.28
478.41	275.40
478.77	275.72
479.14	275.83
479.50	276.04
479.87	276.50
480.23	276.88
480.60	277.29
480.96	277.73
481.33	278.35
481.69	278.94
482.06	279.49
482.42	280.09
482.79	280.85
483.15	281.61
483.52	282.62
483.88	283.55
484.25	284.51
484.61	285.60
484.98	286.71
485.34	288.04
485.71	289.37
486.07	290.83
486.44	292.22
486.80	293.80
487.17	295.47
487.53	297.20
487.90	299.03
488.26	300.94
488.62	302.86
488.99	304.94
489.35	307.10
489.72	309.39
490.08	311.79
490.44	314.24
490.81	316.94
491.17	319.52
491.54	322.40
491.90	325.36
492.26	328.62
492.63	331.98
492.99	335.34
493.36	338.86
493.72	342.63
494.08	346.65
494.45	350.96
494.81	355.37
495.17	359.93
495.54	364.72
495.90	369.69
496.26	374.93
496.63	380.45
496.99	386.02
497.35	392.00
497.72	398.23
498.08	404.68
498.44	411.32
498.80	418.47
499.17	425.96
499.53	433.70
499.89	441.57
500.26	449.50
500.62	457.67
500.98	466.33
501.34	475.37
501.71	484.49
502.07	493.90
502.43	503.93
502.79	514.00
503.16	524.53
503.52	535.35
503.88	546.63
504.24	558.15
504.60	570.10
504.97	582.26
505.33	594.65
505.69	607.88
506.05	621.24
506.41	634.59
506.78	648.20
507.14	662.12
507.50	676.58
507.86	691.56
508.22	706.86
508.59	722.25
508.95	738.05
509.31	754.20
509.67	770.87
510.03	787.49
510.39	804.85
510.75	822.39
511.12	840.36
511.48	858.32
511.84	876.30
512.20	894.63
512.56	913.67
512.92	932.98
513.28	952.03
513.64	971.50
514.00	991.08
514.37	1010.95
514.73	1031.36
515.09	1051.69
515.45	1072.05
515.81	1092.76
516.17	1113.68
516.53	1134.48
516.89	1155.73
517.25	1176.60
517.61	1197.85
517.97	1218.97
518.33	1240.03
518.69	1261.33
519.05	1282.98
519.41	1304.87
519.77	1327.18
520.13	1348.56
520.49	1370.22
520.85	1392.42
521.21	1414.19
521.57	1436.60
521.93	1458.28
522.29	1480.42
522.65	1502.37
523.01	1524.38
523.37	1545.98
523.73	1568.01
524.09	1589.60
524.45	1611.60
524.81	1633.28
525.17	1655.23
525.53	1676.96
525.89	1698.78
526.25	1720.23
526.61	1740.91
526.97	1761.97
527.33	1782.36
527.68	1803.19
528.04	1823.76
528.40	1843.40
528.76	1863.57
529.12	1883.63
529.48	1904.66
529.84	1924.47
530.20	1944.31
530.56	1964.13
530.91	1984.37
531.27	2003.81
531.63	2023.40
531.99	2042.19
532.35	2061.02
532.71	2079.03
533.07	2097.98
533.42	2115.81
533.78	2133.90
534.14	2151.54
534.50	2168.20
534.86	2185.48
535.21	2201.65
535.57	2218.63
535.93	2235.46
536.29	2251.56
536.65	2267.27
537.00	2281.63
537.36	2296.48
537.72	2310.96
538.08	2325.25
538.44	2339.77
538.79	2354.69
539.15	2368.85
539.51	2382.85
539.87	2397.59
540.22	2411.46
540.58	2425.67
540.94	2439.31
541.29	2451.39
541.65	2463.20
542.01	2475.81
542.37	2487.34
542.72	2499.12
543.08	2509.58
543.44	2520.75
543.79	2530.49
544.15	2540.38
544.51	2551.00
544.87	2561.35
545.22	2570.03
545.58	2578.24
545.94	2584.83
546.29	2590.69
546.65	2596.33
547.01	2601.93
547.36	2606.72
547.72	2611.81
548.07	2615.36
548.43	2618.82
548.79	2622.44
549.14	2626.46
549.50	2630.39
549.86	2633.63
550.21	2637.20
550.57	2640.51
550.92	2642.43
551.28	2644.70
551.64	2646.85
551.99	2648.90
552.35	2650.27
552.70	2652.62
553.06	2655.01
553.41	2657.58
553.77	2660.00
554.13	2662.07
554.48	2663.55
554.84	2664.60
555.19	2665.00
555.55	2664.88
555.90	2664.95
556.26	2665.27
556.61	2665.06
556.97	2663.30
557.32	2662.87
557.68	2660.93
558.03	2659.76
558.39	2658.37
558.74	2657.90
559.10	2656.18
559.45	2653.91
559.81	2652.09
560.16	2649.01
560.52	2646.44
560.87	2643.62
561.23	2639.97
561.58	2637.58
561.94	2634.29
562.29	2630.49
562.64	2627.98
563.00	2625.47
563.35	2623.03
563.71	2621.23
564.06	2618.98
564.42	2617.14
564.77	2614.36
565.12	2612.55
565.48	2608.90
565.83	2605.38
566.19	2601.92
566.54	2597.73
566.89	2594.12
567.25	2590.23
567.60	2586.91
567.96	2583.09
568.31	2579.24
568.66	2574.96
569.02	2569.99
569.37	2564.83
569.72	2561.09
570.08	2555.57
570.43	2549.95
570.78	2544.55
571.14	2537.93
571.49	2531.50
571.84	2525.16
572.20	2518.25
572.55	2511.51
572.90	2504.82
573.26	2498.28
573.61	2491.43
573.96	2485.11
574.31	2477.62
574.67	2469.89
575.02	2461.41
575.37	2453.12
575.72	2444.13
576.08	2436.89
576.43	2428.31
576.78	2421.18
577.13	2413.14
577.49	2405.66
577.84	2398.06
578.19	2390.73
578.54	2383.85
578.90	2377.02
579.25	2368.98
579.60	2360.27
579.95	2351.32
580.30	2343.52
580.66	2335.44
581.01	2326.48
581.36	2317.25
581.71	2308.82
582.06	2300.45
582.42	2292.91
582.77	2283.96
583.12	2275.51
583.47	2267.11
583.82	2259.22
584.17	2250.02
584.53	2241.22
584.88	2232.58
585.23	2223.84
585.58	2214.57
585.93	2204.97
586.28	2195.82
586.63	2187.27
586.98	2179.59
587.34	2171.35
587.69	2162.45
588.04	2153.45
588.39	2145.27
588.74	2136.93
589.09	2128.69
589.44	2119.20
589.79	2110.79
590.14	2103.39
590.49	2095.50
590.84	2086.45
591.19	2078.84
591.54	2070.77
591.89	2061.08
592.25	2052.22
592.60	2042.89
592.95	2033.72
593.30	2024.26
593.65	2015.10
594.00	2005.78
594.35	1997.65
594.70	1988.96
595.05	1980.76
595.40	1972.59
595.75	1963.50
596.10	1955.70
596.45	1947.32
596.80	1940.25
597.15	1932.39
597.50	1923.36
597.85	1915.27
598.19	1907.46
598.54	1898.80
598.89	1891.03
599.24	1884.63
599.59	1877.24
599.94	1870.48
600.29	1862.95
600.64	1855.74
600.99	1847.55
601.34	1840.51
601.69	1832.09
602.04	1824.21
602.39	1816.41
602.74	1808.90
603.08	1802.84
603.43	1795.95
603.78	1788.29
604.13	1780.17
604.48	1772.66
604.83	1766.17
605.18	1759.42
605.53	1751.92
605.87	1744.83
606.22	1737.85
606.57	1730.45
606.92	1722.94
607.27	1715.32
607.62	1708.44
607.96	1701.80
608.31	1696.02
608.66	1688.64
609.01	1681.37
609.36	1674.32
609.70	1666.66
610.05	1658.98
610.40	1650.78
610.75	1642.46
611.10	1635.25
611.44	1626.61
611.79	1617.71
612.14	1608.60
612.49	1599.22
612.83	1590.80
613.18	1581.55
613.53	1572.50
613.88	1563.04
614.22	1554.19
614.57	1545.16
614.92	1536.17
615.27	1526.86
615.61	1517.42
615.96	1508.84
616.31	1500.71
616.65	1492.88
617.00	1484.75
617.35	1476.56
617.70	1468.10
618.04	1459.37
618.39	1450.28
618.74	1442.35
619.08	1434.09
619.43	1426.35
619.78	1418.85
620.12	1411.05
620.47	1403.59
620.82	1395.36
621.16	1387.64
621.51	1379.62
621.85	1371.76
622.20	1363.34
622.55	1355.61
622.89	1347.40
623.24	1339.68
623.59	1331.04
623.93	1322.59
624.28	1314.53
624.62	1306.77
624.97	1298.80
625.32	1291.33
625.66	1284.24
626.01	1277.28
626.35	1270.10
626.70	1262.41
627.04	1255.12
627.39	1247.80
627.73	1240.35
628.08	1233.67
628.43	1226.36
628.77	1219.54
629.12	1212.38
629.46	1206.17
629.81	1199.13
630.15	1192.12
630.50	1185.07
630.84	1178.17
631.19	1171.26
631.53	1164.78
631.88	1157.34
632.22	1149.89
632.57	1143.05
632.91	1135.60
633.26	1128.35
633.60	1121.42
633.95	1115.09
634.29	1107.88
634.64	1101.40
634.98	1094.59
635.32	1087.76
635.67	1081.47
636.01	1074.77
636.36	1068.07
636.70	1061.67
637.05	1055.38
637.39	1049.17
637.73	1042.87
638.08	1037.21
638.42	1031.46
638.77	1025.20
639.11	1019.12
639.45	1013.32
639.80	1007.05
640.14	1001.14
640.49	995.11
640.83	989.07
641.17	982.83
641.52	977.07
641.86	970.79
642.20	964.81
642.55	958.20
642.89	951.84
643.23	945.67
643.58	940.15
643.92	933.76
644.26	927.53
644.61	921.70
644.95	915.61
645.29	909.47
645.64	903.19
645.98	896.97
646.32	891.36
646.66	885.50
647.01	879.77
647.35	873.89
647.69	867.78
648.04	862.15
648.38	856.12
648.72	850.15
649.06	844.08
649.41	838.37
649.75	832.98
650.09	827.47
650.43	821.70
650.78	815.62
651.12	809.73
651.46	804.13
651.80	798.42
652.14	792.77
652.49	787.06
652.83	781.36
653.17	775.64
653.51	769.96
653.85	764.51
654.20	758.76
654.54	753.08
654.88	747.80
655.22	742.08
655.56	736.51
655.90	730.90
656.25	725.35
656.59	719.95
656.93	714.93
657.27	709.79
657.61	704.49
657.95	699.51
658.29	694.64
658.64	689.79
658.98	684.62
659.32	679.43
659.66	674.38
660.00	669.21
660.34	664.20
660.68	659.13
661.02	654.05
661.36	649.52
661.70	644.78
662.05	640.16
662.39	635.82
662.73	631.64
663.07	627.65
663.41	623.41
663.75	619.01
664.09	614.31
664.43	609.73
664.77	605.49
665.11	601.02
665.45	596.67
665.79	592.30
666.13	587.98
666.47	583.84
666.81	579.80
667.15	575.85
667.49	572.18
667.83	568.35
668.17	564.71
668.51	561.02
668.85	557.51
669.19	553.81
669.53	550.05
669.87	546.23
670.21	542.42
670.55	538.71
670.89	535.36
671.23	532.05
671.57	528.67
671.91	525.26
672.25	521.82
672.58	518.43
672.92	515.14
673.26	512.21
673.60	509.10
673.94	506.00
674.28	502.91
674.62	499.69
674.96	496.65
675.30	493.67
675.64	490.45
675.97	487.32
676.31	484.60
676.65	481.79
676.99	479.03
677.33	476.09
677.67	473.29
678.01	470.27
678.34	467.28
678.68	464.47
679.02	461.68
679.36	459.10
679.70	456.47
680.04	453.65
680.37	450.83
680.71	448.18
681.05	445.54
681.39	443.02
681.73	440.48
682.06	437.97
682.40	435.44
682.74	432.88
683.08	430.56
683.42	427.88
683.75	425.33
684.09	422.89
684.43	420.67
684.77	418.21
685.10	415.71
685.44	413.35
685.78	410.96
686.12	408.79
686.45	406.45
686.79	404.23
687.13	402.15
687.46	400.03
687.80	397.94
688.14	395.73
688.48	393.58
688.81	391.34
689.15	389.05
689.49	386.75
689.82	384.66
690.16	382.25
690.50	380.10
690.83	377.90
691.17	375.64
691.51	373.50
691.84	371.54
692.18	369.67
692.52	367.83
692.85	366.02
693.19	364.07
693.52	362.12
693.86	360.15
694.20	358.33
694.53	356.43
694.87	354.51
695.21	352.69
695.54	350.86
695.88	349.16
696.21	347.55
696.55	345.99
696.88	344.29
697.22	342.55
697.56	341.01
697.89	339.46
698.23	337.97
698.56	336.26
698.90	334.76
699.23	333.08
699.57	331.55
699.90	329.93
700.24	328.35
700.58	326.98
700.91	325.56
701.25	324.13
701.58	322.86
701.92	321.45
702.25	320.05
702.59	318.63
702.92	317.34
703.26	315.97
703.59	314.66
703.93	313.58
704.26	312.54
704.60	311.30
704.93	310.10
705.26	308.85
705.60	307.71
705.93	306.52
706.27	305.49
706.60	304.35
706.94	303.36
707.27	302.19
707.61	301.05
707.94	299.99
708.27	298.73
708.61	297.54
708.94	296.46
709.28	295.38
709.61	294.29
709.94	293.18
710.28	292.18
710.61	291.17
710.95	289.95
711.28	289.06
711.61	288.12
711.95	287.23
712.28	286.16
712.61	285.20
712.95	284.29
713.28	283.43
713.61	282.45
713.95	281.52
714.28	280.69
714.61	279.71
714.95	278.85
715.28	278.05
715.61	277.12
715.95	276.13
716.28	275.34
716.61	274.60
716.95	273.76
717.28	272.95
717.61	272.11
717.94	271.34
718.28	270.49
718.61	269.57
718.94	268.79
719.27	268.16
719.61	267.47
719.94	266.72
720.27	265.91
720.60	265.29
720.94	264.50
721.27	263.93
721.60	263.40
721.93	262.75
722.27	262.23
722.60	261.67
722.93	261.16
723.26	260.55
723.59	259.93
723.93	259.38
724.26	258.85
724.59	258.33
724.92	257.84
725.25	257.37
725.59	256.83
725.92	256.49
726.25	255.89
726.58	255.41
726.91	254.95
727.24	254.51
727.57	254.05
727.91	253.50
728.24	252.98
728.57	252.51
728.90	252.07
729.23	251.60
729.56	251.20
729.89	250.78
730.22	250.32
730.55	249.94
730.89	249.51
731.22	249.00
731.55	248.59
731.88	248.19
732.21	247.65
732.54	247.25
732.87	246.67
733.20	246.37
733.53	245.97
733.86	245.52
734.19	245.06
734.52	244.67
734.85	244.56
735.18	244.16
735.51	243.81
735.84	243.41
736.17	243.05
736.50	242.64
736.83	242.52
737.16	242.23
737.49	241.87
737.82	241.49
738.15	241.22
738.48	240.86
738.81	240.48
739.14	240.17
739.47	239.96
739.80	239.65
740.13	239.33
740.46	239.00
740.79	238.66
741.12	238.30
741.45	237.91
741.78	237.46
742.11	237.22
742.44	236.89
742.77	236.58
743.10	236.22
743.43	235.91
743.75	235.33
744.08	235.24
744.41	234.82
744.74	234.59
745.07	234.19
745.40	233.93
745.73	233.72
746.06	233.48
746.39	233.11
746.71	232.79
747.04	232.45
747.37	232.13
747.70	231.86
748.03	231.57
748.36	231.33
748.68	231.04
749.01	230.80
749.34	230.52
749.67	230.30
750.00	230.10
750.33	229.92
750.65	229.77
750.98	229.30
751.31	229.17
751.64	228.92
751.97	228.88
752.29	228.65
752.62	228.33
752.95	228.09
753.28	227.81
753.60	227.58
753.93	227.44
754.26	227.28
754.59	227.03
754.91	226.91
755.24	226.68
755.57	226.52
755.90	226.23
756.22	225.97
756.55	225.78
756.88	225.57
757.20	225.37
757.53	225.10
757.86	224.95
758.19	224.78
758.51	224.59
758.84	224.33
759.17	224.18
759.49	224.07
759.82	223.98
760.15	223.95
760.47	223.75
760.80	223.55
761.13	223.39
761.45	223.26
761.78	223.09
762.11	222.98
762.43	222.82
762.76	222.68
763.08	222.62
763.41	222.43
763.74	222.35
764.06	222.13
764.39	221.97
764.71	221.82
765.04	221.68
765.37	221.51
765.69	221.28
766.02	221.07
766.34	220.84
766.67	220.69
767.00	220.51
767.32	220.52
767.65	220.49
767.97	220.36
768.30	220.29
768.62	220.21
768.95	220.09
769.27	219.95
769.60	219.89
769.92	219.72
770.25	219.64
770.57	219.55
770.90	219.46
771.22	219.46
771.55	219.39
771.87	219.31
772.20	219.21
772.52	219.32
772.85	219.47
773.17	219.51
773.50	219.35
773.82	219.31
774.15	219.11
774.47	218.97
774.80	218.81
775.12	218.71
775.45	218.58
775.77	218.51
776.09	218.51
776.42	218.40
776.74	218.42
777.07	218.30
777.39	218.11
777.72	218.08
778.04	217.93
778.36	217.86
778.69	217.84
779.01	217.89
779.33	217.73
779.66	217.49
779.98	217.34
780.31	217.34
780.63	217.22
780.95	217.21
781.28	217.09
781.60	217.04
781.92	216.96
782.25	216.93
782.57	216.95
782.89	216.85
783.22	216.79
783.54	216.67
783.86	216.67
784.19	216.66
784.51	216.60
784.83	216.50
785.16	216.42
785.48	216.30
785.80	216.16
786.12	216.12
786.45	216.00
