SpectraSuite Data File
++++++++++++++++++++++++++++++++++++
Date: Mon Feb 25 17:36:26 EST 2013
User: group
Dark Spectrum Present: No
Reference Spectrum Present: No
Number of Sampled Component Spectra: 1
Spectrometers: USB2E7196
Integration Time (usec): 52000 (USB2E7196)
Spectra Averaged: 20 (USB2E7196)
Boxcar Smoothing: 10 (USB2E7196)
Correct for Electrical Dark: No (USB2E7196)
Strobe/Lamp Enabled: No (USB2E7196)
Correct for Detector Non-linearity: No (USB2E7196)
Correct for Stray Light: No (USB2E7196)
Number of Pixels in Processed Spectrum: 2048
>>>>>Begin Processed Spectral Data<<<<<
339.09	0.00
339.48	199.35
339.86	202.45
340.24	202.45
340.63	204.00
341.01	207.80
341.39	207.75
341.78	208.15
342.16	210.45
342.54	209.80
342.93	198.92
343.31	208.95
343.69	209.50
344.07	209.90
344.46	210.33
344.84	210.83
345.22	211.04
345.60	211.29
345.99	211.55
346.37	211.70
346.75	211.90
347.13	212.01
347.52	212.14
347.90	212.33
348.28	212.32
348.66	212.48
349.05	212.56
349.43	212.68
349.81	212.79
350.19	212.88
350.57	213.06
350.96	213.20
351.34	213.37
351.72	213.50
352.10	213.59
352.48	213.70
352.87	213.71
353.25	213.80
353.63	213.85
354.01	213.89
354.39	213.92
354.77	213.96
355.15	214.07
355.54	214.10
355.92	214.16
356.30	214.29
356.68	214.48
357.06	214.49
357.44	214.58
357.82	214.64
358.20	214.71
358.58	214.76
358.97	214.86
359.35	214.96
359.73	215.12
360.11	215.27
360.49	215.37
360.87	215.44
361.25	215.53
361.63	215.62
362.01	215.67
362.39	215.71
362.77	215.82
363.15	215.77
363.53	215.85
363.91	215.92
364.29	215.94
364.67	215.81
365.05	215.86
365.43	215.89
365.81	215.89
366.19	215.96
366.57	216.10
366.95	216.08
367.33	216.11
367.71	216.07
368.09	216.05
368.47	216.06
368.85	216.05
369.23	216.10
369.61	216.05
369.99	216.09
370.37	216.08
370.75	216.09
371.13	216.09
371.51	216.06
371.89	216.04
372.27	216.03
372.65	216.05
373.03	216.03
373.41	215.98
373.78	215.99
374.16	215.93
374.54	215.84
374.92	215.89
375.30	215.79
375.68	215.76
376.06	215.82
376.44	215.80
376.82	215.80
377.19	215.73
377.57	215.69
377.95	215.65
378.33	215.67
378.71	215.61
379.09	215.65
379.47	215.69
379.84	215.65
380.22	215.64
380.60	215.54
380.98	215.48
381.36	215.50
381.73	215.49
382.11	215.53
382.49	215.51
382.87	215.43
383.25	215.48
383.62	215.68
384.00	215.58
384.38	215.51
384.76	215.54
385.13	215.60
385.51	215.61
385.89	215.64
386.27	215.62
386.64	215.64
387.02	215.62
387.40	215.63
387.78	215.59
388.15	215.60
388.53	215.63
388.91	215.67
389.29	215.65
389.66	215.59
390.04	215.56
390.42	215.56
390.79	215.51
391.17	215.51
391.55	215.31
391.92	215.35
392.30	215.40
392.68	215.36
393.05	215.38
393.43	215.46
393.81	215.48
394.18	215.49
394.56	215.50
394.94	215.56
395.31	215.58
395.69	215.70
396.06	215.84
396.44	215.87
396.82	216.00
397.19	216.15
397.57	216.26
397.95	216.44
398.32	216.50
398.70	216.73
399.07	216.95
399.45	217.15
399.82	217.24
400.20	217.46
400.58	217.66
400.95	217.83
401.33	218.06
401.70	218.46
402.08	218.79
402.45	219.15
402.83	219.52
403.20	219.91
403.58	220.33
403.95	220.74
404.33	221.39
404.71	221.89
405.08	222.62
405.46	223.32
405.83	224.06
406.21	224.94
406.58	225.81
406.96	226.73
407.33	227.66
407.70	228.91
408.08	230.18
408.45	231.53
408.83	233.00
409.20	234.50
409.58	235.93
409.95	237.73
410.33	239.61
410.70	241.56
411.08	243.60
411.45	245.94
411.82	248.46
412.20	250.93
412.57	253.81
412.95	256.62
413.32	259.69
413.69	262.96
414.07	266.46
414.44	270.44
414.82	274.43
415.19	279.18
415.56	283.95
415.94	289.16
416.31	294.84
416.68	300.39
417.06	306.79
417.43	312.85
417.81	319.88
418.18	327.10
418.55	334.98
418.93	343.43
419.30	352.00
419.67	361.15
420.04	370.70
420.42	380.83
420.79	391.93
421.16	403.78
421.54	415.53
421.91	428.08
422.28	441.15
422.66	455.15
423.03	468.21
423.40	482.48
423.77	497.64
424.15	513.22
424.52	529.43
424.89	546.91
425.26	564.39
425.64	580.78
426.01	599.06
426.38	618.06
426.75	637.17
427.13	657.26
427.50	678.52
427.87	700.74
428.24	723.35
428.61	745.20
428.99	768.24
429.36	794.38
429.73	819.59
430.10	844.66
430.47	870.37
430.85	898.00
431.22	926.67
431.59	956.89
431.96	986.25
432.33	1018.84
432.70	1050.70
433.08	1087.75
433.45	1123.15
433.82	1158.31
434.19	1197.33
434.56	1235.59
434.93	1272.74
435.30	1309.60
435.68	1350.68
436.05	1391.27
436.42	1431.91
436.79	1469.44
437.16	1509.72
437.53	1552.62
437.90	1595.08
438.27	1637.24
438.64	1681.04
439.01	1721.25
439.38	1758.59
439.75	1794.25
440.13	1834.58
440.50	1872.62
440.87	1904.85
441.24	1938.23
441.61	1974.43
441.98	2002.60
442.35	2035.00
442.72	2067.25
443.09	2098.30
443.46	2119.22
443.83	2134.47
444.20	2148.54
444.57	2167.30
444.94	2178.03
445.31	2188.78
445.68	2198.18
446.05	2205.00
446.42	2204.99
446.79	2204.02
447.16	2202.09
447.53	2201.86
447.90	2190.46
448.27	2179.28
448.64	2161.25
449.01	2148.69
449.37	2124.47
449.74	2100.81
450.11	2071.24
450.48	2040.11
450.85	2008.55
451.22	1980.90
451.59	1954.09
451.96	1928.93
452.33	1893.99
452.70	1862.55
453.07	1824.52
453.43	1786.58
453.80	1748.89
454.17	1712.74
454.54	1678.96
454.91	1642.23
455.28	1606.32
455.65	1573.12
456.02	1537.63
456.38	1508.70
456.75	1472.52
457.12	1442.86
457.49	1413.22
457.86	1385.39
458.23	1359.89
458.59	1332.26
458.96	1304.24
459.33	1280.04
459.70	1254.71
460.07	1234.80
460.43	1212.13
460.80	1190.65
461.17	1171.98
461.54	1152.64
461.91	1134.12
462.27	1115.33
462.64	1099.30
463.01	1081.26
463.38	1063.20
463.74	1047.52
464.11	1032.78
464.48	1019.84
464.85	1005.19
465.21	993.63
465.58	981.45
465.95	967.46
466.32	955.55
466.68	943.92
467.05	931.69
467.42	920.25
467.78	908.07
468.15	896.52
468.52	887.75
468.88	876.76
469.25	866.80
469.62	858.41
469.98	849.65
470.35	841.50
470.72	834.09
471.08	826.50
471.45	819.44
471.82	811.80
472.18	804.02
472.55	798.47
472.92	792.09
473.28	786.36
473.65	780.90
474.02	775.31
474.38	770.51
474.75	766.83
475.11	762.37
475.48	758.97
475.85	756.04
476.21	753.32
476.58	751.02
476.94	749.05
477.31	747.11
477.67	745.17
478.04	743.64
478.41	742.68
478.77	741.60
479.14	740.56
479.50	740.35
479.87	740.72
480.23	741.35
480.60	741.41
480.96	741.70
481.33	742.97
481.69	744.56
482.06	745.70
482.42	746.41
482.79	748.00
483.15	750.82
483.52	754.17
483.88	756.93
484.25	760.03
484.61	763.18
484.98	766.33
485.34	770.52
485.71	775.08
486.07	779.65
486.44	784.87
486.80	790.31
487.17	796.11
487.53	802.40
487.90	808.90
488.26	816.21
488.62	824.00
488.99	831.63
489.35	839.50
489.72	848.62
490.08	858.58
490.44	868.22
490.81	877.78
491.17	887.14
491.54	898.01
491.90	908.39
492.26	920.02
492.63	932.14
492.99	944.63
493.36	957.22
493.72	970.44
494.08	983.93
494.45	998.37
494.81	1013.55
495.17	1028.97
495.54	1045.14
495.90	1061.94
496.26	1078.60
496.63	1096.17
496.99	1113.83
497.35	1131.29
497.72	1149.55
498.08	1168.06
498.44	1186.71
498.80	1207.13
499.17	1227.02
499.53	1247.72
499.89	1268.73
500.26	1289.82
500.62	1310.48
500.98	1332.88
501.34	1355.38
501.71	1377.75
502.07	1400.61
502.43	1423.69
502.79	1446.72
503.16	1469.43
503.52	1492.42
503.88	1515.57
504.24	1538.06
504.60	1561.51
504.97	1586.16
505.33	1609.77
505.69	1635.05
506.05	1660.19
506.41	1684.38
506.78	1708.83
507.14	1733.53
507.50	1758.41
507.86	1783.30
508.22	1809.04
508.59	1833.59
508.95	1858.62
509.31	1884.31
509.67	1909.65
510.03	1934.78
510.39	1960.25
510.75	1985.60
511.12	2010.01
511.48	2034.60
511.84	2059.60
512.20	2084.28
512.56	2108.59
512.92	2133.32
513.28	2157.41
513.64	2181.55
514.00	2204.94
514.37	2228.46
514.73	2251.82
515.09	2274.26
515.45	2297.08
515.81	2319.30
516.17	2341.53
516.53	2362.96
516.89	2384.16
517.25	2404.29
517.61	2423.98
517.97	2443.58
518.33	2462.47
518.69	2482.13
519.05	2502.30
519.41	2522.05
519.77	2541.43
520.13	2560.00
520.49	2577.88
520.85	2595.56
521.21	2612.47
521.57	2630.59
521.93	2647.34
522.29	2664.67
522.65	2681.95
523.01	2698.40
523.37	2714.08
523.73	2730.23
524.09	2745.34
524.45	2760.00
524.81	2774.89
525.17	2790.35
525.53	2804.94
525.89	2820.49
526.25	2835.29
526.61	2847.84
526.97	2861.20
527.33	2874.19
527.68	2887.47
528.04	2900.70
528.40	2912.88
528.76	2925.69
529.12	2936.73
529.48	2948.75
529.84	2958.38
530.20	2969.44
530.56	2980.27
530.91	2991.86
531.27	3002.60
531.63	3013.45
531.99	3024.05
532.35	3034.26
532.71	3044.33
533.07	3055.77
533.42	3065.22
533.78	3075.50
534.14	3085.77
534.50	3094.56
534.86	3103.99
535.21	3111.06
535.57	3120.12
535.93	3128.39
536.29	3135.35
536.65	3144.35
537.00	3151.63
537.36	3160.34
537.72	3167.18
538.08	3174.34
538.44	3181.01
538.79	3187.23
539.15	3194.15
539.51	3201.24
539.87	3208.71
540.22	3214.79
540.58	3220.31
540.94	3226.28
541.29	3230.85
541.65	3233.92
542.01	3237.97
542.37	3241.86
542.72	3247.73
543.08	3251.08
543.44	3255.25
543.79	3258.75
544.15	3260.95
544.51	3264.87
544.87	3268.08
545.22	3270.09
545.58	3271.93
545.94	3273.49
546.29	3274.90
546.65	3275.90
547.01	3276.62
547.36	3277.27
547.72	3278.30
548.07	3277.80
548.43	3277.61
548.79	3276.71
549.14	3278.10
549.50	3279.37
549.86	3279.93
550.21	3278.79
550.57	3278.46
550.92	3277.08
551.28	3276.06
551.64	3275.24
551.99	3273.84
552.35	3273.40
552.70	3273.14
553.06	3272.61
553.41	3272.02
553.77	3271.77
554.13	3270.78
554.48	3271.09
554.84	3270.46
555.19	3268.55
555.55	3268.35
555.90	3267.79
556.26	3267.34
556.61	3266.25
556.97	3263.32
557.32	3259.88
557.68	3257.36
558.03	3254.48
558.39	3252.40
558.74	3252.47
559.10	3251.78
559.45	3251.14
559.81	3249.24
560.16	3247.34
560.52	3245.98
560.87	3243.95
561.23	3239.57
561.58	3236.65
561.94	3231.78
562.29	3226.69
562.64	3223.18
563.00	3219.24
563.35	3214.63
563.71	3211.08
564.06	3208.00
564.42	3205.10
564.77	3202.74
565.12	3200.12
565.48	3196.89
565.83	3193.99
566.19	3190.11
566.54	3186.06
566.89	3180.69
567.25	3175.30
567.60	3171.43
567.96	3166.41
568.31	3161.71
568.66	3158.45
569.02	3154.42
569.37	3150.99
569.72	3147.82
570.08	3143.90
570.43	3137.83
570.78	3133.42
571.14	3128.54
571.49	3122.80
571.84	3118.33
572.20	3112.06
572.55	3106.69
572.90	3100.98
573.26	3094.43
573.61	3086.88
573.96	3079.43
574.31	3072.06
574.67	3065.70
575.02	3057.78
575.37	3049.95
575.72	3042.30
576.08	3034.82
576.43	3026.51
576.78	3018.26
577.13	3010.52
577.49	3002.80
577.84	2996.26
578.19	2988.00
578.54	2979.77
578.90	2971.95
579.25	2962.53
579.60	2953.61
579.95	2944.40
580.30	2935.80
580.66	2927.05
581.01	2917.88
581.36	2908.03
581.71	2899.44
582.06	2890.45
582.42	2882.72
582.77	2873.18
583.12	2863.67
583.47	2854.35
583.82	2845.24
584.17	2835.17
584.53	2825.31
584.88	2814.82
585.23	2804.40
585.58	2795.21
585.93	2784.85
586.28	2775.04
586.63	2765.67
586.98	2756.70
587.34	2747.58
587.69	2737.55
588.04	2728.29
588.39	2719.34
588.74	2709.24
589.09	2699.68
589.44	2688.43
589.79	2676.89
590.14	2667.66
590.49	2656.95
590.84	2646.90
591.19	2637.47
591.54	2627.17
591.89	2615.94
592.25	2605.90
592.60	2594.26
592.95	2582.56
593.30	2571.84
593.65	2561.00
594.00	2550.41
594.35	2540.52
594.70	2529.35
595.05	2518.74
595.40	2506.84
595.75	2495.19
596.10	2485.14
596.45	2473.84
596.80	2464.10
597.15	2453.76
597.50	2442.24
597.85	2432.22
598.19	2420.41
598.54	2408.30
598.89	2397.24
599.24	2387.08
599.59	2376.21
599.94	2367.25
600.29	2357.58
600.64	2347.48
600.99	2335.53
601.34	2325.08
601.69	2313.25
602.04	2301.91
602.39	2291.64
602.74	2282.60
603.08	2273.79
603.43	2265.11
603.78	2255.46
604.13	2245.42
604.48	2234.82
604.83	2225.63
605.18	2215.88
605.53	2206.32
605.87	2196.66
606.22	2187.48
606.57	2177.42
606.92	2166.57
607.27	2155.58
607.62	2145.31
607.96	2135.48
608.31	2127.01
608.66	2116.48
609.01	2106.43
609.36	2096.36
609.70	2085.36
610.05	2073.34
610.40	2061.24
610.75	2049.01
611.10	2037.90
611.44	2026.04
611.79	2015.21
612.14	2003.65
612.49	1991.23
612.83	1979.55
613.18	1968.05
613.53	1956.44
613.88	1944.00
614.22	1932.46
614.57	1920.72
614.92	1908.37
615.27	1896.33
615.61	1883.52
615.96	1871.98
616.31	1860.66
616.65	1849.95
617.00	1839.40
617.35	1828.86
617.70	1817.43
618.04	1805.66
618.39	1793.92
618.74	1782.79
619.08	1770.95
619.43	1759.19
619.78	1748.26
620.12	1738.20
620.47	1727.80
620.82	1716.95
621.16	1706.86
621.51	1696.57
621.85	1686.20
622.20	1675.50
622.55	1664.30
622.89	1654.23
623.24	1643.45
623.59	1632.72
623.93	1621.97
624.28	1611.15
624.62	1600.28
624.97	1590.21
625.32	1580.48
625.66	1571.00
626.01	1561.25
626.35	1552.67
626.70	1543.54
627.04	1534.04
627.39	1523.55
627.73	1513.86
628.08	1504.48
628.43	1495.13
628.77	1486.42
629.12	1476.85
629.46	1467.85
629.81	1458.30
630.15	1448.47
630.50	1439.35
630.84	1429.84
631.19	1420.05
631.53	1410.68
631.88	1401.64
632.22	1393.06
632.57	1384.63
632.91	1375.72
633.26	1367.15
633.60	1357.84
633.95	1349.46
634.29	1341.31
634.64	1333.22
634.98	1324.05
635.32	1315.48
635.67	1307.48
636.01	1298.96
636.36	1290.63
636.70	1282.36
637.05	1274.43
637.39	1266.68
637.73	1258.35
638.08	1251.26
638.42	1244.41
638.77	1237.06
639.11	1229.65
639.45	1221.51
639.80	1213.31
640.14	1205.51
640.49	1197.62
640.83	1189.49
641.17	1181.20
641.52	1173.18
641.86	1165.27
642.20	1157.85
642.55	1149.23
642.89	1140.34
643.23	1131.85
643.58	1124.31
643.92	1116.13
644.26	1108.21
644.61	1100.24
644.95	1092.56
645.29	1084.40
645.64	1075.73
645.98	1067.67
646.32	1059.96
646.66	1052.61
647.01	1044.99
647.35	1037.37
647.69	1029.57
648.04	1022.34
648.38	1014.64
648.72	1007.44
649.06	999.99
649.41	992.63
649.75	985.38
650.09	978.69
650.43	972.07
650.78	964.86
651.12	957.90
651.46	951.39
651.80	944.97
652.14	938.82
652.49	932.11
652.83	925.68
653.17	918.67
653.51	911.69
653.85	905.15
654.20	899.10
654.54	892.72
654.88	886.37
655.22	879.69
655.56	872.87
655.90	865.51
656.25	858.71
656.59	852.08
656.93	846.00
657.27	839.77
657.61	833.06
657.95	826.92
658.29	820.98
658.64	814.97
658.98	808.91
659.32	802.28
659.66	796.39
660.00	790.62
660.34	785.26
660.68	779.56
661.02	773.46
661.36	767.35
661.70	761.75
662.05	756.33
662.39	751.11
662.73	746.16
663.07	741.77
663.41	737.20
663.75	732.56
664.09	727.60
664.43	722.62
664.77	717.89
665.11	712.98
665.45	708.48
665.79	703.80
666.13	699.12
666.47	694.99
666.81	690.57
667.15	685.93
667.49	681.51
667.83	677.32
668.17	673.20
668.51	669.04
668.85	664.60
669.19	660.35
669.53	655.94
669.87	651.50
670.21	646.99
670.55	642.29
670.89	638.10
671.23	634.13
671.57	629.86
671.91	625.70
672.25	621.72
672.58	617.34
672.92	613.13
673.26	609.13
673.60	605.00
673.94	601.05
674.28	597.62
674.62	593.72
674.96	589.76
675.30	586.12
675.64	582.47
675.97	579.09
676.31	575.78
676.65	572.51
676.99	569.65
677.33	566.61
677.67	563.53
678.01	560.08
678.34	556.60
678.68	553.43
679.02	550.24
679.36	546.88
679.70	543.63
680.04	540.48
680.37	537.33
680.71	534.20
681.05	531.18
681.39	527.96
681.73	524.83
682.06	521.95
682.40	518.83
682.74	515.58
683.08	512.22
683.42	508.97
683.75	505.94
684.09	502.51
684.43	499.31
684.77	496.24
685.10	493.15
685.44	490.01
685.78	486.95
686.12	483.93
686.45	481.00
686.79	478.21
687.13	475.52
687.46	472.72
687.80	469.92
688.14	466.95
688.48	464.17
688.81	461.42
689.15	458.79
689.49	456.17
689.82	453.58
690.16	450.75
690.50	448.04
690.83	445.20
691.17	442.55
691.51	439.95
691.84	437.52
692.18	435.09
692.52	432.96
692.85	430.64
693.19	428.38
693.52	425.97
693.86	423.67
694.20	421.25
694.53	418.86
694.87	416.25
695.21	413.86
695.54	411.42
695.88	409.14
696.21	406.73
696.55	404.45
696.88	402.33
697.22	400.50
697.56	398.59
697.89	396.74
698.23	394.88
698.56	392.86
698.90	390.85
699.23	388.84
699.57	386.84
699.90	384.89
700.24	382.80
700.58	381.07
700.91	379.25
701.25	377.44
701.58	375.76
701.92	374.29
702.25	372.75
702.59	371.19
702.92	369.50
703.26	367.92
703.59	366.32
703.93	364.91
704.26	363.33
704.60	361.66
704.93	360.03
705.26	358.24
705.60	356.70
705.93	355.19
706.27	353.81
706.60	352.24
706.94	350.75
707.27	349.22
707.61	347.62
707.94	346.00
708.27	344.37
708.61	342.84
708.94	341.46
709.28	339.99
709.61	338.49
709.94	337.02
710.28	335.42
710.61	333.95
710.95	332.25
711.28	330.88
711.61	329.41
711.95	327.95
712.28	326.66
712.61	325.36
712.95	324.06
713.28	322.73
713.61	321.48
713.95	320.22
714.28	319.17
714.61	317.95
714.95	316.88
715.28	315.71
715.61	314.42
715.95	313.07
716.28	311.84
716.61	310.62
716.95	309.44
717.28	308.36
717.61	307.24
717.94	306.15
718.28	304.92
718.61	303.97
718.94	303.03
719.27	302.07
719.61	300.96
719.94	299.94
720.27	298.91
720.60	297.98
720.94	296.97
721.27	295.99
721.60	295.25
721.93	294.27
722.27	293.54
722.60	292.65
722.93	291.84
723.26	290.98
723.59	290.18
723.93	289.41
724.26	288.60
724.59	287.75
724.92	287.06
725.25	286.29
725.59	285.40
725.92	284.46
726.25	283.74
726.58	283.01
726.91	282.23
727.24	281.42
727.57	280.69
727.91	280.00
728.24	279.20
728.57	278.34
728.90	277.68
729.23	276.84
729.56	276.24
729.89	275.45
730.22	274.75
730.55	273.97
730.89	273.41
731.22	272.71
731.55	272.06
731.88	271.34
732.21	270.78
732.54	270.13
732.87	269.67
733.20	269.10
733.53	268.51
733.86	267.91
734.19	267.38
734.52	266.75
734.85	266.29
735.18	265.75
735.51	265.24
735.84	264.65
736.17	264.11
736.50	263.43
736.83	263.14
737.16	262.63
737.49	262.16
737.82	261.56
738.15	261.05
738.48	260.50
738.81	259.97
739.14	259.38
739.47	258.84
739.80	258.32
740.13	257.69
740.46	257.20
740.79	256.68
741.12	256.02
741.45	255.53
741.78	254.99
742.11	254.52
742.44	253.97
742.77	253.57
743.10	253.08
743.43	252.56
743.75	251.90
744.08	251.75
744.41	251.27
744.74	250.76
745.07	250.27
745.40	249.92
745.73	249.55
746.06	249.08
746.39	248.75
746.71	248.22
747.04	247.86
747.37	247.38
747.70	247.03
748.03	246.74
748.36	246.38
748.68	245.89
749.01	245.51
749.34	245.17
749.67	244.69
750.00	244.35
750.33	244.19
750.65	243.83
750.98	243.17
751.31	242.90
751.64	242.57
751.97	242.29
752.29	242.00
752.62	241.58
752.95	241.29
753.28	240.87
753.60	240.56
753.93	240.19
754.26	239.95
754.59	239.53
754.91	239.18
755.24	238.86
755.57	238.56
755.90	238.28
756.22	237.91
756.55	237.62
756.88	237.32
757.20	236.89
757.53	236.57
757.86	236.25
758.19	235.98
758.51	235.79
758.84	235.47
759.17	235.15
759.49	234.94
759.82	234.67
760.15	234.44
760.47	234.17
760.80	233.90
761.13	233.61
761.45	233.31
761.78	233.07
762.11	232.78
762.43	232.54
762.76	232.22
763.08	231.98
763.41	231.79
763.74	231.49
764.06	231.28
764.39	231.10
764.71	230.90
765.04	230.60
765.37	230.24
765.69	229.97
766.02	229.64
766.34	229.41
766.67	229.25
767.00	229.06
767.32	228.98
767.65	228.82
767.97	228.62
768.30	228.41
768.62	228.25
768.95	228.01
769.27	227.79
769.60	227.62
769.92	227.41
770.25	227.15
770.57	226.99
770.90	226.73
771.22	226.50
771.55	226.26
771.87	226.14
772.20	225.93
772.52	225.93
772.85	226.08
773.17	225.84
773.50	225.60
773.82	225.48
774.15	225.23
774.47	225.05
774.80	224.92
775.12	224.82
775.45	224.68
775.77	224.56
776.09	224.49
776.42	224.36
776.74	224.28
777.07	224.16
777.39	224.06
777.72	223.95
778.04	223.84
778.36	223.80
778.69	223.60
779.01	223.51
779.33	223.28
779.66	222.96
779.98	222.90
780.31	222.77
780.63	222.62
780.95	222.58
781.28	222.40
781.60	222.25
781.92	222.16
782.25	221.99
782.57	221.87
782.89	221.67
