SpectraSuite Data File
++++++++++++++++++++++++++++++++++++
Date: Mon Feb 25 17:31:51 EST 2013
User: group
Dark Spectrum Present: No
Reference Spectrum Present: No
Number of Sampled Component Spectra: 1
Spectrometers: USB2E7196
Integration Time (usec): 52000 (USB2E7196)
Spectra Averaged: 20 (USB2E7196)
Boxcar Smoothing: 10 (USB2E7196)
Correct for Electrical Dark: No (USB2E7196)
Strobe/Lamp Enabled: No (USB2E7196)
Correct for Detector Non-linearity: No (USB2E7196)
Correct for Stray Light: No (USB2E7196)
Number of Pixels in Processed Spectrum: 2048
>>>>>Begin Processed Spectral Data<<<<<
339.09	0.00
339.48	197.15
339.86	200.65
340.24	201.05
340.63	201.80
341.01	207.15
341.39	205.05
341.78	207.05
342.16	208.95
342.54	207.95
342.93	197.66
343.31	207.63
343.69	208.30
344.07	208.70
344.46	209.13
344.84	209.56
345.22	209.71
345.60	209.99
345.99	210.20
346.37	210.31
346.75	210.43
347.13	210.54
347.52	210.69
347.90	210.91
348.28	210.97
348.66	211.09
349.05	211.09
349.43	211.10
349.81	211.18
350.19	211.28
350.57	211.37
350.96	211.41
351.34	211.60
351.72	211.65
352.10	211.84
352.48	211.95
352.87	212.06
353.25	212.20
353.63	212.30
354.01	212.35
354.39	212.49
354.77	212.65
355.15	212.73
355.54	212.70
355.92	212.68
356.30	212.82
356.68	212.95
357.06	213.08
357.44	213.20
357.82	213.32
358.20	213.33
358.58	213.39
358.97	213.53
359.35	213.60
359.73	213.77
360.11	213.77
360.49	213.88
360.87	213.91
361.25	213.99
361.63	214.12
362.01	214.20
362.39	214.20
362.77	214.27
363.15	214.31
363.53	214.46
363.91	214.56
364.29	214.63
364.67	214.54
365.05	214.55
365.43	214.53
365.81	214.50
366.19	214.62
366.57	214.77
366.95	214.72
367.33	214.65
367.71	214.55
368.09	214.59
368.47	214.57
368.85	214.55
369.23	214.54
369.61	214.48
369.99	214.46
370.37	214.46
370.75	214.47
371.13	214.46
371.51	214.40
371.89	214.32
372.27	214.21
372.65	214.23
373.03	214.19
373.41	214.15
373.78	214.11
374.16	214.00
374.54	213.84
374.92	213.73
375.30	213.65
375.68	213.60
376.06	213.63
376.44	213.49
376.82	213.50
377.19	213.35
377.57	213.30
377.95	213.28
378.33	213.20
378.71	213.03
379.09	212.88
379.47	212.75
379.84	212.71
380.22	212.64
380.60	212.53
380.98	212.46
381.36	212.43
381.73	212.39
382.11	212.40
382.49	212.36
382.87	212.37
383.25	212.35
383.62	212.45
384.00	212.34
384.38	212.31
384.76	212.27
385.13	212.33
385.51	212.22
385.89	212.11
386.27	212.01
386.64	212.00
387.02	212.07
387.40	212.07
387.78	212.01
388.15	211.99
388.53	211.94
388.91	211.90
389.29	211.84
389.66	211.87
390.04	211.78
390.42	211.72
390.79	211.69
391.17	211.70
391.55	211.58
391.92	211.51
392.30	211.57
392.68	211.49
393.05	211.51
393.43	211.50
393.81	211.55
394.18	211.60
394.56	211.56
394.94	211.57
395.31	211.59
395.69	211.61
396.06	211.63
396.44	211.58
396.82	211.58
397.19	211.64
397.57	211.60
397.95	211.62
398.32	211.67
398.70	211.74
399.07	211.78
399.45	211.72
399.82	211.77
400.20	211.74
400.58	211.83
400.95	211.73
401.33	211.85
401.70	211.97
402.08	211.97
402.45	212.05
402.83	212.11
403.20	212.14
403.58	212.21
403.95	212.26
404.33	212.44
404.71	212.54
405.08	212.77
405.46	212.85
405.83	213.08
406.21	213.15
406.58	213.29
406.96	213.42
407.33	213.65
407.70	213.87
408.08	214.18
408.45	214.42
408.83	214.70
409.20	214.96
409.58	215.10
409.95	215.45
410.33	215.75
410.70	216.06
411.08	216.42
411.45	216.81
411.82	217.20
412.20	217.58
412.57	218.09
412.95	218.43
413.32	218.98
413.69	219.42
414.07	219.99
414.44	220.64
414.82	221.32
415.19	221.96
415.56	222.67
415.94	223.40
416.31	224.27
416.68	225.15
417.06	226.07
417.43	227.15
417.81	228.23
418.18	229.38
418.55	230.49
418.93	231.73
419.30	233.02
419.67	234.40
420.04	235.80
420.42	237.28
420.79	239.02
421.16	240.69
421.54	242.50
421.91	244.42
422.28	246.20
422.66	248.19
423.03	250.34
423.40	252.42
423.77	254.55
424.15	256.82
424.52	259.16
424.89	261.61
425.26	264.00
425.64	266.33
426.01	268.85
426.38	271.65
426.75	274.42
427.13	277.17
427.50	280.07
427.87	283.19
428.24	286.25
428.61	289.07
428.99	292.31
429.36	295.71
429.73	299.16
430.10	302.67
430.47	306.18
430.85	309.77
431.22	313.72
431.59	317.89
431.96	321.73
432.33	326.13
432.70	330.36
433.08	335.28
433.45	339.90
433.82	344.54
434.19	349.51
434.56	354.38
434.93	359.15
435.30	363.97
435.68	369.22
436.05	374.35
436.42	379.57
436.79	384.24
437.16	389.40
437.53	394.60
437.90	399.81
438.27	404.91
438.64	410.14
439.01	414.89
439.38	419.21
439.75	423.38
440.13	428.13
440.50	432.63
440.87	436.18
441.24	440.05
441.61	444.00
441.98	447.06
442.35	450.71
442.72	454.36
443.09	457.77
443.46	459.78
443.83	461.01
444.20	462.07
444.57	463.80
444.94	464.45
445.31	465.24
445.68	465.97
446.05	466.24
446.42	465.62
446.79	464.86
447.16	463.98
447.53	463.37
447.90	461.22
448.27	459.02
448.64	456.13
449.01	453.88
449.37	450.40
449.74	446.91
450.11	442.79
450.48	438.25
450.85	433.64
451.22	429.68
451.59	426.01
451.96	422.40
452.33	417.71
452.70	413.42
453.07	408.26
453.43	403.08
453.80	398.13
454.17	393.36
454.54	388.89
454.91	384.13
455.28	379.45
455.65	375.09
456.02	370.97
456.38	367.35
456.75	362.75
457.12	359.00
457.49	355.30
457.86	351.59
458.23	348.45
458.59	345.06
458.96	341.59
459.33	338.58
459.70	335.51
460.07	332.97
460.43	330.10
460.80	327.44
461.17	325.13
461.54	322.58
461.91	320.33
462.27	318.06
462.64	316.03
463.01	313.83
463.38	311.75
463.74	309.42
464.11	307.55
464.48	306.04
464.85	304.24
465.21	302.85
465.58	301.44
465.95	299.70
466.32	298.32
466.68	296.93
467.05	295.54
467.42	294.22
467.78	292.77
468.15	291.43
468.52	290.50
468.88	289.19
469.25	288.14
469.62	287.26
469.98	286.25
470.35	285.38
470.72	284.53
471.08	283.49
471.45	282.80
471.82	281.96
472.18	281.02
472.55	280.53
472.92	279.82
473.28	279.17
473.65	278.68
474.02	278.12
474.38	277.75
474.75	277.33
475.11	276.95
475.48	276.71
475.85	276.52
476.21	276.40
476.58	276.27
476.94	276.26
477.31	276.18
477.67	276.13
478.04	276.20
478.41	276.34
478.77	276.79
479.14	276.94
479.50	277.18
479.87	277.68
480.23	277.96
480.60	278.34
480.96	278.84
481.33	279.47
481.69	280.08
482.06	280.65
482.42	281.28
482.79	281.89
483.15	282.71
483.52	283.75
483.88	284.60
484.25	285.56
484.61	286.56
484.98	287.60
485.34	288.86
485.71	290.14
486.07	291.59
486.44	292.85
486.80	294.45
487.17	296.18
487.53	297.82
487.90	299.65
488.26	301.55
488.62	303.57
488.99	305.56
489.35	307.70
489.72	310.05
490.08	312.58
490.44	315.15
490.81	317.83
491.17	320.45
491.54	323.37
491.90	326.43
492.26	329.71
492.63	333.03
492.99	336.56
493.36	340.33
493.72	344.06
494.08	348.08
494.45	352.30
494.81	356.69
495.17	361.26
495.54	366.10
495.90	371.25
496.26	376.52
496.63	382.07
496.99	387.94
497.35	393.87
497.72	400.14
498.08	406.64
498.44	413.43
498.80	420.52
499.17	427.84
499.53	435.44
499.89	443.41
500.26	451.61
500.62	459.89
500.98	468.55
501.34	477.68
501.71	487.05
502.07	496.61
502.43	506.71
502.79	516.81
503.16	527.45
503.52	538.27
503.88	549.21
504.24	560.65
504.60	572.46
504.97	584.62
505.33	597.10
505.69	610.38
506.05	623.82
506.41	637.45
506.78	651.32
507.14	665.54
507.50	679.92
507.86	694.75
508.22	710.17
508.59	725.72
508.95	741.56
509.31	757.82
509.67	774.44
510.03	791.29
510.39	808.95
510.75	826.63
511.12	844.71
511.48	863.24
511.84	881.75
512.20	900.33
512.56	919.48
512.92	938.70
513.28	958.12
513.64	977.62
514.00	997.33
514.37	1017.53
514.73	1038.15
515.09	1058.90
515.45	1079.61
515.81	1100.58
516.17	1121.80
516.53	1143.11
516.89	1164.51
517.25	1185.88
517.61	1207.31
517.97	1228.94
518.33	1250.16
518.69	1271.68
519.05	1293.48
519.41	1315.46
519.77	1337.83
520.13	1359.80
520.49	1381.90
520.85	1404.46
521.21	1426.60
521.57	1449.52
521.93	1471.39
522.29	1493.89
522.65	1516.13
523.01	1538.67
523.37	1560.55
523.73	1582.82
524.09	1604.49
524.45	1626.75
524.81	1649.23
525.17	1671.58
525.53	1693.48
525.89	1715.86
526.25	1737.99
526.61	1759.16
526.97	1780.65
527.33	1801.77
527.68	1823.09
528.04	1844.37
528.40	1864.47
528.76	1885.20
529.12	1905.51
529.48	1927.16
529.84	1947.71
530.20	1967.78
530.56	1987.73
530.91	2008.41
531.27	2028.55
531.63	2048.86
531.99	2068.39
532.35	2087.30
532.71	2105.75
533.07	2124.99
533.42	2143.36
533.78	2161.81
534.14	2180.11
534.50	2197.28
534.86	2215.09
535.21	2231.60
535.57	2249.02
535.93	2265.99
536.29	2282.79
536.65	2299.05
537.00	2314.01
537.36	2328.57
537.72	2343.55
538.08	2358.63
538.44	2373.45
538.79	2388.50
539.15	2403.04
539.51	2417.55
539.87	2432.42
540.22	2446.96
540.58	2461.55
540.94	2475.74
541.29	2488.60
541.65	2500.77
542.01	2513.54
542.37	2525.17
542.72	2537.44
543.08	2547.89
543.44	2559.54
543.79	2569.63
544.15	2579.89
544.51	2590.85
544.87	2601.87
545.22	2610.94
545.58	2619.50
545.94	2627.04
546.29	2633.28
546.65	2639.43
547.01	2645.16
547.36	2650.73
547.72	2656.42
548.07	2660.03
548.43	2664.02
548.79	2667.77
549.14	2672.27
549.50	2676.67
549.86	2680.88
550.21	2684.87
550.57	2689.21
550.92	2691.75
551.28	2694.47
551.64	2696.67
551.99	2699.05
552.35	2700.39
552.70	2703.27
553.06	2705.76
553.41	2708.07
553.77	2710.96
554.13	2713.11
554.48	2715.20
554.84	2716.47
555.19	2716.81
555.55	2717.65
555.90	2718.05
556.26	2718.50
556.61	2718.18
556.97	2716.94
557.32	2716.08
557.68	2714.28
558.03	2712.39
558.39	2710.77
558.74	2710.06
559.10	2708.99
559.45	2706.57
559.81	2705.20
560.16	2702.46
560.52	2699.99
560.87	2697.29
561.23	2693.20
561.58	2690.95
561.94	2687.72
562.29	2683.91
562.64	2681.45
563.00	2678.69
563.35	2676.25
563.71	2674.04
564.06	2672.18
564.42	2670.23
564.77	2667.70
565.12	2665.92
565.48	2662.84
565.83	2659.62
566.19	2656.21
566.54	2652.03
566.89	2648.44
567.25	2644.96
567.60	2641.70
567.96	2638.09
568.31	2634.75
568.66	2631.17
569.02	2625.93
569.37	2621.05
569.72	2617.35
570.08	2612.13
570.43	2606.49
570.78	2600.55
571.14	2594.17
571.49	2587.28
571.84	2581.32
572.20	2574.15
572.55	2567.23
572.90	2560.50
573.26	2553.93
573.61	2546.80
573.96	2540.31
574.31	2532.77
574.67	2524.47
575.02	2516.05
575.37	2507.50
575.72	2498.22
576.08	2490.55
576.43	2482.35
576.78	2474.53
577.13	2466.20
577.49	2458.13
577.84	2450.28
578.19	2442.83
578.54	2435.69
578.90	2428.89
579.25	2420.32
579.60	2411.62
579.95	2402.76
580.30	2394.89
580.66	2386.81
581.01	2377.97
581.36	2368.71
581.71	2360.31
582.06	2352.27
582.42	2344.21
582.77	2335.10
583.12	2326.48
583.47	2317.81
583.82	2309.76
584.17	2300.24
584.53	2291.63
584.88	2282.62
585.23	2273.99
585.58	2264.37
585.93	2254.82
586.28	2245.64
586.63	2236.90
586.98	2228.79
587.34	2220.34
587.69	2211.07
588.04	2201.95
588.39	2194.06
588.74	2185.33
589.09	2176.39
589.44	2166.78
589.79	2158.12
590.14	2150.46
590.49	2142.35
590.84	2133.08
591.19	2124.92
591.54	2116.53
591.89	2106.63
592.25	2097.93
592.60	2088.68
592.95	2079.70
593.30	2070.23
593.65	2060.31
594.00	2050.38
594.35	2042.05
594.70	2032.98
595.05	2024.61
595.40	2015.87
595.75	2006.18
596.10	1998.20
596.45	1990.12
596.80	1982.42
597.15	1974.45
597.50	1965.44
597.85	1956.93
598.19	1948.77
598.54	1940.17
598.89	1932.22
599.24	1925.41
599.59	1918.01
599.94	1910.94
600.29	1903.22
600.64	1895.40
600.99	1887.37
601.34	1880.58
601.69	1872.10
602.04	1864.13
602.39	1855.99
602.74	1848.27
603.08	1841.64
603.43	1834.36
603.78	1826.39
604.13	1818.48
604.48	1810.37
604.83	1803.26
605.18	1796.29
605.53	1788.81
605.87	1781.50
606.22	1774.75
606.57	1767.09
606.92	1758.90
607.27	1750.91
607.62	1743.75
607.96	1737.19
608.31	1731.05
608.66	1723.47
609.01	1716.07
609.36	1708.46
609.70	1700.68
610.05	1692.95
610.40	1684.95
610.75	1676.11
611.10	1668.38
611.44	1659.17
611.79	1650.43
612.14	1641.40
612.49	1631.81
612.83	1623.20
613.18	1613.52
613.53	1604.14
613.88	1594.10
614.22	1585.15
614.57	1575.73
614.92	1566.53
615.27	1557.15
615.61	1547.60
615.96	1538.69
616.31	1529.99
616.65	1522.18
617.00	1513.93
617.35	1505.33
617.70	1496.37
618.04	1487.64
618.39	1478.36
618.74	1470.21
619.08	1461.55
619.43	1453.41
619.78	1445.75
620.12	1437.80
620.47	1430.02
620.82	1421.42
621.16	1413.52
621.51	1405.24
621.85	1397.18
622.20	1388.73
622.55	1380.45
622.89	1372.37
623.24	1364.49
623.59	1356.14
623.93	1347.33
624.28	1338.93
624.62	1330.92
624.97	1322.58
625.32	1315.14
625.66	1307.88
626.01	1300.54
626.35	1293.29
626.70	1285.64
627.04	1278.21
627.39	1270.86
627.73	1263.22
628.08	1256.44
628.43	1249.16
628.77	1241.78
629.12	1234.49
629.46	1227.82
629.81	1220.47
630.15	1212.95
630.50	1205.54
630.84	1198.18
631.19	1191.34
631.53	1184.64
631.88	1177.28
632.22	1169.97
632.57	1162.88
632.91	1155.49
633.26	1148.18
633.60	1141.04
633.95	1134.42
634.29	1126.99
634.64	1120.02
634.98	1113.21
635.32	1106.22
635.67	1099.81
636.01	1093.48
636.36	1086.67
636.70	1080.00
637.05	1073.54
637.39	1067.32
637.73	1061.07
638.08	1055.43
638.42	1049.50
638.77	1043.11
639.11	1036.79
639.45	1030.99
639.80	1024.48
640.14	1018.01
640.49	1011.87
640.83	1005.72
641.17	999.26
641.52	993.37
641.86	987.03
642.20	980.79
642.55	974.11
642.89	967.77
643.23	961.34
643.58	955.55
643.92	949.10
644.26	942.99
644.61	937.01
644.95	930.87
645.29	924.50
645.64	918.07
645.98	911.79
646.32	906.04
646.66	900.05
647.01	894.33
647.35	888.61
647.69	882.38
648.04	876.50
648.38	870.59
648.72	864.62
649.06	858.63
649.41	852.86
649.75	847.32
650.09	841.61
650.43	835.72
650.78	829.47
651.12	823.56
651.46	817.84
651.80	812.05
652.14	806.16
652.49	800.20
652.83	794.44
653.17	788.69
653.51	782.90
653.85	777.08
654.20	771.03
654.54	765.39
654.88	760.02
655.22	754.25
655.56	748.49
655.90	742.69
656.25	737.02
656.59	731.47
656.93	726.30
657.27	721.04
657.61	715.76
657.95	710.71
658.29	705.56
658.64	700.62
658.98	695.34
659.32	690.08
659.66	685.14
660.00	679.79
660.34	674.67
660.68	669.47
661.02	664.50
661.36	660.04
661.70	655.12
662.05	650.29
662.39	645.91
662.73	641.52
663.07	637.36
663.41	633.03
663.75	628.50
664.09	623.76
664.43	618.88
664.77	614.53
665.11	610.22
665.45	605.89
665.79	601.26
666.13	597.09
666.47	592.90
666.81	588.78
667.15	584.88
667.49	581.04
667.83	577.19
668.17	573.36
668.51	569.37
668.85	565.77
669.19	562.33
669.53	558.55
669.87	554.70
670.21	550.80
670.55	546.80
670.89	543.50
671.23	540.27
671.57	537.00
671.91	533.51
672.25	529.99
672.58	526.54
672.92	523.27
673.26	520.02
673.60	516.63
673.94	513.20
674.28	509.82
674.62	506.55
674.96	503.27
675.30	500.24
675.64	497.08
675.97	493.97
676.31	490.80
676.65	487.85
676.99	485.15
677.33	482.21
677.67	479.36
678.01	476.09
678.34	472.92
678.68	470.08
679.02	467.11
679.36	464.32
679.70	461.60
680.04	458.71
680.37	455.68
680.71	453.06
681.05	450.54
681.39	447.98
681.73	445.33
682.06	442.88
682.40	440.13
682.74	437.59
683.08	435.03
683.42	432.47
683.75	429.84
684.09	427.30
684.43	424.98
684.77	422.68
685.10	420.33
685.44	417.87
685.78	415.36
686.12	413.22
686.45	410.85
686.79	408.50
687.13	406.35
687.46	404.13
687.80	401.95
688.14	399.62
688.48	397.32
688.81	395.10
689.15	392.87
689.49	390.75
689.82	388.59
690.16	386.28
690.50	384.04
690.83	381.89
691.17	379.53
691.51	377.27
691.84	375.06
692.18	372.99
692.52	371.09
692.85	369.30
693.19	367.36
693.52	365.50
693.86	363.57
694.20	361.67
694.53	359.83
694.87	357.91
695.21	355.94
695.54	354.19
695.88	352.37
696.21	350.49
696.55	348.73
696.88	346.87
697.22	345.25
697.56	343.65
697.89	342.04
698.23	340.44
698.56	338.82
698.90	337.29
699.23	335.69
699.57	334.11
699.90	332.46
700.24	330.77
700.58	329.18
700.91	327.67
701.25	326.34
701.58	325.00
701.92	323.62
702.25	322.31
702.59	320.87
702.92	319.54
703.26	318.25
703.59	316.95
703.93	315.91
704.26	314.60
704.60	313.35
704.93	312.04
705.26	310.82
705.60	309.69
705.93	308.46
706.27	307.32
706.60	306.22
706.94	305.15
707.27	304.02
707.61	302.88
707.94	301.77
708.27	300.45
708.61	299.33
708.94	298.28
709.28	297.22
709.61	296.15
709.94	295.13
710.28	294.08
710.61	293.10
710.95	291.97
711.28	291.06
711.61	290.08
711.95	289.19
712.28	288.14
712.61	287.15
712.95	286.36
713.28	285.48
713.61	284.50
713.95	283.56
714.28	282.79
714.61	281.87
714.95	281.02
715.28	280.15
715.61	279.19
715.95	278.22
716.28	277.28
716.61	276.51
716.95	275.63
717.28	274.76
717.61	273.90
717.94	273.08
718.28	272.20
718.61	271.35
718.94	270.56
719.27	269.87
719.61	269.12
719.94	268.36
720.27	267.58
720.60	266.87
720.94	266.12
721.27	265.32
721.60	264.78
721.93	264.10
722.27	263.45
722.60	262.83
722.93	262.28
723.26	261.76
723.59	261.12
723.93	260.58
724.26	260.09
724.59	259.57
724.92	259.08
725.25	258.63
725.59	258.16
725.92	257.65
726.25	257.14
726.58	256.53
726.91	255.99
727.24	255.55
727.57	255.07
727.91	254.55
728.24	254.10
728.57	253.50
728.90	253.05
729.23	252.65
729.56	252.33
729.89	251.88
730.22	251.44
730.55	251.01
730.89	250.53
731.22	250.02
731.55	249.56
731.88	249.12
732.21	248.59
732.54	248.12
732.87	247.66
733.20	247.25
733.53	246.96
733.86	246.57
734.19	246.11
734.52	245.71
734.85	245.50
735.18	245.04
735.51	244.76
735.84	244.37
736.17	243.99
736.50	243.50
736.83	243.28
737.16	242.91
737.49	242.55
737.82	242.10
738.15	241.78
738.48	241.38
738.81	240.95
739.14	240.57
739.47	240.19
739.80	239.73
740.13	239.42
740.46	239.05
740.79	238.68
741.12	238.38
741.45	238.05
741.78	237.60
742.11	237.39
742.44	237.08
742.77	236.76
743.10	236.41
743.43	236.13
743.75	235.59
744.08	235.49
744.41	235.19
744.74	234.91
745.07	234.55
745.40	234.32
745.73	234.24
746.06	234.02
746.39	233.86
746.71	233.62
747.04	233.35
747.37	233.07
747.70	232.77
748.03	232.44
748.36	232.18
748.68	231.95
749.01	231.60
749.34	231.26
749.67	231.08
750.00	230.87
750.33	230.72
750.65	230.56
750.98	230.15
751.31	229.89
751.64	229.73
751.97	229.59
752.29	229.35
752.62	228.93
752.95	228.65
753.28	228.32
753.60	228.21
753.93	227.97
754.26	227.69
754.59	227.45
754.91	227.30
755.24	227.15
755.57	226.93
755.90	226.80
756.22	226.55
756.55	226.33
756.88	226.11
757.20	225.75
757.53	225.52
757.86	225.32
758.19	225.16
758.51	224.90
758.84	224.61
759.17	224.43
759.49	224.30
759.82	224.16
760.15	224.05
760.47	223.75
760.80	223.54
761.13	223.44
761.45	223.24
761.78	223.08
762.11	222.89
762.43	222.72
762.76	222.58
763.08	222.57
763.41	222.33
763.74	222.21
764.06	222.07
764.39	221.89
764.71	221.78
765.04	221.53
765.37	221.40
765.69	221.36
766.02	221.20
766.34	221.04
766.67	220.93
767.00	220.88
767.32	220.90
767.65	220.86
767.97	220.72
768.30	220.74
768.62	220.56
768.95	220.42
769.27	220.35
769.60	220.18
769.92	220.00
770.25	219.95
770.57	219.84
770.90	219.83
771.22	219.73
771.55	219.52
771.87	219.46
772.20	219.38
772.52	219.42
772.85	219.53
773.17	219.45
773.50	219.33
773.82	219.11
774.15	218.92
774.47	218.76
774.80	218.59
775.12	218.45
775.45	218.41
775.77	218.31
776.09	218.19
776.42	218.13
776.74	218.04
777.07	217.97
777.39	217.89
777.72	217.74
778.04	217.68
778.36	217.57
778.69	217.55
779.01	217.57
779.33	217.32
779.66	217.08
779.98	217.02
780.31	216.89
780.63	216.93
780.95	216.89
781.28	216.86
781.60	216.83
781.92	216.74
782.25	216.67
782.57	216.62
782.89	216.56
783.22	216.50
783.54	216.49
783.86	216.40
784.19	216.37
784.51	216.33
784.83	216.27
785.16	216.24
785.48	216.14
785.80	215.98
786.12	216.00
786.45	215.99
