SpectraSuite Data File
++++++++++++++++++++++++++++++++++++
Date: Mon Feb 25 17:35:23 EST 2013
User: group
Dark Spectrum Present: No
Reference Spectrum Present: No
Number of Sampled Component Spectra: 1
Spectrometers: USB2E7196
Integration Time (usec): 52000 (USB2E7196)
Spectra Averaged: 20 (USB2E7196)
Boxcar Smoothing: 10 (USB2E7196)
Correct for Electrical Dark: No (USB2E7196)
Strobe/Lamp Enabled: No (USB2E7196)
Correct for Detector Non-linearity: No (USB2E7196)
Correct for Stray Light: No (USB2E7196)
Number of Pixels in Processed Spectrum: 2048
>>>>>Begin Processed Spectral Data<<<<<
339.09	0.00
339.48	199.05
339.86	200.30
340.24	203.15
340.63	202.95
341.01	207.25
341.39	206.00
341.78	206.05
342.16	208.15
342.54	209.30
342.93	198.21
343.31	208.31
343.69	208.88
344.07	209.33
344.46	209.71
344.84	210.13
345.22	210.31
345.60	210.52
345.99	210.77
346.37	210.98
346.75	211.07
347.13	211.09
347.52	211.10
347.90	211.20
348.28	211.21
348.66	211.22
349.05	211.15
349.43	211.16
349.81	211.25
350.19	211.25
350.57	211.25
350.96	211.34
351.34	211.30
351.72	211.34
352.10	211.44
352.48	211.44
352.87	211.45
353.25	211.54
353.63	211.60
354.01	211.62
354.39	211.61
354.77	211.63
355.15	211.80
355.54	211.93
355.92	211.99
356.30	212.08
356.68	212.25
357.06	212.36
357.44	212.46
357.82	212.51
358.20	212.67
358.58	212.74
358.97	212.71
359.35	212.85
359.73	212.89
360.11	212.97
360.49	213.06
360.87	213.15
361.25	213.21
361.63	213.36
362.01	213.44
362.39	213.50
362.77	213.63
363.15	213.62
363.53	213.65
363.91	213.60
364.29	213.68
364.67	213.58
365.05	213.60
365.43	213.62
365.81	213.61
366.19	213.70
366.57	213.85
366.95	213.96
367.33	213.97
367.71	214.04
368.09	214.03
368.47	214.05
368.85	214.08
369.23	214.07
369.61	213.92
369.99	213.97
370.37	213.93
370.75	213.98
371.13	213.95
371.51	213.88
371.89	213.94
372.27	213.91
372.65	213.90
373.03	213.93
373.41	213.84
373.78	213.83
374.16	213.68
374.54	213.52
374.92	213.39
375.30	213.23
375.68	213.15
376.06	213.18
376.44	213.20
376.82	213.13
377.19	213.11
377.57	213.11
377.95	212.95
378.33	212.93
378.71	212.77
379.09	212.73
379.47	212.67
379.84	212.61
380.22	212.54
380.60	212.52
380.98	212.32
381.36	212.31
381.73	212.22
382.11	212.21
382.49	212.21
382.87	212.21
383.25	212.22
383.62	212.31
384.00	212.22
384.38	212.03
384.76	212.03
385.13	212.05
385.51	211.96
385.89	212.07
386.27	211.93
386.64	211.92
387.02	211.88
387.40	211.84
387.78	211.77
388.15	211.72
388.53	211.63
388.91	211.69
389.29	211.57
389.66	211.55
390.04	211.52
390.42	211.55
390.79	211.60
391.17	211.58
391.55	211.42
391.92	211.38
392.30	211.44
392.68	211.36
393.05	211.34
393.43	211.40
393.81	211.29
394.18	211.35
394.56	211.30
394.94	211.34
395.31	211.31
395.69	211.41
396.06	211.45
396.44	211.50
396.82	211.47
397.19	211.57
397.57	211.54
397.95	211.57
398.32	211.53
398.70	211.51
399.07	211.59
399.45	211.58
399.82	211.54
400.20	211.57
400.58	211.55
400.95	211.40
401.33	211.42
401.70	211.59
402.08	211.71
402.45	211.77
402.83	211.89
403.20	212.00
403.58	211.99
403.95	212.05
404.33	212.13
404.71	212.34
405.08	212.61
405.46	212.77
405.83	212.86
406.21	212.93
406.58	213.06
406.96	213.17
407.33	213.39
407.70	213.65
408.08	214.01
408.45	214.32
408.83	214.65
409.20	214.96
409.58	215.18
409.95	215.50
410.33	215.82
410.70	216.05
411.08	216.40
411.45	216.82
411.82	217.22
412.20	217.68
412.57	218.14
412.95	218.45
413.32	218.98
413.69	219.55
414.07	220.11
414.44	220.71
414.82	221.39
415.19	222.10
415.56	222.79
415.94	223.49
416.31	224.34
416.68	225.23
417.06	226.20
417.43	227.14
417.81	228.18
418.18	229.35
418.55	230.61
418.93	231.95
419.30	233.33
419.67	234.68
420.04	236.12
420.42	237.63
420.79	239.49
421.16	241.23
421.54	243.07
421.91	245.03
422.28	247.10
422.66	249.12
423.03	251.27
423.40	253.53
423.77	255.74
424.15	258.05
424.52	260.45
424.89	263.06
425.26	265.56
425.64	267.90
426.01	270.53
426.38	273.17
426.75	275.92
427.13	278.77
427.50	281.87
427.87	284.97
428.24	288.12
428.61	291.00
428.99	294.40
429.36	297.96
429.73	301.47
430.10	304.92
430.47	308.50
430.85	312.09
431.22	315.94
431.59	320.26
431.96	324.14
432.33	328.57
432.70	332.77
433.08	337.68
433.45	342.38
433.82	347.04
434.19	352.14
434.56	357.22
434.93	361.89
435.30	366.60
435.68	371.85
436.05	377.12
436.42	382.34
436.79	387.02
437.16	392.18
437.53	397.71
437.90	402.89
438.27	408.13
438.64	413.61
439.01	418.64
439.38	422.96
439.75	427.32
440.13	432.17
440.50	436.71
440.87	440.48
441.24	444.32
441.61	448.49
441.98	451.80
442.35	455.39
442.72	459.22
443.09	462.71
443.46	464.90
443.83	466.19
444.20	467.30
444.57	469.10
444.94	469.77
445.31	470.33
445.68	471.30
446.05	471.57
446.42	470.89
446.79	470.00
447.16	469.06
447.53	468.30
447.90	466.15
448.27	464.11
448.64	461.11
449.01	458.88
449.37	455.24
449.74	451.64
450.11	447.33
450.48	442.67
450.85	438.07
451.22	434.12
451.59	430.30
451.96	426.71
452.33	421.82
452.70	417.50
453.07	412.36
453.43	407.02
453.80	402.00
454.17	397.18
454.54	392.70
454.91	387.88
455.28	383.13
455.65	378.67
456.02	374.27
456.38	370.60
456.75	365.99
457.12	362.06
457.49	358.19
457.86	354.50
458.23	351.30
458.59	347.82
458.96	344.19
459.33	341.10
459.70	337.90
460.07	335.42
460.43	332.49
460.80	329.72
461.17	327.28
461.54	324.72
461.91	322.36
462.27	319.96
462.64	317.89
463.01	315.75
463.38	313.60
463.74	311.26
464.11	309.36
464.48	307.81
464.85	306.09
465.21	304.68
465.58	303.24
465.95	301.44
466.32	299.98
466.68	298.58
467.05	297.16
467.42	295.78
467.78	294.28
468.15	292.89
468.52	291.93
468.88	290.56
469.25	289.36
469.62	288.42
469.98	287.36
470.35	286.45
470.72	285.63
471.08	284.70
471.45	284.01
471.82	283.15
472.18	282.24
472.55	281.62
472.92	280.87
473.28	280.26
473.65	279.65
474.02	279.11
474.38	278.67
474.75	278.27
475.11	277.76
475.48	277.48
475.85	277.20
476.21	276.95
476.58	276.91
476.94	276.88
477.31	276.76
477.67	276.75
478.04	276.82
478.41	276.93
478.77	277.23
479.14	277.29
479.50	277.65
479.87	278.03
480.23	278.40
480.60	278.76
480.96	279.26
481.33	279.99
481.69	280.65
482.06	281.21
482.42	281.82
482.79	282.61
483.15	283.45
483.52	284.46
483.88	285.39
484.25	286.36
484.61	287.43
484.98	288.56
485.34	289.83
485.71	291.15
486.07	292.50
486.44	293.67
486.80	295.27
487.17	296.78
487.53	298.49
487.90	300.35
488.26	302.29
488.62	304.29
488.99	306.35
489.35	308.45
489.72	310.81
490.08	313.25
490.44	315.72
490.81	318.46
491.17	321.05
491.54	323.95
491.90	326.96
492.26	330.09
492.63	333.48
492.99	336.90
493.36	340.53
493.72	344.39
494.08	348.54
494.45	352.96
494.81	357.55
495.17	362.20
495.54	367.04
495.90	372.09
496.26	377.28
496.63	382.64
496.99	388.39
497.35	394.28
497.72	400.45
498.08	407.09
498.44	413.82
498.80	421.20
499.17	428.65
499.53	436.35
499.89	444.41
500.26	452.55
500.62	461.04
500.98	469.83
501.34	479.00
501.71	488.47
502.07	498.02
502.43	508.05
502.79	518.29
503.16	529.03
503.52	539.93
503.88	551.19
504.24	562.92
504.60	574.76
504.97	587.35
505.33	600.11
505.69	613.50
506.05	627.01
506.41	640.50
506.78	654.32
507.14	668.37
507.50	682.98
507.86	698.01
508.22	713.49
508.59	729.15
508.95	745.20
509.31	761.34
509.67	778.08
510.03	795.16
510.39	812.75
510.75	830.51
511.12	848.68
511.48	867.22
511.84	885.96
512.20	904.78
512.56	924.04
512.92	943.60
513.28	962.91
513.64	982.56
514.00	1002.59
514.37	1023.00
514.73	1044.14
515.09	1064.98
515.45	1085.78
515.81	1106.95
516.17	1128.30
516.53	1149.83
516.89	1171.64
517.25	1193.44
517.61	1215.06
517.97	1236.84
518.33	1258.56
518.69	1280.37
519.05	1302.29
519.41	1324.66
519.77	1347.41
520.13	1369.29
520.49	1391.47
520.85	1414.30
521.21	1437.11
521.57	1460.20
521.93	1482.37
522.29	1505.26
522.65	1527.84
523.01	1550.50
523.37	1572.66
523.73	1595.04
524.09	1617.51
524.45	1639.91
524.81	1662.21
525.17	1684.76
525.53	1707.17
525.89	1729.76
526.25	1752.10
526.61	1773.94
526.97	1795.73
527.33	1817.16
527.68	1839.02
528.04	1860.32
528.40	1880.66
528.76	1901.82
529.12	1922.84
529.48	1944.88
529.84	1965.47
530.20	1986.37
530.56	2007.02
530.91	2028.29
531.27	2049.39
531.63	2069.45
531.99	2089.62
532.35	2109.03
532.71	2128.37
533.07	2148.21
533.42	2166.83
533.78	2185.97
534.14	2204.59
534.50	2221.90
534.86	2240.27
535.21	2257.56
535.57	2275.91
535.93	2293.69
536.29	2310.47
536.65	2327.15
537.00	2342.68
537.36	2357.90
537.72	2373.48
538.08	2389.16
538.44	2404.66
538.79	2419.93
539.15	2435.10
539.51	2450.23
539.87	2465.90
540.22	2480.77
540.58	2495.78
540.94	2510.67
541.29	2523.71
541.65	2536.19
542.01	2549.65
542.37	2561.85
542.72	2574.38
543.08	2585.37
543.44	2597.55
543.79	2607.83
544.15	2618.58
544.51	2630.04
544.87	2641.57
545.22	2650.95
545.58	2659.75
545.94	2667.24
546.29	2673.69
546.65	2680.14
547.01	2686.35
547.36	2692.00
547.72	2697.39
548.07	2701.55
548.43	2705.28
548.79	2709.36
549.14	2714.32
549.50	2718.89
549.86	2723.08
550.21	2727.35
550.57	2731.86
550.92	2734.61
551.28	2737.88
551.64	2740.19
551.99	2742.48
552.35	2743.88
552.70	2746.54
553.06	2749.19
553.41	2752.23
553.77	2755.79
554.13	2758.15
554.48	2760.38
554.84	2762.01
555.19	2762.62
555.55	2763.27
555.90	2764.25
556.26	2765.00
556.61	2764.90
556.97	2763.76
557.32	2763.53
557.68	2762.05
558.03	2760.66
558.39	2759.48
558.74	2758.93
559.10	2758.05
559.45	2756.13
559.81	2755.39
560.16	2753.05
560.52	2750.93
560.87	2748.03
561.23	2744.01
561.58	2741.79
561.94	2738.70
562.29	2734.97
562.64	2733.21
563.00	2730.78
563.35	2728.80
563.71	2727.24
564.06	2725.52
564.42	2723.84
564.77	2721.26
565.12	2719.27
565.48	2715.76
565.83	2712.70
566.19	2709.62
566.54	2705.60
566.89	2702.01
567.25	2698.57
567.60	2695.26
567.96	2691.33
568.31	2687.73
568.66	2683.94
569.02	2679.13
569.37	2674.21
569.72	2670.62
570.08	2665.08
570.43	2659.18
570.78	2653.09
571.14	2646.71
571.49	2640.01
571.84	2634.16
572.20	2627.20
572.55	2620.45
572.90	2613.55
573.26	2606.56
573.61	2599.30
573.96	2592.62
574.31	2584.80
574.67	2575.94
575.02	2567.45
575.37	2558.72
575.72	2549.69
576.08	2542.04
576.43	2533.48
576.78	2525.23
577.13	2516.87
577.49	2508.83
577.84	2501.38
578.19	2493.64
578.54	2486.23
578.90	2479.14
579.25	2470.10
579.60	2461.35
579.95	2452.19
580.30	2444.28
580.66	2435.73
581.01	2426.74
581.36	2417.05
581.71	2408.42
582.06	2399.82
582.42	2391.43
582.77	2382.59
583.12	2373.44
583.47	2364.87
583.82	2356.63
584.17	2347.61
584.53	2338.46
584.88	2329.69
585.23	2320.29
585.58	2310.72
585.93	2300.65
586.28	2291.07
586.63	2282.11
586.98	2273.33
587.34	2264.80
587.69	2255.55
588.04	2246.74
588.39	2238.01
588.74	2229.28
589.09	2220.66
589.44	2211.31
589.79	2202.90
590.14	2194.67
590.49	2186.43
590.84	2177.22
591.19	2168.93
591.54	2159.82
591.89	2149.49
592.25	2139.93
592.60	2130.50
592.95	2121.11
593.30	2111.79
593.65	2101.78
594.00	2092.19
594.35	2083.38
594.70	2074.05
595.05	2065.24
595.40	2056.25
595.75	2046.86
596.10	2038.46
596.45	2029.63
596.80	2021.57
597.15	2012.78
597.50	2003.73
597.85	1995.18
598.19	1986.05
598.54	1977.24
598.89	1969.46
599.24	1962.95
599.59	1955.39
599.94	1948.01
600.29	1939.77
600.64	1931.51
600.99	1923.30
601.34	1915.88
601.69	1907.30
602.04	1898.97
602.39	1890.77
602.74	1882.80
603.08	1875.75
603.43	1868.41
603.78	1860.35
604.13	1852.23
604.48	1844.16
604.83	1836.93
605.18	1829.67
605.53	1822.08
605.87	1814.28
606.22	1806.73
606.57	1798.72
606.92	1790.45
607.27	1782.57
607.62	1775.13
607.96	1768.29
608.31	1761.91
608.66	1753.89
609.01	1746.18
609.36	1738.41
609.70	1730.13
610.05	1722.31
610.40	1713.91
610.75	1705.33
611.10	1697.70
611.44	1688.53
611.79	1679.36
612.14	1670.02
612.49	1660.18
612.83	1651.42
613.18	1641.47
613.53	1631.98
613.88	1621.94
614.22	1613.08
614.57	1603.54
614.92	1594.21
615.27	1584.53
615.61	1574.65
615.96	1565.66
616.31	1556.95
616.65	1548.99
617.00	1540.83
617.35	1532.01
617.70	1523.05
618.04	1513.76
618.39	1504.15
618.74	1495.61
619.08	1486.85
619.43	1478.63
619.78	1470.78
620.12	1462.74
620.47	1454.90
620.82	1446.45
621.16	1438.17
621.51	1429.70
621.85	1421.34
622.20	1412.77
622.55	1404.36
622.89	1395.91
623.24	1388.09
623.59	1379.39
623.93	1370.55
624.28	1362.20
624.62	1353.89
624.97	1345.67
625.32	1338.04
625.66	1330.57
626.01	1323.42
626.35	1316.11
626.70	1308.17
627.04	1300.79
627.39	1292.83
627.73	1285.28
628.08	1278.09
628.43	1270.59
628.77	1262.91
629.12	1255.17
629.46	1248.62
629.81	1241.17
630.15	1233.75
630.50	1225.96
630.84	1218.65
631.19	1211.34
631.53	1204.25
631.88	1196.45
632.22	1188.98
632.57	1181.83
632.91	1174.30
633.26	1166.46
633.60	1159.20
633.95	1152.38
634.29	1144.76
634.64	1137.77
634.98	1130.73
635.32	1123.61
635.67	1117.08
636.01	1110.45
636.36	1103.94
636.70	1097.24
637.05	1090.74
637.39	1084.52
637.73	1078.07
638.08	1072.35
638.42	1066.41
638.77	1059.95
639.11	1053.49
639.45	1047.52
639.80	1040.78
640.14	1034.30
640.49	1028.13
640.83	1021.74
641.17	1015.36
641.52	1009.35
641.86	1002.90
642.20	996.43
642.55	989.54
642.89	983.00
643.23	976.65
643.58	970.48
643.92	963.75
644.26	957.36
644.61	951.02
644.95	945.00
645.29	938.47
645.64	931.79
645.98	925.52
646.32	919.66
646.66	913.35
647.01	907.42
647.35	901.46
647.69	895.16
648.04	889.22
648.38	883.21
648.72	877.19
649.06	871.26
649.41	865.21
649.75	859.50
650.09	853.81
650.43	847.75
650.78	841.50
651.12	835.37
651.46	829.78
651.80	823.84
652.14	817.73
652.49	811.96
652.83	806.18
653.17	799.85
653.51	794.04
653.85	788.29
654.20	782.41
654.54	776.54
654.88	771.03
655.22	765.22
655.56	759.22
655.90	753.17
656.25	747.36
656.59	741.95
656.93	736.70
657.27	731.37
657.61	725.85
657.95	720.79
658.29	715.65
658.64	710.31
658.98	705.18
659.32	699.76
659.66	694.54
660.00	689.11
660.34	684.02
660.68	678.72
661.02	673.52
661.36	668.69
661.70	663.96
662.05	659.12
662.39	654.53
662.73	650.17
663.07	645.76
663.41	641.55
663.75	637.08
664.09	632.38
664.43	627.58
664.77	623.24
665.11	618.70
665.45	614.35
665.79	609.88
666.13	605.43
666.47	601.40
666.81	597.08
667.15	593.11
667.49	589.30
667.83	585.54
668.17	581.63
668.51	577.74
668.85	573.98
669.19	570.28
669.53	566.37
669.87	562.30
670.21	558.67
670.55	554.63
670.89	550.94
671.23	547.59
671.57	544.14
671.91	540.57
672.25	536.98
672.58	533.47
672.92	529.96
673.26	526.74
673.60	523.27
673.94	519.93
674.28	516.59
674.62	513.42
674.96	510.13
675.30	507.01
675.64	503.79
675.97	500.55
676.31	497.50
676.65	494.55
676.99	491.83
677.33	488.72
677.67	485.75
678.01	482.76
678.34	479.59
678.68	476.56
679.02	473.46
679.36	470.69
679.70	467.79
680.04	464.98
680.37	461.94
680.71	459.28
681.05	456.60
681.39	453.86
681.73	451.03
682.06	448.54
682.40	445.91
682.74	443.30
683.08	440.62
683.42	437.96
683.75	435.36
684.09	432.71
684.43	430.25
684.77	427.57
685.10	424.98
685.44	422.48
685.78	419.91
686.12	417.66
686.45	415.24
686.79	412.85
687.13	410.62
687.46	408.32
687.80	405.97
688.14	403.56
688.48	401.29
688.81	399.06
689.15	396.78
689.49	394.52
689.82	392.24
690.16	390.02
690.50	387.65
690.83	385.37
691.17	383.01
691.51	380.73
691.84	378.65
692.18	376.61
692.52	374.55
692.85	372.81
693.19	370.88
693.52	368.94
693.86	367.02
694.20	365.14
694.53	363.28
694.87	361.24
695.21	359.40
695.54	357.52
695.88	355.41
696.21	353.46
696.55	351.69
696.88	349.91
697.22	348.13
697.56	346.64
697.89	345.03
698.23	343.48
698.56	341.86
698.90	340.50
699.23	338.87
699.57	337.30
699.90	335.55
700.24	333.96
700.58	332.32
700.91	330.73
701.25	329.21
701.58	327.79
701.92	326.38
702.25	324.91
702.59	323.58
702.92	322.40
703.26	321.05
703.59	319.80
703.93	318.60
704.26	317.30
704.60	315.93
704.93	314.62
705.26	313.31
705.60	312.04
705.93	310.66
706.27	309.49
706.60	308.39
706.94	307.35
707.27	306.07
707.61	304.92
707.94	303.75
708.27	302.51
708.61	301.33
708.94	300.20
709.28	299.04
709.61	297.82
709.94	296.66
710.28	295.60
710.61	294.41
710.95	293.22
711.28	292.30
711.61	291.21
711.95	290.24
712.28	289.14
712.61	288.02
712.95	286.96
713.28	286.07
713.61	285.09
713.95	284.00
714.28	283.16
714.61	282.20
714.95	281.26
715.28	280.25
715.61	279.28
715.95	278.40
716.28	277.53
716.61	276.69
716.95	275.83
717.28	274.89
717.61	274.11
717.94	273.31
718.28	272.46
718.61	271.68
718.94	270.85
719.27	270.24
719.61	269.66
719.94	268.99
720.27	268.12
720.60	267.38
720.94	266.70
721.27	266.02
721.60	265.40
721.93	264.79
722.27	264.26
722.60	263.70
722.93	263.03
723.26	262.43
723.59	261.84
723.93	261.27
724.26	260.72
724.59	260.10
724.92	259.58
725.25	259.03
725.59	258.47
725.92	257.99
726.25	257.44
726.58	256.90
726.91	256.37
727.24	255.92
727.57	255.34
727.91	254.75
728.24	254.24
728.57	253.71
728.90	253.33
729.23	252.77
729.56	252.36
729.89	251.90
730.22	251.41
730.55	250.98
730.89	250.57
731.22	250.16
731.55	249.68
731.88	249.21
732.21	248.70
732.54	248.30
732.87	247.83
733.20	247.41
733.53	247.00
733.86	246.64
734.19	246.19
734.52	245.92
734.85	245.72
735.18	245.28
735.51	245.00
735.84	244.56
736.17	244.26
736.50	243.74
736.83	243.58
737.16	243.26
737.49	242.85
737.82	242.38
738.15	241.96
738.48	241.65
738.81	241.30
739.14	240.91
739.47	240.45
739.80	240.11
740.13	239.79
740.46	239.38
740.79	238.93
741.12	238.66
741.45	238.22
741.78	237.82
742.11	237.56
742.44	237.15
742.77	236.88
743.10	236.53
743.43	236.28
743.75	235.73
744.08	235.64
744.41	235.32
744.74	235.11
745.07	234.91
745.40	234.66
745.73	234.43
746.06	234.16
746.39	233.97
746.71	233.67
747.04	233.31
747.37	233.06
747.70	232.89
748.03	232.57
748.36	232.32
748.68	232.06
749.01	231.79
749.34	231.56
749.67	231.33
750.00	231.13
750.33	230.94
750.65	230.82
750.98	230.45
751.31	230.20
751.64	229.94
751.97	229.74
752.29	229.54
752.62	229.20
752.95	228.94
753.28	228.78
753.60	228.58
753.93	228.51
754.26	228.34
754.59	228.05
754.91	227.83
755.24	227.65
755.57	227.49
755.90	227.27
756.22	227.05
756.55	226.87
756.88	226.60
757.20	226.33
757.53	226.03
757.86	225.74
758.19	225.59
758.51	225.44
758.84	225.15
759.17	224.90
759.49	224.79
759.82	224.79
760.15	224.65
760.47	224.46
760.80	224.18
761.13	224.05
761.45	223.92
761.78	223.74
762.11	223.62
762.43	223.44
762.76	223.26
763.08	223.13
763.41	223.02
763.74	222.88
764.06	222.77
764.39	222.73
764.71	222.60
765.04	222.47
765.37	222.28
765.69	222.15
766.02	222.06
766.34	221.97
766.67	221.71
767.00	221.57
767.32	221.58
767.65	221.55
767.97	221.35
768.30	221.22
768.62	221.11
768.95	220.91
769.27	220.79
769.60	220.74
769.92	220.61
770.25	220.41
770.57	220.40
770.90	220.30
771.22	220.14
771.55	220.08
771.87	219.96
772.20	219.91
772.52	219.98
772.85	220.11
773.17	220.01
773.50	219.99
773.82	219.86
774.15	219.60
774.47	219.46
774.80	219.36
775.12	219.30
775.45	219.23
775.77	219.23
776.09	219.13
776.42	219.07
776.74	218.99
777.07	218.84
777.39	218.71
777.72	218.64
778.04	218.57
778.36	218.50
778.69	218.46
779.01	218.39
779.33	218.12
779.66	217.83
779.98	217.77
780.31	217.66
780.63	217.68
780.95	217.70
781.28	217.59
781.60	217.50
781.92	217.42
782.25	217.35
782.57	217.22
782.89	217.06
783.22	216.95
783.54	216.81
783.86	216.78
784.19	216.63
784.51	216.58
784.83	216.52
785.16	216.44
785.48	216.38
785.80	216.31
786.12	216.29
786.45	216.25
