SpectraSuite Data File
++++++++++++++++++++++++++++++++++++
Date: Mon Feb 25 17:31:36 EST 2013
User: group
Dark Spectrum Present: No
Reference Spectrum Present: No
Number of Sampled Component Spectra: 1
Spectrometers: USB2E7196
Integration Time (usec): 52000 (USB2E7196)
Spectra Averaged: 20 (USB2E7196)
Boxcar Smoothing: 10 (USB2E7196)
Correct for Electrical Dark: No (USB2E7196)
Strobe/Lamp Enabled: No (USB2E7196)
Correct for Detector Non-linearity: No (USB2E7196)
Correct for Stray Light: No (USB2E7196)
Number of Pixels in Processed Spectrum: 2048
>>>>>Begin Processed Spectral Data<<<<<
339.09	0.00
339.48	198.30
339.86	200.25
340.24	200.95
340.63	203.35
341.01	207.30
341.39	205.65
341.78	206.85
342.16	207.20
342.54	206.95
342.93	197.74
343.31	207.75
343.69	208.33
344.07	208.78
344.46	209.26
344.84	209.59
345.22	209.83
345.60	210.19
345.99	210.36
346.37	210.62
346.75	210.84
347.13	211.02
347.52	211.12
347.90	211.29
348.28	211.39
348.66	211.54
349.05	211.65
349.43	211.78
349.81	211.86
350.19	211.92
350.57	212.07
350.96	212.16
351.34	212.30
351.72	212.40
352.10	212.57
352.48	212.72
352.87	212.86
353.25	212.94
353.63	212.96
354.01	213.10
354.39	213.26
354.77	213.37
355.15	213.54
355.54	213.64
355.92	213.66
356.30	213.79
356.68	214.00
357.06	214.07
357.44	214.16
357.82	214.25
358.20	214.36
358.58	214.39
358.97	214.49
359.35	214.65
359.73	214.84
360.11	214.98
360.49	214.98
360.87	215.14
361.25	215.20
361.63	215.30
362.01	215.40
362.39	215.35
362.77	215.39
363.15	215.41
363.53	215.43
363.91	215.47
364.29	215.52
364.67	215.36
365.05	215.36
365.43	215.32
365.81	215.38
366.19	215.47
366.57	215.57
366.95	215.55
367.33	215.50
367.71	215.40
368.09	215.37
368.47	215.38
368.85	215.22
369.23	215.24
369.61	215.13
369.99	215.15
370.37	215.08
370.75	215.17
371.13	215.06
371.51	215.04
371.89	215.00
372.27	214.91
372.65	214.86
373.03	214.73
373.41	214.72
373.78	214.65
374.16	214.42
374.54	214.30
374.92	214.21
375.30	214.10
375.68	214.01
376.06	213.88
376.44	213.75
376.82	213.75
377.19	213.62
377.57	213.56
377.95	213.43
378.33	213.39
378.71	213.21
379.09	213.20
379.47	213.12
379.84	213.01
380.22	212.96
380.60	212.87
380.98	212.87
381.36	212.77
381.73	212.72
382.11	212.75
382.49	212.64
382.87	212.57
383.25	212.50
383.62	212.67
384.00	212.64
384.38	212.64
384.76	212.63
385.13	212.73
385.51	212.72
385.89	212.65
386.27	212.60
386.64	212.56
387.02	212.49
387.40	212.36
387.78	212.36
388.15	212.34
388.53	212.32
388.91	212.26
389.29	212.26
389.66	212.18
390.04	212.12
390.42	212.18
390.79	212.12
391.17	212.14
391.55	211.95
391.92	211.97
392.30	212.05
392.68	212.05
393.05	211.93
393.43	211.90
393.81	211.91
394.18	211.90
394.56	211.88
394.94	211.89
395.31	211.89
395.69	211.94
396.06	211.96
396.44	212.01
396.82	211.98
397.19	212.06
397.57	212.01
397.95	212.16
398.32	212.13
398.70	212.30
399.07	212.30
399.45	212.35
399.82	212.29
400.20	212.29
400.58	212.20
400.95	212.22
401.33	212.30
401.70	212.50
402.08	212.56
402.45	212.66
402.83	212.77
403.20	212.88
403.58	212.91
403.95	212.95
404.33	212.97
404.71	213.18
405.08	213.40
405.46	213.57
405.83	213.67
406.21	213.76
406.58	213.87
406.96	213.99
407.33	214.08
407.70	214.32
408.08	214.54
408.45	214.85
408.83	215.08
409.20	215.28
409.58	215.43
409.95	215.75
410.33	216.09
410.70	216.38
411.08	216.78
411.45	217.15
411.82	217.59
412.20	218.02
412.57	218.46
412.95	218.78
413.32	219.31
413.69	219.75
414.07	220.34
414.44	220.90
414.82	221.60
415.19	222.35
415.56	223.07
415.94	223.85
416.31	224.64
416.68	225.47
417.06	226.46
417.43	227.37
417.81	228.47
418.18	229.45
418.55	230.60
418.93	231.78
419.30	233.00
419.67	234.33
420.04	235.76
420.42	237.20
420.79	238.94
421.16	240.69
421.54	242.48
421.91	244.38
422.28	246.32
422.66	248.39
423.03	250.34
423.40	252.34
423.77	254.46
424.15	256.75
424.52	259.11
424.89	261.67
425.26	264.12
425.64	266.36
426.01	268.92
426.38	271.59
426.75	274.22
427.13	277.10
427.50	279.97
427.87	283.00
428.24	285.99
428.61	288.78
428.99	291.91
429.36	295.39
429.73	298.77
430.10	302.18
430.47	305.63
430.85	309.33
431.22	313.26
431.59	317.44
431.96	321.36
432.33	325.69
432.70	329.79
433.08	334.72
433.45	339.28
433.82	343.85
434.19	348.93
434.56	353.96
434.93	358.66
435.30	363.39
435.68	368.54
436.05	373.70
436.42	378.84
436.79	383.59
437.16	388.60
437.53	393.81
437.90	398.99
438.27	403.99
438.64	409.13
439.01	414.03
439.38	418.23
439.75	422.42
440.13	427.21
440.50	431.71
440.87	435.36
441.24	439.06
441.61	443.25
441.98	446.34
442.35	449.85
442.72	453.40
443.09	456.84
443.46	458.88
443.83	460.25
444.20	461.42
444.57	462.96
444.94	463.68
445.31	464.53
445.68	465.35
446.05	465.63
446.42	465.03
446.79	464.36
447.16	463.58
447.53	462.85
447.90	460.77
448.27	458.75
448.64	455.87
449.01	453.88
449.37	450.29
449.74	446.73
450.11	442.70
450.48	438.25
450.85	433.83
451.22	429.90
451.59	426.31
451.96	422.69
452.33	418.06
452.70	413.74
453.07	408.56
453.43	403.26
453.80	398.35
454.17	393.68
454.54	389.10
454.91	384.35
455.28	379.67
455.65	375.31
456.02	371.03
456.38	367.33
456.75	362.71
457.12	358.96
457.49	355.24
457.86	351.58
458.23	348.43
458.59	344.89
458.96	341.53
459.33	338.31
459.70	335.26
460.07	332.79
460.43	329.97
460.80	327.38
461.17	325.09
461.54	322.66
461.91	320.40
462.27	318.06
462.64	316.08
463.01	313.98
463.38	311.80
463.74	309.53
464.11	307.60
464.48	306.03
464.85	304.31
465.21	302.88
465.58	301.47
465.95	299.79
466.32	298.44
466.68	297.08
467.05	295.73
467.42	294.46
467.78	293.10
468.15	291.72
468.52	290.78
468.88	289.48
469.25	288.36
469.62	287.48
469.98	286.51
470.35	285.53
470.72	284.68
471.08	283.80
471.45	283.00
471.82	282.20
472.18	281.38
472.55	280.72
472.92	280.02
473.28	279.42
473.65	278.92
474.02	278.39
474.38	277.90
474.75	277.54
475.11	276.99
475.48	276.74
475.85	276.60
476.21	276.36
476.58	276.26
476.94	276.20
477.31	276.10
477.67	276.04
478.04	276.13
478.41	276.25
478.77	276.55
479.14	276.79
479.50	277.11
479.87	277.50
480.23	277.94
480.60	278.35
480.96	278.75
481.33	279.36
481.69	279.97
482.06	280.60
482.42	281.29
482.79	282.12
483.15	282.99
483.52	284.00
483.88	284.90
484.25	285.84
484.61	286.93
484.98	288.02
485.34	289.33
485.71	290.71
486.07	292.13
486.44	293.37
486.80	294.80
487.17	296.38
487.53	298.09
487.90	299.87
488.26	301.80
488.62	303.90
488.99	305.92
489.35	308.09
489.72	310.37
490.08	312.72
490.44	315.26
490.81	317.88
491.17	320.52
491.54	323.41
491.90	326.47
492.26	329.69
492.63	333.03
492.99	336.49
493.36	340.09
493.72	343.86
494.08	347.94
494.45	352.32
494.81	356.87
495.17	361.46
495.54	366.32
495.90	371.41
496.26	376.44
496.63	381.96
496.99	387.60
497.35	393.57
497.72	399.83
498.08	406.16
498.44	412.90
498.80	419.89
499.17	427.21
499.53	434.92
499.89	442.85
500.26	450.89
500.62	459.07
500.98	467.97
501.34	477.05
501.71	486.38
502.07	495.99
502.43	505.88
502.79	515.98
503.16	526.64
503.52	537.51
503.88	548.93
504.24	560.42
504.60	572.37
504.97	584.62
505.33	597.01
505.69	610.31
506.05	623.50
506.41	637.08
506.78	650.82
507.14	664.63
507.50	679.17
507.86	694.20
508.22	709.71
508.59	725.00
508.95	740.80
509.31	757.02
509.67	773.66
510.03	790.58
510.39	808.19
510.75	825.82
511.12	843.71
511.48	861.95
511.84	880.41
512.20	898.74
512.56	917.90
512.92	937.28
513.28	956.65
513.64	976.31
514.00	996.29
514.37	1016.75
514.73	1037.75
515.09	1058.27
515.45	1078.89
515.81	1099.88
516.17	1121.09
516.53	1142.52
516.89	1164.02
517.25	1185.45
517.61	1206.72
517.97	1227.98
518.33	1249.08
518.69	1270.85
519.05	1292.42
519.41	1314.65
519.77	1337.21
520.13	1359.03
520.49	1381.09
520.85	1403.80
521.21	1425.99
521.57	1448.65
521.93	1470.55
522.29	1493.00
522.65	1515.35
523.01	1537.86
523.37	1559.81
523.73	1582.07
524.09	1604.18
524.45	1626.00
524.81	1648.06
525.17	1670.43
525.53	1692.57
525.89	1714.68
526.25	1736.40
526.61	1757.74
526.97	1778.74
527.33	1799.82
527.68	1821.04
528.04	1841.94
528.40	1861.69
528.76	1882.28
529.12	1902.67
529.48	1924.04
529.84	1944.30
530.20	1964.25
530.56	1984.31
530.91	2004.66
531.27	2024.79
531.63	2044.31
531.99	2064.27
532.35	2083.38
532.71	2102.20
533.07	2121.64
533.42	2140.26
533.78	2158.76
534.14	2176.83
534.50	2194.00
534.86	2211.83
535.21	2228.30
535.57	2245.87
535.93	2263.04
536.29	2279.74
536.65	2296.32
537.00	2311.52
537.36	2326.42
537.72	2341.46
538.08	2356.52
538.44	2371.57
538.79	2386.42
539.15	2400.80
539.51	2415.23
539.87	2430.12
540.22	2444.20
540.58	2458.65
540.94	2472.72
541.29	2485.37
541.65	2497.54
542.01	2510.79
542.37	2522.30
542.72	2534.76
543.08	2545.48
543.44	2557.19
543.79	2567.23
544.15	2577.15
544.51	2587.51
544.87	2598.25
545.22	2607.61
545.58	2615.89
545.94	2622.41
546.29	2628.78
546.65	2635.29
547.01	2641.09
547.36	2646.51
547.72	2652.21
548.07	2655.94
548.43	2659.38
548.79	2663.51
549.14	2668.14
549.50	2671.95
549.86	2675.90
550.21	2679.42
550.57	2683.47
550.92	2685.64
551.28	2688.14
551.64	2690.40
551.99	2692.90
552.35	2693.86
552.70	2696.29
553.06	2698.81
553.41	2702.32
553.77	2704.95
554.13	2706.98
554.48	2708.59
554.84	2709.87
555.19	2709.92
555.55	2710.07
555.90	2710.71
556.26	2710.88
556.61	2710.59
556.97	2709.46
557.32	2708.84
557.68	2706.95
558.03	2705.44
558.39	2704.24
558.74	2703.70
559.10	2702.10
559.45	2700.01
559.81	2699.16
560.16	2696.29
560.52	2693.76
560.87	2690.49
561.23	2686.60
561.58	2684.23
561.94	2681.16
562.29	2677.28
562.64	2675.22
563.00	2673.00
563.35	2670.62
563.71	2668.70
564.06	2666.34
564.42	2664.43
564.77	2661.77
565.12	2660.08
565.48	2656.55
565.83	2653.15
566.19	2650.03
566.54	2645.92
566.89	2641.85
567.25	2638.39
567.60	2635.34
567.96	2631.54
568.31	2628.32
568.66	2624.70
569.02	2619.97
569.37	2615.08
569.72	2611.31
570.08	2605.83
570.43	2600.17
570.78	2594.58
571.14	2588.36
571.49	2581.89
571.84	2575.97
572.20	2569.15
572.55	2562.45
572.90	2555.82
573.26	2548.82
573.61	2541.61
573.96	2535.30
574.31	2527.88
574.67	2519.40
575.02	2510.95
575.37	2502.69
575.72	2493.35
576.08	2486.01
576.43	2477.48
576.78	2469.67
577.13	2461.60
577.49	2453.71
577.84	2446.09
578.19	2438.36
578.54	2430.84
578.90	2423.88
579.25	2414.93
579.60	2406.00
579.95	2396.89
580.30	2388.89
580.66	2381.05
581.01	2372.10
581.36	2362.80
581.71	2354.51
582.06	2345.99
582.42	2337.84
582.77	2328.91
583.12	2320.36
583.47	2311.51
583.82	2303.32
584.17	2294.12
584.53	2285.11
584.88	2276.29
585.23	2267.26
585.58	2258.09
585.93	2248.40
586.28	2239.39
586.63	2230.90
586.98	2223.23
587.34	2214.99
587.69	2205.82
588.04	2196.76
588.39	2188.45
588.74	2179.73
589.09	2171.01
589.44	2162.03
589.79	2153.51
590.14	2145.65
590.49	2137.50
590.84	2128.57
591.19	2120.50
591.54	2111.98
591.89	2102.20
592.25	2092.85
592.60	2083.61
592.95	2074.46
593.30	2065.41
593.65	2055.64
594.00	2046.04
594.35	2037.50
594.70	2028.21
595.05	2019.74
595.40	2011.15
595.75	2001.63
596.10	1993.52
596.45	1985.06
596.80	1977.15
597.15	1969.21
597.50	1960.10
597.85	1951.80
598.19	1943.19
598.54	1934.70
598.89	1927.11
599.24	1920.42
599.59	1913.45
599.94	1906.07
600.29	1898.28
600.64	1890.44
600.99	1882.42
601.34	1875.50
601.69	1866.97
602.04	1859.39
602.39	1851.21
602.74	1843.50
603.08	1837.11
603.43	1830.01
603.78	1822.22
604.13	1814.18
604.48	1806.07
604.83	1799.21
605.18	1792.28
605.53	1784.94
605.87	1777.25
606.22	1770.14
606.57	1762.36
606.92	1754.41
607.27	1746.53
607.62	1739.33
607.96	1732.27
608.31	1726.06
608.66	1718.40
609.01	1711.00
609.36	1703.29
609.70	1695.82
610.05	1688.08
610.40	1680.08
610.75	1671.61
611.10	1664.39
611.44	1655.57
611.79	1646.66
612.14	1637.35
612.49	1627.67
612.83	1618.82
613.18	1609.50
613.53	1600.05
613.88	1590.55
614.22	1581.56
614.57	1572.54
614.92	1563.33
615.27	1554.38
615.61	1544.62
615.96	1535.52
616.31	1526.97
616.65	1519.20
617.00	1510.98
617.35	1502.55
617.70	1493.82
618.04	1484.95
618.39	1475.35
618.74	1467.30
619.08	1458.96
619.43	1450.86
619.78	1443.36
620.12	1435.51
620.47	1427.82
620.82	1419.53
621.16	1411.29
621.51	1403.25
621.85	1395.23
622.20	1386.80
622.55	1378.48
622.89	1370.48
623.24	1362.77
623.59	1354.20
623.93	1345.66
624.28	1337.30
624.62	1329.13
624.97	1320.98
625.32	1313.11
625.66	1305.92
626.01	1298.51
626.35	1291.48
626.70	1283.95
627.04	1276.34
627.39	1268.88
627.73	1261.47
628.08	1254.45
628.43	1247.15
628.77	1239.77
629.12	1232.31
629.46	1225.88
629.81	1218.74
630.15	1211.33
630.50	1203.91
630.84	1196.79
631.19	1189.51
631.53	1182.78
631.88	1175.22
632.22	1167.58
632.57	1160.96
632.91	1153.52
633.26	1146.08
633.60	1138.65
633.95	1131.98
634.29	1124.69
634.64	1118.10
634.98	1111.10
635.32	1104.36
635.67	1098.23
636.01	1091.71
636.36	1085.15
636.70	1078.47
637.05	1072.03
637.39	1065.77
637.73	1059.36
638.08	1053.49
638.42	1047.94
638.77	1041.55
639.11	1035.51
639.45	1030.03
639.80	1023.56
640.14	1017.27
640.49	1011.25
640.83	1005.17
641.17	998.89
641.52	992.80
641.86	986.34
642.20	980.15
642.55	973.47
642.89	966.90
643.23	960.34
643.58	954.42
643.92	947.98
644.26	941.92
644.61	935.90
644.95	930.09
645.29	923.87
645.64	917.27
645.98	911.27
646.32	905.46
646.66	899.04
647.01	893.08
647.35	887.31
647.69	881.05
648.04	875.05
648.38	869.12
648.72	863.29
649.06	857.23
649.41	851.24
649.75	845.56
650.09	839.80
650.43	834.07
650.78	827.78
651.12	821.75
651.46	815.93
651.80	810.20
652.14	804.19
652.49	798.35
652.83	792.64
653.17	786.47
653.51	780.64
653.85	774.90
654.20	769.06
654.54	763.37
654.88	757.93
655.22	752.25
655.56	746.40
655.90	740.57
656.25	734.97
656.59	729.70
656.93	724.35
657.27	719.14
657.61	713.86
657.95	708.99
658.29	703.85
658.64	698.87
658.98	693.62
659.32	688.32
659.66	683.29
660.00	677.91
660.34	672.81
660.68	667.56
661.02	662.58
661.36	657.95
661.70	653.08
662.05	648.50
662.39	644.06
662.73	639.72
663.07	635.57
663.41	631.15
663.75	626.65
664.09	622.24
664.43	617.63
664.77	613.11
665.11	608.85
665.45	604.70
665.79	600.12
666.13	595.93
666.47	591.98
666.81	587.76
667.15	583.86
667.49	580.04
667.83	576.29
668.17	572.55
668.51	568.83
668.85	565.22
669.19	561.51
669.53	557.62
669.87	553.70
670.21	549.84
670.55	546.06
670.89	542.60
671.23	539.10
671.57	535.73
671.91	532.35
672.25	528.60
672.58	525.00
672.92	521.61
673.26	518.34
673.60	515.00
673.94	511.76
674.28	508.59
674.62	505.45
674.96	502.44
675.30	499.36
675.64	496.13
675.97	492.96
676.31	489.94
676.65	487.09
676.99	484.52
677.33	481.68
677.67	478.92
678.01	475.72
678.34	472.75
678.68	469.91
679.02	467.00
679.36	464.38
679.70	461.73
680.04	458.97
680.37	456.14
680.71	453.35
681.05	450.69
681.39	447.92
681.73	445.31
682.06	442.73
682.40	440.21
682.74	437.57
683.08	435.02
683.42	432.42
683.75	429.76
684.09	427.08
684.43	424.63
684.77	422.01
685.10	419.55
685.44	417.01
685.78	414.52
686.12	412.38
686.45	410.00
686.79	407.68
687.13	405.55
687.46	403.34
687.80	401.22
688.14	398.95
688.48	396.84
688.81	394.56
689.15	392.34
689.49	390.01
689.82	387.92
690.16	385.70
690.50	383.52
690.83	381.51
691.17	379.25
691.51	377.06
691.84	375.07
692.18	373.13
692.52	371.34
692.85	369.41
693.19	367.39
693.52	365.42
693.86	363.48
694.20	361.54
694.53	359.67
694.87	357.69
695.21	355.86
695.54	354.05
695.88	352.22
696.21	350.40
696.55	348.70
696.88	346.98
697.22	345.25
697.56	343.62
697.89	341.97
698.23	340.42
698.56	338.81
698.90	337.30
699.23	335.73
699.57	334.06
699.90	332.47
700.24	330.86
700.58	329.43
700.91	327.95
701.25	326.56
701.58	325.15
701.92	323.82
702.25	322.46
702.59	321.06
702.92	319.78
703.26	318.50
703.59	317.23
703.93	316.07
704.26	314.80
704.60	313.51
704.93	312.16
705.26	310.92
705.60	309.76
705.93	308.54
706.27	307.43
706.60	306.28
706.94	305.23
707.27	304.05
707.61	302.86
707.94	301.71
708.27	300.45
708.61	299.32
708.94	298.09
709.28	296.95
709.61	295.80
709.94	294.62
710.28	293.57
710.61	292.55
710.95	291.38
711.28	290.59
711.61	289.65
711.95	288.70
712.28	287.70
712.61	286.72
712.95	285.84
713.28	284.86
713.61	283.94
713.95	282.99
714.28	282.17
714.61	281.13
714.95	280.26
715.28	279.39
715.61	278.40
715.95	277.60
716.28	276.79
716.61	276.02
716.95	275.28
717.28	274.37
717.61	273.55
717.94	272.83
718.28	271.88
718.61	271.10
718.94	270.35
719.27	269.68
719.61	269.00
719.94	268.26
720.27	267.45
720.60	266.72
720.94	266.03
721.27	265.31
721.60	264.76
721.93	264.10
722.27	263.52
722.60	262.99
722.93	262.33
723.26	261.76
723.59	261.06
723.93	260.49
724.26	259.94
724.59	259.27
724.92	258.71
725.25	258.16
725.59	257.62
725.92	257.05
726.25	256.46
726.58	255.93
726.91	255.47
727.24	255.10
727.57	254.60
727.91	254.06
728.24	253.55
728.57	253.09
728.90	252.63
729.23	252.08
729.56	251.67
729.89	251.31
730.22	250.85
730.55	250.50
730.89	250.05
731.22	249.65
731.55	249.25
731.88	248.88
732.21	248.44
732.54	248.01
732.87	247.61
733.20	247.29
733.53	246.80
733.86	246.28
734.19	245.75
734.52	245.40
734.85	245.13
735.18	244.74
735.51	244.41
735.84	244.09
736.17	243.80
736.50	243.42
736.83	243.18
737.16	242.78
737.49	242.38
737.82	242.02
738.15	241.69
738.48	241.45
738.81	241.00
739.14	240.64
739.47	240.28
739.80	240.00
740.13	239.60
740.46	239.26
740.79	238.93
741.12	238.62
741.45	238.25
741.78	237.87
742.11	237.65
742.44	237.28
742.77	237.00
743.10	236.64
743.43	236.30
743.75	235.88
744.08	235.83
744.41	235.58
744.74	235.31
745.07	234.94
745.40	234.62
745.73	234.43
746.06	234.22
746.39	233.94
746.71	233.60
747.04	233.29
747.37	233.08
747.70	232.88
748.03	232.59
748.36	232.36
748.68	232.11
749.01	231.80
749.34	231.62
749.67	231.40
750.00	231.16
750.33	230.98
750.65	230.75
750.98	230.26
751.31	229.99
751.64	229.78
751.97	229.68
752.29	229.48
752.62	229.18
752.95	228.83
753.28	228.58
753.60	228.41
753.93	228.34
754.26	228.05
754.59	227.74
754.91	227.61
755.24	227.39
755.57	227.12
755.90	226.92
756.22	226.65
756.55	226.38
756.88	226.18
757.20	225.96
757.53	225.71
757.86	225.57
758.19	225.44
758.51	225.18
758.84	224.88
759.17	224.68
759.49	224.48
759.82	224.43
760.15	224.30
760.47	224.11
760.80	223.88
761.13	223.82
761.45	223.67
761.78	223.47
762.11	223.34
762.43	223.20
762.76	223.12
763.08	222.99
763.41	222.89
763.74	222.80
764.06	222.66
764.39	222.58
764.71	222.41
765.04	222.29
765.37	222.21
765.69	222.07
766.02	221.98
766.34	221.85
766.67	221.76
767.00	221.65
767.32	221.61
767.65	221.59
767.97	221.45
768.30	221.43
768.62	221.34
768.95	221.22
769.27	221.12
769.60	221.01
769.92	220.90
770.25	220.75
770.57	220.62
770.90	220.51
771.22	220.40
771.55	220.32
771.87	220.21
772.20	220.12
772.52	220.19
772.85	220.25
773.17	220.27
773.50	220.08
773.82	219.94
774.15	219.79
774.47	219.57
774.80	219.44
775.12	219.29
775.45	219.23
775.77	219.16
776.09	219.10
776.42	218.96
776.74	218.94
777.07	218.82
777.39	218.82
777.72	218.69
778.04	218.59
778.36	218.45
778.69	218.37
779.01	218.28
779.33	218.03
779.66	217.75
779.98	217.57
780.31	217.51
780.63	217.53
780.95	217.48
781.28	217.45
781.60	217.32
781.92	217.32
782.25	217.25
782.57	217.15
782.89	217.05
783.22	216.97
783.54	216.85
783.86	216.85
784.19	216.73
784.51	216.76
784.83	216.69
785.16	216.67
785.48	216.62
785.80	216.60
786.12	216.62
786.45	216.59
