SpectraSuite Data File
++++++++++++++++++++++++++++++++++++
Date: Mon Feb 25 17:36:28 EST 2013
User: group
Dark Spectrum Present: No
Reference Spectrum Present: No
Number of Sampled Component Spectra: 1
Spectrometers: USB2E7196
Integration Time (usec): 52000 (USB2E7196)
Spectra Averaged: 20 (USB2E7196)
Boxcar Smoothing: 10 (USB2E7196)
Correct for Electrical Dark: No (USB2E7196)
Strobe/Lamp Enabled: No (USB2E7196)
Correct for Detector Non-linearity: No (USB2E7196)
Correct for Stray Light: No (USB2E7196)
Number of Pixels in Processed Spectrum: 2048
>>>>>Begin Processed Spectral Data<<<<<
339.09	0.00
339.48	198.00
339.86	200.50
340.24	201.00
340.63	203.45
341.01	207.75
341.39	207.10
341.78	208.45
342.16	208.95
342.54	208.40
342.93	198.29
343.31	208.32
343.69	208.91
344.07	209.35
344.46	209.77
344.84	210.28
345.22	210.50
345.60	210.86
345.99	211.08
346.37	211.30
346.75	211.56
347.13	211.71
347.52	211.90
347.90	212.06
348.28	212.15
348.66	212.22
349.05	212.30
349.43	212.51
349.81	212.71
350.19	212.84
350.57	213.03
350.96	213.20
351.34	213.36
351.72	213.53
352.10	213.79
352.48	214.03
352.87	214.05
353.25	214.21
353.63	214.17
354.01	214.21
354.39	214.31
354.77	214.36
355.15	214.50
355.54	214.58
355.92	214.54
356.30	214.64
356.68	214.88
357.06	215.00
357.44	215.03
357.82	215.05
358.20	215.19
358.58	215.19
358.97	215.32
359.35	215.48
359.73	215.57
360.11	215.56
360.49	215.56
360.87	215.58
361.25	215.59
361.63	215.69
362.01	215.79
362.39	215.78
362.77	215.84
363.15	215.90
363.53	215.91
363.91	216.04
364.29	216.03
364.67	215.90
365.05	215.91
365.43	215.95
365.81	216.01
366.19	216.07
366.57	216.16
366.95	216.10
367.33	215.98
367.71	215.93
368.09	216.00
368.47	216.12
368.85	216.13
369.23	216.16
369.61	216.15
369.99	216.18
370.37	216.25
370.75	216.30
371.13	216.18
371.51	216.18
371.89	216.17
372.27	216.17
372.65	216.13
373.03	216.15
373.41	216.06
373.78	216.00
374.16	215.90
374.54	215.88
374.92	215.94
375.30	215.96
375.68	215.99
376.06	215.97
376.44	215.84
376.82	215.86
377.19	215.80
377.57	215.71
377.95	215.64
378.33	215.54
378.71	215.40
379.09	215.44
379.47	215.46
379.84	215.31
380.22	215.31
380.60	215.21
380.98	215.14
381.36	215.15
381.73	215.10
382.11	215.06
382.49	214.94
382.87	214.91
383.25	214.83
383.62	214.96
384.00	214.94
384.38	214.99
384.76	214.95
385.13	215.01
385.51	215.05
385.89	215.06
386.27	215.08
386.64	215.14
387.02	215.12
387.40	215.06
387.78	215.09
388.15	214.96
388.53	215.02
388.91	215.00
389.29	214.94
389.66	214.98
390.04	214.94
390.42	215.10
390.79	215.02
391.17	215.10
391.55	214.97
391.92	214.95
392.30	215.00
392.68	215.05
393.05	215.09
393.43	215.10
393.81	215.16
394.18	215.15
394.56	215.15
394.94	215.22
395.31	215.27
395.69	215.47
396.06	215.67
396.44	215.77
396.82	215.85
397.19	216.02
397.57	216.19
397.95	216.35
398.32	216.35
398.70	216.53
399.07	216.74
399.45	216.85
399.82	216.98
400.20	217.07
400.58	217.24
400.95	217.37
401.33	217.70
401.70	218.10
402.08	218.43
402.45	218.77
402.83	219.16
403.20	219.61
403.58	220.01
403.95	220.53
404.33	221.14
404.71	221.76
405.08	222.49
405.46	223.18
405.83	223.97
406.21	224.74
406.58	225.72
406.96	226.63
407.33	227.74
407.70	228.92
408.08	230.24
408.45	231.59
408.83	233.02
409.20	234.42
409.58	235.73
409.95	237.53
410.33	239.39
410.70	241.33
411.08	243.39
411.45	245.63
411.82	247.96
412.20	250.54
412.57	253.44
412.95	256.18
413.32	259.24
413.69	262.57
414.07	266.18
414.44	269.99
414.82	274.08
415.19	278.66
415.56	283.54
415.94	288.71
416.31	294.37
416.68	300.10
417.06	306.53
417.43	312.73
417.81	319.80
418.18	327.14
418.55	335.07
418.93	343.45
419.30	352.00
419.67	361.09
420.04	370.59
420.42	380.65
420.79	391.81
421.16	403.60
421.54	415.29
421.91	427.81
422.28	440.96
422.66	454.79
423.03	468.04
423.40	482.08
423.77	497.37
424.15	513.01
424.52	529.22
424.89	546.91
425.26	564.16
425.64	580.78
426.01	599.04
426.38	618.17
426.75	637.34
427.13	657.63
427.50	678.98
427.87	701.31
428.24	724.10
428.61	746.12
428.99	769.53
429.36	795.80
429.73	820.93
430.10	845.97
430.47	871.98
430.85	899.58
431.22	928.14
431.59	958.17
431.96	987.75
432.33	1020.22
432.70	1051.88
433.08	1089.24
433.45	1124.25
433.82	1159.48
434.19	1198.39
434.56	1236.71
434.93	1273.85
435.30	1310.88
435.68	1352.08
436.05	1392.78
436.42	1433.52
436.79	1470.77
437.16	1511.10
437.53	1554.11
437.90	1596.91
438.27	1638.73
438.64	1682.68
439.01	1723.57
439.38	1760.98
439.75	1796.61
440.13	1837.32
440.50	1875.42
440.87	1906.88
441.24	1939.98
441.61	1976.15
441.98	2004.44
442.35	2036.67
442.72	2068.88
443.09	2100.02
443.46	2120.79
443.83	2135.88
444.20	2149.39
444.57	2168.01
444.94	2178.77
445.31	2189.79
445.68	2198.87
446.05	2205.82
446.42	2205.49
446.79	2204.51
447.16	2202.82
447.53	2202.39
447.90	2190.83
448.27	2179.64
448.64	2162.50
449.01	2150.53
449.37	2126.41
449.74	2102.77
450.11	2073.35
450.48	2042.33
450.85	2010.81
451.22	1983.19
451.59	1956.65
451.96	1931.39
452.33	1896.38
452.70	1865.07
453.07	1827.04
453.43	1789.40
453.80	1752.18
454.17	1716.20
454.54	1682.42
454.91	1645.37
455.28	1609.80
455.65	1576.39
456.02	1540.87
456.38	1511.95
456.75	1475.70
457.12	1445.91
457.49	1416.13
457.86	1388.34
458.23	1363.06
458.59	1335.30
458.96	1307.29
459.33	1282.77
459.70	1258.02
460.07	1238.34
460.43	1215.49
460.80	1193.79
461.17	1175.02
461.54	1155.25
461.91	1136.55
462.27	1117.52
462.64	1101.77
463.01	1083.38
463.38	1065.73
463.74	1050.27
464.11	1035.27
464.48	1022.31
464.85	1007.64
465.21	996.16
465.58	983.88
465.95	969.56
466.32	957.73
466.68	945.94
467.05	933.80
467.42	922.30
467.78	910.20
468.15	898.58
468.52	890.00
468.88	879.05
469.25	869.19
469.62	861.02
469.98	852.23
470.35	843.91
470.72	836.49
471.08	828.51
471.45	821.36
471.82	813.84
472.18	806.01
472.55	800.70
472.92	794.25
473.28	788.54
473.65	783.09
474.02	777.37
474.38	772.72
474.75	768.98
475.11	764.64
475.48	761.33
475.85	758.44
476.21	755.46
476.58	753.00
476.94	751.20
477.31	749.05
477.67	746.94
478.04	745.50
478.41	744.55
478.77	743.61
479.14	742.60
479.50	742.33
479.87	742.70
480.23	743.05
480.60	743.20
480.96	743.45
481.33	744.58
481.69	746.15
482.06	747.27
482.42	747.81
482.79	749.05
483.15	751.47
483.52	754.59
483.88	757.38
484.25	760.39
484.61	763.38
484.98	766.51
485.34	770.63
485.71	774.93
486.07	779.70
486.44	784.74
486.80	789.99
487.17	795.91
487.53	802.28
487.90	809.02
488.26	816.23
488.62	823.85
488.99	831.66
489.35	839.45
489.72	848.50
490.08	858.55
490.44	868.48
490.81	878.35
491.17	888.23
491.54	899.11
491.90	909.65
492.26	921.30
492.63	933.38
492.99	945.85
493.36	958.60
493.72	971.85
494.08	985.46
494.45	1000.22
494.81	1015.02
495.17	1030.32
495.54	1046.11
495.90	1062.82
496.26	1079.79
496.63	1097.14
496.99	1114.95
497.35	1132.58
497.72	1150.68
498.08	1169.11
498.44	1187.84
498.80	1207.85
499.17	1227.73
499.53	1248.54
499.89	1269.45
500.26	1290.72
500.62	1311.58
500.98	1333.80
501.34	1355.97
501.71	1378.48
502.07	1401.12
502.43	1424.44
502.79	1447.55
503.16	1470.84
503.52	1493.83
503.88	1516.74
504.24	1539.81
504.60	1563.41
504.97	1587.81
505.33	1611.80
505.69	1636.88
506.05	1661.48
506.41	1685.75
506.78	1710.47
507.14	1735.07
507.50	1760.00
507.86	1784.91
508.22	1810.48
508.59	1835.28
508.95	1860.44
509.31	1885.66
509.67	1911.05
510.03	1936.09
510.39	1961.62
510.75	1986.49
511.12	2011.02
511.48	2035.70
511.84	2060.70
512.20	2085.08
512.56	2109.51
512.92	2133.86
513.28	2157.77
513.64	2182.29
514.00	2205.37
514.37	2228.48
514.73	2251.99
515.09	2274.41
515.45	2296.94
515.81	2319.29
516.17	2341.51
516.53	2363.04
516.89	2384.55
517.25	2404.41
517.61	2424.34
517.97	2443.62
518.33	2462.43
518.69	2482.27
519.05	2502.13
519.41	2521.62
519.77	2540.92
520.13	2559.60
520.49	2577.58
520.85	2595.45
521.21	2612.28
521.57	2630.58
521.93	2647.29
522.29	2664.12
522.65	2681.25
523.01	2697.96
523.37	2713.63
523.73	2729.13
524.09	2744.06
524.45	2758.91
524.81	2773.85
525.17	2788.68
525.53	2803.40
525.89	2818.71
526.25	2833.38
526.61	2846.00
526.97	2859.12
527.33	2871.82
527.68	2884.99
528.04	2898.24
528.40	2910.46
528.76	2923.06
529.12	2934.28
529.48	2946.45
529.84	2956.30
530.20	2967.74
530.56	2978.64
530.91	2990.23
531.27	3001.06
531.63	3012.10
531.99	3021.92
532.35	3032.39
532.71	3042.83
533.07	3054.48
533.42	3063.99
533.78	3074.21
534.14	3084.60
534.50	3093.33
534.86	3103.00
535.21	3110.21
535.57	3119.41
535.93	3127.46
536.29	3134.53
536.65	3143.42
537.00	3150.53
537.36	3159.57
537.72	3166.23
538.08	3173.55
538.44	3180.20
538.79	3186.90
539.15	3193.74
539.51	3201.73
539.87	3208.91
540.22	3215.14
540.58	3220.80
540.94	3227.35
541.29	3232.10
541.65	3235.42
542.01	3239.56
542.37	3243.39
542.72	3249.14
543.08	3252.05
543.44	3256.87
543.79	3260.38
544.15	3262.66
544.51	3266.82
544.87	3270.14
545.22	3272.42
545.58	3273.69
545.94	3275.26
546.29	3276.68
546.65	3277.26
547.01	3277.50
547.36	3278.60
547.72	3279.27
548.07	3278.60
548.43	3277.90
548.79	3277.11
549.14	3278.53
549.50	3279.66
549.86	3280.56
550.21	3279.19
550.57	3279.22
550.92	3277.75
551.28	3276.75
551.64	3275.98
551.99	3274.71
552.35	3273.94
552.70	3273.55
553.06	3273.42
553.41	3272.86
553.77	3272.60
554.13	3272.23
554.48	3272.59
554.84	3271.69
555.19	3270.22
555.55	3270.18
555.90	3269.82
556.26	3268.83
556.61	3267.80
556.97	3265.37
557.32	3261.88
557.68	3259.44
558.03	3256.59
558.39	3254.36
558.74	3254.90
559.10	3254.33
559.45	3253.30
559.81	3251.44
560.16	3249.86
560.52	3248.75
560.87	3246.62
561.23	3243.08
561.58	3240.10
561.94	3235.32
562.29	3230.70
562.64	3227.18
563.00	3223.15
563.35	3218.83
563.71	3215.69
564.06	3212.72
564.42	3210.07
564.77	3207.90
565.12	3205.35
565.48	3202.25
565.83	3199.20
566.19	3195.63
566.54	3191.56
566.89	3186.42
567.25	3181.07
567.60	3176.95
567.96	3171.71
568.31	3167.34
568.66	3163.28
569.02	3159.43
569.37	3155.80
569.72	3152.37
570.08	3148.43
570.43	3142.36
570.78	3137.95
571.14	3133.11
571.49	3127.49
571.84	3122.65
572.20	3116.69
572.55	3111.73
572.90	3105.73
573.26	3099.57
573.61	3091.80
573.96	3084.44
574.31	3077.06
574.67	3070.65
575.02	3062.68
575.37	3054.76
575.72	3046.91
576.08	3039.79
576.43	3031.28
576.78	3023.53
577.13	3015.66
577.49	3008.08
577.84	3001.58
578.19	2993.14
578.54	2985.00
578.90	2977.06
579.25	2967.64
579.60	2958.09
579.95	2948.41
580.30	2940.23
580.66	2931.30
581.01	2921.95
581.36	2911.87
581.71	2903.78
582.06	2895.13
582.42	2887.28
582.77	2877.75
583.12	2868.08
583.47	2858.63
583.82	2849.70
584.17	2839.79
584.53	2830.27
584.88	2820.00
585.23	2809.63
585.58	2800.35
585.93	2790.22
586.28	2780.40
586.63	2771.15
586.98	2762.30
587.34	2753.34
587.69	2743.10
588.04	2733.65
588.39	2724.88
588.74	2714.96
589.09	2705.17
589.44	2693.66
589.79	2682.25
590.14	2672.94
590.49	2662.04
590.84	2652.02
591.19	2641.94
591.54	2631.35
591.89	2619.79
592.25	2609.38
592.60	2597.99
592.95	2586.78
593.30	2575.51
593.65	2564.97
594.00	2554.36
594.35	2544.76
594.70	2533.70
595.05	2523.24
595.40	2511.41
595.75	2499.40
596.10	2489.21
596.45	2477.75
596.80	2468.18
597.15	2457.50
597.50	2446.29
597.85	2436.68
598.19	2424.75
598.54	2413.35
598.89	2402.44
599.24	2392.39
599.59	2381.58
599.94	2372.25
600.29	2362.32
600.64	2352.12
600.99	2340.12
601.34	2329.46
601.69	2317.42
602.04	2306.25
602.39	2296.25
602.74	2287.64
603.08	2279.07
603.43	2270.47
603.78	2261.10
604.13	2250.80
604.48	2240.50
604.83	2231.44
605.18	2221.90
605.53	2212.37
605.87	2202.92
606.22	2193.50
606.57	2183.52
606.92	2172.61
607.27	2161.48
607.62	2150.90
607.96	2140.91
608.31	2132.21
608.66	2121.76
609.01	2111.54
609.36	2101.46
609.70	2090.30
610.05	2078.09
610.40	2065.86
610.75	2053.47
611.10	2042.07
611.44	2030.50
611.79	2019.60
612.14	2007.83
612.49	1995.20
612.83	1983.63
613.18	1971.19
613.53	1959.48
613.88	1947.02
614.22	1935.55
614.57	1923.73
614.92	1911.65
615.27	1899.96
615.61	1887.05
615.96	1875.31
616.31	1864.51
616.65	1853.63
617.00	1842.78
617.35	1832.09
617.70	1820.69
618.04	1809.16
618.39	1797.44
618.74	1786.15
619.08	1774.43
619.43	1762.19
619.78	1751.49
620.12	1741.29
620.47	1731.30
620.82	1720.32
621.16	1710.05
621.51	1699.73
621.85	1689.25
622.20	1678.29
622.55	1666.83
622.89	1656.70
623.24	1646.30
623.59	1635.05
623.93	1624.23
624.28	1613.36
624.62	1602.42
624.97	1592.18
625.32	1582.08
625.66	1572.41
626.01	1562.46
626.35	1553.61
626.70	1544.97
627.04	1535.36
627.39	1525.08
627.73	1515.47
628.08	1506.21
628.43	1496.94
628.77	1487.94
629.12	1478.60
629.46	1469.63
629.81	1460.28
630.15	1450.35
630.50	1440.68
630.84	1431.36
631.19	1421.64
631.53	1412.40
631.88	1403.39
632.22	1394.52
632.57	1386.30
632.91	1377.56
633.26	1369.03
633.60	1359.73
633.95	1350.92
634.29	1342.67
634.64	1334.42
634.98	1325.07
635.32	1316.58
635.67	1308.46
636.01	1299.87
636.36	1291.66
636.70	1283.64
637.05	1275.83
637.39	1267.81
637.73	1259.66
638.08	1252.58
638.42	1245.36
638.77	1237.80
639.11	1230.10
639.45	1222.31
639.80	1214.23
640.14	1206.23
640.49	1198.34
640.83	1190.15
641.17	1181.87
641.52	1173.54
641.86	1165.69
642.20	1158.05
642.55	1149.43
642.89	1140.63
643.23	1132.55
643.58	1124.95
643.92	1116.77
644.26	1108.50
644.61	1100.75
644.95	1092.95
645.29	1084.78
645.64	1076.73
645.98	1068.72
646.32	1061.28
646.66	1053.74
647.01	1046.06
647.35	1038.39
647.69	1030.60
648.04	1023.49
648.38	1016.11
648.72	1008.92
649.06	1001.29
649.41	994.14
649.75	986.79
650.09	980.17
650.43	973.38
650.78	966.15
651.12	959.34
651.46	952.94
651.80	946.53
652.14	940.28
652.49	933.44
652.83	926.57
653.17	919.47
653.51	912.59
653.85	906.03
654.20	899.68
654.54	893.49
654.88	887.13
655.22	880.39
655.56	873.40
655.90	866.39
656.25	859.55
656.59	852.97
656.93	846.95
657.27	840.54
657.61	833.70
657.95	827.56
658.29	821.47
658.64	815.63
658.98	809.61
659.32	803.22
659.66	797.33
660.00	791.45
660.34	786.06
660.68	780.27
661.02	774.13
661.36	768.32
661.70	762.50
662.05	757.11
662.39	751.84
662.73	747.12
663.07	742.52
663.41	737.81
663.75	733.17
664.09	728.28
664.43	723.13
664.77	718.29
665.11	713.28
665.45	708.55
665.79	703.65
666.13	698.77
666.47	694.37
666.81	689.94
667.15	685.44
667.49	681.06
667.83	676.82
668.17	672.65
668.51	668.25
668.85	663.99
669.19	659.75
669.53	655.41
669.87	650.80
670.21	646.54
670.55	642.12
670.89	637.78
671.23	633.71
671.57	629.57
671.91	625.55
672.25	621.45
672.58	616.95
672.92	612.95
673.26	609.20
673.60	605.30
673.94	601.48
674.28	597.94
674.62	594.21
674.96	590.21
675.30	586.60
675.64	582.94
675.97	579.39
676.31	575.93
676.65	572.77
676.99	569.90
677.33	566.52
677.67	563.22
678.01	559.70
678.34	556.18
678.68	553.05
679.02	549.80
679.36	546.58
679.70	543.55
680.04	540.39
680.37	537.20
680.71	533.92
681.05	530.87
681.39	527.54
681.73	524.32
682.06	521.38
682.40	518.40
682.74	515.42
683.08	512.14
683.42	508.92
683.75	505.65
684.09	502.33
684.43	499.25
684.77	496.25
685.10	493.22
685.44	490.21
685.78	487.11
686.12	484.24
686.45	481.26
686.79	478.47
687.13	475.70
687.46	472.82
687.80	470.14
688.14	467.12
688.48	464.52
688.81	461.74
689.15	459.13
689.49	456.30
689.82	453.48
690.16	450.63
690.50	447.80
690.83	445.07
691.17	442.33
691.51	439.67
691.84	437.23
692.18	434.80
692.52	432.42
692.85	430.04
693.19	427.68
693.52	425.38
693.86	422.95
694.20	420.40
694.53	417.94
694.87	415.38
695.21	413.04
695.54	410.58
695.88	408.36
696.21	406.00
696.55	403.92
696.88	401.90
697.22	400.06
697.56	398.36
697.89	396.43
698.23	394.56
698.56	392.61
698.90	390.58
699.23	388.57
699.57	386.63
699.90	384.71
700.24	382.65
700.58	380.75
700.91	379.02
701.25	377.26
701.58	375.61
701.92	374.12
702.25	372.52
702.59	370.90
702.92	369.18
703.26	367.54
703.59	365.91
703.93	364.39
704.26	362.74
704.60	360.96
704.93	359.21
705.26	357.45
705.60	355.96
705.93	354.39
706.27	352.99
706.60	351.50
706.94	350.01
707.27	348.42
707.61	346.93
707.94	345.24
708.27	343.63
708.61	342.10
708.94	340.56
709.28	339.10
709.61	337.65
709.94	336.17
710.28	334.62
710.61	333.07
710.95	331.43
711.28	330.12
711.61	328.63
711.95	327.35
712.28	326.11
712.61	324.70
712.95	323.35
713.28	322.11
713.61	321.03
713.95	319.85
714.28	318.80
714.61	317.57
714.95	316.45
715.28	315.34
715.61	314.07
715.95	312.82
716.28	311.49
716.61	310.25
716.95	309.03
717.28	307.95
717.61	306.95
717.94	305.90
718.28	304.65
718.61	303.71
718.94	302.72
719.27	301.66
719.61	300.73
719.94	299.89
720.27	298.89
720.60	297.82
720.94	296.87
721.27	295.97
721.60	295.14
721.93	294.31
722.27	293.50
722.60	292.70
722.93	291.86
723.26	291.16
723.59	290.38
723.93	289.61
724.26	288.93
724.59	288.11
724.92	287.36
725.25	286.73
725.59	285.96
725.92	285.15
726.25	284.45
726.58	283.67
726.91	282.85
727.24	282.00
727.57	281.30
727.91	280.51
728.24	279.74
728.57	278.97
728.90	278.37
729.23	277.63
729.56	277.07
729.89	276.38
730.22	275.70
730.55	275.02
730.89	274.41
731.22	273.68
731.55	273.04
731.88	272.30
732.21	271.60
732.54	271.04
732.87	270.42
733.20	269.79
733.53	269.17
733.86	268.57
734.19	268.03
734.52	267.41
734.85	267.01
735.18	266.49
735.51	265.91
735.84	265.26
736.17	264.74
736.50	263.99
736.83	263.68
737.16	263.13
737.49	262.70
737.82	262.17
738.15	261.65
738.48	261.13
738.81	260.62
739.14	260.04
739.47	259.40
739.80	258.89
740.13	258.40
740.46	257.84
740.79	257.28
741.12	256.78
741.45	256.29
741.78	255.75
742.11	255.19
742.44	254.69
742.77	254.22
743.10	253.62
743.43	253.16
743.75	252.39
744.08	252.05
744.41	251.44
744.74	250.91
745.07	250.39
745.40	249.95
745.73	249.65
746.06	249.22
746.39	248.76
746.71	248.36
747.04	247.87
747.37	247.52
747.70	247.20
748.03	246.75
748.36	246.37
748.68	245.92
749.01	245.52
749.34	245.08
749.67	244.71
750.00	244.36
750.33	244.13
750.65	243.85
750.98	243.36
751.31	243.01
751.64	242.64
751.97	242.35
752.29	241.99
752.62	241.48
752.95	241.10
753.28	240.79
753.60	240.36
753.93	240.17
754.26	239.78
754.59	239.41
754.91	239.02
755.24	238.72
755.57	238.36
755.90	238.03
756.22	237.83
756.55	237.53
756.88	237.25
757.20	236.87
757.53	236.43
757.86	236.08
758.19	235.82
758.51	235.55
758.84	235.25
759.17	234.99
759.49	234.80
759.82	234.70
760.15	234.39
760.47	234.14
760.80	233.82
761.13	233.60
761.45	233.26
761.78	233.00
762.11	232.68
762.43	232.40
762.76	232.21
763.08	231.89
763.41	231.62
763.74	231.36
764.06	231.11
764.39	230.95
764.71	230.76
765.04	230.53
765.37	230.26
765.69	229.97
766.02	229.76
766.34	229.52
766.67	229.28
767.00	229.10
767.32	229.03
767.65	228.87
767.97	228.63
768.30	228.53
768.62	228.32
768.95	228.08
769.27	227.90
769.60	227.66
769.92	227.49
770.25	227.25
770.57	227.05
770.90	226.82
771.22	226.64
771.55	226.45
771.87	226.32
772.20	226.19
772.52	226.23
772.85	226.16
773.17	226.01
773.50	225.80
773.82	225.58
774.15	225.37
774.47	225.05
774.80	224.92
775.12	224.79
775.45	224.72
775.77	224.64
776.09	224.48
776.42	224.34
776.74	224.28
777.07	224.13
777.39	224.05
777.72	223.93
778.04	223.78
778.36	223.60
778.69	223.44
779.01	223.26
779.33	222.93
779.66	222.71
779.98	222.51
780.31	222.43
780.63	222.48
780.95	222.37
781.28	222.33
781.60	222.20
781.92	222.02
782.25	221.88
782.57	221.82
782.89	221.69
