SpectraSuite Data File
++++++++++++++++++++++++++++++++++++
Date: Mon Feb 25 17:30:23 EST 2013
User: group
Dark Spectrum Present: No
Reference Spectrum Present: No
Number of Sampled Component Spectra: 1
Spectrometers: USB2E7196
Integration Time (usec): 52000 (USB2E7196)
Spectra Averaged: 20 (USB2E7196)
Boxcar Smoothing: 10 (USB2E7196)
Correct for Electrical Dark: No (USB2E7196)
Strobe/Lamp Enabled: No (USB2E7196)
Correct for Detector Non-linearity: No (USB2E7196)
Correct for Stray Light: No (USB2E7196)
Number of Pixels in Processed Spectrum: 2048
>>>>>Begin Processed Spectral Data<<<<<
339.09	0.00
339.48	200.25
339.86	200.45
340.24	200.90
340.63	203.40
341.01	207.25
341.39	207.25
341.78	206.60
342.16	209.20
342.54	208.75
342.93	198.42
343.31	208.46
343.69	208.99
344.07	209.48
344.46	210.01
344.84	210.39
345.22	210.58
345.60	210.81
345.99	211.06
346.37	211.18
346.75	211.32
347.13	211.40
347.52	211.41
347.90	211.53
348.28	211.58
348.66	211.70
349.05	211.76
349.43	211.81
349.81	211.91
350.19	211.91
350.57	211.99
350.96	212.12
351.34	212.21
351.72	212.33
352.10	212.43
352.48	212.48
352.87	212.51
353.25	212.51
353.63	212.54
354.01	212.63
354.39	212.74
354.77	212.82
355.15	212.89
355.54	212.99
355.92	213.02
356.30	213.09
356.68	213.21
357.06	213.29
357.44	213.25
357.82	213.29
358.20	213.52
358.58	213.60
358.97	213.58
359.35	213.65
359.73	213.64
360.11	213.61
360.49	213.64
360.87	213.74
361.25	213.87
361.63	213.98
362.01	213.95
362.39	213.94
362.77	213.99
363.15	214.05
363.53	213.95
363.91	213.92
364.29	213.90
364.67	213.72
365.05	213.63
365.43	213.66
365.81	213.69
366.19	213.67
366.57	213.71
366.95	213.74
367.33	213.73
367.71	213.78
368.09	213.88
368.47	213.87
368.85	213.81
369.23	213.77
369.61	213.70
369.99	213.78
370.37	213.81
370.75	213.81
371.13	213.81
371.51	213.89
371.89	213.91
372.27	213.92
372.65	213.96
373.03	214.00
373.41	214.02
373.78	214.01
374.16	213.88
374.54	213.79
374.92	213.70
375.30	213.68
375.68	213.60
376.06	213.60
376.44	213.49
376.82	213.54
377.19	213.58
377.57	213.50
377.95	213.44
378.33	213.35
378.71	213.24
379.09	213.20
379.47	213.14
379.84	213.04
380.22	212.95
380.60	212.82
380.98	212.78
381.36	212.70
381.73	212.58
382.11	212.58
382.49	212.56
382.87	212.50
383.25	212.42
383.62	212.50
384.00	212.42
384.38	212.55
384.76	212.52
385.13	212.49
385.51	212.43
385.89	212.35
386.27	212.37
386.64	212.41
387.02	212.36
387.40	212.34
387.78	212.37
388.15	212.32
388.53	212.35
388.91	212.29
389.29	212.33
389.66	212.36
390.04	212.33
390.42	212.31
390.79	212.38
391.17	212.35
391.55	212.22
391.92	212.19
392.30	212.03
392.68	211.94
393.05	211.93
393.43	211.97
393.81	211.97
394.18	211.92
394.56	211.85
394.94	211.87
395.31	211.84
395.69	211.83
396.06	211.83
396.44	211.79
396.82	211.82
397.19	211.85
397.57	211.90
397.95	212.03
398.32	211.99
398.70	211.96
399.07	212.07
399.45	212.05
399.82	212.04
400.20	212.08
400.58	212.12
400.95	212.05
401.33	212.08
401.70	212.20
402.08	212.24
402.45	212.31
402.83	212.36
403.20	212.52
403.58	212.61
403.95	212.82
404.33	212.97
404.71	213.00
405.08	213.19
405.46	213.24
405.83	213.35
406.21	213.44
406.58	213.57
406.96	213.67
407.33	213.82
407.70	214.08
408.08	214.45
408.45	214.64
408.83	214.90
409.20	215.12
409.58	215.30
409.95	215.62
410.33	215.92
410.70	216.17
411.08	216.39
411.45	216.74
411.82	216.96
412.20	217.38
412.57	217.93
412.95	218.18
413.32	218.59
413.69	218.99
414.07	219.60
414.44	220.24
414.82	220.87
415.19	221.66
415.56	222.34
415.94	223.01
416.31	223.90
416.68	224.78
417.06	225.75
417.43	226.67
417.81	227.76
418.18	228.86
418.55	230.04
418.93	231.36
419.30	232.64
419.67	234.01
420.04	235.35
420.42	236.86
420.79	238.65
421.16	240.40
421.54	242.16
421.91	243.96
422.28	245.83
422.66	247.79
423.03	249.69
423.40	251.70
423.77	253.86
424.15	256.01
424.52	258.33
424.89	260.80
425.26	263.20
425.64	265.44
426.01	267.85
426.38	270.49
426.75	273.04
427.13	275.77
427.50	278.72
427.87	281.70
428.24	284.55
428.61	287.29
428.99	290.43
429.36	293.78
429.73	297.18
430.10	300.53
430.47	304.01
430.85	307.57
431.22	311.36
431.59	315.35
431.96	319.18
432.33	323.33
432.70	327.42
433.08	332.17
433.45	336.78
433.82	341.30
434.19	346.31
434.56	351.30
434.93	355.95
435.30	360.53
435.68	365.60
436.05	370.70
436.42	375.69
436.79	380.21
437.16	385.31
437.53	390.36
437.90	395.36
438.27	400.49
438.64	405.77
439.01	410.64
439.38	414.88
439.75	419.05
440.13	423.73
440.50	428.12
440.87	431.74
441.24	435.24
441.61	439.24
441.98	442.14
442.35	445.70
442.72	449.30
443.09	452.81
443.46	454.93
443.83	456.31
444.20	457.49
444.57	459.29
444.94	460.00
445.31	460.78
445.68	461.60
446.05	461.61
446.42	460.82
446.79	460.11
447.16	459.29
447.53	458.66
447.90	456.62
448.27	454.59
448.64	451.89
449.01	449.96
449.37	446.60
449.74	443.16
450.11	439.12
450.48	434.71
450.85	430.15
451.22	426.28
451.59	422.65
451.96	419.17
452.33	414.58
452.70	410.28
453.07	405.39
453.43	400.32
453.80	395.55
454.17	390.93
454.54	386.52
454.91	381.82
455.28	377.25
455.65	373.04
456.02	368.96
456.38	365.31
456.75	360.80
457.12	357.03
457.49	353.35
457.86	349.61
458.23	346.53
458.59	343.16
458.96	339.78
459.33	336.66
459.70	333.66
460.07	331.17
460.43	328.37
460.80	325.81
461.17	323.58
461.54	321.20
461.91	319.00
462.27	316.70
462.64	314.78
463.01	312.58
463.38	310.52
463.74	308.34
464.11	306.41
464.48	304.84
464.85	303.15
465.21	301.83
465.58	300.44
465.95	298.72
466.32	297.37
466.68	295.97
467.05	294.61
467.42	293.26
467.78	291.85
468.15	290.60
468.52	289.57
468.88	288.20
469.25	286.99
469.62	286.10
469.98	285.11
470.35	284.21
470.72	283.46
471.08	282.51
471.45	281.68
471.82	281.04
472.18	280.27
472.55	279.65
472.92	279.01
473.28	278.46
473.65	277.92
474.02	277.37
474.38	276.89
474.75	276.52
475.11	276.08
475.48	275.78
475.85	275.56
476.21	275.38
476.58	275.38
476.94	275.43
477.31	275.30
477.67	275.22
478.04	275.30
478.41	275.48
478.77	275.78
479.14	275.96
479.50	276.15
479.87	276.45
480.23	276.82
480.60	277.22
480.96	277.59
481.33	278.22
481.69	278.83
482.06	279.57
482.42	280.27
482.79	281.02
483.15	282.01
483.52	283.04
483.88	283.95
484.25	284.81
484.61	285.93
484.98	287.16
485.34	288.49
485.71	289.80
486.07	291.04
486.44	292.36
486.80	293.90
487.17	295.53
487.53	297.25
487.90	299.10
488.26	300.95
488.62	303.00
488.99	304.99
489.35	307.05
489.72	309.28
490.08	311.75
490.44	314.26
490.81	316.80
491.17	319.38
491.54	322.27
491.90	325.33
492.26	328.49
492.63	331.80
492.99	335.29
493.36	338.93
493.72	342.81
494.08	346.90
494.45	351.08
494.81	355.57
495.17	360.10
495.54	364.92
495.90	369.93
496.26	375.20
496.63	380.74
496.99	386.55
497.35	392.55
497.72	398.68
498.08	405.21
498.44	411.87
498.80	419.09
499.17	426.39
499.53	433.95
499.89	441.81
500.26	449.79
500.62	458.00
500.98	466.77
501.34	475.70
501.71	484.99
502.07	494.54
502.43	504.55
502.79	514.78
503.16	525.31
503.52	536.22
503.88	547.32
504.24	558.71
504.60	570.49
504.97	582.60
505.33	595.00
505.69	608.20
506.05	621.52
506.41	634.90
506.78	648.59
507.14	662.68
507.50	677.06
507.86	691.86
508.22	706.90
508.59	722.19
508.95	738.00
509.31	754.02
509.67	770.68
510.03	787.03
510.39	804.29
510.75	821.70
511.12	839.59
511.48	857.81
511.84	876.31
512.20	894.82
512.56	913.72
512.92	932.90
513.28	951.80
513.64	971.23
514.00	990.93
514.37	1010.68
514.73	1031.09
515.09	1051.60
515.45	1072.13
515.81	1092.95
516.17	1113.75
516.53	1134.87
516.89	1156.19
517.25	1177.02
517.61	1198.52
517.97	1219.60
518.33	1240.89
518.69	1261.99
519.05	1283.27
519.41	1304.93
519.77	1326.99
520.13	1348.68
520.49	1370.40
520.85	1392.80
521.21	1414.89
521.57	1437.22
521.93	1459.37
522.29	1481.70
522.65	1503.80
523.01	1525.80
523.37	1547.50
523.73	1569.27
524.09	1590.95
524.45	1612.64
524.81	1634.68
525.17	1656.37
525.53	1678.30
525.89	1700.11
526.25	1721.66
526.61	1742.55
526.97	1763.68
527.33	1784.27
527.68	1805.36
528.04	1825.88
528.40	1845.46
528.76	1865.64
529.12	1885.78
529.48	1906.56
529.84	1926.11
530.20	1945.96
530.56	1965.76
530.91	1986.04
531.27	2005.88
531.63	2025.13
531.99	2044.58
532.35	2063.00
532.71	2081.27
533.07	2100.01
533.42	2117.61
533.78	2135.85
534.14	2154.11
534.50	2170.72
534.86	2188.07
535.21	2203.93
535.57	2220.86
535.93	2237.59
536.29	2253.63
536.65	2269.47
537.00	2284.09
537.36	2299.05
537.72	2313.40
538.08	2327.93
538.44	2342.53
538.79	2357.40
539.15	2371.48
539.51	2385.05
539.87	2399.69
540.22	2413.59
540.58	2427.69
540.94	2441.44
541.29	2453.94
541.65	2465.50
542.01	2478.08
542.37	2489.22
542.72	2501.13
543.08	2511.99
543.44	2523.27
543.79	2532.95
544.15	2542.64
544.51	2553.27
544.87	2563.50
545.22	2572.15
545.58	2580.04
545.94	2586.55
546.29	2592.14
546.65	2598.19
547.01	2603.93
547.36	2609.37
547.72	2614.53
548.07	2618.18
548.43	2621.55
548.79	2624.87
549.14	2629.10
549.50	2633.12
549.86	2636.96
550.21	2640.61
550.57	2643.86
550.92	2646.17
551.28	2648.47
551.64	2650.20
551.99	2652.21
552.35	2653.24
552.70	2655.47
553.06	2658.01
553.41	2660.74
553.77	2663.55
554.13	2665.52
554.48	2667.47
554.84	2668.15
555.19	2668.24
555.55	2668.45
555.90	2668.97
556.26	2669.31
556.61	2668.74
556.97	2666.93
557.32	2665.96
557.68	2663.80
558.03	2662.10
558.39	2660.40
558.74	2659.94
559.10	2659.22
559.45	2656.95
559.81	2655.62
560.16	2652.91
560.52	2650.15
560.87	2647.05
561.23	2642.82
561.58	2640.32
561.94	2636.59
562.29	2632.90
562.64	2630.78
563.00	2628.10
563.35	2625.79
563.71	2623.83
564.06	2621.55
564.42	2619.55
564.77	2616.85
565.12	2615.50
565.48	2612.48
565.83	2609.18
566.19	2605.74
566.54	2601.09
566.89	2597.32
567.25	2593.60
567.60	2590.52
567.96	2587.11
568.31	2583.25
568.66	2579.77
569.02	2574.91
569.37	2570.13
569.72	2566.21
570.08	2560.91
570.43	2555.52
570.78	2549.62
571.14	2542.83
571.49	2536.18
571.84	2530.51
572.20	2524.03
572.55	2517.27
572.90	2510.21
573.26	2503.39
573.61	2496.14
573.96	2489.91
574.31	2482.21
574.67	2474.29
575.02	2465.61
575.37	2456.95
575.72	2448.33
576.08	2440.54
576.43	2432.04
576.78	2424.02
577.13	2416.11
577.49	2408.11
577.84	2400.25
578.19	2392.98
578.54	2386.04
578.90	2379.43
579.25	2370.82
579.60	2362.19
579.95	2353.14
580.30	2345.51
580.66	2337.58
581.01	2328.92
581.36	2319.65
581.71	2311.53
582.06	2303.17
582.42	2295.75
582.77	2287.17
583.12	2278.58
583.47	2270.07
583.82	2262.10
584.17	2253.35
584.53	2244.70
584.88	2236.39
585.23	2227.71
585.58	2218.45
585.93	2209.24
586.28	2200.44
586.63	2191.74
586.98	2183.81
587.34	2175.63
587.69	2166.81
588.04	2158.03
588.39	2150.04
588.74	2141.49
589.09	2133.10
589.44	2123.83
589.79	2115.17
590.14	2107.35
590.49	2099.57
590.84	2091.31
591.19	2083.70
591.54	2075.76
591.89	2066.01
592.25	2057.12
592.60	2047.90
592.95	2038.91
593.30	2029.78
593.65	2020.39
594.00	2011.07
594.35	2002.72
594.70	1994.06
595.05	1985.69
595.40	1977.25
595.75	1967.74
596.10	1959.96
596.45	1951.57
596.80	1944.13
597.15	1936.33
597.50	1927.73
597.85	1919.25
598.19	1911.05
598.54	1902.48
598.89	1894.46
599.24	1887.95
599.59	1880.56
599.94	1873.64
600.29	1866.40
600.64	1858.66
600.99	1850.30
601.34	1843.63
601.69	1835.40
602.04	1827.39
602.39	1819.74
602.74	1812.25
603.08	1806.19
603.43	1799.20
603.78	1791.73
604.13	1784.13
604.48	1776.27
604.83	1769.49
605.18	1762.76
605.53	1755.50
605.87	1748.10
606.22	1741.49
606.57	1733.80
606.92	1726.15
607.27	1718.57
607.62	1711.29
607.96	1704.33
608.31	1698.43
608.66	1690.79
609.01	1683.40
609.36	1675.95
609.70	1668.10
610.05	1660.49
610.40	1652.45
610.75	1644.37
611.10	1636.99
611.44	1628.28
611.79	1619.70
612.14	1610.89
612.49	1601.76
612.83	1593.09
613.18	1583.80
613.53	1574.27
613.88	1564.92
614.22	1556.26
614.57	1547.20
614.92	1538.30
615.27	1529.45
615.61	1520.00
615.96	1511.48
616.31	1503.44
616.65	1495.79
617.00	1487.97
617.35	1479.61
617.70	1471.43
618.04	1462.46
618.39	1453.19
618.74	1445.13
619.08	1436.82
619.43	1428.71
619.78	1421.07
620.12	1413.29
620.47	1405.69
620.82	1397.63
621.16	1389.78
621.51	1381.80
621.85	1374.06
622.20	1365.68
622.55	1357.80
622.89	1349.56
623.24	1341.70
623.59	1333.19
623.93	1324.65
624.28	1316.54
624.62	1308.65
624.97	1300.49
625.32	1293.04
625.66	1285.88
626.01	1278.72
626.35	1271.76
626.70	1264.36
627.04	1257.18
627.39	1249.72
627.73	1242.71
628.08	1235.96
628.43	1228.67
628.77	1221.30
629.12	1213.80
629.46	1207.43
629.81	1200.37
630.15	1193.58
630.50	1186.60
630.84	1179.54
631.19	1172.60
631.53	1165.85
631.88	1158.63
632.22	1151.10
632.57	1144.31
632.91	1137.25
633.26	1129.83
633.60	1122.52
633.95	1115.95
634.29	1108.73
634.64	1102.25
634.98	1095.45
635.32	1088.71
635.67	1082.56
636.01	1076.20
636.36	1069.78
636.70	1063.19
637.05	1056.90
637.39	1050.72
637.73	1044.42
638.08	1038.97
638.42	1033.51
638.77	1027.19
639.11	1021.03
639.45	1015.22
639.80	1009.09
640.14	1002.63
640.49	996.73
640.83	990.83
641.17	984.64
641.52	978.79
641.86	972.39
642.20	966.34
642.55	959.69
642.89	953.48
643.23	947.42
643.58	941.64
643.92	935.55
644.26	929.54
644.61	923.67
644.95	917.73
645.29	911.40
645.64	904.90
645.98	898.90
646.32	893.25
646.66	887.37
647.01	881.36
647.35	875.87
647.69	869.85
648.04	864.08
648.38	858.17
648.72	852.16
649.06	846.20
649.41	840.20
649.75	834.57
650.09	828.76
650.43	822.74
650.78	816.88
651.12	810.93
651.46	805.17
651.80	799.29
652.14	793.41
652.49	787.74
652.83	782.05
653.17	776.17
653.51	770.41
653.85	764.87
654.20	759.25
654.54	753.69
654.88	748.29
655.22	742.42
655.56	736.59
655.90	730.94
656.25	725.61
656.59	720.30
656.93	715.31
657.27	710.51
657.61	705.28
657.95	700.20
658.29	695.18
658.64	690.23
658.98	685.23
659.32	680.10
659.66	674.86
660.00	669.64
660.34	664.60
660.68	659.54
661.02	654.56
661.36	649.99
661.70	645.33
662.05	640.75
662.39	636.68
662.73	632.54
663.07	628.55
663.41	624.30
663.75	619.90
664.09	615.36
664.43	610.67
664.77	606.60
665.11	602.12
665.45	597.90
665.79	593.76
666.13	589.41
666.47	585.32
666.81	581.36
667.15	577.55
667.49	573.83
667.83	570.01
668.17	566.20
668.51	562.34
668.85	558.75
669.19	555.06
669.53	551.10
669.87	547.28
670.21	543.33
670.55	539.54
670.89	536.18
671.23	532.97
671.57	529.64
671.91	526.15
672.25	522.86
672.58	519.45
672.92	515.91
673.26	512.90
673.60	509.86
673.94	506.62
674.28	503.30
674.62	500.24
674.96	497.30
675.30	494.43
675.64	491.35
675.97	488.02
676.31	485.09
676.65	482.31
676.99	479.69
677.33	476.93
677.67	474.17
678.01	471.10
678.34	468.03
678.68	465.13
679.02	462.21
679.36	459.45
679.70	456.66
680.04	453.90
680.37	450.98
680.71	448.16
681.05	445.68
681.39	443.09
681.73	440.51
682.06	437.94
682.40	435.42
682.74	433.00
683.08	430.70
683.42	428.11
683.75	425.53
684.09	422.89
684.43	420.50
684.77	418.00
685.10	415.58
685.44	413.29
685.78	410.92
686.12	408.73
686.45	406.55
686.79	404.34
687.13	402.25
687.46	400.17
687.80	398.07
688.14	395.79
688.48	393.79
688.81	391.56
689.15	389.36
689.49	387.08
689.82	384.93
690.16	382.59
690.50	380.53
690.83	378.42
691.17	376.30
691.51	374.12
691.84	372.03
692.18	370.08
692.52	368.20
692.85	366.30
693.19	364.49
693.52	362.53
693.86	360.61
694.20	358.74
694.53	356.92
694.87	355.06
695.21	353.24
695.54	351.34
695.88	349.53
696.21	347.84
696.55	346.30
696.88	344.57
697.22	342.88
697.56	341.30
697.89	339.70
698.23	338.12
698.56	336.54
698.90	335.10
699.23	333.58
699.57	332.05
699.90	330.44
700.24	328.78
700.58	327.27
700.91	325.78
701.25	324.44
701.58	323.10
701.92	321.71
702.25	320.37
702.59	319.05
702.92	317.77
703.26	316.42
703.59	315.09
703.93	313.96
704.26	312.75
704.60	311.51
704.93	310.25
705.26	309.10
705.60	308.01
705.93	306.78
706.27	305.65
706.60	304.47
706.94	303.55
707.27	302.35
707.61	301.27
707.94	300.25
708.27	299.00
708.61	297.83
708.94	296.68
709.28	295.52
709.61	294.37
709.94	293.28
710.28	292.20
710.61	291.11
710.95	289.96
711.28	289.07
711.61	288.02
711.95	287.08
712.28	286.07
712.61	285.11
712.95	284.28
713.28	283.37
713.61	282.41
713.95	281.40
714.28	280.64
714.61	279.76
714.95	278.87
715.28	277.99
715.61	276.98
715.95	276.10
716.28	275.31
716.61	274.56
716.95	273.77
717.28	272.98
717.61	272.30
717.94	271.51
718.28	270.71
718.61	270.07
718.94	269.34
719.27	268.60
719.61	267.88
719.94	267.10
720.27	266.32
720.60	265.57
720.94	264.88
721.27	264.21
721.60	263.59
721.93	262.91
722.27	262.35
722.60	261.82
722.93	261.20
723.26	260.68
723.59	260.02
723.93	259.51
724.26	258.96
724.59	258.43
724.92	257.95
725.25	257.35
725.59	256.79
725.92	256.30
726.25	255.83
726.58	255.32
726.91	254.79
727.24	254.31
727.57	253.84
727.91	253.25
728.24	252.70
728.57	252.16
728.90	251.68
729.23	251.20
729.56	250.87
729.89	250.43
730.22	249.90
730.55	249.57
730.89	249.10
731.22	248.62
731.55	248.08
731.88	247.68
732.21	247.27
732.54	246.81
732.87	246.40
733.20	246.02
733.53	245.61
733.86	245.23
734.19	244.81
734.52	244.51
734.85	244.35
735.18	243.99
735.51	243.69
735.84	243.44
736.17	243.08
736.50	242.68
736.83	242.61
737.16	242.22
737.49	241.82
737.82	241.49
738.15	241.20
738.48	240.90
738.81	240.54
739.14	240.23
739.47	239.85
739.80	239.53
740.13	239.11
740.46	238.76
740.79	238.44
741.12	238.18
741.45	237.81
741.78	237.45
742.11	237.26
742.44	236.92
742.77	236.63
743.10	236.42
743.43	236.09
743.75	235.62
744.08	235.58
744.41	235.24
744.74	234.99
745.07	234.67
745.40	234.45
745.73	234.20
746.06	233.95
746.39	233.67
746.71	233.36
747.04	233.15
747.37	232.89
747.70	232.70
748.03	232.47
748.36	232.28
748.68	232.03
749.01	231.70
749.34	231.51
749.67	231.25
750.00	230.99
750.33	230.87
750.65	230.64
750.98	230.26
751.31	230.03
751.64	229.71
751.97	229.65
752.29	229.43
752.62	229.13
752.95	228.80
753.28	228.56
753.60	228.36
753.93	228.14
754.26	227.96
754.59	227.66
754.91	227.38
755.24	227.18
755.57	227.02
755.90	226.76
756.22	226.54
756.55	226.30
756.88	226.04
757.20	225.73
757.53	225.49
757.86	225.25
758.19	225.10
758.51	225.03
758.84	224.63
759.17	224.42
759.49	224.29
759.82	224.20
760.15	224.05
760.47	223.92
760.80	223.70
761.13	223.57
761.45	223.41
761.78	223.24
762.11	223.05
762.43	222.81
762.76	222.66
763.08	222.54
763.41	222.40
763.74	222.25
764.06	222.12
764.39	221.89
764.71	221.80
765.04	221.68
765.37	221.45
765.69	221.35
766.02	221.18
766.34	221.05
766.67	220.91
767.00	220.85
767.32	220.78
767.65	220.76
767.97	220.58
768.30	220.43
768.62	220.39
768.95	220.27
769.27	220.14
769.60	220.03
769.92	219.92
770.25	219.78
770.57	219.66
770.90	219.53
771.22	219.49
771.55	219.30
771.87	219.21
772.20	219.21
772.52	219.25
772.85	219.35
773.17	219.24
773.50	219.13
773.82	218.98
774.15	218.85
774.47	218.66
774.80	218.58
775.12	218.52
775.45	218.43
775.77	218.38
776.09	218.36
776.42	218.30
776.74	218.23
777.07	218.11
777.39	218.02
777.72	217.96
778.04	217.91
778.36	217.85
778.69	217.77
779.01	217.65
779.33	217.51
779.66	217.33
779.98	217.24
780.31	217.19
780.63	217.34
780.95	217.25
781.28	217.22
781.60	217.18
781.92	217.16
782.25	217.07
782.57	217.04
782.89	216.97
783.22	216.89
783.54	216.77
783.86	216.73
784.19	216.66
784.51	216.71
784.83	216.60
785.16	216.50
785.48	216.44
785.80	216.40
786.12	216.30
786.45	216.16
