SpectraSuite Data File
++++++++++++++++++++++++++++++++++++
Date: Mon Feb 25 17:35:19 EST 2013
User: group
Dark Spectrum Present: No
Reference Spectrum Present: No
Number of Sampled Component Spectra: 1
Spectrometers: USB2E7196
Integration Time (usec): 52000 (USB2E7196)
Spectra Averaged: 20 (USB2E7196)
Boxcar Smoothing: 10 (USB2E7196)
Correct for Electrical Dark: No (USB2E7196)
Strobe/Lamp Enabled: No (USB2E7196)
Correct for Detector Non-linearity: No (USB2E7196)
Correct for Stray Light: No (USB2E7196)
Number of Pixels in Processed Spectrum: 2048
>>>>>Begin Processed Spectral Data<<<<<
339.09	0.00
339.48	199.35
339.86	201.45
340.24	200.75
340.63	202.90
341.01	207.85
341.39	204.80
341.78	207.00
342.16	208.05
342.54	209.20
342.93	198.00
343.31	207.99
343.69	208.55
344.07	208.97
344.46	209.45
344.84	209.86
345.22	210.04
345.60	210.34
345.99	210.54
346.37	210.70
346.75	210.83
347.13	210.90
347.52	210.96
347.90	211.04
348.28	211.09
348.66	211.22
349.05	211.24
349.43	211.32
349.81	211.43
350.19	211.47
350.57	211.50
350.96	211.60
351.34	211.76
351.72	211.87
352.10	212.01
352.48	212.05
352.87	212.15
353.25	212.21
353.63	212.30
354.01	212.36
354.39	212.40
354.77	212.47
355.15	212.60
355.54	212.66
355.92	212.69
356.30	212.80
356.68	213.02
357.06	213.07
357.44	213.10
357.82	213.15
358.20	213.31
358.58	213.45
358.97	213.52
359.35	213.60
359.73	213.65
360.11	213.64
360.49	213.79
360.87	213.75
361.25	213.84
361.63	213.88
362.01	213.91
362.39	214.03
362.77	214.10
363.15	214.12
363.53	214.14
363.91	214.18
364.29	214.22
364.67	214.06
365.05	214.07
365.43	214.17
365.81	214.17
366.19	214.21
366.57	214.31
366.95	214.31
367.33	214.28
367.71	214.29
368.09	214.35
368.47	214.31
368.85	214.33
369.23	214.25
369.61	214.23
369.99	214.33
370.37	214.28
370.75	214.27
371.13	214.26
371.51	214.23
371.89	214.28
372.27	214.25
372.65	214.23
373.03	214.19
373.41	214.05
373.78	214.01
374.16	213.90
374.54	213.77
374.92	213.68
375.30	213.66
375.68	213.55
376.06	213.48
376.44	213.38
376.82	213.30
377.19	213.36
377.57	213.30
377.95	213.17
378.33	213.14
378.71	212.99
379.09	212.93
379.47	212.86
379.84	212.78
380.22	212.68
380.60	212.59
380.98	212.56
381.36	212.56
381.73	212.52
382.11	212.53
382.49	212.45
382.87	212.40
383.25	212.26
383.62	212.39
384.00	212.35
384.38	212.33
384.76	212.35
385.13	212.27
385.51	212.20
385.89	212.09
386.27	212.03
386.64	212.01
387.02	211.93
387.40	211.90
387.78	211.78
388.15	211.74
388.53	211.68
388.91	211.64
389.29	211.55
389.66	211.54
390.04	211.43
390.42	211.47
390.79	211.46
391.17	211.48
391.55	211.32
391.92	211.33
392.30	211.38
392.68	211.35
393.05	211.40
393.43	211.45
393.81	211.50
394.18	211.48
394.56	211.49
394.94	211.58
395.31	211.52
395.69	211.60
396.06	211.66
396.44	211.75
396.82	211.75
397.19	211.91
397.57	211.85
397.95	211.90
398.32	211.92
398.70	211.94
399.07	211.99
399.45	212.02
399.82	212.04
400.20	212.05
400.58	212.08
400.95	212.01
401.33	212.09
401.70	212.19
402.08	212.24
402.45	212.30
402.83	212.34
403.20	212.49
403.58	212.54
403.95	212.65
404.33	212.69
404.71	212.75
405.08	212.94
405.46	213.06
405.83	213.21
406.21	213.26
406.58	213.44
406.96	213.60
407.33	213.73
407.70	213.90
408.08	214.15
408.45	214.46
408.83	214.74
409.20	214.88
409.58	215.11
409.95	215.42
410.33	215.75
410.70	216.00
411.08	216.33
411.45	216.71
411.82	217.02
412.20	217.48
412.57	218.05
412.95	218.32
413.32	218.84
413.69	219.34
414.07	219.92
414.44	220.50
414.82	221.16
415.19	221.92
415.56	222.71
415.94	223.51
416.31	224.28
416.68	225.14
417.06	226.26
417.43	227.28
417.81	228.38
418.18	229.49
418.55	230.71
418.93	232.07
419.30	233.39
419.67	234.84
420.04	236.28
420.42	237.73
420.79	239.55
421.16	241.28
421.54	243.11
421.91	245.05
422.28	246.98
422.66	249.06
423.03	251.14
423.40	253.25
423.77	255.45
424.15	257.79
424.52	260.19
424.89	262.71
425.26	265.13
425.64	267.50
426.01	270.03
426.38	272.80
426.75	275.50
427.13	278.30
427.50	281.31
427.87	284.49
428.24	287.64
428.61	290.55
428.99	293.86
429.36	297.47
429.73	300.98
430.10	304.52
430.47	308.09
430.85	311.76
431.22	315.73
431.59	319.95
431.96	323.89
432.33	328.24
432.70	332.50
433.08	337.50
433.45	342.17
433.82	346.87
434.19	352.02
434.56	357.09
434.93	361.99
435.30	366.83
435.68	372.10
436.05	377.27
436.42	382.47
436.79	387.28
437.16	392.27
437.53	397.63
437.90	402.98
438.27	408.14
438.64	413.56
439.01	418.52
439.38	422.91
439.75	427.27
440.13	432.18
440.50	436.75
440.87	440.55
441.24	444.58
441.61	448.85
441.98	451.89
442.35	455.47
442.72	459.14
443.09	462.71
443.46	464.65
443.83	466.25
444.20	467.49
444.57	469.30
444.94	470.00
445.31	470.79
445.68	471.56
446.05	471.79
446.42	470.98
446.79	470.09
447.16	469.23
447.53	468.51
447.90	466.36
448.27	464.18
448.64	461.17
449.01	458.77
449.37	455.16
449.74	451.69
450.11	447.57
450.48	442.98
450.85	438.30
451.22	434.38
451.59	430.44
451.96	426.73
452.33	421.80
452.70	417.56
453.07	412.32
453.43	407.00
453.80	402.02
454.17	397.35
454.54	392.91
454.91	387.92
455.28	383.09
455.65	378.65
456.02	374.36
456.38	370.61
456.75	366.00
457.12	362.05
457.49	358.17
457.86	354.43
458.23	351.19
458.59	347.60
458.96	344.11
459.33	340.81
459.70	337.65
460.07	335.15
460.43	332.22
460.80	329.55
461.17	327.15
461.54	324.65
461.91	322.33
462.27	319.82
462.64	317.84
463.01	315.76
463.38	313.63
463.74	311.37
464.11	309.46
464.48	307.84
464.85	306.11
465.21	304.75
465.58	303.15
465.95	301.44
466.32	300.12
466.68	298.71
467.05	297.38
467.42	296.05
467.78	294.49
468.15	293.07
468.52	292.04
468.88	290.72
469.25	289.60
469.62	288.55
469.98	287.57
470.35	286.67
470.72	285.70
471.08	284.76
471.45	283.93
471.82	283.11
472.18	282.24
472.55	281.60
472.92	280.89
473.28	280.46
473.65	279.84
474.02	279.20
474.38	278.69
474.75	278.32
475.11	277.86
475.48	277.72
475.85	277.59
476.21	277.35
476.58	277.26
476.94	277.15
477.31	277.03
477.67	277.03
478.04	277.06
478.41	277.20
478.77	277.42
479.14	277.63
479.50	277.98
479.87	278.30
480.23	278.69
480.60	279.01
480.96	279.38
481.33	280.01
481.69	280.65
482.06	281.38
482.42	282.02
482.79	282.78
483.15	283.62
483.52	284.55
483.88	285.60
484.25	286.55
484.61	287.65
484.98	288.76
485.34	290.01
485.71	291.43
486.07	292.80
486.44	294.17
486.80	295.63
487.17	297.31
487.53	299.13
487.90	300.97
488.26	302.89
488.62	304.85
488.99	306.83
489.35	309.01
489.72	311.27
490.08	313.80
490.44	316.33
490.81	318.84
491.17	321.58
491.54	324.36
491.90	327.39
492.26	330.45
492.63	333.84
492.99	337.30
493.36	340.88
493.72	344.82
494.08	348.82
494.45	353.15
494.81	357.52
495.17	362.06
495.54	366.91
495.90	371.99
496.26	377.25
496.63	382.74
496.99	388.40
497.35	394.44
497.72	400.61
498.08	406.99
498.44	413.75
498.80	420.82
499.17	428.20
499.53	435.66
499.89	443.72
500.26	451.92
500.62	460.29
500.98	469.11
501.34	478.28
501.71	487.79
502.07	497.48
502.43	507.54
502.79	517.62
503.16	528.38
503.52	539.35
503.88	550.70
504.24	562.53
504.60	574.27
504.97	586.51
505.33	598.97
505.69	612.24
506.05	625.74
506.41	639.35
506.78	653.14
507.14	667.52
507.50	682.10
507.86	697.13
508.22	712.63
508.59	728.26
508.95	744.15
509.31	760.41
509.67	777.10
510.03	794.01
510.39	811.78
510.75	829.46
511.12	847.53
511.48	865.95
511.84	884.91
512.20	903.96
512.56	923.52
512.92	943.07
513.28	962.77
513.64	982.72
514.00	1002.90
514.37	1023.28
514.73	1044.22
515.09	1065.18
515.45	1086.00
515.81	1107.45
516.17	1128.61
516.53	1150.11
516.89	1171.83
517.25	1193.59
517.61	1215.38
517.97	1237.11
518.33	1258.82
518.69	1280.78
519.05	1302.90
519.41	1324.75
519.77	1347.25
520.13	1369.40
520.49	1391.72
520.85	1414.81
521.21	1437.12
521.57	1460.07
521.93	1482.36
522.29	1505.39
522.65	1528.16
523.01	1550.54
523.37	1572.65
523.73	1595.22
524.09	1617.62
524.45	1640.02
524.81	1662.53
525.17	1685.16
525.53	1707.62
525.89	1730.28
526.25	1752.46
526.61	1773.97
526.97	1795.61
527.33	1817.43
527.68	1838.97
528.04	1860.47
528.40	1880.71
528.76	1902.22
529.12	1923.04
529.48	1945.00
529.84	1965.16
530.20	1985.37
530.56	2006.46
530.91	2027.40
531.27	2048.19
531.63	2068.20
531.99	2088.25
532.35	2107.45
532.71	2126.65
533.07	2146.40
533.42	2164.95
533.78	2183.92
534.14	2202.94
534.50	2220.81
534.86	2238.75
535.21	2255.67
535.57	2273.76
535.93	2291.24
536.29	2308.09
536.65	2324.98
537.00	2340.47
537.36	2356.08
537.72	2371.63
538.08	2387.04
538.44	2402.40
538.79	2417.74
539.15	2433.08
539.51	2447.96
539.87	2463.83
540.22	2478.44
540.58	2493.44
540.94	2508.15
541.29	2521.46
541.65	2533.87
542.01	2547.42
542.37	2559.61
542.72	2572.14
543.08	2583.12
543.44	2595.42
543.79	2605.63
544.15	2616.25
544.51	2627.79
544.87	2639.14
545.22	2648.78
545.58	2657.47
545.94	2665.21
546.29	2672.30
546.65	2678.83
547.01	2685.26
547.36	2691.14
547.72	2697.21
548.07	2701.27
548.43	2705.08
548.79	2708.97
549.14	2713.73
549.50	2717.99
549.86	2722.53
550.21	2726.76
550.57	2730.86
550.92	2733.75
551.28	2736.93
551.64	2739.46
551.99	2741.73
552.35	2743.68
552.70	2746.65
553.06	2749.65
553.41	2752.57
553.77	2755.38
554.13	2757.70
554.48	2759.91
554.84	2761.17
555.19	2761.61
555.55	2762.75
555.90	2763.74
556.26	2764.64
556.61	2764.83
556.97	2763.73
557.32	2762.86
557.68	2761.43
558.03	2760.17
558.39	2758.40
558.74	2757.89
559.10	2757.20
559.45	2755.23
559.81	2754.25
560.16	2751.36
560.52	2749.13
560.87	2746.24
561.23	2742.64
561.58	2740.38
561.94	2737.23
562.29	2733.71
562.64	2731.61
563.00	2729.14
563.35	2726.90
563.71	2725.27
564.06	2722.91
564.42	2721.30
564.77	2719.31
565.12	2717.38
565.48	2714.71
565.83	2711.86
566.19	2708.85
566.54	2704.50
566.89	2701.01
567.25	2696.83
567.60	2693.85
567.96	2689.99
568.31	2686.78
568.66	2682.99
569.02	2678.45
569.37	2673.11
569.72	2669.46
570.08	2663.98
570.43	2657.99
570.78	2652.06
571.14	2645.71
571.49	2639.05
571.84	2632.98
572.20	2626.15
572.55	2619.95
572.90	2612.79
573.26	2605.82
573.61	2598.79
573.96	2591.95
574.31	2584.31
574.67	2576.60
575.02	2568.10
575.37	2559.45
575.72	2550.36
576.08	2542.51
576.43	2533.80
576.78	2526.17
577.13	2518.03
577.49	2510.01
577.84	2502.70
578.19	2495.10
578.54	2487.38
578.90	2480.50
579.25	2471.53
579.60	2462.21
579.95	2452.85
580.30	2445.09
580.66	2436.78
581.01	2427.25
581.36	2418.01
581.71	2409.30
582.06	2400.47
582.42	2392.34
582.77	2383.01
583.12	2373.81
583.47	2365.15
583.82	2356.45
584.17	2347.15
584.53	2337.99
584.88	2328.91
585.23	2319.21
585.58	2309.57
585.93	2299.70
586.28	2290.38
586.63	2281.66
586.98	2273.11
587.34	2264.51
587.69	2255.04
588.04	2245.67
588.39	2237.58
588.74	2228.94
589.09	2220.16
589.44	2210.60
589.79	2201.77
590.14	2193.97
590.49	2185.42
590.84	2176.06
591.19	2168.04
591.54	2159.27
591.89	2148.89
592.25	2139.71
592.60	2130.28
592.95	2120.77
593.30	2111.31
593.65	2101.23
594.00	2091.40
594.35	2083.31
594.70	2073.85
595.05	2065.09
595.40	2056.25
595.75	2046.39
596.10	2037.65
596.45	2029.22
596.80	2021.30
597.15	2012.74
597.50	2003.23
597.85	1994.76
598.19	1986.43
598.54	1977.69
598.89	1969.52
599.24	1962.62
599.59	1955.15
599.94	1948.15
600.29	1940.35
600.64	1932.19
600.99	1923.96
601.34	1916.40
601.69	1907.13
602.04	1899.14
602.39	1890.55
602.74	1882.79
603.08	1875.94
603.43	1868.47
603.78	1859.98
604.13	1851.40
604.48	1843.08
604.83	1836.12
605.18	1829.25
605.53	1821.13
605.87	1813.49
606.22	1806.34
606.57	1798.53
606.92	1790.09
607.27	1781.55
607.62	1774.33
607.96	1767.41
608.31	1760.88
608.66	1753.10
609.01	1745.45
609.36	1737.43
609.70	1729.60
610.05	1721.79
610.40	1713.48
610.75	1704.94
611.10	1697.21
611.44	1688.20
611.79	1679.26
612.14	1670.07
612.49	1659.99
612.83	1651.30
613.18	1641.31
613.53	1631.85
613.88	1621.77
614.22	1612.90
614.57	1603.57
614.92	1593.77
615.27	1584.30
615.61	1574.34
615.96	1565.27
616.31	1556.88
616.65	1548.79
617.00	1540.20
617.35	1531.31
617.70	1522.28
618.04	1512.97
618.39	1503.64
618.74	1495.36
619.08	1486.70
619.43	1478.23
619.78	1470.20
620.12	1461.95
620.47	1454.24
620.82	1445.59
621.16	1437.21
621.51	1428.72
621.85	1420.50
622.20	1411.96
622.55	1403.38
622.89	1395.22
623.24	1387.30
623.59	1378.26
623.93	1369.61
624.28	1361.15
624.62	1353.11
624.97	1344.77
625.32	1337.05
625.66	1329.66
626.01	1322.03
626.35	1314.69
626.70	1306.98
627.04	1299.80
627.39	1292.11
627.73	1284.60
628.08	1277.50
628.43	1270.32
628.77	1263.06
629.12	1255.47
629.46	1248.97
629.81	1241.90
630.15	1234.46
630.50	1226.80
630.84	1219.52
631.19	1212.08
631.53	1205.47
631.88	1197.52
632.22	1189.99
632.57	1182.95
632.91	1175.16
633.26	1167.63
633.60	1160.46
633.95	1153.54
634.29	1145.81
634.64	1139.16
634.98	1131.79
635.32	1124.66
635.67	1118.07
636.01	1111.24
636.36	1104.42
636.70	1097.49
637.05	1090.86
637.39	1084.33
637.73	1077.94
638.08	1072.16
638.42	1066.25
638.77	1059.39
639.11	1053.10
639.45	1047.11
639.80	1040.62
640.14	1034.21
640.49	1028.14
640.83	1021.77
641.17	1015.15
641.52	1009.11
641.86	1002.56
642.20	996.34
642.55	989.55
642.89	982.80
643.23	976.15
643.58	970.17
643.92	963.73
644.26	957.39
644.61	951.32
644.95	945.21
645.29	938.93
645.64	932.28
645.98	926.26
646.32	920.31
646.66	914.04
647.01	907.83
647.35	901.94
647.69	895.54
648.04	889.46
648.38	883.72
648.72	877.70
649.06	871.31
649.41	865.19
649.75	859.55
650.09	853.83
650.43	848.12
650.78	841.86
651.12	835.75
651.46	829.86
651.80	823.85
652.14	817.80
652.49	811.71
652.83	805.99
653.17	799.85
653.51	793.98
653.85	788.26
654.20	782.41
654.54	776.49
654.88	770.83
655.22	764.99
655.56	758.90
655.90	753.04
656.25	747.48
656.59	741.98
656.93	736.68
657.27	731.48
657.61	725.87
657.95	720.75
658.29	715.73
658.64	710.69
658.98	705.54
659.32	700.17
659.66	694.93
660.00	689.52
660.34	684.36
660.68	679.14
661.02	674.02
661.36	669.29
661.70	664.45
662.05	659.74
662.39	655.33
662.73	650.99
663.07	646.57
663.41	642.19
663.75	637.52
664.09	632.76
664.43	627.82
664.77	623.24
665.11	618.77
665.45	614.26
665.79	609.62
666.13	605.06
666.47	600.92
666.81	596.70
667.15	592.47
667.49	588.50
667.83	584.54
668.17	580.68
668.51	576.73
668.85	572.99
669.19	569.34
669.53	565.34
669.87	561.23
670.21	557.36
670.55	553.53
670.89	550.06
671.23	546.54
671.57	543.12
671.91	539.65
672.25	536.01
672.58	532.32
672.92	528.99
673.26	525.89
673.60	522.43
673.94	519.11
674.28	516.00
674.62	512.78
674.96	509.53
675.30	506.48
675.64	503.27
675.97	500.05
676.31	496.92
676.65	493.89
676.99	491.29
677.33	488.22
677.67	485.23
678.01	482.15
678.34	479.19
678.68	476.22
679.02	473.18
679.36	470.34
679.70	467.61
680.04	464.59
680.37	461.53
680.71	458.82
681.05	456.05
681.39	453.28
681.73	450.53
682.06	447.99
682.40	445.26
682.74	442.63
683.08	440.04
683.42	437.42
683.75	434.80
684.09	432.09
684.43	429.59
684.77	426.89
685.10	424.36
685.44	421.73
685.78	419.14
686.12	416.86
686.45	414.33
686.79	411.98
687.13	409.79
687.46	407.65
687.80	405.36
688.14	403.15
688.48	400.98
688.81	398.68
689.15	396.45
689.49	394.18
689.82	391.87
690.16	389.55
690.50	387.21
690.83	384.95
691.17	382.70
691.51	380.51
691.84	378.51
692.18	376.49
692.52	374.52
692.85	372.76
693.19	370.90
693.52	369.01
693.86	367.06
694.20	365.11
694.53	363.07
694.87	361.01
695.21	359.09
695.54	357.18
695.88	355.34
696.21	353.44
696.55	351.59
696.88	349.89
697.22	348.13
697.56	346.58
697.89	344.94
698.23	343.29
698.56	341.70
698.90	340.14
699.23	338.45
699.57	336.87
699.90	335.15
700.24	333.46
700.58	331.97
700.91	330.43
701.25	329.14
701.58	327.73
701.92	326.40
702.25	325.02
702.59	323.56
702.92	322.13
703.26	320.72
703.59	319.51
703.93	318.34
704.26	317.11
704.60	315.75
704.93	314.50
705.26	313.25
705.60	312.01
705.93	310.69
706.27	309.58
706.60	308.48
706.94	307.35
707.27	306.09
707.61	304.80
707.94	303.55
708.27	302.13
708.61	300.93
708.94	299.75
709.28	298.59
709.61	297.54
709.94	296.52
710.28	295.44
710.61	294.30
710.95	293.07
711.28	292.12
711.61	291.09
711.95	290.14
712.28	289.10
712.61	288.01
712.95	287.10
713.28	286.17
713.61	285.15
713.95	284.19
714.28	283.45
714.61	282.66
714.95	281.78
715.28	280.87
715.61	279.96
715.95	279.03
716.28	278.07
716.61	277.24
716.95	276.36
717.28	275.57
717.61	274.72
717.94	274.01
718.28	273.13
718.61	272.39
718.94	271.58
719.27	270.85
719.61	270.19
719.94	269.47
720.27	268.65
720.60	267.94
720.94	267.20
721.27	266.45
721.60	265.78
721.93	265.20
722.27	264.63
722.60	264.02
722.93	263.45
723.26	262.82
723.59	262.08
723.93	261.55
724.26	260.99
724.59	260.50
724.92	259.93
725.25	259.47
725.59	258.90
725.92	258.42
726.25	257.84
726.58	257.33
726.91	256.77
727.24	256.27
727.57	255.78
727.91	255.27
728.24	254.77
728.57	254.26
728.90	253.79
729.23	253.33
729.56	252.94
729.89	252.53
730.22	252.07
730.55	251.65
730.89	251.17
731.22	250.73
731.55	250.27
731.88	249.78
732.21	249.32
732.54	248.83
732.87	248.36
733.20	247.90
733.53	247.51
733.86	247.10
734.19	246.69
734.52	246.19
734.85	245.96
735.18	245.55
735.51	245.12
735.84	244.71
736.17	244.40
736.50	243.96
736.83	243.75
737.16	243.42
737.49	243.08
737.82	242.67
738.15	242.28
738.48	241.83
738.81	241.51
739.14	241.15
739.47	240.86
739.80	240.50
740.13	240.23
740.46	239.78
740.79	239.40
741.12	239.12
741.45	238.87
741.78	238.44
742.11	238.10
742.44	237.82
742.77	237.57
743.10	237.24
743.43	236.97
743.75	236.50
744.08	236.44
744.41	236.10
744.74	235.86
745.07	235.58
745.40	235.35
745.73	235.11
746.06	234.83
746.39	234.55
746.71	234.19
747.04	233.93
747.37	233.71
747.70	233.42
748.03	233.16
748.36	232.97
748.68	232.68
749.01	232.41
749.34	232.17
749.67	231.94
750.00	231.63
750.33	231.46
750.65	231.20
750.98	230.78
751.31	230.59
751.64	230.36
751.97	230.13
752.29	229.89
752.62	229.53
752.95	229.24
753.28	228.99
753.60	228.86
753.93	228.63
754.26	228.38
754.59	228.13
754.91	227.82
755.24	227.53
755.57	227.35
755.90	227.16
756.22	226.98
756.55	226.71
756.88	226.55
757.20	226.21
757.53	225.95
757.86	225.67
758.19	225.54
758.51	225.34
758.84	225.13
759.17	224.93
759.49	224.77
759.82	224.75
760.15	224.56
760.47	224.34
760.80	224.26
761.13	224.18
761.45	224.05
761.78	223.87
762.11	223.73
762.43	223.56
762.76	223.41
763.08	223.29
763.41	223.16
763.74	223.02
764.06	222.91
764.39	222.77
764.71	222.67
765.04	222.48
765.37	222.36
765.69	222.24
766.02	222.14
766.34	222.04
766.67	221.79
767.00	221.66
767.32	221.63
767.65	221.51
767.97	221.39
768.30	221.23
768.62	221.23
768.95	221.06
769.27	220.94
769.60	220.84
769.92	220.65
770.25	220.46
770.57	220.36
770.90	220.24
771.22	220.16
771.55	220.12
771.87	219.95
772.20	219.76
772.52	219.82
772.85	219.96
773.17	219.95
773.50	219.85
773.82	219.76
774.15	219.56
774.47	219.41
774.80	219.25
775.12	219.24
775.45	219.11
775.77	219.10
776.09	218.96
776.42	218.87
776.74	218.80
777.07	218.75
777.39	218.57
777.72	218.47
778.04	218.46
778.36	218.32
778.69	218.28
779.01	218.27
779.33	217.97
779.66	217.69
779.98	217.50
780.31	217.39
780.63	217.35
780.95	217.37
781.28	217.29
781.60	217.18
781.92	217.10
782.25	217.06
782.57	216.96
782.89	217.00
783.22	216.95
783.54	216.89
783.86	216.81
784.19	216.80
784.51	216.73
784.83	216.61
785.16	216.56
785.48	216.57
785.80	216.53
786.12	216.51
786.45	216.35
