SpectraSuite Data File
++++++++++++++++++++++++++++++++++++
Date: Mon Feb 25 17:29:57 EST 2013
User: group
Dark Spectrum Present: No
Reference Spectrum Present: No
Number of Sampled Component Spectra: 1
Spectrometers: USB2E7196
Integration Time (usec): 52000 (USB2E7196)
Spectra Averaged: 20 (USB2E7196)
Boxcar Smoothing: 10 (USB2E7196)
Correct for Electrical Dark: No (USB2E7196)
Strobe/Lamp Enabled: No (USB2E7196)
Correct for Detector Non-linearity: No (USB2E7196)
Correct for Stray Light: No (USB2E7196)
Number of Pixels in Processed Spectrum: 2048
>>>>>Begin Processed Spectral Data<<<<<
339.09	0.00
339.48	199.20
339.86	199.60
340.24	201.55
340.63	204.05
341.01	207.45
341.39	206.05
341.78	207.95
342.16	209.40
342.54	209.55
342.93	198.59
343.31	208.61
343.69	209.10
344.07	209.66
344.46	210.10
344.84	210.42
345.22	210.63
345.60	210.90
345.99	211.10
346.37	211.23
346.75	211.36
347.13	211.43
347.52	211.46
347.90	211.56
348.28	211.58
348.66	211.61
349.05	211.53
349.43	211.60
349.81	211.65
350.19	211.77
350.57	211.80
350.96	211.91
351.34	212.00
351.72	212.16
352.10	212.20
352.48	212.23
352.87	212.28
353.25	212.29
353.63	212.33
354.01	212.33
354.39	212.41
354.77	212.40
355.15	212.53
355.54	212.59
355.92	212.63
356.30	212.69
356.68	212.84
357.06	212.95
357.44	212.97
357.82	212.93
358.20	212.96
358.58	212.92
358.97	212.82
359.35	212.91
359.73	212.95
360.11	213.04
360.49	213.09
360.87	213.17
361.25	213.22
361.63	213.31
362.01	213.38
362.39	213.32
362.77	213.36
363.15	213.34
363.53	213.32
363.91	213.32
364.29	213.27
364.67	213.07
365.05	213.08
365.43	213.12
365.81	213.21
366.19	213.25
366.57	213.40
366.95	213.47
367.33	213.46
367.71	213.37
368.09	213.32
368.47	213.37
368.85	213.33
369.23	213.36
369.61	213.27
369.99	213.32
370.37	213.34
370.75	213.35
371.13	213.29
371.51	213.19
371.89	213.15
372.27	213.18
372.65	213.20
373.03	213.13
373.41	213.03
373.78	212.99
374.16	212.88
374.54	212.73
374.92	212.68
375.30	212.60
375.68	212.67
376.06	212.65
376.44	212.60
376.82	212.59
377.19	212.56
377.57	212.52
377.95	212.44
378.33	212.44
378.71	212.33
379.09	212.38
379.47	212.43
379.84	212.36
380.22	212.35
380.60	212.26
380.98	212.23
381.36	212.15
381.73	212.06
382.11	212.04
382.49	211.99
382.87	211.90
383.25	211.83
383.62	211.95
384.00	211.85
384.38	211.80
384.76	211.79
385.13	211.83
385.51	211.82
385.89	211.75
386.27	211.69
386.64	211.80
387.02	211.67
387.40	211.59
387.78	211.60
388.15	211.54
388.53	211.61
388.91	211.59
389.29	211.60
389.66	211.62
390.04	211.61
390.42	211.69
390.79	211.74
391.17	211.83
391.55	211.61
391.92	211.66
392.30	211.67
392.68	211.65
393.05	211.60
393.43	211.54
393.81	211.57
394.18	211.52
394.56	211.40
394.94	211.48
395.31	211.43
395.69	211.48
396.06	211.56
396.44	211.55
396.82	211.61
397.19	211.75
397.57	211.74
397.95	211.74
398.32	211.64
398.70	211.66
399.07	211.68
399.45	211.74
399.82	211.70
400.20	211.69
400.58	211.71
400.95	211.68
401.33	211.84
401.70	211.99
402.08	212.05
402.45	212.11
402.83	212.18
403.20	212.34
403.58	212.47
403.95	212.54
404.33	212.63
404.71	212.70
405.08	212.82
405.46	212.96
405.83	213.10
406.21	213.26
406.58	213.47
406.96	213.57
407.33	213.69
407.70	213.96
408.08	214.29
408.45	214.51
408.83	214.72
409.20	214.82
409.58	214.98
409.95	215.25
410.33	215.54
410.70	215.82
411.08	216.15
411.45	216.43
411.82	216.67
412.20	217.10
412.57	217.59
412.95	217.91
413.32	218.41
413.69	219.03
414.07	219.56
414.44	220.05
414.82	220.67
415.19	221.32
415.56	222.00
415.94	222.62
416.31	223.41
416.68	224.23
417.06	225.25
417.43	226.12
417.81	227.21
418.18	228.23
418.55	229.28
418.93	230.40
419.30	231.65
419.67	233.02
420.04	234.32
420.42	235.70
420.79	237.39
421.16	238.95
421.54	240.48
421.91	242.18
422.28	243.98
422.66	245.80
423.03	247.69
423.40	249.58
423.77	251.65
424.15	253.80
424.52	256.02
424.89	258.38
425.26	260.66
425.64	262.83
426.01	265.29
426.38	267.84
426.75	270.33
427.13	272.96
427.50	275.69
427.87	278.58
428.24	281.41
428.61	284.02
428.99	287.04
429.36	290.34
429.73	293.54
430.10	296.75
430.47	300.06
430.85	303.42
431.22	307.07
431.59	310.99
431.96	314.49
432.33	318.40
432.70	322.19
433.08	326.70
433.45	330.97
433.82	335.21
434.19	339.94
434.56	344.72
434.93	349.09
435.30	353.48
435.68	358.33
436.05	363.08
436.42	367.90
436.79	372.29
437.16	376.93
437.53	381.87
437.90	386.69
438.27	391.49
438.64	396.57
439.01	401.11
439.38	405.05
439.75	409.11
440.13	413.74
440.50	417.95
440.87	421.48
441.24	425.07
441.61	428.98
441.98	431.84
442.35	435.11
442.72	438.54
443.09	441.85
443.46	443.72
443.83	445.04
444.20	446.13
444.57	447.77
444.94	448.55
445.31	449.34
445.68	450.21
446.05	450.52
446.42	449.93
446.79	449.35
447.16	448.59
447.53	447.99
447.90	446.06
448.27	444.26
448.64	441.58
449.01	439.61
449.37	436.31
449.74	433.09
450.11	429.34
450.48	425.06
450.85	420.84
451.22	417.25
451.59	413.90
451.96	410.49
452.33	406.07
452.70	402.10
453.07	397.40
453.43	392.44
453.80	387.77
454.17	383.29
454.54	379.05
454.91	374.64
455.28	370.27
455.65	366.15
456.02	362.17
456.38	358.72
456.75	354.39
457.12	350.84
457.49	347.37
457.86	343.92
458.23	341.14
458.59	337.96
458.96	334.71
459.33	331.74
459.70	328.98
460.07	326.65
460.43	323.97
460.80	321.51
461.17	319.34
461.54	317.14
461.91	315.01
462.27	312.79
462.64	310.92
463.01	308.87
463.38	306.91
463.74	304.72
464.11	302.89
464.48	301.36
464.85	299.80
465.21	298.54
465.58	297.21
465.95	295.49
466.32	294.10
466.68	292.78
467.05	291.45
467.42	290.20
467.78	288.88
468.15	287.62
468.52	286.74
468.88	285.59
469.25	284.49
469.62	283.66
469.98	282.80
470.35	281.92
470.72	281.16
471.08	280.33
471.45	279.68
471.82	278.98
472.18	278.19
472.55	277.58
472.92	276.88
473.28	276.34
473.65	275.93
474.02	275.47
474.38	275.10
474.75	274.83
475.11	274.49
475.48	274.28
475.85	274.09
476.21	273.72
476.58	273.60
476.94	273.56
477.31	273.50
477.67	273.54
478.04	273.67
478.41	273.84
478.77	274.15
479.14	274.40
479.50	274.76
479.87	275.20
480.23	275.60
480.60	275.98
480.96	276.41
481.33	277.06
481.69	277.66
482.06	278.26
482.42	278.89
482.79	279.53
483.15	280.35
483.52	281.36
483.88	282.34
484.25	283.28
484.61	284.27
484.98	285.41
485.34	286.61
485.71	287.86
486.07	289.10
486.44	290.34
486.80	291.76
487.17	293.28
487.53	295.09
487.90	296.87
488.26	298.84
488.62	300.83
488.99	302.70
489.35	304.92
489.72	307.23
490.08	309.58
490.44	312.06
490.81	314.74
491.17	317.34
491.54	320.22
491.90	323.27
492.26	326.51
492.63	329.79
492.99	333.17
493.36	336.86
493.72	340.87
494.08	344.98
494.45	349.38
494.81	353.87
495.17	358.27
495.54	363.19
495.90	368.20
496.26	373.35
496.63	379.02
496.99	384.59
497.35	390.55
497.72	396.75
498.08	403.15
498.44	409.74
498.80	416.86
499.17	424.22
499.53	431.76
499.89	439.60
500.26	447.63
500.62	455.96
500.98	464.67
501.34	473.57
501.71	482.74
502.07	492.06
502.43	501.95
502.79	512.12
503.16	522.48
503.52	533.24
503.88	544.29
504.24	555.49
504.60	567.29
504.97	579.30
505.33	591.54
505.69	604.63
506.05	617.90
506.41	631.19
506.78	644.55
507.14	658.21
507.50	672.40
507.86	686.93
508.22	701.85
508.59	716.83
508.95	732.27
509.31	748.00
509.67	764.03
510.03	780.41
510.39	797.21
510.75	814.14
511.12	831.40
511.48	848.86
511.84	866.72
512.20	884.47
512.56	902.84
512.92	921.51
513.28	940.10
513.64	958.81
514.00	977.87
514.37	997.25
514.73	1017.26
515.09	1037.01
515.45	1056.89
515.81	1077.00
516.17	1097.18
516.53	1117.55
516.89	1137.82
517.25	1158.35
517.61	1178.65
517.97	1198.88
518.33	1219.33
518.69	1239.95
519.05	1260.95
519.41	1281.92
519.77	1303.08
520.13	1324.01
520.49	1344.91
520.85	1366.16
521.21	1387.37
521.57	1408.82
521.93	1429.43
522.29	1450.90
522.65	1472.01
523.01	1493.00
523.37	1513.63
523.73	1534.62
524.09	1555.46
524.45	1576.48
524.81	1597.53
525.17	1618.62
525.53	1639.66
525.89	1660.73
526.25	1681.02
526.61	1700.87
526.97	1720.78
527.33	1740.38
527.68	1760.14
528.04	1779.80
528.40	1798.30
528.76	1817.61
529.12	1836.34
529.48	1856.50
529.84	1874.87
530.20	1893.26
530.56	1911.61
530.91	1930.71
531.27	1949.08
531.63	1967.20
531.99	1985.40
532.35	2002.59
532.71	2019.72
533.07	2037.28
533.42	2053.70
533.78	2071.08
534.14	2087.70
534.50	2103.30
534.86	2119.64
535.21	2134.52
535.57	2150.33
535.93	2166.20
536.29	2180.85
536.65	2195.87
537.00	2209.36
537.36	2222.84
537.72	2236.48
538.08	2250.35
538.44	2263.57
538.79	2277.13
539.15	2289.87
539.51	2302.41
539.87	2315.69
540.22	2328.17
540.58	2341.03
540.94	2353.76
541.29	2364.59
541.65	2374.91
542.01	2386.02
542.37	2396.22
542.72	2407.05
543.08	2416.36
543.44	2426.49
543.79	2435.30
544.15	2443.75
544.51	2453.19
544.87	2462.62
545.22	2470.30
545.58	2477.37
545.94	2483.33
546.29	2488.68
546.65	2494.19
547.01	2498.95
547.36	2503.61
547.72	2508.10
548.07	2510.78
548.43	2513.71
548.79	2516.46
549.14	2520.14
549.50	2523.55
549.86	2526.63
550.21	2529.33
550.57	2532.13
550.92	2533.45
551.28	2535.27
551.64	2536.96
551.99	2538.51
552.35	2539.38
552.70	2541.22
553.06	2543.06
553.41	2545.21
553.77	2547.12
554.13	2547.98
554.48	2549.47
554.84	2550.16
555.19	2549.88
555.55	2549.77
555.90	2549.70
556.26	2549.72
556.61	2548.94
556.97	2547.13
557.32	2545.80
557.68	2543.89
558.03	2541.91
558.39	2539.89
558.74	2538.92
559.10	2537.48
559.45	2534.78
559.81	2532.83
560.16	2529.90
560.52	2527.10
560.87	2523.75
561.23	2519.51
561.58	2517.15
561.94	2513.30
562.29	2508.90
562.64	2506.49
563.00	2503.76
563.35	2500.75
563.71	2498.34
564.06	2495.75
564.42	2493.71
564.77	2490.84
565.12	2488.24
565.48	2485.06
565.83	2482.10
566.19	2478.15
566.54	2473.50
566.89	2469.63
567.25	2465.66
567.60	2462.16
567.96	2458.10
568.31	2454.20
568.66	2450.46
569.02	2445.78
569.37	2440.80
569.72	2437.05
570.08	2431.90
570.43	2426.38
570.78	2420.82
571.14	2414.73
571.49	2408.35
571.84	2402.23
572.20	2395.89
572.55	2389.80
572.90	2383.05
573.26	2376.14
573.61	2369.24
573.96	2363.12
574.31	2355.64
574.67	2347.93
575.02	2339.65
575.37	2331.54
575.72	2323.32
576.08	2316.31
576.43	2308.17
576.78	2300.96
577.13	2293.49
577.49	2285.52
577.84	2278.29
578.19	2271.14
578.54	2264.17
578.90	2257.62
579.25	2249.63
579.60	2241.13
579.95	2232.55
580.30	2225.30
580.66	2217.73
581.01	2209.60
581.36	2200.81
581.71	2193.25
582.06	2185.61
582.42	2178.53
582.77	2170.20
583.12	2161.84
583.47	2153.57
583.82	2145.85
584.17	2137.41
584.53	2128.85
584.88	2120.75
585.23	2112.68
585.58	2103.87
585.93	2094.93
586.28	2086.52
586.63	2078.63
586.98	2071.11
587.34	2063.40
587.69	2054.74
588.04	2046.47
588.39	2038.85
588.74	2031.06
589.09	2022.95
589.44	2014.29
589.79	2006.33
590.14	1999.31
590.49	1991.86
590.84	1983.66
591.19	1976.36
591.54	1968.57
591.89	1959.56
592.25	1951.67
592.60	1943.07
592.95	1934.78
593.30	1926.45
593.65	1917.74
594.00	1908.87
594.35	1901.52
594.70	1893.40
595.05	1885.80
595.40	1878.01
595.75	1869.45
596.10	1861.88
596.45	1854.43
596.80	1847.35
597.15	1839.80
597.50	1831.54
597.85	1823.69
598.19	1816.26
598.54	1808.38
598.89	1801.17
599.24	1795.05
599.59	1787.99
599.94	1781.50
600.29	1774.43
600.64	1767.34
600.99	1759.92
601.34	1753.47
601.69	1745.51
602.04	1738.22
602.39	1730.78
602.74	1723.63
603.08	1717.87
603.43	1711.65
603.78	1704.14
604.13	1696.99
604.48	1689.62
604.83	1683.35
605.18	1677.09
605.53	1669.88
605.87	1662.71
606.22	1656.30
606.57	1649.08
606.92	1641.76
607.27	1634.16
607.62	1627.18
607.96	1620.67
608.31	1614.78
608.66	1607.42
609.01	1600.42
609.36	1593.40
609.70	1586.20
610.05	1578.96
610.40	1571.06
610.75	1562.90
611.10	1556.17
611.44	1547.62
611.79	1539.44
612.14	1530.66
612.49	1522.00
612.83	1514.16
613.18	1505.58
613.53	1496.88
613.88	1488.31
614.22	1480.25
614.57	1472.18
614.92	1463.93
615.27	1455.63
615.61	1447.05
615.96	1439.10
616.31	1431.56
616.65	1424.34
617.00	1417.20
617.35	1409.52
617.70	1401.69
618.04	1393.51
618.39	1384.83
618.74	1377.47
619.08	1369.64
619.43	1362.37
619.78	1355.24
620.12	1347.52
620.47	1340.37
620.82	1332.60
621.16	1325.13
621.51	1317.45
621.85	1309.77
622.20	1302.00
622.55	1294.37
622.89	1286.77
623.24	1279.59
623.59	1271.60
623.93	1263.45
624.28	1255.64
624.62	1248.23
624.97	1240.79
625.32	1233.79
625.66	1227.25
626.01	1220.69
626.35	1214.16
626.70	1207.28
627.04	1200.52
627.39	1193.92
627.73	1187.35
628.08	1181.26
628.43	1174.37
628.77	1167.59
629.12	1160.79
629.46	1154.86
629.81	1148.32
630.15	1141.63
630.50	1134.98
630.84	1128.31
631.19	1122.11
631.53	1116.00
631.88	1109.04
632.22	1102.19
632.57	1095.68
632.91	1088.72
633.26	1081.75
633.60	1075.13
633.95	1068.86
634.29	1062.06
634.64	1055.80
634.98	1049.17
635.32	1042.61
635.67	1036.65
636.01	1030.61
636.36	1024.39
636.70	1018.23
637.05	1012.34
637.39	1006.47
637.73	1000.75
638.08	995.54
638.42	989.82
638.77	983.77
639.11	978.05
639.45	972.45
639.80	966.55
640.14	960.77
640.49	954.84
640.83	949.29
641.17	943.39
641.52	937.87
641.86	932.07
642.20	926.43
642.55	920.28
642.89	914.31
643.23	908.34
643.58	902.76
643.92	896.74
644.26	890.80
644.61	885.20
644.95	879.27
645.29	873.27
645.64	867.29
645.98	861.29
646.32	855.91
646.66	850.28
647.01	844.76
647.35	839.44
647.69	833.81
648.04	828.29
648.38	822.54
648.72	816.94
649.06	811.14
649.41	805.37
649.75	800.05
650.09	794.90
650.43	789.65
650.78	784.02
651.12	778.46
651.46	773.12
651.80	767.69
652.14	762.20
652.49	756.85
652.83	751.65
653.17	746.35
653.51	740.98
653.85	735.72
654.20	730.47
654.54	724.90
654.88	719.99
655.22	714.65
655.56	709.55
655.90	704.25
656.25	699.06
656.59	694.28
656.93	689.45
657.27	684.60
657.61	679.56
657.95	675.05
658.29	670.41
658.64	665.71
658.98	660.85
659.32	656.05
659.66	651.22
660.00	646.15
660.34	641.30
660.68	636.36
661.02	631.80
661.36	627.30
661.70	623.06
662.05	618.59
662.39	614.32
662.73	610.18
663.07	606.23
663.41	602.36
663.75	598.04
664.09	593.76
664.43	589.22
664.77	585.18
665.11	580.98
665.45	576.82
665.79	572.73
666.13	568.77
666.47	564.91
666.81	561.09
667.15	557.39
667.49	553.84
667.83	550.38
668.17	546.81
668.51	543.25
668.85	539.76
669.19	536.53
669.53	532.97
669.87	529.28
670.21	525.64
670.55	521.91
670.89	518.78
671.23	515.59
671.57	512.65
671.91	509.43
672.25	506.22
672.58	503.08
672.92	499.96
673.26	497.06
673.60	494.01
673.94	491.01
674.28	488.21
674.62	485.28
674.96	482.40
675.30	479.50
675.64	476.60
675.97	473.61
676.31	470.71
676.65	468.09
676.99	465.75
677.33	463.05
677.67	460.56
678.01	457.65
678.34	454.86
678.68	452.12
679.02	449.39
679.36	446.78
679.70	444.22
680.04	441.57
680.37	438.82
680.71	436.29
681.05	433.85
681.39	431.34
681.73	428.82
682.06	426.41
682.40	423.95
682.74	421.54
683.08	419.28
683.42	416.87
683.75	414.46
684.09	412.02
684.43	409.84
684.77	407.40
685.10	405.11
685.44	402.78
685.78	400.55
686.12	398.44
686.45	396.22
686.79	394.13
687.13	392.18
687.46	390.24
687.80	388.20
688.14	386.10
688.48	384.03
688.81	382.04
689.15	380.02
689.49	378.08
689.82	376.16
690.16	373.96
690.50	371.94
690.83	369.91
691.17	367.83
691.51	365.79
691.84	363.93
692.18	362.07
692.52	360.38
692.85	358.58
693.19	356.87
693.52	355.16
693.86	353.28
694.20	351.47
694.53	349.70
694.87	347.91
695.21	346.12
695.54	344.39
695.88	342.60
696.21	340.87
696.55	339.26
696.88	337.65
697.22	336.14
697.56	334.66
697.89	333.20
698.23	331.67
698.56	330.09
698.90	328.73
699.23	327.30
699.57	325.66
699.90	324.13
700.24	322.54
700.58	321.13
700.91	319.81
701.25	318.50
701.58	317.09
701.92	315.79
702.25	314.52
702.59	313.25
702.92	312.04
703.26	310.84
703.59	309.55
703.93	308.46
704.26	307.25
704.60	306.03
704.93	304.85
705.26	303.75
705.60	302.79
705.93	301.55
706.27	300.44
706.60	299.60
706.94	298.67
707.27	297.52
707.61	296.34
707.94	295.23
708.27	294.04
708.61	293.00
708.94	291.93
709.28	290.91
709.61	289.90
709.94	288.97
710.28	287.93
710.61	286.97
710.95	285.82
711.28	285.10
711.61	284.15
711.95	283.20
712.28	282.22
712.61	281.23
712.95	280.46
713.28	279.69
713.61	278.71
713.95	277.84
714.28	277.15
714.61	276.40
714.95	275.64
715.28	274.85
715.61	273.99
715.95	273.25
716.28	272.40
716.61	271.58
716.95	270.69
717.28	270.04
717.61	269.34
717.94	268.62
718.28	267.75
718.61	267.01
718.94	266.32
719.27	265.71
719.61	265.09
719.94	264.40
720.27	263.63
720.60	263.00
720.94	262.35
721.27	261.63
721.60	261.05
721.93	260.41
722.27	259.99
722.60	259.59
722.93	259.05
723.26	258.49
723.59	257.99
723.93	257.49
724.26	256.86
724.59	256.27
724.92	255.75
725.25	255.24
725.59	254.77
725.92	254.38
726.25	253.95
726.58	253.49
726.91	252.98
727.24	252.49
727.57	252.02
727.91	251.51
728.24	251.10
728.57	250.62
728.90	250.25
729.23	249.70
729.56	249.25
729.89	248.78
730.22	248.39
730.55	248.00
730.89	247.64
731.22	247.34
731.55	246.93
731.88	246.52
732.21	246.15
732.54	245.66
732.87	245.16
733.20	244.60
733.53	244.19
733.86	243.74
734.19	243.37
734.52	243.05
734.85	242.81
735.18	242.42
735.51	242.10
735.84	241.70
736.17	241.30
736.50	240.87
736.83	240.75
737.16	240.43
737.49	240.12
737.82	239.74
738.15	239.33
738.48	238.98
738.81	238.72
739.14	238.33
739.47	237.97
739.80	237.68
740.13	237.41
740.46	237.10
740.79	236.79
741.12	236.46
741.45	236.11
741.78	235.75
742.11	235.54
742.44	235.13
742.77	234.91
743.10	234.66
743.43	234.26
743.75	233.76
744.08	233.72
744.41	233.36
744.74	233.08
745.07	232.83
745.40	232.65
745.73	232.49
746.06	232.25
746.39	232.15
746.71	231.93
747.04	231.68
747.37	231.38
747.70	231.16
748.03	230.90
748.36	230.69
748.68	230.50
749.01	230.18
749.34	230.10
749.67	229.85
750.00	229.63
750.33	229.63
750.65	229.47
750.98	229.00
751.31	228.84
751.64	228.67
751.97	228.49
752.29	228.26
752.62	227.91
752.95	227.66
753.28	227.43
753.60	227.22
753.93	227.06
754.26	226.90
754.59	226.70
754.91	226.53
755.24	226.35
755.57	226.22
755.90	226.09
756.22	225.88
756.55	225.69
756.88	225.45
757.20	225.18
757.53	224.91
757.86	224.75
758.19	224.48
758.51	224.31
758.84	224.07
759.17	223.79
759.49	223.60
759.82	223.58
760.15	223.35
760.47	223.15
760.80	222.91
761.13	222.79
761.45	222.61
761.78	222.45
762.11	222.30
762.43	222.11
762.76	221.97
763.08	221.83
763.41	221.68
763.74	221.59
764.06	221.45
764.39	221.39
764.71	221.26
765.04	221.20
765.37	221.08
765.69	221.00
766.02	220.97
766.34	220.92
766.67	220.72
767.00	220.63
767.32	220.63
767.65	220.60
767.97	220.47
768.30	220.39
768.62	220.30
768.95	220.22
769.27	220.03
769.60	219.90
769.92	219.75
770.25	219.64
770.57	219.49
770.90	219.39
771.22	219.25
771.55	219.09
771.87	218.99
772.20	218.85
772.52	218.91
772.85	219.01
773.17	218.89
773.50	218.77
773.82	218.73
774.15	218.54
774.47	218.47
774.80	218.32
775.12	218.25
775.45	218.18
775.77	217.99
776.09	217.91
776.42	217.82
776.74	217.83
777.07	217.78
777.39	217.72
777.72	217.57
778.04	217.60
778.36	217.57
778.69	217.52
779.01	217.50
779.33	217.27
779.66	217.03
779.98	216.93
780.31	216.88
780.63	216.81
780.95	216.79
781.28	216.65
781.60	216.64
781.92	216.51
782.25	216.50
782.57	216.49
782.89	216.46
783.22	216.36
783.54	216.27
783.86	216.25
784.19	216.17
784.51	216.19
784.83	216.00
785.16	215.98
785.48	215.92
785.80	215.87
786.12	215.76
786.45	215.66
786.77	215.67
