SpectraSuite Data File
++++++++++++++++++++++++++++++++++++
Date: Mon Feb 25 17:32:54 EST 2013
User: group
Dark Spectrum Present: No
Reference Spectrum Present: No
Number of Sampled Component Spectra: 1
Spectrometers: USB2E7196
Integration Time (usec): 52000 (USB2E7196)
Spectra Averaged: 20 (USB2E7196)
Boxcar Smoothing: 10 (USB2E7196)
Correct for Electrical Dark: No (USB2E7196)
Strobe/Lamp Enabled: No (USB2E7196)
Correct for Detector Non-linearity: No (USB2E7196)
Correct for Stray Light: No (USB2E7196)
Number of Pixels in Processed Spectrum: 2048
>>>>>Begin Processed Spectral Data<<<<<
339.09	0.00
339.48	199.10
339.86	199.70
340.24	201.75
340.63	203.15
341.01	207.20
341.39	206.40
341.78	208.75
342.16	208.20
342.54	208.05
342.93	198.05
343.31	208.03
343.69	208.60
344.07	209.15
344.46	209.59
344.84	210.02
345.22	210.18
345.60	210.46
345.99	210.58
346.37	210.70
346.75	210.85
347.13	210.94
347.52	211.04
347.90	211.23
348.28	211.30
348.66	211.36
349.05	211.35
349.43	211.45
349.81	211.56
350.19	211.60
350.57	211.63
350.96	211.65
351.34	211.76
351.72	211.77
352.10	211.82
352.48	211.87
352.87	211.93
353.25	212.04
353.63	212.05
354.01	212.07
354.39	212.10
354.77	212.13
355.15	212.27
355.54	212.30
355.92	212.23
356.30	212.34
356.68	212.56
357.06	212.61
357.44	212.61
357.82	212.67
358.20	212.87
358.58	212.91
358.97	212.98
359.35	213.05
359.73	213.20
360.11	213.26
360.49	213.37
360.87	213.36
361.25	213.45
361.63	213.57
362.01	213.67
362.39	213.74
362.77	213.77
363.15	213.71
363.53	213.76
363.91	213.91
364.29	213.86
364.67	213.67
365.05	213.72
365.43	213.79
365.81	213.82
366.19	213.86
366.57	213.95
366.95	214.00
367.33	214.00
367.71	213.94
368.09	213.97
368.47	213.96
368.85	213.96
369.23	214.00
369.61	213.88
369.99	213.93
370.37	213.97
370.75	214.09
371.13	214.07
371.51	214.00
371.89	213.92
372.27	213.95
372.65	213.93
373.03	213.89
373.41	213.89
373.78	213.83
374.16	213.70
374.54	213.59
374.92	213.46
375.30	213.48
375.68	213.36
376.06	213.31
376.44	213.25
376.82	213.25
377.19	213.18
377.57	213.19
377.95	213.10
378.33	213.06
378.71	212.97
379.09	212.97
379.47	213.03
379.84	212.98
380.22	212.93
380.60	212.85
380.98	212.78
381.36	212.72
381.73	212.65
382.11	212.63
382.49	212.63
382.87	212.62
383.25	212.57
383.62	212.81
384.00	212.75
384.38	212.64
384.76	212.61
385.13	212.58
385.51	212.46
385.89	212.41
386.27	212.36
386.64	212.28
387.02	212.23
387.40	212.12
387.78	212.11
388.15	212.08
388.53	212.12
388.91	212.11
389.29	212.04
389.66	212.03
390.04	211.98
390.42	211.97
390.79	211.96
391.17	211.89
391.55	211.65
391.92	211.61
392.30	211.63
392.68	211.64
393.05	211.66
393.43	211.63
393.81	211.60
394.18	211.55
394.56	211.59
394.94	211.59
395.31	211.52
395.69	211.51
396.06	211.55
396.44	211.53
396.82	211.48
397.19	211.56
397.57	211.59
397.95	211.67
398.32	211.65
398.70	211.68
399.07	211.75
399.45	211.83
399.82	211.85
400.20	211.89
400.58	211.88
400.95	211.85
401.33	211.93
401.70	212.15
402.08	212.21
402.45	212.26
402.83	212.34
403.20	212.40
403.58	212.47
403.95	212.57
404.33	212.65
404.71	212.75
405.08	212.88
405.46	213.01
405.83	213.10
406.21	213.22
406.58	213.36
406.96	213.50
407.33	213.64
407.70	213.85
408.08	214.24
408.45	214.41
408.83	214.67
409.20	214.97
409.58	215.07
409.95	215.40
410.33	215.71
410.70	216.02
411.08	216.41
411.45	216.81
411.82	217.14
412.20	217.64
412.57	218.20
412.95	218.55
413.32	219.10
413.69	219.65
414.07	220.21
414.44	220.82
414.82	221.45
415.19	222.12
415.56	222.84
415.94	223.50
416.31	224.43
416.68	225.25
417.06	226.29
417.43	227.29
417.81	228.35
418.18	229.43
418.55	230.65
418.93	231.93
419.30	233.22
419.67	234.57
420.04	235.95
420.42	237.41
420.79	239.21
421.16	240.82
421.54	242.65
421.91	244.52
422.28	246.45
422.66	248.52
423.03	250.63
423.40	252.80
423.77	255.00
424.15	257.17
424.52	259.55
424.89	261.99
425.26	264.44
425.64	266.72
426.01	269.30
426.38	272.03
426.75	274.83
427.13	277.62
427.50	280.61
427.87	283.62
428.24	286.66
428.61	289.56
428.99	292.91
429.36	296.32
429.73	299.72
430.10	303.14
430.47	306.75
430.85	310.34
431.22	314.20
431.59	318.35
431.96	322.32
432.33	326.55
432.70	330.79
433.08	335.73
433.45	340.33
433.82	344.96
434.19	349.94
434.56	354.96
434.93	359.76
435.30	364.45
435.68	369.66
436.05	374.89
436.42	380.00
436.79	384.60
437.16	389.66
437.53	394.97
437.90	400.29
438.27	405.38
438.64	410.79
439.01	415.63
439.38	419.92
439.75	424.10
440.13	429.03
440.50	433.57
440.87	437.15
441.24	440.96
441.61	445.14
441.98	448.16
442.35	451.73
442.72	455.41
443.09	459.01
443.46	461.14
443.83	462.55
444.20	463.74
444.57	465.48
444.94	466.31
445.31	467.13
445.68	467.85
446.05	468.02
446.42	467.31
446.79	466.54
447.16	465.77
447.53	465.29
447.90	463.17
448.27	461.05
448.64	458.24
449.01	456.31
449.37	452.69
449.74	449.31
450.11	445.19
450.48	440.65
450.85	435.93
451.22	432.01
451.59	428.22
451.96	424.68
452.33	419.97
452.70	415.65
453.07	410.56
453.43	405.42
453.80	400.42
454.17	395.67
454.54	391.23
454.91	386.47
455.28	381.69
455.65	377.30
456.02	373.03
456.38	369.38
456.75	364.70
457.12	360.92
457.49	357.07
457.86	353.29
458.23	350.06
458.59	346.72
458.96	343.22
459.33	340.22
459.70	337.05
460.07	334.57
460.43	331.66
460.80	328.95
461.17	326.59
461.54	324.12
461.91	321.75
462.27	319.42
462.64	317.35
463.01	315.15
463.38	312.98
463.74	310.72
464.11	308.83
464.48	307.13
464.85	305.31
465.21	303.99
465.58	302.51
465.95	300.87
466.32	299.40
466.68	298.04
467.05	296.62
467.42	295.33
467.78	293.88
468.15	292.49
468.52	291.53
468.88	290.14
469.25	289.12
469.62	288.22
469.98	287.13
470.35	286.18
470.72	285.28
471.08	284.43
471.45	283.70
471.82	282.96
472.18	282.15
472.55	281.64
472.92	280.87
473.28	280.26
473.65	279.64
474.02	279.13
474.38	278.64
474.75	278.16
475.11	277.69
475.48	277.45
475.85	277.31
476.21	276.95
476.58	276.93
476.94	276.71
477.31	276.65
477.67	276.71
478.04	276.78
478.41	276.95
478.77	277.19
479.14	277.27
479.50	277.50
479.87	277.93
480.23	278.29
480.60	278.69
480.96	279.15
481.33	279.84
481.69	280.51
482.06	281.15
482.42	281.85
482.79	282.59
483.15	283.39
483.52	284.34
483.88	285.36
484.25	286.34
484.61	287.47
484.98	288.64
485.34	289.93
485.71	291.21
486.07	292.57
486.44	293.93
486.80	295.52
487.17	297.09
487.53	298.77
487.90	300.45
488.26	302.52
488.62	304.49
488.99	306.35
489.35	308.45
489.72	310.77
490.08	313.12
490.44	315.60
490.81	318.23
491.17	320.91
491.54	323.92
491.90	326.89
492.26	330.13
492.63	333.42
492.99	336.91
493.36	340.60
493.72	344.37
494.08	348.36
494.45	352.63
494.81	357.03
495.17	361.62
495.54	366.56
495.90	371.50
496.26	376.63
496.63	382.12
496.99	387.98
497.35	394.02
497.72	400.33
498.08	406.89
498.44	413.69
498.80	420.87
499.17	428.12
499.53	435.80
499.89	443.70
500.26	451.83
500.62	460.08
500.98	468.96
501.34	478.08
501.71	487.37
502.07	496.99
502.43	507.01
502.79	517.27
503.16	527.88
503.52	538.71
503.88	550.15
504.24	561.73
504.60	573.44
504.97	585.66
505.33	598.18
505.69	611.33
506.05	624.83
506.41	638.31
506.78	652.07
507.14	666.23
507.50	680.77
507.86	695.69
508.22	711.03
508.59	726.53
508.95	742.65
509.31	759.04
509.67	775.64
510.03	792.79
510.39	810.17
510.75	827.90
511.12	845.90
511.48	864.11
511.84	882.79
512.20	901.44
512.56	920.50
512.92	939.86
513.28	959.34
513.64	979.18
514.00	999.19
514.37	1019.41
514.73	1040.05
515.09	1060.73
515.45	1081.40
515.81	1102.55
516.17	1123.79
516.53	1144.98
516.89	1166.80
517.25	1188.47
517.61	1209.90
517.97	1231.49
518.33	1253.03
518.69	1275.03
519.05	1297.05
519.41	1319.35
519.77	1342.07
520.13	1364.36
520.49	1386.43
520.85	1408.96
521.21	1431.37
521.57	1454.35
521.93	1476.55
522.29	1499.31
522.65	1522.01
523.01	1544.62
523.37	1566.66
523.73	1589.09
524.09	1611.50
524.45	1633.45
524.81	1655.89
525.17	1678.21
525.53	1700.89
525.89	1723.28
526.25	1745.29
526.61	1766.54
526.97	1788.13
527.33	1809.16
527.68	1830.37
528.04	1851.43
528.40	1871.90
528.76	1892.47
529.12	1912.82
529.48	1934.66
529.84	1954.87
530.20	1975.18
530.56	1995.71
530.91	2016.56
531.27	2036.93
531.63	2056.70
531.99	2076.66
532.35	2095.86
532.71	2115.03
533.07	2134.18
533.42	2152.43
533.78	2171.15
534.14	2189.72
534.50	2206.85
534.86	2224.94
535.21	2241.90
535.57	2259.75
535.93	2277.10
536.29	2293.91
536.65	2310.58
537.00	2325.88
537.36	2341.29
537.72	2356.55
538.08	2371.71
538.44	2386.83
538.79	2402.16
539.15	2417.31
539.51	2431.78
539.87	2446.74
540.22	2461.26
540.58	2475.68
540.94	2490.22
541.29	2503.05
541.65	2515.21
542.01	2528.51
542.37	2540.30
542.72	2552.58
543.08	2563.69
543.44	2575.77
543.79	2586.05
544.15	2596.28
544.51	2607.17
544.87	2618.18
545.22	2627.43
545.58	2635.88
545.94	2643.35
546.29	2649.58
546.65	2655.78
547.01	2662.01
547.36	2667.56
547.72	2673.20
548.07	2677.47
548.43	2681.45
548.79	2685.52
549.14	2690.32
549.50	2694.60
549.86	2698.82
550.21	2702.64
550.57	2706.66
550.92	2708.99
551.28	2711.95
551.64	2714.40
551.99	2716.82
552.35	2718.43
552.70	2721.04
553.06	2724.07
553.41	2726.85
553.77	2729.87
554.13	2732.12
554.48	2734.38
554.84	2736.05
555.19	2736.33
555.55	2737.01
555.90	2737.73
556.26	2738.04
556.61	2737.93
556.97	2736.45
557.32	2736.05
557.68	2734.80
558.03	2733.38
558.39	2731.55
558.74	2730.54
559.10	2729.59
559.45	2727.72
559.81	2726.68
560.16	2724.07
560.52	2721.28
560.87	2718.41
561.23	2714.22
561.58	2711.83
561.94	2708.15
562.29	2704.57
562.64	2702.47
563.00	2699.76
563.35	2696.96
563.71	2695.39
564.06	2693.48
564.42	2691.74
564.77	2688.95
565.12	2686.82
565.48	2683.49
565.83	2680.71
566.19	2677.86
566.54	2673.47
566.89	2669.40
567.25	2665.51
567.60	2662.33
567.96	2658.55
568.31	2654.83
568.66	2651.36
569.02	2646.79
569.37	2641.69
569.72	2637.55
570.08	2632.08
570.43	2626.52
570.78	2621.17
571.14	2614.58
571.49	2607.92
571.84	2602.19
572.20	2595.26
572.55	2588.72
572.90	2582.08
573.26	2575.09
573.61	2567.93
573.96	2561.34
574.31	2553.99
574.67	2545.77
575.02	2537.22
575.37	2528.91
575.72	2519.96
576.08	2512.54
576.43	2503.86
576.78	2496.06
577.13	2488.27
577.49	2480.33
577.84	2472.40
578.19	2464.56
578.54	2457.53
578.90	2450.42
579.25	2441.63
579.60	2432.72
579.95	2423.62
580.30	2415.56
580.66	2407.54
581.01	2398.33
581.36	2389.35
581.71	2380.72
582.06	2372.18
582.42	2364.07
582.77	2354.89
583.12	2346.06
583.47	2337.34
583.82	2328.94
584.17	2319.78
584.53	2310.85
584.88	2301.86
585.23	2293.09
585.58	2283.92
585.93	2274.07
586.28	2264.69
586.63	2256.04
586.98	2247.58
587.34	2239.20
587.69	2230.15
588.04	2221.02
588.39	2212.88
588.74	2203.84
589.09	2195.08
589.44	2185.42
589.79	2176.87
590.14	2169.20
590.49	2161.26
590.84	2151.93
591.19	2143.81
591.54	2135.34
591.89	2125.04
592.25	2115.85
592.60	2106.13
592.95	2096.60
593.30	2087.09
593.65	2077.47
594.00	2067.58
594.35	2059.24
594.70	2050.01
595.05	2040.98
595.40	2031.97
595.75	2022.29
596.10	2014.10
596.45	2005.67
596.80	1998.27
597.15	1990.06
597.50	1980.76
597.85	1972.12
598.19	1963.80
598.54	1954.99
598.89	1947.22
599.24	1940.37
599.59	1933.01
599.94	1925.94
600.29	1918.26
600.64	1910.40
600.99	1902.24
601.34	1895.19
601.69	1886.87
602.04	1878.60
602.39	1870.85
602.74	1863.45
603.08	1856.94
603.43	1849.55
603.78	1841.56
604.13	1833.39
604.48	1825.44
604.83	1818.65
605.18	1811.51
605.53	1803.73
605.87	1796.06
606.22	1788.75
606.57	1780.64
606.92	1772.59
607.27	1764.63
607.62	1757.39
607.96	1750.55
608.31	1744.35
608.66	1736.40
609.01	1728.64
609.36	1721.00
609.70	1713.20
610.05	1705.34
610.40	1697.19
610.75	1688.85
611.10	1681.26
611.44	1672.18
611.79	1662.91
612.14	1653.35
612.49	1643.61
612.83	1634.91
613.18	1625.41
613.53	1615.91
613.88	1606.33
614.22	1597.32
614.57	1588.08
614.92	1578.66
615.27	1569.41
615.61	1559.20
615.96	1550.05
616.31	1541.61
616.65	1533.87
617.00	1525.26
617.35	1516.37
617.70	1507.14
618.04	1497.95
618.39	1488.54
618.74	1480.00
619.08	1471.30
619.43	1463.17
619.78	1455.48
620.12	1447.35
620.47	1439.80
620.82	1431.35
621.16	1423.24
621.51	1414.92
621.85	1406.78
622.20	1398.25
622.55	1389.72
622.89	1381.80
623.24	1374.10
623.59	1365.56
623.93	1356.75
624.28	1348.55
624.62	1340.52
624.97	1332.41
625.32	1324.85
625.66	1317.49
626.01	1310.37
626.35	1303.46
626.70	1295.87
627.04	1288.58
627.39	1280.78
627.73	1273.02
628.08	1266.05
628.43	1258.53
628.77	1251.12
629.12	1243.73
629.46	1237.10
629.81	1229.86
630.15	1222.42
630.50	1214.96
630.84	1207.65
631.19	1200.33
631.53	1193.42
631.88	1185.94
632.22	1178.49
632.57	1171.47
632.91	1164.09
633.26	1156.76
633.60	1149.71
633.95	1142.93
634.29	1135.29
634.64	1128.95
634.98	1121.90
635.32	1114.70
635.67	1108.43
636.01	1101.91
636.36	1095.17
636.70	1088.51
637.05	1082.03
637.39	1075.64
637.73	1069.34
638.08	1063.60
638.42	1057.98
638.77	1051.40
639.11	1045.03
639.45	1039.05
639.80	1032.30
640.14	1025.79
640.49	1019.46
640.83	1012.83
641.17	1006.36
641.52	1000.48
641.86	993.74
642.20	987.70
642.55	981.17
642.89	974.81
643.23	968.42
643.58	962.50
643.92	956.05
644.26	949.75
644.61	943.83
644.95	937.50
645.29	930.97
645.64	924.30
645.98	918.18
646.32	912.31
646.66	906.15
647.01	900.19
647.35	894.36
647.69	888.12
648.04	882.19
648.38	876.25
648.72	870.38
649.06	864.42
649.41	858.33
649.75	852.46
650.09	846.55
650.43	840.60
650.78	834.40
651.12	828.32
651.46	822.56
651.80	816.53
652.14	810.63
652.49	804.83
652.83	799.08
653.17	792.98
653.51	787.08
653.85	781.43
654.20	775.76
654.54	769.95
654.88	764.44
655.22	758.58
655.56	752.70
655.90	746.65
656.25	741.00
656.59	735.43
656.93	730.40
657.27	725.18
657.61	719.71
657.95	714.48
658.29	709.26
658.64	704.04
658.98	698.89
659.32	693.55
659.66	688.45
660.00	683.06
660.34	678.05
660.68	672.90
661.02	667.80
661.36	662.93
661.70	658.25
662.05	653.57
662.39	649.18
662.73	644.83
663.07	640.55
663.41	636.03
663.75	631.52
664.09	626.75
664.43	622.00
664.77	617.67
665.11	613.29
665.45	609.02
665.79	604.63
666.13	600.18
666.47	596.10
666.81	591.80
667.15	587.75
667.49	583.96
667.83	580.05
668.17	576.27
668.51	572.56
668.85	568.67
669.19	564.82
669.53	560.79
669.87	556.81
670.21	552.92
670.55	549.16
670.89	545.74
671.23	542.40
671.57	539.07
671.91	535.44
672.25	531.89
672.58	528.41
672.92	525.02
673.26	521.92
673.60	518.64
673.94	515.30
674.28	512.08
674.62	508.86
674.96	505.69
675.30	502.49
675.64	499.15
675.97	495.91
676.31	492.99
676.65	490.24
676.99	487.56
677.33	484.66
677.67	481.83
678.01	478.75
678.34	475.69
678.68	472.72
679.02	469.78
679.36	467.00
679.70	464.05
680.04	461.14
680.37	458.10
680.71	455.27
681.05	452.71
681.39	449.97
681.73	447.17
682.06	444.73
682.40	442.24
682.74	439.82
683.08	437.37
683.42	434.65
683.75	432.02
684.09	429.27
684.43	426.76
684.77	424.12
685.10	421.56
685.44	419.04
685.78	416.45
686.12	414.37
686.45	411.91
686.79	409.71
687.13	407.52
687.46	405.47
687.80	403.34
688.14	401.01
688.48	398.94
688.81	396.78
689.15	394.52
689.49	392.31
689.82	390.00
690.16	387.68
690.50	385.50
690.83	383.28
691.17	381.09
691.51	378.77
691.84	376.74
692.18	374.68
692.52	372.83
692.85	371.09
693.19	369.04
693.52	367.25
693.86	365.21
694.20	363.39
694.53	361.40
694.87	359.48
695.21	357.57
695.54	355.61
695.88	353.75
696.21	351.88
696.55	350.02
696.88	348.33
697.22	346.64
697.56	345.10
697.89	343.38
698.23	341.80
698.56	340.35
698.90	338.84
699.23	337.33
699.57	335.79
699.90	334.09
700.24	332.40
700.58	330.74
700.91	329.35
701.25	327.80
701.58	326.43
701.92	325.00
702.25	323.63
702.59	322.26
702.92	320.86
703.26	319.45
703.59	318.18
703.93	317.00
704.26	315.65
704.60	314.38
704.93	313.24
705.26	311.94
705.60	310.73
705.93	309.42
706.27	308.25
706.60	307.02
706.94	305.94
707.27	304.85
707.61	303.65
707.94	302.50
708.27	301.30
708.61	300.09
708.94	298.91
709.28	297.78
709.61	296.69
709.94	295.62
710.28	294.56
710.61	293.48
710.95	292.30
711.28	291.42
711.61	290.33
711.95	289.38
712.28	288.37
712.61	287.31
712.95	286.46
713.28	285.58
713.61	284.58
713.95	283.55
714.28	282.57
714.61	281.62
714.95	280.75
715.28	279.83
715.61	278.95
715.95	278.11
716.28	277.17
716.61	276.36
716.95	275.48
717.28	274.66
717.61	273.90
717.94	273.17
718.28	272.27
718.61	271.52
718.94	270.70
719.27	269.97
719.61	269.37
719.94	268.59
720.27	267.78
720.60	267.07
720.94	266.41
721.27	265.75
721.60	265.23
721.93	264.55
722.27	264.05
722.60	263.37
722.93	262.71
723.26	262.16
723.59	261.45
723.93	260.93
724.26	260.39
724.59	259.77
724.92	259.15
725.25	258.63
725.59	258.09
725.92	257.52
726.25	257.03
726.58	256.43
726.91	255.93
727.24	255.40
727.57	254.92
727.91	254.42
728.24	253.99
728.57	253.45
728.90	252.95
729.23	252.45
729.56	252.19
729.89	251.68
730.22	251.24
730.55	250.76
730.89	250.31
731.22	249.78
731.55	249.37
731.88	248.90
732.21	248.46
732.54	247.96
732.87	247.57
733.20	247.14
733.53	246.73
733.86	246.36
734.19	245.90
734.52	245.45
734.85	245.23
735.18	244.79
735.51	244.47
735.84	244.13
736.17	243.77
736.50	243.22
736.83	243.13
737.16	242.77
737.49	242.52
737.82	242.13
738.15	241.79
738.48	241.41
738.81	241.07
739.14	240.66
739.47	240.28
739.80	239.97
740.13	239.71
740.46	239.36
740.79	238.90
741.12	238.54
741.45	238.35
741.78	237.96
742.11	237.75
742.44	237.45
742.77	237.21
743.10	236.85
743.43	236.62
743.75	236.08
744.08	235.97
744.41	235.64
744.74	235.35
745.07	235.07
745.40	234.87
745.73	234.75
746.06	234.60
746.39	234.36
746.71	234.03
747.04	233.68
747.37	233.43
747.70	233.23
748.03	233.02
748.36	232.67
748.68	232.33
749.01	231.99
749.34	231.71
749.67	231.41
750.00	231.24
750.33	231.11
750.65	230.91
750.98	230.56
751.31	230.31
751.64	230.06
751.97	229.98
752.29	229.71
752.62	229.40
752.95	229.10
753.28	228.91
753.60	228.71
753.93	228.54
754.26	228.30
754.59	228.03
754.91	227.73
755.24	227.53
755.57	227.37
755.90	227.22
756.22	227.02
756.55	226.82
756.88	226.50
757.20	226.18
757.53	225.92
757.86	225.66
758.19	225.56
758.51	225.34
758.84	225.03
759.17	224.82
759.49	224.64
759.82	224.54
760.15	224.43
760.47	224.25
760.80	223.99
761.13	223.87
761.45	223.75
761.78	223.74
762.11	223.68
762.43	223.55
762.76	223.41
763.08	223.30
763.41	223.12
763.74	223.03
764.06	222.84
764.39	222.68
764.71	222.57
765.04	222.37
765.37	222.31
765.69	222.20
766.02	222.08
766.34	221.89
766.67	221.65
767.00	221.45
767.32	221.45
767.65	221.44
767.97	221.25
768.30	221.17
768.62	221.01
768.95	220.78
769.27	220.70
769.60	220.55
769.92	220.35
770.25	220.22
770.57	220.13
770.90	220.07
771.22	219.97
771.55	219.85
771.87	219.76
772.20	219.64
772.52	219.63
772.85	219.76
773.17	219.68
773.50	219.61
773.82	219.53
774.15	219.33
774.47	219.15
774.80	219.08
775.12	218.92
775.45	218.85
775.77	218.79
776.09	218.67
776.42	218.59
776.74	218.59
777.07	218.54
777.39	218.39
777.72	218.25
778.04	218.24
778.36	218.19
778.69	218.10
779.01	218.03
779.33	217.84
779.66	217.59
779.98	217.47
780.31	217.40
780.63	217.35
780.95	217.35
781.28	217.32
781.60	217.25
781.92	217.18
782.25	217.10
782.57	216.99
782.89	216.85
783.22	216.79
783.54	216.70
783.86	216.58
784.19	216.60
784.51	216.69
784.83	216.59
785.16	216.57
785.48	216.48
785.80	216.39
786.12	216.38
786.45	216.25
