SpectraSuite Data File
++++++++++++++++++++++++++++++++++++
Date: Mon Feb 25 17:34:11 EST 2013
User: group
Dark Spectrum Present: No
Reference Spectrum Present: No
Number of Sampled Component Spectra: 1
Spectrometers: USB2E7196
Integration Time (usec): 52000 (USB2E7196)
Spectra Averaged: 20 (USB2E7196)
Boxcar Smoothing: 10 (USB2E7196)
Correct for Electrical Dark: No (USB2E7196)
Strobe/Lamp Enabled: No (USB2E7196)
Correct for Detector Non-linearity: No (USB2E7196)
Correct for Stray Light: No (USB2E7196)
Number of Pixels in Processed Spectrum: 2048
>>>>>Begin Processed Spectral Data<<<<<
339.09	0.00
339.48	199.60
339.86	200.10
340.24	201.75
340.63	203.55
341.01	207.65
341.39	204.90
341.78	207.30
342.16	209.45
342.54	208.90
342.93	198.46
343.31	208.46
343.69	209.00
344.07	209.52
344.46	209.95
344.84	210.37
345.22	210.55
345.60	210.86
345.99	211.06
346.37	211.18
346.75	211.29
347.13	211.34
347.52	211.42
347.90	211.54
348.28	211.59
348.66	211.69
349.05	211.64
349.43	211.65
349.81	211.71
350.19	211.70
350.57	211.75
350.96	211.82
351.34	211.90
351.72	211.99
352.10	212.04
352.48	212.13
352.87	212.11
353.25	212.15
353.63	212.20
354.01	212.18
354.39	212.19
354.77	212.25
355.15	212.35
355.54	212.36
355.92	212.33
356.30	212.42
356.68	212.50
357.06	212.58
357.44	212.67
357.82	212.70
358.20	212.83
358.58	212.85
358.97	212.92
359.35	213.03
359.73	213.07
360.11	213.10
360.49	213.17
360.87	213.23
361.25	213.34
361.63	213.43
362.01	213.52
362.39	213.55
362.77	213.56
363.15	213.56
363.53	213.62
363.91	213.61
364.29	213.55
364.67	213.43
365.05	213.36
365.43	213.38
365.81	213.34
366.19	213.34
366.57	213.41
366.95	213.37
367.33	213.33
367.71	213.29
368.09	213.34
368.47	213.30
368.85	213.28
369.23	213.17
369.61	213.08
369.99	213.14
370.37	213.17
370.75	213.31
371.13	213.20
371.51	213.11
371.89	213.11
372.27	213.08
372.65	213.03
373.03	213.04
373.41	213.01
373.78	212.96
374.16	212.84
374.54	212.70
374.92	212.65
375.30	212.61
375.68	212.53
376.06	212.50
376.44	212.42
376.82	212.36
377.19	212.36
377.57	212.38
377.95	212.22
378.33	212.18
378.71	211.97
379.09	212.00
379.47	211.99
379.84	211.89
380.22	211.84
380.60	211.80
380.98	211.73
381.36	211.64
381.73	211.63
382.11	211.67
382.49	211.67
382.87	211.61
383.25	211.50
383.62	211.71
384.00	211.59
384.38	211.60
384.76	211.58
385.13	211.66
385.51	211.56
385.89	211.51
386.27	211.50
386.64	211.58
387.02	211.51
387.40	211.46
387.78	211.52
388.15	211.56
388.53	211.53
388.91	211.59
389.29	211.58
389.66	211.60
390.04	211.51
390.42	211.56
390.79	211.58
391.17	211.59
391.55	211.36
391.92	211.42
392.30	211.37
392.68	211.35
393.05	211.29
393.43	211.30
393.81	211.37
394.18	211.27
394.56	211.21
394.94	211.27
395.31	211.34
395.69	211.40
396.06	211.36
396.44	211.44
396.82	211.41
397.19	211.58
397.57	211.54
397.95	211.64
398.32	211.62
398.70	211.69
399.07	211.75
399.45	211.80
399.82	211.81
400.20	211.86
400.58	211.95
400.95	211.93
401.33	211.98
401.70	212.14
402.08	212.22
402.45	212.33
402.83	212.37
403.20	212.40
403.58	212.40
403.95	212.55
404.33	212.59
404.71	212.68
405.08	212.82
405.46	212.97
405.83	213.12
406.21	213.26
406.58	213.40
406.96	213.60
407.33	213.80
407.70	214.01
408.08	214.42
408.45	214.62
408.83	214.88
409.20	215.13
409.58	215.25
409.95	215.55
410.33	215.84
410.70	216.16
411.08	216.48
411.45	216.82
411.82	217.20
412.20	217.70
412.57	218.28
412.95	218.63
413.32	219.13
413.69	219.60
414.07	220.15
414.44	220.69
414.82	221.33
415.19	222.05
415.56	222.73
415.94	223.37
416.31	224.30
416.68	225.19
417.06	226.22
417.43	227.23
417.81	228.33
418.18	229.44
418.55	230.62
418.93	231.94
419.30	233.28
419.67	234.61
420.04	236.05
420.42	237.42
420.79	239.22
421.16	240.98
421.54	242.79
421.91	244.65
422.28	246.64
422.66	248.66
423.03	250.70
423.40	252.86
423.77	255.08
424.15	257.24
424.52	259.60
424.89	262.20
425.26	264.69
425.64	267.05
426.01	269.65
426.38	272.38
426.75	275.15
427.13	278.06
427.50	281.15
427.87	284.24
428.24	287.52
428.61	290.37
428.99	293.63
429.36	297.10
429.73	300.59
430.10	304.02
430.47	307.66
430.85	311.43
431.22	315.38
431.59	319.59
431.96	323.52
432.33	327.95
432.70	332.13
433.08	337.17
433.45	341.77
433.82	346.50
434.19	351.71
434.56	356.69
434.93	361.44
435.30	366.17
435.68	371.42
436.05	376.58
436.42	381.85
436.79	386.54
437.16	391.75
437.53	397.13
437.90	402.46
438.27	407.72
438.64	412.93
439.01	417.79
439.38	422.17
439.75	426.55
440.13	431.32
440.50	435.98
440.87	439.58
441.24	443.54
441.61	447.65
441.98	450.70
442.35	454.24
442.72	457.88
443.09	461.35
443.46	463.43
443.83	464.77
444.20	465.94
444.57	467.83
444.94	468.53
445.31	469.32
445.68	470.13
446.05	470.33
446.42	469.63
446.79	468.91
447.16	468.03
447.53	467.42
447.90	465.25
448.27	463.12
448.64	460.22
449.01	458.10
449.37	454.57
449.74	450.88
450.11	446.85
450.48	442.40
450.85	437.81
451.22	433.82
451.59	430.04
451.96	426.51
452.33	421.63
452.70	417.31
453.07	412.15
453.43	406.81
453.80	401.77
454.17	397.16
454.54	392.56
454.91	387.80
455.28	383.01
455.65	378.61
456.02	374.12
456.38	370.42
456.75	365.78
457.12	361.89
457.49	358.09
457.86	354.28
458.23	351.12
458.59	347.59
458.96	344.06
459.33	340.94
459.70	337.63
460.07	335.14
460.43	332.19
460.80	329.50
461.17	327.17
461.54	324.71
461.91	322.21
462.27	319.87
462.64	317.73
463.01	315.58
463.38	313.56
463.74	311.42
464.11	309.47
464.48	307.74
464.85	305.91
465.21	304.66
465.58	303.31
465.95	301.51
466.32	300.09
466.68	298.55
467.05	297.08
467.42	295.76
467.78	294.27
468.15	292.97
468.52	291.93
468.88	290.58
469.25	289.41
469.62	288.59
469.98	287.59
470.35	286.72
470.72	285.75
471.08	284.72
471.45	283.88
471.82	283.11
472.18	282.25
472.55	281.72
472.92	280.92
473.28	280.22
473.65	279.56
474.02	278.98
474.38	278.64
474.75	278.38
475.11	277.86
475.48	277.56
475.85	277.31
476.21	277.06
476.58	276.98
476.94	276.85
477.31	276.73
477.67	276.69
478.04	276.74
478.41	276.87
478.77	277.17
479.14	277.30
479.50	277.53
479.87	278.00
480.23	278.28
480.60	278.64
480.96	279.03
481.33	279.75
481.69	280.46
482.06	281.19
482.42	281.71
482.79	282.50
483.15	283.40
483.52	284.40
483.88	285.40
484.25	286.43
484.61	287.51
484.98	288.60
485.34	289.83
485.71	291.17
486.07	292.56
486.44	293.90
486.80	295.44
487.17	297.07
487.53	298.73
487.90	300.51
488.26	302.54
488.62	304.69
488.99	306.64
489.35	308.77
489.72	311.00
490.08	313.38
490.44	315.91
490.81	318.46
491.17	321.07
491.54	323.91
491.90	326.92
492.26	330.07
492.63	333.44
492.99	336.91
493.36	340.45
493.72	344.34
494.08	348.47
494.45	352.76
494.81	357.30
495.17	361.87
495.54	366.93
495.90	371.94
496.26	377.04
496.63	382.59
496.99	388.31
497.35	394.38
497.72	400.75
498.08	407.31
498.44	414.03
498.80	421.09
499.17	428.56
499.53	436.18
499.89	444.26
500.26	452.22
500.62	460.64
500.98	469.52
501.34	478.64
501.71	487.94
502.07	497.53
502.43	507.42
502.79	517.63
503.16	528.12
503.52	539.12
503.88	550.45
504.24	562.15
504.60	573.99
504.97	586.25
505.33	598.90
505.69	612.11
506.05	625.75
506.41	639.57
506.78	653.37
507.14	667.30
507.50	682.02
507.86	697.09
508.22	712.51
508.59	727.88
508.95	743.84
509.31	760.08
509.67	776.92
510.03	793.99
510.39	811.53
510.75	829.41
511.12	847.60
511.48	866.05
511.84	884.45
512.20	903.21
512.56	922.60
512.92	942.00
513.28	961.56
513.64	981.00
514.00	1000.81
514.37	1021.18
514.73	1042.17
515.09	1062.63
515.45	1083.74
515.81	1105.03
516.17	1126.61
516.53	1147.93
516.89	1169.68
517.25	1191.50
517.61	1213.24
517.97	1234.78
518.33	1256.25
518.69	1278.14
519.05	1300.27
519.41	1322.70
519.77	1345.44
520.13	1367.67
520.49	1390.00
520.85	1412.75
521.21	1435.53
521.57	1458.76
521.93	1480.91
522.29	1503.89
522.65	1526.63
523.01	1549.12
523.37	1571.19
523.73	1593.34
524.09	1615.83
524.45	1638.00
524.81	1660.13
525.17	1682.64
525.53	1705.34
525.89	1727.56
526.25	1749.53
526.61	1771.02
526.97	1792.69
527.33	1814.06
527.68	1835.40
528.04	1856.70
528.40	1876.92
528.76	1897.94
529.12	1918.51
529.48	1940.39
529.84	1960.84
530.20	1981.43
530.56	2002.09
530.91	2023.29
531.27	2043.85
531.63	2063.89
531.99	2084.17
532.35	2103.62
532.71	2122.91
533.07	2142.35
533.42	2161.41
533.78	2180.29
534.14	2199.04
534.50	2216.45
534.86	2234.66
535.21	2251.50
535.57	2269.23
535.93	2287.28
536.29	2304.19
536.65	2321.18
537.00	2336.75
537.36	2352.29
537.72	2367.76
538.08	2382.71
538.44	2398.01
538.79	2413.52
539.15	2428.87
539.51	2443.50
539.87	2458.95
540.22	2473.48
540.58	2488.58
540.94	2503.03
541.29	2516.29
541.65	2528.38
542.01	2541.80
542.37	2553.64
542.72	2566.06
543.08	2577.36
543.44	2589.10
543.79	2599.24
544.15	2609.63
544.51	2620.63
544.87	2632.02
545.22	2641.45
545.58	2650.55
545.94	2657.70
546.29	2664.74
546.65	2670.82
547.01	2677.10
547.36	2682.86
547.72	2688.38
548.07	2692.64
548.43	2696.79
548.79	2700.38
549.14	2705.41
549.50	2709.40
549.86	2713.71
550.21	2718.19
550.57	2722.52
550.92	2725.33
551.28	2728.12
551.64	2730.52
551.99	2733.26
552.35	2734.39
552.70	2737.06
553.06	2740.03
553.41	2743.48
553.77	2746.29
554.13	2748.79
554.48	2750.70
554.84	2752.09
555.19	2752.75
555.55	2752.94
555.90	2753.20
556.26	2754.28
556.61	2754.69
556.97	2753.73
557.32	2753.25
557.68	2751.21
558.03	2749.59
558.39	2748.04
558.74	2747.98
559.10	2747.08
559.45	2744.93
559.81	2744.03
560.16	2741.31
560.52	2738.66
560.87	2735.51
561.23	2731.64
561.58	2729.35
561.94	2726.28
562.29	2722.55
562.64	2720.49
563.00	2718.36
563.35	2716.19
563.71	2714.45
564.06	2712.08
564.42	2710.52
564.77	2708.13
565.12	2706.83
565.48	2703.95
565.83	2701.00
566.19	2697.68
566.54	2693.20
566.89	2689.40
567.25	2685.60
567.60	2682.41
567.96	2678.74
568.31	2675.43
568.66	2671.81
569.02	2667.15
569.37	2662.00
569.72	2658.35
570.08	2652.80
570.43	2647.23
570.78	2641.65
571.14	2635.25
571.49	2628.45
571.84	2622.80
572.20	2615.68
572.55	2608.82
572.90	2601.63
573.26	2594.67
573.61	2587.75
573.96	2581.33
574.31	2573.73
574.67	2565.47
575.02	2556.99
575.37	2548.42
575.72	2539.26
576.08	2531.34
576.43	2522.30
576.78	2514.75
577.13	2506.54
577.49	2498.56
577.84	2490.80
578.19	2483.34
578.54	2475.79
578.90	2469.09
579.25	2459.75
579.60	2450.67
579.95	2441.33
580.30	2433.52
580.66	2425.27
581.01	2415.91
581.36	2406.60
581.71	2398.19
582.06	2389.59
582.42	2381.73
582.77	2372.54
583.12	2363.70
583.47	2355.20
583.82	2347.06
584.17	2337.63
584.53	2328.23
584.88	2319.29
585.23	2309.85
585.58	2299.98
585.93	2290.08
586.28	2280.17
586.63	2271.46
586.98	2263.50
587.34	2255.27
587.69	2245.89
588.04	2236.43
588.39	2228.38
588.74	2219.49
589.09	2210.50
589.44	2201.11
589.79	2192.41
590.14	2184.43
590.49	2175.85
590.84	2166.60
591.19	2158.36
591.54	2149.71
591.89	2139.54
592.25	2130.39
592.60	2121.02
592.95	2111.66
593.30	2102.23
593.65	2092.76
594.00	2082.84
594.35	2074.56
594.70	2065.22
595.05	2056.18
595.40	2047.53
595.75	2037.37
596.10	2028.99
596.45	2020.28
596.80	2012.42
597.15	2003.72
597.50	1994.35
597.85	1985.56
598.19	1976.70
598.54	1968.04
598.89	1959.92
599.24	1953.25
599.59	1945.83
599.94	1938.68
600.29	1930.85
600.64	1923.02
600.99	1914.35
601.34	1907.26
601.69	1898.10
602.04	1889.75
602.39	1881.85
602.74	1873.81
603.08	1867.27
603.43	1859.94
603.78	1851.95
604.13	1843.90
604.48	1835.83
604.83	1829.15
605.18	1822.42
605.53	1815.07
605.87	1807.41
606.22	1800.17
606.57	1792.55
606.92	1784.11
607.27	1775.85
607.62	1768.30
607.96	1761.36
608.31	1755.27
608.66	1747.39
609.01	1739.76
609.36	1732.06
609.70	1724.12
610.05	1716.29
610.40	1708.06
610.75	1699.49
611.10	1691.78
611.44	1682.60
611.79	1673.65
612.14	1664.05
612.49	1654.24
612.83	1645.34
613.18	1635.46
613.53	1626.05
613.88	1615.87
614.22	1607.11
614.57	1597.63
614.92	1588.16
615.27	1578.61
615.61	1568.46
615.96	1559.16
616.31	1550.87
616.65	1543.03
617.00	1534.54
617.35	1525.92
617.70	1517.10
618.04	1508.08
618.39	1498.44
618.74	1490.05
619.08	1481.34
619.43	1473.02
619.78	1465.31
620.12	1457.24
620.47	1449.74
620.82	1441.28
621.16	1433.17
621.51	1424.52
621.85	1416.21
622.20	1407.97
622.55	1399.52
622.89	1391.28
623.24	1383.45
623.59	1374.41
623.93	1365.60
624.28	1357.27
624.62	1348.91
624.97	1340.48
625.32	1332.60
625.66	1325.49
626.01	1318.01
626.35	1310.39
626.70	1302.66
627.04	1294.91
627.39	1287.21
627.73	1279.32
628.08	1272.47
628.43	1265.00
628.77	1257.60
629.12	1250.25
629.46	1243.53
629.81	1236.27
630.15	1228.94
630.50	1221.22
630.84	1214.08
631.19	1206.83
631.53	1199.82
631.88	1192.17
632.22	1184.45
632.57	1177.37
632.91	1169.66
633.26	1161.98
633.60	1155.07
633.95	1148.28
634.29	1140.94
634.64	1134.13
634.98	1127.15
635.32	1119.85
635.67	1113.58
636.01	1106.98
636.36	1100.21
636.70	1093.38
637.05	1086.84
637.39	1080.68
637.73	1074.61
638.08	1068.74
638.42	1062.65
638.77	1056.35
639.11	1050.19
639.45	1044.35
639.80	1037.75
640.14	1031.57
640.49	1025.48
640.83	1019.42
641.17	1012.94
641.52	1007.05
641.86	1000.37
642.20	994.11
642.55	987.20
642.89	980.50
643.23	973.99
643.58	968.12
643.92	961.68
644.26	955.30
644.61	948.92
644.95	942.91
645.29	936.58
645.64	930.18
645.98	923.82
646.32	918.04
646.66	911.79
647.01	905.71
647.35	899.84
647.69	893.58
648.04	887.17
648.38	881.25
648.72	875.07
649.06	868.96
649.41	862.95
649.75	857.23
650.09	851.37
650.43	845.52
650.78	839.17
651.12	833.15
651.46	827.36
651.80	821.47
652.14	815.36
652.49	809.23
652.83	803.30
653.17	797.07
653.51	790.98
653.85	785.22
654.20	779.52
654.54	773.52
654.88	767.84
655.22	762.26
655.56	756.47
655.90	750.45
656.25	744.81
656.59	739.21
656.93	733.96
657.27	728.78
657.61	723.12
657.95	718.17
658.29	712.94
658.64	707.78
658.98	702.55
659.32	697.03
659.66	691.86
660.00	686.49
660.34	681.44
660.68	676.19
661.02	671.00
661.36	666.15
661.70	661.33
662.05	656.70
662.39	652.17
662.73	647.62
663.07	643.42
663.41	638.89
663.75	634.30
664.09	629.63
664.43	624.90
664.77	620.72
665.11	616.04
665.45	611.73
665.79	607.18
666.13	602.71
666.47	598.69
666.81	594.54
667.15	590.48
667.49	586.53
667.83	582.75
668.17	578.92
668.51	575.04
668.85	571.18
669.19	567.32
669.53	563.28
669.87	559.23
670.21	555.27
670.55	551.53
670.89	548.09
671.23	544.65
671.57	541.17
671.91	537.43
672.25	533.90
672.58	530.33
672.92	526.91
673.26	523.70
673.60	520.40
673.94	517.04
674.28	513.75
674.62	510.60
674.96	507.32
675.30	504.28
675.64	500.86
675.97	497.69
676.31	494.72
676.65	491.83
676.99	489.22
677.33	486.11
677.67	483.07
678.01	479.89
678.34	476.96
678.68	474.01
679.02	470.94
679.36	468.14
679.70	465.17
680.04	462.18
680.37	459.23
680.71	456.48
681.05	453.83
681.39	451.18
681.73	448.42
682.06	445.90
682.40	443.29
682.74	440.84
683.08	438.35
683.42	435.62
683.75	433.04
684.09	430.30
684.43	427.95
684.77	425.46
685.10	423.04
685.44	420.50
685.78	418.03
686.12	416.05
686.45	413.67
686.79	411.44
687.13	409.33
687.46	407.14
687.80	404.84
688.14	402.42
688.48	400.27
688.81	398.02
689.15	395.75
689.49	393.52
689.82	391.39
690.16	389.02
690.50	386.83
690.83	384.51
691.17	382.27
691.51	379.96
691.84	377.95
692.18	375.91
692.52	373.94
692.85	372.07
693.19	370.07
693.52	368.08
693.86	366.14
694.20	364.37
694.53	362.54
694.87	360.52
695.21	358.72
695.54	356.77
695.88	354.91
696.21	352.96
696.55	351.13
696.88	349.31
697.22	347.60
697.56	346.01
697.89	344.43
698.23	342.86
698.56	341.34
698.90	339.75
699.23	338.11
699.57	336.55
699.90	334.83
700.24	333.12
700.58	331.62
700.91	330.09
701.25	328.66
701.58	327.20
701.92	325.80
702.25	324.34
702.59	322.92
702.92	321.56
703.26	320.30
703.59	319.08
703.93	317.88
704.26	316.74
704.60	315.42
704.93	314.15
705.26	312.92
705.60	311.64
705.93	310.38
706.27	309.16
706.60	308.04
706.94	307.05
707.27	305.89
707.61	304.67
707.94	303.56
708.27	302.17
708.61	300.97
708.94	299.96
709.28	298.87
709.61	297.76
709.94	296.73
710.28	295.62
710.61	294.51
710.95	293.27
711.28	292.15
711.61	291.08
711.95	290.14
712.28	289.06
712.61	288.11
712.95	287.14
713.28	286.29
713.61	285.28
713.95	284.30
714.28	283.47
714.61	282.56
714.95	281.64
715.28	280.77
715.61	279.83
715.95	278.84
716.28	277.94
716.61	277.09
716.95	276.24
717.28	275.37
717.61	274.58
717.94	273.88
718.28	273.04
718.61	272.28
718.94	271.38
719.27	270.59
719.61	269.81
719.94	269.08
720.27	268.32
720.60	267.50
720.94	266.73
721.27	266.04
721.60	265.53
721.93	264.88
722.27	264.33
722.60	263.72
722.93	263.12
723.26	262.60
723.59	262.02
723.93	261.43
724.26	261.02
724.59	260.44
724.92	259.90
725.25	259.39
725.59	258.92
725.92	258.47
726.25	258.10
726.58	257.70
726.91	257.20
727.24	256.71
727.57	256.19
727.91	255.60
728.24	255.08
728.57	254.49
728.90	254.04
729.23	253.56
729.56	253.18
729.89	252.69
730.22	252.24
730.55	251.70
730.89	251.20
731.22	250.64
731.55	250.11
731.88	249.67
732.21	249.25
732.54	248.75
732.87	248.21
733.20	247.72
733.53	247.20
733.86	246.74
734.19	246.22
734.52	245.90
734.85	245.65
735.18	245.15
735.51	244.75
735.84	244.33
736.17	243.88
736.50	243.42
736.83	243.25
737.16	242.79
737.49	242.43
737.82	241.97
738.15	241.61
738.48	241.23
738.81	240.92
739.14	240.55
739.47	240.15
739.80	239.82
740.13	239.43
740.46	239.08
740.79	238.74
741.12	238.42
741.45	238.07
741.78	237.58
742.11	237.39
742.44	236.97
742.77	236.72
743.10	236.41
743.43	236.05
743.75	235.56
744.08	235.56
744.41	235.35
744.74	235.12
745.07	234.85
745.40	234.69
745.73	234.35
746.06	234.09
746.39	233.90
746.71	233.65
747.04	233.33
747.37	233.02
747.70	232.81
748.03	232.57
748.36	232.34
748.68	232.21
749.01	231.80
749.34	231.65
749.67	231.34
750.00	231.12
750.33	231.09
750.65	230.87
750.98	230.35
751.31	230.05
751.64	229.89
751.97	229.72
752.29	229.48
752.62	229.20
752.95	228.90
753.28	228.57
753.60	228.38
753.93	228.26
754.26	228.08
754.59	227.76
754.91	227.48
755.24	227.24
755.57	226.94
755.90	226.79
756.22	226.62
756.55	226.45
756.88	226.24
757.20	225.91
757.53	225.67
757.86	225.50
758.19	225.39
758.51	225.19
758.84	224.95
759.17	224.72
759.49	224.63
759.82	224.59
760.15	224.48
760.47	224.25
760.80	223.98
761.13	223.87
761.45	223.77
761.78	223.63
762.11	223.56
762.43	223.39
762.76	223.24
763.08	223.06
763.41	222.87
763.74	222.72
764.06	222.56
764.39	222.45
764.71	222.32
765.04	222.11
765.37	221.96
765.69	221.76
766.02	221.63
766.34	221.46
766.67	221.25
767.00	221.12
767.32	221.15
767.65	221.18
767.97	221.00
768.30	220.87
768.62	220.80
768.95	220.61
769.27	220.54
769.60	220.52
769.92	220.35
770.25	220.22
770.57	220.07
770.90	219.93
771.22	219.77
771.55	219.65
771.87	219.58
772.20	219.46
772.52	219.51
772.85	219.60
773.17	219.50
773.50	219.35
773.82	219.29
774.15	219.07
774.47	218.83
774.80	218.73
775.12	218.63
775.45	218.48
775.77	218.42
776.09	218.46
776.42	218.37
776.74	218.36
777.07	218.28
777.39	218.24
777.72	218.16
778.04	218.08
778.36	218.02
778.69	217.91
779.01	217.84
779.33	217.63
779.66	217.37
779.98	217.29
780.31	217.34
780.63	217.31
780.95	217.35
781.28	217.28
781.60	217.25
781.92	217.21
782.25	217.17
782.57	217.06
782.89	216.83
783.22	216.68
783.54	216.61
783.86	216.59
784.19	216.47
784.51	216.48
784.83	216.45
785.16	216.40
785.48	216.37
785.80	216.29
786.12	216.27
786.45	216.25
