SpectraSuite Data File
++++++++++++++++++++++++++++++++++++
Date: Mon Feb 25 17:35:44 EST 2013
User: group
Dark Spectrum Present: No
Reference Spectrum Present: No
Number of Sampled Component Spectra: 1
Spectrometers: USB2E7196
Integration Time (usec): 52000 (USB2E7196)
Spectra Averaged: 20 (USB2E7196)
Boxcar Smoothing: 10 (USB2E7196)
Correct for Electrical Dark: No (USB2E7196)
Strobe/Lamp Enabled: No (USB2E7196)
Correct for Detector Non-linearity: No (USB2E7196)
Correct for Stray Light: No (USB2E7196)
Number of Pixels in Processed Spectrum: 2048
>>>>>Begin Processed Spectral Data<<<<<
339.09	0.00
339.48	199.80
339.86	200.15
340.24	201.45
340.63	204.30
341.01	206.35
341.39	207.25
341.78	206.75
342.16	208.35
342.54	210.05
342.93	198.45
343.31	208.52
343.69	209.02
344.07	209.54
344.46	210.03
344.84	210.37
345.22	210.67
345.60	210.89
345.99	211.13
346.37	211.28
346.75	211.29
347.13	211.34
347.52	211.34
347.90	211.36
348.28	211.42
348.66	211.56
349.05	211.49
349.43	211.47
349.81	211.55
350.19	211.55
350.57	211.66
350.96	211.71
351.34	211.66
351.72	211.77
352.10	211.87
352.48	211.95
352.87	212.00
353.25	212.00
353.63	212.01
354.01	212.05
354.39	212.14
354.77	212.19
355.15	212.29
355.54	212.39
355.92	212.37
356.30	212.45
356.68	212.59
357.06	212.67
357.44	212.76
357.82	212.75
358.20	212.83
358.58	212.81
358.97	212.84
359.35	213.00
359.73	212.99
360.11	212.95
360.49	212.90
360.87	212.93
361.25	213.02
361.63	213.15
362.01	213.17
362.39	213.12
362.77	213.22
363.15	213.31
363.53	213.29
363.91	213.36
364.29	213.38
364.67	213.21
365.05	213.25
365.43	213.26
365.81	213.33
366.19	213.47
366.57	213.61
366.95	213.59
367.33	213.58
367.71	213.60
368.09	213.60
368.47	213.60
368.85	213.50
369.23	213.42
369.61	213.36
369.99	213.42
370.37	213.48
370.75	213.54
371.13	213.39
371.51	213.39
371.89	213.41
372.27	213.35
372.65	213.34
373.03	213.22
373.41	213.14
373.78	213.12
374.16	212.97
374.54	212.78
374.92	212.73
375.30	212.68
375.68	212.64
376.06	212.62
376.44	212.62
376.82	212.67
377.19	212.71
377.57	212.60
377.95	212.49
378.33	212.42
378.71	212.27
379.09	212.28
379.47	212.29
379.84	212.20
380.22	212.14
380.60	212.05
380.98	212.05
381.36	212.08
381.73	211.98
382.11	211.95
382.49	212.00
382.87	211.99
383.25	212.01
383.62	212.21
384.00	212.14
384.38	212.10
384.76	212.10
385.13	212.05
385.51	212.08
385.89	212.03
386.27	211.97
386.64	212.00
387.02	211.94
387.40	211.84
387.78	211.79
388.15	211.82
388.53	211.82
388.91	211.84
389.29	211.74
389.66	211.77
390.04	211.76
390.42	211.69
390.79	211.64
391.17	211.56
391.55	211.27
391.92	211.33
392.30	211.33
392.68	211.35
393.05	211.32
393.43	211.30
393.81	211.33
394.18	211.35
394.56	211.33
394.94	211.41
395.31	211.38
395.69	211.45
396.06	211.45
396.44	211.54
396.82	211.52
397.19	211.63
397.57	211.63
397.95	211.69
398.32	211.68
398.70	211.80
399.07	211.88
399.45	211.98
399.82	212.02
400.20	212.02
400.58	211.99
400.95	211.98
401.33	212.10
401.70	212.29
402.08	212.39
402.45	212.46
402.83	212.52
403.20	212.66
403.58	212.77
403.95	212.85
404.33	212.95
404.71	213.05
405.08	213.25
405.46	213.38
405.83	213.50
406.21	213.67
406.58	213.81
406.96	213.96
407.33	214.08
407.70	214.25
408.08	214.59
408.45	214.83
408.83	215.13
409.20	215.30
409.58	215.41
409.95	215.70
410.33	216.05
410.70	216.36
411.08	216.71
411.45	217.07
411.82	217.46
412.20	217.81
412.57	218.43
412.95	218.81
413.32	219.39
413.69	219.88
414.07	220.47
414.44	221.09
414.82	221.70
415.19	222.48
415.56	223.24
415.94	224.02
416.31	225.01
416.68	225.92
417.06	226.98
417.43	227.94
417.81	229.01
418.18	230.10
418.55	231.32
418.93	232.58
419.30	233.87
419.67	235.27
420.04	236.76
420.42	238.25
420.79	240.00
421.16	241.68
421.54	243.59
421.91	245.47
422.28	247.38
422.66	249.48
423.03	251.55
423.40	253.63
423.77	255.90
424.15	258.07
424.52	260.42
424.89	262.99
425.26	265.49
425.64	267.85
426.01	270.48
426.38	273.15
426.75	275.98
427.13	278.78
427.50	281.78
427.87	284.90
428.24	287.95
428.61	290.96
428.99	294.25
429.36	297.65
429.73	301.15
430.10	304.67
430.47	308.15
430.85	311.67
431.22	315.57
431.59	319.71
431.96	323.66
432.33	328.06
432.70	332.20
433.08	337.17
433.45	341.83
433.82	346.43
434.19	351.53
434.56	356.55
434.93	361.32
435.30	365.96
435.68	371.25
436.05	376.58
436.42	381.57
436.79	386.29
437.16	391.45
437.53	396.88
437.90	402.23
438.27	407.45
438.64	412.96
439.01	417.95
439.38	422.24
439.75	426.53
440.13	431.43
440.50	435.99
440.87	439.74
441.24	443.67
441.61	447.88
441.98	450.97
442.35	454.46
442.72	458.24
443.09	461.91
443.46	464.08
443.83	465.44
444.20	466.76
444.57	468.55
444.94	469.31
445.31	469.97
445.68	470.59
446.05	470.85
446.42	470.22
446.79	469.56
447.16	468.82
447.53	468.10
447.90	465.90
448.27	463.92
448.64	460.93
449.01	458.70
449.37	455.21
449.74	451.73
450.11	447.80
450.48	443.28
450.85	438.66
451.22	434.55
451.59	430.69
451.96	427.13
452.33	422.29
452.70	417.99
453.07	412.90
453.43	407.66
453.80	402.63
454.17	397.85
454.54	393.22
454.91	388.33
455.28	383.76
455.65	379.27
456.02	374.93
456.38	371.25
456.75	366.70
457.12	362.72
457.49	358.94
457.86	355.08
458.23	351.85
458.59	348.33
458.96	344.76
459.33	341.65
459.70	338.31
460.07	335.85
460.43	332.88
460.80	330.09
461.17	327.74
461.54	325.24
461.91	322.87
462.27	320.49
462.64	318.41
463.01	316.03
463.38	313.94
463.74	311.62
464.11	309.72
464.48	308.05
464.85	306.25
465.21	304.88
465.58	303.38
465.95	301.55
466.32	300.12
466.68	298.77
467.05	297.27
467.42	296.01
467.78	294.45
468.15	293.06
468.52	292.02
468.88	290.64
469.25	289.45
469.62	288.49
469.98	287.48
470.35	286.59
470.72	285.72
471.08	284.79
471.45	284.04
471.82	283.25
472.18	282.38
472.55	281.75
472.92	280.96
473.28	280.34
473.65	279.76
474.02	279.21
474.38	278.80
474.75	278.48
475.11	278.09
475.48	277.81
475.85	277.65
476.21	277.49
476.58	277.47
476.94	277.47
477.31	277.36
477.67	277.35
478.04	277.39
478.41	277.54
478.77	277.82
479.14	277.88
479.50	278.10
479.87	278.46
480.23	278.82
480.60	279.13
480.96	279.53
481.33	280.16
481.69	280.74
482.06	281.28
482.42	281.82
482.79	282.48
483.15	283.34
483.52	284.25
483.88	285.23
484.25	286.16
484.61	287.15
484.98	288.22
485.34	289.39
485.71	290.65
486.07	291.98
486.44	293.27
486.80	294.75
487.17	296.33
487.53	298.03
487.90	299.92
488.26	301.89
488.62	303.98
488.99	305.96
489.35	308.06
489.72	310.29
490.08	312.73
490.44	315.22
490.81	317.77
491.17	320.50
491.54	323.37
491.90	326.33
492.26	329.56
492.63	332.89
492.99	336.40
493.36	340.12
493.72	344.03
494.08	348.05
494.45	352.51
494.81	357.11
495.17	361.74
495.54	366.57
495.90	371.79
496.26	376.99
496.63	382.61
496.99	388.41
497.35	394.66
497.72	400.88
498.08	407.49
498.44	414.38
498.80	421.49
499.17	428.80
499.53	436.56
499.89	444.57
500.26	452.82
500.62	461.22
500.98	469.94
501.34	479.13
501.71	488.61
502.07	498.15
502.43	508.24
502.79	518.51
503.16	529.06
503.52	540.07
503.88	551.41
504.24	562.98
504.60	574.89
504.97	586.95
505.33	599.63
505.69	612.92
506.05	626.45
506.41	640.11
506.78	653.92
507.14	668.07
507.50	682.84
507.86	697.86
508.22	713.29
508.59	728.86
508.95	744.88
509.31	761.11
509.67	777.78
510.03	794.64
510.39	812.29
510.75	830.16
511.12	847.96
511.48	866.30
511.84	885.12
512.20	904.06
512.56	923.70
512.92	943.43
513.28	963.11
513.64	982.86
514.00	1002.89
514.37	1023.64
514.73	1044.40
515.09	1065.02
515.45	1086.04
515.81	1107.21
516.17	1128.57
516.53	1149.96
516.89	1171.85
517.25	1193.51
517.61	1215.30
517.97	1236.75
518.33	1258.41
518.69	1280.35
519.05	1302.62
519.41	1325.02
519.77	1347.60
520.13	1369.62
520.49	1391.73
520.85	1414.31
521.21	1437.06
521.57	1460.23
521.93	1482.22
522.29	1505.49
522.65	1528.60
523.01	1551.36
523.37	1573.75
523.73	1596.52
524.09	1618.71
524.45	1641.13
524.81	1664.07
525.17	1686.69
525.53	1709.59
525.89	1732.50
526.25	1754.93
526.61	1776.73
526.97	1798.25
527.33	1819.76
527.68	1841.44
528.04	1862.99
528.40	1883.52
528.76	1904.28
529.12	1925.22
529.48	1947.50
529.84	1968.10
530.20	1988.68
530.56	2009.04
530.91	2029.96
531.27	2050.72
531.63	2071.23
531.99	2091.31
532.35	2110.72
532.71	2129.80
533.07	2149.64
533.42	2167.90
533.78	2187.43
534.14	2205.93
534.50	2223.52
534.86	2242.07
535.21	2259.07
535.57	2277.20
535.93	2294.78
536.29	2312.20
536.65	2328.83
537.00	2344.06
537.36	2359.41
537.72	2374.87
538.08	2390.39
538.44	2406.00
538.79	2421.15
539.15	2436.17
539.51	2450.99
539.87	2466.32
540.22	2481.26
540.58	2495.86
540.94	2510.57
541.29	2523.11
541.65	2535.21
542.01	2548.75
542.37	2560.38
542.72	2573.00
543.08	2583.88
543.44	2596.21
543.79	2606.22
544.15	2616.65
544.51	2628.02
544.87	2639.50
545.22	2648.66
545.58	2657.65
545.94	2664.90
546.29	2671.45
546.65	2677.83
547.01	2684.35
547.36	2690.27
547.72	2695.82
548.07	2700.18
548.43	2704.47
548.79	2708.63
549.14	2714.13
549.50	2718.61
549.86	2722.89
550.21	2727.12
550.57	2731.68
550.92	2734.71
551.28	2738.14
551.64	2741.15
551.99	2743.95
552.35	2745.34
552.70	2748.45
553.06	2751.14
553.41	2754.67
553.77	2758.23
554.13	2760.86
554.48	2762.69
554.84	2764.29
555.19	2765.22
555.55	2765.96
555.90	2766.47
556.26	2767.48
556.61	2767.48
556.97	2766.18
557.32	2766.13
557.68	2764.84
558.03	2763.59
558.39	2761.91
558.74	2761.66
559.10	2760.65
559.45	2758.84
559.81	2757.96
560.16	2755.26
560.52	2753.20
560.87	2750.04
561.23	2746.54
561.58	2744.10
561.94	2741.30
562.29	2737.56
562.64	2735.54
563.00	2733.17
563.35	2731.33
563.71	2729.45
564.06	2727.48
564.42	2725.98
564.77	2723.63
565.12	2721.50
565.48	2718.25
565.83	2715.44
566.19	2712.11
566.54	2707.60
566.89	2703.60
567.25	2699.96
567.60	2697.05
567.96	2693.46
568.31	2690.22
568.66	2686.35
569.02	2681.76
569.37	2677.09
569.72	2673.54
570.08	2667.94
570.43	2662.44
570.78	2656.76
571.14	2650.40
571.49	2643.59
571.84	2637.76
572.20	2630.54
572.55	2624.22
572.90	2617.46
573.26	2610.12
573.61	2602.65
573.96	2596.07
574.31	2588.36
574.67	2580.19
575.02	2571.32
575.37	2562.57
575.72	2553.58
576.08	2545.98
576.43	2537.46
576.78	2529.20
577.13	2520.95
577.49	2512.90
577.84	2505.04
578.19	2497.21
578.54	2489.77
578.90	2482.88
579.25	2473.89
579.60	2465.00
579.95	2455.34
580.30	2447.07
580.66	2438.95
581.01	2430.00
581.36	2420.77
581.71	2412.35
582.06	2403.59
582.42	2395.49
582.77	2386.47
583.12	2377.44
583.47	2368.46
583.82	2360.10
584.17	2350.88
584.53	2341.31
584.88	2332.03
585.23	2322.44
585.58	2312.70
585.93	2302.67
586.28	2292.98
586.63	2283.91
586.98	2275.30
587.34	2266.97
587.69	2257.75
588.04	2248.45
588.39	2239.86
588.74	2231.12
589.09	2222.14
589.44	2212.27
589.79	2203.29
590.14	2194.64
590.49	2186.20
590.84	2177.08
591.19	2168.80
591.54	2159.83
591.89	2149.94
592.25	2141.03
592.60	2131.52
592.95	2122.19
593.30	2112.77
593.65	2102.82
594.00	2093.01
594.35	2084.63
594.70	2075.27
595.05	2066.47
595.40	2057.44
595.75	2047.71
596.10	2038.95
596.45	2030.23
596.80	2022.55
597.15	2014.26
597.50	2005.31
597.85	1996.59
598.19	1987.46
598.54	1978.74
598.89	1970.75
599.24	1963.96
599.59	1956.35
599.94	1949.35
600.29	1941.37
600.64	1933.33
600.99	1925.12
601.34	1918.24
601.69	1909.19
602.04	1900.88
602.39	1892.60
602.74	1884.77
603.08	1878.16
603.43	1870.69
603.78	1862.66
604.13	1854.30
604.48	1846.04
604.83	1838.79
605.18	1831.53
605.53	1824.11
605.87	1816.02
606.22	1808.39
606.57	1799.99
606.92	1791.44
607.27	1782.80
607.62	1775.18
607.96	1768.20
608.31	1761.67
608.66	1753.50
609.01	1745.92
609.36	1737.81
609.70	1729.69
610.05	1721.70
610.40	1713.15
610.75	1704.50
611.10	1696.65
611.44	1687.38
611.79	1678.27
612.14	1668.97
612.49	1659.13
612.83	1649.97
613.18	1640.12
613.53	1630.81
613.88	1621.17
614.22	1612.50
614.57	1603.61
614.92	1594.27
615.27	1584.74
615.61	1574.74
615.96	1565.94
616.31	1557.53
616.65	1549.99
617.00	1541.32
617.35	1532.85
617.70	1523.83
618.04	1514.72
618.39	1504.98
618.74	1496.80
619.08	1488.10
619.43	1479.82
619.78	1472.17
620.12	1464.03
620.47	1456.58
620.82	1447.91
621.16	1439.75
621.51	1431.08
621.85	1422.60
622.20	1414.05
622.55	1405.18
622.89	1396.98
623.24	1388.44
623.59	1379.47
623.93	1370.72
624.28	1362.56
624.62	1354.05
624.97	1345.92
625.32	1338.23
625.66	1330.86
626.01	1323.33
626.35	1316.12
626.70	1308.42
627.04	1300.80
627.39	1293.33
627.73	1285.52
628.08	1278.66
628.43	1271.10
628.77	1263.85
629.12	1256.19
629.46	1249.49
629.81	1242.39
630.15	1234.98
630.50	1227.44
630.84	1220.07
631.19	1212.80
631.53	1205.83
631.88	1198.15
632.22	1190.75
632.57	1183.77
632.91	1176.42
633.26	1168.87
633.60	1161.52
633.95	1154.57
634.29	1147.11
634.64	1140.28
634.98	1133.20
635.32	1125.97
635.67	1119.36
636.01	1112.51
636.36	1105.91
636.70	1099.04
637.05	1092.49
637.39	1086.19
637.73	1079.96
638.08	1074.23
638.42	1068.15
638.77	1061.38
639.11	1055.15
639.45	1048.99
639.80	1042.36
640.14	1035.72
640.49	1029.62
640.83	1023.01
641.17	1016.31
641.52	1010.12
641.86	1003.40
642.20	997.09
642.55	990.45
642.89	983.95
643.23	977.52
643.58	971.70
643.92	964.75
644.26	958.48
644.61	952.17
644.95	945.96
645.29	939.56
645.64	932.90
645.98	926.75
646.32	920.75
646.66	914.34
647.01	908.26
647.35	902.41
647.69	895.97
648.04	890.26
648.38	884.54
648.72	878.42
649.06	872.28
649.41	866.27
649.75	860.28
650.09	854.35
650.43	848.41
650.78	841.88
651.12	836.13
651.46	830.24
651.80	824.19
652.14	818.12
652.49	811.97
652.83	806.07
653.17	800.13
653.51	794.13
653.85	788.40
654.20	782.55
654.54	776.59
654.88	771.08
655.22	765.29
655.56	759.18
655.90	753.35
656.25	747.71
656.59	742.17
656.93	736.87
657.27	731.58
657.61	725.95
657.95	720.88
658.29	715.81
658.64	710.63
658.98	705.37
659.32	699.98
659.66	694.83
660.00	689.45
660.34	684.02
660.68	678.91
661.02	673.77
661.36	669.02
661.70	664.25
662.05	659.45
662.39	654.84
662.73	650.54
663.07	646.30
663.41	641.85
663.75	637.25
664.09	632.58
664.43	627.80
664.77	623.51
665.11	618.86
665.45	614.26
665.79	609.84
666.13	605.57
666.47	601.45
666.81	597.43
667.15	593.41
667.49	589.75
667.83	585.86
668.17	582.12
668.51	578.15
668.85	574.36
669.19	570.53
669.53	566.53
669.87	562.46
670.21	558.40
670.55	554.48
670.89	551.11
671.23	547.73
671.57	544.23
671.91	540.56
672.25	536.99
672.58	533.54
672.92	529.97
673.26	526.71
673.60	523.33
673.94	519.75
674.28	516.40
674.62	513.06
674.96	509.70
675.30	506.40
675.64	503.05
675.97	499.88
676.31	496.88
676.65	493.97
676.99	491.21
677.33	488.29
677.67	485.41
678.01	482.09
678.34	479.04
678.68	475.93
679.02	472.97
679.36	470.09
679.70	467.26
680.04	464.43
680.37	461.31
680.71	458.46
681.05	455.80
681.39	453.05
681.73	450.22
682.06	447.77
682.40	445.13
682.74	442.64
683.08	439.97
683.42	437.25
683.75	434.66
684.09	431.93
684.43	429.38
684.77	426.72
685.10	424.21
685.44	421.63
685.78	419.27
686.12	417.02
686.45	414.68
686.79	412.36
687.13	410.12
687.46	407.96
687.80	405.83
688.14	403.54
688.48	401.37
688.81	399.06
689.15	396.69
689.49	394.44
689.82	392.07
690.16	389.73
690.50	387.35
690.83	385.04
691.17	382.89
691.51	380.65
691.84	378.61
692.18	376.54
692.52	374.59
692.85	372.67
693.19	370.71
693.52	368.65
693.86	366.66
694.20	364.84
694.53	362.93
694.87	360.80
695.21	358.81
695.54	356.85
695.88	355.10
696.21	353.27
696.55	351.48
696.88	349.80
697.22	348.06
697.56	346.50
697.89	344.83
698.23	343.18
698.56	341.66
698.90	340.08
699.23	338.40
699.57	336.75
699.90	335.09
700.24	333.37
700.58	331.81
700.91	330.26
701.25	328.73
701.58	327.28
701.92	325.84
702.25	324.50
702.59	323.12
702.92	321.69
703.26	320.27
703.59	318.90
703.93	317.75
704.26	316.54
704.60	315.25
704.93	314.03
705.26	312.74
705.60	311.38
705.93	310.05
706.27	308.88
706.60	307.72
706.94	306.59
707.27	305.42
707.61	304.31
707.94	303.16
708.27	301.83
708.61	300.64
708.94	299.49
709.28	298.27
709.61	297.06
709.94	296.01
710.28	294.96
710.61	293.91
710.95	292.72
711.28	291.73
711.61	290.69
711.95	289.70
712.28	288.66
712.61	287.65
712.95	286.72
713.28	285.80
713.61	284.83
713.95	283.84
714.28	282.96
714.61	282.03
714.95	281.05
715.28	280.27
715.61	279.28
715.95	278.40
716.28	277.60
716.61	276.90
716.95	276.03
717.28	275.22
717.61	274.40
717.94	273.54
718.28	272.70
718.61	271.94
718.94	271.09
719.27	270.36
719.61	269.72
719.94	269.07
720.27	268.30
720.60	267.62
720.94	266.94
721.27	266.22
721.60	265.58
721.93	264.94
722.27	264.29
722.60	263.78
722.93	263.20
723.26	262.73
723.59	262.01
723.93	261.33
724.26	260.70
724.59	260.20
724.92	259.67
725.25	259.10
725.59	258.60
725.92	258.06
726.25	257.53
726.58	256.94
726.91	256.37
727.24	255.96
727.57	255.40
727.91	254.90
728.24	254.48
728.57	253.95
728.90	253.58
729.23	253.06
729.56	252.71
729.89	252.32
730.22	251.69
730.55	251.32
730.89	250.93
731.22	250.50
731.55	250.02
731.88	249.59
732.21	249.18
732.54	248.69
732.87	248.31
733.20	247.89
733.53	247.50
733.86	247.03
734.19	246.60
734.52	246.24
734.85	245.94
735.18	245.48
735.51	245.11
735.84	244.65
736.17	244.33
736.50	243.78
736.83	243.50
737.16	243.17
737.49	242.87
737.82	242.52
738.15	242.22
738.48	241.83
738.81	241.51
739.14	241.04
739.47	240.68
739.80	240.36
740.13	240.00
740.46	239.60
740.79	239.28
741.12	238.84
741.45	238.47
741.78	238.17
742.11	237.93
742.44	237.60
742.77	237.35
743.10	237.03
743.43	236.78
743.75	236.40
744.08	236.34
744.41	235.97
744.74	235.72
745.07	235.35
745.40	235.09
745.73	234.86
746.06	234.60
746.39	234.32
746.71	233.99
747.04	233.72
747.37	233.44
747.70	233.20
748.03	233.01
748.36	232.79
748.68	232.48
749.01	232.13
749.34	231.89
749.67	231.59
750.00	231.30
750.33	231.15
750.65	230.88
750.98	230.37
751.31	230.07
751.64	229.78
751.97	229.65
752.29	229.42
752.62	229.08
752.95	228.86
753.28	228.68
753.60	228.40
753.93	228.25
754.26	228.03
754.59	227.74
754.91	227.53
755.24	227.28
755.57	227.08
755.90	226.88
756.22	226.66
756.55	226.55
756.88	226.36
757.20	226.03
757.53	225.74
757.86	225.64
758.19	225.53
758.51	225.45
758.84	225.16
759.17	225.04
759.49	224.94
759.82	224.85
760.15	224.69
760.47	224.60
760.80	224.36
761.13	224.28
761.45	224.15
761.78	224.03
762.11	223.92
762.43	223.71
762.76	223.55
763.08	223.46
763.41	223.32
763.74	223.23
764.06	223.07
764.39	222.96
764.71	222.75
765.04	222.55
765.37	222.35
765.69	222.21
766.02	222.04
766.34	221.78
766.67	221.60
767.00	221.56
767.32	221.49
767.65	221.47
767.97	221.27
768.30	221.12
768.62	220.94
768.95	220.83
769.27	220.74
769.60	220.69
769.92	220.52
770.25	220.36
770.57	220.15
770.90	220.08
771.22	219.90
771.55	219.84
771.87	219.78
772.20	219.68
772.52	219.74
772.85	219.84
773.17	219.75
773.50	219.64
773.82	219.45
774.15	219.26
774.47	219.03
774.80	219.00
775.12	219.00
775.45	218.85
775.77	218.75
776.09	218.69
776.42	218.57
776.74	218.55
777.07	218.44
777.39	218.37
777.72	218.29
778.04	218.32
778.36	218.30
778.69	218.19
779.01	218.14
779.33	217.91
779.66	217.67
779.98	217.63
780.31	217.57
780.63	217.60
780.95	217.52
781.28	217.48
781.60	217.37
781.92	217.26
782.25	217.23
782.57	217.14
782.89	217.00
783.22	216.95
783.54	216.87
783.86	216.83
784.19	216.80
784.51	216.76
784.83	216.67
785.16	216.50
785.48	216.42
785.80	216.38
786.12	216.37
786.45	216.31
