SpectraSuite Data File
++++++++++++++++++++++++++++++++++++
Date: Mon Feb 25 17:34:07 EST 2013
User: group
Dark Spectrum Present: No
Reference Spectrum Present: No
Number of Sampled Component Spectra: 1
Spectrometers: USB2E7196
Integration Time (usec): 52000 (USB2E7196)
Spectra Averaged: 20 (USB2E7196)
Boxcar Smoothing: 10 (USB2E7196)
Correct for Electrical Dark: No (USB2E7196)
Strobe/Lamp Enabled: No (USB2E7196)
Correct for Detector Non-linearity: No (USB2E7196)
Correct for Stray Light: No (USB2E7196)
Number of Pixels in Processed Spectrum: 2048
>>>>>Begin Processed Spectral Data<<<<<
339.09	0.00
339.48	199.35
339.86	200.10
340.24	201.60
340.63	202.55
341.01	206.20
341.39	204.25
341.78	207.45
342.16	209.05
342.54	208.95
342.93	197.87
343.31	207.89
343.69	208.41
344.07	208.90
344.46	209.32
344.84	209.77
345.22	210.00
345.60	210.30
345.99	210.39
346.37	210.45
346.75	210.53
347.13	210.61
347.52	210.63
347.90	210.74
348.28	210.84
348.66	210.99
349.05	210.87
349.43	210.98
349.81	211.02
350.19	211.09
350.57	211.17
350.96	211.33
351.34	211.44
351.72	211.52
352.10	211.57
352.48	211.63
352.87	211.67
353.25	211.74
353.63	211.80
354.01	212.00
354.39	212.12
354.77	212.21
355.15	212.40
355.54	212.55
355.92	212.59
356.30	212.61
356.68	212.77
357.06	212.94
357.44	213.02
357.82	213.13
358.20	213.18
358.58	213.25
358.97	213.35
359.35	213.38
359.73	213.49
360.11	213.57
360.49	213.70
360.87	213.77
361.25	213.85
361.63	214.00
362.01	214.11
362.39	214.12
362.77	214.20
363.15	214.22
363.53	214.27
363.91	214.34
364.29	214.31
364.67	214.19
365.05	214.27
365.43	214.24
365.81	214.27
366.19	214.36
366.57	214.43
366.95	214.48
367.33	214.53
367.71	214.56
368.09	214.62
368.47	214.57
368.85	214.53
369.23	214.57
369.61	214.52
369.99	214.52
370.37	214.57
370.75	214.71
371.13	214.63
371.51	214.60
371.89	214.57
372.27	214.60
372.65	214.57
373.03	214.46
373.41	214.43
373.78	214.38
374.16	214.28
374.54	214.17
374.92	214.07
375.30	214.03
375.68	213.92
376.06	213.87
376.44	213.84
376.82	213.81
377.19	213.76
377.57	213.71
377.95	213.56
378.33	213.52
378.71	213.24
379.09	213.23
379.47	213.20
379.84	213.07
380.22	213.02
380.60	212.97
380.98	212.92
381.36	212.85
381.73	212.74
382.11	212.70
382.49	212.68
382.87	212.62
383.25	212.55
383.62	212.71
384.00	212.60
384.38	212.54
384.76	212.53
385.13	212.53
385.51	212.40
385.89	212.32
386.27	212.28
386.64	212.30
387.02	212.13
387.40	212.14
387.78	212.16
388.15	212.09
388.53	212.01
388.91	211.93
389.29	211.94
389.66	211.95
390.04	211.91
390.42	211.90
390.79	211.88
391.17	211.90
391.55	211.70
391.92	211.70
392.30	211.75
392.68	211.73
393.05	211.69
393.43	211.72
393.81	211.77
394.18	211.67
394.56	211.69
394.94	211.86
395.31	211.72
395.69	211.77
396.06	211.87
396.44	211.89
396.82	211.94
397.19	212.04
397.57	211.99
397.95	212.06
398.32	212.08
398.70	212.15
399.07	212.11
399.45	212.09
399.82	212.14
400.20	212.05
400.58	212.04
400.95	212.02
401.33	212.12
401.70	212.26
402.08	212.38
402.45	212.41
402.83	212.46
403.20	212.65
403.58	212.63
403.95	212.62
404.33	212.74
404.71	212.87
405.08	213.03
405.46	213.16
405.83	213.30
406.21	213.40
406.58	213.54
406.96	213.78
407.33	214.00
407.70	214.19
408.08	214.66
408.45	214.97
408.83	215.23
409.20	215.45
409.58	215.62
409.95	215.87
410.33	216.17
410.70	216.40
411.08	216.71
411.45	217.08
411.82	217.45
412.20	217.89
412.57	218.43
412.95	218.79
413.32	219.30
413.69	219.81
414.07	220.35
414.44	220.98
414.82	221.56
415.19	222.26
415.56	223.03
415.94	223.74
416.31	224.58
416.68	225.49
417.06	226.52
417.43	227.49
417.81	228.61
418.18	229.81
418.55	231.08
418.93	232.36
419.30	233.70
419.67	235.22
420.04	236.70
420.42	238.07
420.79	239.82
421.16	241.58
421.54	243.41
421.91	245.28
422.28	247.14
422.66	249.20
423.03	251.19
423.40	253.20
423.77	255.38
424.15	257.60
424.52	259.89
424.89	262.37
425.26	264.82
425.64	267.14
426.01	269.76
426.38	272.50
426.75	275.14
427.13	278.08
427.50	280.97
427.87	284.07
428.24	287.25
428.61	290.13
428.99	293.40
429.36	296.87
429.73	300.33
430.10	303.78
430.47	307.31
430.85	311.08
431.22	315.10
431.59	319.32
431.96	323.30
432.33	327.72
432.70	332.03
433.08	336.97
433.45	341.66
433.82	346.20
434.19	351.21
434.56	356.29
434.93	361.12
435.30	365.89
435.68	371.02
436.05	376.27
436.42	381.53
436.79	386.21
437.16	391.38
437.53	396.81
437.90	402.17
438.27	407.37
438.64	412.56
439.01	417.58
439.38	421.82
439.75	425.99
440.13	430.81
440.50	435.27
440.87	439.06
441.24	442.87
441.61	447.14
441.98	450.29
442.35	453.95
442.72	457.50
443.09	461.06
443.46	463.24
443.83	464.55
444.20	465.61
444.57	467.45
444.94	468.17
445.31	468.88
445.68	469.71
446.05	469.94
446.42	469.43
446.79	468.58
447.16	467.85
447.53	467.30
447.90	465.21
448.27	463.13
448.64	460.22
449.01	458.15
449.37	454.47
449.74	451.06
450.11	447.03
450.48	442.50
450.85	437.90
451.22	433.91
451.59	430.20
451.96	426.72
452.33	421.80
452.70	417.37
453.07	412.30
453.43	406.90
453.80	401.93
454.17	397.10
454.54	392.51
454.91	387.64
455.28	382.96
455.65	378.53
456.02	374.25
456.38	370.39
456.75	365.76
457.12	361.97
457.49	358.09
457.86	354.16
458.23	350.94
458.59	347.38
458.96	343.84
459.33	340.66
459.70	337.48
460.07	335.00
460.43	332.16
460.80	329.41
461.17	327.08
461.54	324.54
461.91	322.26
462.27	319.90
462.64	317.85
463.01	315.55
463.38	313.49
463.74	311.20
464.11	309.35
464.48	307.71
464.85	305.87
465.21	304.48
465.58	303.16
465.95	301.48
466.32	300.10
466.68	298.75
467.05	297.33
467.42	295.94
467.78	294.47
468.15	293.13
468.52	292.07
468.88	290.75
469.25	289.62
469.62	288.71
469.98	287.63
470.35	286.71
470.72	285.84
471.08	284.86
471.45	284.11
471.82	283.34
472.18	282.51
472.55	281.92
472.92	281.18
473.28	280.52
473.65	279.90
474.02	279.33
474.38	278.89
474.75	278.48
475.11	278.04
475.48	277.82
475.85	277.64
476.21	277.51
476.58	277.37
476.94	277.27
477.31	277.09
477.67	277.08
478.04	277.10
478.41	277.25
478.77	277.48
479.14	277.61
479.50	277.91
479.87	278.22
480.23	278.67
480.60	279.04
480.96	279.43
481.33	280.11
481.69	280.77
482.06	281.32
482.42	281.97
482.79	282.74
483.15	283.58
483.52	284.51
483.88	285.42
484.25	286.47
484.61	287.55
484.98	288.68
485.34	289.99
485.71	291.37
486.07	292.68
486.44	294.01
486.80	295.61
487.17	297.18
487.53	298.94
487.90	300.64
488.26	302.52
488.62	304.54
488.99	306.50
489.35	308.59
489.72	310.85
490.08	313.24
490.44	315.61
490.81	318.25
491.17	320.89
491.54	323.78
491.90	326.73
492.26	330.05
492.63	333.41
492.99	336.91
493.36	340.56
493.72	344.51
494.08	348.54
494.45	352.79
494.81	357.29
495.17	361.91
495.54	366.73
495.90	371.87
496.26	377.17
496.63	382.66
496.99	388.43
497.35	394.41
497.72	400.67
498.08	407.36
498.44	414.04
498.80	421.33
499.17	428.77
499.53	436.50
499.89	444.43
500.26	452.61
500.62	460.88
500.98	469.70
501.34	478.70
501.71	488.14
502.07	497.76
502.43	507.77
502.79	517.94
503.16	528.67
503.52	539.55
503.88	550.76
504.24	562.30
504.60	574.20
504.97	586.58
505.33	599.14
505.69	612.43
506.05	626.07
506.41	639.44
506.78	653.24
507.14	667.36
507.50	681.85
507.86	696.88
508.22	712.38
508.59	727.90
508.95	744.01
509.31	760.32
509.67	777.09
510.03	793.97
510.39	811.49
510.75	829.40
511.12	847.51
511.48	866.14
511.84	884.82
512.20	903.60
512.56	922.70
512.92	942.23
513.28	961.76
513.64	981.51
514.00	1001.74
514.37	1022.06
514.73	1042.93
515.09	1063.95
515.45	1084.80
515.81	1106.10
516.17	1127.60
516.53	1148.91
516.89	1170.48
517.25	1191.86
517.61	1213.52
517.97	1235.09
518.33	1256.45
518.69	1278.28
519.05	1300.26
519.41	1322.69
519.77	1345.26
520.13	1367.72
520.49	1390.18
520.85	1412.82
521.21	1435.17
521.57	1458.09
521.93	1480.22
522.29	1503.02
522.65	1525.69
523.01	1548.33
523.37	1570.36
523.73	1592.73
524.09	1614.99
524.45	1637.41
524.81	1660.32
525.17	1683.01
525.53	1705.90
525.89	1728.70
526.25	1750.80
526.61	1772.40
526.97	1794.15
527.33	1815.58
527.68	1837.09
528.04	1858.10
528.40	1878.34
528.76	1899.19
529.12	1919.96
529.48	1941.90
529.84	1962.46
530.20	1982.75
530.56	2003.41
530.91	2024.41
531.27	2045.00
531.63	2065.43
531.99	2085.39
532.35	2104.64
532.71	2123.76
533.07	2143.33
533.42	2161.82
533.78	2180.82
534.14	2199.20
534.50	2216.52
534.86	2234.55
535.21	2251.30
535.57	2269.36
535.93	2287.03
536.29	2303.99
536.65	2320.57
537.00	2335.93
537.36	2350.99
537.72	2366.47
538.08	2381.68
538.44	2396.91
538.79	2412.20
539.15	2427.07
539.51	2441.90
539.87	2457.18
540.22	2471.73
540.58	2486.53
540.94	2500.96
541.29	2514.44
541.65	2526.87
542.01	2540.12
542.37	2552.42
542.72	2564.91
543.08	2576.01
543.44	2588.12
543.79	2598.59
544.15	2609.13
544.51	2620.27
544.87	2631.92
545.22	2641.33
545.58	2649.97
545.94	2657.65
546.29	2664.22
546.65	2670.48
547.01	2676.72
547.36	2682.46
547.72	2688.28
548.07	2692.14
548.43	2696.19
548.79	2700.08
549.14	2704.80
549.50	2709.46
549.86	2713.50
550.21	2717.70
550.57	2721.98
550.92	2724.55
551.28	2727.35
551.64	2730.08
551.99	2732.63
552.35	2734.01
552.70	2736.65
553.06	2739.51
553.41	2742.28
553.77	2745.39
554.13	2748.10
554.48	2750.15
554.84	2751.68
555.19	2752.27
555.55	2752.98
555.90	2753.43
556.26	2753.93
556.61	2754.16
556.97	2752.75
557.32	2752.37
557.68	2750.81
558.03	2749.48
558.39	2748.30
558.74	2748.10
559.10	2746.96
559.45	2745.29
559.81	2744.07
560.16	2741.63
560.52	2739.05
560.87	2736.39
561.23	2732.35
561.58	2729.82
561.94	2726.52
562.29	2722.99
562.64	2720.69
563.00	2718.39
563.35	2716.54
563.71	2714.88
564.06	2712.49
564.42	2710.66
564.77	2708.58
565.12	2706.62
565.48	2703.15
565.83	2699.95
566.19	2696.82
566.54	2692.56
566.89	2688.57
567.25	2685.01
567.60	2682.10
567.96	2678.88
568.31	2675.31
568.66	2671.77
569.02	2666.80
569.37	2661.83
569.72	2658.06
570.08	2652.71
570.43	2647.00
570.78	2641.11
571.14	2634.67
571.49	2628.07
571.84	2622.32
572.20	2615.38
572.55	2608.88
572.90	2602.13
573.26	2594.88
573.61	2587.56
573.96	2581.25
574.31	2573.19
574.67	2565.20
575.02	2556.42
575.37	2547.66
575.72	2538.37
576.08	2530.62
576.43	2522.12
576.78	2514.35
577.13	2506.19
577.49	2498.24
577.84	2490.57
578.19	2482.40
578.54	2474.78
578.90	2467.98
579.25	2459.01
579.60	2449.58
579.95	2440.27
580.30	2432.39
580.66	2424.32
581.01	2415.23
581.36	2405.43
581.71	2397.29
582.06	2388.64
582.42	2380.35
582.77	2371.02
583.12	2362.27
583.47	2353.81
583.82	2345.74
584.17	2336.42
584.53	2327.13
584.88	2317.95
585.23	2308.74
585.58	2299.64
585.93	2289.91
586.28	2280.75
586.63	2272.13
586.98	2263.88
587.34	2255.47
587.69	2246.06
588.04	2236.86
588.39	2228.28
588.74	2219.68
589.09	2211.01
589.44	2201.32
589.79	2192.56
590.14	2184.57
590.49	2176.17
590.84	2166.76
591.19	2158.46
591.54	2149.80
591.89	2139.52
592.25	2130.34
592.60	2120.40
592.95	2110.72
593.30	2101.24
593.65	2091.05
594.00	2081.27
594.35	2072.66
594.70	2063.40
595.05	2054.45
595.40	2045.50
595.75	2035.91
596.10	2027.35
596.45	2018.52
596.80	2010.68
597.15	2002.35
597.50	1993.30
597.85	1984.91
598.19	1976.34
598.54	1967.72
598.89	1959.83
599.24	1953.22
599.59	1946.04
599.94	1939.16
600.29	1931.43
600.64	1923.42
600.99	1914.86
601.34	1907.34
601.69	1898.38
602.04	1890.16
602.39	1882.31
602.74	1874.57
603.08	1867.80
603.43	1860.49
603.78	1852.57
604.13	1844.43
604.48	1836.18
604.83	1829.27
605.18	1822.17
605.53	1814.54
605.87	1806.50
606.22	1799.19
606.57	1790.95
606.92	1782.79
607.27	1774.70
607.62	1767.42
607.96	1760.46
608.31	1754.73
608.66	1746.86
609.01	1739.54
609.36	1731.71
609.70	1723.56
610.05	1715.80
610.40	1707.89
610.75	1699.30
611.10	1691.57
611.44	1682.47
611.79	1673.50
612.14	1664.06
612.49	1654.32
612.83	1645.57
613.18	1635.85
613.53	1626.44
613.88	1617.00
614.22	1607.78
614.57	1598.34
614.92	1589.12
615.27	1579.60
615.61	1569.50
615.96	1560.63
616.31	1551.99
616.65	1544.25
617.00	1535.89
617.35	1527.23
617.70	1518.15
618.04	1508.90
618.39	1499.36
618.74	1490.92
619.08	1482.15
619.43	1473.68
619.78	1465.52
620.12	1457.33
620.47	1449.69
620.82	1441.00
621.16	1432.41
621.51	1424.06
621.85	1415.84
622.20	1407.04
622.55	1398.72
622.89	1390.24
623.24	1382.12
623.59	1373.50
623.93	1364.83
624.28	1356.75
624.62	1348.39
624.97	1340.00
625.32	1332.30
625.66	1324.96
626.01	1317.62
626.35	1310.30
626.70	1302.72
627.04	1295.22
627.39	1287.57
627.73	1280.16
628.08	1273.41
628.43	1265.91
628.77	1258.21
629.12	1250.60
629.46	1243.85
629.81	1236.56
630.15	1229.18
630.50	1221.60
630.84	1214.18
631.19	1206.67
631.53	1199.48
631.88	1191.84
632.22	1184.30
632.57	1177.31
632.91	1169.69
633.26	1162.16
633.60	1155.14
633.95	1148.20
634.29	1141.00
634.64	1134.04
634.98	1126.67
635.32	1119.18
635.67	1112.94
636.01	1106.30
636.36	1099.69
636.70	1093.09
637.05	1086.56
637.39	1080.31
637.73	1074.00
638.08	1068.08
638.42	1062.37
638.77	1055.85
639.11	1049.64
639.45	1043.75
639.80	1037.15
640.14	1030.70
640.49	1024.50
640.83	1017.98
641.17	1011.57
641.52	1005.52
641.86	999.17
642.20	993.01
642.55	986.28
642.89	979.72
643.23	973.38
643.58	967.55
643.92	961.12
644.26	954.79
644.61	948.63
644.95	942.47
645.29	936.20
645.64	929.55
645.98	923.23
646.32	917.23
646.66	910.95
647.01	905.06
647.35	899.40
647.69	893.04
648.04	887.21
648.38	881.31
648.72	875.11
649.06	868.86
649.41	862.86
649.75	857.15
650.09	851.32
650.43	845.45
650.78	839.01
651.12	832.70
651.46	826.82
651.80	821.03
652.14	815.25
652.49	809.22
652.83	803.29
653.17	797.28
653.51	791.39
653.85	785.83
654.20	779.92
654.54	773.88
654.88	768.51
655.22	762.69
655.56	756.74
655.90	750.75
656.25	745.28
656.59	739.85
656.93	734.74
657.27	729.50
657.61	724.07
657.95	718.96
658.29	713.89
658.64	708.74
658.98	703.39
659.32	697.87
659.66	692.63
660.00	687.29
660.34	682.12
660.68	677.00
661.02	671.74
661.36	667.06
661.70	662.35
662.05	657.47
662.39	653.05
662.73	648.73
663.07	644.69
663.41	640.26
663.75	635.63
664.09	630.87
664.43	626.11
664.77	621.78
665.11	617.26
665.45	612.92
665.79	608.36
666.13	603.94
666.47	599.74
666.81	595.71
667.15	591.78
667.49	588.02
667.83	584.02
668.17	580.14
668.51	576.29
668.85	572.47
669.19	568.75
669.53	564.68
669.87	560.49
670.21	556.50
670.55	552.56
670.89	549.03
671.23	545.57
671.57	542.14
671.91	538.45
672.25	534.97
672.58	531.38
672.92	528.10
673.26	524.93
673.60	521.65
673.94	518.16
674.28	514.69
674.62	511.51
674.96	508.22
675.30	505.03
675.64	501.65
675.97	498.42
676.31	495.34
676.65	492.48
676.99	489.86
677.33	486.81
677.67	483.84
678.01	480.70
678.34	477.63
678.68	474.61
679.02	471.59
679.36	468.72
679.70	465.90
680.04	462.87
680.37	459.79
680.71	456.99
681.05	454.40
681.39	451.72
681.73	448.87
682.06	446.41
682.40	443.82
682.74	441.25
683.08	438.79
683.42	436.15
683.75	433.40
684.09	430.65
684.43	428.15
684.77	425.47
685.10	422.89
685.44	420.38
685.78	417.83
686.12	415.57
686.45	413.20
686.79	411.04
687.13	408.90
687.46	406.79
687.80	404.53
688.14	402.21
688.48	400.07
688.81	397.72
689.15	395.50
689.49	393.33
689.82	391.05
690.16	388.64
690.50	386.29
690.83	384.19
691.17	381.99
691.51	379.90
691.84	377.85
692.18	375.87
692.52	373.91
692.85	372.00
693.19	370.08
693.52	368.00
693.86	365.87
694.20	363.97
694.53	361.96
694.87	360.00
695.21	358.04
695.54	356.11
695.88	354.34
696.21	352.45
696.55	350.61
696.88	348.91
697.22	347.13
697.56	345.64
697.89	343.91
698.23	342.27
698.56	340.62
698.90	339.19
699.23	337.57
699.57	336.08
699.90	334.48
700.24	332.80
700.58	331.19
700.91	329.70
701.25	328.26
701.58	326.82
701.92	325.46
702.25	324.15
702.59	322.85
702.92	321.48
703.26	320.20
703.59	318.91
703.93	317.74
704.26	316.51
704.60	315.27
704.93	314.06
705.26	312.80
705.60	311.57
705.93	310.23
706.27	309.03
706.60	307.79
706.94	306.74
707.27	305.59
707.61	304.50
707.94	303.34
708.27	302.10
708.61	301.01
708.94	299.82
709.28	298.60
709.61	297.40
709.94	296.35
710.28	295.30
710.61	294.19
710.95	293.06
711.28	292.20
711.61	291.03
711.95	289.95
712.28	289.05
712.61	287.95
712.95	287.07
713.28	286.19
713.61	285.14
713.95	284.25
714.28	283.35
714.61	282.50
714.95	281.71
715.28	280.76
715.61	279.80
715.95	278.85
716.28	277.94
716.61	277.02
716.95	276.10
717.28	275.23
717.61	274.38
717.94	273.50
718.28	272.58
718.61	271.88
718.94	271.17
719.27	270.32
719.61	269.64
719.94	268.90
720.27	268.19
720.60	267.56
720.94	266.77
721.27	266.15
721.60	265.52
721.93	264.87
722.27	264.28
722.60	263.69
722.93	263.21
723.26	262.68
723.59	262.15
723.93	261.56
724.26	260.97
724.59	260.47
724.92	260.00
725.25	259.47
725.59	258.88
725.92	258.37
726.25	257.93
726.58	257.44
726.91	256.85
727.24	256.25
727.57	255.73
727.91	255.21
728.24	254.65
728.57	254.13
728.90	253.60
729.23	253.08
729.56	252.76
729.89	252.24
730.22	251.74
730.55	251.33
730.89	250.97
731.22	250.44
731.55	249.98
731.88	249.41
732.21	248.98
732.54	248.57
732.87	248.19
733.20	247.75
733.53	247.33
733.86	246.95
734.19	246.61
734.52	246.25
734.85	246.00
735.18	245.62
735.51	245.30
735.84	244.90
736.17	244.57
736.50	244.00
736.83	243.88
737.16	243.60
737.49	243.24
737.82	242.80
738.15	242.46
738.48	242.16
738.81	241.82
739.14	241.37
739.47	240.95
739.80	240.57
740.13	240.20
740.46	239.77
740.79	239.35
741.12	238.92
741.45	238.52
741.78	238.05
742.11	237.76
742.44	237.33
742.77	237.12
743.10	236.86
743.43	236.64
743.75	236.12
744.08	235.98
744.41	235.65
744.74	235.40
745.07	235.12
745.40	234.86
745.73	234.69
746.06	234.38
746.39	234.17
746.71	233.84
747.04	233.54
747.37	233.32
747.70	233.11
748.03	232.89
748.36	232.64
748.68	232.43
749.01	232.11
749.34	231.88
749.67	231.57
750.00	231.26
750.33	231.05
750.65	230.79
750.98	230.34
751.31	230.11
751.64	229.81
751.97	229.65
752.29	229.35
752.62	229.04
752.95	228.88
753.28	228.63
753.60	228.40
753.93	228.25
754.26	228.07
754.59	227.76
754.91	227.50
755.24	227.38
755.57	227.09
755.90	226.96
756.22	226.79
756.55	226.65
756.88	226.42
757.20	226.12
757.53	225.84
757.86	225.67
758.19	225.52
758.51	225.38
758.84	225.15
759.17	224.97
759.49	224.85
759.82	224.79
760.15	224.60
760.47	224.44
760.80	224.17
761.13	223.97
761.45	223.88
761.78	223.72
762.11	223.47
762.43	223.37
762.76	223.17
763.08	222.98
763.41	222.77
763.74	222.67
764.06	222.56
764.39	222.45
764.71	222.28
765.04	222.04
765.37	221.86
765.69	221.72
766.02	221.55
766.34	221.35
766.67	221.14
767.00	221.01
767.32	220.97
767.65	221.04
767.97	220.86
768.30	220.76
768.62	220.74
768.95	220.68
769.27	220.53
769.60	220.38
769.92	220.21
770.25	220.05
770.57	219.87
770.90	219.78
771.22	219.68
771.55	219.59
771.87	219.46
772.20	219.33
772.52	219.39
772.85	219.43
773.17	219.40
773.50	219.29
773.82	219.18
774.15	219.01
774.47	218.73
774.80	218.70
775.12	218.58
775.45	218.46
775.77	218.32
776.09	218.26
776.42	218.23
776.74	218.34
777.07	218.23
777.39	218.16
777.72	218.06
778.04	218.01
778.36	217.89
778.69	217.92
779.01	217.92
779.33	217.71
779.66	217.52
779.98	217.42
780.31	217.37
780.63	217.35
780.95	217.32
781.28	217.29
781.60	217.21
781.92	217.19
782.25	217.11
782.57	217.11
782.89	217.06
783.22	216.92
783.54	216.70
783.86	216.66
784.19	216.62
784.51	216.63
784.83	216.55
785.16	216.61
785.48	216.61
785.80	216.57
786.12	216.53
786.45	216.52
