SpectraSuite Data File
++++++++++++++++++++++++++++++++++++
Date: Mon Feb 25 17:36:05 EST 2013
User: group
Dark Spectrum Present: No
Reference Spectrum Present: No
Number of Sampled Component Spectra: 1
Spectrometers: USB2E7196
Integration Time (usec): 52000 (USB2E7196)
Spectra Averaged: 20 (USB2E7196)
Boxcar Smoothing: 10 (USB2E7196)
Correct for Electrical Dark: No (USB2E7196)
Strobe/Lamp Enabled: No (USB2E7196)
Correct for Detector Non-linearity: No (USB2E7196)
Correct for Stray Light: No (USB2E7196)
Number of Pixels in Processed Spectrum: 2048
>>>>>Begin Processed Spectral Data<<<<<
339.09	0.00
339.48	197.45
339.86	200.40
340.24	202.25
340.63	201.75
341.01	206.80
341.39	205.25
341.78	206.80
342.16	208.85
342.54	207.50
342.93	197.59
343.31	207.62
343.69	208.21
344.07	208.62
344.46	209.04
344.84	209.59
345.22	209.84
345.60	210.20
345.99	210.44
346.37	210.60
346.75	210.82
347.13	211.05
347.52	211.28
347.90	211.58
348.28	211.75
348.66	211.94
349.05	212.03
349.43	212.24
349.81	212.40
350.19	212.44
350.57	212.68
350.96	212.92
351.34	213.13
351.72	213.36
352.10	213.67
352.48	213.88
352.87	213.94
353.25	214.08
353.63	214.13
354.01	214.24
354.39	214.35
354.77	214.47
355.15	214.66
355.54	214.66
355.92	214.58
356.30	214.67
356.68	214.86
357.06	214.96
357.44	215.06
357.82	215.09
358.20	215.30
358.58	215.35
358.97	215.40
359.35	215.47
359.73	215.53
360.11	215.52
360.49	215.59
360.87	215.63
361.25	215.73
361.63	215.89
362.01	215.96
362.39	216.05
362.77	216.18
363.15	216.12
363.53	216.24
363.91	216.41
364.29	216.44
364.67	216.32
365.05	216.30
365.43	216.32
365.81	216.43
366.19	216.48
366.57	216.52
366.95	216.56
367.33	216.53
367.71	216.62
368.09	216.73
368.47	216.69
368.85	216.69
369.23	216.63
369.61	216.52
369.99	216.56
370.37	216.59
370.75	216.63
371.13	216.60
371.51	216.53
371.89	216.49
372.27	216.54
372.65	216.51
373.03	216.57
373.41	216.50
373.78	216.44
374.16	216.33
374.54	216.25
374.92	216.19
375.30	216.17
375.68	216.13
376.06	216.10
376.44	216.06
376.82	216.08
377.19	216.06
377.57	216.13
377.95	216.05
378.33	215.93
378.71	215.82
379.09	215.77
379.47	215.80
379.84	215.68
380.22	215.59
380.60	215.54
380.98	215.50
381.36	215.48
381.73	215.41
382.11	215.38
382.49	215.31
382.87	215.32
383.25	215.29
383.62	215.37
384.00	215.29
384.38	215.25
384.76	215.26
385.13	215.28
385.51	215.20
385.89	215.16
386.27	215.17
386.64	215.17
387.02	215.15
387.40	215.11
387.78	215.14
388.15	215.11
388.53	215.16
388.91	215.10
389.29	215.10
389.66	215.10
390.04	215.13
390.42	215.21
390.79	215.21
391.17	215.18
391.55	214.99
391.92	215.07
392.30	215.14
392.68	215.13
393.05	215.22
393.43	215.26
393.81	215.39
394.18	215.47
394.56	215.53
394.94	215.68
395.31	215.73
395.69	215.86
396.06	216.05
396.44	216.14
396.82	216.30
397.19	216.55
397.57	216.72
397.95	216.86
398.32	216.93
398.70	217.05
399.07	217.33
399.45	217.55
399.82	217.69
400.20	217.96
400.58	218.22
400.95	218.41
401.33	218.74
401.70	219.18
402.08	219.48
402.45	219.81
402.83	220.22
403.20	220.69
403.58	221.08
403.95	221.63
404.33	222.16
404.71	222.69
405.08	223.38
405.46	224.13
405.83	224.85
406.21	225.68
406.58	226.60
406.96	227.55
407.33	228.57
407.70	229.63
408.08	230.93
408.45	232.26
408.83	233.70
409.20	235.15
409.58	236.57
409.95	238.34
410.33	240.21
410.70	242.15
411.08	244.15
411.45	246.49
411.82	248.85
412.20	251.49
412.57	254.48
412.95	257.31
413.32	260.45
413.69	263.85
414.07	267.56
414.44	271.51
414.82	275.58
415.19	280.32
415.56	285.25
415.94	290.43
416.31	296.06
416.68	301.67
417.06	308.22
417.43	314.31
417.81	321.44
418.18	328.70
418.55	336.68
418.93	345.15
419.30	353.86
419.67	363.08
420.04	372.67
420.42	382.72
420.79	393.93
421.16	405.74
421.54	417.57
421.91	430.10
422.28	443.27
422.66	457.20
423.03	470.31
423.40	484.42
423.77	499.83
424.15	515.52
424.52	531.82
424.89	549.48
425.26	566.93
425.64	583.59
426.01	602.15
426.38	621.36
426.75	640.80
427.13	660.99
427.50	682.29
427.87	704.91
428.24	727.62
428.61	749.56
428.99	772.76
429.36	799.00
429.73	824.17
430.10	849.06
430.47	874.93
430.85	902.69
431.22	931.62
431.59	961.51
431.96	991.05
432.33	1024.07
432.70	1055.63
433.08	1092.99
433.45	1127.88
433.82	1162.82
434.19	1201.33
434.56	1239.45
434.93	1276.67
435.30	1313.87
435.68	1354.52
436.05	1395.09
436.42	1435.82
436.79	1473.42
437.16	1513.68
437.53	1556.70
437.90	1599.41
438.27	1641.51
438.64	1685.25
439.01	1725.60
439.38	1762.90
439.75	1798.51
440.13	1838.28
440.50	1876.62
440.87	1908.84
441.24	1942.57
441.61	1979.22
441.98	2007.97
442.35	2040.35
442.72	2072.36
443.09	2103.37
443.46	2124.55
443.83	2139.76
444.20	2153.27
444.57	2171.55
444.94	2182.02
445.31	2192.76
445.68	2201.99
446.05	2208.79
446.42	2208.60
446.79	2207.61
447.16	2206.10
447.53	2205.84
447.90	2194.71
448.27	2183.75
448.64	2165.62
449.01	2153.30
449.37	2128.72
449.74	2104.97
450.11	2075.43
450.48	2044.66
450.85	2013.02
451.22	1985.41
451.59	1959.00
451.96	1934.13
452.33	1899.52
452.70	1868.24
453.07	1830.45
453.43	1793.04
453.80	1755.68
454.17	1720.04
454.54	1686.75
454.91	1649.95
455.28	1614.46
455.65	1581.16
456.02	1545.50
456.38	1516.90
456.75	1481.03
457.12	1451.70
457.49	1422.38
457.86	1394.84
458.23	1369.31
458.59	1341.89
458.96	1314.13
459.33	1289.61
459.70	1264.75
460.07	1245.07
460.43	1222.85
460.80	1201.40
461.17	1182.87
461.54	1163.29
461.91	1144.65
462.27	1125.64
462.64	1109.78
463.01	1091.78
463.38	1074.32
463.74	1058.85
464.11	1044.11
464.48	1030.78
464.85	1016.19
465.21	1004.58
465.58	992.37
465.95	978.44
466.32	966.54
466.68	954.88
467.05	943.14
467.42	931.49
467.78	919.51
468.15	907.91
468.52	899.25
468.88	888.22
469.25	878.62
469.62	870.53
469.98	861.94
470.35	853.89
470.72	846.20
471.08	838.32
471.45	831.02
471.82	823.33
472.18	815.58
472.55	809.93
472.92	803.64
473.28	798.11
473.65	792.74
474.02	787.35
474.38	782.76
474.75	779.05
475.11	774.91
475.48	771.51
475.85	768.67
476.21	765.96
476.58	763.73
476.94	761.99
477.31	759.81
477.67	757.67
478.04	756.22
478.41	755.50
478.77	754.62
479.14	753.94
479.50	753.88
479.87	754.42
480.23	755.29
480.60	755.50
480.96	755.75
481.33	757.21
481.69	758.87
482.06	759.92
482.42	760.87
482.79	762.54
483.15	765.45
483.52	768.91
483.88	771.98
484.25	775.17
484.61	778.73
484.98	782.23
485.34	786.64
485.71	791.32
486.07	796.27
486.44	801.60
486.80	807.35
487.17	813.55
487.53	820.52
487.90	827.50
488.26	834.92
488.62	842.98
488.99	850.94
489.35	858.93
489.72	868.32
490.08	878.27
490.44	888.26
490.81	898.20
491.17	908.01
491.54	919.15
491.90	929.95
492.26	941.66
492.63	954.18
492.99	967.22
493.36	980.40
493.72	994.16
494.08	1008.14
494.45	1023.04
494.81	1038.51
495.17	1054.10
495.54	1070.52
495.90	1087.77
496.26	1105.00
496.63	1122.81
496.99	1141.03
497.35	1159.27
497.72	1177.94
498.08	1196.93
498.44	1216.05
498.80	1236.59
499.17	1256.77
499.53	1277.69
499.89	1299.26
500.26	1320.72
500.62	1341.82
500.98	1364.31
501.34	1386.55
501.71	1409.57
502.07	1432.76
502.43	1455.90
502.79	1479.21
503.16	1502.51
503.52	1525.70
503.88	1548.81
504.24	1572.28
504.60	1596.34
504.97	1621.22
505.33	1645.42
505.69	1671.02
506.05	1696.48
506.41	1721.08
506.78	1745.71
507.14	1770.70
507.50	1795.21
507.86	1819.84
508.22	1845.52
508.59	1870.49
508.95	1895.85
509.31	1920.67
509.67	1946.00
510.03	1971.24
510.39	1996.94
510.75	2022.20
511.12	2046.67
511.48	2071.33
511.84	2095.84
512.20	2120.24
512.56	2144.59
512.92	2169.38
513.28	2193.12
513.64	2216.70
514.00	2240.02
514.37	2263.58
514.73	2286.72
515.09	2309.30
515.45	2332.11
515.81	2353.95
516.17	2375.90
516.53	2397.35
516.89	2419.09
517.25	2438.63
517.61	2458.20
517.97	2477.45
518.33	2495.84
518.69	2515.53
519.05	2535.00
519.41	2554.22
519.77	2573.18
520.13	2590.78
520.49	2607.83
520.85	2624.78
521.21	2641.56
521.57	2659.13
521.93	2675.27
522.29	2692.27
522.65	2708.85
523.01	2724.95
523.37	2739.81
523.73	2754.64
524.09	2769.32
524.45	2783.78
524.81	2798.16
525.17	2812.73
525.53	2826.91
525.89	2841.67
526.25	2855.43
526.61	2867.56
526.97	2879.87
527.33	2891.78
527.68	2904.25
528.04	2916.92
528.40	2928.60
528.76	2940.27
529.12	2951.44
529.48	2962.91
529.84	2971.73
530.20	2981.95
530.56	2992.18
530.91	3003.44
531.27	3014.10
531.63	3024.08
531.99	3032.99
532.35	3042.65
532.71	3051.77
533.07	3061.72
533.42	3070.81
533.78	3080.16
534.14	3089.37
534.50	3098.26
534.86	3107.68
535.21	3114.90
535.57	3122.51
535.93	3129.61
536.29	3136.30
536.65	3143.85
537.00	3150.50
537.36	3158.51
537.72	3164.69
538.08	3171.13
538.44	3177.15
538.79	3182.86
539.15	3188.89
539.51	3195.42
539.87	3202.19
540.22	3207.72
540.58	3212.93
540.94	3218.59
541.29	3222.25
541.65	3224.81
542.01	3227.92
542.37	3230.71
542.72	3234.47
543.08	3237.29
543.44	3240.83
543.79	3243.94
544.15	3245.65
544.51	3249.57
544.87	3252.70
545.22	3255.02
545.58	3256.35
545.94	3257.16
546.29	3257.42
546.65	3257.44
547.01	3257.54
547.36	3257.74
547.72	3258.30
548.07	3257.65
548.43	3256.39
548.79	3255.08
549.14	3256.21
549.50	3257.07
549.86	3256.67
550.21	3255.64
550.57	3255.75
550.92	3254.71
551.28	3253.20
551.64	3251.76
551.99	3249.53
552.35	3248.45
552.70	3247.28
553.06	3246.93
553.41	3246.50
553.77	3245.89
554.13	3245.59
554.48	3245.84
554.84	3244.32
555.19	3242.72
555.55	3241.89
555.90	3240.83
556.26	3240.85
556.61	3239.74
556.97	3236.60
557.32	3234.26
557.68	3232.16
558.03	3228.96
558.39	3226.43
558.74	3225.76
559.10	3225.01
559.45	3223.64
559.81	3221.77
560.16	3219.61
560.52	3217.38
560.87	3215.43
561.23	3212.64
561.58	3209.48
561.94	3204.97
562.29	3200.91
562.64	3197.59
563.00	3193.52
563.35	3188.93
563.71	3185.48
564.06	3182.48
564.42	3179.97
564.77	3177.19
565.12	3174.83
565.48	3172.15
565.83	3170.02
566.19	3167.14
566.54	3163.38
566.89	3158.72
567.25	3153.96
567.60	3150.78
567.96	3146.12
568.31	3141.07
568.66	3137.40
569.02	3134.21
569.37	3131.33
569.72	3128.97
570.08	3125.66
570.43	3121.05
570.78	3118.57
571.14	3114.85
571.49	3110.32
571.84	3107.40
572.20	3102.56
572.55	3098.47
572.90	3092.85
573.26	3086.79
573.61	3079.88
573.96	3073.36
574.31	3067.61
574.67	3061.90
575.02	3054.82
575.37	3048.14
575.72	3041.61
576.08	3034.46
576.43	3026.92
576.78	3019.45
577.13	3012.56
577.49	3005.82
577.84	2999.69
578.19	2991.21
578.54	2982.80
578.90	2975.09
579.25	2965.35
579.60	2956.34
579.95	2946.71
580.30	2939.58
580.66	2931.66
581.01	2923.47
581.36	2914.38
581.71	2905.75
582.06	2897.31
582.42	2890.13
582.77	2881.42
583.12	2872.89
583.47	2864.34
583.82	2855.75
584.17	2846.38
584.53	2837.12
584.88	2827.43
585.23	2817.56
585.58	2809.15
585.93	2800.33
586.28	2791.81
586.63	2783.92
586.98	2776.31
587.34	2768.20
587.69	2758.61
588.04	2749.56
588.39	2741.36
588.74	2732.03
589.09	2723.05
589.44	2712.32
589.79	2701.64
590.14	2692.75
590.49	2682.96
590.84	2674.00
591.19	2664.91
591.54	2655.26
591.89	2644.04
592.25	2634.25
592.60	2624.07
592.95	2613.38
593.30	2602.84
593.65	2592.39
594.00	2582.38
594.35	2572.95
594.70	2563.00
595.05	2553.52
595.40	2543.36
595.75	2532.00
596.10	2522.37
596.45	2511.84
596.80	2503.03
597.15	2493.63
597.50	2483.58
597.85	2474.18
598.19	2462.85
598.54	2451.47
598.89	2441.31
599.24	2431.72
599.59	2420.79
599.94	2410.79
600.29	2400.56
600.64	2390.48
600.99	2379.36
601.34	2368.83
601.69	2356.74
602.04	2345.62
602.39	2335.55
602.74	2326.39
603.08	2318.42
603.43	2310.16
603.78	2300.85
604.13	2291.08
604.48	2280.55
604.83	2271.73
605.18	2262.08
605.53	2253.42
605.87	2244.57
606.22	2235.92
606.57	2226.55
606.92	2216.62
607.27	2206.94
607.62	2197.71
607.96	2188.85
608.31	2180.34
608.66	2170.11
609.01	2160.97
609.36	2151.29
609.70	2140.85
610.05	2129.86
610.40	2118.46
610.75	2106.58
611.10	2095.89
611.44	2084.26
611.79	2073.87
612.14	2061.98
612.49	2050.07
612.83	2038.42
613.18	2026.38
613.53	2014.67
613.88	2002.23
614.22	1991.20
614.57	1979.58
614.92	1968.11
615.27	1956.27
615.61	1943.97
615.96	1932.39
616.31	1921.56
616.65	1911.47
617.00	1900.75
617.35	1889.80
617.70	1878.50
618.04	1867.66
618.39	1856.77
618.74	1845.99
619.08	1834.19
619.43	1822.81
619.78	1812.52
620.12	1802.40
620.47	1792.22
620.82	1781.39
621.16	1771.91
621.51	1761.54
621.85	1751.61
622.20	1740.84
622.55	1729.44
622.89	1719.28
623.24	1708.96
623.59	1697.88
623.93	1686.74
624.28	1676.22
624.62	1665.78
624.97	1655.50
625.32	1645.59
625.66	1635.70
626.01	1626.51
626.35	1618.30
626.70	1609.51
627.04	1600.20
627.39	1590.09
627.73	1581.02
628.08	1572.04
628.43	1561.95
628.77	1553.08
629.12	1543.14
629.46	1533.69
629.81	1524.50
630.15	1514.90
630.50	1505.44
630.84	1496.06
631.19	1486.17
631.53	1476.67
631.88	1467.10
632.22	1457.59
632.57	1448.86
632.91	1439.59
633.26	1430.08
633.60	1420.08
633.95	1410.85
634.29	1401.83
634.64	1393.59
634.98	1384.17
635.32	1375.03
635.67	1367.34
636.01	1358.62
636.36	1349.93
636.70	1341.61
637.05	1333.30
637.39	1325.25
637.73	1317.00
638.08	1309.53
638.42	1302.00
638.77	1294.15
639.11	1286.38
639.45	1278.54
639.80	1269.92
640.14	1261.58
640.49	1253.22
640.83	1244.91
641.17	1236.72
641.52	1228.40
641.86	1219.47
642.20	1211.80
642.55	1203.30
642.89	1194.51
643.23	1186.00
643.58	1178.36
643.92	1170.17
644.26	1162.09
644.61	1153.62
644.95	1145.35
645.29	1137.03
645.64	1128.53
645.98	1120.21
646.32	1112.26
646.66	1104.71
647.01	1097.13
647.35	1089.49
647.69	1081.69
648.04	1074.36
648.38	1065.93
648.72	1058.48
649.06	1051.18
649.41	1042.96
649.75	1034.99
650.09	1027.20
650.43	1020.07
650.78	1012.97
651.12	1005.70
651.46	998.78
651.80	991.93
652.14	985.45
652.49	978.32
652.83	971.52
653.17	963.98
653.51	956.49
653.85	949.39
654.20	942.40
654.54	935.45
654.88	928.51
655.22	921.18
655.56	914.09
655.90	906.32
656.25	899.11
656.59	892.65
656.93	886.43
657.27	880.20
657.61	873.34
657.95	866.50
658.29	859.72
658.64	853.23
658.98	846.91
659.32	840.20
659.66	833.78
660.00	827.52
660.34	821.86
660.68	816.02
661.02	809.59
661.36	803.44
661.70	797.65
662.05	792.10
662.39	786.75
662.73	781.88
663.07	777.11
663.41	772.09
663.75	766.75
664.09	761.38
664.43	755.82
664.77	750.45
665.11	745.11
665.45	740.22
665.79	735.18
666.13	730.19
666.47	725.55
666.81	720.90
667.15	716.11
667.49	711.25
667.83	706.60
668.17	702.25
668.51	697.74
668.85	692.90
669.19	688.25
669.53	683.22
669.87	678.06
670.21	673.29
670.55	668.53
670.89	663.90
671.23	659.66
671.57	655.29
671.91	651.06
672.25	646.80
672.58	642.59
672.92	638.10
673.26	633.74
673.60	629.33
673.94	625.18
674.28	621.29
674.62	617.55
674.96	613.56
675.30	609.58
675.64	605.66
675.97	602.15
676.31	598.83
676.65	595.72
676.99	592.81
677.33	589.53
677.67	586.30
678.01	582.69
678.34	578.83
678.68	575.42
679.02	571.84
679.36	568.26
679.70	564.70
680.04	561.50
680.37	558.21
680.71	554.81
681.05	551.61
681.39	548.21
681.73	544.70
682.06	541.48
682.40	538.24
682.74	534.77
683.08	531.21
683.42	527.68
683.75	524.22
684.09	520.65
684.43	517.10
684.77	513.50
685.10	510.35
685.44	507.18
685.78	503.92
686.12	500.85
686.45	497.89
686.79	494.95
687.13	491.97
687.46	489.07
687.80	486.12
688.14	483.00
688.48	480.15
688.81	477.21
689.15	474.31
689.49	471.34
689.82	468.59
690.16	465.64
690.50	462.67
690.83	459.89
691.17	457.19
691.51	454.42
691.84	451.90
692.18	449.32
692.52	446.82
692.85	444.29
693.19	441.74
693.52	439.05
693.86	436.35
694.20	433.75
694.53	431.14
694.87	428.52
695.21	425.90
695.54	423.23
695.88	420.85
696.21	418.39
696.55	416.23
696.88	413.98
697.22	411.81
697.56	409.70
697.89	407.40
698.23	405.22
698.56	402.97
698.90	400.80
699.23	398.55
699.57	396.39
699.90	394.17
700.24	391.99
700.58	389.95
700.91	388.01
701.25	386.06
701.58	384.22
701.92	382.49
702.25	380.74
702.59	379.07
702.92	377.15
703.26	375.47
703.59	373.72
703.93	372.09
704.26	370.36
704.60	368.57
704.93	366.79
705.26	364.99
705.60	363.50
705.93	361.84
706.27	360.38
706.60	358.90
706.94	357.47
707.27	355.84
707.61	354.26
707.94	352.55
708.27	351.04
708.61	349.51
708.94	347.97
709.28	346.40
709.61	344.84
709.94	343.27
710.28	341.51
710.61	339.90
710.95	338.18
711.28	336.79
711.61	335.25
711.95	333.80
712.28	332.40
712.61	330.93
712.95	329.52
713.28	328.11
713.61	326.65
713.95	325.21
714.28	323.96
714.61	322.73
714.95	321.57
715.28	320.20
715.61	318.84
715.95	317.41
716.28	316.08
716.61	314.76
716.95	313.48
717.28	312.31
717.61	311.13
717.94	310.01
718.28	308.73
718.61	307.68
718.94	306.63
719.27	305.53
719.61	304.52
719.94	303.50
720.27	302.34
720.60	301.26
720.94	300.31
721.27	299.44
721.60	298.68
721.93	297.72
722.27	296.92
722.60	295.96
722.93	295.12
723.26	294.32
723.59	293.47
723.93	292.62
724.26	291.86
724.59	290.95
724.92	290.09
725.25	289.30
725.59	288.55
725.92	287.85
726.25	287.09
726.58	286.30
726.91	285.44
727.24	284.68
727.57	283.95
727.91	283.20
728.24	282.33
728.57	281.45
728.90	280.86
729.23	280.00
729.56	279.34
729.89	278.61
730.22	277.79
730.55	277.04
730.89	276.41
731.22	275.73
731.55	275.04
731.88	274.35
732.21	273.71
732.54	273.00
732.87	272.33
733.20	271.64
733.53	271.05
733.86	270.52
734.19	269.92
734.52	269.42
734.85	268.90
735.18	268.38
735.51	267.86
735.84	267.18
736.17	266.69
736.50	266.10
736.83	265.80
737.16	265.31
737.49	264.74
737.82	264.17
738.15	263.60
738.48	263.12
738.81	262.60
739.14	261.99
739.47	261.44
739.80	260.89
740.13	260.49
740.46	259.90
740.79	259.32
741.12	258.81
741.45	258.21
741.78	257.61
742.11	257.13
742.44	256.42
742.77	255.89
743.10	255.32
743.43	254.77
743.75	253.98
744.08	253.75
744.41	253.25
744.74	252.74
745.07	252.21
745.40	251.71
745.73	251.32
746.06	250.89
746.39	250.41
746.71	249.93
747.04	249.42
747.37	248.99
747.70	248.62
748.03	248.17
748.36	247.84
748.68	247.43
749.01	246.88
749.34	246.52
749.67	246.10
750.00	245.73
750.33	245.50
750.65	245.16
750.98	244.55
751.31	244.16
751.64	243.84
751.97	243.63
752.29	243.16
752.62	242.78
752.95	242.40
753.28	242.06
753.60	241.70
753.93	241.41
754.26	241.02
754.59	240.54
754.91	240.16
755.24	239.68
755.57	239.32
755.90	239.07
756.22	238.70
756.55	238.38
756.88	238.05
757.20	237.65
757.53	237.29
757.86	236.91
758.19	236.56
758.51	236.20
758.84	235.67
759.17	235.52
759.49	235.23
759.82	235.11
760.15	234.77
760.47	234.47
760.80	234.08
761.13	233.84
761.45	233.64
761.78	233.34
762.11	233.13
762.43	232.84
762.76	232.53
763.08	232.37
763.41	232.20
763.74	231.92
764.06	231.65
764.39	231.43
764.71	231.23
765.04	231.07
765.37	230.83
765.69	230.73
766.02	230.43
766.34	230.19
766.67	229.89
767.00	229.73
767.32	229.66
767.65	229.62
767.97	229.39
768.30	229.20
768.62	229.03
768.95	228.84
769.27	228.72
769.60	228.58
769.92	228.30
770.25	227.99
770.57	227.83
770.90	227.65
771.22	227.44
771.55	227.30
771.87	227.02
772.20	226.88
772.52	226.80
772.85	226.82
773.17	226.63
773.50	226.44
773.82	226.28
774.15	226.04
774.47	225.74
774.80	225.60
775.12	225.47
775.45	225.32
775.77	225.23
776.09	225.07
776.42	224.95
776.74	224.92
777.07	224.78
777.39	224.56
777.72	224.43
778.04	224.29
778.36	224.12
778.69	224.08
779.01	223.95
779.33	223.71
779.66	223.43
779.98	223.35
780.31	223.24
780.63	223.17
780.95	223.10
781.28	222.94
781.60	222.82
781.92	222.72
782.25	222.62
782.57	222.51
782.89	222.29
