SpectraSuite Data File
++++++++++++++++++++++++++++++++++++
Date: Mon Feb 25 17:30:20 EST 2013
User: group
Dark Spectrum Present: No
Reference Spectrum Present: No
Number of Sampled Component Spectra: 1
Spectrometers: USB2E7196
Integration Time (usec): 52000 (USB2E7196)
Spectra Averaged: 20 (USB2E7196)
Boxcar Smoothing: 10 (USB2E7196)
Correct for Electrical Dark: No (USB2E7196)
Strobe/Lamp Enabled: No (USB2E7196)
Correct for Detector Non-linearity: No (USB2E7196)
Correct for Stray Light: No (USB2E7196)
Number of Pixels in Processed Spectrum: 2048
>>>>>Begin Processed Spectral Data<<<<<
339.09	0.00
339.48	198.65
339.86	202.45
340.24	201.35
340.63	203.80
341.01	208.00
341.39	206.80
341.78	207.40
342.16	210.05
342.54	209.40
342.93	198.78
343.31	208.87
343.69	209.43
344.07	209.84
344.46	210.27
344.84	210.64
345.22	210.75
345.60	210.94
345.99	211.14
346.37	211.20
346.75	211.29
347.13	211.40
347.52	211.41
347.90	211.54
348.28	211.53
348.66	211.55
349.05	211.55
349.43	211.55
349.81	211.56
350.19	211.56
350.57	211.58
350.96	211.67
351.34	211.68
351.72	211.76
352.10	211.86
352.48	211.92
352.87	211.93
353.25	211.98
353.63	212.05
354.01	212.09
354.39	212.18
354.77	212.26
355.15	212.31
355.54	212.33
355.92	212.27
356.30	212.37
356.68	212.56
357.06	212.52
357.44	212.59
357.82	212.66
358.20	212.79
358.58	212.74
358.97	212.77
359.35	212.83
359.73	212.83
360.11	212.75
360.49	212.86
360.87	212.89
361.25	212.99
361.63	213.07
362.01	213.11
362.39	213.10
362.77	213.13
363.15	213.17
363.53	213.27
363.91	213.26
364.29	213.25
364.67	213.18
365.05	213.28
365.43	213.35
365.81	213.43
366.19	213.50
366.57	213.64
366.95	213.59
367.33	213.64
367.71	213.73
368.09	213.79
368.47	213.75
368.85	213.79
369.23	213.83
369.61	213.77
369.99	213.82
370.37	213.85
370.75	213.93
371.13	213.91
371.51	213.86
371.89	213.88
372.27	213.90
372.65	213.78
373.03	213.76
373.41	213.64
373.78	213.56
374.16	213.42
374.54	213.31
374.92	213.29
375.30	213.20
375.68	213.14
376.06	213.18
376.44	213.16
376.82	213.12
377.19	213.08
377.57	213.06
377.95	212.93
378.33	212.81
378.71	212.66
379.09	212.64
379.47	212.56
379.84	212.50
380.22	212.40
380.60	212.42
380.98	212.39
381.36	212.39
381.73	212.32
382.11	212.30
382.49	212.29
382.87	212.25
383.25	212.22
383.62	212.41
384.00	212.35
384.38	212.30
384.76	212.31
385.13	212.34
385.51	212.37
385.89	212.37
386.27	212.39
386.64	212.40
387.02	212.31
387.40	212.25
387.78	212.27
388.15	212.24
388.53	212.20
388.91	212.19
389.29	212.12
389.66	212.09
390.04	212.11
390.42	212.05
390.79	212.01
391.17	212.02
391.55	211.75
391.92	211.63
392.30	211.65
392.68	211.59
393.05	211.50
393.43	211.40
393.81	211.38
394.18	211.36
394.56	211.29
394.94	211.34
395.31	211.32
395.69	211.34
396.06	211.35
396.44	211.33
396.82	211.28
397.19	211.44
397.57	211.45
397.95	211.45
398.32	211.41
398.70	211.48
399.07	211.51
399.45	211.49
399.82	211.64
400.20	211.61
400.58	211.60
400.95	211.56
401.33	211.66
401.70	211.84
402.08	211.89
402.45	211.95
402.83	211.95
403.20	212.08
403.58	212.10
403.95	212.19
404.33	212.28
404.71	212.35
405.08	212.50
405.46	212.61
405.83	212.67
406.21	212.89
406.58	213.01
406.96	213.07
407.33	213.30
407.70	213.43
408.08	213.74
408.45	214.00
408.83	214.37
409.20	214.59
409.58	214.68
409.95	214.95
410.33	215.22
410.70	215.55
411.08	215.86
411.45	216.28
411.82	216.61
412.20	217.05
412.57	217.55
412.95	217.83
413.32	218.34
413.69	218.91
414.07	219.43
414.44	220.03
414.82	220.75
415.19	221.43
415.56	222.11
415.94	222.81
416.31	223.63
416.68	224.35
417.06	225.31
417.43	226.24
417.81	227.31
418.18	228.49
418.55	229.66
418.93	230.94
419.30	232.20
419.67	233.63
420.04	234.95
420.42	236.44
420.79	238.27
421.16	239.96
421.54	241.70
421.91	243.45
422.28	245.37
422.66	247.30
423.03	249.21
423.40	251.26
423.77	253.52
424.15	255.75
424.52	258.01
424.89	260.54
425.26	263.07
425.64	265.40
426.01	267.81
426.38	270.42
426.75	273.07
427.13	275.73
427.50	278.57
427.87	281.62
428.24	284.64
428.61	287.46
428.99	290.61
429.36	294.05
429.73	297.47
430.10	300.73
430.47	304.25
430.85	307.87
431.22	311.67
431.59	315.66
431.96	319.52
432.33	323.77
432.70	327.75
433.08	332.36
433.45	336.88
433.82	341.39
434.19	346.29
434.56	351.19
434.93	355.87
435.30	360.49
435.68	365.63
436.05	370.56
436.42	375.45
436.79	380.01
437.16	384.83
437.53	389.92
437.90	395.07
438.27	400.06
438.64	405.16
439.01	409.94
439.38	414.05
439.75	418.20
440.13	422.96
440.50	427.27
440.87	431.05
441.24	434.76
441.61	438.74
441.98	441.69
442.35	445.18
442.72	448.72
443.09	452.20
443.46	454.15
443.83	455.55
444.20	456.69
444.57	458.38
444.94	459.12
445.31	459.89
445.68	460.63
446.05	460.74
446.42	460.27
446.79	459.61
447.16	458.78
447.53	458.08
447.90	456.04
448.27	454.10
448.64	451.15
449.01	449.08
449.37	445.75
449.74	442.53
450.11	438.52
450.48	434.18
450.85	429.63
451.22	425.82
451.59	422.14
451.96	418.72
452.33	414.12
452.70	409.90
453.07	404.96
453.43	399.84
453.80	395.03
454.17	390.36
454.54	385.96
454.91	381.40
455.28	376.77
455.65	372.41
456.02	368.18
456.38	364.56
456.75	360.04
457.12	356.15
457.49	352.44
457.86	348.74
458.23	345.64
458.59	342.29
458.96	338.95
459.33	335.84
459.70	332.78
460.07	330.40
460.43	327.67
460.80	325.07
461.17	322.84
461.54	320.55
461.91	318.23
462.27	315.92
462.64	313.93
463.01	311.89
463.38	309.88
463.74	307.81
464.11	305.98
464.48	304.44
464.85	302.84
465.21	301.51
465.58	300.10
465.95	298.42
466.32	297.11
466.68	295.66
467.05	294.38
467.42	293.03
467.78	291.55
468.15	290.27
468.52	289.37
468.88	288.14
469.25	286.98
469.62	286.17
469.98	285.18
470.35	284.31
470.72	283.40
471.08	282.52
471.45	281.74
471.82	281.07
472.18	280.26
472.55	279.71
472.92	279.00
473.28	278.49
473.65	277.95
474.02	277.34
474.38	276.98
474.75	276.63
475.11	276.22
475.48	276.04
475.85	275.76
476.21	275.50
476.58	275.33
476.94	275.33
477.31	275.26
477.67	275.24
478.04	275.22
478.41	275.43
478.77	275.76
479.14	275.89
479.50	276.16
479.87	276.50
480.23	276.85
480.60	277.23
480.96	277.65
481.33	278.29
481.69	278.89
482.06	279.48
482.42	280.26
482.79	281.06
483.15	281.94
483.52	283.11
483.88	284.13
484.25	285.20
484.61	286.21
484.98	287.32
485.34	288.60
485.71	289.95
486.07	291.27
486.44	292.53
486.80	294.07
487.17	295.64
487.53	297.34
487.90	299.16
488.26	301.11
488.62	303.20
488.99	305.18
489.35	307.37
489.72	309.65
490.08	311.96
490.44	314.44
490.81	317.10
491.17	319.62
491.54	322.48
491.90	325.53
492.26	328.62
492.63	331.86
492.99	335.37
493.36	339.16
493.72	342.92
494.08	346.92
494.45	351.25
494.81	355.69
495.17	360.36
495.54	365.23
495.90	370.27
496.26	375.29
496.63	380.75
496.99	386.44
497.35	392.34
497.72	398.51
498.08	404.94
498.44	411.65
498.80	418.72
499.17	426.10
499.53	433.54
499.89	441.55
500.26	449.65
500.62	457.81
500.98	466.52
501.34	475.70
501.71	485.00
502.07	494.41
502.43	504.33
502.79	514.39
503.16	524.82
503.52	535.59
503.88	546.73
504.24	558.20
504.60	569.79
504.97	581.95
505.33	594.31
505.69	607.44
506.05	620.53
506.41	633.91
506.78	647.33
507.14	661.50
507.50	675.86
507.86	690.71
508.22	705.97
508.59	721.19
508.95	736.98
509.31	753.00
509.67	769.55
510.03	786.06
510.39	803.20
510.75	820.73
511.12	838.51
511.48	856.66
511.84	874.88
512.20	893.67
512.56	912.52
512.92	931.76
513.28	950.96
513.64	970.62
514.00	990.25
514.37	1010.25
514.73	1030.59
515.09	1051.05
515.45	1071.48
515.81	1092.33
516.17	1113.23
516.53	1134.05
516.89	1155.31
517.25	1176.34
517.61	1197.91
517.97	1219.07
518.33	1240.16
518.69	1261.45
519.05	1282.95
519.41	1304.81
519.77	1326.60
520.13	1348.43
520.49	1370.07
520.85	1392.20
521.21	1414.15
521.57	1436.62
521.93	1458.45
522.29	1480.79
522.65	1502.78
523.01	1524.63
523.37	1546.10
523.73	1567.98
524.09	1589.93
524.45	1611.63
524.81	1633.33
525.17	1655.15
525.53	1677.04
525.89	1698.66
526.25	1720.16
526.61	1740.94
526.97	1762.00
527.33	1782.76
527.68	1803.76
528.04	1824.59
528.40	1844.05
528.76	1864.42
529.12	1884.50
529.48	1905.27
529.84	1924.82
530.20	1944.47
530.56	1964.37
530.91	1984.49
531.27	2004.20
531.63	2023.16
531.99	2042.42
532.35	2061.18
532.71	2079.58
533.07	2098.48
533.42	2116.60
533.78	2134.92
534.14	2153.10
534.50	2169.61
534.86	2186.94
535.21	2202.86
535.57	2219.73
535.93	2236.44
536.29	2252.26
536.65	2268.14
537.00	2283.04
537.36	2297.68
537.72	2312.25
538.08	2326.70
538.44	2341.12
538.79	2355.79
539.15	2370.13
539.51	2384.15
539.87	2398.70
540.22	2412.29
540.58	2426.25
540.94	2440.07
541.29	2452.18
541.65	2463.65
542.01	2476.25
542.37	2487.57
542.72	2499.48
543.08	2509.73
543.44	2521.05
543.79	2530.63
544.15	2540.07
544.51	2550.15
544.87	2560.56
545.22	2569.11
545.58	2577.20
545.94	2583.96
546.29	2589.75
546.65	2595.52
547.01	2600.85
547.36	2605.81
547.72	2610.81
548.07	2614.53
548.43	2617.61
548.79	2621.05
549.14	2625.27
549.50	2629.20
549.86	2632.70
550.21	2635.94
550.57	2639.48
550.92	2641.78
551.28	2643.99
551.64	2645.96
551.99	2648.26
552.35	2649.37
552.70	2651.75
553.06	2654.00
553.41	2656.76
553.77	2659.40
554.13	2661.48
554.48	2663.08
554.84	2664.50
555.19	2664.92
555.55	2665.05
555.90	2665.47
556.26	2665.69
556.61	2665.38
556.97	2663.65
557.32	2663.18
557.68	2661.38
558.03	2659.87
558.39	2658.35
558.74	2657.72
559.10	2656.72
559.45	2654.80
559.81	2653.48
560.16	2650.50
560.52	2648.12
560.87	2644.84
561.23	2640.70
561.58	2637.98
561.94	2634.70
562.29	2630.62
562.64	2627.93
563.00	2625.28
563.35	2623.06
563.71	2621.10
564.06	2618.83
564.42	2617.31
564.77	2614.47
565.12	2612.86
565.48	2609.27
565.83	2606.09
566.19	2602.79
566.54	2598.23
566.89	2594.00
567.25	2590.09
567.60	2586.93
567.96	2583.23
568.31	2579.53
568.66	2576.10
569.02	2571.54
569.37	2566.62
569.72	2563.02
570.08	2557.82
570.43	2551.95
570.78	2546.19
571.14	2539.76
571.49	2533.05
571.84	2526.81
572.20	2519.92
572.55	2513.05
572.90	2506.47
573.26	2499.41
573.61	2492.66
573.96	2486.55
574.31	2478.83
574.67	2471.00
575.02	2462.98
575.37	2454.22
575.72	2445.45
576.08	2437.98
576.43	2429.53
576.78	2422.06
577.13	2414.48
577.49	2406.77
577.84	2399.40
578.19	2392.02
578.54	2385.32
578.90	2378.32
579.25	2369.90
579.60	2361.36
579.95	2352.37
580.30	2344.89
580.66	2337.38
581.01	2328.33
581.36	2319.25
581.71	2311.41
582.06	2303.07
582.42	2295.42
582.77	2286.80
583.12	2278.48
583.47	2269.78
583.82	2261.83
584.17	2252.76
584.53	2243.28
584.88	2234.82
585.23	2226.03
585.58	2216.33
585.93	2206.64
586.28	2197.97
586.63	2189.42
586.98	2181.60
587.34	2173.64
587.69	2164.49
588.04	2155.28
588.39	2147.37
588.74	2138.65
589.09	2130.19
589.44	2120.89
589.79	2112.15
590.14	2104.64
590.49	2096.43
590.84	2087.83
591.19	2079.93
591.54	2071.58
591.89	2062.17
592.25	2052.96
592.60	2043.82
592.95	2035.12
593.30	2025.98
593.65	2016.49
594.00	2007.45
594.35	1999.41
594.70	1990.52
595.05	1982.41
595.40	1974.04
595.75	1964.85
596.10	1957.08
596.45	1949.07
596.80	1941.80
597.15	1933.65
597.50	1924.87
597.85	1916.58
598.19	1908.40
598.54	1899.92
598.89	1892.49
599.24	1885.81
599.59	1878.72
599.94	1871.88
600.29	1864.59
600.64	1857.18
600.99	1849.33
601.34	1842.22
601.69	1833.74
602.04	1825.99
602.39	1818.09
602.74	1810.43
603.08	1804.16
603.43	1797.22
603.78	1789.42
604.13	1781.80
604.48	1774.48
604.83	1767.68
605.18	1761.35
605.53	1754.10
605.87	1746.85
606.22	1740.04
606.57	1732.43
606.92	1724.96
607.27	1717.35
607.62	1710.38
607.96	1703.60
608.31	1697.52
608.66	1690.00
609.01	1682.80
609.36	1675.33
609.70	1667.68
610.05	1660.02
610.40	1652.01
610.75	1643.55
611.10	1636.06
611.44	1627.24
611.79	1618.34
612.14	1609.59
612.49	1600.03
612.83	1591.57
613.18	1582.25
613.53	1572.80
613.88	1563.44
614.22	1554.64
614.57	1545.70
614.92	1536.45
615.27	1527.65
615.61	1518.10
615.96	1509.43
616.31	1500.96
616.65	1493.44
617.00	1485.63
617.35	1477.81
617.70	1469.33
618.04	1460.64
618.39	1451.58
618.74	1443.26
619.08	1435.14
619.43	1427.05
619.78	1419.59
620.12	1411.46
620.47	1404.08
620.82	1395.91
621.16	1388.18
621.51	1379.99
621.85	1372.02
622.20	1364.03
622.55	1355.71
622.89	1347.84
623.24	1340.15
623.59	1331.75
623.93	1323.06
624.28	1314.97
624.62	1306.73
624.97	1298.74
625.32	1291.23
625.66	1284.12
626.01	1277.41
626.35	1270.43
626.70	1263.02
627.04	1255.70
627.39	1248.61
627.73	1241.22
628.08	1234.73
628.43	1227.74
628.77	1220.71
629.12	1213.43
629.46	1206.85
629.81	1199.86
630.15	1192.65
630.50	1185.50
630.84	1178.59
631.19	1171.99
631.53	1165.20
631.88	1158.09
632.22	1150.81
632.57	1144.30
632.91	1137.20
633.26	1129.75
633.60	1122.59
633.95	1115.95
634.29	1108.94
634.64	1102.29
634.98	1095.54
635.32	1088.63
635.67	1082.39
636.01	1076.06
636.36	1069.55
636.70	1063.13
637.05	1056.88
637.39	1050.80
637.73	1044.46
638.08	1038.79
638.42	1032.80
638.77	1026.71
639.11	1020.55
639.45	1014.66
639.80	1008.28
640.14	1001.81
640.49	995.87
640.83	989.86
641.17	983.75
641.52	977.84
641.86	971.58
642.20	965.73
642.55	959.23
642.89	952.64
643.23	946.35
643.58	940.86
643.92	934.44
644.26	928.28
644.61	922.32
644.95	916.55
645.29	910.33
645.64	903.96
645.98	897.83
646.32	892.18
646.66	886.07
647.01	880.20
647.35	874.60
647.69	868.54
648.04	862.81
648.38	856.81
648.72	851.08
649.06	845.14
649.41	839.13
649.75	833.63
650.09	828.20
650.43	822.48
650.78	816.23
651.12	810.43
651.46	804.75
651.80	799.04
652.14	793.16
652.49	787.38
652.83	781.73
653.17	775.82
653.51	770.14
653.85	764.70
654.20	758.95
654.54	753.40
654.88	747.94
655.22	742.26
655.56	736.66
655.90	730.89
656.25	725.23
656.59	719.80
656.93	714.58
657.27	709.38
657.61	704.12
657.95	699.18
658.29	694.30
658.64	689.38
658.98	684.33
659.32	679.11
659.66	674.22
660.00	669.21
660.34	664.16
660.68	659.08
661.02	654.16
661.36	649.78
661.70	644.95
662.05	640.35
662.39	635.96
662.73	631.75
663.07	627.52
663.41	623.55
663.75	619.26
664.09	614.69
664.43	610.06
664.77	605.81
665.11	601.46
665.45	597.04
665.79	592.77
666.13	588.51
666.47	584.55
666.81	580.47
667.15	576.51
667.49	572.90
667.83	569.07
668.17	565.33
668.51	561.49
668.85	558.03
669.19	554.54
669.53	550.79
669.87	546.98
670.21	543.27
670.55	539.39
670.89	535.98
671.23	532.72
671.57	529.44
671.91	525.95
672.25	522.50
672.58	519.16
672.92	515.85
673.26	512.86
673.60	509.75
673.94	506.55
674.28	503.38
674.62	500.16
674.96	497.03
675.30	494.01
675.64	491.01
675.97	487.72
676.31	484.74
676.65	481.83
676.99	479.15
677.33	476.26
677.67	473.50
678.01	470.49
678.34	467.64
678.68	464.91
679.02	462.03
679.36	459.34
679.70	456.70
680.04	453.90
680.37	450.96
680.71	448.29
681.05	445.78
681.39	443.14
681.73	440.58
682.06	438.21
682.40	435.82
682.74	433.14
683.08	430.84
683.42	428.37
683.75	425.87
684.09	423.21
684.43	420.77
684.77	418.23
685.10	415.81
685.44	413.31
685.78	410.85
686.12	408.67
686.45	406.31
686.79	404.08
687.13	402.01
687.46	399.90
687.80	397.76
688.14	395.45
688.48	393.42
688.81	391.15
689.15	389.02
689.49	386.73
689.82	384.61
690.16	382.29
690.50	380.00
690.83	377.94
691.17	375.86
691.51	373.85
691.84	371.87
692.18	369.88
692.52	368.17
692.85	366.35
693.19	364.51
693.52	362.73
693.86	360.71
694.20	358.88
694.53	357.01
694.87	355.09
695.21	353.27
695.54	351.34
695.88	349.70
696.21	347.86
696.55	346.21
696.88	344.64
697.22	342.97
697.56	341.40
697.89	339.82
698.23	338.28
698.56	336.63
698.90	335.19
699.23	333.68
699.57	332.07
699.90	330.43
700.24	328.80
700.58	327.19
700.91	325.76
701.25	324.32
701.58	322.98
701.92	321.52
702.25	320.13
702.59	318.82
702.92	317.43
703.26	316.03
703.59	314.79
703.93	313.63
704.26	312.45
704.60	311.23
704.93	309.86
705.26	308.68
705.60	307.52
705.93	306.33
706.27	305.13
706.60	303.94
706.94	302.92
707.27	301.77
707.61	300.61
707.94	299.53
708.27	298.23
708.61	297.01
708.94	296.00
709.28	294.97
709.61	293.88
709.94	292.75
710.28	291.82
710.61	290.73
710.95	289.52
711.28	288.65
711.61	287.63
711.95	286.83
712.28	285.84
712.61	284.94
712.95	284.04
713.28	283.21
713.61	282.30
713.95	281.37
714.28	280.61
714.61	279.83
714.95	278.95
715.28	278.18
715.61	277.36
715.95	276.41
716.28	275.57
716.61	274.84
716.95	274.06
717.28	273.23
717.61	272.45
717.94	271.76
718.28	270.94
718.61	270.21
718.94	269.34
719.27	268.60
719.61	267.88
719.94	267.15
720.27	266.30
720.60	265.62
720.94	264.95
721.27	264.23
721.60	263.59
721.93	262.96
722.27	262.47
722.60	261.92
722.93	261.50
723.26	260.90
723.59	260.25
723.93	259.74
724.26	259.24
724.59	258.69
724.92	258.15
725.25	257.63
725.59	257.09
725.92	256.68
726.25	256.14
726.58	255.65
726.91	255.11
727.24	254.72
727.57	254.19
727.91	253.68
728.24	253.25
728.57	252.73
728.90	252.37
729.23	251.77
729.56	251.37
729.89	250.84
730.22	250.37
730.55	250.02
730.89	249.55
731.22	249.12
731.55	248.78
731.88	248.26
732.21	247.75
732.54	247.31
732.87	246.82
733.20	246.44
733.53	246.09
733.86	245.80
734.19	245.40
734.52	245.14
734.85	244.86
735.18	244.41
735.51	244.10
735.84	243.71
736.17	243.42
736.50	242.92
736.83	242.73
737.16	242.34
737.49	241.96
737.82	241.62
738.15	241.28
738.48	240.84
738.81	240.58
739.14	240.27
739.47	239.98
739.80	239.72
740.13	239.37
740.46	239.01
740.79	238.61
741.12	238.23
741.45	237.82
741.78	237.42
742.11	237.20
742.44	236.80
742.77	236.50
743.10	236.19
743.43	235.95
743.75	235.49
744.08	235.46
744.41	235.07
744.74	234.85
745.07	234.51
745.40	234.21
745.73	233.96
746.06	233.64
746.39	233.38
746.71	233.04
747.04	232.83
747.37	232.46
747.70	232.24
748.03	232.01
748.36	231.75
748.68	231.53
749.01	231.22
749.34	231.11
749.67	230.83
750.00	230.62
750.33	230.50
750.65	230.31
750.98	229.82
751.31	229.60
751.64	229.35
751.97	229.22
752.29	229.05
752.62	228.75
752.95	228.57
753.28	228.34
753.60	228.08
753.93	227.84
754.26	227.72
754.59	227.38
754.91	227.15
755.24	226.92
755.57	226.73
755.90	226.51
756.22	226.23
756.55	226.05
756.88	225.81
757.20	225.50
757.53	225.25
757.86	225.10
758.19	224.96
758.51	224.72
758.84	224.43
759.17	224.23
759.49	224.04
759.82	223.99
760.15	223.83
760.47	223.64
760.80	223.47
761.13	223.30
761.45	223.22
761.78	223.06
762.11	222.95
762.43	222.78
762.76	222.63
763.08	222.52
763.41	222.36
763.74	222.16
764.06	221.99
764.39	221.92
764.71	221.70
765.04	221.51
765.37	221.38
765.69	221.27
766.02	221.16
766.34	221.11
766.67	220.96
767.00	220.92
767.32	220.95
767.65	220.92
767.97	220.79
768.30	220.68
768.62	220.62
768.95	220.48
769.27	220.35
769.60	220.33
769.92	220.17
770.25	220.02
770.57	219.86
770.90	219.75
771.22	219.58
771.55	219.53
771.87	219.49
772.20	219.39
772.52	219.49
772.85	219.62
773.17	219.50
773.50	219.28
773.82	219.14
774.15	219.00
774.47	218.82
774.80	218.72
775.12	218.64
775.45	218.57
775.77	218.49
776.09	218.41
776.42	218.30
776.74	218.28
777.07	218.27
777.39	218.30
777.72	218.22
778.04	218.19
778.36	218.12
778.69	218.05
779.01	218.02
779.33	217.74
779.66	217.45
779.98	217.36
780.31	217.33
780.63	217.32
780.95	217.28
781.28	217.21
781.60	217.15
781.92	217.10
782.25	216.97
782.57	216.98
782.89	216.86
783.22	216.70
783.54	216.60
783.86	216.55
784.19	216.44
784.51	216.43
784.83	216.34
785.16	216.30
785.48	216.21
785.80	216.13
786.12	216.11
786.45	216.02
