SpectraSuite Data File
++++++++++++++++++++++++++++++++++++
Date: Mon Feb 25 17:30:11 EST 2013
User: group
Dark Spectrum Present: No
Reference Spectrum Present: No
Number of Sampled Component Spectra: 1
Spectrometers: USB2E7196
Integration Time (usec): 52000 (USB2E7196)
Spectra Averaged: 20 (USB2E7196)
Boxcar Smoothing: 10 (USB2E7196)
Correct for Electrical Dark: No (USB2E7196)
Strobe/Lamp Enabled: No (USB2E7196)
Correct for Detector Non-linearity: No (USB2E7196)
Correct for Stray Light: No (USB2E7196)
Number of Pixels in Processed Spectrum: 2048
>>>>>Begin Processed Spectral Data<<<<<
339.09	0.00
339.48	198.00
339.86	199.20
340.24	201.50
340.63	201.75
341.01	207.60
341.39	204.55
341.78	208.10
342.16	208.30
342.54	208.80
342.93	198.13
343.31	208.15
343.69	208.75
344.07	209.26
344.46	209.74
344.84	210.16
345.22	210.39
345.60	210.72
345.99	210.86
346.37	211.10
346.75	211.24
347.13	211.29
347.52	211.38
347.90	211.49
348.28	211.50
348.66	211.53
349.05	211.50
349.43	211.56
349.81	211.70
350.19	211.77
350.57	211.90
350.96	211.95
351.34	212.10
351.72	212.20
352.10	212.37
352.48	212.35
352.87	212.46
353.25	212.43
353.63	212.52
354.01	212.59
354.39	212.60
354.77	212.65
355.15	212.76
355.54	212.80
355.92	212.89
356.30	212.97
356.68	213.09
357.06	213.16
357.44	213.13
357.82	213.07
358.20	213.07
358.58	213.05
358.97	213.11
359.35	213.14
359.73	213.21
360.11	213.21
360.49	213.35
360.87	213.32
361.25	213.45
361.63	213.51
362.01	213.52
362.39	213.51
362.77	213.55
363.15	213.50
363.53	213.50
363.91	213.51
364.29	213.53
364.67	213.38
365.05	213.39
365.43	213.46
365.81	213.52
366.19	213.70
366.57	213.84
366.95	213.76
367.33	213.73
367.71	213.71
368.09	213.68
368.47	213.65
368.85	213.64
369.23	213.58
369.61	213.53
369.99	213.53
370.37	213.57
370.75	213.64
371.13	213.60
371.51	213.50
371.89	213.46
372.27	213.44
372.65	213.35
373.03	213.24
373.41	213.17
373.78	213.06
374.16	212.92
374.54	212.74
374.92	212.70
375.30	212.65
375.68	212.51
376.06	212.51
376.44	212.45
376.82	212.45
377.19	212.49
377.57	212.38
377.95	212.35
378.33	212.26
378.71	212.08
379.09	212.11
379.47	212.18
379.84	212.08
380.22	211.99
380.60	211.98
380.98	212.03
381.36	212.04
381.73	212.01
382.11	211.98
382.49	212.04
382.87	212.06
383.25	211.99
383.62	212.19
384.00	212.05
384.38	212.01
384.76	212.06
385.13	212.03
385.51	211.98
385.89	211.95
386.27	211.92
386.64	211.97
387.02	211.92
387.40	211.89
387.78	211.90
388.15	211.81
388.53	211.81
388.91	211.73
389.29	211.63
389.66	211.65
390.04	211.63
390.42	211.56
390.79	211.51
391.17	211.47
391.55	211.26
391.92	211.33
392.30	211.32
392.68	211.22
393.05	211.18
393.43	211.23
393.81	211.20
394.18	211.16
394.56	211.15
394.94	211.20
395.31	211.17
395.69	211.18
396.06	211.27
396.44	211.37
396.82	211.40
397.19	211.50
397.57	211.50
397.95	211.47
398.32	211.40
398.70	211.45
399.07	211.52
399.45	211.58
399.82	211.56
400.20	211.58
400.58	211.60
400.95	211.63
401.33	211.71
401.70	211.86
402.08	211.95
402.45	211.97
402.83	212.10
403.20	212.18
403.58	212.31
403.95	212.44
404.33	212.47
404.71	212.57
405.08	212.77
405.46	212.88
405.83	213.10
406.21	213.34
406.58	213.43
406.96	213.61
407.33	213.77
407.70	213.99
408.08	214.29
408.45	214.58
408.83	214.78
409.20	214.99
409.58	215.09
409.95	215.35
410.33	215.67
410.70	215.89
411.08	216.24
411.45	216.53
411.82	216.90
412.20	217.38
412.57	217.87
412.95	218.18
413.32	218.74
413.69	219.20
414.07	219.71
414.44	220.34
414.82	220.91
415.19	221.60
415.56	222.35
415.94	223.13
416.31	223.95
416.68	224.89
417.06	225.84
417.43	226.84
417.81	228.02
418.18	229.07
418.55	230.20
418.93	231.42
419.30	232.65
419.67	233.91
420.04	235.19
420.42	236.63
420.79	238.31
421.16	239.92
421.54	241.70
421.91	243.53
422.28	245.45
422.66	247.52
423.03	249.60
423.40	251.66
423.77	253.74
424.15	255.89
424.52	258.13
424.89	260.60
425.26	262.89
425.64	265.03
426.01	267.46
426.38	270.10
426.75	272.75
427.13	275.47
427.50	278.41
427.87	281.40
428.24	284.40
428.61	287.30
428.99	290.40
429.36	293.75
429.73	297.10
430.10	300.28
430.47	303.62
430.85	307.09
431.22	310.88
431.59	314.87
431.96	318.73
432.33	322.88
432.70	326.92
433.08	331.77
433.45	336.23
433.82	340.80
434.19	345.73
434.56	350.57
434.93	355.20
435.30	359.74
435.68	364.87
436.05	369.71
436.42	374.59
436.79	379.18
437.16	384.16
437.53	389.31
437.90	394.50
438.27	399.53
438.64	404.64
439.01	409.31
439.38	413.60
439.75	417.58
440.13	422.25
440.50	426.63
440.87	430.08
441.24	433.90
441.61	438.00
441.98	441.00
442.35	444.50
442.72	448.04
443.09	451.42
443.46	453.47
443.83	454.98
444.20	456.15
444.57	457.77
444.94	458.43
445.31	459.23
445.68	459.99
446.05	460.17
446.42	459.57
446.79	458.85
447.16	457.94
447.53	457.36
447.90	455.25
448.27	453.27
448.64	450.65
449.01	448.59
449.37	445.05
449.74	441.65
450.11	437.71
450.48	433.31
450.85	429.00
451.22	425.15
451.59	421.55
451.96	418.11
452.33	413.55
452.70	409.33
453.07	404.30
453.43	399.20
453.80	394.36
454.17	389.71
454.54	385.40
454.91	380.76
455.28	376.20
455.65	372.08
456.02	367.83
456.38	364.23
456.75	359.77
457.12	355.99
457.49	352.33
457.86	348.56
458.23	345.45
458.59	342.00
458.96	338.59
459.33	335.56
459.70	332.50
460.07	330.04
460.43	327.26
460.80	324.66
461.17	322.41
461.54	320.10
461.91	317.89
462.27	315.56
462.64	313.71
463.01	311.59
463.38	309.53
463.74	307.39
464.11	305.50
464.48	303.91
464.85	302.19
465.21	300.96
465.58	299.67
465.95	298.14
466.32	296.83
466.68	295.44
467.05	294.02
467.42	292.76
467.78	291.49
468.15	290.26
468.52	289.32
468.88	288.05
469.25	286.94
469.62	286.11
469.98	285.16
470.35	284.17
470.72	283.42
471.08	282.46
471.45	281.78
471.82	281.07
472.18	280.22
472.55	279.65
472.92	278.96
473.28	278.36
473.65	277.83
474.02	277.28
474.38	276.94
474.75	276.66
475.11	276.22
475.48	275.95
475.85	275.76
476.21	275.58
476.58	275.45
476.94	275.43
477.31	275.31
477.67	275.33
478.04	275.46
478.41	275.60
478.77	275.94
479.14	276.07
479.50	276.39
479.87	276.83
480.23	277.28
480.60	277.63
480.96	278.03
481.33	278.70
481.69	279.32
482.06	279.89
482.42	280.45
482.79	281.22
483.15	282.00
483.52	282.95
483.88	283.84
484.25	284.96
484.61	285.96
484.98	287.04
485.34	288.24
485.71	289.47
486.07	290.79
486.44	292.07
486.80	293.68
487.17	295.17
487.53	296.84
487.90	298.66
488.26	300.56
488.62	302.65
488.99	304.63
489.35	306.78
489.72	309.03
490.08	311.49
490.44	313.97
490.81	316.70
491.17	319.36
491.54	322.24
491.90	325.14
492.26	328.34
492.63	331.67
492.99	335.08
493.36	338.76
493.72	342.72
494.08	346.66
494.45	350.89
494.81	355.37
495.17	359.93
495.54	364.68
495.90	369.73
496.26	374.97
496.63	380.38
496.99	386.07
497.35	391.97
497.72	398.15
498.08	404.45
498.44	411.01
498.80	418.13
499.17	425.57
499.53	433.25
499.89	441.23
500.26	449.33
500.62	457.61
500.98	466.32
501.34	475.32
501.71	484.66
502.07	494.23
502.43	504.05
502.79	514.19
503.16	524.73
503.52	535.50
503.88	546.43
504.24	558.00
504.60	569.63
504.97	581.86
505.33	594.39
505.69	607.49
506.05	621.01
506.41	634.38
506.78	647.87
507.14	661.75
507.50	675.93
507.86	690.64
508.22	705.78
508.59	721.28
508.95	737.02
509.31	753.11
509.67	769.60
510.03	786.37
510.39	803.46
510.75	821.00
511.12	838.75
511.48	856.93
511.84	875.18
512.20	893.63
512.56	912.65
512.92	931.53
513.28	950.87
513.64	970.14
514.00	989.84
514.37	1009.79
514.73	1029.92
515.09	1050.34
515.45	1070.86
515.81	1091.72
516.17	1112.54
516.53	1133.24
516.89	1154.27
517.25	1175.30
517.61	1196.55
517.97	1217.84
518.33	1238.87
518.69	1259.96
519.05	1281.63
519.41	1303.46
519.77	1325.60
520.13	1347.05
520.49	1368.79
520.85	1390.65
521.21	1412.73
521.57	1435.05
521.93	1456.75
522.29	1479.11
522.65	1500.97
523.01	1522.91
523.37	1544.33
523.73	1565.90
524.09	1587.75
524.45	1609.15
524.81	1630.75
525.17	1652.48
525.53	1674.08
525.89	1695.76
526.25	1717.17
526.61	1737.58
526.97	1758.40
527.33	1779.10
527.68	1799.90
528.04	1820.43
528.40	1840.00
528.76	1859.80
529.12	1879.54
529.48	1900.39
529.84	1920.36
530.20	1940.21
530.56	1959.90
530.91	1980.28
531.27	2000.16
531.63	2019.40
531.99	2038.78
532.35	2057.35
532.71	2075.28
533.07	2094.19
533.42	2112.00
533.78	2130.50
534.14	2148.34
534.50	2165.04
534.86	2182.02
535.21	2198.31
535.57	2215.37
535.93	2232.05
536.29	2248.09
536.65	2264.11
537.00	2278.78
537.36	2293.14
537.72	2307.38
538.08	2321.85
538.44	2335.98
538.79	2350.33
539.15	2364.21
539.51	2378.20
539.87	2392.58
540.22	2406.45
540.58	2420.49
540.94	2434.33
541.29	2446.08
541.65	2458.03
542.01	2470.39
542.37	2481.65
542.72	2492.98
543.08	2503.01
543.44	2514.32
543.79	2523.93
544.15	2533.44
544.51	2543.85
544.87	2554.56
545.22	2563.37
545.58	2571.26
545.94	2578.10
546.29	2584.08
546.65	2589.79
547.01	2595.27
547.36	2600.30
547.72	2605.49
548.07	2608.99
548.43	2612.16
548.79	2615.78
549.14	2619.76
549.50	2623.29
549.86	2626.78
550.21	2630.50
550.57	2634.23
550.92	2636.20
551.28	2638.76
551.64	2640.91
551.99	2642.70
552.35	2643.54
552.70	2645.93
553.06	2648.01
553.41	2650.40
553.77	2652.80
554.13	2654.71
554.48	2656.16
554.84	2657.43
555.19	2657.63
555.55	2657.64
555.90	2657.93
556.26	2657.95
556.61	2657.08
556.97	2655.68
557.32	2655.17
557.68	2653.02
558.03	2651.07
558.39	2649.40
558.74	2648.75
559.10	2647.37
559.45	2645.07
559.81	2643.61
560.16	2640.61
560.52	2638.00
560.87	2634.86
561.23	2630.79
561.58	2628.12
561.94	2624.78
562.29	2620.89
562.64	2618.08
563.00	2615.08
563.35	2612.39
563.71	2610.64
564.06	2608.72
564.42	2606.59
564.77	2603.36
565.12	2601.51
565.48	2598.29
565.83	2595.21
566.19	2591.51
566.54	2587.05
566.89	2583.27
567.25	2579.22
567.60	2575.90
567.96	2572.21
568.31	2568.45
568.66	2564.60
569.02	2560.25
569.37	2555.15
569.72	2551.40
570.08	2546.48
570.43	2541.24
570.78	2535.80
571.14	2529.42
571.49	2522.93
571.84	2517.20
572.20	2510.81
572.55	2504.22
572.90	2497.55
573.26	2490.65
573.61	2483.59
573.96	2477.35
574.31	2469.74
574.67	2461.86
575.02	2453.61
575.37	2445.09
575.72	2436.54
576.08	2429.00
576.43	2420.56
576.78	2413.07
577.13	2405.14
577.49	2397.34
577.84	2389.98
578.19	2382.34
578.54	2374.82
578.90	2367.95
579.25	2359.66
579.60	2350.79
579.95	2341.98
580.30	2334.26
580.66	2326.35
581.01	2317.82
581.36	2308.66
581.71	2300.70
582.06	2292.25
582.42	2284.55
582.77	2276.17
583.12	2267.57
583.47	2259.28
583.82	2251.41
584.17	2242.50
584.53	2233.42
584.88	2224.73
585.23	2215.75
585.58	2206.59
585.93	2197.58
586.28	2188.57
586.63	2179.90
586.98	2172.06
587.34	2163.89
587.69	2155.00
588.04	2146.26
588.39	2138.05
588.74	2129.42
589.09	2120.87
589.44	2111.69
589.79	2103.31
590.14	2095.82
590.49	2087.78
590.84	2079.18
591.19	2071.23
591.54	2063.15
591.89	2053.66
592.25	2044.81
592.60	2035.83
592.95	2027.22
593.30	2018.19
593.65	2008.80
594.00	1999.51
594.35	1991.68
594.70	1982.70
595.05	1974.50
595.40	1966.06
595.75	1956.82
596.10	1949.09
596.45	1940.95
596.80	1933.71
597.15	1925.80
597.50	1917.13
597.85	1909.17
598.19	1901.05
598.54	1892.57
598.89	1884.93
599.24	1878.23
599.59	1871.34
599.94	1864.44
600.29	1856.91
600.64	1849.27
600.99	1841.36
601.34	1834.60
601.69	1826.00
602.04	1818.56
602.39	1810.77
602.74	1803.02
603.08	1796.62
603.43	1790.04
603.78	1782.29
604.13	1774.52
604.48	1766.76
604.83	1759.83
605.18	1753.14
605.53	1745.84
605.87	1738.68
606.22	1732.23
606.57	1725.05
606.92	1717.35
607.27	1709.60
607.62	1702.59
607.96	1696.25
608.31	1690.55
608.66	1683.03
609.01	1676.06
609.36	1668.52
609.70	1660.92
610.05	1653.91
610.40	1646.12
610.75	1637.59
611.10	1630.65
611.44	1622.02
611.79	1613.62
612.14	1604.76
612.49	1595.41
612.83	1587.16
613.18	1577.70
613.53	1568.21
613.88	1558.78
614.22	1550.01
614.57	1541.27
614.92	1532.30
615.27	1523.08
615.61	1513.57
615.96	1504.97
616.31	1496.64
616.65	1489.20
617.00	1481.30
617.35	1473.09
617.70	1464.94
618.04	1456.37
618.39	1447.00
618.74	1439.11
619.08	1430.67
619.43	1422.87
619.78	1415.58
620.12	1407.72
620.47	1400.40
620.82	1392.30
621.16	1384.55
621.51	1376.62
621.85	1368.75
622.20	1360.34
622.55	1352.37
622.89	1344.32
623.24	1336.64
623.59	1328.25
623.93	1319.75
624.28	1311.76
624.62	1303.77
624.97	1295.58
625.32	1287.95
625.66	1280.94
626.01	1274.00
626.35	1267.04
626.70	1259.47
627.04	1252.14
627.39	1244.70
627.73	1237.56
628.08	1230.99
628.43	1223.76
628.77	1216.71
629.12	1209.37
629.46	1203.30
629.81	1196.43
630.15	1189.34
630.50	1182.43
630.84	1175.50
631.19	1168.75
631.53	1162.27
631.88	1154.98
632.22	1147.76
632.57	1140.99
632.91	1134.05
633.26	1126.73
633.60	1119.72
633.95	1113.27
634.29	1105.96
634.64	1099.50
634.98	1092.72
635.32	1085.72
635.67	1079.51
636.01	1072.87
636.36	1066.43
636.70	1059.79
637.05	1053.22
637.39	1047.12
637.73	1040.92
638.08	1035.21
638.42	1029.28
638.77	1022.75
639.11	1016.66
639.45	1010.98
639.80	1004.65
640.14	998.07
640.49	991.94
640.83	985.92
641.17	979.69
641.52	973.99
641.86	967.76
642.20	961.68
642.55	955.27
642.89	949.09
643.23	943.00
643.58	937.15
643.92	930.76
644.26	924.85
644.61	918.99
644.95	912.89
645.29	906.94
645.64	900.61
645.98	894.79
646.32	889.05
646.66	883.05
647.01	877.40
647.35	871.87
647.69	865.98
648.04	860.11
648.38	854.40
648.72	848.51
649.06	842.55
649.41	836.77
649.75	831.30
650.09	825.59
650.43	819.88
650.78	813.86
651.12	808.01
651.46	802.37
651.80	796.63
652.14	790.82
652.49	785.01
652.83	779.66
653.17	773.79
653.51	768.10
653.85	762.58
654.20	756.87
654.54	751.29
654.88	745.93
655.22	740.48
655.56	734.78
655.90	729.21
656.25	723.66
656.59	718.37
656.93	713.20
657.27	708.09
657.61	702.76
657.95	697.91
658.29	693.00
658.64	687.99
658.98	683.06
659.32	677.90
659.66	672.95
660.00	667.65
660.34	662.66
660.68	657.71
661.02	652.85
661.36	648.37
661.70	643.67
662.05	639.14
662.39	634.69
662.73	630.39
663.07	626.28
663.41	622.17
663.75	617.75
664.09	613.10
664.43	608.55
664.77	604.42
665.11	600.24
665.45	596.21
665.79	591.91
666.13	587.58
666.47	583.51
666.81	579.42
667.15	575.51
667.49	571.76
667.83	568.08
668.17	564.18
668.51	560.44
668.85	556.84
669.19	553.26
669.53	549.66
669.87	545.77
670.21	541.89
670.55	538.19
670.89	534.75
671.23	531.60
671.57	528.41
671.91	524.93
672.25	521.38
672.58	517.93
672.92	514.65
673.26	511.59
673.60	508.51
673.94	505.19
674.28	502.09
674.62	499.10
674.96	495.92
675.30	492.99
675.64	489.81
675.97	486.75
676.31	483.67
676.65	480.68
676.99	478.15
677.33	475.35
677.67	472.50
678.01	469.55
678.34	466.73
678.68	463.82
679.02	460.97
679.36	458.35
679.70	455.55
680.04	452.80
680.37	449.92
680.71	447.26
681.05	444.82
681.39	442.15
681.73	439.27
682.06	436.83
682.40	434.33
682.74	431.85
683.08	429.42
683.42	426.95
683.75	424.45
684.09	421.63
684.43	419.21
684.77	416.77
685.10	414.33
685.44	411.84
685.78	409.34
686.12	407.12
686.45	404.80
686.79	402.57
687.13	400.42
687.46	398.24
687.80	396.04
688.14	393.81
688.48	391.71
688.81	389.65
689.15	387.50
689.49	385.29
689.82	383.13
690.16	380.88
690.50	378.70
690.83	376.60
691.17	374.63
691.51	372.45
691.84	370.36
692.18	368.38
692.52	366.45
692.85	364.64
693.19	362.84
693.52	360.94
693.86	359.10
694.20	357.41
694.53	355.66
694.87	353.91
695.21	352.06
695.54	350.24
695.88	348.47
696.21	346.62
696.55	345.02
696.88	343.34
697.22	341.67
697.56	340.18
697.89	338.67
698.23	337.15
698.56	335.74
698.90	334.39
699.23	333.00
699.57	331.50
699.90	330.01
700.24	328.33
700.58	326.85
700.91	325.45
701.25	324.04
701.58	322.61
701.92	321.15
702.25	319.83
702.59	318.48
702.92	317.18
703.26	315.95
703.59	314.68
703.93	313.60
704.26	312.47
704.60	311.25
704.93	309.95
705.26	308.74
705.60	307.55
705.93	306.34
706.27	305.14
706.60	304.08
706.94	303.00
707.27	302.03
707.61	300.90
707.94	299.72
708.27	298.41
708.61	297.30
708.94	296.28
709.28	295.22
709.61	294.15
709.94	293.13
710.28	292.17
710.61	291.16
710.95	289.98
711.28	289.00
711.61	288.00
711.95	286.98
712.28	285.99
712.61	284.97
712.95	284.08
713.28	283.20
713.61	282.22
713.95	281.34
714.28	280.48
714.61	279.66
714.95	278.83
715.28	278.05
715.61	277.13
715.95	276.24
716.28	275.31
716.61	274.51
716.95	273.71
717.28	272.85
717.61	272.05
717.94	271.28
718.28	270.38
718.61	269.59
718.94	268.90
719.27	268.17
719.61	267.54
719.94	266.82
720.27	266.05
720.60	265.39
720.94	264.67
721.27	263.92
721.60	263.20
721.93	262.60
722.27	261.97
722.60	261.42
722.93	260.86
723.26	260.33
723.59	259.74
723.93	259.15
724.26	258.65
724.59	258.09
724.92	257.59
725.25	257.13
725.59	256.60
725.92	256.10
726.25	255.59
726.58	255.02
726.91	254.46
727.24	253.97
727.57	253.49
727.91	252.96
728.24	252.51
728.57	252.11
728.90	251.57
729.23	251.08
729.56	250.70
729.89	250.17
730.22	249.74
730.55	249.25
730.89	248.81
731.22	248.24
731.55	247.82
731.88	247.41
732.21	247.03
732.54	246.60
732.87	246.20
733.20	245.77
733.53	245.41
733.86	245.06
734.19	244.69
734.52	244.33
734.85	244.16
735.18	243.72
735.51	243.35
735.84	243.01
736.17	242.77
736.50	242.32
736.83	242.17
737.16	241.82
737.49	241.50
737.82	241.14
738.15	240.89
738.48	240.47
738.81	240.05
739.14	239.63
739.47	239.30
739.80	238.89
740.13	238.56
740.46	238.26
740.79	237.90
741.12	237.55
741.45	237.24
741.78	236.79
742.11	236.56
742.44	236.24
742.77	235.98
743.10	235.65
743.43	235.34
743.75	234.85
744.08	234.78
744.41	234.50
744.74	234.25
745.07	233.93
745.40	233.78
745.73	233.71
746.06	233.49
746.39	233.33
746.71	233.10
747.04	232.80
747.37	232.45
747.70	232.22
748.03	231.89
748.36	231.61
748.68	231.34
749.01	231.10
749.34	230.86
749.67	230.62
750.00	230.29
750.33	230.16
750.65	229.98
750.98	229.57
751.31	229.37
751.64	229.10
751.97	228.94
752.29	228.65
752.62	228.28
752.95	228.01
753.28	227.68
753.60	227.45
753.93	227.30
754.26	227.20
754.59	226.90
754.91	226.78
755.24	226.55
755.57	226.35
755.90	226.10
756.22	225.85
756.55	225.65
756.88	225.42
757.20	225.14
757.53	224.82
757.86	224.60
758.19	224.35
758.51	224.22
758.84	223.91
759.17	223.76
759.49	223.60
759.82	223.56
760.15	223.38
760.47	223.20
760.80	223.01
761.13	222.81
761.45	222.72
761.78	222.54
762.11	222.45
762.43	222.36
762.76	222.25
763.08	222.19
763.41	222.05
763.74	222.07
764.06	221.97
764.39	221.88
764.71	221.76
765.04	221.67
765.37	221.48
765.69	221.40
766.02	221.25
766.34	221.07
766.67	220.85
767.00	220.78
767.32	220.74
767.65	220.70
767.97	220.52
768.30	220.39
768.62	220.30
768.95	220.12
769.27	219.98
769.60	219.94
769.92	219.86
770.25	219.76
770.57	219.60
770.90	219.45
771.22	219.38
771.55	219.26
771.87	219.17
772.20	219.08
772.52	219.17
772.85	219.29
773.17	219.19
773.50	219.14
773.82	219.01
774.15	218.85
774.47	218.63
774.80	218.57
775.12	218.48
775.45	218.35
775.77	218.27
776.09	218.20
776.42	218.11
776.74	218.04
777.07	217.93
777.39	217.90
777.72	217.85
778.04	217.83
778.36	217.80
778.69	217.75
779.01	217.72
779.33	217.49
779.66	217.16
779.98	217.16
780.31	217.05
780.63	217.05
780.95	217.04
781.28	217.05
781.60	216.99
781.92	216.92
782.25	216.92
782.57	216.87
782.89	216.75
783.22	216.61
783.54	216.47
783.86	216.38
784.19	216.26
784.51	216.25
784.83	216.15
785.16	216.07
785.48	215.98
785.80	215.93
786.12	215.86
786.45	215.88
786.77	215.80
