SpectraSuite Data File
++++++++++++++++++++++++++++++++++++
Date: Mon Feb 25 17:33:03 EST 2013
User: group
Dark Spectrum Present: No
Reference Spectrum Present: No
Number of Sampled Component Spectra: 1
Spectrometers: USB2E7196
Integration Time (usec): 52000 (USB2E7196)
Spectra Averaged: 20 (USB2E7196)
Boxcar Smoothing: 10 (USB2E7196)
Correct for Electrical Dark: No (USB2E7196)
Strobe/Lamp Enabled: No (USB2E7196)
Correct for Detector Non-linearity: No (USB2E7196)
Correct for Stray Light: No (USB2E7196)
Number of Pixels in Processed Spectrum: 2048
>>>>>Begin Processed Spectral Data<<<<<
339.09	0.00
339.48	198.05
339.86	200.05
340.24	200.00
340.63	202.05
341.01	207.35
341.39	204.70
341.78	207.65
342.16	208.85
342.54	207.70
342.93	197.71
343.31	207.72
343.69	208.27
344.07	208.79
344.46	209.28
344.84	209.69
345.22	209.84
345.60	210.16
345.99	210.30
346.37	210.42
346.75	210.67
347.13	210.76
347.52	210.82
347.90	210.97
348.28	211.10
348.66	211.24
349.05	211.15
349.43	211.31
349.81	211.46
350.19	211.53
350.57	211.60
350.96	211.75
351.34	211.80
351.72	211.91
352.10	211.96
352.48	212.03
352.87	212.17
353.25	212.26
353.63	212.33
354.01	212.55
354.39	212.63
354.77	212.67
355.15	212.86
355.54	212.95
355.92	213.00
356.30	213.06
356.68	213.30
357.06	213.51
357.44	213.54
357.82	213.57
358.20	213.67
358.58	213.73
358.97	213.83
359.35	214.03
359.73	214.22
360.11	214.36
360.49	214.48
360.87	214.50
361.25	214.58
361.63	214.72
362.01	214.73
362.39	214.83
362.77	214.81
363.15	214.76
363.53	214.80
363.91	214.80
364.29	214.90
364.67	214.74
365.05	214.72
365.43	214.77
365.81	214.79
366.19	214.81
366.57	214.92
366.95	214.92
367.33	214.84
367.71	214.78
368.09	214.78
368.47	214.80
368.85	214.81
369.23	214.84
369.61	214.69
369.99	214.69
370.37	214.64
370.75	214.75
371.13	214.72
371.51	214.63
371.89	214.63
372.27	214.52
372.65	214.48
373.03	214.37
373.41	214.30
373.78	214.23
374.16	214.11
374.54	214.03
374.92	213.97
375.30	213.93
375.68	213.90
376.06	213.80
376.44	213.75
376.82	213.71
377.19	213.68
377.57	213.69
377.95	213.64
378.33	213.60
378.71	213.42
379.09	213.32
379.47	213.31
379.84	213.32
380.22	213.20
380.60	213.03
380.98	213.02
381.36	212.96
381.73	212.85
382.11	212.83
382.49	212.79
382.87	212.65
383.25	212.58
383.62	212.69
384.00	212.70
384.38	212.59
384.76	212.50
385.13	212.46
385.51	212.44
385.89	212.32
386.27	212.25
386.64	212.23
387.02	212.27
387.40	212.15
387.78	212.09
388.15	212.17
388.53	212.20
388.91	212.19
389.29	212.10
389.66	212.13
390.04	211.98
390.42	211.87
390.79	211.90
391.17	211.87
391.55	211.65
391.92	211.62
392.30	211.66
392.68	211.71
393.05	211.67
393.43	211.60
393.81	211.56
394.18	211.49
394.56	211.45
394.94	211.43
395.31	211.45
395.69	211.47
396.06	211.46
396.44	211.44
396.82	211.44
397.19	211.55
397.57	211.57
397.95	211.71
398.32	211.78
398.70	211.78
399.07	211.82
399.45	211.81
399.82	211.84
400.20	211.81
400.58	211.75
400.95	211.75
401.33	211.82
401.70	212.06
402.08	212.17
402.45	212.25
402.83	212.39
403.20	212.50
403.58	212.53
403.95	212.64
404.33	212.80
404.71	212.89
405.08	213.13
405.46	213.28
405.83	213.44
406.21	213.54
406.58	213.67
406.96	213.81
407.33	214.02
407.70	214.18
408.08	214.54
408.45	214.83
408.83	215.11
409.20	215.34
409.58	215.41
409.95	215.78
410.33	216.06
410.70	216.31
411.08	216.68
411.45	217.05
411.82	217.35
412.20	217.82
412.57	218.37
412.95	218.64
413.32	219.17
413.69	219.62
414.07	220.22
414.44	220.91
414.82	221.57
415.19	222.33
415.56	223.09
415.94	223.82
416.31	224.69
416.68	225.61
417.06	226.66
417.43	227.73
417.81	228.73
418.18	229.91
418.55	231.07
418.93	232.32
419.30	233.71
419.67	235.15
420.04	236.55
420.42	237.95
420.79	239.78
421.16	241.48
421.54	243.35
421.91	245.15
422.28	247.02
422.66	249.07
423.03	251.11
423.40	253.16
423.77	255.38
424.15	257.62
424.52	259.90
424.89	262.37
425.26	264.83
425.64	267.15
426.01	269.68
426.38	272.38
426.75	275.07
427.13	277.80
427.50	280.81
427.87	283.93
428.24	287.10
428.61	289.91
428.99	293.20
429.36	296.73
429.73	300.26
430.10	303.77
430.47	307.27
430.85	310.94
431.22	314.78
431.59	318.81
431.96	322.77
432.33	327.14
432.70	331.31
433.08	336.14
433.45	340.77
433.82	345.25
434.19	350.43
434.56	355.40
434.93	360.24
435.30	364.88
435.68	369.96
436.05	375.05
436.42	380.25
436.79	384.92
437.16	389.90
437.53	395.16
437.90	400.27
438.27	405.37
438.64	410.70
439.01	415.62
439.38	419.99
439.75	424.20
440.13	428.97
440.50	433.37
440.87	437.07
441.24	440.95
441.61	445.38
441.98	448.44
442.35	452.05
442.72	455.52
443.09	459.07
443.46	461.25
443.83	462.72
444.20	463.82
444.57	465.44
444.94	466.21
445.31	467.04
445.68	467.88
446.05	468.24
446.42	467.55
446.79	466.78
447.16	465.91
447.53	465.26
447.90	463.12
448.27	461.22
448.64	458.37
449.01	456.31
449.37	452.67
449.74	449.17
450.11	445.07
450.48	440.63
450.85	436.07
451.22	432.03
451.59	428.20
451.96	424.60
452.33	419.98
452.70	415.65
453.07	410.55
453.43	405.34
453.80	400.35
454.17	395.64
454.54	391.20
454.91	386.50
455.28	381.78
455.65	377.41
456.02	373.08
456.38	369.26
456.75	364.48
457.12	360.55
457.49	356.69
457.86	352.96
458.23	349.85
458.59	346.35
458.96	342.93
459.33	339.73
459.70	336.72
460.07	334.15
460.43	331.21
460.80	328.53
461.17	326.13
461.54	323.66
461.91	321.34
462.27	318.95
462.64	316.85
463.01	314.67
463.38	312.60
463.74	310.27
464.11	308.51
464.48	306.90
464.85	305.17
465.21	303.92
465.58	302.45
465.95	300.64
466.32	299.24
466.68	297.75
467.05	296.48
467.42	295.01
467.78	293.57
468.15	292.27
468.52	291.18
468.88	289.92
469.25	288.73
469.62	287.78
469.98	286.73
470.35	285.83
470.72	284.94
471.08	283.94
471.45	283.25
471.82	282.38
472.18	281.47
472.55	280.85
472.92	280.00
473.28	279.41
473.65	278.87
474.02	278.26
474.38	277.85
474.75	277.47
475.11	277.05
475.48	276.81
475.85	276.63
476.21	276.50
476.58	276.35
476.94	276.31
477.31	276.15
477.67	276.07
478.04	276.10
478.41	276.21
478.77	276.57
479.14	276.60
479.50	276.90
479.87	277.36
480.23	277.75
480.60	278.14
480.96	278.66
481.33	279.26
481.69	279.83
482.06	280.44
482.42	281.06
482.79	281.79
483.15	282.63
483.52	283.50
483.88	284.43
484.25	285.44
484.61	286.51
484.98	287.59
485.34	289.00
485.71	290.39
486.07	291.86
486.44	293.18
486.80	294.77
487.17	296.35
487.53	298.10
487.90	299.97
488.26	301.94
488.62	303.84
488.99	305.85
489.35	308.08
489.72	310.45
490.08	312.87
490.44	315.40
490.81	318.10
491.17	320.87
491.54	323.77
491.90	326.84
492.26	329.99
492.63	333.40
492.99	336.89
493.36	340.52
493.72	344.33
494.08	348.37
494.45	352.67
494.81	357.12
495.17	361.74
495.54	366.59
495.90	371.72
496.26	376.97
496.63	382.58
496.99	388.35
497.35	394.46
497.72	400.63
498.08	407.05
498.44	413.73
498.80	420.91
499.17	428.25
499.53	435.86
499.89	443.94
500.26	452.09
500.62	460.14
500.98	468.99
501.34	478.12
501.71	487.48
502.07	497.13
502.43	507.18
502.79	517.28
503.16	527.92
503.52	538.80
503.88	550.05
504.24	561.58
504.60	573.32
504.97	585.53
505.33	598.13
505.69	611.61
506.05	625.15
506.41	638.59
506.78	652.29
507.14	666.44
507.50	680.94
507.86	695.85
508.22	711.42
508.59	726.92
508.95	742.81
509.31	759.12
509.67	775.76
510.03	792.80
510.39	810.45
510.75	828.27
511.12	846.27
511.48	864.59
511.84	883.23
512.20	902.10
512.56	921.22
512.92	940.57
513.28	959.79
513.64	979.45
514.00	999.48
514.37	1019.80
514.73	1040.57
515.09	1061.21
515.45	1081.99
515.81	1103.09
516.17	1124.28
516.53	1145.61
516.89	1167.22
517.25	1188.79
517.61	1210.24
517.97	1231.84
518.33	1253.24
518.69	1274.88
519.05	1296.96
519.41	1319.15
519.77	1341.67
520.13	1363.82
520.49	1385.96
520.85	1408.82
521.21	1431.28
521.57	1454.16
521.93	1476.40
522.29	1499.30
522.65	1521.99
523.01	1544.53
523.37	1566.72
523.73	1589.19
524.09	1611.35
524.45	1633.51
524.81	1655.90
525.17	1678.54
525.53	1701.03
525.89	1723.38
526.25	1745.69
526.61	1766.78
526.97	1788.40
527.33	1809.72
527.68	1831.32
528.04	1852.75
528.40	1873.04
528.76	1893.88
529.12	1914.59
529.48	1936.43
529.84	1956.48
530.20	1976.85
530.56	1997.42
530.91	2018.14
531.27	2038.34
531.63	2058.70
531.99	2078.44
532.35	2097.78
532.71	2116.54
533.07	2135.84
533.42	2154.17
533.78	2173.12
534.14	2192.10
534.50	2209.06
534.86	2227.08
535.21	2243.84
535.57	2261.60
535.93	2279.08
536.29	2295.70
536.65	2312.28
537.00	2327.53
537.36	2343.05
537.72	2358.45
538.08	2373.65
538.44	2388.91
538.79	2404.28
539.15	2418.83
539.51	2433.49
539.87	2448.70
540.22	2463.27
540.58	2478.00
540.94	2492.89
541.29	2505.67
541.65	2517.86
542.01	2531.50
542.37	2543.26
542.72	2555.65
543.08	2566.42
543.44	2578.30
543.79	2588.71
544.15	2598.99
544.51	2610.05
544.87	2621.21
545.22	2630.31
545.58	2638.71
545.94	2646.01
546.29	2652.64
546.65	2659.34
547.01	2665.75
547.36	2671.09
547.72	2676.70
548.07	2680.69
548.43	2684.42
548.79	2688.11
549.14	2692.82
549.50	2696.92
549.86	2701.19
550.21	2705.05
550.57	2709.26
550.92	2711.79
551.28	2714.61
551.64	2717.15
551.99	2719.65
552.35	2721.06
552.70	2723.61
553.06	2726.67
553.41	2729.63
553.77	2732.66
554.13	2734.53
554.48	2736.69
554.84	2738.31
555.19	2739.02
555.55	2739.65
555.90	2740.47
556.26	2741.13
556.61	2741.02
556.97	2739.89
557.32	2739.22
557.68	2737.64
558.03	2736.17
558.39	2734.45
558.74	2733.99
559.10	2732.76
559.45	2730.60
559.81	2729.47
560.16	2726.82
560.52	2724.28
560.87	2721.33
561.23	2717.46
561.58	2715.34
561.94	2711.84
562.29	2708.31
562.64	2705.95
563.00	2703.50
563.35	2700.92
563.71	2699.05
564.06	2696.75
564.42	2694.88
564.77	2692.49
565.12	2690.59
565.48	2687.58
565.83	2684.93
566.19	2681.70
566.54	2677.54
566.89	2673.76
567.25	2669.79
567.60	2666.77
567.96	2662.92
568.31	2659.53
568.66	2655.70
569.02	2650.90
569.37	2645.90
569.72	2641.86
570.08	2636.73
570.43	2631.04
570.78	2625.20
571.14	2618.96
571.49	2612.25
571.84	2606.45
572.20	2599.55
572.55	2592.77
572.90	2585.70
573.26	2578.57
573.61	2571.19
573.96	2564.75
574.31	2556.83
574.67	2548.70
575.02	2539.89
575.37	2531.34
575.72	2522.21
576.08	2514.48
576.43	2506.06
576.78	2498.42
577.13	2490.60
577.49	2482.47
577.84	2474.65
578.19	2467.05
578.54	2459.70
578.90	2452.81
579.25	2443.73
579.60	2434.88
579.95	2426.02
580.30	2418.06
580.66	2409.75
581.01	2400.99
581.36	2391.70
581.71	2383.28
582.06	2375.07
582.42	2367.07
582.77	2357.97
583.12	2349.12
583.47	2340.33
583.82	2331.81
584.17	2322.32
584.53	2313.05
584.88	2304.26
585.23	2295.04
585.58	2285.65
585.93	2275.83
586.28	2266.57
586.63	2257.78
586.98	2249.17
587.34	2240.61
587.69	2231.36
588.04	2222.12
588.39	2214.06
588.74	2205.19
589.09	2196.64
589.44	2186.96
589.79	2178.41
590.14	2170.86
590.49	2162.78
590.84	2153.85
591.19	2145.85
591.54	2136.99
591.89	2126.88
592.25	2117.47
592.60	2108.04
592.95	2098.61
593.30	2089.14
593.65	2079.30
594.00	2069.72
594.35	2061.62
594.70	2052.61
595.05	2043.84
595.40	2035.21
595.75	2025.32
596.10	2016.74
596.45	2008.04
596.80	2000.41
597.15	1992.01
597.50	1982.83
597.85	1974.15
598.19	1965.43
598.54	1956.62
598.89	1949.10
599.24	1942.48
599.59	1934.92
599.94	1927.96
600.29	1920.08
600.64	1912.17
600.99	1903.87
601.34	1896.90
601.69	1887.76
602.04	1879.69
602.39	1871.68
602.74	1863.95
603.08	1857.24
603.43	1850.08
603.78	1842.28
604.13	1834.06
604.48	1826.04
604.83	1818.76
605.18	1811.79
605.53	1804.21
605.87	1796.45
606.22	1789.05
606.57	1781.10
606.92	1773.04
607.27	1764.94
607.62	1757.78
607.96	1751.19
608.31	1745.22
608.66	1737.28
609.01	1730.09
609.36	1722.21
609.70	1714.36
610.05	1706.56
610.40	1698.15
610.75	1689.78
611.10	1682.33
611.44	1673.25
611.79	1664.34
612.14	1655.09
612.49	1645.42
612.83	1636.75
613.18	1626.98
613.53	1617.64
613.88	1607.90
614.22	1598.99
614.57	1589.78
614.92	1580.36
615.27	1570.68
615.61	1560.55
615.96	1551.47
616.31	1542.98
616.65	1535.07
617.00	1526.62
617.35	1517.89
617.70	1509.41
618.04	1500.25
618.39	1490.63
618.74	1482.34
619.08	1473.76
619.43	1465.54
619.78	1457.68
620.12	1449.64
620.47	1442.16
620.82	1433.56
621.16	1425.45
621.51	1416.99
621.85	1408.74
622.20	1400.10
622.55	1391.74
622.89	1383.65
623.24	1375.96
623.59	1367.22
623.93	1358.61
624.28	1350.28
624.62	1342.31
624.97	1333.90
625.32	1326.03
625.66	1318.60
626.01	1311.24
626.35	1304.01
626.70	1296.21
627.04	1288.72
627.39	1280.95
627.73	1273.42
628.08	1266.66
628.43	1259.07
628.77	1251.64
629.12	1244.14
629.46	1237.82
629.81	1230.71
630.15	1223.43
630.50	1215.93
630.84	1208.81
631.19	1201.55
631.53	1194.60
631.88	1186.86
632.22	1179.19
632.57	1172.43
632.91	1165.03
633.26	1157.38
633.60	1150.13
633.95	1143.28
634.29	1135.96
634.64	1129.38
634.98	1122.03
635.32	1114.90
635.67	1108.51
636.01	1102.10
636.36	1095.32
636.70	1088.55
637.05	1081.93
637.39	1075.60
637.73	1069.14
638.08	1063.18
638.42	1057.12
638.77	1050.84
639.11	1044.64
639.45	1038.69
639.80	1032.16
640.14	1025.73
640.49	1019.54
640.83	1013.31
641.17	1006.84
641.52	1000.85
641.86	994.16
642.20	988.11
642.55	981.51
642.89	975.09
643.23	968.60
643.58	962.76
643.92	956.16
644.26	949.90
644.61	943.81
644.95	937.77
645.29	931.31
645.64	924.80
645.98	918.66
646.32	912.66
646.66	906.64
647.01	900.78
647.35	895.02
647.69	888.71
648.04	882.60
648.38	876.98
648.72	870.80
649.06	864.93
649.41	858.93
649.75	853.11
650.09	847.14
650.43	841.30
650.78	835.13
651.12	829.10
651.46	823.48
651.80	817.43
652.14	811.53
652.49	805.78
652.83	799.96
653.17	793.88
653.51	788.17
653.85	782.32
654.20	776.28
654.54	770.56
654.88	765.37
655.22	759.77
655.56	753.86
655.90	747.91
656.25	742.05
656.59	736.52
656.93	731.33
657.27	726.22
657.61	720.75
657.95	715.59
658.29	710.48
658.64	705.23
658.98	700.17
659.32	694.65
659.66	689.31
660.00	684.05
660.34	678.68
660.68	673.43
661.02	668.35
661.36	663.75
661.70	658.80
662.05	654.14
662.39	649.71
662.73	645.40
663.07	641.15
663.41	636.93
663.75	632.46
664.09	627.82
664.43	623.09
664.77	618.70
665.11	614.19
665.45	609.75
665.79	605.37
666.13	600.86
666.47	596.65
666.81	592.65
667.15	588.66
667.49	584.96
667.83	581.13
668.17	577.45
668.51	573.57
668.85	569.74
669.19	565.90
669.53	562.01
669.87	557.95
670.21	554.06
670.55	550.18
670.89	546.83
671.23	543.36
671.57	540.01
671.91	536.45
672.25	532.99
672.58	529.50
672.92	525.97
673.26	522.88
673.60	519.74
673.94	516.39
674.28	513.00
674.62	509.80
674.96	506.62
675.30	503.41
675.64	500.16
675.97	496.96
676.31	493.90
676.65	490.89
676.99	488.26
677.33	485.37
677.67	482.51
678.01	479.32
678.34	476.36
678.68	473.25
679.02	470.40
679.36	467.54
679.70	464.65
680.04	461.86
680.37	458.85
680.71	456.07
681.05	453.45
681.39	450.76
681.73	448.03
682.06	445.44
682.40	442.82
682.74	440.19
683.08	437.76
683.42	435.08
683.75	432.42
684.09	429.62
684.43	427.15
684.77	424.54
685.10	422.02
685.44	419.41
685.78	417.05
686.12	414.71
686.45	412.37
686.79	410.19
687.13	407.97
687.46	405.88
687.80	403.59
688.14	401.21
688.48	399.09
688.81	396.92
689.15	394.67
689.49	392.29
689.82	390.17
690.16	387.74
690.50	385.51
690.83	383.33
691.17	381.05
691.51	378.80
691.84	376.75
692.18	374.83
692.52	372.93
692.85	371.07
693.19	369.19
693.52	367.23
693.86	365.17
694.20	363.29
694.53	361.31
694.87	359.33
695.21	357.40
695.54	355.54
695.88	353.58
696.21	351.73
696.55	350.03
696.88	348.14
697.22	346.57
697.56	345.05
697.89	343.46
698.23	341.95
698.56	340.47
698.90	338.96
699.23	337.36
699.57	335.79
699.90	334.08
700.24	332.36
700.58	330.73
700.91	329.32
701.25	327.90
701.58	326.53
701.92	325.10
702.25	323.71
702.59	322.41
702.92	321.15
703.26	319.71
703.59	318.45
703.93	317.29
704.26	316.02
704.60	314.59
704.93	313.27
705.26	312.02
705.60	310.78
705.93	309.49
706.27	308.22
706.60	306.98
706.94	305.98
707.27	304.87
707.61	303.88
707.94	302.73
708.27	301.40
708.61	300.14
708.94	299.09
709.28	297.97
709.61	296.81
709.94	295.70
710.28	294.69
710.61	293.69
710.95	292.47
711.28	291.53
711.61	290.57
711.95	289.57
712.28	288.55
712.61	287.51
712.95	286.62
713.28	285.77
713.61	284.86
713.95	283.83
714.28	282.88
714.61	281.87
714.95	280.86
715.28	279.94
715.61	279.01
715.95	278.06
716.28	277.20
716.61	276.31
716.95	275.47
717.28	274.60
717.61	273.66
717.94	273.00
718.28	272.09
718.61	271.28
718.94	270.45
719.27	269.72
719.61	269.05
719.94	268.33
720.27	267.55
720.60	266.80
720.94	266.10
721.27	265.42
721.60	264.84
721.93	264.32
722.27	263.87
722.60	263.28
722.93	262.62
723.26	262.04
723.59	261.44
723.93	260.92
724.26	260.42
724.59	259.84
724.92	259.22
725.25	258.73
725.59	258.22
725.92	257.77
726.25	257.29
726.58	256.79
726.91	256.20
727.24	255.71
727.57	255.29
727.91	254.78
728.24	254.36
728.57	253.83
728.90	253.37
729.23	252.83
729.56	252.50
729.89	252.12
730.22	251.67
730.55	251.19
730.89	250.77
731.22	250.36
731.55	249.92
731.88	249.54
732.21	248.99
732.54	248.52
732.87	248.12
733.20	247.63
733.53	247.15
733.86	246.75
734.19	246.29
734.52	245.91
734.85	245.63
735.18	245.08
735.51	244.72
735.84	244.30
736.17	243.92
736.50	243.45
736.83	243.30
737.16	242.90
737.49	242.59
737.82	242.17
738.15	241.76
738.48	241.43
738.81	241.10
739.14	240.69
739.47	240.38
739.80	239.91
740.13	239.60
740.46	239.27
740.79	238.99
741.12	238.69
741.45	238.31
741.78	237.95
742.11	237.81
742.44	237.49
742.77	237.27
743.10	236.90
743.43	236.58
743.75	236.02
744.08	235.97
744.41	235.62
744.74	235.33
745.07	235.06
745.40	234.84
745.73	234.65
746.06	234.44
746.39	234.10
746.71	233.88
747.04	233.56
747.37	233.30
747.70	233.04
748.03	232.76
748.36	232.49
748.68	232.17
749.01	231.81
749.34	231.57
749.67	231.36
750.00	231.16
750.33	231.04
750.65	230.89
750.98	230.41
751.31	230.15
751.64	229.92
751.97	229.75
752.29	229.55
752.62	229.19
752.95	228.95
753.28	228.70
753.60	228.48
753.93	228.36
754.26	228.09
754.59	227.80
754.91	227.59
755.24	227.40
755.57	227.15
755.90	227.02
756.22	226.80
756.55	226.52
756.88	226.30
757.20	225.98
757.53	225.71
757.86	225.57
758.19	225.41
758.51	225.22
758.84	224.95
759.17	224.73
759.49	224.58
759.82	224.52
760.15	224.37
760.47	224.22
760.80	223.94
761.13	223.82
761.45	223.56
761.78	223.37
762.11	223.26
762.43	223.16
762.76	222.98
763.08	222.84
763.41	222.64
763.74	222.50
764.06	222.42
764.39	222.26
764.71	222.10
765.04	221.95
765.37	221.75
765.69	221.69
766.02	221.55
766.34	221.39
766.67	221.19
767.00	221.14
767.32	221.04
767.65	220.99
767.97	220.88
768.30	220.88
768.62	220.83
768.95	220.64
769.27	220.53
769.60	220.41
769.92	220.27
770.25	220.18
770.57	220.03
770.90	219.94
771.22	219.83
771.55	219.68
771.87	219.68
772.20	219.61
772.52	219.62
772.85	219.69
773.17	219.63
773.50	219.58
773.82	219.49
774.15	219.36
774.47	219.25
774.80	219.16
775.12	219.04
775.45	218.93
775.77	218.88
776.09	218.78
776.42	218.73
776.74	218.78
777.07	218.67
777.39	218.61
777.72	218.46
778.04	218.44
778.36	218.37
778.69	218.27
779.01	218.14
779.33	217.88
779.66	217.65
779.98	217.56
780.31	217.49
780.63	217.46
780.95	217.43
781.28	217.33
781.60	217.23
781.92	217.28
782.25	217.12
782.57	217.04
782.89	216.99
783.22	216.89
783.54	216.72
783.86	216.71
784.19	216.61
784.51	216.56
784.83	216.43
785.16	216.43
785.48	216.35
785.80	216.39
786.12	216.37
786.45	216.25
