SpectraSuite Data File
++++++++++++++++++++++++++++++++++++
Date: Mon Feb 25 17:34:53 EST 2013
User: group
Dark Spectrum Present: No
Reference Spectrum Present: No
Number of Sampled Component Spectra: 1
Spectrometers: USB2E7196
Integration Time (usec): 52000 (USB2E7196)
Spectra Averaged: 20 (USB2E7196)
Boxcar Smoothing: 10 (USB2E7196)
Correct for Electrical Dark: No (USB2E7196)
Strobe/Lamp Enabled: No (USB2E7196)
Correct for Detector Non-linearity: No (USB2E7196)
Correct for Stray Light: No (USB2E7196)
Number of Pixels in Processed Spectrum: 2048
>>>>>Begin Processed Spectral Data<<<<<
339.09	0.00
339.48	197.85
339.86	199.85
340.24	201.65
340.63	202.90
341.01	207.05
341.39	205.80
341.78	207.30
342.16	209.10
342.54	209.10
342.93	198.21
343.31	208.13
343.69	208.71
344.07	209.14
344.46	209.54
344.84	209.92
345.22	210.15
345.60	210.39
345.99	210.58
346.37	210.69
346.75	210.79
347.13	210.85
347.52	210.96
347.90	211.12
348.28	211.08
348.66	211.15
349.05	211.19
349.43	211.23
349.81	211.28
350.19	211.32
350.57	211.31
350.96	211.33
351.34	211.50
351.72	211.55
352.10	211.72
352.48	211.80
352.87	211.80
353.25	211.79
353.63	211.86
354.01	211.86
354.39	211.91
354.77	211.92
355.15	211.99
355.54	212.04
355.92	212.02
356.30	212.18
356.68	212.34
357.06	212.35
357.44	212.31
357.82	212.39
358.20	212.41
358.58	212.50
358.97	212.62
359.35	212.71
359.73	212.87
360.11	212.92
360.49	213.00
360.87	213.09
361.25	213.20
361.63	213.28
362.01	213.42
362.39	213.44
362.77	213.47
363.15	213.50
363.53	213.52
363.91	213.60
364.29	213.55
364.67	213.38
365.05	213.47
365.43	213.51
365.81	213.52
366.19	213.63
366.57	213.67
366.95	213.58
367.33	213.55
367.71	213.52
368.09	213.54
368.47	213.50
368.85	213.55
369.23	213.47
369.61	213.38
369.99	213.40
370.37	213.36
370.75	213.49
371.13	213.40
371.51	213.36
371.89	213.29
372.27	213.30
372.65	213.34
373.03	213.24
373.41	213.27
373.78	213.19
374.16	213.05
374.54	212.97
374.92	212.97
375.30	212.93
375.68	212.81
376.06	212.78
376.44	212.70
376.82	212.68
377.19	212.70
377.57	212.67
377.95	212.55
378.33	212.56
378.71	212.38
379.09	212.45
379.47	212.43
379.84	212.42
380.22	212.32
380.60	212.16
380.98	212.13
381.36	212.07
381.73	212.00
382.11	211.99
382.49	211.95
382.87	211.85
383.25	211.82
383.62	212.00
384.00	211.91
384.38	211.96
384.76	211.91
385.13	211.91
385.51	211.89
385.89	211.92
386.27	211.85
386.64	211.89
387.02	211.84
387.40	211.77
387.78	211.70
388.15	211.74
388.53	211.75
388.91	211.71
389.29	211.64
389.66	211.71
390.04	211.62
390.42	211.65
390.79	211.61
391.17	211.54
391.55	211.34
391.92	211.32
392.30	211.23
392.68	211.15
393.05	211.15
393.43	211.13
393.81	211.06
394.18	211.01
394.56	210.99
394.94	210.94
395.31	210.93
395.69	210.95
396.06	210.91
396.44	210.91
396.82	210.91
397.19	211.02
397.57	211.02
397.95	211.12
398.32	211.06
398.70	211.15
399.07	211.24
399.45	211.28
399.82	211.36
400.20	211.48
400.58	211.55
400.95	211.55
401.33	211.62
401.70	211.88
402.08	211.95
402.45	212.05
402.83	212.22
403.20	212.30
403.58	212.38
403.95	212.57
404.33	212.70
404.71	212.90
405.08	213.02
405.46	213.12
405.83	213.27
406.21	213.44
406.58	213.63
406.96	213.76
407.33	214.00
407.70	214.17
408.08	214.47
408.45	214.71
408.83	214.93
409.20	215.19
409.58	215.25
409.95	215.56
410.33	215.89
410.70	216.15
411.08	216.53
411.45	216.88
411.82	217.19
412.20	217.56
412.57	218.05
412.95	218.38
413.32	218.97
413.69	219.45
414.07	220.02
414.44	220.74
414.82	221.38
415.19	222.11
415.56	222.85
415.94	223.56
416.31	224.48
416.68	225.34
417.06	226.43
417.43	227.49
417.81	228.54
418.18	229.59
418.55	230.85
418.93	232.20
419.30	233.59
419.67	235.05
420.04	236.51
420.42	238.02
420.79	239.95
421.16	241.66
421.54	243.55
421.91	245.26
422.28	247.14
422.66	249.25
423.03	251.28
423.40	253.31
423.77	255.61
424.15	257.86
424.52	260.20
424.89	262.63
425.26	265.18
425.64	267.62
426.01	270.28
426.38	272.96
426.75	275.70
427.13	278.49
427.50	281.44
427.87	284.61
428.24	287.69
428.61	290.56
428.99	293.80
429.36	297.35
429.73	300.97
430.10	304.46
430.47	307.99
430.85	311.60
431.22	315.55
431.59	319.66
431.96	323.57
432.33	328.00
432.70	332.27
433.08	337.21
433.45	341.93
433.82	346.64
434.19	351.74
434.56	356.80
434.93	361.55
435.30	366.32
435.68	371.70
436.05	376.96
436.42	382.07
436.79	386.89
437.16	391.94
437.53	397.35
437.90	402.51
438.27	407.74
438.64	413.23
439.01	418.25
439.38	422.61
439.75	427.05
440.13	431.87
440.50	436.50
440.87	440.10
441.24	443.88
441.61	448.13
441.98	451.25
442.35	454.87
442.72	458.69
443.09	462.31
443.46	464.36
443.83	465.88
444.20	467.11
444.57	468.85
444.94	469.55
445.31	470.30
445.68	471.18
446.05	471.43
446.42	470.78
446.79	470.04
447.16	469.30
447.53	468.56
447.90	466.36
448.27	464.15
448.64	461.23
449.01	459.13
449.37	455.45
449.74	451.98
450.11	447.79
450.48	443.20
450.85	438.43
451.22	434.39
451.59	430.45
451.96	426.89
452.33	422.06
452.70	417.80
453.07	412.64
453.43	407.37
453.80	402.32
454.17	397.45
454.54	392.87
454.91	387.98
455.28	383.32
455.65	378.91
456.02	374.62
456.38	370.95
456.75	366.26
457.12	362.37
457.49	358.43
457.86	354.57
458.23	351.30
458.59	347.83
458.96	344.27
459.33	341.08
459.70	337.87
460.07	335.30
460.43	332.29
460.80	329.42
461.17	326.93
461.54	324.47
461.91	322.04
462.27	319.70
462.64	317.66
463.01	315.32
463.38	313.24
463.74	310.95
464.11	309.00
464.48	307.37
464.85	305.51
465.21	304.18
465.58	302.82
465.95	301.16
466.32	299.69
466.68	298.24
467.05	296.81
467.42	295.38
467.78	293.93
468.15	292.62
468.52	291.76
468.88	290.46
469.25	289.25
469.62	288.37
469.98	287.27
470.35	286.30
470.72	285.40
471.08	284.46
471.45	283.65
471.82	282.86
472.18	282.00
472.55	281.41
472.92	280.72
473.28	280.08
473.65	279.43
474.02	278.88
474.38	278.43
474.75	278.15
475.11	277.72
475.48	277.55
475.85	277.35
476.21	277.20
476.58	277.08
476.94	277.05
477.31	276.98
477.67	276.94
478.04	276.97
478.41	277.10
478.77	277.40
479.14	277.64
479.50	277.95
479.87	278.25
480.23	278.67
480.60	279.00
480.96	279.40
481.33	280.04
481.69	280.69
482.06	281.33
482.42	281.91
482.79	282.69
483.15	283.47
483.52	284.41
483.88	285.30
484.25	286.32
484.61	287.44
484.98	288.63
485.34	289.98
485.71	291.35
486.07	292.85
486.44	294.30
486.80	295.82
487.17	297.35
487.53	299.12
487.90	300.89
488.26	302.85
488.62	304.88
488.99	306.87
489.35	308.96
489.72	311.29
490.08	313.71
490.44	316.18
490.81	318.79
491.17	321.45
491.54	324.40
491.90	327.43
492.26	330.52
492.63	333.83
492.99	337.18
493.36	340.78
493.72	344.54
494.08	348.43
494.45	352.67
494.81	357.30
495.17	361.85
495.54	366.73
495.90	371.73
496.26	377.02
496.63	382.63
496.99	388.37
497.35	394.38
497.72	400.75
498.08	407.29
498.44	414.10
498.80	421.40
499.17	428.77
499.53	436.43
499.89	444.43
500.26	452.60
500.62	461.00
500.98	469.88
501.34	478.90
501.71	488.41
502.07	498.18
502.43	508.22
502.79	518.62
503.16	529.33
503.52	540.21
503.88	551.53
504.24	563.12
504.60	575.31
504.97	587.64
505.33	600.11
505.69	613.59
506.05	627.00
506.41	640.45
506.78	654.25
507.14	668.43
507.50	682.99
507.86	698.00
508.22	713.49
508.59	728.86
508.95	744.95
509.31	761.37
509.67	778.03
510.03	794.82
510.39	812.28
510.75	829.97
511.12	848.27
511.48	866.74
511.84	885.37
512.20	903.81
512.56	923.20
512.92	942.70
513.28	961.98
513.64	981.90
514.00	1002.10
514.37	1022.46
514.73	1043.43
515.09	1064.48
515.45	1085.44
515.81	1106.59
516.17	1128.13
516.53	1149.59
516.89	1171.20
517.25	1192.97
517.61	1214.77
517.97	1236.42
518.33	1258.06
518.69	1279.73
519.05	1302.06
519.41	1324.28
519.77	1347.13
520.13	1369.42
520.49	1391.85
520.85	1414.77
521.21	1437.36
521.57	1460.27
521.93	1482.75
522.29	1505.72
522.65	1528.45
523.01	1551.18
523.37	1573.67
523.73	1596.18
524.09	1618.57
524.45	1640.77
524.81	1663.24
525.17	1685.90
525.53	1708.52
525.89	1731.24
526.25	1753.53
526.61	1774.79
526.97	1796.79
527.33	1818.06
527.68	1839.42
528.04	1860.70
528.40	1881.36
528.76	1902.25
529.12	1923.15
529.48	1944.95
529.84	1965.35
530.20	1985.62
530.56	2006.25
530.91	2027.04
531.27	2047.70
531.63	2067.87
531.99	2087.77
532.35	2107.05
532.71	2126.02
533.07	2145.80
533.42	2164.35
533.78	2183.61
534.14	2202.52
534.50	2219.62
534.86	2238.01
535.21	2255.03
535.57	2273.02
535.93	2290.67
536.29	2307.75
536.65	2324.57
537.00	2339.89
537.36	2355.46
537.72	2371.48
538.08	2386.77
538.44	2402.48
538.79	2417.93
539.15	2433.01
539.51	2448.24
539.87	2463.76
540.22	2478.82
540.58	2493.71
540.94	2508.70
541.29	2521.50
541.65	2533.90
542.01	2547.74
542.37	2559.87
542.72	2572.39
543.08	2583.40
543.44	2595.19
543.79	2605.74
544.15	2616.19
544.51	2627.69
544.87	2638.94
545.22	2647.81
545.58	2656.55
545.94	2663.87
546.29	2670.42
546.65	2677.16
547.01	2683.37
547.36	2689.26
547.72	2694.96
548.07	2699.06
548.43	2702.94
548.79	2707.00
549.14	2711.92
549.50	2716.15
549.86	2720.49
550.21	2724.94
550.57	2729.30
550.92	2731.82
551.28	2734.74
551.64	2737.12
551.99	2739.60
552.35	2741.19
552.70	2744.08
553.06	2746.75
553.41	2750.01
553.77	2752.86
554.13	2755.14
554.48	2757.09
554.84	2758.47
555.19	2759.11
555.55	2759.76
555.90	2760.09
556.26	2761.02
556.61	2760.96
556.97	2760.01
557.32	2759.29
557.68	2757.72
558.03	2756.23
558.39	2755.08
558.74	2754.58
559.10	2753.95
559.45	2751.98
559.81	2750.96
560.16	2748.37
560.52	2746.11
560.87	2742.91
561.23	2739.66
561.58	2737.32
561.94	2734.32
562.29	2731.08
562.64	2728.97
563.00	2726.47
563.35	2724.58
563.71	2722.77
564.06	2720.45
564.42	2718.69
564.77	2716.78
565.12	2714.98
565.48	2711.98
565.83	2709.03
566.19	2705.84
566.54	2701.65
566.89	2697.90
567.25	2693.91
567.60	2690.92
567.96	2687.30
568.31	2683.91
568.66	2680.25
569.02	2675.60
569.37	2670.65
569.72	2666.66
570.08	2661.02
570.43	2655.44
570.78	2649.44
571.14	2642.98
571.49	2636.21
571.84	2630.26
572.20	2622.83
572.55	2616.05
572.90	2609.56
573.26	2602.40
573.61	2595.35
573.96	2588.56
574.31	2580.65
574.67	2572.85
575.02	2563.92
575.37	2555.44
575.72	2546.58
576.08	2539.07
576.43	2530.44
576.78	2522.52
577.13	2514.29
577.49	2506.12
577.84	2498.44
578.19	2490.81
578.54	2483.47
578.90	2476.57
579.25	2467.31
579.60	2458.45
579.95	2448.97
580.30	2440.72
580.66	2432.52
581.01	2423.15
581.36	2413.78
581.71	2405.65
582.06	2396.72
582.42	2388.70
582.77	2379.41
583.12	2370.40
583.47	2361.26
583.82	2352.83
584.17	2343.47
584.53	2333.99
584.88	2325.23
585.23	2316.01
585.58	2306.56
585.93	2296.71
586.28	2287.59
586.63	2278.94
586.98	2270.40
587.34	2262.14
587.69	2252.63
588.04	2243.54
588.39	2235.35
588.74	2226.30
589.09	2217.08
589.44	2207.56
589.79	2198.85
590.14	2190.78
590.49	2181.97
590.84	2172.67
591.19	2164.84
591.54	2155.89
591.89	2146.04
592.25	2136.73
592.60	2127.21
592.95	2117.84
593.30	2108.29
593.65	2098.23
594.00	2088.54
594.35	2080.18
594.70	2070.76
595.05	2061.93
595.40	2052.79
595.75	2043.12
596.10	2034.96
596.45	2026.51
596.80	2018.61
597.15	2010.28
597.50	2000.96
597.85	1992.42
598.19	1983.93
598.54	1974.83
598.89	1967.31
599.24	1960.31
599.59	1952.75
599.94	1945.43
600.29	1937.35
600.64	1929.20
600.99	1920.68
601.34	1913.56
601.69	1904.79
602.04	1896.73
602.39	1888.50
602.74	1880.68
603.08	1873.98
603.43	1866.25
603.78	1858.02
604.13	1849.86
604.48	1841.69
604.83	1834.87
605.18	1827.65
605.53	1820.04
605.87	1812.35
606.22	1804.85
606.57	1796.94
606.92	1788.52
607.27	1780.32
607.62	1772.90
607.96	1766.13
608.31	1760.06
608.66	1751.91
609.01	1744.06
609.36	1736.25
609.70	1728.33
610.05	1720.58
610.40	1712.08
610.75	1703.58
611.10	1695.66
611.44	1686.51
611.79	1677.40
612.14	1668.13
612.49	1658.53
612.83	1649.45
613.18	1639.58
613.53	1629.91
613.88	1620.04
614.22	1611.23
614.57	1601.98
614.92	1592.39
615.27	1582.73
615.61	1572.67
615.96	1563.65
616.31	1555.22
616.65	1547.00
617.00	1538.45
617.35	1529.44
617.70	1520.43
618.04	1511.49
618.39	1502.18
618.74	1493.83
619.08	1485.11
619.43	1476.67
619.78	1468.92
620.12	1460.62
620.47	1452.68
620.82	1444.01
621.16	1435.72
621.51	1427.36
621.85	1418.87
622.20	1410.46
622.55	1402.25
622.89	1393.80
623.24	1385.67
623.59	1376.91
623.93	1368.20
624.28	1359.79
624.62	1351.69
624.97	1343.16
625.32	1335.30
625.66	1328.07
626.01	1320.59
626.35	1313.25
626.70	1305.31
627.04	1297.77
627.39	1290.19
627.73	1282.80
628.08	1276.16
628.43	1268.91
628.77	1261.35
629.12	1253.88
629.46	1247.24
629.81	1239.63
630.15	1232.14
630.50	1224.57
630.84	1217.18
631.19	1210.08
631.53	1203.15
631.88	1195.53
632.22	1188.15
632.57	1181.06
632.91	1173.42
633.26	1165.77
633.60	1158.59
633.95	1151.74
634.29	1144.06
634.64	1137.24
634.98	1130.03
635.32	1122.59
635.67	1115.87
636.01	1109.09
636.36	1102.18
636.70	1095.50
637.05	1089.02
637.39	1082.65
637.73	1076.26
638.08	1070.53
638.42	1064.49
638.77	1058.17
639.11	1051.81
639.45	1045.73
639.80	1038.83
640.14	1032.29
640.49	1026.23
640.83	1020.10
641.17	1013.51
641.52	1007.62
641.86	1001.21
642.20	994.67
642.55	988.11
642.89	981.62
643.23	975.32
643.58	969.58
643.92	962.81
644.26	956.39
644.61	950.46
644.95	944.35
645.29	937.87
645.64	931.26
645.98	925.03
646.32	919.22
646.66	913.17
647.01	907.45
647.35	901.73
647.69	895.37
648.04	889.15
648.38	883.42
648.72	877.11
649.06	870.79
649.41	865.05
649.75	859.13
650.09	853.25
650.43	847.29
650.78	841.02
651.12	834.95
651.46	829.20
651.80	823.15
652.14	817.12
652.49	811.15
652.83	805.11
653.17	798.90
653.51	792.89
653.85	787.01
654.20	781.15
654.54	775.17
654.88	769.68
655.22	763.83
655.56	757.97
655.90	752.34
656.25	746.70
656.59	740.95
656.93	735.72
657.27	730.33
657.61	724.75
657.95	719.47
658.29	714.41
658.64	709.05
658.98	703.87
659.32	698.47
659.66	693.08
660.00	687.82
660.34	682.56
660.68	677.38
661.02	672.30
661.36	667.45
661.70	662.61
662.05	657.77
662.39	653.27
662.73	648.84
663.07	644.43
663.41	639.94
663.75	635.47
664.09	630.77
664.43	626.11
664.77	621.77
665.11	617.34
665.45	612.98
665.79	608.69
666.13	604.20
666.47	600.06
666.81	596.03
667.15	592.14
667.49	588.23
667.83	584.31
668.17	580.38
668.51	576.51
668.85	572.83
669.19	568.93
669.53	564.91
669.87	560.72
670.21	556.87
670.55	552.98
670.89	549.48
671.23	546.16
671.57	542.74
671.91	539.09
672.25	535.49
672.58	531.91
672.92	528.45
673.26	525.26
673.60	521.93
673.94	518.54
674.28	515.13
674.62	511.88
674.96	508.72
675.30	505.51
675.64	502.30
675.97	498.82
676.31	495.94
676.65	493.08
676.99	490.47
677.33	487.40
677.67	484.55
678.01	481.26
678.34	478.11
678.68	475.09
679.02	472.12
679.36	469.27
679.70	466.28
680.04	463.36
680.37	460.40
680.71	457.55
681.05	454.87
681.39	452.10
681.73	449.47
682.06	446.77
682.40	444.25
682.74	441.58
683.08	439.30
683.42	436.55
683.75	433.94
684.09	431.20
684.43	428.75
684.77	426.11
685.10	423.70
685.44	421.09
685.78	418.68
686.12	416.29
686.45	413.89
686.79	411.63
687.13	409.47
687.46	407.30
687.80	405.10
688.14	402.77
688.48	400.66
688.81	398.38
689.15	396.08
689.49	393.77
689.82	391.52
690.16	389.02
690.50	386.81
690.83	384.53
691.17	382.18
691.51	379.95
691.84	377.84
692.18	375.80
692.52	373.92
692.85	371.96
693.19	370.12
693.52	368.26
693.86	366.36
694.20	364.50
694.53	362.56
694.87	360.63
695.21	358.73
695.54	356.77
695.88	354.86
696.21	353.03
696.55	351.30
696.88	349.63
697.22	347.94
697.56	346.32
697.89	344.61
698.23	343.19
698.56	341.51
698.90	340.05
699.23	338.37
699.57	336.77
699.90	335.12
700.24	333.49
700.58	331.83
700.91	330.35
701.25	328.89
701.58	327.51
701.92	326.06
702.25	324.69
702.59	323.34
702.92	321.98
703.26	320.63
703.59	319.29
703.93	318.15
704.26	316.93
704.60	315.56
704.93	314.34
705.26	312.92
705.60	311.77
705.93	310.53
706.27	309.35
706.60	308.23
706.94	307.14
707.27	305.94
707.61	304.74
707.94	303.42
708.27	302.19
708.61	300.99
708.94	299.95
709.28	298.77
709.61	297.58
709.94	296.54
710.28	295.48
710.61	294.38
710.95	293.22
711.28	292.24
711.61	291.19
711.95	290.28
712.28	289.35
712.61	288.32
712.95	287.29
713.28	286.42
713.61	285.43
713.95	284.46
714.28	283.55
714.61	282.69
714.95	281.89
715.28	281.02
715.61	280.10
715.95	279.12
716.28	278.28
716.61	277.49
716.95	276.63
717.28	275.85
717.61	275.14
717.94	274.32
718.28	273.43
718.61	272.62
718.94	271.82
719.27	271.01
719.61	270.29
719.94	269.64
720.27	268.89
720.60	268.20
720.94	267.45
721.27	266.77
721.60	266.13
721.93	265.43
722.27	264.82
722.60	264.24
722.93	263.67
723.26	263.15
723.59	262.52
723.93	261.98
724.26	261.36
724.59	260.76
724.92	260.21
725.25	259.68
725.59	259.21
725.92	258.66
726.25	258.20
726.58	257.70
726.91	257.15
727.24	256.62
727.57	256.02
727.91	255.47
728.24	254.99
728.57	254.49
728.90	254.10
729.23	253.56
729.56	253.11
729.89	252.64
730.22	252.02
730.55	251.65
730.89	251.17
731.22	250.69
731.55	250.20
731.88	249.70
732.21	249.20
732.54	248.69
732.87	248.16
733.20	247.76
733.53	247.29
733.86	246.79
734.19	246.37
734.52	246.09
734.85	245.88
735.18	245.48
735.51	245.11
735.84	244.76
736.17	244.39
736.50	243.90
736.83	243.72
737.16	243.35
737.49	242.89
737.82	242.53
738.15	242.15
738.48	241.76
738.81	241.43
739.14	241.08
739.47	240.80
739.80	240.52
740.13	240.11
740.46	239.75
740.79	239.44
741.12	239.11
741.45	238.66
741.78	238.30
742.11	238.03
742.44	237.68
742.77	237.33
743.10	236.95
743.43	236.65
743.75	236.14
744.08	236.11
744.41	235.82
744.74	235.49
745.07	235.18
745.40	234.90
745.73	234.68
746.06	234.38
746.39	234.10
746.71	233.75
747.04	233.49
747.37	233.17
747.70	232.90
748.03	232.64
748.36	232.36
748.68	231.98
749.01	231.64
749.34	231.36
749.67	231.13
750.00	230.95
750.33	230.84
750.65	230.65
750.98	230.22
751.31	230.00
751.64	229.75
751.97	229.61
752.29	229.35
752.62	229.08
752.95	228.86
753.28	228.56
753.60	228.35
753.93	228.13
754.26	227.98
754.59	227.75
754.91	227.45
755.24	227.30
755.57	227.13
755.90	226.91
756.22	226.76
756.55	226.55
756.88	226.27
757.20	225.91
757.53	225.57
757.86	225.37
758.19	225.24
758.51	225.00
758.84	224.76
759.17	224.59
759.49	224.42
759.82	224.34
760.15	224.23
760.47	224.10
760.80	223.95
761.13	223.80
761.45	223.63
761.78	223.53
762.11	223.43
762.43	223.24
762.76	223.11
763.08	222.91
763.41	222.80
763.74	222.67
764.06	222.57
764.39	222.49
764.71	222.35
765.04	222.18
765.37	222.06
765.69	221.90
766.02	221.79
766.34	221.57
766.67	221.46
767.00	221.37
767.32	221.38
767.65	221.38
767.97	221.26
768.30	221.14
768.62	221.00
768.95	220.77
769.27	220.60
769.60	220.53
769.92	220.40
770.25	220.25
770.57	220.11
770.90	220.00
771.22	219.83
771.55	219.67
771.87	219.56
772.20	219.50
772.52	219.59
772.85	219.72
773.17	219.66
773.50	219.48
773.82	219.34
774.15	219.13
774.47	218.91
774.80	218.75
775.12	218.71
775.45	218.63
775.77	218.65
776.09	218.68
776.42	218.57
776.74	218.58
777.07	218.47
777.39	218.47
777.72	218.40
778.04	218.36
778.36	218.28
778.69	218.17
779.01	218.10
779.33	217.86
779.66	217.66
779.98	217.60
780.31	217.59
780.63	217.58
780.95	217.49
781.28	217.40
781.60	217.40
781.92	217.37
782.25	217.28
782.57	217.15
782.89	217.10
783.22	217.02
783.54	216.93
783.86	216.89
784.19	216.79
784.51	216.75
784.83	216.66
785.16	216.58
785.48	216.60
785.80	216.52
786.12	216.49
786.45	216.37
