SpectraSuite Data File
++++++++++++++++++++++++++++++++++++
Date: Mon Feb 25 17:35:56 EST 2013
User: group
Dark Spectrum Present: No
Reference Spectrum Present: No
Number of Sampled Component Spectra: 1
Spectrometers: USB2E7196
Integration Time (usec): 52000 (USB2E7196)
Spectra Averaged: 20 (USB2E7196)
Boxcar Smoothing: 10 (USB2E7196)
Correct for Electrical Dark: No (USB2E7196)
Strobe/Lamp Enabled: No (USB2E7196)
Correct for Detector Non-linearity: No (USB2E7196)
Correct for Stray Light: No (USB2E7196)
Number of Pixels in Processed Spectrum: 2048
>>>>>Begin Processed Spectral Data<<<<<
339.09	0.00
339.48	199.80
339.86	199.80
340.24	201.75
340.63	203.35
341.01	206.60
341.39	205.90
341.78	207.55
342.16	208.20
342.54	209.35
342.93	198.21
343.31	208.27
343.69	208.74
344.07	209.24
344.46	209.70
344.84	210.19
345.22	210.47
345.60	210.83
345.99	211.07
346.37	211.27
346.75	211.43
347.13	211.54
347.52	211.72
347.90	211.87
348.28	212.00
348.66	212.13
349.05	212.17
349.43	212.27
349.81	212.42
350.19	212.50
350.57	212.69
350.96	212.78
351.34	212.88
351.72	213.08
352.10	213.20
352.48	213.29
352.87	213.30
353.25	213.33
353.63	213.36
354.01	213.41
354.39	213.50
354.77	213.60
355.15	213.64
355.54	213.72
355.92	213.72
356.30	213.72
356.68	213.85
357.06	213.87
357.44	213.87
357.82	213.89
358.20	213.93
358.58	213.96
358.97	214.02
359.35	214.13
359.73	214.21
360.11	214.31
360.49	214.37
360.87	214.44
361.25	214.52
361.63	214.61
362.01	214.69
362.39	214.71
362.77	214.68
363.15	214.78
363.53	214.80
363.91	214.92
364.29	214.94
364.67	214.82
365.05	214.87
365.43	214.94
365.81	214.97
366.19	215.09
366.57	215.16
366.95	215.19
367.33	215.11
367.71	215.10
368.09	215.06
368.47	215.04
368.85	214.99
369.23	215.07
369.61	214.97
369.99	214.98
370.37	215.01
370.75	215.08
371.13	214.99
371.51	214.89
371.89	214.82
372.27	214.88
372.65	214.86
373.03	214.82
373.41	214.79
373.78	214.78
374.16	214.63
374.54	214.54
374.92	214.51
375.30	214.50
375.68	214.46
376.06	214.44
376.44	214.45
376.82	214.38
377.19	214.28
377.57	214.19
377.95	214.04
378.33	213.98
378.71	213.86
379.09	213.88
379.47	213.93
379.84	213.88
380.22	213.75
380.60	213.70
380.98	213.67
381.36	213.63
381.73	213.53
382.11	213.61
382.49	213.55
382.87	213.55
383.25	213.53
383.62	213.71
384.00	213.69
384.38	213.60
384.76	213.70
385.13	213.79
385.51	213.79
385.89	213.76
386.27	213.73
386.64	213.77
387.02	213.79
387.40	213.70
387.78	213.68
388.15	213.72
388.53	213.67
388.91	213.72
389.29	213.70
389.66	213.74
390.04	213.63
390.42	213.62
390.79	213.59
391.17	213.64
391.55	213.40
391.92	213.43
392.30	213.47
392.68	213.39
393.05	213.37
393.43	213.48
393.81	213.60
394.18	213.59
394.56	213.63
394.94	213.71
395.31	213.82
395.69	213.98
396.06	214.12
396.44	214.25
396.82	214.28
397.19	214.40
397.57	214.48
397.95	214.63
398.32	214.78
398.70	214.88
399.07	215.00
399.45	215.18
399.82	215.35
400.20	215.52
400.58	215.74
400.95	215.87
401.33	216.14
401.70	216.50
402.08	216.88
402.45	217.19
402.83	217.54
403.20	217.89
403.58	218.20
403.95	218.67
404.33	219.16
404.71	219.66
405.08	220.32
405.46	220.90
405.83	221.57
406.21	222.19
406.58	223.01
406.96	223.78
407.33	224.58
407.70	225.50
408.08	226.66
408.45	227.80
408.83	229.12
409.20	230.33
409.58	231.64
409.95	233.02
410.33	234.59
410.70	236.15
411.08	237.90
411.45	239.93
411.82	241.91
412.20	244.12
412.57	246.56
412.95	248.87
413.32	251.56
413.69	254.52
414.07	257.71
414.44	261.03
414.82	264.55
415.19	268.65
415.56	272.77
415.94	277.15
416.31	281.90
416.68	286.61
417.06	292.08
417.43	297.16
417.81	303.23
418.18	309.45
418.55	316.35
418.93	323.63
419.30	331.03
419.67	338.89
420.04	347.07
420.42	355.78
420.79	365.50
421.16	375.60
421.54	385.63
421.91	396.31
422.28	407.62
422.66	419.56
423.03	431.00
423.40	443.41
423.77	456.60
424.15	470.17
424.52	484.24
424.89	499.47
425.26	514.64
425.64	529.09
426.01	544.91
426.38	561.24
426.75	577.69
427.13	594.86
427.50	613.21
427.87	632.34
428.24	651.58
428.61	670.28
428.99	690.21
429.36	712.56
429.73	734.31
430.10	755.81
430.47	778.01
430.85	801.55
431.22	825.98
431.59	851.47
431.96	876.41
432.33	904.26
432.70	931.29
433.08	962.70
433.45	991.83
433.82	1021.27
434.19	1054.04
434.56	1086.30
434.93	1118.02
435.30	1149.16
435.68	1183.68
436.05	1217.73
436.42	1251.88
436.79	1283.21
437.16	1316.30
437.53	1350.90
437.90	1385.42
438.27	1419.17
438.64	1453.95
439.01	1486.30
439.38	1515.65
439.75	1544.00
440.13	1574.63
440.50	1603.78
440.87	1627.87
441.24	1653.52
441.61	1680.62
441.98	1701.16
442.35	1724.08
442.72	1746.69
443.09	1768.44
443.46	1782.51
443.83	1793.03
444.20	1802.32
444.57	1815.04
444.94	1821.71
445.31	1828.42
445.68	1834.03
446.05	1838.03
446.42	1837.30
446.79	1835.36
447.16	1833.50
447.53	1832.40
447.90	1823.60
448.27	1814.95
448.64	1801.00
449.01	1791.66
449.37	1773.76
449.74	1756.16
450.11	1734.86
450.48	1712.22
450.85	1689.31
451.22	1668.40
451.59	1647.16
451.96	1626.99
452.33	1599.42
452.70	1574.91
453.07	1545.25
453.43	1515.62
453.80	1486.17
454.17	1457.10
454.54	1430.15
454.91	1400.44
455.28	1371.63
455.65	1344.59
456.02	1315.56
456.38	1291.77
456.75	1262.02
457.12	1236.88
457.49	1211.62
457.86	1187.58
458.23	1165.37
458.59	1141.53
458.96	1118.01
459.33	1097.36
459.70	1076.27
460.07	1059.58
460.43	1040.25
460.80	1021.95
461.17	1005.83
461.54	989.08
461.91	973.16
462.27	956.76
462.64	942.91
463.01	927.54
463.38	912.40
463.74	898.74
464.11	885.56
464.48	874.12
464.85	861.68
465.21	851.73
465.58	841.35
465.95	829.38
466.32	818.89
466.68	808.56
467.05	798.23
467.42	787.97
467.78	777.36
468.15	767.24
468.52	759.71
468.88	750.07
469.25	741.21
469.62	733.88
469.98	726.21
470.35	718.89
470.72	711.74
471.08	704.50
471.45	697.82
471.82	691.13
472.18	684.07
472.55	678.67
472.92	672.46
473.28	666.90
473.65	661.63
474.02	656.33
474.38	651.67
474.75	647.65
475.11	643.45
475.48	639.91
475.85	636.75
476.21	633.49
476.58	630.61
476.94	628.19
477.31	625.31
477.67	622.72
478.04	620.64
478.41	619.05
478.77	617.39
479.14	615.73
479.50	614.64
479.87	613.87
480.23	613.06
480.60	612.20
480.96	611.36
481.33	611.14
481.69	611.04
482.06	610.70
482.42	609.94
482.79	609.69
483.15	610.31
483.52	611.26
483.88	612.03
484.25	612.84
484.61	613.75
484.98	614.88
485.34	616.34
485.71	617.99
486.07	619.82
486.44	621.49
486.80	623.76
487.17	625.97
487.53	628.58
487.90	631.35
488.26	634.19
488.62	637.49
488.99	640.64
489.35	644.02
489.72	647.95
490.08	652.35
490.44	656.45
490.81	660.45
491.17	664.25
491.54	668.49
491.90	672.97
492.26	677.86
492.63	683.02
492.99	688.19
493.36	693.34
493.72	699.04
494.08	704.69
494.45	710.57
494.81	716.79
495.17	723.02
495.54	729.51
495.90	736.22
496.26	742.59
496.63	749.43
496.99	756.24
497.35	763.10
497.72	770.22
498.08	777.30
498.44	784.30
498.80	792.08
499.17	799.74
499.53	807.38
499.89	815.02
500.26	822.22
500.62	829.33
500.98	836.93
501.34	844.09
501.71	851.69
502.07	859.01
502.43	866.42
502.79	873.51
503.16	880.60
503.52	887.76
503.88	894.81
504.24	901.90
504.60	909.06
504.97	916.14
505.33	922.85
505.69	930.13
506.05	937.10
506.41	943.38
506.78	949.47
507.14	955.38
507.50	961.15
507.86	966.90
508.22	972.59
508.59	977.55
508.95	982.68
509.31	987.54
509.67	992.35
510.03	996.56
510.39	1001.13
510.75	1005.02
511.12	1008.71
511.48	1012.18
511.84	1015.19
512.20	1017.82
512.56	1020.37
512.92	1022.83
513.28	1024.80
513.64	1026.62
514.00	1028.41
514.37	1030.12
514.73	1031.83
515.09	1033.25
515.45	1034.47
515.81	1035.64
516.17	1036.99
516.53	1037.76
516.89	1038.69
517.25	1039.22
517.61	1040.18
517.97	1040.75
518.33	1041.50
518.69	1042.42
519.05	1043.25
519.41	1044.26
519.77	1045.44
520.13	1046.34
520.49	1047.46
520.85	1048.60
521.21	1049.79
521.57	1051.39
521.93	1052.74
522.29	1054.56
522.65	1056.23
523.01	1058.21
523.37	1060.16
523.73	1062.07
524.09	1064.27
524.45	1066.55
524.81	1069.18
525.17	1071.83
525.53	1074.51
525.89	1077.64
526.25	1080.71
526.61	1083.93
526.97	1087.25
527.33	1090.76
527.68	1094.70
528.04	1098.55
528.40	1102.41
528.76	1106.69
529.12	1110.73
529.48	1115.31
529.84	1119.53
530.20	1124.25
530.56	1129.18
530.91	1134.26
531.27	1139.47
531.63	1144.79
531.99	1150.29
532.35	1155.79
532.71	1161.31
533.07	1167.50
533.42	1173.49
533.78	1179.50
534.14	1185.74
534.50	1192.03
534.86	1198.62
535.21	1204.82
535.57	1211.57
535.93	1218.43
536.29	1225.31
536.65	1232.57
537.00	1239.82
537.36	1247.35
537.72	1255.07
538.08	1262.74
538.44	1270.61
538.79	1278.88
539.15	1287.20
539.51	1295.69
539.87	1304.33
540.22	1313.09
540.58	1321.99
540.94	1331.00
541.29	1339.71
541.65	1348.42
542.01	1357.38
542.37	1366.26
542.72	1375.51
543.08	1384.59
543.44	1393.88
543.79	1402.72
544.15	1411.73
544.51	1420.95
544.87	1430.04
545.22	1438.81
545.58	1447.67
545.94	1456.35
546.29	1464.80
546.65	1473.21
547.01	1481.70
547.36	1490.28
547.72	1499.01
548.07	1507.40
548.43	1515.50
548.79	1523.92
549.14	1532.62
549.50	1541.28
549.86	1549.71
550.21	1558.31
550.57	1567.11
550.92	1575.61
551.28	1584.30
551.64	1593.05
551.99	1601.90
552.35	1610.45
552.70	1619.14
553.06	1628.11
553.41	1637.23
553.77	1646.45
554.13	1655.81
554.48	1665.07
554.84	1674.12
555.19	1682.41
555.55	1691.14
555.90	1699.63
556.26	1708.59
556.61	1716.92
556.97	1724.81
557.32	1733.52
557.68	1741.79
558.03	1749.86
558.39	1757.97
558.74	1766.50
559.10	1774.40
559.45	1782.52
559.81	1791.07
560.16	1799.13
560.52	1806.93
560.87	1814.82
561.23	1822.25
561.58	1829.81
561.94	1836.96
562.29	1844.08
562.64	1852.00
563.00	1859.62
563.35	1867.46
563.71	1875.05
564.06	1882.91
564.42	1891.03
564.77	1898.65
565.12	1906.28
565.48	1913.74
565.83	1921.16
566.19	1928.52
566.54	1935.67
566.89	1942.42
567.25	1949.38
567.60	1956.18
567.96	1963.33
568.31	1970.11
568.66	1976.89
569.02	1983.53
569.37	1990.13
569.72	1997.18
570.08	2003.52
570.43	2009.20
570.78	2015.10
571.14	2020.54
571.49	2025.83
571.84	2031.24
572.20	2036.38
572.55	2041.49
572.90	2046.31
573.26	2051.15
573.61	2055.58
573.96	2060.59
574.31	2064.95
574.67	2069.13
575.02	2073.21
575.37	2076.78
575.72	2080.10
576.08	2084.03
576.43	2087.14
576.78	2090.58
577.13	2093.91
577.49	2097.09
577.84	2100.62
578.19	2103.95
578.54	2107.71
578.90	2111.50
579.25	2114.05
579.60	2115.96
579.95	2118.13
580.30	2121.21
580.66	2123.81
581.01	2125.87
581.36	2127.39
581.71	2129.54
582.06	2131.68
582.42	2134.06
582.77	2135.70
583.12	2137.37
583.47	2138.98
583.82	2140.92
584.17	2142.03
584.53	2143.16
584.88	2144.33
585.23	2145.28
585.58	2145.99
585.93	2146.64
586.28	2147.18
586.63	2148.46
586.98	2150.03
587.34	2151.60
587.69	2152.01
588.04	2152.70
588.39	2153.96
588.74	2154.55
589.09	2154.86
589.44	2154.45
589.79	2154.58
590.14	2155.15
590.49	2155.40
590.84	2155.06
591.19	2155.51
591.54	2155.46
591.89	2154.41
592.25	2154.04
592.60	2153.57
592.95	2152.59
593.30	2151.61
593.65	2150.49
594.00	2149.43
594.35	2149.10
594.70	2147.91
595.05	2147.35
595.40	2146.15
595.75	2144.27
596.10	2143.22
596.45	2142.26
596.80	2142.14
597.15	2141.31
597.50	2140.08
597.85	2139.17
598.19	2138.18
598.54	2137.05
598.89	2136.79
599.24	2137.01
599.59	2136.56
599.94	2136.21
600.29	2135.90
600.64	2135.26
600.99	2133.94
601.34	2133.22
601.69	2131.11
602.04	2129.89
602.39	2128.61
602.74	2127.59
603.08	2127.41
603.43	2127.18
603.78	2126.18
604.13	2124.65
604.48	2123.30
604.83	2122.79
605.18	2122.19
605.53	2120.75
605.87	2119.10
606.22	2117.45
606.57	2115.97
606.92	2114.03
607.27	2112.21
607.62	2111.34
607.96	2110.34
608.31	2110.29
608.66	2108.70
609.01	2107.32
609.36	2105.24
609.70	2102.62
610.05	2100.25
610.40	2097.22
610.75	2093.96
611.10	2091.03
611.44	2086.88
611.79	2082.92
612.14	2078.18
612.49	2073.23
612.83	2069.19
613.18	2064.64
613.53	2060.16
613.88	2054.75
614.22	2049.93
614.57	2044.67
614.92	2038.80
615.27	2032.81
615.61	2026.61
615.96	2021.29
616.31	2016.65
616.65	2012.13
617.00	2007.47
617.35	2002.90
617.70	1998.09
618.04	1992.93
618.39	1987.61
618.74	1983.28
619.08	1978.18
619.43	1973.75
619.78	1969.49
620.12	1965.05
620.47	1960.55
620.82	1954.69
621.16	1949.39
621.51	1943.83
621.85	1938.70
622.20	1932.90
622.55	1927.00
622.89	1921.28
623.24	1915.78
623.59	1909.28
623.93	1903.02
624.28	1897.33
624.62	1890.94
624.97	1884.47
625.32	1878.03
625.66	1871.98
626.01	1866.03
626.35	1860.68
626.70	1854.64
627.04	1848.59
627.39	1842.30
627.73	1836.00
628.08	1830.83
628.43	1824.88
628.77	1819.39
629.12	1813.42
629.46	1808.27
629.81	1802.52
630.15	1796.15
630.50	1789.64
630.84	1782.94
631.19	1776.40
631.53	1769.64
631.88	1762.73
632.22	1756.07
632.57	1750.31
632.91	1743.69
633.26	1737.05
633.60	1730.32
633.95	1724.31
634.29	1718.00
634.64	1712.55
634.98	1706.35
635.32	1700.38
635.67	1695.05
636.01	1689.58
636.36	1683.56
636.70	1677.66
637.05	1671.95
637.39	1666.72
637.73	1661.35
638.08	1656.90
638.42	1652.09
638.77	1646.95
639.11	1641.85
639.45	1636.71
639.80	1630.41
640.14	1624.88
640.49	1619.03
640.83	1613.20
641.17	1606.84
641.52	1600.65
641.86	1593.98
642.20	1588.00
642.55	1581.21
642.89	1574.32
643.23	1567.07
643.58	1560.70
643.92	1553.74
644.26	1547.35
644.61	1540.89
644.95	1533.84
645.29	1526.69
645.64	1519.35
645.98	1512.40
646.32	1505.68
646.66	1498.50
647.01	1491.85
647.35	1485.16
647.69	1477.80
648.04	1471.21
648.38	1464.24
648.72	1457.45
649.06	1450.33
649.41	1443.07
649.75	1436.05
650.09	1429.04
650.43	1422.27
650.78	1415.03
651.12	1407.81
651.46	1400.68
651.80	1393.52
652.14	1386.88
652.49	1379.96
652.83	1372.80
653.17	1365.26
653.51	1358.11
653.85	1351.42
654.20	1344.41
654.54	1337.31
654.88	1330.54
655.22	1322.55
655.56	1314.87
655.90	1307.03
656.25	1299.40
656.59	1292.33
656.93	1285.53
657.27	1278.70
657.61	1271.53
657.95	1264.60
658.29	1257.57
658.64	1250.67
658.98	1243.51
659.32	1236.02
659.66	1228.95
660.00	1221.90
660.34	1214.91
660.68	1207.49
661.02	1199.77
661.36	1192.88
661.70	1185.87
662.05	1179.42
662.39	1173.36
662.73	1167.20
663.07	1160.99
663.41	1154.98
663.75	1148.60
664.09	1141.69
664.43	1134.79
664.77	1128.14
665.11	1121.64
665.45	1115.43
665.79	1108.66
666.13	1102.12
666.47	1096.10
666.81	1089.94
667.15	1083.64
667.49	1077.65
667.83	1071.82
668.17	1066.19
668.51	1060.62
668.85	1055.07
669.19	1049.05
669.53	1042.84
669.87	1036.68
670.21	1030.95
670.55	1024.63
670.89	1018.85
671.23	1013.44
671.57	1007.86
671.91	1002.17
672.25	996.43
672.58	990.57
672.92	985.35
673.26	980.11
673.60	974.31
673.94	968.57
674.28	963.25
674.62	958.01
674.96	952.79
675.30	947.72
675.64	942.24
675.97	936.79
676.31	931.93
676.65	927.11
676.99	922.65
677.33	917.55
677.67	912.60
678.01	907.25
678.34	901.97
678.68	897.10
679.02	891.89
679.36	886.73
679.70	881.71
680.04	876.36
680.37	870.99
680.71	866.18
681.05	861.38
681.39	856.41
681.73	851.41
682.06	846.53
682.40	841.57
682.74	836.34
683.08	831.30
683.42	826.00
683.75	820.89
684.09	815.69
684.43	810.79
684.77	805.69
685.10	800.61
685.44	795.57
685.78	790.40
686.12	785.94
686.45	781.25
686.79	776.55
687.13	772.23
687.46	768.12
687.80	763.68
688.14	758.95
688.48	754.51
688.81	749.63
689.15	745.02
689.49	740.28
689.82	735.52
690.16	730.56
690.50	725.83
690.83	721.10
691.17	716.07
691.51	711.27
691.84	706.75
692.18	702.47
692.52	698.27
692.85	694.31
693.19	690.10
693.52	685.83
693.86	681.59
694.20	677.09
694.53	672.34
694.87	667.81
695.21	663.56
695.54	659.01
695.88	654.67
696.21	650.29
696.55	646.02
696.88	642.13
697.22	638.28
697.56	634.60
697.89	630.75
698.23	627.15
698.56	623.44
698.90	619.85
699.23	615.84
699.57	611.76
699.90	607.58
700.24	603.40
700.58	599.49
700.91	595.65
701.25	591.95
701.58	588.38
701.92	584.57
702.25	580.81
702.59	577.24
702.92	573.79
703.26	570.31
703.59	567.05
703.93	563.73
704.26	560.23
704.60	556.72
704.93	553.31
705.26	549.91
705.60	546.53
705.93	543.16
706.27	540.24
706.60	537.19
706.94	534.15
707.27	531.01
707.61	528.00
707.94	524.80
708.27	521.48
708.61	518.35
708.94	515.38
709.28	512.37
709.61	509.55
709.94	506.75
710.28	503.70
710.61	500.80
710.95	497.86
711.28	495.26
711.61	492.54
711.95	489.99
712.28	487.28
712.61	484.64
712.95	482.00
713.28	479.24
713.61	476.57
713.95	474.04
714.28	471.63
714.61	468.93
714.95	466.65
715.28	464.27
715.61	461.66
715.95	459.08
716.28	456.50
716.61	453.85
716.95	451.31
717.28	448.93
717.61	446.58
717.94	444.27
718.28	441.86
718.61	439.50
718.94	437.20
719.27	434.92
719.61	432.75
719.94	430.74
720.27	428.54
720.60	426.49
720.94	424.35
721.27	422.23
721.60	420.50
721.93	418.40
722.27	416.55
722.60	414.84
722.93	413.08
723.26	411.52
723.59	409.75
723.93	407.94
724.26	406.21
724.59	404.32
724.92	402.67
725.25	401.00
725.59	399.36
725.92	397.69
726.25	396.00
726.58	394.30
726.91	392.46
727.24	390.76
727.57	389.05
727.91	387.15
728.24	385.50
728.57	383.69
728.90	382.14
729.23	380.53
729.56	378.90
729.89	377.24
730.22	375.49
730.55	373.98
730.89	372.38
731.22	370.73
731.55	369.31
731.88	367.67
732.21	366.11
732.54	364.54
732.87	362.97
733.20	361.45
733.53	359.87
733.86	358.36
734.19	356.89
734.52	355.52
734.85	354.41
735.18	353.05
735.51	351.64
735.84	350.26
736.17	348.85
736.50	347.24
736.83	346.11
737.16	344.88
737.49	343.55
737.82	342.22
738.15	340.97
738.48	339.57
738.81	338.25
739.14	336.93
739.47	335.52
739.80	334.24
740.13	332.99
740.46	331.72
740.79	330.50
741.12	329.28
741.45	327.95
741.78	326.64
742.11	325.40
742.44	324.24
742.77	323.01
743.10	321.84
743.43	320.80
743.75	319.41
744.08	318.26
744.41	317.04
744.74	315.92
745.07	314.85
745.40	313.93
745.73	312.91
746.06	311.84
746.39	310.78
746.71	309.73
747.04	308.64
747.37	307.69
747.70	306.69
748.03	305.59
748.36	304.62
748.68	303.55
749.01	302.56
749.34	301.59
749.67	300.64
750.00	299.66
750.33	298.83
750.65	297.95
750.98	296.83
751.31	295.90
751.64	294.93
751.97	294.02
752.29	293.02
752.62	292.04
752.95	291.12
753.28	290.19
753.60	289.20
753.93	288.38
754.26	287.48
754.59	286.53
754.91	285.74
755.24	284.85
755.57	283.96
755.90	283.11
756.22	282.23
756.55	281.39
756.88	280.60
757.20	279.65
757.53	278.82
757.86	278.01
758.19	277.22
758.51	276.44
758.84	275.62
759.17	274.87
759.49	274.13
759.82	273.55
760.15	272.89
760.47	272.15
760.80	271.31
761.13	270.58
761.45	269.93
761.78	269.18
762.11	268.48
762.43	267.88
762.76	267.22
763.08	266.55
763.41	265.91
763.74	265.25
764.06	264.66
764.39	264.02
764.71	263.47
765.04	262.83
765.37	262.32
765.69	261.74
766.02	261.14
766.34	260.60
766.67	259.88
767.00	259.41
767.32	259.07
767.65	258.77
767.97	258.16
768.30	257.61
768.62	257.16
768.95	256.72
769.27	256.10
769.60	255.66
769.92	255.14
770.25	254.60
770.57	254.11
770.90	253.64
771.22	253.12
771.55	252.62
771.87	252.25
772.20	251.73
772.52	251.38
772.85	251.10
773.17	250.63
773.50	250.29
773.82	249.72
774.15	249.06
774.47	248.51
774.80	248.05
775.12	247.64
775.45	247.20
775.77	246.77
776.09	246.42
776.42	245.95
776.74	245.66
777.07	245.27
777.39	244.85
777.72	244.46
778.04	244.09
778.36	243.78
778.69	243.46
779.01	243.16
779.33	242.68
779.66	242.16
779.98	241.85
780.31	241.40
780.63	241.20
780.95	241.00
781.28	240.61
781.60	240.44
781.92	240.13
782.25	239.80
782.57	239.53
782.89	239.25
