SpectraSuite Data File
++++++++++++++++++++++++++++++++++++
Date: Mon Feb 25 17:29:37 EST 2013
User: group
Dark Spectrum Present: No
Reference Spectrum Present: No
Number of Sampled Component Spectra: 1
Spectrometers: USB2E7196
Integration Time (usec): 52000 (USB2E7196)
Spectra Averaged: 20 (USB2E7196)
Boxcar Smoothing: 10 (USB2E7196)
Correct for Electrical Dark: No (USB2E7196)
Strobe/Lamp Enabled: No (USB2E7196)
Correct for Detector Non-linearity: No (USB2E7196)
Correct for Stray Light: No (USB2E7196)
Number of Pixels in Processed Spectrum: 2048
>>>>>Begin Processed Spectral Data<<<<<
339.09	0.00
339.48	197.90
339.86	199.45
340.24	200.95
340.63	203.15
341.01	206.40
341.39	205.65
341.78	206.60
342.16	208.50
342.54	208.90
342.93	197.51
343.31	207.52
343.69	208.05
344.07	208.50
344.46	208.92
344.84	209.28
345.22	209.53
345.60	209.85
345.99	210.05
346.37	210.16
346.75	210.26
347.13	210.30
347.52	210.30
347.90	210.40
348.28	210.39
348.66	210.55
349.05	210.57
349.43	210.69
349.81	210.78
350.19	210.87
350.57	210.96
350.96	211.12
351.34	211.13
351.72	211.25
352.10	211.43
352.48	211.58
352.87	211.69
353.25	211.70
353.63	211.77
354.01	211.88
354.39	211.97
354.77	212.05
355.15	212.23
355.54	212.36
355.92	212.36
356.30	212.50
356.68	212.68
357.06	212.82
357.44	212.92
357.82	213.00
358.20	213.21
358.58	213.29
358.97	213.40
359.35	213.58
359.73	213.74
360.11	213.82
360.49	213.89
360.87	213.86
361.25	213.95
361.63	214.01
362.01	214.07
362.39	214.13
362.77	214.20
363.15	214.21
363.53	214.30
363.91	214.33
364.29	214.36
364.67	214.23
365.05	214.24
365.43	214.29
365.81	214.30
366.19	214.29
366.57	214.41
366.95	214.43
367.33	214.43
367.71	214.40
368.09	214.40
368.47	214.35
368.85	214.40
369.23	214.50
369.61	214.48
369.99	214.55
370.37	214.55
370.75	214.65
371.13	214.60
371.51	214.53
371.89	214.54
372.27	214.47
372.65	214.44
373.03	214.35
373.41	214.31
373.78	214.34
374.16	214.23
374.54	214.05
374.92	213.90
375.30	213.82
375.68	213.74
376.06	213.69
376.44	213.61
376.82	213.57
377.19	213.54
377.57	213.45
377.95	213.30
378.33	213.21
378.71	213.02
379.09	213.00
379.47	212.97
379.84	212.89
380.22	212.84
380.60	212.75
380.98	212.75
381.36	212.67
381.73	212.55
382.11	212.56
382.49	212.59
382.87	212.59
383.25	212.55
383.62	212.77
384.00	212.68
384.38	212.72
384.76	212.68
385.13	212.51
385.51	212.45
385.89	212.41
386.27	212.34
386.64	212.37
387.02	212.32
387.40	212.16
387.78	212.15
388.15	212.15
388.53	212.15
388.91	212.04
389.29	212.00
389.66	211.95
390.04	211.81
390.42	211.77
390.79	211.73
391.17	211.73
391.55	211.45
391.92	211.42
392.30	211.34
392.68	211.31
393.05	211.41
393.43	211.38
393.81	211.35
394.18	211.40
394.56	211.39
394.94	211.42
395.31	211.44
395.69	211.50
396.06	211.48
396.44	211.46
396.82	211.45
397.19	211.53
397.57	211.55
397.95	211.69
398.32	211.68
398.70	211.77
399.07	211.84
399.45	211.89
399.82	211.89
400.20	211.90
400.58	211.99
400.95	211.89
401.33	211.95
401.70	212.14
402.08	212.16
402.45	212.22
402.83	212.26
403.20	212.37
403.58	212.36
403.95	212.52
404.33	212.61
404.71	212.72
405.08	212.84
405.46	212.98
405.83	213.01
406.21	213.10
406.58	213.16
406.96	213.28
407.33	213.44
407.70	213.64
408.08	213.97
408.45	214.18
408.83	214.44
409.20	214.66
409.58	214.75
409.95	214.97
410.33	215.18
410.70	215.45
411.08	215.71
411.45	216.06
411.82	216.31
412.20	216.68
412.57	217.20
412.95	217.58
413.32	217.97
413.69	218.44
414.07	219.00
414.44	219.51
414.82	220.04
415.19	220.61
415.56	221.28
415.94	221.92
416.31	222.59
416.68	223.26
417.06	224.11
417.43	225.06
417.81	226.05
418.18	226.94
418.55	227.92
418.93	229.05
419.30	230.15
419.67	231.36
420.04	232.61
420.42	233.81
420.79	235.33
421.16	236.87
421.54	238.51
421.91	240.11
422.28	241.76
422.66	243.49
423.03	245.25
423.40	247.09
423.77	249.06
424.15	251.02
424.52	253.08
424.89	255.21
425.26	257.26
425.64	259.28
426.01	261.56
426.38	263.93
426.75	266.28
427.13	268.64
427.50	271.17
427.87	273.85
428.24	276.52
428.61	278.97
428.99	281.81
429.36	284.72
429.73	287.70
430.10	290.80
430.47	293.92
430.85	297.02
431.22	300.39
431.59	303.95
431.96	307.33
432.33	311.12
432.70	314.80
433.08	319.08
433.45	323.06
433.82	327.18
434.19	331.59
434.56	336.01
434.93	340.26
435.30	344.42
435.68	348.98
436.05	353.51
436.42	357.96
436.79	361.96
437.16	366.43
437.53	371.01
437.90	375.51
438.27	379.97
438.64	384.79
439.01	389.16
439.38	392.85
439.75	396.57
440.13	400.85
440.50	404.85
440.87	408.19
441.24	411.59
441.61	415.16
441.98	418.00
442.35	421.15
442.72	424.33
443.09	427.36
443.46	429.10
443.83	430.31
444.20	431.50
444.57	433.09
444.94	433.90
445.31	434.64
445.68	435.36
446.05	435.78
446.42	435.14
446.79	434.41
447.16	433.76
447.53	433.17
447.90	431.33
448.27	429.64
448.64	427.04
449.01	425.30
449.37	422.31
449.74	419.24
450.11	415.68
450.48	411.85
450.85	407.96
451.22	404.77
451.59	401.51
451.96	398.50
452.33	394.44
452.70	390.54
453.07	386.09
453.43	381.64
453.80	377.26
454.17	373.26
454.54	369.36
454.91	365.24
455.28	361.28
455.65	357.47
456.02	353.66
456.38	350.50
456.75	346.51
457.12	343.09
457.49	339.78
457.86	336.52
458.23	333.82
458.59	330.81
458.96	327.79
459.33	325.07
459.70	322.24
460.07	320.11
460.43	317.67
460.80	315.49
461.17	313.39
461.54	311.12
461.91	308.98
462.27	306.97
462.64	305.24
463.01	303.28
463.38	301.47
463.74	299.50
464.11	297.83
464.48	296.41
464.85	294.98
465.21	293.75
465.58	292.55
465.95	290.96
466.32	289.77
466.68	288.45
467.05	287.33
467.42	286.20
467.78	284.92
468.15	283.84
468.52	283.00
468.88	281.92
469.25	281.06
469.62	280.36
469.98	279.57
470.35	278.74
470.72	278.03
471.08	277.27
471.45	276.69
471.82	276.13
472.18	275.43
472.55	274.90
472.92	274.38
473.28	273.96
473.65	273.62
474.02	273.23
474.38	272.94
474.75	272.75
475.11	272.44
475.48	272.27
475.85	272.09
476.21	271.98
476.58	271.87
476.94	271.90
477.31	271.90
477.67	271.91
478.04	272.02
478.41	272.23
478.77	272.68
479.14	272.86
479.50	273.18
479.87	273.50
480.23	273.92
480.60	274.38
480.96	274.82
481.33	275.49
481.69	276.12
482.06	276.83
482.42	277.51
482.79	278.33
483.15	279.13
483.52	280.16
483.88	281.12
484.25	282.14
484.61	283.20
484.98	284.34
485.34	285.64
485.71	287.05
486.07	288.58
486.44	289.87
486.80	291.44
487.17	292.97
487.53	294.80
487.90	296.62
488.26	298.55
488.62	300.60
488.99	302.65
489.35	304.72
489.72	306.95
490.08	309.29
490.44	311.74
490.81	314.43
491.17	317.14
491.54	319.96
491.90	322.98
492.26	326.17
492.63	329.42
492.99	332.90
493.36	336.51
493.72	340.22
494.08	344.24
494.45	348.40
494.81	352.90
495.17	357.39
495.54	362.22
495.90	367.21
496.26	372.47
496.63	377.85
496.99	383.56
497.35	389.40
497.72	395.63
498.08	401.97
498.44	408.55
498.80	415.53
499.17	422.79
499.53	430.28
499.89	438.14
500.26	446.15
500.62	454.21
500.98	462.70
501.34	471.56
501.71	480.72
502.07	490.05
502.43	499.59
502.79	509.57
503.16	519.90
503.52	530.27
503.88	540.88
504.24	551.94
504.60	563.32
504.97	575.10
505.33	587.00
505.69	599.74
506.05	612.55
506.41	625.43
506.78	638.51
507.14	652.00
507.50	665.72
507.86	679.87
508.22	694.38
508.59	709.10
508.95	724.12
509.31	739.12
509.67	754.91
510.03	770.82
510.39	787.27
510.75	803.90
511.12	820.83
511.48	838.24
511.84	855.75
512.20	873.13
512.56	890.85
512.92	908.82
513.28	926.87
513.64	945.23
514.00	963.75
514.37	982.63
514.73	1001.87
515.09	1021.18
515.45	1040.20
515.81	1059.66
516.17	1079.12
516.53	1098.56
516.89	1118.54
517.25	1138.07
517.61	1158.01
517.97	1177.34
518.33	1196.85
518.69	1216.77
519.05	1236.44
519.41	1256.31
519.77	1276.75
520.13	1297.03
520.49	1316.79
520.85	1337.13
521.21	1357.35
521.57	1377.89
521.93	1397.50
522.29	1417.75
522.65	1437.37
523.01	1457.39
523.37	1477.08
523.73	1496.97
524.09	1516.71
524.45	1536.36
524.81	1556.43
525.17	1576.11
525.53	1595.94
525.89	1615.50
526.25	1634.70
526.61	1653.24
526.97	1672.03
527.33	1690.48
527.68	1709.04
528.04	1727.73
528.40	1745.41
528.76	1763.20
529.12	1780.95
529.48	1799.70
529.84	1817.03
530.20	1834.92
530.56	1852.70
530.91	1870.50
531.27	1887.82
531.63	1904.90
531.99	1921.74
532.35	1937.70
532.71	1953.56
533.07	1970.05
533.42	1985.74
533.78	2001.61
534.14	2017.18
534.50	2031.54
534.86	2046.48
535.21	2060.50
535.57	2075.20
535.93	2089.37
536.29	2103.06
536.65	2116.32
537.00	2128.48
537.36	2140.78
537.72	2152.57
538.08	2164.48
538.44	2176.65
538.79	2188.91
539.15	2200.59
539.51	2211.89
539.87	2224.17
540.22	2235.92
540.58	2247.58
540.94	2258.60
541.29	2268.42
541.65	2278.11
542.01	2288.45
542.37	2297.55
542.72	2307.10
543.08	2315.21
543.44	2324.48
543.79	2332.40
544.15	2340.50
544.51	2349.04
544.87	2357.23
545.22	2364.41
545.58	2370.63
545.94	2375.87
546.29	2380.25
546.65	2384.62
547.01	2388.98
547.36	2392.67
547.72	2396.12
548.07	2398.50
548.43	2400.75
548.79	2402.93
549.14	2405.63
549.50	2408.32
549.86	2410.63
550.21	2412.64
550.57	2415.21
550.92	2415.98
551.28	2417.15
551.64	2417.83
551.99	2418.49
552.35	2418.98
552.70	2420.16
553.06	2421.47
553.41	2422.45
553.77	2423.86
554.13	2424.35
554.48	2424.99
554.84	2424.82
555.19	2424.04
555.55	2423.30
555.90	2422.73
556.26	2422.20
556.61	2420.65
556.97	2418.44
557.32	2416.72
557.68	2414.05
558.03	2411.45
558.39	2408.95
558.74	2407.36
559.10	2405.27
559.45	2402.71
559.81	2400.56
560.16	2397.26
560.52	2393.97
560.87	2391.01
561.23	2386.70
561.58	2384.05
561.94	2380.36
562.29	2376.18
562.64	2373.37
563.00	2370.00
563.35	2367.25
563.71	2364.77
564.06	2362.57
564.42	2359.81
564.77	2356.81
565.12	2354.52
565.48	2351.18
565.83	2348.03
566.19	2344.51
566.54	2340.39
566.89	2336.24
567.25	2332.27
567.60	2328.68
567.96	2325.17
568.31	2321.04
568.66	2317.15
569.02	2312.38
569.37	2307.39
569.72	2303.85
570.08	2298.35
570.43	2293.16
570.78	2287.37
571.14	2281.01
571.49	2274.68
571.84	2269.02
572.20	2262.87
572.55	2256.56
572.90	2250.13
573.26	2243.58
573.61	2236.86
573.96	2230.55
574.31	2223.60
574.67	2216.19
575.02	2208.15
575.37	2200.08
575.72	2191.83
576.08	2184.93
576.43	2177.15
576.78	2170.21
577.13	2162.91
577.49	2155.96
577.84	2148.89
578.19	2142.49
578.54	2136.27
578.90	2129.71
579.25	2122.18
579.60	2113.98
579.95	2106.11
580.30	2099.19
580.66	2091.91
581.01	2084.07
581.36	2075.78
581.71	2068.56
582.06	2061.12
582.42	2054.33
582.77	2046.51
583.12	2038.90
583.47	2031.27
583.82	2023.94
584.17	2015.58
584.53	2007.53
584.88	1999.73
585.23	1992.09
585.58	1983.60
585.93	1975.07
586.28	1967.40
586.63	1959.73
586.98	1953.09
587.34	1945.82
587.69	1937.67
588.04	1929.86
588.39	1922.73
588.74	1915.37
589.09	1907.92
589.44	1899.77
589.79	1892.42
590.14	1885.88
590.49	1878.81
590.84	1871.32
591.19	1864.77
591.54	1857.47
591.89	1848.97
592.25	1841.48
592.60	1833.35
592.95	1825.67
593.30	1817.79
593.65	1809.46
594.00	1801.26
594.35	1794.25
594.70	1786.38
595.05	1779.28
595.40	1771.66
595.75	1763.65
596.10	1756.73
596.45	1749.35
596.80	1742.65
597.15	1735.69
597.50	1728.05
597.85	1720.97
598.19	1713.64
598.54	1706.26
598.89	1699.81
599.24	1694.04
599.59	1687.58
599.94	1681.55
600.29	1674.86
600.64	1668.01
600.99	1660.82
601.34	1655.02
601.69	1647.32
602.04	1640.63
602.39	1633.65
602.74	1627.29
603.08	1621.59
603.43	1615.35
603.78	1608.60
604.13	1601.90
604.48	1594.93
604.83	1588.82
605.18	1582.72
605.53	1576.21
605.87	1569.39
606.22	1563.19
606.57	1556.48
606.92	1549.40
607.27	1542.60
607.62	1536.21
607.96	1530.52
608.31	1525.29
608.66	1518.28
609.01	1511.90
609.36	1505.34
609.70	1498.60
610.05	1491.68
610.40	1484.64
610.75	1477.42
611.10	1471.02
611.44	1463.36
611.79	1455.65
612.14	1447.84
612.49	1439.59
612.83	1432.30
613.18	1424.35
613.53	1416.17
613.88	1407.90
614.22	1400.54
614.57	1392.70
614.92	1384.66
615.27	1376.81
615.61	1368.61
615.96	1361.33
616.31	1354.16
616.65	1347.47
617.00	1340.61
617.35	1333.72
617.70	1326.04
618.04	1318.43
618.39	1310.31
618.74	1303.31
619.08	1296.22
619.43	1289.05
619.78	1282.75
620.12	1275.71
620.47	1269.15
620.82	1261.98
621.16	1255.01
621.51	1248.07
621.85	1241.02
622.20	1234.08
622.55	1226.80
622.89	1219.87
623.24	1213.11
623.59	1205.47
623.93	1197.75
624.28	1190.45
624.62	1183.34
624.97	1176.44
625.32	1169.81
625.66	1163.75
626.01	1157.38
626.35	1151.07
626.70	1144.59
627.04	1138.03
627.39	1131.78
627.73	1125.22
628.08	1119.52
628.43	1113.22
628.77	1106.76
629.12	1100.18
629.46	1094.45
629.81	1088.25
630.15	1081.73
630.50	1075.19
630.84	1069.21
631.19	1063.22
631.53	1057.53
631.88	1051.21
632.22	1044.83
632.57	1038.87
632.91	1032.38
633.26	1025.78
633.60	1019.63
633.95	1013.81
634.29	1007.52
634.64	1001.56
634.98	995.65
635.32	989.52
635.67	983.91
636.01	978.13
636.36	972.57
636.70	966.81
637.05	961.20
637.39	955.97
637.73	950.62
638.08	945.48
638.42	940.60
638.77	934.83
639.11	929.36
639.45	924.16
639.80	918.60
640.14	912.98
640.49	907.88
640.83	902.60
641.17	897.00
641.52	891.68
641.86	886.09
642.20	880.80
642.55	875.08
642.89	869.66
643.23	864.21
643.58	859.09
643.92	853.50
644.26	848.16
644.61	842.90
644.95	837.62
645.29	832.26
645.64	826.39
645.98	821.08
646.32	816.04
646.66	810.77
647.01	805.49
647.35	800.53
647.69	795.26
648.04	790.02
648.38	784.89
648.72	779.80
649.06	774.49
649.41	769.05
649.75	764.25
650.09	759.22
650.43	754.06
650.78	748.70
651.12	743.50
651.46	738.56
651.80	733.39
652.14	728.28
652.49	723.27
652.83	718.32
653.17	713.09
653.51	707.94
653.85	703.10
654.20	698.13
654.54	693.07
654.88	688.23
655.22	683.28
655.56	678.19
655.90	673.29
656.25	668.49
656.59	663.81
656.93	659.08
657.27	654.56
657.61	649.91
657.95	645.53
658.29	641.21
658.64	636.91
658.98	632.41
659.32	627.67
659.66	623.06
660.00	618.50
660.34	614.12
660.68	609.71
661.02	605.24
661.36	601.17
661.70	597.11
662.05	593.02
662.39	589.21
662.73	585.41
663.07	581.54
663.41	577.75
663.75	573.86
664.09	569.99
664.43	565.79
664.77	562.01
665.11	558.21
665.45	554.30
665.79	550.25
666.13	546.41
666.47	542.84
666.81	539.27
667.15	535.83
667.49	532.50
667.83	529.22
668.17	525.84
668.51	522.52
668.85	519.37
669.19	516.21
669.53	512.82
669.87	509.47
670.21	506.10
670.55	502.79
670.89	499.87
671.23	496.91
671.57	494.13
671.91	491.06
672.25	487.81
672.58	484.80
672.92	482.02
673.26	479.40
673.60	476.66
673.94	473.83
674.28	471.03
674.62	468.27
674.96	465.32
675.30	462.65
675.64	459.77
675.97	456.87
676.31	454.26
676.65	451.72
676.99	449.48
677.33	447.08
677.67	444.50
678.01	441.89
678.34	439.25
678.68	436.69
679.02	434.30
679.36	431.94
679.70	429.49
680.04	426.91
680.37	424.31
680.71	421.88
681.05	419.65
681.39	417.24
681.73	414.92
682.06	412.78
682.40	410.77
682.74	408.66
683.08	406.55
683.42	404.14
683.75	401.96
684.09	399.65
684.43	397.40
684.77	395.24
685.10	392.97
685.44	390.78
685.78	388.64
686.12	386.65
686.45	384.68
686.79	382.82
687.13	380.98
687.46	379.09
687.80	377.23
688.14	375.15
688.48	373.30
688.81	371.31
689.15	369.49
689.49	367.44
689.82	365.48
690.16	363.53
690.50	361.68
690.83	359.67
691.17	357.67
691.51	355.90
691.84	354.04
692.18	352.35
692.52	350.65
692.85	349.08
693.19	347.39
693.52	345.68
693.86	343.83
694.20	342.17
694.53	340.51
694.87	338.84
695.21	337.26
695.54	335.59
695.88	334.00
696.21	332.32
696.55	330.83
696.88	329.43
697.22	327.92
697.56	326.60
697.89	325.20
698.23	323.86
698.56	322.39
698.90	321.15
699.23	319.70
699.57	318.39
699.90	316.87
700.24	315.42
700.58	314.02
700.91	312.79
701.25	311.57
701.58	310.42
701.92	309.08
702.25	307.80
702.59	306.66
702.92	305.41
703.26	304.30
703.59	303.16
703.93	302.14
704.26	301.07
704.60	299.93
704.93	298.89
705.26	297.75
705.60	296.74
705.93	295.60
706.27	294.61
706.60	293.60
706.94	292.70
707.27	291.67
707.61	290.77
707.94	289.72
708.27	288.59
708.61	287.58
708.94	286.58
709.28	285.73
709.61	284.84
709.94	283.97
710.28	283.09
710.61	282.17
710.95	281.07
711.28	280.26
711.61	279.36
711.95	278.49
712.28	277.70
712.61	276.78
712.95	276.04
713.28	275.29
713.61	274.45
713.95	273.67
714.28	272.99
714.61	272.13
714.95	271.43
715.28	270.61
715.61	269.77
715.95	269.12
716.28	268.27
716.61	267.53
716.95	266.86
717.28	266.08
717.61	265.41
717.94	264.79
718.28	264.09
718.61	263.36
718.94	262.67
719.27	262.04
719.61	261.47
719.94	260.80
720.27	260.11
720.60	259.49
720.94	258.81
721.27	258.13
721.60	257.69
721.93	257.14
722.27	256.75
722.60	256.20
722.93	255.68
723.26	255.25
723.59	254.62
723.93	254.11
724.26	253.70
724.59	253.17
724.92	252.68
725.25	252.22
725.59	251.77
725.92	251.42
726.25	251.00
726.58	250.61
726.91	250.20
727.24	249.80
727.57	249.35
727.91	248.96
728.24	248.60
728.57	248.14
728.90	247.75
729.23	247.38
729.56	247.10
729.89	246.70
730.22	246.25
730.55	245.92
730.89	245.45
731.22	245.01
731.55	244.59
731.88	244.25
732.21	243.86
732.54	243.49
732.87	243.04
733.20	242.53
733.53	242.09
733.86	241.71
734.19	241.32
734.52	241.07
734.85	240.90
735.18	240.61
735.51	240.25
735.84	239.90
736.17	239.55
736.50	239.17
736.83	239.01
737.16	238.67
737.49	238.40
737.82	238.08
738.15	237.81
738.48	237.57
738.81	237.23
739.14	236.91
739.47	236.68
739.80	236.38
740.13	236.23
740.46	235.93
740.79	235.61
741.12	235.34
741.45	235.02
741.78	234.63
742.11	234.40
742.44	234.10
742.77	233.95
743.10	233.68
743.43	233.35
743.75	232.92
744.08	233.06
744.41	232.79
744.74	232.59
745.07	232.29
745.40	232.05
745.73	231.84
746.06	231.58
746.39	231.36
746.71	231.16
747.04	230.90
747.37	230.63
747.70	230.51
748.03	230.31
748.36	230.10
748.68	229.75
749.01	229.45
749.34	229.27
749.67	228.96
750.00	228.72
750.33	228.70
750.65	228.44
750.98	227.96
751.31	227.68
751.64	227.45
751.97	227.34
752.29	227.12
752.62	226.92
752.95	226.71
753.28	226.42
753.60	226.21
753.93	226.04
754.26	225.86
754.59	225.61
754.91	225.45
755.24	225.26
755.57	225.17
755.90	224.98
756.22	224.83
756.55	224.67
756.88	224.49
757.20	224.23
757.53	224.07
757.86	223.90
758.19	223.81
758.51	223.66
758.84	223.42
759.17	223.34
759.49	223.10
759.82	223.11
760.15	223.03
760.47	222.95
760.80	222.76
761.13	222.69
761.45	222.49
761.78	222.34
762.11	222.22
762.43	222.06
762.76	221.99
763.08	221.88
763.41	221.74
763.74	221.60
764.06	221.47
764.39	221.35
764.71	221.21
765.04	221.06
765.37	220.95
765.69	220.83
766.02	220.59
766.34	220.51
766.67	220.30
767.00	220.22
767.32	220.17
767.65	220.13
767.97	220.01
768.30	219.94
768.62	219.90
768.95	219.83
769.27	219.77
769.60	219.59
769.92	219.40
770.25	219.36
770.57	219.23
770.90	219.15
771.22	219.08
771.55	218.95
771.87	218.84
772.20	218.74
772.52	218.82
772.85	218.99
773.17	218.99
773.50	218.90
773.82	218.85
774.15	218.72
774.47	218.56
774.80	218.39
775.12	218.33
775.45	218.21
775.77	218.10
776.09	218.02
776.42	218.00
776.74	218.03
777.07	217.94
777.39	217.95
777.72	217.87
778.04	217.80
778.36	217.76
778.69	217.69
779.01	217.72
779.33	217.49
779.66	217.23
779.98	217.17
780.31	217.07
780.63	217.01
780.95	216.90
781.28	216.82
781.60	216.80
781.92	216.70
782.25	216.63
782.57	216.49
782.89	216.36
783.22	216.27
783.54	216.13
783.86	216.02
784.19	215.90
784.51	215.84
784.83	215.76
785.16	215.75
785.48	215.70
785.80	215.68
786.12	215.60
786.45	215.52
786.77	215.42
787.09	215.37
