SpectraSuite Data File
++++++++++++++++++++++++++++++++++++
Date: Mon Feb 25 17:36:11 EST 2013
User: group
Dark Spectrum Present: No
Reference Spectrum Present: No
Number of Sampled Component Spectra: 1
Spectrometers: USB2E7196
Integration Time (usec): 52000 (USB2E7196)
Spectra Averaged: 20 (USB2E7196)
Boxcar Smoothing: 10 (USB2E7196)
Correct for Electrical Dark: No (USB2E7196)
Strobe/Lamp Enabled: No (USB2E7196)
Correct for Detector Non-linearity: No (USB2E7196)
Correct for Stray Light: No (USB2E7196)
Number of Pixels in Processed Spectrum: 2048
>>>>>Begin Processed Spectral Data<<<<<
339.09	0.00
339.48	199.20
339.86	201.60
340.24	201.35
340.63	202.00
341.01	206.95
341.39	205.25
341.78	207.30
342.16	208.50
342.54	210.05
342.93	198.09
343.31	208.12
343.69	208.62
344.07	209.00
344.46	209.45
344.84	209.99
345.22	210.22
345.60	210.64
345.99	210.89
346.37	211.13
346.75	211.29
347.13	211.37
347.52	211.55
347.90	211.77
348.28	211.88
348.66	212.06
349.05	212.17
349.43	212.33
349.81	212.51
350.19	212.71
350.57	212.89
350.96	213.01
351.34	213.20
351.72	213.37
352.10	213.57
352.48	213.70
352.87	213.76
353.25	213.85
353.63	213.92
354.01	214.05
354.39	214.15
354.77	214.21
355.15	214.40
355.54	214.40
355.92	214.39
356.30	214.50
356.68	214.69
357.06	214.72
357.44	214.78
357.82	214.84
358.20	214.92
358.58	214.99
358.97	215.12
359.35	215.27
359.73	215.40
360.11	215.49
360.49	215.58
360.87	215.67
361.25	215.87
361.63	215.96
362.01	215.98
362.39	215.99
362.77	216.05
363.15	216.11
363.53	216.26
363.91	216.34
364.29	216.41
364.67	216.31
365.05	216.35
365.43	216.44
365.81	216.54
366.19	216.64
366.57	216.72
366.95	216.75
367.33	216.64
367.71	216.68
368.09	216.79
368.47	216.80
368.85	216.78
369.23	216.83
369.61	216.70
369.99	216.77
370.37	216.87
370.75	216.94
371.13	216.85
371.51	216.83
371.89	216.79
372.27	216.75
372.65	216.72
373.03	216.75
373.41	216.69
373.78	216.61
374.16	216.55
374.54	216.51
374.92	216.47
375.30	216.49
375.68	216.48
376.06	216.35
376.44	216.32
376.82	216.30
377.19	216.25
377.57	216.22
377.95	216.21
378.33	216.16
378.71	216.02
379.09	216.04
379.47	215.95
379.84	215.97
380.22	216.00
380.60	215.89
380.98	215.85
381.36	215.77
381.73	215.68
382.11	215.69
382.49	215.64
382.87	215.56
383.25	215.51
383.62	215.66
384.00	215.71
384.38	215.72
384.76	215.74
385.13	215.77
385.51	215.80
385.89	215.67
386.27	215.58
386.64	215.57
387.02	215.55
387.40	215.59
387.78	215.56
388.15	215.49
388.53	215.52
388.91	215.50
389.29	215.46
389.66	215.47
390.04	215.38
390.42	215.39
390.79	215.45
391.17	215.47
391.55	215.24
391.92	215.21
392.30	215.24
392.68	215.20
393.05	215.13
393.43	215.19
393.81	215.28
394.18	215.31
394.56	215.47
394.94	215.54
395.31	215.55
395.69	215.69
396.06	215.80
396.44	215.91
396.82	216.02
397.19	216.20
397.57	216.40
397.95	216.59
398.32	216.69
398.70	216.91
399.07	217.15
399.45	217.31
399.82	217.51
400.20	217.71
400.58	218.00
400.95	218.24
401.33	218.56
401.70	218.93
402.08	219.29
402.45	219.55
402.83	219.92
403.20	220.35
403.58	220.73
403.95	221.22
404.33	221.71
404.71	222.34
405.08	223.10
405.46	223.70
405.83	224.44
406.21	225.24
406.58	226.04
406.96	226.92
407.33	227.98
407.70	229.11
408.08	230.45
408.45	231.85
408.83	233.31
409.20	234.69
409.58	236.30
409.95	238.13
410.33	240.11
410.70	242.07
411.08	244.22
411.45	246.61
411.82	249.08
412.20	251.74
412.57	254.72
412.95	257.63
413.32	260.95
413.69	264.43
414.07	268.07
414.44	272.08
414.82	276.25
415.19	280.98
415.56	285.84
415.94	291.21
416.31	296.87
416.68	302.60
417.06	309.21
417.43	315.29
417.81	322.44
418.18	329.78
418.55	337.94
418.93	346.41
419.30	355.13
419.67	364.42
420.04	374.21
420.42	384.35
420.79	395.68
421.16	407.54
421.54	419.40
421.91	432.15
422.28	445.34
422.66	459.53
423.03	472.94
423.40	487.31
423.77	502.68
424.15	518.42
424.52	535.01
424.89	552.87
425.26	570.57
425.64	587.30
426.01	605.95
426.38	625.34
426.75	645.00
427.13	665.45
427.50	687.10
427.87	709.70
428.24	732.90
428.61	755.12
428.99	778.73
429.36	805.12
429.73	830.62
430.10	855.92
430.47	882.27
430.85	910.46
431.22	939.69
431.59	970.16
431.96	1000.06
432.33	1033.05
432.70	1065.08
433.08	1102.82
433.45	1138.24
433.82	1173.42
434.19	1212.37
434.56	1250.50
434.93	1287.89
435.30	1325.22
435.68	1366.52
436.05	1407.03
436.42	1448.09
436.79	1485.46
437.16	1526.16
437.53	1569.30
437.90	1612.60
438.27	1654.66
438.64	1698.60
439.01	1739.50
439.38	1777.20
439.75	1812.72
440.13	1853.12
440.50	1891.59
440.87	1923.53
441.24	1957.23
441.61	1994.24
441.98	2022.76
442.35	2055.73
442.72	2088.15
443.09	2119.16
443.46	2139.90
443.83	2155.10
444.20	2168.93
444.57	2187.68
444.94	2198.27
445.31	2209.06
445.68	2218.11
446.05	2224.73
446.42	2223.99
446.79	2222.38
447.16	2220.04
447.53	2219.39
447.90	2207.61
448.27	2195.53
448.64	2177.13
449.01	2164.35
449.37	2139.39
449.74	2115.22
450.11	2084.63
450.48	2053.22
450.85	2021.02
451.22	1993.08
451.59	1966.03
451.96	1940.35
452.33	1904.85
452.70	1873.09
453.07	1834.86
453.43	1796.44
453.80	1758.85
454.17	1722.87
454.54	1688.98
454.91	1651.97
455.28	1616.49
455.65	1583.21
456.02	1547.79
456.38	1518.81
456.75	1482.50
457.12	1452.42
457.49	1422.80
457.86	1395.40
458.23	1369.66
458.59	1341.96
458.96	1314.02
459.33	1289.63
459.70	1264.43
460.07	1244.81
460.43	1221.80
460.80	1199.94
461.17	1181.37
461.54	1161.36
461.91	1142.46
462.27	1123.26
462.64	1107.06
463.01	1088.70
463.38	1070.60
463.74	1055.03
464.11	1040.17
464.48	1027.07
464.85	1012.57
465.21	1001.00
465.58	988.65
465.95	974.58
466.32	962.68
466.68	950.82
467.05	938.94
467.42	927.22
467.78	915.23
468.15	903.74
468.52	894.91
468.88	883.87
469.25	874.17
469.62	866.00
469.98	857.38
470.35	849.42
470.72	841.81
471.08	833.85
471.45	826.60
471.82	819.08
472.18	811.09
472.55	805.58
472.92	799.02
473.28	793.26
473.65	787.78
474.02	782.21
474.38	777.37
474.75	773.41
475.11	769.06
475.48	765.48
475.85	762.73
476.21	760.16
476.58	757.80
476.94	755.86
477.31	753.79
477.67	751.90
478.04	750.12
478.41	749.20
478.77	748.54
479.14	747.64
479.50	747.62
479.87	748.25
480.23	748.82
480.60	749.16
480.96	749.65
481.33	751.02
481.69	752.65
482.06	754.04
482.42	754.96
482.79	756.70
483.15	759.41
483.52	762.78
483.88	765.80
484.25	768.89
484.61	772.18
484.98	775.49
485.34	779.80
485.71	784.75
486.07	789.76
486.44	794.85
486.80	800.58
487.17	806.53
487.53	813.36
487.90	820.15
488.26	827.47
488.62	835.21
488.99	843.09
489.35	851.39
489.72	860.84
490.08	870.88
490.44	880.78
490.81	891.16
491.17	901.01
491.54	911.93
491.90	922.60
492.26	934.57
492.63	946.91
492.99	959.48
493.36	972.35
493.72	986.12
494.08	1000.27
494.45	1014.87
494.81	1030.10
495.17	1045.64
495.54	1061.99
495.90	1079.29
496.26	1096.34
496.63	1114.27
496.99	1132.35
497.35	1150.45
497.72	1169.13
498.08	1188.16
498.44	1207.05
498.80	1227.56
499.17	1247.99
499.53	1269.06
499.89	1290.61
500.26	1312.10
500.62	1333.42
500.98	1356.17
501.34	1378.66
501.71	1401.40
502.07	1424.68
502.43	1448.43
502.79	1471.83
503.16	1495.37
503.52	1518.87
503.88	1542.50
504.24	1566.08
504.60	1590.29
504.97	1615.11
505.33	1639.60
505.69	1665.02
506.05	1690.72
506.41	1715.45
506.78	1740.35
507.14	1765.67
507.50	1790.66
507.86	1816.29
508.22	1842.19
508.59	1867.01
508.95	1892.22
509.31	1918.08
509.67	1943.52
510.03	1968.70
510.39	1994.68
510.75	2020.35
511.12	2045.17
511.48	2070.10
511.84	2095.11
512.20	2119.75
512.56	2144.08
512.92	2169.02
513.28	2193.68
513.64	2217.75
514.00	2241.13
514.37	2265.06
514.73	2288.89
515.09	2311.91
515.45	2335.01
515.81	2357.88
516.17	2380.89
516.53	2403.47
516.89	2425.17
517.25	2445.51
517.61	2465.53
517.97	2485.14
518.33	2503.86
518.69	2523.47
519.05	2543.70
519.41	2563.40
519.77	2582.83
520.13	2601.73
520.49	2619.66
520.85	2637.12
521.21	2654.35
521.57	2672.92
521.93	2689.43
522.29	2706.75
522.65	2723.66
523.01	2739.63
523.37	2755.17
523.73	2770.69
524.09	2785.46
524.45	2799.69
524.81	2814.84
525.17	2830.16
525.53	2845.08
525.89	2860.90
526.25	2875.71
526.61	2888.20
526.97	2901.00
527.33	2913.39
527.68	2926.88
528.04	2939.66
528.40	2951.62
528.76	2964.10
529.12	2975.35
529.48	2987.55
529.84	2996.98
530.20	3007.22
530.56	3018.13
530.91	3029.19
531.27	3039.87
531.63	3051.25
531.99	3061.65
532.35	3071.66
532.71	3080.99
533.07	3091.67
533.42	3100.90
533.78	3110.43
534.14	3120.45
534.50	3128.73
534.86	3138.27
535.21	3144.60
535.57	3152.85
535.93	3160.54
536.29	3167.34
536.65	3175.57
537.00	3181.76
537.36	3189.51
537.72	3196.65
538.08	3203.57
538.44	3209.71
538.79	3215.38
539.15	3220.86
539.51	3227.68
539.87	3234.99
540.22	3241.35
540.58	3246.61
540.94	3251.96
541.29	3256.35
541.65	3259.06
542.01	3263.53
542.37	3266.65
542.72	3272.07
543.08	3274.67
543.44	3278.95
543.79	3281.40
544.15	3282.93
544.51	3286.94
544.87	3290.09
545.22	3292.25
545.58	3293.02
545.94	3294.28
546.29	3295.27
546.65	3295.66
547.01	3295.17
547.36	3295.50
547.72	3296.34
548.07	3295.49
548.43	3294.85
548.79	3293.44
549.14	3294.42
549.50	3294.90
549.86	3295.61
550.21	3293.98
550.57	3294.44
550.92	3292.87
551.28	3292.15
551.64	3291.44
551.99	3290.34
552.35	3289.57
552.70	3289.10
553.06	3289.21
553.41	3288.41
553.77	3287.86
554.13	3287.19
554.48	3288.34
554.84	3287.30
555.19	3285.38
555.55	3285.08
555.90	3284.22
556.26	3283.90
556.61	3282.19
556.97	3278.98
557.32	3275.90
557.68	3273.62
558.03	3270.19
558.39	3267.67
558.74	3267.15
559.10	3265.87
559.45	3263.95
559.81	3262.01
560.16	3259.43
560.52	3257.22
560.87	3255.42
561.23	3252.15
561.58	3248.55
561.94	3243.07
562.29	3237.82
562.64	3234.08
563.00	3229.13
563.35	3224.02
563.71	3220.29
564.06	3217.70
564.42	3214.99
564.77	3211.50
565.12	3208.44
565.48	3205.20
565.83	3201.80
566.19	3198.60
566.54	3195.22
566.89	3190.90
567.25	3186.15
567.60	3182.31
567.96	3176.97
568.31	3171.75
568.66	3167.61
569.02	3164.24
569.37	3160.92
569.72	3158.06
570.08	3153.66
570.43	3148.49
570.78	3144.63
571.14	3139.86
571.49	3134.05
571.84	3129.47
572.20	3123.83
572.55	3119.16
572.90	3113.43
573.26	3107.43
573.61	3099.60
573.96	3092.04
574.31	3084.45
574.67	3077.51
575.02	3069.67
575.37	3062.50
575.72	3055.48
576.08	3048.09
576.43	3039.54
576.78	3031.32
577.13	3023.53
577.49	3016.24
577.84	3009.30
578.19	3001.42
578.54	2993.10
578.90	2985.18
579.25	2975.45
579.60	2966.56
579.95	2957.09
580.30	2948.90
580.66	2940.18
581.01	2931.08
581.36	2920.89
581.71	2912.38
582.06	2903.39
582.42	2895.55
582.77	2886.06
583.12	2876.53
583.47	2867.32
583.82	2858.24
584.17	2848.82
584.53	2839.54
584.88	2829.75
585.23	2819.87
585.58	2810.61
585.93	2800.84
586.28	2791.76
586.63	2783.25
586.98	2774.76
587.34	2765.70
587.69	2755.46
588.04	2746.06
588.39	2737.13
588.74	2727.84
589.09	2718.28
589.44	2707.50
589.79	2697.00
590.14	2687.67
590.49	2676.96
590.84	2667.22
591.19	2658.11
591.54	2647.62
591.89	2636.18
592.25	2626.15
592.60	2615.11
592.95	2603.62
593.30	2593.37
593.65	2582.96
594.00	2572.93
594.35	2563.39
594.70	2553.05
595.05	2543.75
595.40	2532.99
595.75	2521.68
596.10	2511.39
596.45	2500.89
596.80	2491.70
597.15	2481.40
597.50	2471.09
597.85	2461.90
598.19	2450.37
598.54	2438.74
598.89	2428.27
599.24	2418.46
599.59	2407.61
599.94	2398.14
600.29	2388.77
600.64	2378.05
600.99	2366.10
601.34	2355.45
601.69	2343.39
602.04	2332.10
602.39	2321.40
602.74	2312.71
603.08	2304.16
603.43	2295.97
603.78	2285.85
604.13	2275.33
604.48	2264.58
604.83	2255.16
605.18	2245.36
605.53	2236.38
605.87	2227.10
606.22	2218.05
606.57	2207.82
606.92	2196.79
607.27	2186.54
607.62	2175.93
607.96	2166.33
608.31	2157.68
608.66	2147.28
609.01	2137.83
609.36	2127.79
609.70	2116.95
610.05	2104.91
610.40	2093.33
610.75	2081.03
611.10	2070.45
611.44	2058.98
611.79	2048.77
612.14	2037.54
612.49	2025.20
612.83	2013.87
613.18	2001.77
613.53	1990.35
613.88	1978.20
614.22	1967.26
614.57	1955.43
614.92	1944.12
615.27	1933.02
615.61	1920.81
615.96	1909.31
616.31	1898.13
616.65	1888.05
617.00	1877.72
617.35	1867.40
617.70	1855.79
618.04	1844.65
618.39	1832.94
618.74	1822.14
619.08	1810.20
619.43	1799.00
619.78	1788.96
620.12	1778.75
620.47	1769.05
620.82	1758.40
621.16	1748.63
621.51	1738.46
621.85	1728.35
622.20	1717.80
622.55	1706.13
622.89	1696.08
623.24	1685.84
623.59	1675.22
623.93	1664.36
624.28	1653.92
624.62	1643.41
624.97	1633.74
625.32	1624.35
625.66	1615.20
626.01	1606.15
626.35	1598.04
626.70	1588.78
627.04	1579.12
627.39	1568.74
627.73	1559.14
628.08	1549.87
628.43	1540.50
628.77	1531.82
629.12	1522.73
629.46	1513.59
629.81	1504.50
630.15	1494.83
630.50	1485.26
630.84	1475.50
631.19	1465.38
631.53	1455.87
631.88	1446.30
632.22	1437.28
632.57	1428.30
632.91	1419.15
633.26	1409.82
633.60	1400.01
633.95	1391.01
634.29	1382.47
634.64	1374.39
634.98	1365.23
635.32	1356.46
635.67	1348.25
636.01	1339.31
636.36	1330.40
636.70	1321.78
637.05	1313.94
637.39	1306.08
637.73	1298.33
638.08	1291.17
638.42	1283.84
638.77	1276.07
639.11	1268.29
639.45	1260.35
639.80	1251.90
640.14	1243.94
640.49	1236.07
640.83	1227.75
641.17	1219.61
641.52	1211.60
641.86	1203.30
642.20	1195.81
642.55	1187.50
642.89	1179.02
643.23	1170.76
643.58	1163.01
643.92	1155.00
644.26	1146.88
644.61	1138.77
644.95	1130.63
645.29	1122.32
645.64	1114.19
645.98	1106.18
646.32	1098.58
646.66	1090.93
647.01	1083.39
647.35	1075.65
647.69	1067.79
648.04	1060.70
648.38	1053.11
648.72	1045.69
649.06	1038.16
649.41	1030.24
649.75	1022.34
650.09	1015.25
650.43	1008.54
650.78	1001.42
651.12	994.39
651.46	987.57
651.80	980.81
652.14	974.20
652.49	967.35
652.83	960.19
653.17	952.85
653.51	945.91
653.85	939.11
654.20	932.57
654.54	925.87
654.88	919.06
655.22	911.82
655.56	904.43
655.90	896.74
656.25	889.54
656.59	883.17
656.93	877.02
657.27	870.46
657.61	863.58
657.95	857.05
658.29	850.63
658.64	844.35
658.98	838.20
659.32	831.72
659.66	825.64
660.00	820.12
660.34	814.85
660.68	809.10
661.02	803.13
661.36	797.08
661.70	791.25
662.05	785.86
662.39	780.60
662.73	775.77
663.07	771.15
663.41	766.54
663.75	761.40
664.09	756.26
664.43	750.91
664.77	745.69
665.11	740.74
665.45	735.79
665.79	730.90
666.13	726.02
666.47	721.40
666.81	716.68
667.15	711.75
667.49	706.80
667.83	701.95
668.17	697.35
668.51	693.02
668.85	688.55
669.19	684.00
669.53	679.20
669.87	674.35
670.21	669.75
670.55	664.94
670.89	660.43
671.23	656.07
671.57	651.64
671.91	647.45
672.25	643.08
672.58	638.85
672.92	634.33
673.26	630.11
673.60	625.92
673.94	621.79
674.28	618.03
674.62	614.13
674.96	610.29
675.30	606.63
675.64	602.84
675.97	599.27
676.31	596.00
676.65	592.87
676.99	589.89
677.33	586.51
677.67	583.18
678.01	579.58
678.34	576.12
678.68	572.88
679.02	569.43
679.36	566.05
679.70	562.67
680.04	559.50
680.37	556.18
680.71	552.87
681.05	549.83
681.39	546.76
681.73	543.64
682.06	540.57
682.40	537.32
682.74	533.96
683.08	530.50
683.42	527.14
683.75	523.86
684.09	520.41
684.43	517.17
684.77	513.87
685.10	510.60
685.44	507.41
685.78	504.22
686.12	501.19
686.45	498.11
686.79	495.24
687.13	492.45
687.46	489.66
687.80	486.76
688.14	483.68
688.48	480.56
688.81	477.55
689.15	474.61
689.49	471.77
689.82	468.88
690.16	465.86
690.50	462.75
690.83	459.89
691.17	457.02
691.51	454.19
691.84	451.61
692.18	449.13
692.52	446.61
692.85	444.11
693.19	441.52
693.52	439.01
693.86	436.44
694.20	433.75
694.53	430.95
694.87	428.37
695.21	425.69
695.54	423.14
695.88	420.63
696.21	418.20
696.55	415.75
696.88	413.71
697.22	411.53
697.56	409.60
697.89	407.46
698.23	405.52
698.56	403.48
698.90	401.46
699.23	399.38
699.57	397.32
699.90	395.17
700.24	393.07
700.58	391.12
700.91	389.01
701.25	387.11
701.58	385.32
701.92	383.54
702.25	381.88
702.59	380.19
702.92	378.45
703.26	376.70
703.59	375.08
703.93	373.34
704.26	371.84
704.60	369.94
704.93	368.19
705.26	366.23
705.60	364.51
705.93	362.76
706.27	361.23
706.60	359.66
706.94	358.18
707.27	356.54
707.61	354.95
707.94	353.46
708.27	351.87
708.61	350.32
708.94	348.76
709.28	347.20
709.61	345.51
709.94	343.92
710.28	342.36
710.61	340.81
710.95	339.08
711.28	337.57
711.61	336.07
711.95	334.69
712.28	333.40
712.61	332.10
712.95	330.88
713.28	329.48
713.61	328.01
713.95	326.61
714.28	325.53
714.61	324.28
714.95	323.02
715.28	321.68
715.61	320.34
715.95	319.05
716.28	317.64
716.61	316.34
716.95	315.07
717.28	313.86
717.61	312.69
717.94	311.52
718.28	310.21
718.61	309.05
718.94	307.94
719.27	306.72
719.61	305.57
719.94	304.44
720.27	303.25
720.60	302.23
720.94	301.33
721.27	300.31
721.60	299.47
721.93	298.54
722.27	297.70
722.60	296.84
722.93	295.99
723.26	295.36
723.59	294.60
723.93	293.79
724.26	292.91
724.59	291.95
724.92	291.15
725.25	290.37
725.59	289.58
725.92	288.79
726.25	288.09
726.58	287.36
726.91	286.46
727.24	285.73
727.57	284.94
727.91	284.05
728.24	283.31
728.57	282.35
728.90	281.55
729.23	280.70
729.56	280.05
729.89	279.23
730.22	278.39
730.55	277.60
730.89	276.83
731.22	276.13
731.55	275.49
731.88	274.76
732.21	274.16
732.54	273.55
732.87	272.90
733.20	272.21
733.53	271.53
733.86	270.96
734.19	270.23
734.52	269.75
734.85	269.38
735.18	268.74
735.51	268.26
735.84	267.65
736.17	267.12
736.50	266.47
736.83	266.19
737.16	265.60
737.49	265.08
737.82	264.58
738.15	264.06
738.48	263.57
738.81	263.00
739.14	262.32
739.47	261.74
739.80	261.19
740.13	260.68
740.46	260.16
740.79	259.72
741.12	259.37
741.45	258.77
741.78	258.04
742.11	257.49
742.44	256.86
742.77	256.45
743.10	255.97
743.43	255.40
743.75	254.60
744.08	254.30
744.41	253.75
744.74	253.25
745.07	252.68
745.40	252.18
745.73	251.79
746.06	251.36
746.39	250.90
746.71	250.38
747.04	249.97
747.37	249.50
747.70	249.03
748.03	248.54
748.36	248.10
748.68	247.66
749.01	247.23
749.34	246.79
749.67	246.35
750.00	245.86
750.33	245.59
750.65	245.18
750.98	244.58
751.31	244.26
751.64	243.95
751.97	243.70
752.29	243.42
752.62	243.09
752.95	242.81
753.28	242.55
753.60	242.23
753.93	241.92
754.26	241.56
754.59	241.06
754.91	240.70
755.24	240.46
755.57	240.17
755.90	239.79
756.22	239.50
756.55	239.11
756.88	238.72
757.20	238.33
757.53	238.02
757.86	237.79
758.19	237.51
758.51	237.19
758.84	236.84
759.17	236.47
759.49	236.15
759.82	235.83
760.15	235.47
760.47	235.18
760.80	234.72
761.13	234.52
761.45	234.28
761.78	233.98
762.11	233.64
762.43	233.34
762.76	233.11
763.08	232.93
763.41	232.62
763.74	232.55
764.06	232.24
764.39	232.01
764.71	231.75
765.04	231.49
765.37	231.20
765.69	230.95
766.02	230.66
766.34	230.41
766.67	230.16
767.00	229.95
767.32	229.85
767.65	229.82
767.97	229.54
768.30	229.41
768.62	229.22
768.95	229.08
769.27	228.89
769.60	228.78
769.92	228.51
770.25	228.44
770.57	228.13
770.90	227.98
771.22	227.79
771.55	227.62
771.87	227.45
772.20	227.36
772.52	227.34
772.85	227.39
773.17	227.23
773.50	227.04
773.82	226.91
774.15	226.61
774.47	226.39
774.80	226.25
775.12	226.03
775.45	225.82
775.77	225.61
776.09	225.45
776.42	225.23
776.74	225.17
777.07	225.00
777.39	224.89
777.72	224.72
778.04	224.64
778.36	224.50
778.69	224.28
779.01	224.02
779.33	223.72
779.66	223.44
779.98	223.30
780.31	223.25
780.63	223.18
780.95	223.14
781.28	222.94
781.60	222.77
781.92	222.68
782.25	222.58
782.57	222.39
782.89	222.28
