SpectraSuite Data File
++++++++++++++++++++++++++++++++++++
Date: Mon Feb 25 17:30:31 EST 2013
User: group
Dark Spectrum Present: No
Reference Spectrum Present: No
Number of Sampled Component Spectra: 1
Spectrometers: USB2E7196
Integration Time (usec): 52000 (USB2E7196)
Spectra Averaged: 20 (USB2E7196)
Boxcar Smoothing: 10 (USB2E7196)
Correct for Electrical Dark: No (USB2E7196)
Strobe/Lamp Enabled: No (USB2E7196)
Correct for Detector Non-linearity: No (USB2E7196)
Correct for Stray Light: No (USB2E7196)
Number of Pixels in Processed Spectrum: 2048
>>>>>Begin Processed Spectral Data<<<<<
339.09	0.00
339.48	198.65
339.86	199.45
340.24	201.85
340.63	202.30
341.01	206.30
341.39	206.65
341.78	208.75
342.16	207.20
342.54	208.75
342.93	198.10
343.31	208.10
343.69	208.70
344.07	209.18
344.46	209.58
344.84	209.97
345.22	210.23
345.60	210.48
345.99	210.60
346.37	210.81
346.75	210.88
347.13	210.94
347.52	210.94
347.90	210.97
348.28	210.99
348.66	211.09
349.05	211.09
349.43	211.20
349.81	211.22
350.19	211.23
350.57	211.33
350.96	211.44
351.34	211.51
351.72	211.61
352.10	211.75
352.48	211.90
352.87	212.00
353.25	211.99
353.63	212.01
354.01	212.15
354.39	212.24
354.77	212.38
355.15	212.60
355.54	212.72
355.92	212.75
356.30	212.84
356.68	212.95
357.06	213.01
357.44	213.10
357.82	213.17
358.20	213.27
358.58	213.28
358.97	213.39
359.35	213.50
359.73	213.57
360.11	213.65
360.49	213.68
360.87	213.71
361.25	213.81
361.63	213.93
362.01	213.94
362.39	213.91
362.77	213.94
363.15	213.97
363.53	213.98
363.91	214.09
364.29	214.14
364.67	214.01
365.05	214.05
365.43	214.01
365.81	214.09
366.19	214.18
366.57	214.19
366.95	214.18
367.33	214.17
367.71	214.19
368.09	214.17
368.47	214.15
368.85	214.13
369.23	214.24
369.61	214.16
369.99	214.16
370.37	214.16
370.75	214.24
371.13	214.13
371.51	214.07
371.89	214.02
372.27	213.96
372.65	213.96
373.03	213.96
373.41	213.93
373.78	213.79
374.16	213.64
374.54	213.60
374.92	213.51
375.30	213.44
375.68	213.28
376.06	213.26
376.44	213.11
376.82	213.11
377.19	213.00
377.57	212.98
377.95	212.91
378.33	212.81
378.71	212.64
379.09	212.55
379.47	212.54
379.84	212.48
380.22	212.48
380.60	212.36
380.98	212.29
381.36	212.20
381.73	212.16
382.11	212.15
382.49	212.09
382.87	212.01
383.25	212.06
383.62	212.21
384.00	212.10
384.38	212.19
384.76	212.17
385.13	212.22
385.51	212.14
385.89	212.08
386.27	212.13
386.64	212.10
387.02	212.10
387.40	212.04
387.78	212.02
388.15	212.03
388.53	212.04
388.91	212.00
389.29	212.04
389.66	212.08
390.04	212.04
390.42	212.12
390.79	212.17
391.17	212.14
391.55	211.97
391.92	211.99
392.30	211.97
392.68	211.94
393.05	211.87
393.43	211.86
393.81	211.85
394.18	211.83
394.56	211.85
394.94	211.93
395.31	211.95
395.69	211.95
396.06	211.95
396.44	211.92
396.82	211.92
397.19	211.96
397.57	211.91
397.95	211.95
398.32	211.91
398.70	211.95
399.07	211.94
399.45	211.98
399.82	212.05
400.20	212.05
400.58	212.11
400.95	212.12
401.33	212.24
401.70	212.46
402.08	212.54
402.45	212.56
402.83	212.68
403.20	212.71
403.58	212.79
403.95	212.86
404.33	213.00
404.71	213.05
405.08	213.27
405.46	213.43
405.83	213.61
406.21	213.80
406.58	213.93
406.96	214.12
407.33	214.25
407.70	214.39
408.08	214.75
408.45	214.96
408.83	215.24
409.20	215.41
409.58	215.55
409.95	215.81
410.33	216.17
410.70	216.37
411.08	216.77
411.45	217.10
411.82	217.45
412.20	217.93
412.57	218.55
412.95	218.87
413.32	219.39
413.69	219.87
414.07	220.36
414.44	221.00
414.82	221.66
415.19	222.40
415.56	223.19
415.94	223.89
416.31	224.77
416.68	225.54
417.06	226.53
417.43	227.45
417.81	228.45
418.18	229.47
418.55	230.60
418.93	231.85
419.30	233.12
419.67	234.48
420.04	235.80
420.42	237.21
420.79	238.96
421.16	240.64
421.54	242.34
421.91	244.16
422.28	246.06
422.66	247.94
423.03	249.91
423.40	251.86
423.77	254.04
424.15	256.19
424.52	258.42
424.89	260.92
425.26	263.31
425.64	265.65
426.01	268.19
426.38	270.83
426.75	273.49
427.13	276.20
427.50	279.06
427.87	282.03
428.24	284.98
428.61	287.83
428.99	290.92
429.36	294.32
429.73	297.73
430.10	300.96
430.47	304.50
430.85	308.11
431.22	311.93
431.59	315.95
431.96	319.84
432.33	324.23
432.70	328.27
433.08	333.04
433.45	337.55
433.82	342.07
434.19	347.05
434.56	351.87
434.93	356.60
435.30	361.25
435.68	366.29
436.05	371.27
436.42	376.16
436.79	380.83
437.16	385.72
437.53	390.85
437.90	396.09
438.27	401.15
438.64	406.38
439.01	411.14
439.38	415.40
439.75	419.44
440.13	424.09
440.50	428.65
440.87	432.22
441.24	435.96
441.61	440.15
441.98	443.20
442.35	446.66
442.72	450.26
443.09	453.75
443.46	455.85
443.83	457.32
444.20	458.47
444.57	460.14
444.94	461.04
445.31	461.75
445.68	462.44
446.05	462.57
446.42	461.85
446.79	461.20
447.16	460.30
447.53	459.72
447.90	457.56
448.27	455.51
448.64	452.72
449.01	450.62
449.37	447.07
449.74	443.61
450.11	439.66
450.48	435.08
450.85	430.57
451.22	426.84
451.59	423.12
451.96	419.74
452.33	415.17
452.70	410.85
453.07	405.79
453.43	400.69
453.80	395.85
454.17	391.25
454.54	386.70
454.91	381.94
455.28	377.33
455.65	373.12
456.02	368.74
456.38	365.17
456.75	360.68
457.12	356.86
457.49	353.20
457.86	349.61
458.23	346.63
458.59	343.24
458.96	339.75
459.33	336.73
459.70	333.70
460.07	331.18
460.43	328.35
460.80	325.84
461.17	323.56
461.54	321.17
461.91	318.86
462.27	316.72
462.64	314.90
463.01	312.70
463.38	310.56
463.74	308.45
464.11	306.52
464.48	304.95
464.85	303.17
465.21	301.82
465.58	300.31
465.95	298.64
466.32	297.25
466.68	295.90
467.05	294.56
467.42	293.16
467.78	291.79
468.15	290.55
468.52	289.55
468.88	288.31
469.25	287.12
469.62	286.31
469.98	285.28
470.35	284.36
470.72	283.55
471.08	282.71
471.45	281.92
471.82	281.27
472.18	280.41
472.55	279.90
472.92	279.24
473.28	278.67
473.65	277.99
474.02	277.39
474.38	277.00
474.75	276.66
475.11	276.25
475.48	276.01
475.85	275.85
476.21	275.65
476.58	275.48
476.94	275.44
477.31	275.29
477.67	275.27
478.04	275.32
478.41	275.53
478.77	275.78
479.14	276.01
479.50	276.29
479.87	276.67
480.23	277.04
480.60	277.26
480.96	277.70
481.33	278.49
481.69	279.14
482.06	279.71
482.42	280.26
482.79	281.07
483.15	281.87
483.52	282.78
483.88	283.72
484.25	284.75
484.61	285.84
484.98	286.93
485.34	288.21
485.71	289.44
486.07	290.81
486.44	292.21
486.80	293.71
487.17	295.38
487.53	297.11
487.90	298.95
488.26	300.96
488.62	303.09
488.99	304.97
489.35	307.06
489.72	309.30
490.08	311.71
490.44	314.10
490.81	316.68
491.17	319.39
491.54	322.31
491.90	325.32
492.26	328.47
492.63	331.82
492.99	335.24
493.36	338.90
493.72	342.70
494.08	346.73
494.45	350.98
494.81	355.37
495.17	359.99
495.54	364.93
495.90	370.03
496.26	375.27
496.63	380.89
496.99	386.62
497.35	392.67
497.72	398.96
498.08	405.47
498.44	412.27
498.80	419.27
499.17	426.60
499.53	434.20
499.89	442.04
500.26	450.15
500.62	458.35
500.98	467.01
501.34	475.95
501.71	485.32
502.07	494.87
502.43	504.70
502.79	514.82
503.16	525.35
503.52	536.16
503.88	547.07
504.24	558.51
504.60	570.31
504.97	582.48
505.33	594.76
505.69	607.89
506.05	621.14
506.41	634.53
506.78	648.11
507.14	662.11
507.50	676.79
507.86	691.62
508.22	706.89
508.59	722.28
508.95	738.29
509.31	754.36
509.67	771.07
510.03	787.91
510.39	805.08
510.75	822.55
511.12	840.38
511.48	858.69
511.84	877.22
512.20	895.78
512.56	914.74
512.92	934.20
513.28	953.49
513.64	973.06
514.00	992.96
514.37	1013.40
514.73	1033.89
515.09	1054.19
515.45	1074.72
515.81	1095.66
516.17	1116.73
516.53	1137.59
516.89	1158.80
517.25	1179.80
517.61	1200.91
517.97	1222.22
518.33	1243.33
518.69	1264.46
519.05	1286.18
519.41	1307.61
519.77	1329.74
520.13	1351.31
520.49	1372.81
520.85	1394.87
521.21	1416.94
521.57	1439.22
521.93	1460.45
522.29	1482.56
522.65	1504.43
523.01	1526.30
523.37	1547.84
523.73	1569.59
524.09	1591.32
524.45	1613.02
524.81	1634.93
525.17	1656.95
525.53	1678.73
525.89	1700.49
526.25	1722.16
526.61	1742.75
526.97	1764.05
527.33	1784.68
527.68	1805.61
528.04	1826.36
528.40	1846.28
528.76	1866.43
529.12	1886.47
529.48	1907.48
529.84	1927.54
530.20	1947.47
530.56	1967.73
530.91	1987.94
531.27	2007.99
531.63	2027.33
531.99	2046.50
532.35	2065.12
532.71	2083.08
533.07	2102.00
533.42	2119.95
533.78	2138.23
534.14	2156.18
534.50	2173.20
534.86	2190.47
535.21	2206.86
535.57	2224.07
535.93	2240.84
536.29	2256.90
536.65	2273.04
537.00	2288.02
537.36	2302.71
537.72	2317.16
538.08	2331.39
538.44	2346.04
538.79	2360.85
539.15	2375.13
539.51	2389.27
539.87	2404.21
540.22	2418.33
540.58	2432.67
540.94	2446.84
541.29	2459.08
541.65	2470.85
542.01	2483.27
542.37	2495.03
542.72	2506.68
543.08	2517.12
543.44	2528.21
543.79	2538.11
544.15	2547.90
544.51	2558.30
544.87	2568.63
545.22	2577.60
545.58	2585.88
545.94	2592.63
546.29	2598.33
546.65	2604.08
547.01	2609.59
547.36	2614.59
547.72	2619.94
548.07	2623.64
548.43	2626.76
548.79	2630.23
549.14	2634.50
549.50	2638.35
549.86	2641.76
550.21	2645.26
550.57	2648.92
550.92	2651.34
551.28	2653.51
551.64	2655.47
551.99	2657.36
552.35	2658.57
552.70	2660.82
553.06	2663.13
553.41	2665.79
553.77	2668.14
554.13	2670.35
554.48	2672.14
554.84	2673.25
555.19	2673.31
555.55	2673.45
555.90	2673.83
556.26	2674.18
556.61	2673.99
556.97	2672.37
557.32	2671.46
557.68	2669.54
558.03	2667.62
558.39	2665.84
558.74	2665.23
559.10	2664.21
559.45	2662.39
559.81	2661.02
560.16	2657.98
560.52	2655.29
560.87	2652.19
561.23	2648.72
561.58	2646.19
561.94	2642.82
562.29	2638.97
562.64	2636.56
563.00	2633.83
563.35	2631.30
563.71	2629.35
564.06	2626.79
564.42	2624.98
564.77	2622.37
565.12	2620.41
565.48	2617.13
565.83	2614.20
566.19	2610.86
566.54	2606.17
566.89	2602.23
567.25	2598.30
567.60	2595.40
567.96	2591.70
568.31	2587.89
568.66	2583.81
569.02	2578.99
569.37	2573.90
569.72	2570.11
570.08	2564.95
570.43	2559.10
570.78	2553.46
571.14	2547.06
571.49	2540.41
571.84	2534.49
572.20	2527.76
572.55	2521.33
572.90	2514.82
573.26	2507.62
573.61	2500.44
573.96	2494.05
574.31	2486.16
574.67	2478.19
575.02	2469.79
575.37	2461.47
575.72	2452.79
576.08	2445.57
576.43	2437.18
576.78	2429.54
577.13	2421.50
577.49	2413.78
577.84	2406.26
578.19	2398.93
578.54	2391.92
578.90	2385.21
579.25	2376.67
579.60	2367.98
579.95	2358.96
580.30	2351.00
580.66	2343.36
581.01	2334.68
581.36	2325.44
581.71	2317.47
582.06	2309.50
582.42	2301.62
582.77	2292.51
583.12	2284.08
583.47	2275.54
583.82	2267.56
584.17	2258.76
584.53	2249.93
584.88	2241.10
585.23	2232.53
585.58	2223.13
585.93	2213.60
586.28	2204.45
586.63	2195.71
586.98	2187.89
587.34	2179.86
587.69	2171.18
588.04	2161.98
588.39	2154.30
588.74	2146.13
589.09	2137.74
589.44	2128.43
589.79	2120.27
590.14	2112.75
590.49	2104.63
590.84	2095.60
591.19	2087.73
591.54	2079.06
591.89	2069.40
592.25	2060.46
592.60	2051.30
592.95	2042.10
593.30	2033.17
593.65	2024.06
594.00	2014.76
594.35	2006.44
594.70	1997.47
595.05	1988.85
595.40	1980.47
595.75	1970.88
596.10	1962.72
596.45	1954.44
596.80	1946.91
597.15	1938.47
597.50	1929.79
597.85	1921.45
598.19	1913.39
598.54	1905.03
598.89	1897.62
599.24	1891.11
599.59	1883.97
599.94	1877.05
600.29	1869.67
600.64	1861.96
600.99	1853.95
601.34	1847.26
601.69	1839.00
602.04	1831.43
602.39	1823.68
602.74	1816.30
603.08	1810.06
603.43	1803.04
603.78	1795.45
604.13	1787.54
604.48	1780.00
604.83	1773.20
605.18	1766.55
605.53	1759.15
605.87	1751.90
606.22	1745.20
606.57	1737.27
606.92	1729.53
607.27	1721.74
607.62	1714.84
607.96	1708.08
608.31	1702.03
608.66	1694.36
609.01	1686.92
609.36	1679.31
609.70	1671.67
610.05	1664.12
610.40	1655.94
610.75	1647.76
611.10	1640.17
611.44	1631.41
611.79	1622.78
612.14	1613.63
612.49	1604.29
612.83	1595.83
613.18	1586.11
613.53	1576.75
613.88	1567.60
614.22	1559.11
614.57	1550.21
614.92	1541.31
615.27	1532.18
615.61	1522.66
615.96	1514.02
616.31	1505.82
616.65	1498.26
617.00	1490.31
617.35	1482.14
617.70	1473.75
618.04	1465.09
618.39	1456.21
618.74	1448.10
619.08	1439.60
619.43	1431.71
619.78	1424.28
620.12	1416.52
620.47	1409.23
620.82	1401.03
621.16	1392.99
621.51	1384.83
621.85	1376.57
622.20	1368.20
622.55	1360.06
622.89	1352.03
623.24	1344.25
623.59	1335.93
623.93	1327.39
624.28	1319.34
624.62	1311.10
624.97	1302.97
625.32	1295.25
625.66	1287.84
626.01	1280.78
626.35	1273.72
626.70	1266.52
627.04	1259.33
627.39	1252.09
627.73	1244.77
628.08	1238.12
628.43	1230.85
628.77	1223.60
629.12	1216.40
629.46	1209.98
629.81	1203.20
630.15	1196.05
630.50	1188.90
630.84	1181.87
631.19	1174.85
631.53	1168.13
631.88	1160.91
632.22	1153.55
632.57	1146.94
632.91	1139.76
633.26	1132.60
633.60	1125.62
633.95	1118.93
634.29	1111.69
634.64	1104.90
634.98	1098.05
635.32	1091.20
635.67	1085.13
636.01	1078.71
636.36	1072.54
636.70	1065.94
637.05	1059.49
637.39	1053.49
637.73	1047.20
638.08	1041.52
638.42	1035.70
638.77	1029.22
639.11	1023.07
639.45	1017.41
639.80	1011.21
640.14	1004.97
640.49	998.75
640.83	992.77
641.17	986.48
641.52	980.58
641.86	974.14
642.20	968.07
642.55	961.44
642.89	954.90
643.23	948.68
643.58	942.77
643.92	936.42
644.26	930.24
644.61	924.21
644.95	918.30
645.29	912.00
645.64	905.74
645.98	899.74
646.32	894.05
646.66	887.95
647.01	882.01
647.35	876.46
647.69	870.46
648.04	864.71
648.38	858.86
648.72	853.03
649.06	847.14
649.41	841.31
649.75	835.80
650.09	830.30
650.43	824.60
650.78	818.24
651.12	812.35
651.46	806.75
651.80	800.85
652.14	795.05
652.49	789.35
652.83	783.82
653.17	777.95
653.51	772.28
653.85	766.77
654.20	761.03
654.54	755.01
654.88	749.64
655.22	743.89
655.56	738.27
655.90	732.51
656.25	727.07
656.59	721.68
656.93	716.46
657.27	711.37
657.61	705.96
657.95	701.28
658.29	696.37
658.64	691.38
658.98	686.44
659.32	681.04
659.66	676.08
660.00	670.83
660.34	665.82
660.68	660.70
661.02	655.66
661.36	651.05
661.70	646.57
662.05	641.96
662.39	637.78
662.73	633.42
663.07	629.15
663.41	624.91
663.75	620.53
664.09	616.12
664.43	611.58
664.77	607.47
665.11	603.12
665.45	598.79
665.79	594.51
666.13	590.25
666.47	586.29
666.81	582.13
667.15	578.22
667.49	574.54
667.83	570.69
668.17	567.05
668.51	563.30
668.85	559.68
669.19	556.10
669.53	552.10
669.87	548.20
670.21	544.50
670.55	540.66
670.89	537.41
671.23	534.02
671.57	530.58
671.91	526.91
672.25	523.48
672.58	520.13
672.92	516.69
673.26	513.72
673.60	510.58
673.94	507.37
674.28	504.17
674.62	501.06
674.96	498.06
675.30	495.08
675.64	491.94
675.97	488.94
676.31	485.98
676.65	483.24
676.99	480.66
677.33	477.84
677.67	475.20
678.01	472.11
678.34	469.22
678.68	466.36
679.02	463.62
679.36	460.95
679.70	458.25
680.04	455.58
680.37	452.56
680.71	450.00
681.05	447.34
681.39	444.70
681.73	442.04
682.06	439.60
682.40	436.98
682.74	434.48
683.08	431.93
683.42	429.41
683.75	426.96
684.09	424.39
684.43	422.00
684.77	419.52
685.10	417.02
685.44	414.62
685.78	412.32
686.12	410.09
686.45	407.69
686.79	405.45
687.13	403.37
687.46	401.33
687.80	399.08
688.14	396.88
688.48	394.75
688.81	392.45
689.15	390.15
689.49	388.05
689.82	385.91
690.16	383.61
690.50	381.38
690.83	379.07
691.17	376.82
691.51	374.58
691.84	372.45
692.18	370.48
692.52	368.48
692.85	366.59
693.19	364.74
693.52	362.92
693.86	360.99
694.20	359.08
694.53	357.18
694.87	355.23
695.21	353.39
695.54	351.49
695.88	349.78
696.21	348.09
696.55	346.37
696.88	344.64
697.22	342.94
697.56	341.42
697.89	339.85
698.23	338.30
698.56	336.78
698.90	335.34
699.23	333.82
699.57	332.31
699.90	330.75
700.24	328.98
700.58	327.39
700.91	325.94
701.25	324.51
701.58	323.11
701.92	321.73
702.25	320.43
702.59	319.14
702.92	317.91
703.26	316.54
703.59	315.29
703.93	314.25
704.26	313.10
704.60	311.83
704.93	310.60
705.26	309.40
705.60	308.20
705.93	306.88
706.27	305.73
706.60	304.57
706.94	303.45
707.27	302.40
707.61	301.37
707.94	300.27
708.27	299.10
708.61	297.95
708.94	296.85
709.28	295.72
709.61	294.71
709.94	293.50
710.28	292.46
710.61	291.41
710.95	290.14
711.28	289.26
711.61	288.20
711.95	287.33
712.28	286.38
712.61	285.41
712.95	284.57
713.28	283.73
713.61	282.80
713.95	281.81
714.28	280.97
714.61	279.98
714.95	279.05
715.28	278.14
715.61	277.21
715.95	276.32
716.28	275.41
716.61	274.49
716.95	273.82
717.28	272.97
717.61	272.20
717.94	271.51
718.28	270.77
718.61	270.04
718.94	269.28
719.27	268.51
719.61	267.78
719.94	267.03
720.27	266.15
720.60	265.53
720.94	264.89
721.27	264.18
721.60	263.59
721.93	262.96
722.27	262.47
722.60	261.94
722.93	261.50
723.26	261.04
723.59	260.50
723.93	259.86
724.26	259.36
724.59	258.75
724.92	258.19
725.25	257.59
725.59	257.03
725.92	256.59
726.25	256.06
726.58	255.55
726.91	255.01
727.24	254.58
727.57	254.01
727.91	253.47
728.24	253.03
728.57	252.56
728.90	252.10
729.23	251.50
729.56	251.11
729.89	250.55
730.22	250.01
730.55	249.51
730.89	249.02
731.22	248.58
731.55	248.17
731.88	247.68
732.21	247.17
732.54	246.77
732.87	246.23
733.20	245.83
733.53	245.43
733.86	245.04
734.19	244.59
734.52	244.29
734.85	244.10
735.18	243.69
735.51	243.42
735.84	243.03
736.17	242.66
736.50	242.23
736.83	242.08
737.16	241.72
737.49	241.41
737.82	241.10
738.15	240.73
738.48	240.35
738.81	240.06
739.14	239.76
739.47	239.43
739.80	239.12
740.13	238.87
740.46	238.53
740.79	238.13
741.12	237.88
741.45	237.46
741.78	237.03
742.11	236.85
742.44	236.39
742.77	236.10
743.10	235.90
743.43	235.60
743.75	235.03
744.08	235.00
744.41	234.73
744.74	234.39
745.07	234.16
745.40	233.90
745.73	233.74
746.06	233.41
746.39	233.19
746.71	232.89
747.04	232.47
747.37	232.16
747.70	232.05
748.03	231.73
748.36	231.58
748.68	231.30
749.01	230.91
749.34	230.68
749.67	230.44
750.00	230.18
750.33	230.10
750.65	229.97
750.98	229.49
751.31	229.22
751.64	229.04
751.97	228.87
752.29	228.70
752.62	228.23
752.95	228.07
753.28	227.85
753.60	227.70
753.93	227.56
754.26	227.40
754.59	227.10
754.91	226.93
755.24	226.73
755.57	226.47
755.90	226.34
756.22	226.12
756.55	225.96
756.88	225.68
757.20	225.29
757.53	224.98
757.86	224.81
758.19	224.61
758.51	224.43
758.84	224.13
759.17	223.91
759.49	223.82
759.82	223.75
760.15	223.61
760.47	223.36
760.80	223.15
761.13	223.02
761.45	222.78
761.78	222.65
762.11	222.48
762.43	222.40
762.76	222.21
763.08	222.14
763.41	221.98
763.74	221.88
764.06	221.76
764.39	221.69
764.71	221.52
765.04	221.44
765.37	221.33
765.69	221.17
766.02	221.08
766.34	220.98
766.67	220.75
767.00	220.63
767.32	220.64
767.65	220.70
767.97	220.60
768.30	220.59
768.62	220.51
768.95	220.34
769.27	220.20
769.60	220.22
769.92	220.12
770.25	220.03
770.57	219.97
770.90	219.95
771.22	219.90
771.55	219.79
771.87	219.73
772.20	219.64
772.52	219.79
772.85	219.88
773.17	219.78
773.50	219.77
773.82	219.61
774.15	219.41
774.47	219.21
774.80	219.14
775.12	219.00
775.45	218.86
775.77	218.82
776.09	218.85
776.42	218.74
776.74	218.61
777.07	218.54
777.39	218.41
777.72	218.29
778.04	218.22
778.36	218.20
778.69	218.16
779.01	218.09
779.33	217.81
779.66	217.56
779.98	217.53
780.31	217.40
780.63	217.43
780.95	217.47
781.28	217.38
781.60	217.22
781.92	217.17
782.25	217.11
782.57	217.09
782.89	216.99
783.22	216.82
783.54	216.80
783.86	216.76
784.19	216.67
784.51	216.61
784.83	216.52
785.16	216.39
785.48	216.29
785.80	216.29
786.12	216.26
786.45	216.17
