SpectraSuite Data File
++++++++++++++++++++++++++++++++++++
Date: Mon Feb 25 17:33:54 EST 2013
User: group
Dark Spectrum Present: No
Reference Spectrum Present: No
Number of Sampled Component Spectra: 1
Spectrometers: USB2E7196
Integration Time (usec): 52000 (USB2E7196)
Spectra Averaged: 20 (USB2E7196)
Boxcar Smoothing: 10 (USB2E7196)
Correct for Electrical Dark: No (USB2E7196)
Strobe/Lamp Enabled: No (USB2E7196)
Correct for Detector Non-linearity: No (USB2E7196)
Correct for Stray Light: No (USB2E7196)
Number of Pixels in Processed Spectrum: 2048
>>>>>Begin Processed Spectral Data<<<<<
339.09	0.00
339.48	199.85
339.86	199.35
340.24	201.30
340.63	204.30
341.01	208.55
341.39	206.00
341.78	207.45
342.16	209.15
342.54	209.20
342.93	198.60
343.31	208.67
343.69	209.21
344.07	209.79
344.46	210.35
344.84	210.77
345.22	210.92
345.60	211.21
345.99	211.45
346.37	211.58
346.75	211.76
347.13	211.82
347.52	211.88
347.90	211.93
348.28	212.00
348.66	212.10
349.05	212.03
349.43	212.01
349.81	212.14
350.19	212.20
350.57	212.23
350.96	212.37
351.34	212.49
351.72	212.54
352.10	212.59
352.48	212.53
352.87	212.57
353.25	212.61
353.63	212.59
354.01	212.67
354.39	212.70
354.77	212.72
355.15	212.89
355.54	213.00
355.92	213.10
356.30	213.16
356.68	213.27
357.06	213.35
357.44	213.31
357.82	213.30
358.20	213.40
358.58	213.40
358.97	213.45
359.35	213.45
359.73	213.51
360.11	213.60
360.49	213.72
360.87	213.62
361.25	213.69
361.63	213.87
362.01	213.84
362.39	213.85
362.77	213.86
363.15	213.79
363.53	213.80
363.91	213.83
364.29	213.82
364.67	213.64
365.05	213.66
365.43	213.71
365.81	213.72
366.19	213.70
366.57	213.79
366.95	213.69
367.33	213.64
367.71	213.62
368.09	213.60
368.47	213.56
368.85	213.60
369.23	213.60
369.61	213.48
369.99	213.54
370.37	213.57
370.75	213.64
371.13	213.63
371.51	213.50
371.89	213.42
372.27	213.40
372.65	213.40
373.03	213.36
373.41	213.32
373.78	213.27
374.16	213.15
374.54	213.08
374.92	213.04
375.30	213.00
375.68	212.95
376.06	212.90
376.44	212.83
376.82	212.81
377.19	212.73
377.57	212.61
377.95	212.48
378.33	212.36
378.71	212.20
379.09	212.11
379.47	212.08
379.84	212.02
380.22	211.95
380.60	211.86
380.98	211.76
381.36	211.69
381.73	211.58
382.11	211.65
382.49	211.61
382.87	211.58
383.25	211.54
383.62	211.66
384.00	211.60
384.38	211.58
384.76	211.56
385.13	211.59
385.51	211.59
385.89	211.53
386.27	211.53
386.64	211.52
387.02	211.51
387.40	211.55
387.78	211.54
388.15	211.58
388.53	211.53
388.91	211.56
389.29	211.53
389.66	211.64
390.04	211.52
390.42	211.53
390.79	211.55
391.17	211.50
391.55	211.34
391.92	211.36
392.30	211.41
392.68	211.36
393.05	211.44
393.43	211.44
393.81	211.48
394.18	211.45
394.56	211.45
394.94	211.44
395.31	211.43
395.69	211.51
396.06	211.55
396.44	211.60
396.82	211.61
397.19	211.76
397.57	211.68
397.95	211.75
398.32	211.70
398.70	211.70
399.07	211.84
399.45	211.93
399.82	211.90
400.20	211.89
400.58	212.01
400.95	211.90
401.33	212.00
401.70	212.21
402.08	212.28
402.45	212.33
402.83	212.50
403.20	212.54
403.58	212.64
403.95	212.72
404.33	212.88
404.71	212.98
405.08	213.17
405.46	213.30
405.83	213.51
406.21	213.69
406.58	213.90
406.96	214.00
407.33	214.13
407.70	214.31
408.08	214.61
408.45	214.80
408.83	215.05
409.20	215.35
409.58	215.46
409.95	215.81
410.33	216.16
410.70	216.40
411.08	216.76
411.45	217.05
411.82	217.40
412.20	217.77
412.57	218.31
412.95	218.61
413.32	219.24
413.69	219.76
414.07	220.35
414.44	220.97
414.82	221.66
415.19	222.39
415.56	223.14
415.94	223.87
416.31	224.75
416.68	225.70
417.06	226.58
417.43	227.54
417.81	228.63
418.18	229.75
418.55	230.95
418.93	232.20
419.30	233.52
419.67	234.93
420.04	236.41
420.42	237.81
420.79	239.59
421.16	241.30
421.54	243.12
421.91	244.95
422.28	246.85
422.66	248.85
423.03	250.92
423.40	253.00
423.77	255.22
424.15	257.47
424.52	259.83
424.89	262.42
425.26	264.92
425.64	267.30
426.01	269.88
426.38	272.59
426.75	275.46
427.13	278.32
427.50	281.35
427.87	284.50
428.24	287.67
428.61	290.70
428.99	293.87
429.36	297.30
429.73	300.76
430.10	304.23
430.47	307.85
430.85	311.45
431.22	315.43
431.59	319.64
431.96	323.45
432.33	327.78
432.70	332.05
433.08	336.99
433.45	341.70
433.82	346.29
434.19	351.36
434.56	356.28
434.93	361.18
435.30	365.94
435.68	371.20
436.05	376.44
436.42	381.55
436.79	386.43
437.16	391.51
437.53	396.90
437.90	402.08
438.27	407.25
438.64	412.70
439.01	417.58
439.38	421.85
439.75	426.22
440.13	431.07
440.50	435.62
440.87	439.22
441.24	442.92
441.61	447.17
441.98	450.28
442.35	454.02
442.72	457.66
443.09	461.08
443.46	463.15
443.83	464.46
444.20	465.69
444.57	467.31
444.94	468.17
445.31	468.87
445.68	469.74
446.05	470.00
446.42	469.25
446.79	468.51
447.16	467.71
447.53	467.00
447.90	464.83
448.27	462.69
448.64	460.00
449.01	457.89
449.37	454.22
449.74	450.71
450.11	446.46
450.48	441.88
450.85	437.28
451.22	433.23
451.59	429.49
451.96	425.75
452.33	420.95
452.70	416.62
453.07	411.54
453.43	406.28
453.80	401.13
454.17	396.41
454.54	391.87
454.91	387.00
455.28	382.39
455.65	378.00
456.02	373.64
456.38	369.85
456.75	365.24
457.12	361.41
457.49	357.64
457.86	353.82
458.23	350.57
458.59	347.08
458.96	343.57
459.33	340.42
459.70	337.27
460.07	334.74
460.43	331.82
460.80	329.03
461.17	326.65
461.54	324.31
461.91	322.00
462.27	319.57
462.64	317.54
463.01	315.25
463.38	313.16
463.74	310.94
464.11	309.04
464.48	307.34
464.85	305.55
465.21	304.16
465.58	302.79
465.95	301.04
466.32	299.60
466.68	298.20
467.05	296.76
467.42	295.43
467.78	293.97
468.15	292.58
468.52	291.54
468.88	290.23
469.25	288.99
469.62	288.08
469.98	287.13
470.35	286.23
470.72	285.32
471.08	284.34
471.45	283.60
471.82	282.73
472.18	281.92
472.55	281.33
472.92	280.56
473.28	279.95
473.65	279.42
474.02	278.85
474.38	278.40
474.75	278.09
475.11	277.64
475.48	277.40
475.85	277.21
476.21	277.00
476.58	276.80
476.94	276.80
477.31	276.65
477.67	276.63
478.04	276.68
478.41	276.94
478.77	277.30
479.14	277.42
479.50	277.66
479.87	278.06
480.23	278.45
480.60	278.81
480.96	279.22
481.33	279.81
481.69	280.41
482.06	281.03
482.42	281.66
482.79	282.39
483.15	283.22
483.52	284.25
483.88	285.17
484.25	286.23
484.61	287.19
484.98	288.35
485.34	289.57
485.71	290.90
486.07	292.19
486.44	293.40
486.80	294.93
487.17	296.59
487.53	298.29
487.90	300.12
488.26	302.10
488.62	304.23
488.99	306.23
489.35	308.40
489.72	310.66
490.08	313.04
490.44	315.50
490.81	318.13
491.17	320.70
491.54	323.63
491.90	326.59
492.26	329.82
492.63	333.00
492.99	336.48
493.36	340.14
493.72	344.06
494.08	348.18
494.45	352.52
494.81	357.03
495.17	361.67
495.54	366.59
495.90	371.76
496.26	376.78
496.63	382.55
496.99	388.26
497.35	394.30
497.72	400.60
498.08	407.21
498.44	414.06
498.80	421.40
499.17	428.96
499.53	436.71
499.89	444.67
500.26	452.90
500.62	461.34
500.98	470.13
501.34	479.13
501.71	488.59
502.07	498.20
502.43	508.15
502.79	518.31
503.16	528.88
503.52	539.66
503.88	551.03
504.24	562.34
504.60	574.25
504.97	586.45
505.33	599.06
505.69	612.38
506.05	625.65
506.41	639.03
506.78	652.64
507.14	666.76
507.50	681.44
507.86	696.58
508.22	712.09
508.59	727.65
508.95	743.73
509.31	760.01
509.67	776.75
510.03	793.93
510.39	811.70
510.75	829.50
511.12	847.70
511.48	865.95
511.84	884.64
512.20	903.52
512.56	922.90
512.92	942.51
513.28	961.96
513.64	981.89
514.00	1002.14
514.37	1022.82
514.73	1043.58
515.09	1064.43
515.45	1085.12
515.81	1106.21
516.17	1127.45
516.53	1148.80
516.89	1170.21
517.25	1192.00
517.61	1213.65
517.97	1235.00
518.33	1256.61
518.69	1278.20
519.05	1300.41
519.41	1322.79
519.77	1345.44
520.13	1367.78
520.49	1389.82
520.85	1412.71
521.21	1435.50
521.57	1458.39
521.93	1480.45
522.29	1503.45
522.65	1526.20
523.01	1549.07
523.37	1571.29
523.73	1593.93
524.09	1616.32
524.45	1638.78
524.81	1660.95
525.17	1683.01
525.53	1705.66
525.89	1728.26
526.25	1750.51
526.61	1771.95
526.97	1793.77
527.33	1815.21
527.68	1836.50
528.04	1857.88
528.40	1877.91
528.76	1898.60
529.12	1919.35
529.48	1941.21
529.84	1961.70
530.20	1981.70
530.56	2001.97
530.91	2023.08
531.27	2043.55
531.63	2063.55
531.99	2083.68
532.35	2103.17
532.71	2122.47
533.07	2142.06
533.42	2160.26
533.78	2179.27
534.14	2197.77
534.50	2215.24
534.86	2233.17
535.21	2250.32
535.57	2268.17
535.93	2285.76
536.29	2302.74
536.65	2319.25
537.00	2334.51
537.36	2349.89
537.72	2365.37
538.08	2380.87
538.44	2395.90
538.79	2411.34
539.15	2426.22
539.51	2440.85
539.87	2456.27
540.22	2470.94
540.58	2485.94
540.94	2500.79
541.29	2513.64
541.65	2526.25
542.01	2539.52
542.37	2551.35
542.72	2563.78
543.08	2574.72
543.44	2586.63
543.79	2596.87
544.15	2607.36
544.51	2618.47
544.87	2629.48
545.22	2639.06
545.58	2647.70
545.94	2655.17
546.29	2661.37
546.65	2668.01
547.01	2674.38
547.36	2680.07
547.72	2685.59
548.07	2689.34
548.43	2693.57
548.79	2697.68
549.14	2702.29
549.50	2706.47
549.86	2710.63
550.21	2714.31
550.57	2718.65
550.92	2721.42
551.28	2724.40
551.64	2727.10
551.99	2729.54
552.35	2731.43
552.70	2734.43
553.06	2737.20
553.41	2740.23
553.77	2743.67
554.13	2745.74
554.48	2747.81
554.84	2749.15
555.19	2749.83
555.55	2750.64
555.90	2750.97
556.26	2751.62
556.61	2751.58
556.97	2750.38
557.32	2750.04
557.68	2748.45
558.03	2746.82
558.39	2745.17
558.74	2744.53
559.10	2743.57
559.45	2741.87
559.81	2740.37
560.16	2737.60
560.52	2735.10
560.87	2731.85
561.23	2728.00
561.58	2726.08
561.94	2722.70
562.29	2718.95
562.64	2717.16
563.00	2714.80
563.35	2712.55
563.71	2710.80
564.06	2708.72
564.42	2706.99
564.77	2704.92
565.12	2703.50
565.48	2700.37
565.83	2697.56
566.19	2694.41
566.54	2689.89
566.89	2686.25
567.25	2682.59
567.60	2679.09
567.96	2675.49
568.31	2672.45
568.66	2668.55
569.02	2663.35
569.37	2658.21
569.72	2654.49
570.08	2648.87
570.43	2643.14
570.78	2637.31
571.14	2630.80
571.49	2624.40
571.84	2618.32
572.20	2611.18
572.55	2604.32
572.90	2597.88
573.26	2591.05
573.61	2583.94
573.96	2577.46
574.31	2569.23
574.67	2561.21
575.02	2552.76
575.37	2544.08
575.72	2534.77
576.08	2527.53
576.43	2519.17
576.78	2511.77
577.13	2503.75
577.49	2495.70
577.84	2487.93
578.19	2480.50
578.54	2473.24
578.90	2466.06
579.25	2457.41
579.60	2448.28
579.95	2439.00
580.30	2430.53
580.66	2422.00
581.01	2412.89
581.36	2403.49
581.71	2395.04
582.06	2386.41
582.42	2378.43
582.77	2369.38
583.12	2360.60
583.47	2351.50
583.82	2343.25
584.17	2333.71
584.53	2324.64
584.88	2315.90
585.23	2306.52
585.58	2296.57
585.93	2286.79
586.28	2277.46
586.63	2268.43
586.98	2259.90
587.34	2251.77
587.69	2242.93
588.04	2234.15
588.39	2225.76
588.74	2216.78
589.09	2208.09
589.44	2198.61
589.79	2189.79
590.14	2181.99
590.49	2173.49
590.84	2164.44
591.19	2156.28
591.54	2147.43
591.89	2137.09
592.25	2127.61
592.60	2118.30
592.95	2108.87
593.30	2099.24
593.65	2089.51
594.00	2080.07
594.35	2072.09
594.70	2062.56
595.05	2053.71
595.40	2044.47
595.75	2034.75
596.10	2026.25
596.45	2017.77
596.80	2009.85
597.15	2001.50
597.50	1992.22
597.85	1983.87
598.19	1975.13
598.54	1966.69
598.89	1958.99
599.24	1952.24
599.59	1944.80
599.94	1937.42
600.29	1929.70
600.64	1921.68
600.99	1913.00
601.34	1905.66
601.69	1896.73
602.04	1888.62
602.39	1880.02
602.74	1872.21
603.08	1865.54
603.43	1858.58
603.78	1850.56
604.13	1842.38
604.48	1834.38
604.83	1827.29
605.18	1820.05
605.53	1812.36
605.87	1804.09
606.22	1796.51
606.57	1788.46
606.92	1780.05
607.27	1772.03
607.62	1764.73
607.96	1757.95
608.31	1751.79
608.66	1743.92
609.01	1736.27
609.36	1728.46
609.70	1720.69
610.05	1713.11
610.40	1704.79
610.75	1696.02
611.10	1688.56
611.44	1679.31
611.79	1670.24
612.14	1661.10
612.49	1651.24
612.83	1642.46
613.18	1632.79
613.53	1623.40
613.88	1613.78
614.22	1605.23
614.57	1595.79
614.92	1586.47
615.27	1576.86
615.61	1567.08
615.96	1557.94
616.31	1549.45
616.65	1541.65
617.00	1533.37
617.35	1524.43
617.70	1515.51
618.04	1506.55
618.39	1496.70
618.74	1488.23
619.08	1479.33
619.43	1471.00
619.78	1463.46
620.12	1455.16
620.47	1447.61
620.82	1439.19
621.16	1430.98
621.51	1422.36
621.85	1414.40
622.20	1405.98
622.55	1397.82
622.89	1389.67
623.24	1381.72
623.59	1372.89
623.93	1364.11
624.28	1355.71
624.62	1347.58
624.97	1339.31
625.32	1331.64
625.66	1324.35
626.01	1317.34
626.35	1310.07
626.70	1302.12
627.04	1294.43
627.39	1286.90
627.73	1279.31
628.08	1272.31
628.43	1264.92
628.77	1257.32
629.12	1249.56
629.46	1242.74
629.81	1235.37
630.15	1227.91
630.50	1220.17
630.84	1213.05
631.19	1205.77
631.53	1199.03
631.88	1191.31
632.22	1183.79
632.57	1176.58
632.91	1169.01
633.26	1161.44
633.60	1154.37
633.95	1147.74
634.29	1140.51
634.64	1133.74
634.98	1126.55
635.32	1119.47
635.67	1112.98
636.01	1106.41
636.36	1099.90
636.70	1093.30
637.05	1086.49
637.39	1080.03
637.73	1074.07
638.08	1068.31
638.42	1062.53
638.77	1055.92
639.11	1049.96
639.45	1044.04
639.80	1037.46
640.14	1031.07
640.49	1024.94
640.83	1018.58
641.17	1012.17
641.52	1006.07
641.86	999.54
642.20	993.30
642.55	986.53
642.89	979.75
643.23	973.39
643.58	967.36
643.92	960.54
644.26	954.53
644.61	948.59
644.95	942.29
645.29	935.80
645.64	928.91
645.98	922.90
646.32	916.85
646.66	910.70
647.01	904.81
647.35	899.08
647.69	892.55
648.04	886.74
648.38	880.54
648.72	874.42
649.06	868.36
649.41	862.42
649.75	856.73
650.09	851.02
650.43	845.27
650.78	838.87
651.12	832.98
651.46	827.25
651.80	821.21
652.14	815.29
652.49	809.14
652.83	803.49
653.17	797.22
653.51	791.11
653.85	785.41
654.20	779.44
654.54	773.56
654.88	768.17
655.22	762.15
655.56	756.36
655.90	750.58
656.25	744.91
656.59	739.37
656.93	734.13
657.27	728.84
657.61	723.18
657.95	718.25
658.29	713.27
658.64	707.93
658.98	702.74
659.32	697.33
659.66	692.28
660.00	686.91
660.34	681.62
660.68	676.75
661.02	671.55
661.36	666.86
661.70	662.00
662.05	657.19
662.39	652.94
662.73	648.49
663.07	644.08
663.41	639.70
663.75	635.14
664.09	630.36
664.43	625.63
664.77	621.25
665.11	616.73
665.45	612.25
665.79	607.89
666.13	603.28
666.47	599.10
666.81	594.87
667.15	590.78
667.49	586.92
667.83	582.97
668.17	579.15
668.51	575.30
668.85	571.51
669.19	567.87
669.53	563.75
669.87	559.59
670.21	555.68
670.55	551.81
670.89	548.42
671.23	544.97
671.57	541.46
671.91	537.89
672.25	534.25
672.58	530.55
672.92	527.05
673.26	523.99
673.60	520.72
673.94	517.40
674.28	514.15
674.62	511.00
674.96	507.64
675.30	504.43
675.64	501.23
675.97	498.00
676.31	494.80
676.65	491.91
676.99	489.32
677.33	486.31
677.67	483.35
678.01	480.10
678.34	477.27
678.68	474.34
679.02	471.31
679.36	468.51
679.70	465.75
680.04	462.85
680.37	459.75
680.71	456.76
681.05	454.04
681.39	451.25
681.73	448.57
682.06	446.13
682.40	443.50
682.74	440.80
683.08	438.25
683.42	435.64
683.75	433.02
684.09	430.37
684.43	427.92
684.77	425.37
685.10	422.96
685.44	420.32
685.78	417.87
686.12	415.63
686.45	413.28
686.79	410.94
687.13	408.82
687.46	406.75
687.80	404.69
688.14	402.48
688.48	400.45
688.81	398.10
689.15	395.75
689.49	393.51
689.82	391.28
690.16	389.01
690.50	386.68
690.83	384.40
691.17	382.19
691.51	379.97
691.84	377.94
692.18	375.86
692.52	373.85
692.85	372.02
693.19	370.19
693.52	368.15
693.86	366.21
694.20	364.30
694.53	362.42
694.87	360.45
695.21	358.52
695.54	356.51
695.88	354.77
696.21	352.98
696.55	351.19
696.88	349.42
697.22	347.69
697.56	346.11
697.89	344.42
698.23	342.75
698.56	341.22
698.90	339.67
699.23	338.05
699.57	336.46
699.90	334.82
700.24	333.07
700.58	331.54
700.91	330.05
701.25	328.68
701.58	327.29
701.92	325.85
702.25	324.49
702.59	323.20
702.92	321.85
703.26	320.49
703.59	319.14
703.93	317.99
704.26	316.80
704.60	315.54
704.93	314.37
705.26	313.09
705.60	311.80
705.93	310.55
706.27	309.32
706.60	308.22
706.94	307.07
707.27	305.92
707.61	304.73
707.94	303.60
708.27	302.18
708.61	300.92
708.94	299.79
709.28	298.60
709.61	297.49
709.94	296.34
710.28	295.24
710.61	294.30
710.95	293.14
711.28	292.11
711.61	291.09
711.95	290.12
712.28	289.13
712.61	288.23
712.95	287.34
713.28	286.49
713.61	285.50
713.95	284.55
714.28	283.69
714.61	282.77
714.95	281.90
715.28	281.10
715.61	280.13
715.95	279.25
716.28	278.38
716.61	277.55
716.95	276.68
717.28	275.86
717.61	275.06
717.94	274.27
718.28	273.40
718.61	272.59
718.94	271.84
719.27	271.12
719.61	270.37
719.94	269.60
720.27	268.77
720.60	268.10
720.94	267.41
721.27	266.72
721.60	266.16
721.93	265.46
722.27	264.90
722.60	264.32
722.93	263.64
723.26	263.01
723.59	262.35
723.93	261.80
724.26	261.21
724.59	260.52
724.92	259.98
725.25	259.46
725.59	258.93
725.92	258.40
726.25	257.82
726.58	257.31
726.91	256.74
727.24	256.27
727.57	255.69
727.91	255.06
728.24	254.58
728.57	254.05
728.90	253.64
729.23	253.06
729.56	252.66
729.89	252.25
730.22	251.80
730.55	251.25
730.89	250.78
731.22	250.37
731.55	249.94
731.88	249.42
732.21	248.91
732.54	248.41
732.87	247.88
733.20	247.43
733.53	246.90
733.86	246.45
734.19	245.95
734.52	245.61
734.85	245.41
735.18	244.87
735.51	244.48
735.84	244.00
736.17	243.66
736.50	243.20
736.83	243.02
737.16	242.70
737.49	242.40
737.82	241.97
738.15	241.55
738.48	241.21
738.81	240.87
739.14	240.51
739.47	240.22
739.80	239.95
740.13	239.69
740.46	239.34
740.79	238.99
741.12	238.66
741.45	238.30
741.78	237.89
742.11	237.69
742.44	237.40
742.77	237.20
743.10	236.89
743.43	236.63
743.75	236.10
744.08	236.03
744.41	235.67
744.74	235.42
745.07	235.09
745.40	234.87
745.73	234.65
746.06	234.39
746.39	234.06
746.71	233.70
747.04	233.42
747.37	233.12
747.70	232.94
748.03	232.70
748.36	232.50
748.68	232.23
749.01	231.89
749.34	231.62
749.67	231.26
750.00	231.06
750.33	230.90
750.65	230.68
750.98	230.12
751.31	229.90
751.64	229.65
751.97	229.59
752.29	229.31
752.62	229.03
752.95	228.78
753.28	228.58
753.60	228.34
753.93	228.15
754.26	227.99
754.59	227.63
754.91	227.43
755.24	227.17
755.57	226.98
755.90	226.78
756.22	226.63
756.55	226.44
756.88	226.15
757.20	225.88
757.53	225.65
757.86	225.46
758.19	225.28
758.51	225.09
758.84	224.74
759.17	224.59
759.49	224.47
759.82	224.35
760.15	224.19
760.47	224.03
760.80	223.80
761.13	223.67
761.45	223.59
761.78	223.41
762.11	223.20
762.43	223.04
762.76	222.95
763.08	222.73
763.41	222.62
763.74	222.50
764.06	222.27
764.39	222.12
764.71	222.09
765.04	221.99
765.37	221.91
765.69	221.81
766.02	221.64
766.34	221.46
766.67	221.32
767.00	221.20
767.32	221.26
767.65	221.24
767.97	221.11
768.30	221.00
768.62	220.86
768.95	220.73
769.27	220.57
769.60	220.46
769.92	220.32
770.25	220.16
770.57	220.06
770.90	219.95
771.22	219.83
771.55	219.68
771.87	219.59
772.20	219.40
772.52	219.48
772.85	219.55
773.17	219.50
773.50	219.36
773.82	219.22
774.15	218.97
774.47	218.76
774.80	218.64
775.12	218.55
775.45	218.52
775.77	218.44
776.09	218.37
776.42	218.29
776.74	218.25
777.07	218.18
777.39	218.06
777.72	217.95
778.04	217.95
778.36	217.84
778.69	217.70
779.01	217.65
779.33	217.39
779.66	217.09
779.98	216.98
780.31	216.92
780.63	217.02
780.95	217.02
781.28	216.97
781.60	216.84
781.92	216.73
782.25	216.62
782.57	216.61
782.89	216.59
783.22	216.53
783.54	216.48
783.86	216.37
784.19	216.31
784.51	216.36
784.83	216.25
785.16	216.24
785.48	216.16
785.80	216.08
786.12	216.03
786.45	216.07
