SpectraSuite Data File
++++++++++++++++++++++++++++++++++++
Date: Mon Feb 25 17:36:02 EST 2013
User: group
Dark Spectrum Present: No
Reference Spectrum Present: No
Number of Sampled Component Spectra: 1
Spectrometers: USB2E7196
Integration Time (usec): 52000 (USB2E7196)
Spectra Averaged: 20 (USB2E7196)
Boxcar Smoothing: 10 (USB2E7196)
Correct for Electrical Dark: No (USB2E7196)
Strobe/Lamp Enabled: No (USB2E7196)
Correct for Detector Non-linearity: No (USB2E7196)
Correct for Stray Light: No (USB2E7196)
Number of Pixels in Processed Spectrum: 2048
>>>>>Begin Processed Spectral Data<<<<<
339.09	0.00
339.48	198.15
339.86	199.15
340.24	201.35
340.63	203.00
341.01	205.70
341.39	204.15
341.78	207.25
342.16	208.15
342.54	209.35
342.93	198.19
343.31	208.19
343.69	208.79
344.07	209.31
344.46	209.85
344.84	210.39
345.22	210.73
345.60	211.13
345.99	211.46
346.37	211.66
346.75	211.83
347.13	211.91
347.52	212.06
347.90	212.28
348.28	212.38
348.66	212.54
349.05	212.61
349.43	212.78
349.81	212.92
350.19	212.97
350.57	213.16
350.96	213.29
351.34	213.54
351.72	213.70
352.10	213.91
352.48	214.01
352.87	214.05
353.25	214.13
353.63	214.22
354.01	214.30
354.39	214.42
354.77	214.55
355.15	214.68
355.54	214.74
355.92	214.75
356.30	214.87
356.68	214.99
357.06	215.11
357.44	215.19
357.82	215.32
358.20	215.42
358.58	215.43
358.97	215.56
359.35	215.68
359.73	215.83
360.11	215.91
360.49	215.91
360.87	215.95
361.25	216.05
361.63	216.27
362.01	216.30
362.39	216.36
362.77	216.42
363.15	216.44
363.53	216.45
363.91	216.48
364.29	216.53
364.67	216.41
365.05	216.44
365.43	216.50
365.81	216.50
366.19	216.67
366.57	216.76
366.95	216.70
367.33	216.64
367.71	216.57
368.09	216.62
368.47	216.69
368.85	216.70
369.23	216.78
369.61	216.61
369.99	216.65
370.37	216.68
370.75	216.74
371.13	216.76
371.51	216.72
371.89	216.78
372.27	216.73
372.65	216.76
373.03	216.72
373.41	216.67
373.78	216.58
374.16	216.43
374.54	216.38
374.92	216.38
375.30	216.33
375.68	216.25
376.06	216.22
376.44	216.18
376.82	216.10
377.19	216.02
377.57	216.02
377.95	215.90
378.33	215.81
378.71	215.63
379.09	215.63
379.47	215.63
379.84	215.55
380.22	215.47
380.60	215.41
380.98	215.43
381.36	215.40
381.73	215.38
382.11	215.42
382.49	215.33
382.87	215.21
383.25	215.15
383.62	215.33
384.00	215.17
384.38	215.14
384.76	215.14
385.13	215.20
385.51	215.15
385.89	215.19
386.27	215.24
386.64	215.30
387.02	215.21
387.40	215.19
387.78	215.21
388.15	215.21
388.53	215.23
388.91	215.18
389.29	215.17
389.66	215.21
390.04	215.12
390.42	215.20
390.79	215.25
391.17	215.35
391.55	215.18
391.92	215.26
392.30	215.33
392.68	215.33
393.05	215.30
393.43	215.34
393.81	215.28
394.18	215.22
394.56	215.29
394.94	215.40
395.31	215.44
395.69	215.55
396.06	215.68
396.44	215.75
396.82	215.84
397.19	216.08
397.57	216.22
397.95	216.36
398.32	216.50
398.70	216.71
399.07	216.90
399.45	217.14
399.82	217.29
400.20	217.53
400.58	217.86
400.95	218.09
401.33	218.45
401.70	218.99
402.08	219.40
402.45	219.76
402.83	220.20
403.20	220.68
403.58	221.10
403.95	221.68
404.33	222.23
404.71	222.87
405.08	223.54
405.46	224.21
405.83	225.01
406.21	225.83
406.58	226.75
406.96	227.72
407.33	228.75
407.70	229.99
408.08	231.34
408.45	232.67
408.83	234.11
409.20	235.65
409.58	237.10
409.95	238.86
410.33	240.82
410.70	242.72
411.08	244.78
411.45	247.01
411.82	249.32
412.20	251.98
412.57	254.89
412.95	257.70
413.32	260.92
413.69	264.32
414.07	267.96
414.44	271.86
414.82	275.92
415.19	280.65
415.56	285.45
415.94	290.61
416.31	296.27
416.68	302.00
417.06	308.43
417.43	314.55
417.81	321.65
418.18	328.83
418.55	336.83
418.93	345.25
419.30	353.87
419.67	363.16
420.04	372.69
420.42	382.80
420.79	393.80
421.16	405.41
421.54	417.18
421.91	429.61
422.28	442.67
422.66	456.65
423.03	469.63
423.40	483.86
423.77	499.23
424.15	514.83
424.52	531.05
424.89	548.60
425.26	566.03
425.64	582.44
426.01	600.82
426.38	620.15
426.75	639.46
427.13	659.89
427.50	681.33
427.87	703.74
428.24	726.38
428.61	748.34
428.99	771.65
429.36	797.72
429.73	823.15
430.10	848.39
430.47	874.31
430.85	902.52
431.22	931.34
431.59	961.22
431.96	990.72
432.33	1023.49
432.70	1055.35
433.08	1092.63
433.45	1127.90
433.82	1163.02
434.19	1201.62
434.56	1239.80
434.93	1277.05
435.30	1314.06
435.68	1355.38
436.05	1396.10
436.42	1437.20
436.79	1474.64
437.16	1514.98
437.53	1557.94
437.90	1600.67
438.27	1642.61
438.64	1686.32
439.01	1727.17
439.38	1764.94
439.75	1800.68
440.13	1841.14
440.50	1879.42
440.87	1911.71
441.24	1945.27
441.61	1982.05
441.98	2010.80
442.35	2043.33
442.72	2075.50
443.09	2106.79
443.46	2127.74
443.83	2142.96
444.20	2156.68
444.57	2175.48
444.94	2186.55
445.31	2197.53
445.68	2206.97
446.05	2214.17
446.42	2214.16
446.79	2212.88
447.16	2211.46
447.53	2211.40
447.90	2199.97
448.27	2188.85
448.64	2170.99
449.01	2159.26
449.37	2135.05
449.74	2111.14
450.11	2081.66
450.48	2051.10
450.85	2019.61
451.22	1992.40
451.59	1966.24
451.96	1941.44
452.33	1906.82
452.70	1875.65
453.07	1837.81
453.43	1800.51
453.80	1763.35
454.17	1727.32
454.54	1694.40
454.91	1657.39
455.28	1622.05
455.65	1589.00
456.02	1553.73
456.38	1525.04
456.75	1488.70
457.12	1458.94
457.49	1429.80
457.86	1402.35
458.23	1376.79
458.59	1349.33
458.96	1321.23
459.33	1296.66
459.70	1271.77
460.07	1252.27
460.43	1229.83
460.80	1208.07
461.17	1189.55
461.54	1169.88
461.91	1151.35
462.27	1132.25
462.64	1116.28
463.01	1098.06
463.38	1080.34
463.74	1064.82
464.11	1049.97
464.48	1037.03
464.85	1022.46
465.21	1010.81
465.58	998.69
465.95	984.68
466.32	972.48
466.68	960.58
467.05	948.60
467.42	936.76
467.78	924.50
468.15	912.66
468.52	904.27
468.88	892.79
469.25	883.09
469.62	874.93
469.98	866.02
470.35	857.94
470.72	850.20
471.08	842.30
471.45	835.14
471.82	827.46
472.18	819.37
472.55	813.90
472.92	807.43
473.28	801.62
473.65	796.08
474.02	790.72
474.38	786.12
474.75	782.35
475.11	778.11
475.48	774.88
475.85	772.12
476.21	769.10
476.58	766.77
476.94	764.64
477.31	762.35
477.67	760.30
478.04	758.83
478.41	757.97
478.77	757.11
479.14	756.08
479.50	756.06
479.87	756.85
480.23	757.53
480.60	757.65
480.96	758.14
481.33	759.55
481.69	761.19
482.06	762.48
482.42	763.29
482.79	764.79
483.15	767.53
483.52	770.86
483.88	774.05
484.25	777.29
484.61	780.79
484.98	784.44
485.34	788.85
485.71	793.48
486.07	798.48
486.44	803.76
486.80	809.63
487.17	815.60
487.53	822.36
487.90	829.19
488.26	836.71
488.62	844.52
488.99	852.37
489.35	860.23
489.72	869.46
490.08	879.41
490.44	889.50
490.81	899.35
491.17	909.17
491.54	920.25
491.90	931.28
492.26	942.88
492.63	955.15
492.99	967.87
493.36	980.81
493.72	994.39
494.08	1008.20
494.45	1022.79
494.81	1038.25
495.17	1053.52
495.54	1069.82
495.90	1086.89
496.26	1103.85
496.63	1121.62
496.99	1139.99
497.35	1158.15
497.72	1177.12
498.08	1195.99
498.44	1215.22
498.80	1235.55
499.17	1255.51
499.53	1276.26
499.89	1298.00
500.26	1319.30
500.62	1340.37
500.98	1362.98
501.34	1385.34
501.71	1408.18
502.07	1431.17
502.43	1454.36
502.79	1477.30
503.16	1500.32
503.52	1523.31
503.88	1546.38
504.24	1569.71
504.60	1593.50
504.97	1618.09
505.33	1641.83
505.69	1667.33
506.05	1692.48
506.41	1716.85
506.78	1741.60
507.14	1766.08
507.50	1790.38
507.86	1815.62
508.22	1841.19
508.59	1865.94
508.95	1891.10
509.31	1916.05
509.67	1941.64
510.03	1966.90
510.39	1992.82
510.75	2018.17
511.12	2042.73
511.48	2067.60
511.84	2091.60
512.20	2115.62
512.56	2140.10
512.92	2164.97
513.28	2188.53
513.64	2211.90
514.00	2235.09
514.37	2258.30
514.73	2281.83
515.09	2304.38
515.45	2326.46
515.81	2348.18
516.17	2370.15
516.53	2391.50
516.89	2412.79
517.25	2432.00
517.61	2451.41
517.97	2470.63
518.33	2488.78
518.69	2508.10
519.05	2527.86
519.41	2547.33
519.77	2566.33
520.13	2583.98
520.49	2600.70
520.85	2617.37
521.21	2633.88
521.57	2651.45
521.93	2667.12
522.29	2684.00
522.65	2700.34
523.01	2716.49
523.37	2731.57
523.73	2746.26
524.09	2760.55
524.45	2774.43
524.81	2788.98
525.17	2803.12
525.53	2816.71
525.89	2831.53
526.25	2845.42
526.61	2856.97
526.97	2869.44
527.33	2881.72
527.68	2894.31
528.04	2906.66
528.40	2918.36
528.76	2930.32
529.12	2941.54
529.48	2953.66
529.84	2962.27
530.20	2972.26
530.56	2982.19
530.91	2993.35
531.27	3003.97
531.63	3014.51
531.99	3024.66
532.35	3034.08
532.71	3043.25
533.07	3053.93
533.42	3063.17
533.78	3072.56
534.14	3081.77
534.50	3090.08
534.86	3098.89
535.21	3105.53
535.57	3113.90
535.93	3121.13
536.29	3127.85
536.65	3135.54
537.00	3142.05
537.36	3150.20
537.72	3157.07
538.08	3163.70
538.44	3169.58
538.79	3175.83
539.15	3181.93
539.51	3188.05
539.87	3195.02
540.22	3201.25
540.58	3206.49
540.94	3211.95
541.29	3215.78
541.65	3218.75
542.01	3222.58
542.37	3225.90
542.72	3230.11
543.08	3232.83
543.44	3236.77
543.79	3239.64
544.15	3241.69
544.51	3245.61
544.87	3248.83
545.22	3250.95
545.58	3252.38
545.94	3253.88
546.29	3254.24
546.65	3254.61
547.01	3255.03
547.36	3256.02
547.72	3256.46
548.07	3255.83
548.43	3254.87
548.79	3254.41
549.14	3255.43
549.50	3255.93
549.86	3255.90
550.21	3255.41
550.57	3255.63
550.92	3254.61
551.28	3253.29
551.64	3251.75
551.99	3249.85
552.35	3248.58
552.70	3247.31
553.06	3247.32
553.41	3247.22
553.77	3246.71
554.13	3246.11
554.48	3246.70
554.84	3245.27
555.19	3243.80
555.55	3243.97
555.90	3243.37
556.26	3243.18
556.61	3242.60
556.97	3240.05
557.32	3237.46
557.68	3235.36
558.03	3232.71
558.39	3231.02
558.74	3231.23
559.10	3230.61
559.45	3230.15
559.81	3228.55
560.16	3227.20
560.52	3225.21
560.87	3222.76
561.23	3219.72
561.58	3217.53
561.94	3213.34
562.29	3209.36
562.64	3206.14
563.00	3201.99
563.35	3197.66
563.71	3194.25
564.06	3191.20
564.42	3189.19
564.77	3186.81
565.12	3184.34
565.48	3181.53
565.83	3178.58
566.19	3176.11
566.54	3173.27
566.89	3168.45
567.25	3164.45
567.60	3161.59
567.96	3157.44
568.31	3152.79
568.66	3149.48
569.02	3145.79
569.37	3142.57
569.72	3139.71
570.08	3136.86
570.43	3132.43
570.78	3129.79
571.14	3126.89
571.49	3122.76
571.84	3119.45
572.20	3114.91
572.55	3111.41
572.90	3106.49
573.26	3101.59
573.61	3094.71
573.96	3087.90
574.31	3082.07
574.67	3076.57
575.02	3069.19
575.37	3062.35
575.72	3055.97
576.08	3048.99
576.43	3041.80
576.78	3034.58
577.13	3027.75
577.49	3020.91
577.84	3014.31
578.19	3006.84
578.54	2998.34
578.90	2991.18
579.25	2982.04
579.60	2973.41
579.95	2963.98
580.30	2956.83
580.66	2949.11
581.01	2940.88
581.36	2931.66
581.71	2923.50
582.06	2915.53
582.42	2908.74
582.77	2900.47
583.12	2892.34
583.47	2883.88
583.82	2875.24
584.17	2865.95
584.53	2857.52
584.88	2847.81
585.23	2838.54
585.58	2829.59
585.93	2820.35
586.28	2811.34
586.63	2803.50
586.98	2795.64
587.34	2787.60
587.69	2777.77
588.04	2768.56
588.39	2760.23
588.74	2751.64
589.09	2742.91
589.44	2731.76
589.79	2721.46
590.14	2712.64
590.49	2702.79
590.84	2694.30
591.19	2685.55
591.54	2676.30
591.89	2665.69
592.25	2656.34
592.60	2646.02
592.95	2635.30
593.30	2624.63
593.65	2614.31
594.00	2604.19
594.35	2594.94
594.70	2585.00
595.05	2575.75
595.40	2565.31
595.75	2553.85
596.10	2543.96
596.45	2533.45
596.80	2524.68
597.15	2515.21
597.50	2505.19
597.85	2495.68
598.19	2484.42
598.54	2472.79
598.89	2462.21
599.24	2451.87
599.59	2441.05
599.94	2431.01
600.29	2420.75
600.64	2411.18
600.99	2400.63
601.34	2390.05
601.69	2377.94
602.04	2366.58
602.39	2356.15
602.74	2347.06
603.08	2338.99
603.43	2330.47
603.78	2320.72
604.13	2310.28
604.48	2299.11
604.83	2289.25
605.18	2279.20
605.53	2269.66
605.87	2260.42
606.22	2251.48
606.57	2241.54
606.92	2230.69
607.27	2220.66
607.62	2211.62
607.96	2202.54
608.31	2193.59
608.66	2183.46
609.01	2174.39
609.36	2164.54
609.70	2153.84
610.05	2142.50
610.40	2130.97
610.75	2119.09
611.10	2108.18
611.44	2096.34
611.79	2086.18
612.14	2074.57
612.49	2062.72
612.83	2051.39
613.18	2039.64
613.53	2027.77
613.88	2015.45
614.22	2004.76
614.57	1993.13
614.92	1980.97
615.27	1968.85
615.61	1955.88
615.96	1944.16
616.31	1932.79
616.65	1922.43
617.00	1911.66
617.35	1900.38
617.70	1889.01
618.04	1878.17
618.39	1867.15
618.74	1856.85
619.08	1844.60
619.43	1833.09
619.78	1822.69
620.12	1812.32
620.47	1802.13
620.82	1791.30
621.16	1781.73
621.51	1771.03
621.85	1760.56
622.20	1750.10
622.55	1738.55
622.89	1728.54
623.24	1718.45
623.59	1707.62
623.93	1696.74
624.28	1686.26
624.62	1676.11
624.97	1665.94
625.32	1655.52
625.66	1645.53
626.01	1635.67
626.35	1627.24
626.70	1618.57
627.04	1609.04
627.39	1599.22
627.73	1589.75
628.08	1580.72
628.43	1570.83
628.77	1562.17
629.12	1552.63
629.46	1543.16
629.81	1533.84
630.15	1523.59
630.50	1513.43
630.84	1503.41
631.19	1493.10
631.53	1483.24
631.88	1473.51
632.22	1463.84
632.57	1454.71
632.91	1445.18
633.26	1435.79
633.60	1425.72
633.95	1416.41
634.29	1407.14
634.64	1398.38
634.98	1389.03
635.32	1379.99
635.67	1371.45
636.01	1362.47
636.36	1353.71
636.70	1345.00
637.05	1336.86
637.39	1328.80
637.73	1320.47
638.08	1313.08
638.42	1305.36
638.77	1297.69
639.11	1289.78
639.45	1281.66
639.80	1273.23
640.14	1265.12
640.49	1256.83
640.83	1248.66
641.17	1239.89
641.52	1231.54
641.86	1222.74
642.20	1214.59
642.55	1205.88
642.89	1197.42
643.23	1188.79
643.58	1180.80
643.92	1172.48
644.26	1163.97
644.61	1155.59
644.95	1147.32
645.29	1138.89
645.64	1130.28
645.98	1121.77
646.32	1113.70
646.66	1105.75
647.01	1097.86
647.35	1089.74
647.69	1081.56
648.04	1073.96
648.38	1066.07
648.72	1058.37
649.06	1050.57
649.41	1042.71
649.75	1034.65
650.09	1027.15
650.43	1019.85
650.78	1012.43
651.12	1005.05
651.46	997.89
651.80	991.22
652.14	984.64
652.49	977.53
652.83	970.26
653.17	962.55
653.51	955.20
653.85	948.11
654.20	941.16
654.54	934.20
654.88	927.35
655.22	920.06
655.56	912.60
655.90	905.07
656.25	898.06
656.59	891.40
656.93	885.15
657.27	878.51
657.61	871.62
657.95	864.85
658.29	858.23
658.64	852.09
658.98	845.73
659.32	838.86
659.66	832.40
660.00	826.55
660.34	820.90
660.68	814.80
661.02	808.47
661.36	802.52
661.70	796.74
662.05	791.31
662.39	785.84
662.73	780.91
663.07	776.12
663.41	771.14
663.75	765.65
664.09	760.21
664.43	754.51
664.77	749.20
665.11	744.10
665.45	739.07
665.79	733.78
666.13	728.62
666.47	723.99
666.81	719.29
667.15	714.48
667.49	709.62
667.83	704.83
668.17	700.41
668.51	695.77
668.85	690.99
669.19	686.25
669.53	681.47
669.87	676.44
670.21	671.56
670.55	666.58
670.89	661.95
671.23	657.45
671.57	653.28
671.91	648.88
672.25	644.54
672.58	640.25
672.92	635.96
673.26	631.66
673.60	627.22
673.94	622.98
674.28	619.17
674.62	615.30
674.96	611.22
675.30	607.44
675.64	603.65
675.97	600.11
676.31	596.63
676.65	593.20
676.99	590.15
677.33	586.90
677.67	583.62
678.01	580.15
678.34	576.70
678.68	573.25
679.02	569.65
679.36	566.13
679.70	562.51
680.04	559.06
680.37	555.64
680.71	552.45
681.05	549.09
681.39	545.51
681.73	542.16
682.06	539.11
682.40	535.69
682.74	532.20
683.08	528.77
683.42	525.22
683.75	521.76
684.09	518.22
684.43	514.65
684.77	511.14
685.10	507.68
685.44	504.33
685.78	501.06
686.12	498.09
686.45	495.02
686.79	492.21
687.13	489.47
687.46	486.68
687.80	483.67
688.14	480.75
688.48	477.96
688.81	475.01
689.15	472.04
689.49	469.13
689.82	466.33
690.16	463.40
690.50	460.58
690.83	457.89
691.17	455.06
691.51	452.36
691.84	449.82
692.18	447.42
692.52	445.01
692.85	442.49
693.19	439.92
693.52	437.35
693.86	434.75
694.20	432.01
694.53	429.24
694.87	426.48
695.21	423.94
695.54	421.34
695.88	418.96
696.21	416.64
696.55	414.39
696.88	412.17
697.22	409.91
697.56	407.83
697.89	405.65
698.23	403.72
698.56	401.57
698.90	399.47
699.23	397.23
699.57	394.96
699.90	392.76
700.24	390.74
700.58	388.68
700.91	386.67
701.25	384.78
701.58	383.03
701.92	381.47
702.25	379.67
702.59	377.97
702.92	376.14
703.26	374.33
703.59	372.56
703.93	371.00
704.26	369.24
704.60	367.44
704.93	365.59
705.26	363.66
705.60	361.88
705.93	360.29
706.27	358.84
706.60	357.42
706.94	356.10
707.27	354.35
707.61	352.83
707.94	351.27
708.27	349.62
708.61	347.95
708.94	346.29
709.28	344.70
709.61	343.05
709.94	341.46
710.28	339.76
710.61	338.25
710.95	336.33
711.28	334.94
711.61	333.51
711.95	332.10
712.28	330.88
712.61	329.61
712.95	328.27
713.28	326.82
713.61	325.39
713.95	323.86
714.28	322.80
714.61	321.49
714.95	320.21
715.28	318.98
715.61	317.76
715.95	316.43
716.28	315.21
716.61	314.05
716.95	312.74
717.28	311.69
717.61	310.60
717.94	309.61
718.28	308.32
718.61	307.08
718.94	306.00
719.27	304.80
719.61	303.77
719.94	302.69
720.27	301.67
720.60	300.66
720.94	299.75
721.27	298.71
721.60	297.85
721.93	296.98
722.27	296.08
722.60	295.27
722.93	294.46
723.26	293.60
723.59	292.67
723.93	291.93
724.26	290.97
724.59	290.00
724.92	289.14
725.25	288.60
725.59	287.93
725.92	287.34
726.25	286.65
726.58	285.88
726.91	285.01
727.24	284.20
727.57	283.44
727.91	282.59
728.24	281.85
728.57	281.05
728.90	280.35
729.23	279.65
729.56	278.97
729.89	278.24
730.22	277.45
730.55	276.78
730.89	276.12
731.22	275.56
731.55	274.87
731.88	274.23
732.21	273.40
732.54	272.72
732.87	271.92
733.20	271.20
733.53	270.62
733.86	270.15
734.19	269.59
734.52	269.05
734.85	268.60
735.18	268.00
735.51	267.44
735.84	266.74
736.17	266.10
736.50	265.40
736.83	264.98
737.16	264.53
737.49	264.04
737.82	263.42
738.15	262.88
738.48	262.40
738.81	261.89
739.14	261.33
739.47	260.79
739.80	260.36
740.13	259.83
740.46	259.24
740.79	258.63
741.12	258.17
741.45	257.56
741.78	256.97
742.11	256.47
742.44	255.98
742.77	255.50
743.10	255.04
743.43	254.50
743.75	253.79
744.08	253.46
744.41	252.95
744.74	252.40
745.07	251.84
745.40	251.41
745.73	250.93
746.06	250.43
746.39	249.97
746.71	249.37
747.04	248.90
747.37	248.40
747.70	248.00
748.03	247.51
748.36	247.22
748.68	246.76
749.01	246.31
749.34	245.82
749.67	245.45
750.00	245.08
750.33	244.84
750.65	244.56
750.98	244.01
751.31	243.57
751.64	243.22
751.97	242.93
752.29	242.59
752.62	242.20
752.95	241.88
753.28	241.50
753.60	241.25
753.93	241.02
754.26	240.71
754.59	240.27
754.91	239.91
755.24	239.57
755.57	239.23
755.90	238.90
756.22	238.60
756.55	238.27
756.88	237.96
757.20	237.53
757.53	237.14
757.86	236.79
758.19	236.51
758.51	236.19
758.84	235.87
759.17	235.46
759.49	235.20
759.82	235.05
760.15	234.71
760.47	234.35
760.80	233.98
761.13	233.67
761.45	233.42
761.78	233.15
762.11	232.82
762.43	232.59
762.76	232.25
763.08	231.95
763.41	231.69
763.74	231.42
764.06	231.12
764.39	230.92
764.71	230.69
765.04	230.40
765.37	230.18
765.69	229.91
766.02	229.70
766.34	229.50
766.67	229.19
767.00	229.07
767.32	228.95
767.65	228.92
767.97	228.80
768.30	228.62
768.62	228.39
768.95	228.25
769.27	227.99
769.60	227.89
769.92	227.76
770.25	227.51
770.57	227.27
770.90	227.10
771.22	226.92
771.55	226.73
771.87	226.63
772.20	226.50
772.52	226.46
772.85	226.49
773.17	226.27
773.50	226.06
773.82	225.90
774.15	225.75
774.47	225.39
774.80	225.16
775.12	224.99
775.45	224.85
775.77	224.60
776.09	224.55
776.42	224.38
776.74	224.29
777.07	224.20
777.39	224.04
777.72	223.92
778.04	223.68
778.36	223.49
778.69	223.37
779.01	223.25
779.33	223.03
779.66	222.80
779.98	222.72
780.31	222.55
780.63	222.46
780.95	222.37
781.28	222.37
781.60	222.32
781.92	222.29
782.25	222.23
782.57	222.23
782.89	222.07
