SpectraSuite Data File
++++++++++++++++++++++++++++++++++++
Date: Mon Feb 25 17:31:50 EST 2013
User: group
Dark Spectrum Present: No
Reference Spectrum Present: No
Number of Sampled Component Spectra: 1
Spectrometers: USB2E7196
Integration Time (usec): 52000 (USB2E7196)
Spectra Averaged: 20 (USB2E7196)
Boxcar Smoothing: 10 (USB2E7196)
Correct for Electrical Dark: No (USB2E7196)
Strobe/Lamp Enabled: No (USB2E7196)
Correct for Detector Non-linearity: No (USB2E7196)
Correct for Stray Light: No (USB2E7196)
Number of Pixels in Processed Spectrum: 2048
>>>>>Begin Processed Spectral Data<<<<<
339.09	0.00
339.48	197.70
339.86	199.70
340.24	201.30
340.63	202.85
341.01	207.40
341.39	204.80
341.78	206.50
342.16	207.85
342.54	208.05
342.93	197.71
343.31	207.67
343.69	208.23
344.07	208.68
344.46	209.12
344.84	209.55
345.22	209.73
345.60	210.09
345.99	210.28
346.37	210.44
346.75	210.55
347.13	210.64
347.52	210.76
347.90	210.82
348.28	210.85
348.66	210.98
349.05	211.01
349.43	211.09
349.81	211.14
350.19	211.20
350.57	211.31
350.96	211.42
351.34	211.58
351.72	211.71
352.10	211.89
352.48	211.97
352.87	212.05
353.25	212.07
353.63	212.11
354.01	212.20
354.39	212.22
354.77	212.30
355.15	212.35
355.54	212.33
355.92	212.35
356.30	212.44
356.68	212.57
357.06	212.67
357.44	212.67
357.82	212.70
358.20	212.80
358.58	212.88
358.97	212.97
359.35	213.09
359.73	213.22
360.11	213.28
360.49	213.40
360.87	213.44
361.25	213.52
361.63	213.47
362.01	213.54
362.39	213.62
362.77	213.71
363.15	213.79
363.53	213.84
363.91	213.84
364.29	213.89
364.67	213.74
365.05	213.76
365.43	213.85
365.81	213.99
366.19	214.03
366.57	214.07
366.95	214.04
367.33	213.96
367.71	213.93
368.09	213.93
368.47	213.88
368.85	213.84
369.23	213.94
369.61	214.01
369.99	214.05
370.37	214.11
370.75	214.12
371.13	214.09
371.51	214.08
371.89	214.13
372.27	214.13
372.65	214.12
373.03	214.14
373.41	214.02
373.78	213.92
374.16	213.80
374.54	213.67
374.92	213.63
375.30	213.64
375.68	213.60
376.06	213.61
376.44	213.55
376.82	213.52
377.19	213.40
377.57	213.26
377.95	213.15
378.33	213.07
378.71	212.97
379.09	212.89
379.47	212.87
379.84	212.76
380.22	212.71
380.60	212.66
380.98	212.55
381.36	212.51
381.73	212.44
382.11	212.47
382.49	212.45
382.87	212.37
383.25	212.32
383.62	212.45
384.00	212.30
384.38	212.18
384.76	212.10
385.13	212.17
385.51	212.31
385.89	212.25
386.27	212.30
386.64	212.26
387.02	212.30
387.40	212.15
387.78	212.17
388.15	212.15
388.53	212.07
388.91	212.08
389.29	212.04
389.66	212.05
390.04	212.00
390.42	212.07
390.79	212.07
391.17	212.01
391.55	211.79
391.92	211.85
392.30	211.97
392.68	211.94
393.05	211.91
393.43	211.76
393.81	211.87
394.18	211.74
394.56	211.75
394.94	211.75
395.31	211.79
395.69	211.87
396.06	211.87
396.44	211.89
396.82	211.88
397.19	211.99
397.57	212.02
397.95	212.09
398.32	211.98
398.70	212.07
399.07	212.10
399.45	212.11
399.82	212.18
400.20	212.19
400.58	212.26
400.95	212.24
401.33	212.34
401.70	212.44
402.08	212.57
402.45	212.64
402.83	212.70
403.20	212.82
403.58	212.81
403.95	212.93
404.33	213.05
404.71	213.09
405.08	213.31
405.46	213.36
405.83	213.49
406.21	213.65
406.58	213.85
406.96	213.97
407.33	214.15
407.70	214.27
408.08	214.54
408.45	214.80
408.83	214.97
409.20	215.22
409.58	215.34
409.95	215.56
410.33	215.92
410.70	216.22
411.08	216.59
411.45	216.97
411.82	217.30
412.20	217.84
412.57	218.52
412.95	218.76
413.32	219.32
413.69	219.81
414.07	220.34
414.44	220.90
414.82	221.54
415.19	222.30
415.56	223.00
415.94	223.75
416.31	224.58
416.68	225.51
417.06	226.44
417.43	227.41
417.81	228.50
418.18	229.54
418.55	230.72
418.93	231.94
419.30	233.26
419.67	234.64
420.04	235.98
420.42	237.34
420.79	239.12
421.16	240.79
421.54	242.62
421.91	244.47
422.28	246.31
422.66	248.37
423.03	250.33
423.40	252.51
423.77	254.69
424.15	256.92
424.52	259.21
424.89	261.78
425.26	264.25
425.64	266.54
426.01	269.11
426.38	271.77
426.75	274.46
427.13	277.17
427.50	280.02
427.87	283.07
428.24	286.08
428.61	288.99
428.99	292.11
429.36	295.50
429.73	298.99
430.10	302.47
430.47	305.92
430.85	309.55
431.22	313.36
431.59	317.45
431.96	321.24
432.33	325.56
432.70	329.80
433.08	334.69
433.45	339.32
433.82	343.92
434.19	348.97
434.56	353.97
434.93	358.76
435.30	363.45
435.68	368.61
436.05	373.67
436.42	378.77
436.79	383.64
437.16	388.67
437.53	394.03
437.90	399.18
438.27	404.36
438.64	409.65
439.01	414.64
439.38	418.94
439.75	423.28
440.13	428.11
440.50	432.43
440.87	436.08
441.24	439.75
441.61	443.88
441.98	446.82
442.35	450.26
442.72	453.89
443.09	457.42
443.46	459.60
443.83	461.10
444.20	462.23
444.57	463.75
444.94	464.46
445.31	465.15
445.68	465.81
446.05	466.03
446.42	465.42
446.79	464.57
447.16	463.74
447.53	463.11
447.90	460.92
448.27	458.87
448.64	455.90
449.01	453.82
449.37	450.21
449.74	446.84
450.11	442.92
450.48	438.45
450.85	433.93
451.22	429.98
451.59	426.27
451.96	422.74
452.33	418.07
452.70	413.74
453.07	408.66
453.43	403.57
453.80	398.60
454.17	393.85
454.54	389.26
454.91	384.59
455.28	379.88
455.65	375.61
456.02	371.40
456.38	367.72
456.75	363.19
457.12	359.35
457.49	355.64
457.86	351.84
458.23	348.57
458.59	345.11
458.96	341.60
459.33	338.44
459.70	335.32
460.07	332.85
460.43	330.09
460.80	327.32
461.17	324.94
461.54	322.49
461.91	320.23
462.27	317.91
462.64	315.76
463.01	313.53
463.38	311.47
463.74	309.27
464.11	307.42
464.48	305.85
464.85	304.19
465.21	302.82
465.58	301.36
465.95	299.68
466.32	298.28
466.68	296.84
467.05	295.44
467.42	294.05
467.78	292.63
468.15	291.30
468.52	290.40
468.88	289.10
469.25	287.89
469.62	286.92
469.98	286.06
470.35	285.27
470.72	284.45
471.08	283.40
471.45	282.63
471.82	281.95
472.18	281.09
472.55	280.50
472.92	279.65
473.28	279.05
473.65	278.55
474.02	277.95
474.38	277.56
474.75	277.21
475.11	276.90
475.48	276.63
475.85	276.42
476.21	276.23
476.58	276.14
476.94	276.20
477.31	276.12
477.67	276.02
478.04	275.97
478.41	276.13
478.77	276.49
479.14	276.58
479.50	276.83
479.87	277.23
480.23	277.62
480.60	278.06
480.96	278.53
481.33	279.16
481.69	279.77
482.06	280.37
482.42	281.02
482.79	281.61
483.15	282.47
483.52	283.43
483.88	284.33
484.25	285.32
484.61	286.34
484.98	287.49
485.34	288.77
485.71	290.22
486.07	291.61
486.44	292.85
486.80	294.48
487.17	296.08
487.53	297.69
487.90	299.48
488.26	301.43
488.62	303.47
488.99	305.46
489.35	307.70
489.72	310.09
490.08	312.51
490.44	315.03
490.81	317.73
491.17	320.36
491.54	323.20
491.90	326.23
492.26	329.44
492.63	332.74
492.99	336.13
493.36	339.66
493.72	343.38
494.08	347.36
494.45	351.56
494.81	355.97
495.17	360.64
495.54	365.52
495.90	370.52
496.26	375.72
496.63	381.26
496.99	386.91
497.35	392.75
497.72	399.11
498.08	405.66
498.44	412.27
498.80	419.50
499.17	426.93
499.53	434.65
499.89	442.66
500.26	450.83
500.62	459.22
500.98	467.96
501.34	477.22
501.71	486.77
502.07	496.45
502.43	506.47
502.79	516.58
503.16	527.16
503.52	538.07
503.88	549.36
504.24	560.77
504.60	572.68
504.97	585.03
505.33	597.30
505.69	610.47
506.05	623.93
506.41	637.54
506.78	651.36
507.14	665.45
507.50	679.86
507.86	694.66
508.22	710.01
508.59	725.68
508.95	741.45
509.31	757.58
509.67	774.26
510.03	791.05
510.39	808.41
510.75	826.16
511.12	844.01
511.48	862.25
511.84	880.85
512.20	899.37
512.56	918.66
512.92	938.08
513.28	957.49
513.64	977.00
514.00	996.86
514.37	1017.16
514.73	1037.65
515.09	1058.60
515.45	1079.58
515.81	1100.51
516.17	1121.39
516.53	1142.66
516.89	1164.09
517.25	1185.55
517.61	1207.21
517.97	1228.49
518.33	1249.68
518.69	1271.38
519.05	1293.17
519.41	1315.21
519.77	1337.58
520.13	1359.33
520.49	1381.28
520.85	1403.57
521.21	1426.02
521.57	1448.56
521.93	1470.18
522.29	1492.85
522.65	1515.03
523.01	1537.35
523.37	1559.49
523.73	1581.99
524.09	1603.95
524.45	1626.09
524.81	1647.92
525.17	1669.92
525.53	1692.51
525.89	1714.87
526.25	1736.68
526.61	1757.81
526.97	1779.42
527.33	1800.46
527.68	1821.81
528.04	1842.85
528.40	1863.23
528.76	1883.70
529.12	1904.43
529.48	1926.26
529.84	1946.49
530.20	1966.57
530.56	1986.64
530.91	2007.02
531.27	2026.93
531.63	2046.84
531.99	2066.52
532.35	2085.79
532.71	2104.57
533.07	2123.72
533.42	2141.93
533.78	2160.57
534.14	2178.63
534.50	2195.46
534.86	2213.49
535.21	2230.01
535.57	2247.77
535.93	2265.20
536.29	2281.88
536.65	2298.12
537.00	2312.96
537.36	2327.97
537.72	2343.19
538.08	2358.15
538.44	2373.30
538.79	2388.37
539.15	2403.17
539.51	2417.58
539.87	2432.57
540.22	2446.92
540.58	2461.60
540.94	2475.84
541.29	2488.63
541.65	2500.83
542.01	2513.91
542.37	2525.47
542.72	2537.88
543.08	2548.61
543.44	2560.09
543.79	2570.07
544.15	2580.18
544.51	2591.43
544.87	2602.10
545.22	2611.02
545.58	2619.65
545.94	2626.54
546.29	2632.72
546.65	2638.88
547.01	2644.78
547.36	2650.30
547.72	2655.66
548.07	2659.25
548.43	2663.34
548.79	2667.34
549.14	2672.10
549.50	2676.37
549.86	2680.13
550.21	2683.84
550.57	2687.85
550.92	2690.12
551.28	2692.53
551.64	2695.00
551.99	2697.00
552.35	2698.80
552.70	2701.40
553.06	2703.87
553.41	2707.17
553.77	2710.54
554.13	2712.48
554.48	2714.35
554.84	2715.60
555.19	2716.16
555.55	2716.82
555.90	2717.20
556.26	2717.47
556.61	2717.27
556.97	2715.79
557.32	2715.16
557.68	2713.37
558.03	2711.59
558.39	2709.85
558.74	2709.83
559.10	2708.67
559.45	2706.67
559.81	2705.43
560.16	2703.00
560.52	2700.43
560.87	2697.33
561.23	2693.49
561.58	2691.14
561.94	2687.93
562.29	2684.24
562.64	2681.82
563.00	2679.25
563.35	2676.51
563.71	2674.77
564.06	2672.70
564.42	2671.05
564.77	2668.84
565.12	2667.09
565.48	2664.00
565.83	2661.34
566.19	2657.86
566.54	2653.56
566.89	2649.68
567.25	2645.83
567.60	2642.13
567.96	2638.61
568.31	2635.01
568.66	2631.12
569.02	2626.67
569.37	2621.63
569.72	2617.91
570.08	2612.52
570.43	2606.69
570.78	2601.12
571.14	2594.60
571.49	2587.85
571.84	2581.97
572.20	2574.95
572.55	2568.18
572.90	2561.43
573.26	2554.78
573.61	2547.39
573.96	2541.09
574.31	2533.50
574.67	2525.47
575.02	2517.14
575.37	2508.28
575.72	2499.14
576.08	2491.52
576.43	2482.89
576.78	2475.20
577.13	2467.15
577.49	2459.25
577.84	2451.88
578.19	2444.28
578.54	2437.03
578.90	2430.28
579.25	2421.57
579.60	2412.65
579.95	2403.66
580.30	2395.63
580.66	2386.82
581.01	2378.13
581.36	2368.35
581.71	2360.08
582.06	2351.40
582.42	2343.34
582.77	2334.79
583.12	2325.96
583.47	2317.36
583.82	2309.18
584.17	2299.85
584.53	2290.88
584.88	2282.10
585.23	2272.94
585.58	2263.46
585.93	2253.87
586.28	2244.60
586.63	2235.85
586.98	2227.83
587.34	2219.45
587.69	2210.25
588.04	2201.56
588.39	2193.69
588.74	2185.16
589.09	2176.52
589.44	2167.42
589.79	2159.18
590.14	2151.20
590.49	2142.78
590.84	2133.55
591.19	2125.42
591.54	2117.22
591.89	2107.20
592.25	2098.17
592.60	2088.75
592.95	2079.36
593.30	2070.06
593.65	2060.44
594.00	2050.62
594.35	2042.48
594.70	2033.41
595.05	2025.12
595.40	2016.48
595.75	2006.86
596.10	1998.99
596.45	1990.33
596.80	1982.54
597.15	1974.18
597.50	1964.95
597.85	1956.85
598.19	1948.37
598.54	1939.55
598.89	1931.55
599.24	1924.91
599.59	1917.82
599.94	1910.98
600.29	1903.58
600.64	1895.67
600.99	1887.19
601.34	1880.43
601.69	1871.66
602.04	1863.65
602.39	1855.55
602.74	1847.79
603.08	1841.03
603.43	1833.42
603.78	1825.49
604.13	1817.29
604.48	1809.34
604.83	1802.69
605.18	1795.84
605.53	1788.45
605.87	1780.88
606.22	1773.79
606.57	1765.94
606.92	1757.65
607.27	1749.83
607.62	1742.55
607.96	1735.66
608.31	1729.40
608.66	1721.63
609.01	1714.13
609.36	1706.42
609.70	1698.72
610.05	1691.12
610.40	1682.98
610.75	1674.65
611.10	1667.06
611.44	1658.31
611.79	1649.30
612.14	1640.05
612.49	1630.49
612.83	1621.88
613.18	1612.38
613.53	1603.01
613.88	1593.38
614.22	1584.80
614.57	1575.55
614.92	1566.17
615.27	1557.01
615.61	1547.72
615.96	1538.77
616.31	1530.41
616.65	1522.84
617.00	1514.62
617.35	1505.87
617.70	1497.04
618.04	1488.11
618.39	1478.83
618.74	1470.60
619.08	1462.05
619.43	1454.07
619.78	1445.98
620.12	1438.07
620.47	1430.65
620.82	1422.17
621.16	1414.15
621.51	1405.60
621.85	1397.30
622.20	1389.12
622.55	1380.64
622.89	1372.42
623.24	1364.58
623.59	1356.08
623.93	1347.31
624.28	1338.99
624.62	1331.05
624.97	1323.09
625.32	1315.28
625.66	1308.22
626.01	1300.94
626.35	1293.94
626.70	1286.15
627.04	1279.07
627.39	1271.41
627.73	1263.88
628.08	1257.18
628.43	1249.89
628.77	1242.83
629.12	1235.49
629.46	1228.97
629.81	1222.08
630.15	1214.95
630.50	1207.36
630.84	1199.91
631.19	1192.64
631.53	1185.90
631.88	1178.28
632.22	1170.77
632.57	1164.05
632.91	1156.50
633.26	1148.89
633.60	1141.69
633.95	1134.83
634.29	1127.67
634.64	1121.06
634.98	1113.97
635.32	1106.97
635.67	1100.42
636.01	1093.74
636.36	1087.12
636.70	1080.27
637.05	1073.85
637.39	1067.41
637.73	1061.48
638.08	1056.08
638.42	1050.29
638.77	1043.73
639.11	1037.61
639.45	1031.60
639.80	1025.15
640.14	1018.87
640.49	1012.75
640.83	1006.62
641.17	1000.55
641.52	994.54
641.86	987.99
642.20	981.90
642.55	975.04
642.89	968.75
643.23	962.34
643.58	956.43
643.92	949.95
644.26	943.61
644.61	937.51
644.95	931.38
645.29	924.84
645.64	918.37
645.98	912.24
646.32	906.37
646.66	900.28
647.01	894.31
647.35	888.52
647.69	882.43
648.04	876.43
648.38	870.23
648.72	864.18
649.06	858.19
649.41	852.22
649.75	846.73
650.09	840.80
650.43	835.00
650.78	828.65
651.12	822.84
651.46	817.19
651.80	811.61
652.14	805.52
652.49	799.60
652.83	793.90
653.17	787.94
653.51	782.26
653.85	776.54
654.20	770.73
654.54	764.95
654.88	759.46
655.22	753.74
655.56	748.06
655.90	742.21
656.25	736.67
656.59	731.27
656.93	726.05
657.27	721.03
657.61	715.61
657.95	710.80
658.29	705.72
658.64	700.42
658.98	695.07
659.32	689.77
659.66	684.80
660.00	679.55
660.34	674.38
660.68	669.10
661.02	664.20
661.36	659.61
661.70	654.80
662.05	650.21
662.39	646.00
662.73	641.71
663.07	637.44
663.41	633.13
663.75	628.57
664.09	623.99
664.43	619.13
664.77	614.91
665.11	610.18
665.45	605.84
665.79	601.56
666.13	597.32
666.47	593.25
666.81	589.12
667.15	584.96
667.49	581.15
667.83	577.37
668.17	573.56
668.51	569.61
668.85	565.95
669.19	562.17
669.53	558.14
669.87	554.13
670.21	550.30
670.55	546.43
670.89	543.10
671.23	539.68
671.57	536.40
671.91	532.80
672.25	529.48
672.58	526.02
672.92	522.65
673.26	519.42
673.60	516.25
673.94	512.92
674.28	509.71
674.62	506.44
674.96	503.31
675.30	500.32
675.64	497.27
675.97	494.04
676.31	491.14
676.65	488.29
676.99	485.66
677.33	482.75
677.67	479.77
678.01	476.51
678.34	473.54
678.68	470.61
679.02	467.63
679.36	464.75
679.70	461.86
680.04	459.01
680.37	456.04
680.71	453.17
681.05	450.61
681.39	447.91
681.73	445.37
682.06	442.82
682.40	440.15
682.74	437.52
683.08	435.09
683.42	432.38
683.75	429.76
684.09	427.07
684.43	424.64
684.77	422.22
685.10	419.83
685.44	417.25
685.78	414.93
686.12	412.71
686.45	410.52
686.79	408.32
687.13	406.20
687.46	404.10
687.80	402.08
688.14	399.71
688.48	397.66
688.81	395.49
689.15	393.24
689.49	391.05
689.82	388.90
690.16	386.58
690.50	384.26
690.83	381.98
691.17	379.79
691.51	377.47
691.84	375.41
692.18	373.37
692.52	371.39
692.85	369.37
693.19	367.58
693.52	365.58
693.86	363.60
694.20	361.74
694.53	359.75
694.87	357.65
695.21	355.88
695.54	353.94
695.88	351.97
696.21	350.18
696.55	348.45
696.88	346.66
697.22	345.04
697.56	343.55
697.89	342.00
698.23	340.43
698.56	338.92
698.90	337.42
699.23	335.87
699.57	334.45
699.90	332.79
700.24	331.06
700.58	329.54
700.91	328.06
701.25	326.62
701.58	325.21
701.92	323.84
702.25	322.41
702.59	321.05
702.92	319.75
703.26	318.31
703.59	317.04
703.93	315.97
704.26	314.65
704.60	313.28
704.93	312.05
705.26	310.75
705.60	309.61
705.93	308.34
706.27	307.23
706.60	306.06
706.94	305.03
707.27	303.95
707.61	302.86
707.94	301.75
708.27	300.48
708.61	299.44
708.94	298.38
709.28	297.14
709.61	296.13
709.94	295.12
710.28	294.16
710.61	293.10
710.95	291.89
711.28	291.02
711.61	290.09
711.95	289.10
712.28	288.14
712.61	287.09
712.95	286.14
713.28	285.22
713.61	284.23
713.95	283.27
714.28	282.40
714.61	281.53
714.95	280.64
715.28	279.67
715.61	278.68
715.95	277.74
716.28	276.94
716.61	276.12
716.95	275.24
717.28	274.31
717.61	273.47
717.94	272.59
718.28	271.70
718.61	270.93
718.94	270.25
719.27	269.52
719.61	268.80
719.94	268.22
720.27	267.42
720.60	266.69
720.94	266.01
721.27	265.25
721.60	264.62
721.93	264.04
722.27	263.48
722.60	262.97
722.93	262.46
723.26	261.97
723.59	261.29
723.93	260.75
724.26	260.22
724.59	259.69
724.92	259.26
725.25	258.64
725.59	258.17
725.92	257.60
726.25	257.10
726.58	256.65
726.91	255.95
727.24	255.52
727.57	255.06
727.91	254.46
728.24	254.08
728.57	253.63
728.90	253.09
729.23	252.65
729.56	252.21
729.89	251.67
730.22	251.09
730.55	250.65
730.89	250.16
731.22	249.72
731.55	249.22
731.88	248.68
732.21	248.29
732.54	247.82
732.87	247.28
733.20	246.78
733.53	246.32
733.86	245.92
734.19	245.50
734.52	245.11
734.85	244.91
735.18	244.50
735.51	244.06
735.84	243.70
736.17	243.42
736.50	242.94
736.83	242.83
737.16	242.52
737.49	242.18
737.82	241.83
738.15	241.45
738.48	241.15
738.81	240.83
739.14	240.46
739.47	240.10
739.80	239.85
740.13	239.61
740.46	239.22
740.79	238.93
741.12	238.45
741.45	238.15
741.78	237.78
742.11	237.41
742.44	237.10
742.77	236.78
743.10	236.37
743.43	236.13
743.75	235.61
744.08	235.47
744.41	235.25
744.74	234.99
745.07	234.65
745.40	234.35
745.73	234.13
746.06	233.88
746.39	233.55
746.71	233.22
747.04	232.87
747.37	232.61
747.70	232.32
748.03	232.09
748.36	231.86
748.68	231.58
749.01	231.27
749.34	230.97
749.67	230.81
750.00	230.55
750.33	230.40
750.65	230.16
750.98	229.77
751.31	229.44
751.64	229.12
751.97	229.02
752.29	228.83
752.62	228.54
752.95	228.34
753.28	228.08
753.60	227.74
753.93	227.62
754.26	227.41
754.59	227.22
754.91	227.03
755.24	226.78
755.57	226.60
755.90	226.54
756.22	226.35
756.55	226.06
756.88	225.88
757.20	225.55
757.53	225.25
757.86	225.05
758.19	224.94
758.51	224.81
758.84	224.56
759.17	224.34
759.49	224.22
759.82	224.10
760.15	224.00
760.47	223.93
760.80	223.70
761.13	223.57
761.45	223.34
761.78	223.26
762.11	223.11
762.43	222.94
762.76	222.76
763.08	222.69
763.41	222.65
763.74	222.43
764.06	222.32
764.39	222.28
764.71	222.07
765.04	221.88
765.37	221.70
765.69	221.56
766.02	221.40
766.34	221.22
766.67	221.03
767.00	220.97
767.32	221.01
767.65	221.08
767.97	220.92
768.30	220.89
768.62	220.72
768.95	220.60
769.27	220.49
769.60	220.38
769.92	220.19
770.25	219.96
770.57	219.90
770.90	219.77
771.22	219.65
771.55	219.55
771.87	219.47
772.20	219.44
772.52	219.47
772.85	219.66
773.17	219.48
773.50	219.41
773.82	219.24
774.15	218.99
774.47	218.72
774.80	218.63
775.12	218.50
775.45	218.34
775.77	218.27
776.09	218.19
776.42	218.03
776.74	218.07
777.07	217.99
777.39	217.93
777.72	217.87
778.04	217.82
778.36	217.85
778.69	217.74
779.01	217.65
779.33	217.44
779.66	217.07
779.98	217.08
780.31	217.00
780.63	217.04
780.95	217.04
781.28	217.02
781.60	216.92
781.92	216.84
782.25	216.85
782.57	216.75
782.89	216.65
783.22	216.57
783.54	216.44
783.86	216.43
784.19	216.32
784.51	216.29
784.83	216.19
785.16	216.08
785.48	216.09
785.80	215.97
786.12	215.95
786.45	215.91
