SpectraSuite Data File
++++++++++++++++++++++++++++++++++++
Date: Mon Feb 25 17:30:55 EST 2013
User: group
Dark Spectrum Present: No
Reference Spectrum Present: No
Number of Sampled Component Spectra: 1
Spectrometers: USB2E7196
Integration Time (usec): 52000 (USB2E7196)
Spectra Averaged: 20 (USB2E7196)
Boxcar Smoothing: 10 (USB2E7196)
Correct for Electrical Dark: No (USB2E7196)
Strobe/Lamp Enabled: No (USB2E7196)
Correct for Detector Non-linearity: No (USB2E7196)
Correct for Stray Light: No (USB2E7196)
Number of Pixels in Processed Spectrum: 2048
>>>>>Begin Processed Spectral Data<<<<<
339.09	0.00
339.48	199.70
339.86	201.55
340.24	201.30
340.63	202.55
341.01	207.60
341.39	206.00
341.78	206.70
342.16	209.50
342.54	209.05
342.93	198.18
343.31	208.22
343.69	208.67
344.07	209.10
344.46	209.57
344.84	209.99
345.22	210.13
345.60	210.39
345.99	210.65
346.37	210.75
346.75	210.83
347.13	210.95
347.52	210.98
347.90	211.07
348.28	211.19
348.66	211.25
349.05	211.25
349.43	211.31
349.81	211.43
350.19	211.47
350.57	211.48
350.96	211.57
351.34	211.69
351.72	211.83
352.10	211.87
352.48	211.98
352.87	212.01
353.25	212.06
353.63	212.12
354.01	212.17
354.39	212.24
354.77	212.34
355.15	212.48
355.54	212.57
355.92	212.60
356.30	212.69
356.68	212.86
357.06	212.89
357.44	212.99
357.82	213.02
358.20	213.08
358.58	213.20
358.97	213.28
359.35	213.35
359.73	213.41
360.11	213.50
360.49	213.55
360.87	213.64
361.25	213.67
361.63	213.83
362.01	213.86
362.39	213.90
362.77	213.97
363.15	213.93
363.53	213.98
363.91	214.05
364.29	213.97
364.67	213.89
365.05	213.94
365.43	213.91
365.81	213.96
366.19	214.02
366.57	214.11
366.95	214.10
367.33	214.02
367.71	214.06
368.09	214.15
368.47	214.13
368.85	214.10
369.23	214.20
369.61	214.10
369.99	214.13
370.37	214.09
370.75	214.17
371.13	214.16
371.51	214.08
371.89	213.98
372.27	214.06
372.65	213.96
373.03	213.90
373.41	213.92
373.78	213.87
374.16	213.82
374.54	213.78
374.92	213.77
375.30	213.78
375.68	213.64
376.06	213.50
376.44	213.38
376.82	213.37
377.19	213.37
377.57	213.29
377.95	213.19
378.33	213.11
378.71	212.91
379.09	212.91
379.47	212.89
379.84	212.90
380.22	212.76
380.60	212.74
380.98	212.70
381.36	212.63
381.73	212.53
382.11	212.48
382.49	212.42
382.87	212.32
383.25	212.30
383.62	212.52
384.00	212.40
384.38	212.49
384.76	212.51
385.13	212.51
385.51	212.42
385.89	212.39
386.27	212.43
386.64	212.39
387.02	212.27
387.40	212.29
387.78	212.23
388.15	212.17
388.53	212.13
388.91	212.04
389.29	212.00
389.66	212.06
390.04	212.08
390.42	211.96
390.79	211.97
391.17	211.86
391.55	211.66
391.92	211.69
392.30	211.61
392.68	211.48
393.05	211.40
393.43	211.47
393.81	211.49
394.18	211.39
394.56	211.41
394.94	211.44
395.31	211.39
395.69	211.55
396.06	211.61
396.44	211.55
396.82	211.60
397.19	211.67
397.57	211.64
397.95	211.60
398.32	211.62
398.70	211.65
399.07	211.71
399.45	211.73
399.82	211.80
400.20	211.90
400.58	211.98
400.95	211.96
401.33	212.01
401.70	212.14
402.08	212.25
402.45	212.33
402.83	212.46
403.20	212.62
403.58	212.60
403.95	212.72
404.33	212.89
404.71	213.00
405.08	213.25
405.46	213.36
405.83	213.54
406.21	213.70
406.58	213.82
406.96	213.99
407.33	214.14
407.70	214.29
408.08	214.56
408.45	214.72
408.83	215.08
409.20	215.30
409.58	215.41
409.95	215.76
410.33	216.05
410.70	216.24
411.08	216.51
411.45	216.79
411.82	217.09
412.20	217.55
412.57	218.02
412.95	218.23
413.32	218.69
413.69	219.19
414.07	219.77
414.44	220.43
414.82	221.03
415.19	221.77
415.56	222.56
415.94	223.22
416.31	224.09
416.68	224.78
417.06	225.71
417.43	226.67
417.81	227.63
418.18	228.69
418.55	229.86
418.93	231.10
419.30	232.36
419.67	233.71
420.04	235.03
420.42	236.50
420.79	238.40
421.16	240.01
421.54	241.79
421.91	243.60
422.28	245.44
422.66	247.43
423.03	249.42
423.40	251.48
423.77	253.66
424.15	255.86
424.52	258.22
424.89	260.81
425.26	263.30
425.64	265.62
426.01	268.20
426.38	270.86
426.75	273.57
427.13	276.42
427.50	279.50
427.87	282.62
428.24	285.63
428.61	288.34
428.99	291.64
429.36	295.07
429.73	298.41
430.10	301.79
430.47	305.37
430.85	308.91
431.22	312.63
431.59	316.76
431.96	320.59
432.33	324.75
432.70	328.82
433.08	333.66
433.45	338.34
433.82	342.81
434.19	347.82
434.56	352.65
434.93	357.30
435.30	361.77
435.68	366.87
436.05	371.96
436.42	376.99
436.79	381.58
437.16	386.55
437.53	391.73
437.90	396.87
438.27	401.85
438.64	407.13
439.01	412.00
439.38	416.15
439.75	420.33
440.13	425.01
440.50	429.40
440.87	432.93
441.24	436.60
441.61	440.69
441.98	443.62
442.35	447.12
442.72	450.63
443.09	454.16
443.46	456.15
443.83	457.48
444.20	458.64
444.57	460.40
444.94	461.12
445.31	461.95
445.68	462.76
446.05	462.97
446.42	462.30
446.79	461.60
447.16	460.89
447.53	460.28
447.90	458.25
448.27	456.36
448.64	453.43
449.01	451.40
449.37	447.90
449.74	444.62
450.11	440.61
450.48	436.30
450.85	431.78
451.22	427.96
451.59	424.27
451.96	420.88
452.33	416.18
452.70	411.97
453.07	406.96
453.43	401.73
453.80	396.80
454.17	392.10
454.54	387.60
454.91	382.77
455.28	378.24
455.65	374.09
456.02	369.85
456.38	366.38
456.75	361.79
457.12	358.03
457.49	354.22
457.86	350.66
458.23	347.53
458.59	344.03
458.96	340.51
459.33	337.44
459.70	334.32
460.07	331.84
460.43	329.03
460.80	326.33
461.17	324.09
461.54	321.75
461.91	319.52
462.27	317.22
462.64	315.30
463.01	313.08
463.38	310.91
463.74	308.69
464.11	306.79
464.48	305.14
464.85	303.45
465.21	302.19
465.58	300.65
465.95	299.08
466.32	297.72
466.68	296.47
467.05	295.07
467.42	293.71
467.78	292.30
468.15	290.87
468.52	289.94
468.88	288.65
469.25	287.53
469.62	286.57
469.98	285.58
470.35	284.70
470.72	283.87
471.08	283.03
471.45	282.20
471.82	281.42
472.18	280.62
472.55	280.03
472.92	279.33
473.28	278.81
473.65	278.16
474.02	277.59
474.38	277.10
474.75	276.85
475.11	276.46
475.48	276.20
475.85	276.12
476.21	275.93
476.58	275.78
476.94	275.81
477.31	275.76
477.67	275.81
478.04	275.88
478.41	275.97
478.77	276.26
479.14	276.45
479.50	276.75
479.87	277.17
480.23	277.55
480.60	277.80
480.96	278.18
481.33	278.84
481.69	279.48
482.06	280.13
482.42	280.80
482.79	281.52
483.15	282.49
483.52	283.45
483.88	284.29
484.25	285.31
484.61	286.26
484.98	287.42
485.34	288.64
485.71	289.96
486.07	291.44
486.44	292.76
486.80	294.32
487.17	295.91
487.53	297.55
487.90	299.40
488.26	301.49
488.62	303.62
488.99	305.69
489.35	307.97
489.72	310.27
490.08	312.69
490.44	315.16
490.81	317.65
491.17	320.35
491.54	323.35
491.90	326.38
492.26	329.59
492.63	333.03
492.99	336.46
493.36	340.05
493.72	343.74
494.08	347.77
494.45	351.99
494.81	356.46
495.17	361.10
495.54	365.86
495.90	370.73
496.26	375.86
496.63	381.37
496.99	386.95
497.35	392.91
497.72	399.19
498.08	405.77
498.44	412.43
498.80	419.50
499.17	426.77
499.53	434.42
499.89	442.31
500.26	450.44
500.62	458.79
500.98	467.59
501.34	476.71
501.71	486.04
502.07	495.67
502.43	505.58
502.79	515.67
503.16	526.29
503.52	537.21
503.88	548.45
504.24	559.85
504.60	571.63
504.97	583.84
505.33	596.21
505.69	609.30
506.05	622.72
506.41	636.16
506.78	649.89
507.14	663.89
507.50	678.30
507.86	693.10
508.22	708.47
508.59	723.84
508.95	739.87
509.31	755.91
509.67	772.39
510.03	789.12
510.39	806.62
510.75	824.24
511.12	842.18
511.48	860.25
511.84	878.91
512.20	897.47
512.56	916.28
512.92	935.42
513.28	954.59
513.64	974.10
514.00	993.82
514.37	1014.20
514.73	1034.70
515.09	1055.40
515.45	1075.78
515.81	1096.70
516.17	1117.73
516.53	1138.51
516.89	1159.89
517.25	1181.17
517.61	1202.41
517.97	1223.50
518.33	1244.69
518.69	1266.19
519.05	1287.89
519.41	1309.68
519.77	1331.97
520.13	1353.73
520.49	1375.50
520.85	1397.79
521.21	1419.94
521.57	1442.69
521.93	1464.11
522.29	1486.43
522.65	1508.72
523.01	1531.26
523.37	1552.62
523.73	1574.65
524.09	1596.78
524.45	1618.81
524.81	1640.88
525.17	1663.25
525.53	1685.52
525.89	1707.41
526.25	1728.95
526.61	1749.93
526.97	1771.18
527.33	1792.10
527.68	1813.25
528.04	1834.34
528.40	1854.34
528.76	1874.87
529.12	1895.10
529.48	1916.51
529.84	1936.58
530.20	1956.23
530.56	1975.89
530.91	1996.48
531.27	2016.18
531.63	2035.53
531.99	2054.69
532.35	2073.32
532.71	2091.86
533.07	2110.89
533.42	2129.24
533.78	2147.71
534.14	2165.80
534.50	2182.55
534.86	2200.16
535.21	2216.90
535.57	2234.17
535.93	2251.12
536.29	2267.12
536.65	2283.15
537.00	2298.21
537.36	2313.16
537.72	2328.20
538.08	2343.10
538.44	2357.66
538.79	2372.37
539.15	2386.94
539.51	2401.47
539.87	2416.05
540.22	2429.97
540.58	2444.06
540.94	2458.03
541.29	2470.54
541.65	2482.37
542.01	2494.98
542.37	2506.74
542.72	2518.75
543.08	2529.04
543.44	2540.63
543.79	2550.89
544.15	2560.91
544.51	2571.53
544.87	2581.88
545.22	2590.63
545.58	2598.85
545.94	2605.86
546.29	2612.41
546.65	2618.43
547.01	2623.95
547.36	2629.47
547.72	2634.77
548.07	2638.57
548.43	2641.74
548.79	2645.10
549.14	2649.27
549.50	2653.26
549.86	2656.81
550.21	2660.05
550.57	2664.01
550.92	2666.21
551.28	2668.37
551.64	2670.14
551.99	2672.16
552.35	2673.57
552.70	2676.13
553.06	2678.20
553.41	2680.95
553.77	2683.34
554.13	2685.39
554.48	2687.11
554.84	2688.50
555.19	2688.75
555.55	2688.88
555.90	2689.80
556.26	2689.81
556.61	2689.88
556.97	2688.49
557.32	2687.71
557.68	2685.72
558.03	2684.26
558.39	2682.32
558.74	2682.15
559.10	2681.08
559.45	2678.98
559.81	2677.83
560.16	2674.90
560.52	2672.36
560.87	2669.37
561.23	2665.81
561.58	2663.25
561.94	2660.22
562.29	2656.23
562.64	2653.97
563.00	2651.50
563.35	2649.02
563.71	2647.60
564.06	2644.97
564.42	2643.28
564.77	2640.41
565.12	2638.52
565.48	2634.87
565.83	2632.13
566.19	2628.35
566.54	2623.90
566.89	2619.89
567.25	2616.10
567.60	2612.77
567.96	2609.40
568.31	2605.65
568.66	2601.82
569.02	2597.38
569.37	2592.09
569.72	2588.47
570.08	2583.35
570.43	2577.91
570.78	2571.87
571.14	2565.67
571.49	2559.18
571.84	2553.30
572.20	2546.50
572.55	2540.20
572.90	2533.76
573.26	2526.79
573.61	2519.69
573.96	2513.66
574.31	2505.94
574.67	2497.65
575.02	2489.39
575.37	2480.80
575.72	2472.09
576.08	2464.30
576.43	2455.49
576.78	2447.72
577.13	2439.63
577.49	2431.60
577.84	2423.61
578.19	2416.22
578.54	2408.70
578.90	2402.07
579.25	2393.48
579.60	2384.54
579.95	2375.48
580.30	2367.56
580.66	2359.59
581.01	2351.10
581.36	2341.97
581.71	2333.94
582.06	2325.93
582.42	2318.25
582.77	2309.44
583.12	2300.71
583.47	2292.40
583.82	2284.42
584.17	2275.47
584.53	2266.59
584.88	2257.89
585.23	2249.26
585.58	2239.84
585.93	2230.29
586.28	2221.20
586.63	2212.37
586.98	2204.61
587.34	2196.34
587.69	2187.33
588.04	2178.38
588.39	2169.94
588.74	2160.93
589.09	2152.37
589.44	2142.90
589.79	2133.97
590.14	2126.30
590.49	2118.23
590.84	2109.55
591.19	2101.75
591.54	2093.43
591.89	2083.35
592.25	2074.21
592.60	2065.01
592.95	2056.09
593.30	2047.14
593.65	2037.58
594.00	2027.93
594.35	2020.10
594.70	2011.10
595.05	2002.77
595.40	1994.36
595.75	1985.24
596.10	1977.43
596.45	1969.25
596.80	1961.65
597.15	1953.45
597.50	1944.59
597.85	1936.50
598.19	1927.78
598.54	1919.23
598.89	1911.49
599.24	1905.01
599.59	1897.86
599.94	1890.76
600.29	1882.99
600.64	1875.45
600.99	1867.20
601.34	1860.55
601.69	1851.40
602.04	1843.78
602.39	1835.55
602.74	1827.66
603.08	1821.30
603.43	1814.20
603.78	1805.99
604.13	1798.15
604.48	1790.47
604.83	1783.68
605.18	1776.88
605.53	1769.63
605.87	1762.36
606.22	1755.65
606.57	1748.22
606.92	1740.23
607.27	1732.55
607.62	1725.58
607.96	1718.76
608.31	1712.99
608.66	1705.44
609.01	1698.16
609.36	1690.63
609.70	1682.95
610.05	1675.42
610.40	1667.43
610.75	1659.24
611.10	1652.04
611.44	1643.14
611.79	1634.56
612.14	1625.53
612.49	1615.89
612.83	1607.33
613.18	1597.40
613.53	1587.92
613.88	1578.20
614.22	1569.68
614.57	1560.47
614.92	1551.14
615.27	1541.89
615.61	1532.38
615.96	1523.34
616.31	1515.15
616.65	1507.39
617.00	1499.61
617.35	1491.30
617.70	1482.44
618.04	1473.54
618.39	1464.43
618.74	1456.20
619.08	1447.63
619.43	1439.47
619.78	1432.00
620.12	1424.11
620.47	1416.70
620.82	1408.65
621.16	1400.68
621.51	1392.53
621.85	1384.63
622.20	1376.34
622.55	1368.16
622.89	1360.06
623.24	1352.25
623.59	1343.80
623.93	1335.47
624.28	1327.15
624.62	1319.01
624.97	1310.91
625.32	1303.18
625.66	1296.06
626.01	1288.99
626.35	1282.09
626.70	1274.80
627.04	1267.40
627.39	1260.11
627.73	1252.73
628.08	1245.83
628.43	1238.62
628.77	1231.36
629.12	1224.03
629.46	1217.65
629.81	1210.44
630.15	1203.30
630.50	1196.39
630.84	1189.39
631.19	1182.26
631.53	1175.67
631.88	1168.33
632.22	1160.94
632.57	1153.85
632.91	1146.41
633.26	1139.15
633.60	1132.10
633.95	1125.26
634.29	1118.02
634.64	1111.06
634.98	1104.17
635.32	1097.05
635.67	1090.71
636.01	1084.18
636.36	1077.54
636.70	1070.76
637.05	1064.42
637.39	1058.09
637.73	1051.72
638.08	1045.91
638.42	1039.95
638.77	1033.60
639.11	1027.30
639.45	1021.73
639.80	1015.59
640.14	1009.41
640.49	1003.27
640.83	997.01
641.17	990.71
641.52	984.68
641.86	978.62
642.20	972.79
642.55	966.25
642.89	959.94
643.23	953.71
643.58	948.00
643.92	941.76
644.26	935.65
644.61	929.62
644.95	923.41
645.29	917.30
645.64	910.88
645.98	904.66
646.32	899.00
646.66	892.67
647.01	886.71
647.35	881.01
647.69	874.87
648.04	869.05
648.38	863.26
648.72	857.44
649.06	851.42
649.41	845.41
649.75	839.87
650.09	834.17
650.43	828.33
650.78	822.11
651.12	816.26
651.46	810.55
651.80	804.85
652.14	799.17
652.49	793.27
652.83	787.60
653.17	781.66
653.51	776.07
653.85	770.69
654.20	765.14
654.54	759.30
654.88	754.03
655.22	748.40
655.56	742.50
655.90	736.90
656.25	731.33
656.59	725.77
656.93	720.60
657.27	715.45
657.61	710.01
657.95	705.14
658.29	700.15
658.64	695.20
658.98	690.11
659.32	684.77
659.66	679.70
660.00	674.46
660.34	669.46
660.68	664.21
661.02	659.05
661.36	654.27
661.70	649.58
662.05	644.85
662.39	640.47
662.73	636.31
663.07	631.93
663.41	627.60
663.75	623.18
664.09	618.53
664.43	614.02
664.77	609.71
665.11	605.29
665.45	601.11
665.79	596.78
666.13	592.45
666.47	588.36
666.81	584.31
667.15	580.34
667.49	576.62
667.83	572.88
668.17	569.09
668.51	565.54
668.85	561.96
669.19	558.34
669.53	554.45
669.87	550.49
670.21	546.87
670.55	543.02
670.89	539.64
671.23	536.43
671.57	532.81
671.91	529.45
672.25	525.90
672.58	522.40
672.92	519.02
673.26	515.93
673.60	512.85
673.94	509.59
674.28	506.41
674.62	503.24
674.96	500.08
675.30	497.23
675.64	493.94
675.97	490.69
676.31	487.71
676.65	484.88
676.99	482.31
677.33	479.37
677.67	476.60
678.01	473.53
678.34	470.47
678.68	467.74
679.02	464.81
679.36	462.07
679.70	459.36
680.04	456.56
680.37	453.70
680.71	450.94
681.05	448.39
681.39	445.79
681.73	443.17
682.06	440.73
682.40	438.07
682.74	435.54
683.08	433.01
683.42	430.54
683.75	428.06
684.09	425.35
684.43	422.80
684.77	420.28
685.10	417.94
685.44	415.49
685.78	413.00
686.12	410.67
686.45	408.39
686.79	406.22
687.13	404.15
687.46	401.93
687.80	399.83
688.14	397.47
688.48	395.32
688.81	393.14
689.15	390.88
689.49	388.65
689.82	386.46
690.16	384.18
690.50	381.87
690.83	379.65
691.17	377.52
691.51	375.39
691.84	373.39
692.18	371.28
692.52	369.40
692.85	367.59
693.19	365.90
693.52	364.05
693.86	361.97
694.20	360.05
694.53	358.16
694.87	356.16
695.21	354.37
695.54	352.59
695.88	350.65
696.21	348.86
696.55	347.16
696.88	345.47
697.22	343.90
697.56	342.37
697.89	340.74
698.23	339.11
698.56	337.60
698.90	336.09
699.23	334.55
699.57	333.01
699.90	331.33
700.24	329.65
700.58	328.08
700.91	326.59
701.25	325.22
701.58	323.86
701.92	322.40
702.25	321.06
702.59	319.67
702.92	318.41
703.26	317.12
703.59	315.90
703.93	314.77
704.26	313.55
704.60	312.29
704.93	311.01
705.26	309.89
705.60	308.67
705.93	307.46
706.27	306.40
706.60	305.29
706.94	304.37
707.27	303.19
707.61	301.99
707.94	300.92
708.27	299.62
708.61	298.51
708.94	297.52
709.28	296.40
709.61	295.28
709.94	294.20
710.28	293.06
710.61	292.00
710.95	290.79
711.28	289.86
711.61	288.81
711.95	287.91
712.28	286.90
712.61	286.00
712.95	285.07
713.28	284.25
713.61	283.25
713.95	282.27
714.28	281.40
714.61	280.49
714.95	279.54
715.28	278.62
715.61	277.66
715.95	276.80
716.28	275.84
716.61	275.03
716.95	274.22
717.28	273.46
717.61	272.60
717.94	271.86
718.28	271.02
718.61	270.26
718.94	269.44
719.27	268.69
719.61	267.96
719.94	267.19
720.27	266.34
720.60	265.71
720.94	265.01
721.27	264.38
721.60	263.87
721.93	263.31
722.27	262.85
722.60	262.30
722.93	261.74
723.26	261.26
723.59	260.65
723.93	260.07
724.26	259.57
724.59	259.07
724.92	258.56
725.25	258.09
725.59	257.53
725.92	257.03
726.25	256.49
726.58	256.03
726.91	255.55
727.24	255.08
727.57	254.54
727.91	254.05
728.24	253.57
728.57	253.01
728.90	252.59
729.23	252.05
729.56	251.69
729.89	251.18
730.22	250.74
730.55	250.32
730.89	249.94
731.22	249.44
731.55	248.95
731.88	248.58
732.21	248.02
732.54	247.69
732.87	247.32
733.20	246.90
733.53	246.46
733.86	246.06
734.19	245.58
734.52	245.27
734.85	245.02
735.18	244.58
735.51	244.25
735.84	243.80
736.17	243.47
736.50	242.97
736.83	242.80
737.16	242.45
737.49	242.17
737.82	241.81
738.15	241.43
738.48	241.13
738.81	240.73
739.14	240.36
739.47	239.98
739.80	239.60
740.13	239.27
740.46	238.94
740.79	238.57
741.12	238.30
741.45	237.90
741.78	237.48
742.11	237.31
742.44	237.05
742.77	236.85
743.10	236.50
743.43	236.25
743.75	235.77
744.08	235.75
744.41	235.38
744.74	235.01
745.07	234.73
745.40	234.54
745.73	234.33
746.06	234.15
746.39	233.84
746.71	233.68
747.04	233.37
747.37	233.14
747.70	233.00
748.03	232.72
748.36	232.54
748.68	232.31
749.01	231.96
749.34	231.63
749.67	231.32
750.00	231.14
750.33	231.00
750.65	230.75
750.98	230.26
751.31	230.08
751.64	229.89
751.97	229.76
752.29	229.44
752.62	229.12
752.95	228.81
753.28	228.54
753.60	228.23
753.93	228.17
754.26	227.90
754.59	227.57
754.91	227.29
755.24	227.06
755.57	226.82
755.90	226.71
756.22	226.54
756.55	226.39
756.88	226.16
757.20	225.83
757.53	225.58
757.86	225.29
758.19	225.14
758.51	225.05
758.84	224.75
759.17	224.55
759.49	224.40
759.82	224.31
760.15	224.19
760.47	223.98
760.80	223.69
761.13	223.59
761.45	223.45
761.78	223.37
762.11	223.19
762.43	223.01
762.76	222.81
763.08	222.75
763.41	222.59
763.74	222.41
764.06	222.27
764.39	222.15
764.71	222.10
765.04	221.88
765.37	221.64
765.69	221.46
766.02	221.32
766.34	221.13
766.67	221.00
767.00	220.87
767.32	220.90
767.65	220.94
767.97	220.75
768.30	220.61
768.62	220.45
768.95	220.34
769.27	220.24
769.60	220.13
769.92	219.94
770.25	219.75
770.57	219.67
770.90	219.54
771.22	219.37
771.55	219.23
771.87	219.16
772.20	219.08
772.52	219.19
772.85	219.29
773.17	219.27
773.50	219.20
773.82	219.14
774.15	218.92
774.47	218.70
774.80	218.62
775.12	218.52
775.45	218.43
775.77	218.39
776.09	218.26
776.42	218.20
776.74	218.15
777.07	218.12
777.39	218.01
777.72	217.95
778.04	217.99
778.36	217.93
778.69	217.82
779.01	217.80
779.33	217.60
779.66	217.46
779.98	217.32
780.31	217.19
780.63	217.20
780.95	217.16
781.28	217.13
781.60	217.07
781.92	217.09
782.25	217.06
782.57	217.03
782.89	217.03
783.22	216.99
783.54	216.92
783.86	216.84
784.19	216.83
784.51	216.82
784.83	216.77
785.16	216.70
785.48	216.65
785.80	216.56
786.12	216.58
786.45	216.47
