SpectraSuite Data File
++++++++++++++++++++++++++++++++++++
Date: Mon Feb 25 17:34:18 EST 2013
User: group
Dark Spectrum Present: No
Reference Spectrum Present: No
Number of Sampled Component Spectra: 1
Spectrometers: USB2E7196
Integration Time (usec): 52000 (USB2E7196)
Spectra Averaged: 20 (USB2E7196)
Boxcar Smoothing: 10 (USB2E7196)
Correct for Electrical Dark: No (USB2E7196)
Strobe/Lamp Enabled: No (USB2E7196)
Correct for Detector Non-linearity: No (USB2E7196)
Correct for Stray Light: No (USB2E7196)
Number of Pixels in Processed Spectrum: 2048
>>>>>Begin Processed Spectral Data<<<<<
339.09	0.00
339.48	198.25
339.86	201.20
340.24	201.45
340.63	202.80
341.01	206.70
341.39	207.10
341.78	207.95
342.16	210.00
342.54	210.55
342.93	198.60
343.31	208.61
343.69	209.20
344.07	209.67
344.46	210.16
344.84	210.58
345.22	210.78
345.60	211.04
345.99	211.17
346.37	211.27
346.75	211.34
347.13	211.39
347.52	211.43
347.90	211.44
348.28	211.56
348.66	211.60
349.05	211.57
349.43	211.58
349.81	211.63
350.19	211.71
350.57	211.80
350.96	211.90
351.34	212.01
351.72	212.10
352.10	212.13
352.48	212.11
352.87	212.15
353.25	212.27
353.63	212.25
354.01	212.29
354.39	212.38
354.77	212.37
355.15	212.40
355.54	212.46
355.92	212.48
356.30	212.48
356.68	212.65
357.06	212.67
357.44	212.76
357.82	212.80
358.20	212.80
358.58	212.82
358.97	212.79
359.35	212.84
359.73	212.87
360.11	212.92
360.49	213.05
360.87	213.11
361.25	213.11
361.63	213.21
362.01	213.24
362.39	213.16
362.77	213.25
363.15	213.27
363.53	213.26
363.91	213.30
364.29	213.37
364.67	213.24
365.05	213.36
365.43	213.35
365.81	213.35
366.19	213.41
366.57	213.45
366.95	213.53
367.33	213.54
367.71	213.53
368.09	213.62
368.47	213.60
368.85	213.56
369.23	213.60
369.61	213.56
369.99	213.65
370.37	213.69
370.75	213.72
371.13	213.60
371.51	213.59
371.89	213.58
372.27	213.49
372.65	213.42
373.03	213.25
373.41	213.22
373.78	213.18
374.16	213.10
374.54	213.05
374.92	212.90
375.30	212.86
375.68	212.76
376.06	212.68
376.44	212.61
376.82	212.65
377.19	212.58
377.57	212.53
377.95	212.48
378.33	212.38
378.71	212.26
379.09	212.31
379.47	212.24
379.84	212.21
380.22	212.17
380.60	212.14
380.98	212.18
381.36	212.12
381.73	212.05
382.11	212.06
382.49	212.05
382.87	212.01
383.25	211.91
383.62	212.10
384.00	212.07
384.38	212.00
384.76	211.96
385.13	212.01
385.51	211.97
385.89	211.89
386.27	211.87
386.64	211.86
387.02	211.86
387.40	211.81
387.78	211.73
388.15	211.74
388.53	211.72
388.91	211.67
389.29	211.68
389.66	211.71
390.04	211.66
390.42	211.67
390.79	211.70
391.17	211.72
391.55	211.50
391.92	211.46
392.30	211.48
392.68	211.40
393.05	211.34
393.43	211.30
393.81	211.29
394.18	211.30
394.56	211.29
394.94	211.29
395.31	211.33
395.69	211.44
396.06	211.47
396.44	211.50
396.82	211.53
397.19	211.61
397.57	211.60
397.95	211.63
398.32	211.53
398.70	211.64
399.07	211.75
399.45	211.80
399.82	211.84
400.20	211.84
400.58	211.94
400.95	211.93
401.33	212.03
401.70	212.18
402.08	212.31
402.45	212.45
402.83	212.56
403.20	212.72
403.58	212.75
403.95	212.87
404.33	212.99
404.71	213.10
405.08	213.31
405.46	213.45
405.83	213.60
406.21	213.80
406.58	213.87
406.96	213.98
407.33	214.20
407.70	214.41
408.08	214.81
408.45	215.04
408.83	215.32
409.20	215.54
409.58	215.73
409.95	215.98
410.33	216.26
410.70	216.53
411.08	216.90
411.45	217.32
411.82	217.73
412.20	218.26
412.57	218.76
412.95	219.02
413.32	219.59
413.69	220.12
414.07	220.68
414.44	221.31
414.82	221.96
415.19	222.67
415.56	223.44
415.94	224.12
416.31	225.05
416.68	225.97
417.06	227.00
417.43	228.06
417.81	229.15
418.18	230.26
418.55	231.53
418.93	232.75
419.30	234.02
419.67	235.42
420.04	236.85
420.42	238.39
420.79	240.22
421.16	241.95
421.54	243.76
421.91	245.61
422.28	247.62
422.66	249.68
423.03	251.75
423.40	253.85
423.77	256.06
424.15	258.26
424.52	260.59
424.89	263.21
425.26	265.66
425.64	268.07
426.01	270.68
426.38	273.35
426.75	276.07
427.13	278.95
427.50	281.88
427.87	284.90
428.24	288.05
428.61	291.09
428.99	294.35
429.36	297.82
429.73	301.34
430.10	304.88
430.47	308.47
430.85	312.15
431.22	316.04
431.59	320.15
431.96	324.06
432.33	328.43
432.70	332.50
433.08	337.39
433.45	342.12
433.82	346.68
434.19	351.79
434.56	356.84
434.93	361.54
435.30	366.32
435.68	371.59
436.05	376.70
436.42	381.78
436.79	386.33
437.16	391.48
437.53	396.82
437.90	402.03
438.27	407.27
438.64	412.60
439.01	417.54
439.38	421.97
439.75	426.21
440.13	431.01
440.50	435.64
440.87	439.32
441.24	443.03
441.61	447.37
441.98	450.49
442.35	454.08
442.72	457.72
443.09	461.32
443.46	463.45
443.83	464.86
444.20	465.95
444.57	467.83
444.94	468.55
445.31	469.25
445.68	470.02
446.05	470.19
446.42	469.58
446.79	468.83
447.16	467.99
447.53	467.45
447.90	465.31
448.27	463.27
448.64	460.43
449.01	458.36
449.37	454.67
449.74	451.11
450.11	447.03
450.48	442.62
450.85	437.89
451.22	433.96
451.59	430.21
451.96	426.66
452.33	421.84
452.70	417.61
453.07	412.51
453.43	407.24
453.80	402.19
454.17	397.35
454.54	392.82
454.91	387.99
455.28	383.24
455.65	378.87
456.02	374.43
456.38	370.64
456.75	366.00
457.12	362.14
457.49	358.42
457.86	354.73
458.23	351.50
458.59	348.09
458.96	344.43
459.33	341.21
459.70	338.15
460.07	335.65
460.43	332.77
460.80	330.03
461.17	327.58
461.54	325.18
461.91	322.88
462.27	320.58
462.64	318.58
463.01	316.33
463.38	314.24
463.74	312.11
464.11	310.23
464.48	308.50
464.85	306.66
465.21	305.18
465.58	303.69
465.95	301.93
466.32	300.43
466.68	298.99
467.05	297.56
467.42	296.05
467.78	294.56
468.15	293.09
468.52	292.18
468.88	290.84
469.25	289.55
469.62	288.57
469.98	287.49
470.35	286.56
470.72	285.65
471.08	284.65
471.45	283.80
471.82	283.05
472.18	282.22
472.55	281.64
472.92	280.94
473.28	280.30
473.65	279.72
474.02	279.12
474.38	278.64
474.75	278.27
475.11	277.86
475.48	277.60
475.85	277.40
476.21	277.18
476.58	277.10
476.94	277.06
477.31	276.91
477.67	276.88
478.04	276.85
478.41	277.02
478.77	277.30
479.14	277.45
479.50	277.70
479.87	278.08
480.23	278.45
480.60	278.75
480.96	279.19
481.33	279.84
481.69	280.57
482.06	281.30
482.42	282.01
482.79	282.75
483.15	283.60
483.52	284.54
483.88	285.49
484.25	286.50
484.61	287.56
484.98	288.72
485.34	290.01
485.71	291.34
486.07	292.64
486.44	293.90
486.80	295.38
487.17	297.00
487.53	298.68
487.90	300.54
488.26	302.56
488.62	304.58
488.99	306.50
489.35	308.60
489.72	310.91
490.08	313.30
490.44	315.80
490.81	318.51
491.17	321.23
491.54	324.10
491.90	327.15
492.26	330.30
492.63	333.66
492.99	337.10
493.36	340.78
493.72	344.74
494.08	348.82
494.45	353.22
494.81	357.65
495.17	362.31
495.54	367.13
495.90	372.25
496.26	377.49
496.63	383.09
496.99	388.83
497.35	394.85
497.72	401.14
498.08	407.65
498.44	414.39
498.80	421.61
499.17	429.16
499.53	436.75
499.89	444.81
500.26	452.93
500.62	461.27
500.98	470.10
501.34	479.05
501.71	488.55
502.07	498.10
502.43	508.11
502.79	518.31
503.16	529.01
503.52	539.60
503.88	550.87
504.24	562.40
504.60	574.34
504.97	586.66
505.33	599.17
505.69	612.48
506.05	625.89
506.41	639.35
506.78	653.04
507.14	667.30
507.50	681.78
507.86	696.72
508.22	712.36
508.59	727.96
508.95	744.09
509.31	760.40
509.67	777.20
510.03	794.19
510.39	811.74
510.75	829.50
511.12	847.97
511.48	866.17
511.84	884.83
512.20	903.67
512.56	922.76
512.92	942.43
513.28	961.91
513.64	981.61
514.00	1001.83
514.37	1022.21
514.73	1042.93
515.09	1063.81
515.45	1084.80
515.81	1105.72
516.17	1127.05
516.53	1148.55
516.89	1170.20
517.25	1191.98
517.61	1213.90
517.97	1235.64
518.33	1257.09
518.69	1279.00
519.05	1301.21
519.41	1323.57
519.77	1346.15
520.13	1368.59
520.49	1390.75
520.85	1413.65
521.21	1436.30
521.57	1459.22
521.93	1481.39
522.29	1504.34
522.65	1527.12
523.01	1549.69
523.37	1572.04
523.73	1594.47
524.09	1616.74
524.45	1638.76
524.81	1661.12
525.17	1683.44
525.53	1706.02
525.89	1728.64
526.25	1750.65
526.61	1772.07
526.97	1793.91
527.33	1815.03
527.68	1836.49
528.04	1857.73
528.40	1877.89
528.76	1898.79
529.12	1919.36
529.48	1940.93
529.84	1961.52
530.20	1981.96
530.56	2002.64
530.91	2023.67
531.27	2044.05
531.63	2064.09
531.99	2084.19
532.35	2103.50
532.71	2122.53
533.07	2141.97
533.42	2160.47
533.78	2179.68
534.14	2198.44
534.50	2215.70
534.86	2233.95
535.21	2250.89
535.57	2268.88
535.93	2286.62
536.29	2303.48
536.65	2320.40
537.00	2336.38
537.36	2351.80
537.72	2366.93
538.08	2382.09
538.44	2397.22
538.79	2412.97
539.15	2428.22
539.51	2443.15
539.87	2458.67
540.22	2473.32
540.58	2488.14
540.94	2502.80
541.29	2515.64
541.65	2528.00
542.01	2541.58
542.37	2553.54
542.72	2565.87
543.08	2576.84
543.44	2588.67
543.79	2599.34
544.15	2609.65
544.51	2620.64
544.87	2631.89
545.22	2641.53
545.58	2650.38
545.94	2657.88
546.29	2663.94
546.65	2669.91
547.01	2676.28
547.36	2681.84
547.72	2687.65
548.07	2691.84
548.43	2695.57
548.79	2699.66
549.14	2704.52
549.50	2708.67
549.86	2712.96
550.21	2717.00
550.57	2721.20
550.92	2724.07
551.28	2726.76
551.64	2729.19
551.99	2731.75
552.35	2733.24
552.70	2735.85
553.06	2738.61
553.41	2741.81
553.77	2745.07
554.13	2747.82
554.48	2749.82
554.84	2751.41
555.19	2751.97
555.55	2752.48
555.90	2753.42
556.26	2754.16
556.61	2754.35
556.97	2753.53
557.32	2753.40
557.68	2752.03
558.03	2750.74
558.39	2749.30
558.74	2749.22
559.10	2748.19
559.45	2746.35
559.81	2745.33
560.16	2742.95
560.52	2740.46
560.87	2737.15
561.23	2733.63
561.58	2731.38
561.94	2728.24
562.29	2724.72
562.64	2722.67
563.00	2720.50
563.35	2718.46
563.71	2716.44
564.06	2714.28
564.42	2712.44
564.77	2709.80
565.12	2708.05
565.48	2704.85
565.83	2701.71
566.19	2698.46
566.54	2694.65
566.89	2690.70
567.25	2686.55
567.60	2683.57
567.96	2679.96
568.31	2676.70
568.66	2672.81
569.02	2668.10
569.37	2663.35
569.72	2659.31
570.08	2653.85
570.43	2648.01
570.78	2642.17
571.14	2635.81
571.49	2628.94
571.84	2622.67
572.20	2615.84
572.55	2609.26
572.90	2602.20
573.26	2595.16
573.61	2587.86
573.96	2581.06
574.31	2573.08
574.67	2565.30
575.02	2556.48
575.37	2548.01
575.72	2539.01
576.08	2531.64
576.43	2522.88
576.78	2514.81
577.13	2506.75
577.49	2498.76
577.84	2491.08
578.19	2483.55
578.54	2475.97
578.90	2468.94
579.25	2460.21
579.60	2451.25
579.95	2442.05
580.30	2434.19
580.66	2426.19
581.01	2416.99
581.36	2407.70
581.71	2399.61
582.06	2391.04
582.42	2382.76
582.77	2373.28
583.12	2364.59
583.47	2355.67
583.82	2347.22
584.17	2338.00
584.53	2328.58
584.88	2319.52
585.23	2310.02
585.58	2300.30
585.93	2290.79
586.28	2281.60
586.63	2272.71
586.98	2264.26
587.34	2255.83
587.69	2246.62
588.04	2237.42
588.39	2229.10
588.74	2220.10
589.09	2211.20
589.44	2201.32
589.79	2192.92
590.14	2185.23
590.49	2176.47
590.84	2167.26
591.19	2159.08
591.54	2150.25
591.89	2140.43
592.25	2130.96
592.60	2121.95
592.95	2112.48
593.30	2102.68
593.65	2092.86
594.00	2083.21
594.35	2074.60
594.70	2065.09
595.05	2056.32
595.40	2047.22
595.75	2037.37
596.10	2029.02
596.45	2020.32
596.80	2012.72
597.15	2004.07
597.50	1995.00
597.85	1986.56
598.19	1977.94
598.54	1969.43
598.89	1961.42
599.24	1954.32
599.59	1947.19
599.94	1939.91
600.29	1931.94
600.64	1924.20
600.99	1916.01
601.34	1908.57
601.69	1899.79
602.04	1891.85
602.39	1883.45
602.74	1875.73
603.08	1869.09
603.43	1861.77
603.78	1853.66
604.13	1845.45
604.48	1837.26
604.83	1830.29
605.18	1823.31
605.53	1815.55
605.87	1807.68
606.22	1800.64
606.57	1792.96
606.92	1784.80
607.27	1776.51
607.62	1769.24
607.96	1762.25
608.31	1755.55
608.66	1747.76
609.01	1740.23
609.36	1732.33
609.70	1724.67
610.05	1716.69
610.40	1708.38
610.75	1700.00
611.10	1692.42
611.44	1683.30
611.79	1674.29
612.14	1664.60
612.49	1654.75
612.83	1645.96
613.18	1636.28
613.53	1626.50
613.88	1616.34
614.22	1607.22
614.57	1597.83
614.92	1588.29
615.27	1578.82
615.61	1569.10
615.96	1560.11
616.31	1551.53
616.65	1543.52
617.00	1534.86
617.35	1526.22
617.70	1517.28
618.04	1508.09
618.39	1498.55
618.74	1490.22
619.08	1481.33
619.43	1473.20
619.78	1465.33
620.12	1456.97
620.47	1449.17
620.82	1440.67
621.16	1432.75
621.51	1424.21
621.85	1415.98
622.20	1407.53
622.55	1398.97
622.89	1390.91
623.24	1383.11
623.59	1374.38
623.93	1365.69
624.28	1357.71
624.62	1349.57
624.97	1341.24
625.32	1333.30
625.66	1325.89
626.01	1318.35
626.35	1311.56
626.70	1303.69
627.04	1296.09
627.39	1288.63
627.73	1281.14
628.08	1273.90
628.43	1266.26
628.77	1258.94
629.12	1251.42
629.46	1244.76
629.81	1237.70
630.15	1230.05
630.50	1222.17
630.84	1214.93
631.19	1207.73
631.53	1200.59
631.88	1192.78
632.22	1185.25
632.57	1178.14
632.91	1170.62
633.26	1163.01
633.60	1155.47
633.95	1148.56
634.29	1141.35
634.64	1134.45
634.98	1126.98
635.32	1120.06
635.67	1113.83
636.01	1107.02
636.36	1100.24
636.70	1093.47
637.05	1086.66
637.39	1080.40
637.73	1074.32
638.08	1068.41
638.42	1062.44
638.77	1055.83
639.11	1049.80
639.45	1043.85
639.80	1037.36
640.14	1030.88
640.49	1024.82
640.83	1018.67
641.17	1012.37
641.52	1006.16
641.86	999.64
642.20	993.49
642.55	986.84
642.89	980.16
643.23	973.78
643.58	967.88
643.92	961.49
644.26	955.44
644.61	949.23
644.95	942.91
645.29	936.58
645.64	929.88
645.98	923.81
646.32	917.77
646.66	911.47
647.01	905.52
647.35	899.75
647.69	893.41
648.04	887.36
648.38	881.34
648.72	875.22
649.06	869.03
649.41	863.17
649.75	857.36
650.09	851.49
650.43	845.60
650.78	839.34
651.12	832.99
651.46	827.06
651.80	821.10
652.14	814.96
652.49	808.96
652.83	803.36
653.17	797.30
653.51	791.41
653.85	785.66
654.20	779.67
654.54	773.90
654.88	768.39
655.22	762.53
655.56	756.54
655.90	750.65
656.25	745.13
656.59	739.48
656.93	734.22
657.27	728.92
657.61	723.50
657.95	718.45
658.29	713.65
658.64	708.51
658.98	703.23
659.32	698.01
659.66	692.95
660.00	687.29
660.34	681.81
660.68	676.50
661.02	671.47
661.36	666.73
661.70	661.71
662.05	656.86
662.39	652.47
662.73	648.26
663.07	644.13
663.41	639.75
663.75	635.20
664.09	630.37
664.43	625.58
664.77	621.25
665.11	616.70
665.45	612.18
665.79	607.65
666.13	603.31
666.47	599.17
666.81	594.72
667.15	590.86
667.49	587.05
667.83	583.24
668.17	579.41
668.51	575.49
668.85	571.81
669.19	568.21
669.53	564.18
669.87	559.93
670.21	555.99
670.55	552.00
670.89	548.56
671.23	545.33
671.57	542.06
671.91	538.35
672.25	534.83
672.58	531.23
672.92	527.84
673.26	524.67
673.60	521.23
673.94	517.94
674.28	514.49
674.62	511.34
674.96	508.05
675.30	505.01
675.64	501.76
675.97	498.51
676.31	495.49
676.65	492.52
676.99	490.02
677.33	486.98
677.67	484.07
678.01	480.94
678.34	477.85
678.68	474.78
679.02	471.84
679.36	468.92
679.70	466.07
680.04	463.15
680.37	460.16
680.71	457.40
681.05	454.70
681.39	452.08
681.73	449.31
682.06	446.98
682.40	444.20
682.74	441.70
683.08	439.10
683.42	436.31
683.75	433.74
684.09	430.93
684.43	428.47
684.77	426.00
685.10	423.50
685.44	420.85
685.78	418.41
686.12	416.13
686.45	413.70
686.79	411.46
687.13	409.29
687.46	407.00
687.80	404.85
688.14	402.45
688.48	400.40
688.81	398.19
689.15	395.76
689.49	393.52
689.82	391.30
690.16	388.97
690.50	386.64
690.83	384.35
691.17	382.16
691.51	379.88
691.84	377.73
692.18	375.67
692.52	373.82
692.85	371.88
693.19	369.96
693.52	368.13
693.86	366.10
694.20	364.13
694.53	362.30
694.87	360.28
695.21	358.46
695.54	356.40
695.88	354.54
696.21	352.71
696.55	350.95
696.88	349.10
697.22	347.30
697.56	345.78
697.89	344.20
698.23	342.61
698.56	341.01
698.90	339.48
699.23	337.81
699.57	336.22
699.90	334.60
700.24	332.91
700.58	331.24
700.91	329.72
701.25	328.32
701.58	326.85
701.92	325.40
702.25	324.04
702.59	322.70
702.92	321.29
703.26	319.89
703.59	318.60
703.93	317.46
704.26	316.23
704.60	314.95
704.93	313.70
705.26	312.45
705.60	311.23
705.93	310.03
706.27	308.93
706.60	307.76
706.94	306.69
707.27	305.51
707.61	304.38
707.94	303.32
708.27	302.04
708.61	300.91
708.94	299.87
709.28	298.76
709.61	297.65
709.94	296.60
710.28	295.59
710.61	294.52
710.95	293.35
711.28	292.45
711.61	291.36
711.95	290.35
712.28	289.36
712.61	288.41
712.95	287.48
713.28	286.56
713.61	285.61
713.95	284.64
714.28	283.82
714.61	282.88
714.95	281.95
715.28	281.03
715.61	280.10
715.95	279.17
716.28	278.24
716.61	277.31
716.95	276.47
717.28	275.59
717.61	274.75
717.94	273.96
718.28	273.05
718.61	272.30
718.94	271.52
719.27	270.81
719.61	270.07
719.94	269.26
720.27	268.38
720.60	267.64
720.94	266.91
721.27	266.19
721.60	265.55
721.93	264.83
722.27	264.23
722.60	263.58
722.93	262.92
723.26	262.33
723.59	261.71
723.93	261.10
724.26	260.56
724.59	259.84
724.92	259.25
725.25	258.82
725.59	258.28
725.92	257.72
726.25	257.14
726.58	256.66
726.91	256.09
727.24	255.67
727.57	255.14
727.91	254.59
728.24	254.00
728.57	253.58
728.90	253.12
729.23	252.59
729.56	252.22
729.89	251.73
730.22	251.21
730.55	250.76
730.89	250.35
731.22	249.84
731.55	249.57
731.88	249.15
732.21	248.70
732.54	248.28
732.87	247.86
733.20	247.36
733.53	246.96
733.86	246.59
734.19	246.12
734.52	245.77
734.85	245.60
735.18	245.30
735.51	244.89
735.84	244.55
736.17	244.20
736.50	243.70
736.83	243.59
737.16	243.30
737.49	242.95
737.82	242.51
738.15	242.23
738.48	241.81
738.81	241.49
739.14	241.11
739.47	240.65
739.80	240.24
740.13	239.96
740.46	239.50
740.79	239.05
741.12	238.75
741.45	238.38
741.78	237.86
742.11	237.54
742.44	237.19
742.77	236.87
743.10	236.58
743.43	236.30
743.75	235.86
744.08	235.72
744.41	235.44
744.74	235.22
745.07	234.86
745.40	234.71
745.73	234.44
746.06	234.13
746.39	233.96
746.71	233.84
747.04	233.52
747.37	233.30
747.70	233.19
748.03	232.88
748.36	232.67
748.68	232.31
749.01	232.07
749.34	231.93
749.67	231.75
750.00	231.50
750.33	231.40
750.65	231.12
750.98	230.66
751.31	230.44
751.64	230.19
751.97	230.08
752.29	229.82
752.62	229.53
752.95	229.30
753.28	228.97
753.60	228.67
753.93	228.58
754.26	228.38
754.59	228.08
754.91	227.88
755.24	227.62
755.57	227.54
755.90	227.31
756.22	227.02
756.55	226.76
756.88	226.59
757.20	226.26
757.53	226.04
757.86	225.87
758.19	225.73
758.51	225.52
758.84	225.27
759.17	225.04
759.49	224.85
759.82	224.75
760.15	224.69
760.47	224.51
760.80	224.26
761.13	224.08
761.45	223.87
761.78	223.73
762.11	223.54
762.43	223.40
762.76	223.21
763.08	223.07
763.41	222.96
763.74	222.79
764.06	222.62
764.39	222.43
764.71	222.27
765.04	222.12
765.37	222.00
765.69	221.79
766.02	221.60
766.34	221.53
766.67	221.36
767.00	221.26
767.32	221.22
767.65	221.16
767.97	221.01
768.30	220.92
768.62	220.77
768.95	220.65
769.27	220.51
769.60	220.40
769.92	220.24
770.25	220.04
770.57	219.91
770.90	219.75
771.22	219.63
771.55	219.64
771.87	219.41
772.20	219.22
772.52	219.25
772.85	219.38
773.17	219.26
773.50	219.21
773.82	219.05
774.15	218.85
774.47	218.64
774.80	218.62
775.12	218.58
775.45	218.50
775.77	218.46
776.09	218.37
776.42	218.32
776.74	218.23
777.07	218.16
777.39	218.08
777.72	218.05
778.04	218.01
778.36	217.80
778.69	217.79
779.01	217.87
779.33	217.68
779.66	217.49
779.98	217.39
780.31	217.21
780.63	217.17
780.95	217.16
781.28	217.10
781.60	217.00
781.92	216.90
782.25	216.87
782.57	216.79
782.89	216.75
783.22	216.65
783.54	216.59
783.86	216.50
784.19	216.44
784.51	216.44
784.83	216.35
785.16	216.33
785.48	216.26
785.80	216.13
786.12	216.12
786.45	215.97
