SpectraSuite Data File
++++++++++++++++++++++++++++++++++++
Date: Mon Feb 25 17:34:00 EST 2013
User: group
Dark Spectrum Present: No
Reference Spectrum Present: No
Number of Sampled Component Spectra: 1
Spectrometers: USB2E7196
Integration Time (usec): 52000 (USB2E7196)
Spectra Averaged: 20 (USB2E7196)
Boxcar Smoothing: 10 (USB2E7196)
Correct for Electrical Dark: No (USB2E7196)
Strobe/Lamp Enabled: No (USB2E7196)
Correct for Detector Non-linearity: No (USB2E7196)
Correct for Stray Light: No (USB2E7196)
Number of Pixels in Processed Spectrum: 2048
>>>>>Begin Processed Spectral Data<<<<<
339.09	0.00
339.48	200.20
339.86	199.45
340.24	201.80
340.63	202.05
341.01	206.15
341.39	204.85
341.78	207.80
342.16	207.65
342.54	210.40
342.93	198.05
343.31	208.04
343.69	208.52
344.07	209.05
344.46	209.49
344.84	209.94
345.22	210.19
345.60	210.52
345.99	210.62
346.37	210.75
346.75	210.77
347.13	210.92
347.52	210.92
347.90	211.06
348.28	211.03
348.66	211.01
349.05	211.06
349.43	211.12
349.81	211.12
350.19	211.15
350.57	211.25
350.96	211.19
351.34	211.33
351.72	211.49
352.10	211.50
352.48	211.54
352.87	211.56
353.25	211.62
353.63	211.60
354.01	211.71
354.39	211.86
354.77	211.93
355.15	212.04
355.54	212.10
355.92	212.14
356.30	212.23
356.68	212.51
357.06	212.58
357.44	212.64
357.82	212.77
358.20	212.86
358.58	212.95
358.97	213.03
359.35	213.12
359.73	213.07
360.11	213.18
360.49	213.29
360.87	213.37
361.25	213.42
361.63	213.63
362.01	213.69
362.39	213.64
362.77	213.78
363.15	213.76
363.53	213.80
363.91	213.80
364.29	213.83
364.67	213.67
365.05	213.72
365.43	213.71
365.81	213.70
366.19	213.79
366.57	213.82
366.95	213.85
367.33	213.80
367.71	213.92
368.09	213.97
368.47	213.96
368.85	213.90
369.23	213.97
369.61	213.76
369.99	213.82
370.37	213.88
370.75	213.88
371.13	213.85
371.51	213.82
371.89	213.84
372.27	213.79
372.65	213.75
373.03	213.73
373.41	213.69
373.78	213.61
374.16	213.47
374.54	213.38
374.92	213.28
375.30	213.26
375.68	213.05
376.06	213.03
376.44	213.03
376.82	213.00
377.19	212.91
377.57	212.90
377.95	212.83
378.33	212.74
378.71	212.59
379.09	212.52
379.47	212.52
379.84	212.41
380.22	212.38
380.60	212.33
380.98	212.22
381.36	212.19
381.73	212.11
382.11	212.07
382.49	212.08
382.87	212.08
383.25	212.02
383.62	212.22
384.00	212.06
384.38	211.87
384.76	211.92
385.13	211.92
385.51	211.92
385.89	211.85
386.27	211.80
386.64	211.77
387.02	211.71
387.40	211.70
387.78	211.71
388.15	211.66
388.53	211.66
388.91	211.68
389.29	211.61
389.66	211.67
390.04	211.62
390.42	211.68
390.79	211.63
391.17	211.59
391.55	211.47
391.92	211.45
392.30	211.46
392.68	211.34
393.05	211.32
393.43	211.33
393.81	211.32
394.18	211.28
394.56	211.26
394.94	211.37
395.31	211.30
395.69	211.31
396.06	211.37
396.44	211.38
396.82	211.38
397.19	211.53
397.57	211.50
397.95	211.59
398.32	211.55
398.70	211.63
399.07	211.74
399.45	211.76
399.82	211.83
400.20	211.85
400.58	211.90
400.95	211.91
401.33	211.96
401.70	212.16
402.08	212.29
402.45	212.35
402.83	212.40
403.20	212.46
403.58	212.58
403.95	212.67
404.33	212.75
404.71	212.86
405.08	213.03
405.46	213.16
405.83	213.28
406.21	213.41
406.58	213.56
406.96	213.70
407.33	213.85
407.70	214.12
408.08	214.53
408.45	214.77
408.83	215.11
409.20	215.36
409.58	215.51
409.95	215.81
410.33	216.14
410.70	216.40
411.08	216.79
411.45	217.15
411.82	217.52
412.20	217.99
412.57	218.55
412.95	218.85
413.32	219.34
413.69	219.83
414.07	220.32
414.44	220.90
414.82	221.58
415.19	222.29
415.56	223.03
415.94	223.80
416.31	224.72
416.68	225.46
417.06	226.50
417.43	227.45
417.81	228.57
418.18	229.73
418.55	230.97
418.93	232.25
419.30	233.54
419.67	235.02
420.04	236.42
420.42	237.90
420.79	239.73
421.16	241.50
421.54	243.25
421.91	245.19
422.28	247.13
422.66	249.08
423.03	251.10
423.40	253.16
423.77	255.32
424.15	257.51
424.52	259.91
424.89	262.43
425.26	265.02
425.64	267.33
426.01	269.96
426.38	272.60
426.75	275.30
427.13	278.19
427.50	281.11
427.87	284.19
428.24	287.25
428.61	290.07
428.99	293.37
429.36	296.94
429.73	300.37
430.10	303.81
430.47	307.35
430.85	311.07
431.22	314.97
431.59	319.08
431.96	323.11
432.33	327.46
432.70	331.63
433.08	336.47
433.45	341.16
433.82	345.77
434.19	350.94
434.56	356.03
434.93	360.77
435.30	365.55
435.68	370.81
436.05	375.95
436.42	381.24
436.79	385.95
437.16	391.13
437.53	396.61
437.90	401.95
438.27	407.25
438.64	412.68
439.01	417.76
439.38	422.13
439.75	426.39
440.13	431.31
440.50	435.88
440.87	439.61
441.24	443.38
441.61	447.52
441.98	450.61
442.35	454.23
442.72	457.81
443.09	461.22
443.46	463.37
443.83	464.90
444.20	466.00
444.57	467.66
444.94	468.38
445.31	469.06
445.68	469.83
446.05	470.00
446.42	469.13
446.79	468.17
447.16	467.32
447.53	466.64
447.90	464.47
448.27	462.27
448.64	459.28
449.01	457.17
449.37	453.67
449.74	450.08
450.11	445.87
450.48	441.43
450.85	436.91
451.22	432.90
451.59	429.02
451.96	425.44
452.33	420.60
452.70	416.23
453.07	411.02
453.43	405.60
453.80	400.64
454.17	396.01
454.54	391.53
454.91	386.70
455.28	381.92
455.65	377.54
456.02	373.38
456.38	369.74
456.75	365.13
457.12	361.15
457.49	357.41
457.86	353.71
458.23	350.50
458.59	346.99
458.96	343.47
459.33	340.33
459.70	337.27
460.07	334.78
460.43	331.84
460.80	329.21
461.17	326.94
461.54	324.43
461.91	322.01
462.27	319.67
462.64	317.69
463.01	315.49
463.38	313.36
463.74	311.02
464.11	309.08
464.48	307.36
464.85	305.65
465.21	304.19
465.58	302.66
465.95	300.95
466.32	299.49
466.68	298.08
467.05	296.58
467.42	295.10
467.78	293.72
468.15	292.44
468.52	291.47
468.88	290.18
469.25	288.94
469.62	288.05
469.98	287.04
470.35	286.05
470.72	285.21
471.08	284.15
471.45	283.39
471.82	282.56
472.18	281.65
472.55	281.05
472.92	280.39
473.28	279.81
473.65	279.25
474.02	278.75
474.38	278.29
474.75	278.00
475.11	277.67
475.48	277.44
475.85	277.19
476.21	276.90
476.58	276.76
476.94	276.76
477.31	276.70
477.67	276.65
478.04	276.78
478.41	276.95
478.77	277.35
479.14	277.48
479.50	277.72
479.87	278.15
480.23	278.43
480.60	278.82
480.96	279.31
481.33	279.96
481.69	280.66
482.06	281.26
482.42	281.98
482.79	282.60
483.15	283.43
483.52	284.48
483.88	285.40
484.25	286.41
484.61	287.49
484.98	288.61
485.34	289.85
485.71	291.20
486.07	292.45
486.44	293.72
486.80	295.35
487.17	297.01
487.53	298.79
487.90	300.62
488.26	302.57
488.62	304.54
488.99	306.52
489.35	308.52
489.72	310.77
490.08	313.15
490.44	315.63
490.81	318.25
491.17	320.89
491.54	323.87
491.90	326.92
492.26	330.13
492.63	333.53
492.99	337.03
493.36	340.61
493.72	344.60
494.08	348.64
494.45	352.87
494.81	357.28
495.17	361.91
495.54	366.79
495.90	371.80
496.26	377.06
496.63	382.46
496.99	388.22
497.35	394.31
497.72	400.58
498.08	407.09
498.44	413.90
498.80	421.15
499.17	428.51
499.53	436.17
499.89	444.17
500.26	452.24
500.62	460.52
500.98	469.40
501.34	478.42
501.71	487.83
502.07	497.43
502.43	507.39
502.79	517.58
503.16	528.32
503.52	539.41
503.88	550.70
504.24	562.34
504.60	574.31
504.97	586.61
505.33	599.06
505.69	612.54
506.05	625.95
506.41	639.40
506.78	653.24
507.14	667.34
507.50	681.93
507.86	697.10
508.22	712.52
508.59	728.10
508.95	744.21
509.31	760.59
509.67	777.37
510.03	794.72
510.39	812.45
510.75	830.03
511.12	848.01
511.48	866.41
511.84	885.17
512.20	903.90
512.56	923.08
512.92	942.64
513.28	962.08
513.64	981.76
514.00	1001.91
514.37	1022.35
514.73	1043.33
515.09	1064.01
515.45	1084.92
515.81	1106.13
516.17	1127.46
516.53	1148.77
516.89	1170.49
517.25	1192.13
517.61	1213.56
517.97	1234.98
518.33	1256.64
518.69	1278.18
519.05	1300.45
519.41	1322.78
519.77	1345.46
520.13	1367.66
520.49	1389.95
520.85	1412.76
521.21	1435.51
521.57	1458.41
521.93	1480.85
522.29	1503.59
522.65	1526.35
523.01	1549.00
523.37	1571.33
523.73	1593.55
524.09	1615.93
524.45	1638.20
524.81	1660.65
525.17	1683.11
525.53	1705.74
525.89	1728.19
526.25	1750.71
526.61	1771.86
526.97	1793.53
527.33	1814.81
527.68	1836.41
528.04	1857.63
528.40	1877.83
528.76	1898.66
529.12	1919.62
529.48	1940.99
529.84	1961.34
530.20	1981.95
530.56	2002.24
530.91	2023.09
531.27	2043.69
531.63	2063.63
531.99	2083.64
532.35	2102.79
532.71	2122.14
533.07	2141.83
533.42	2160.57
533.78	2179.67
534.14	2198.38
534.50	2215.64
534.86	2233.93
535.21	2251.10
535.57	2268.97
535.93	2286.86
536.29	2303.88
536.65	2320.45
537.00	2335.94
537.36	2351.47
537.72	2366.57
538.08	2381.74
538.44	2397.22
538.79	2412.76
539.15	2427.94
539.51	2442.73
539.87	2458.34
540.22	2472.51
540.58	2487.20
540.94	2501.45
541.29	2514.42
541.65	2526.62
542.01	2539.93
542.37	2551.93
542.72	2564.20
543.08	2575.15
543.44	2587.12
543.79	2597.46
544.15	2608.00
544.51	2619.24
544.87	2630.50
545.22	2639.81
545.58	2648.48
545.94	2655.72
546.29	2662.21
546.65	2668.72
547.01	2675.14
547.36	2681.08
547.72	2686.77
548.07	2690.61
548.43	2694.55
548.79	2698.15
549.14	2702.98
549.50	2707.69
549.86	2711.54
550.21	2715.49
550.57	2719.90
550.92	2722.27
551.28	2725.26
551.64	2727.87
551.99	2730.25
552.35	2731.70
552.70	2734.66
553.06	2738.10
553.41	2741.19
553.77	2744.15
554.13	2746.45
554.48	2748.24
554.84	2749.28
555.19	2750.36
555.55	2750.96
555.90	2752.01
556.26	2752.81
556.61	2753.00
556.97	2751.74
557.32	2751.80
557.68	2750.20
558.03	2748.95
558.39	2747.48
558.74	2746.86
559.10	2745.31
559.45	2743.54
559.81	2742.55
560.16	2739.70
560.52	2736.82
560.87	2733.82
561.23	2730.18
561.58	2727.60
561.94	2724.44
562.29	2720.88
562.64	2718.60
563.00	2716.55
563.35	2714.20
563.71	2712.76
564.06	2710.57
564.42	2708.77
564.77	2706.04
565.12	2704.29
565.48	2701.02
565.83	2698.30
566.19	2695.14
566.54	2691.04
566.89	2687.43
567.25	2683.69
567.60	2680.69
567.96	2677.07
568.31	2673.38
568.66	2669.72
569.02	2665.32
569.37	2660.68
569.72	2657.10
570.08	2651.45
570.43	2645.73
570.78	2639.87
571.14	2633.28
571.49	2626.62
571.84	2620.36
572.20	2613.54
572.55	2606.96
572.90	2599.75
573.26	2592.38
573.61	2585.22
573.96	2578.91
574.31	2570.97
574.67	2562.82
575.02	2554.29
575.37	2545.38
575.72	2536.32
576.08	2528.57
576.43	2519.84
576.78	2511.79
577.13	2503.29
577.49	2495.22
577.84	2487.63
578.19	2480.29
578.54	2472.96
578.90	2466.07
579.25	2457.47
579.60	2448.17
579.95	2439.00
580.30	2431.37
580.66	2423.25
581.01	2413.98
581.36	2404.66
581.71	2396.20
582.06	2387.36
582.42	2379.22
582.77	2370.33
583.12	2361.84
583.47	2353.17
583.82	2344.75
584.17	2334.96
584.53	2325.73
584.88	2316.98
585.23	2307.43
585.58	2297.64
585.93	2287.63
586.28	2278.29
586.63	2268.93
586.98	2260.75
587.34	2252.22
587.69	2242.97
588.04	2233.77
588.39	2225.57
588.74	2216.40
589.09	2207.67
589.44	2198.13
589.79	2189.36
590.14	2181.61
590.49	2172.90
590.84	2163.65
591.19	2155.51
591.54	2147.18
591.89	2137.05
592.25	2128.04
592.60	2118.67
592.95	2109.24
593.30	2099.72
593.65	2090.01
594.00	2081.07
594.35	2072.52
594.70	2063.27
595.05	2054.38
595.40	2045.77
595.75	2035.77
596.10	2027.34
596.45	2018.76
596.80	2010.99
597.15	2002.62
597.50	1993.30
597.85	1984.88
598.19	1976.38
598.54	1967.58
598.89	1959.70
599.24	1953.18
599.59	1945.46
599.94	1938.32
600.29	1930.59
600.64	1922.77
600.99	1914.15
601.34	1906.63
601.69	1898.10
602.04	1889.81
602.39	1881.59
602.74	1873.53
603.08	1867.00
603.43	1859.79
603.78	1851.52
604.13	1843.50
604.48	1835.48
604.83	1828.21
605.18	1821.13
605.53	1813.30
605.87	1805.46
606.22	1798.29
606.57	1790.10
606.92	1781.85
607.27	1773.70
607.62	1766.32
607.96	1759.56
608.31	1753.40
608.66	1745.39
609.01	1737.43
609.36	1729.73
609.70	1721.87
610.05	1714.11
610.40	1705.81
610.75	1697.28
611.10	1689.81
611.44	1680.31
611.79	1671.40
612.14	1662.16
612.49	1652.54
612.83	1643.60
613.18	1633.96
613.53	1624.23
613.88	1614.76
614.22	1605.96
614.57	1596.79
614.92	1587.11
615.27	1577.37
615.61	1567.30
615.96	1558.37
616.31	1550.07
616.65	1542.35
617.00	1534.15
617.35	1525.46
617.70	1516.68
618.04	1507.48
618.39	1497.77
618.74	1489.72
619.08	1480.78
619.43	1472.55
619.78	1464.54
620.12	1456.57
620.47	1449.03
620.82	1440.29
621.16	1431.81
621.51	1423.23
621.85	1414.75
622.20	1406.54
622.55	1397.94
622.89	1389.48
623.24	1381.23
623.59	1372.37
623.93	1363.42
624.28	1355.00
624.62	1346.70
624.97	1338.29
625.32	1330.34
625.66	1322.97
626.01	1315.52
626.35	1308.22
626.70	1300.26
627.04	1292.86
627.39	1285.10
627.73	1277.33
628.08	1270.45
628.43	1263.07
628.77	1255.53
629.12	1248.03
629.46	1241.20
629.81	1234.07
630.15	1227.03
630.50	1219.65
630.84	1212.35
631.19	1205.00
631.53	1197.79
631.88	1190.20
632.22	1182.79
632.57	1175.99
632.91	1168.64
633.26	1161.14
633.60	1154.08
633.95	1147.49
634.29	1140.08
634.64	1133.38
634.98	1126.40
635.32	1119.45
635.67	1112.95
636.01	1106.25
636.36	1099.55
636.70	1092.83
637.05	1086.28
637.39	1080.06
637.73	1073.77
638.08	1067.93
638.42	1062.34
638.77	1056.16
639.11	1049.70
639.45	1043.72
639.80	1037.08
640.14	1030.72
640.49	1024.60
640.83	1018.20
641.17	1011.84
641.52	1005.96
641.86	999.37
642.20	993.15
642.55	986.72
642.89	980.25
643.23	973.93
643.58	968.05
643.92	961.57
644.26	955.38
644.61	949.15
644.95	943.05
645.29	936.80
645.64	930.02
645.98	923.54
646.32	917.64
646.66	911.34
647.01	905.58
647.35	899.44
647.69	893.05
648.04	887.10
648.38	881.16
648.72	874.90
649.06	868.80
649.41	862.79
649.75	856.74
650.09	850.93
650.43	845.10
650.78	838.71
651.12	832.69
651.46	826.83
651.80	820.78
652.14	814.83
652.49	808.92
652.83	802.96
653.17	796.82
653.51	790.87
653.85	785.26
654.20	779.29
654.54	773.57
654.88	768.03
655.22	762.17
655.56	756.14
655.90	750.34
656.25	744.75
656.59	739.22
656.93	734.03
657.27	728.86
657.61	723.28
657.95	718.20
658.29	713.10
658.64	707.95
658.98	702.64
659.32	697.13
659.66	691.98
660.00	686.75
660.34	681.73
660.68	676.61
661.02	671.39
661.36	666.70
661.70	661.80
662.05	657.04
662.39	652.55
662.73	648.19
663.07	643.83
663.41	639.36
663.75	634.67
664.09	629.96
664.43	625.16
664.77	621.01
665.11	616.51
665.45	611.93
665.79	607.57
666.13	603.30
666.47	599.17
666.81	594.93
667.15	590.91
667.49	586.95
667.83	583.15
668.17	579.28
668.51	575.34
668.85	571.64
669.19	567.97
669.53	564.09
669.87	559.99
670.21	556.01
670.55	552.05
670.89	548.62
671.23	545.24
671.57	541.64
671.91	537.89
672.25	534.34
672.58	530.98
672.92	527.48
673.26	524.31
673.60	521.01
673.94	517.48
674.28	514.20
674.62	511.11
674.96	507.83
675.30	504.80
675.64	501.59
675.97	498.45
676.31	495.38
676.65	492.46
676.99	489.81
677.33	486.96
677.67	484.11
678.01	481.00
678.34	477.83
678.68	474.91
679.02	471.95
679.36	469.15
679.70	466.26
680.04	463.31
680.37	460.28
680.71	457.55
681.05	454.96
681.39	452.27
681.73	449.53
682.06	447.11
682.40	444.46
682.74	441.93
683.08	439.31
683.42	436.62
683.75	434.00
684.09	431.41
684.43	428.90
684.77	426.35
685.10	423.85
685.44	421.35
685.78	418.89
686.12	416.61
686.45	414.19
686.79	411.87
687.13	409.71
687.46	407.54
687.80	405.26
688.14	402.92
688.48	400.85
688.81	398.62
689.15	396.29
689.49	393.89
689.82	391.59
690.16	389.21
690.50	387.07
690.83	384.86
691.17	382.51
691.51	380.25
691.84	378.19
692.18	376.13
692.52	374.20
692.85	372.36
693.19	370.45
693.52	368.49
693.86	366.48
694.20	364.46
694.53	362.52
694.87	360.54
695.21	358.68
695.54	356.64
695.88	354.68
696.21	352.79
696.55	351.15
696.88	349.33
697.22	347.57
697.56	345.91
697.89	344.17
698.23	342.58
698.56	340.97
698.90	339.34
699.23	337.68
699.57	335.99
699.90	334.36
700.24	332.59
700.58	330.97
700.91	329.57
701.25	328.26
701.58	326.80
701.92	325.35
702.25	323.94
702.59	322.53
702.92	321.15
703.26	319.78
703.59	318.43
703.93	317.28
704.26	316.09
704.60	314.70
704.93	313.50
705.26	312.23
705.60	311.02
705.93	309.72
706.27	308.55
706.60	307.42
706.94	306.31
707.27	305.29
707.61	304.13
707.94	302.83
708.27	301.54
708.61	300.39
708.94	299.28
709.28	298.18
709.61	296.99
709.94	295.89
710.28	294.88
710.61	293.80
710.95	292.57
711.28	291.59
711.61	290.60
711.95	289.59
712.28	288.63
712.61	287.49
712.95	286.60
713.28	285.67
713.61	284.63
713.95	283.65
714.28	282.71
714.61	281.74
714.95	280.83
715.28	279.91
715.61	279.03
715.95	278.10
716.28	277.10
716.61	276.35
716.95	275.47
717.28	274.62
717.61	273.76
717.94	272.97
718.28	272.17
718.61	271.44
718.94	270.66
719.27	269.89
719.61	269.20
719.94	268.52
720.27	267.75
720.60	267.06
720.94	266.36
721.27	265.72
721.60	265.18
721.93	264.56
722.27	264.06
722.60	263.42
722.93	262.78
723.26	262.31
723.59	261.68
723.93	261.11
724.26	260.58
724.59	260.00
724.92	259.50
725.25	258.95
725.59	258.40
725.92	257.85
726.25	257.30
726.58	256.84
726.91	256.28
727.24	255.78
727.57	255.28
727.91	254.69
728.24	254.21
728.57	253.73
728.90	253.32
729.23	252.80
729.56	252.44
729.89	252.09
730.22	251.58
730.55	251.07
730.89	250.59
731.22	250.08
731.55	249.65
731.88	249.20
732.21	248.75
732.54	248.30
732.87	247.85
733.20	247.42
733.53	246.97
733.86	246.58
734.19	246.18
734.52	245.84
734.85	245.65
735.18	245.21
735.51	244.89
735.84	244.52
736.17	244.06
736.50	243.50
736.83	243.35
737.16	243.01
737.49	242.70
737.82	242.38
738.15	242.01
738.48	241.71
738.81	241.34
739.14	240.87
739.47	240.49
739.80	240.18
740.13	239.89
740.46	239.57
740.79	239.20
741.12	238.85
741.45	238.55
741.78	238.10
742.11	237.87
742.44	237.50
742.77	237.19
743.10	236.95
743.43	236.70
743.75	236.12
744.08	236.07
744.41	235.78
744.74	235.49
745.07	235.25
745.40	234.98
745.73	234.83
746.06	234.63
746.39	234.31
746.71	234.02
747.04	233.66
747.37	233.44
747.70	233.12
748.03	232.93
748.36	232.66
748.68	232.41
749.01	232.00
749.34	231.74
749.67	231.48
750.00	231.23
750.33	231.08
750.65	230.84
750.98	230.41
751.31	230.11
751.64	229.90
751.97	229.78
752.29	229.55
752.62	229.19
752.95	228.88
753.28	228.68
753.60	228.46
753.93	228.34
754.26	227.99
754.59	227.80
754.91	227.48
755.24	227.27
755.57	227.04
755.90	226.92
756.22	226.72
756.55	226.45
756.88	226.23
757.20	225.99
757.53	225.71
757.86	225.41
758.19	225.29
758.51	225.14
758.84	224.88
759.17	224.63
759.49	224.46
759.82	224.40
760.15	224.31
760.47	224.15
760.80	223.96
761.13	223.87
761.45	223.74
761.78	223.57
762.11	223.37
762.43	223.22
762.76	223.04
763.08	222.88
763.41	222.85
763.74	222.63
764.06	222.48
764.39	222.38
764.71	222.26
765.04	222.05
765.37	221.88
765.69	221.73
766.02	221.62
766.34	221.46
766.67	221.29
767.00	221.16
767.32	221.09
767.65	221.08
767.97	221.00
768.30	220.89
768.62	220.84
768.95	220.71
769.27	220.61
769.60	220.49
769.92	220.37
770.25	220.15
770.57	220.13
770.90	220.05
771.22	219.97
771.55	219.93
771.87	219.84
772.20	219.80
772.52	219.78
772.85	219.92
773.17	219.89
773.50	219.83
773.82	219.75
774.15	219.59
774.47	219.42
774.80	219.27
775.12	219.12
775.45	219.06
775.77	219.06
776.09	219.03
776.42	218.99
776.74	218.95
777.07	218.95
777.39	218.85
777.72	218.69
778.04	218.65
778.36	218.55
778.69	218.49
779.01	218.36
779.33	218.16
779.66	217.84
779.98	217.72
780.31	217.63
780.63	217.55
780.95	217.48
781.28	217.36
781.60	217.32
781.92	217.29
782.25	217.19
782.57	217.03
782.89	216.87
783.22	216.79
783.54	216.70
783.86	216.61
784.19	216.55
784.51	216.59
784.83	216.45
785.16	216.39
785.48	216.34
785.80	216.32
786.12	216.27
786.45	216.27
