SpectraSuite Data File
++++++++++++++++++++++++++++++++++++
Date: Mon Feb 25 17:30:45 EST 2013
User: group
Dark Spectrum Present: No
Reference Spectrum Present: No
Number of Sampled Component Spectra: 1
Spectrometers: USB2E7196
Integration Time (usec): 52000 (USB2E7196)
Spectra Averaged: 20 (USB2E7196)
Boxcar Smoothing: 10 (USB2E7196)
Correct for Electrical Dark: No (USB2E7196)
Strobe/Lamp Enabled: No (USB2E7196)
Correct for Detector Non-linearity: No (USB2E7196)
Correct for Stray Light: No (USB2E7196)
Number of Pixels in Processed Spectrum: 2048
>>>>>Begin Processed Spectral Data<<<<<
339.09	0.00
339.48	199.30
339.86	200.45
340.24	201.05
340.63	203.10
341.01	207.25
341.39	206.70
341.78	207.40
342.16	207.85
342.54	208.70
342.93	198.33
343.31	208.36
343.69	208.90
344.07	209.32
344.46	209.83
344.84	210.30
345.22	210.53
345.60	210.68
345.99	210.93
346.37	211.11
346.75	211.30
347.13	211.38
347.52	211.48
347.90	211.51
348.28	211.57
348.66	211.60
349.05	211.65
349.43	211.71
349.81	211.74
350.19	211.76
350.57	211.83
350.96	211.91
351.34	212.00
351.72	212.15
352.10	212.29
352.48	212.33
352.87	212.34
353.25	212.32
353.63	212.43
354.01	212.39
354.39	212.43
354.77	212.40
355.15	212.53
355.54	212.51
355.92	212.47
356.30	212.50
356.68	212.75
357.06	212.82
357.44	212.84
357.82	212.89
358.20	212.93
358.58	212.98
358.97	212.97
359.35	213.02
359.73	213.00
360.11	213.04
360.49	213.07
360.87	213.07
361.25	213.15
361.63	213.23
362.01	213.31
362.39	213.38
362.77	213.38
363.15	213.34
363.53	213.38
363.91	213.49
364.29	213.55
364.67	213.28
365.05	213.29
365.43	213.26
365.81	213.28
366.19	213.35
366.57	213.36
366.95	213.38
367.33	213.34
367.71	213.36
368.09	213.41
368.47	213.38
368.85	213.37
369.23	213.35
369.61	213.29
369.99	213.29
370.37	213.24
370.75	213.33
371.13	213.26
371.51	213.17
371.89	213.08
372.27	213.05
372.65	213.05
373.03	212.98
373.41	212.90
373.78	212.88
374.16	212.77
374.54	212.73
374.92	212.72
375.30	212.65
375.68	212.53
376.06	212.47
376.44	212.50
376.82	212.48
377.19	212.41
377.57	212.41
377.95	212.32
378.33	212.29
378.71	212.16
379.09	212.13
379.47	212.06
379.84	212.02
380.22	211.95
380.60	211.94
380.98	211.93
381.36	212.02
381.73	212.00
382.11	212.02
382.49	211.99
382.87	211.90
383.25	211.89
383.62	212.12
384.00	212.09
384.38	212.00
384.76	211.96
385.13	212.05
385.51	212.00
385.89	211.97
386.27	211.96
386.64	211.97
387.02	212.00
387.40	212.05
387.78	212.14
388.15	212.18
388.53	212.11
388.91	212.03
389.29	211.90
389.66	211.87
390.04	211.82
390.42	211.78
390.79	211.75
391.17	211.69
391.55	211.43
391.92	211.42
392.30	211.48
392.68	211.46
393.05	211.40
393.43	211.40
393.81	211.40
394.18	211.35
394.56	211.38
394.94	211.40
395.31	211.40
395.69	211.42
396.06	211.37
396.44	211.47
396.82	211.49
397.19	211.66
397.57	211.69
397.95	211.74
398.32	211.76
398.70	211.84
399.07	211.92
399.45	211.97
399.82	211.98
400.20	211.92
400.58	211.93
400.95	211.97
401.33	212.06
401.70	212.22
402.08	212.26
402.45	212.28
402.83	212.32
403.20	212.41
403.58	212.51
403.95	212.67
404.33	212.77
404.71	212.90
405.08	213.00
405.46	213.14
405.83	213.26
406.21	213.35
406.58	213.44
406.96	213.61
407.33	213.76
407.70	213.90
408.08	214.24
408.45	214.54
408.83	214.78
409.20	214.92
409.58	215.06
409.95	215.45
410.33	215.77
410.70	216.07
411.08	216.32
411.45	216.50
411.82	216.79
412.20	217.18
412.57	217.71
412.95	218.10
413.32	218.61
413.69	219.15
414.07	219.72
414.44	220.38
414.82	221.02
415.19	221.76
415.56	222.45
415.94	223.22
416.31	224.02
416.68	224.90
417.06	225.94
417.43	226.96
417.81	227.94
418.18	229.03
418.55	230.19
418.93	231.47
419.30	232.80
419.67	234.16
420.04	235.56
420.42	237.01
420.79	238.70
421.16	240.30
421.54	242.12
421.91	243.93
422.28	245.78
422.66	247.75
423.03	249.76
423.40	251.86
423.77	253.99
424.15	256.19
424.52	258.45
424.89	260.95
425.26	263.27
425.64	265.56
426.01	268.05
426.38	270.67
426.75	273.34
427.13	276.24
427.50	279.24
427.87	282.25
428.24	285.22
428.61	288.17
428.99	291.28
429.36	294.70
429.73	297.99
430.10	301.37
430.47	304.84
430.85	308.43
431.22	312.25
431.59	316.36
431.96	320.20
432.33	324.43
432.70	328.57
433.08	333.37
433.45	337.90
433.82	342.45
434.19	347.36
434.56	352.15
434.93	356.64
435.30	361.15
435.68	366.22
436.05	371.37
436.42	376.35
436.79	380.97
437.16	385.89
437.53	391.22
437.90	396.32
438.27	401.41
438.64	406.56
439.01	411.39
439.38	415.59
439.75	419.71
440.13	424.37
440.50	428.75
440.87	432.47
441.24	436.33
441.61	440.45
441.98	443.54
442.35	447.19
442.72	450.80
443.09	454.21
443.46	456.26
443.83	457.52
444.20	458.66
444.57	460.41
444.94	461.12
445.31	461.84
445.68	462.76
446.05	462.85
446.42	462.26
446.79	461.51
447.16	460.62
447.53	460.03
447.90	457.98
448.27	455.96
448.64	453.02
449.01	450.87
449.37	447.24
449.74	443.86
450.11	439.75
450.48	435.38
450.85	431.00
451.22	427.15
451.59	423.57
451.96	420.04
452.33	415.40
452.70	411.13
453.07	406.15
453.43	400.90
453.80	396.10
454.17	391.46
454.54	387.16
454.91	382.52
455.28	377.95
455.65	373.75
456.02	369.59
456.38	365.98
456.75	361.48
457.12	357.82
457.49	354.05
457.86	350.45
458.23	347.40
458.59	344.00
458.96	340.56
459.33	337.45
459.70	334.46
460.07	332.05
460.43	329.27
460.80	326.64
461.17	324.35
461.54	322.01
461.91	319.79
462.27	317.38
462.64	315.42
463.01	313.21
463.38	311.15
463.74	308.89
464.11	307.11
464.48	305.57
464.85	303.89
465.21	302.59
465.58	301.19
465.95	299.42
466.32	298.04
466.68	296.71
467.05	295.40
467.42	293.94
467.78	292.54
468.15	291.27
468.52	290.40
468.88	289.11
469.25	287.95
469.62	287.02
469.98	286.09
470.35	285.17
470.72	284.34
471.08	283.39
471.45	282.66
471.82	281.90
472.18	281.00
472.55	280.30
472.92	279.59
473.28	278.98
473.65	278.47
474.02	277.83
474.38	277.38
474.75	277.02
475.11	276.67
475.48	276.34
475.85	276.06
476.21	275.78
476.58	275.67
476.94	275.57
477.31	275.46
477.67	275.39
478.04	275.36
478.41	275.52
478.77	275.90
479.14	276.04
479.50	276.24
479.87	276.56
480.23	277.07
480.60	277.46
480.96	277.98
481.33	278.56
481.69	279.29
482.06	279.89
482.42	280.52
482.79	281.20
483.15	282.11
483.52	283.15
483.88	284.14
484.25	285.08
484.61	286.25
484.98	287.37
485.34	288.59
485.71	290.06
486.07	291.59
486.44	292.81
486.80	294.36
487.17	296.05
487.53	297.80
487.90	299.58
488.26	301.55
488.62	303.51
488.99	305.63
489.35	307.74
489.72	310.20
490.08	312.57
490.44	315.22
490.81	317.87
491.17	320.45
491.54	323.33
491.90	326.29
492.26	329.54
492.63	332.87
492.99	336.40
493.36	339.95
493.72	343.62
494.08	347.62
494.45	351.83
494.81	356.20
495.17	360.82
495.54	365.73
495.90	370.63
496.26	375.82
496.63	381.20
496.99	386.93
497.35	392.73
497.72	399.04
498.08	405.33
498.44	412.02
498.80	419.29
499.17	426.69
499.53	434.34
499.89	442.26
500.26	450.23
500.62	458.44
500.98	467.28
501.34	476.45
501.71	485.76
502.07	495.39
502.43	505.27
502.79	515.37
503.16	525.73
503.52	536.74
503.88	547.83
504.24	559.35
504.60	571.06
504.97	583.23
505.33	595.54
505.69	608.83
506.05	622.25
506.41	635.58
506.78	649.23
507.14	663.34
507.50	677.68
507.86	692.53
508.22	707.88
508.59	723.14
508.95	738.77
509.31	754.93
509.67	771.49
510.03	788.24
510.39	805.75
510.75	823.38
511.12	841.09
511.48	859.29
511.84	877.72
512.20	896.20
512.56	915.20
512.92	934.62
513.28	953.96
513.64	973.38
514.00	993.15
514.37	1013.09
514.73	1033.53
515.09	1053.83
515.45	1074.35
515.81	1094.99
516.17	1116.04
516.53	1137.22
516.89	1158.41
517.25	1179.43
517.61	1200.84
517.97	1221.84
518.33	1243.11
518.69	1264.56
519.05	1286.44
519.41	1308.35
519.77	1330.72
520.13	1352.61
520.49	1374.16
520.85	1396.20
521.21	1418.22
521.57	1440.64
521.93	1462.56
522.29	1484.94
522.65	1507.20
523.01	1529.58
523.37	1551.41
523.73	1573.32
524.09	1594.80
524.45	1616.68
524.81	1638.75
525.17	1660.64
525.53	1682.71
525.89	1704.41
526.25	1725.90
526.61	1746.79
526.97	1767.95
527.33	1788.73
527.68	1809.68
528.04	1830.66
528.40	1850.76
528.76	1870.98
529.12	1891.39
529.48	1912.39
529.84	1932.41
530.20	1952.36
530.56	1972.04
530.91	1992.49
531.27	2012.47
531.63	2032.21
531.99	2051.60
532.35	2070.15
532.71	2088.70
533.07	2107.55
533.42	2126.03
533.78	2144.58
534.14	2162.53
534.50	2179.32
534.86	2196.88
535.21	2213.12
535.57	2230.29
535.93	2246.91
536.29	2263.44
536.65	2279.49
537.00	2294.33
537.36	2309.05
537.72	2323.82
538.08	2338.59
538.44	2353.32
538.79	2368.15
539.15	2382.75
539.51	2397.15
539.87	2412.13
540.22	2425.93
540.58	2440.20
540.94	2454.17
541.29	2466.58
541.65	2478.31
542.01	2490.96
542.37	2502.20
542.72	2514.31
543.08	2524.35
543.44	2535.60
543.79	2545.60
544.15	2555.36
544.51	2566.16
544.87	2576.68
545.22	2585.42
545.58	2593.47
545.94	2599.87
546.29	2605.72
546.65	2611.36
547.01	2617.00
547.36	2622.44
547.72	2627.78
548.07	2631.42
548.43	2634.41
548.79	2637.87
549.14	2642.29
549.50	2646.08
549.86	2650.11
550.21	2653.59
550.57	2657.75
550.92	2660.33
551.28	2662.49
551.64	2664.47
551.99	2666.39
552.35	2667.35
552.70	2669.82
553.06	2672.62
553.41	2675.71
553.77	2678.53
554.13	2680.30
554.48	2681.95
554.84	2683.05
555.19	2683.40
555.55	2683.64
555.90	2684.52
556.26	2684.78
556.61	2684.45
556.97	2683.10
557.32	2682.12
557.68	2680.56
558.03	2678.57
558.39	2676.80
558.74	2676.30
559.10	2674.92
559.45	2672.89
559.81	2671.87
560.16	2669.23
560.52	2666.52
560.87	2663.45
561.23	2659.77
561.58	2657.40
561.94	2653.97
562.29	2650.01
562.64	2647.77
563.00	2645.63
563.35	2642.92
563.71	2641.10
564.06	2638.90
564.42	2637.27
564.77	2634.83
565.12	2632.79
565.48	2629.88
565.83	2626.81
566.19	2623.17
566.54	2618.76
566.89	2614.69
567.25	2611.01
567.60	2607.50
567.96	2603.59
568.31	2599.83
568.66	2595.84
569.02	2591.33
569.37	2586.07
569.72	2581.96
570.08	2576.54
570.43	2570.28
570.78	2564.56
571.14	2558.15
571.49	2551.56
571.84	2545.38
572.20	2538.36
572.55	2531.66
572.90	2524.69
573.26	2517.66
573.61	2510.80
573.96	2504.69
574.31	2497.14
574.67	2489.16
575.02	2480.91
575.37	2472.55
575.72	2463.54
576.08	2456.07
576.43	2447.41
576.78	2440.10
577.13	2432.34
577.49	2424.42
577.84	2416.99
578.19	2409.52
578.54	2402.41
578.90	2395.04
579.25	2386.54
579.60	2377.65
579.95	2368.53
580.30	2360.71
580.66	2353.31
581.01	2344.55
581.36	2335.41
581.71	2327.19
582.06	2318.60
582.42	2310.58
582.77	2301.60
583.12	2293.46
583.47	2284.71
583.82	2276.87
584.17	2267.86
584.53	2259.01
584.88	2250.37
585.23	2241.61
585.58	2232.23
585.93	2222.50
586.28	2213.87
586.63	2205.36
586.98	2197.58
587.34	2189.72
587.69	2180.90
588.04	2171.61
588.39	2163.55
588.74	2154.83
589.09	2146.44
589.44	2137.22
589.79	2128.75
590.14	2121.07
590.49	2112.66
590.84	2104.05
591.19	2096.25
591.54	2087.70
591.89	2077.74
592.25	2068.80
592.60	2059.54
592.95	2050.44
593.30	2041.42
593.65	2031.97
594.00	2022.39
594.35	2013.97
594.70	2004.80
595.05	1996.47
595.40	1987.83
595.75	1978.47
596.10	1970.60
596.45	1962.60
596.80	1954.94
597.15	1946.93
597.50	1938.05
597.85	1929.85
598.19	1921.30
598.54	1912.74
598.89	1904.92
599.24	1898.56
599.59	1891.46
599.94	1884.85
600.29	1877.81
600.64	1870.22
600.99	1862.10
601.34	1855.12
601.69	1846.86
602.04	1838.99
602.39	1831.11
602.74	1823.47
603.08	1816.77
603.43	1809.71
603.78	1801.59
604.13	1793.92
604.48	1786.26
604.83	1779.73
605.18	1772.95
605.53	1765.77
605.87	1758.45
606.22	1751.95
606.57	1744.22
606.92	1736.25
607.27	1728.25
607.62	1720.68
607.96	1713.98
608.31	1708.10
608.66	1700.30
609.01	1693.10
609.36	1685.57
609.70	1678.01
610.05	1670.71
610.40	1662.72
610.75	1654.42
611.10	1647.14
611.44	1638.27
611.79	1629.68
612.14	1620.58
612.49	1611.22
612.83	1602.55
613.18	1592.95
613.53	1583.62
613.88	1574.10
614.22	1565.39
614.57	1556.22
614.92	1547.12
615.27	1538.10
615.61	1528.67
615.96	1520.11
616.31	1511.56
616.65	1503.90
617.00	1495.59
617.35	1487.02
617.70	1478.47
618.04	1469.61
618.39	1460.25
618.74	1452.18
619.08	1443.63
619.43	1435.60
619.78	1428.01
620.12	1420.15
620.47	1412.68
620.82	1404.45
621.16	1396.54
621.51	1388.47
621.85	1380.73
622.20	1372.63
622.55	1364.20
622.89	1355.90
623.24	1348.42
623.59	1340.27
623.93	1331.56
624.28	1323.63
624.62	1315.80
624.97	1307.95
625.32	1300.22
625.66	1293.21
626.01	1286.05
626.35	1279.00
626.70	1271.55
627.04	1264.34
627.39	1256.90
627.73	1249.48
628.08	1242.78
628.43	1235.75
628.77	1228.49
629.12	1220.99
629.46	1214.27
629.81	1207.61
630.15	1200.52
630.50	1193.31
630.84	1186.00
631.19	1179.24
631.53	1172.52
631.88	1165.15
632.22	1157.69
632.57	1151.13
632.91	1143.67
633.26	1136.35
633.60	1129.19
633.95	1122.70
634.29	1115.49
634.64	1109.00
634.98	1102.26
635.32	1095.00
635.67	1088.69
636.01	1082.25
636.36	1075.73
636.70	1069.28
637.05	1062.61
637.39	1056.36
637.73	1050.07
638.08	1044.50
638.42	1038.72
638.77	1032.31
639.11	1026.09
639.45	1020.45
639.80	1014.01
640.14	1007.91
640.49	1001.88
640.83	995.87
641.17	989.40
641.52	983.26
641.86	976.78
642.20	970.62
642.55	964.15
642.89	957.71
643.23	951.43
643.58	945.69
643.92	939.35
644.26	933.35
644.61	927.36
644.95	921.12
645.29	914.78
645.64	908.26
645.98	902.27
646.32	896.49
646.66	890.31
647.01	884.31
647.35	878.66
647.69	872.51
648.04	866.65
648.38	860.85
648.72	855.08
649.06	849.30
649.41	843.35
649.75	837.94
650.09	832.30
650.43	826.33
650.78	820.17
651.12	814.24
651.46	808.44
651.80	802.77
652.14	797.12
652.49	791.35
652.83	785.85
653.17	779.79
653.51	773.98
653.85	768.40
654.20	762.92
654.54	757.07
654.88	751.64
655.22	745.98
655.56	740.14
655.90	734.35
656.25	728.73
656.59	723.35
656.93	718.18
657.27	713.04
657.61	707.96
657.95	703.00
658.29	697.99
658.64	693.08
658.98	687.94
659.32	682.76
659.66	677.85
660.00	672.48
660.34	667.40
660.68	662.32
661.02	657.38
661.36	652.79
661.70	648.23
662.05	643.63
662.39	639.26
662.73	635.14
663.07	631.01
663.41	626.93
663.75	622.45
664.09	617.80
664.43	613.18
664.77	608.82
665.11	604.46
665.45	600.23
665.79	595.96
666.13	591.77
666.47	587.62
666.81	583.55
667.15	579.76
667.49	576.14
667.83	572.50
668.17	568.64
668.51	564.71
668.85	561.02
669.19	557.56
669.53	553.70
669.87	549.64
670.21	545.87
670.55	541.95
670.89	538.63
671.23	535.38
671.57	532.01
671.91	528.65
672.25	525.28
672.58	521.85
672.92	518.45
673.26	515.30
673.60	512.09
673.94	508.76
674.28	505.52
674.62	502.31
674.96	499.24
675.30	496.26
675.64	493.22
675.97	490.02
676.31	486.93
676.65	484.15
676.99	481.65
677.33	478.77
677.67	475.96
678.01	472.99
678.34	470.00
678.68	467.17
679.02	464.29
679.36	461.51
679.70	458.89
680.04	455.97
680.37	453.01
680.71	450.33
681.05	447.71
681.39	445.07
681.73	442.45
682.06	439.89
682.40	437.38
682.74	434.88
683.08	432.50
683.42	429.87
683.75	427.33
684.09	424.68
684.43	422.24
684.77	419.70
685.10	417.23
685.44	414.82
685.78	412.46
686.12	410.19
686.45	408.01
686.79	405.71
687.13	403.74
687.46	401.60
687.80	399.46
688.14	397.30
688.48	395.21
688.81	393.04
689.15	390.89
689.49	388.66
689.82	386.48
690.16	384.08
690.50	381.93
690.83	379.74
691.17	377.54
691.51	375.41
691.84	373.45
692.18	371.51
692.52	369.54
692.85	367.59
693.19	365.83
693.52	363.84
693.86	361.86
694.20	359.89
694.53	358.06
694.87	356.06
695.21	354.27
695.54	352.35
695.88	350.50
696.21	348.59
696.55	346.85
696.88	345.12
697.22	343.58
697.56	342.01
697.89	340.48
698.23	338.93
698.56	337.34
698.90	335.75
699.23	334.15
699.57	332.67
699.90	331.15
700.24	329.36
700.58	327.81
700.91	326.32
701.25	324.95
701.58	323.51
701.92	322.15
702.25	320.67
702.59	319.30
702.92	317.93
703.26	316.61
703.59	315.42
703.93	314.30
704.26	313.00
704.60	311.79
704.93	310.43
705.26	309.20
705.60	307.99
705.93	306.77
706.27	305.70
706.60	304.57
706.94	303.41
707.27	302.32
707.61	301.17
707.94	299.99
708.27	298.78
708.61	297.68
708.94	296.63
709.28	295.44
709.61	294.39
709.94	293.47
710.28	292.42
710.61	291.33
710.95	290.16
711.28	289.20
711.61	288.09
711.95	287.16
712.28	286.24
712.61	285.32
712.95	284.49
713.28	283.52
713.61	282.54
713.95	281.61
714.28	280.80
714.61	279.89
714.95	279.11
715.28	278.20
715.61	277.21
715.95	276.41
716.28	275.61
716.61	274.79
716.95	274.00
717.28	273.22
717.61	272.48
717.94	271.73
718.28	270.89
718.61	270.16
718.94	269.35
719.27	268.58
719.61	267.87
719.94	267.17
720.27	266.40
720.60	265.73
720.94	265.06
721.27	264.33
721.60	263.81
721.93	263.23
722.27	262.70
722.60	262.26
722.93	261.60
723.26	261.08
723.59	260.56
723.93	259.90
724.26	259.37
724.59	258.71
724.92	258.17
725.25	257.70
725.59	257.20
725.92	256.77
726.25	256.25
726.58	255.70
726.91	255.15
727.24	254.74
727.57	254.24
727.91	253.75
728.24	253.29
728.57	252.73
728.90	252.22
729.23	251.71
729.56	251.33
729.89	250.92
730.22	250.48
730.55	249.97
730.89	249.59
731.22	249.12
731.55	248.76
731.88	248.32
732.21	247.85
732.54	247.45
732.87	247.05
733.20	246.65
733.53	246.31
733.86	245.93
734.19	245.49
734.52	245.13
734.85	244.91
735.18	244.46
735.51	244.08
735.84	243.65
736.17	243.28
736.50	242.87
736.83	242.66
737.16	242.28
737.49	241.97
737.82	241.60
738.15	241.18
738.48	240.80
738.81	240.43
739.14	240.10
739.47	239.70
739.80	239.34
740.13	239.02
740.46	238.54
740.79	238.18
741.12	237.85
741.45	237.49
741.78	237.03
742.11	236.94
742.44	236.60
742.77	236.32
743.10	236.07
743.43	235.64
743.75	235.06
744.08	235.01
744.41	234.70
744.74	234.36
745.07	234.15
745.40	233.92
745.73	233.76
746.06	233.45
746.39	233.20
746.71	232.87
747.04	232.62
747.37	232.46
747.70	232.20
748.03	231.95
748.36	231.79
748.68	231.56
749.01	231.16
749.34	231.02
749.67	230.80
750.00	230.53
750.33	230.50
750.65	230.41
750.98	229.99
751.31	229.71
751.64	229.55
751.97	229.40
752.29	229.15
752.62	228.78
752.95	228.66
753.28	228.45
753.60	228.27
753.93	228.08
754.26	227.90
754.59	227.67
754.91	227.46
755.24	227.22
755.57	227.00
755.90	226.81
756.22	226.54
756.55	226.40
756.88	226.20
757.20	225.88
757.53	225.57
757.86	225.41
758.19	225.18
758.51	224.98
758.84	224.78
759.17	224.59
759.49	224.57
759.82	224.38
760.15	224.22
760.47	224.09
760.80	223.84
761.13	223.65
761.45	223.55
761.78	223.35
762.11	223.13
762.43	222.97
762.76	222.89
763.08	222.78
763.41	222.65
763.74	222.50
764.06	222.29
764.39	222.22
764.71	221.98
765.04	221.94
765.37	221.78
765.69	221.57
766.02	221.47
766.34	221.22
766.67	221.09
767.00	220.95
767.32	220.85
767.65	220.89
767.97	220.74
768.30	220.57
768.62	220.48
768.95	220.41
769.27	220.37
769.60	220.21
769.92	220.09
770.25	219.90
770.57	219.79
770.90	219.75
771.22	219.58
771.55	219.57
771.87	219.44
772.20	219.38
772.52	219.44
772.85	219.53
773.17	219.50
773.50	219.37
773.82	219.23
774.15	219.13
774.47	218.90
774.80	218.82
775.12	218.77
775.45	218.68
775.77	218.58
776.09	218.35
776.42	218.30
776.74	218.31
777.07	218.30
777.39	218.22
777.72	218.11
778.04	218.06
778.36	217.95
778.69	217.83
779.01	217.70
779.33	217.56
779.66	217.30
779.98	217.17
780.31	217.14
780.63	217.18
780.95	217.10
781.28	217.07
781.60	217.05
781.92	216.99
782.25	217.03
782.57	217.04
782.89	217.13
783.22	217.12
783.54	216.99
783.86	216.94
784.19	216.93
784.51	216.96
784.83	216.90
785.16	216.80
785.48	216.84
785.80	216.84
786.12	216.80
786.45	216.78
