SpectraSuite Data File
++++++++++++++++++++++++++++++++++++
Date: Mon Feb 25 17:32:27 EST 2013
User: group
Dark Spectrum Present: No
Reference Spectrum Present: No
Number of Sampled Component Spectra: 1
Spectrometers: USB2E7196
Integration Time (usec): 52000 (USB2E7196)
Spectra Averaged: 20 (USB2E7196)
Boxcar Smoothing: 10 (USB2E7196)
Correct for Electrical Dark: No (USB2E7196)
Strobe/Lamp Enabled: No (USB2E7196)
Correct for Detector Non-linearity: No (USB2E7196)
Correct for Stray Light: No (USB2E7196)
Number of Pixels in Processed Spectrum: 2048
>>>>>Begin Processed Spectral Data<<<<<
339.09	0.00
339.48	197.15
339.86	200.25
340.24	201.60
340.63	202.65
341.01	205.20
341.39	205.80
341.78	206.55
342.16	208.15
342.54	208.50
342.93	198.01
343.31	207.99
343.69	208.65
344.07	209.11
344.46	209.56
344.84	209.96
345.22	210.29
345.60	210.55
345.99	210.79
346.37	210.97
346.75	211.15
347.13	211.24
347.52	211.27
347.90	211.43
348.28	211.57
348.66	211.63
349.05	211.75
349.43	211.72
349.81	211.78
350.19	211.85
350.57	211.94
350.96	211.99
351.34	212.15
351.72	212.21
352.10	212.30
352.48	212.41
352.87	212.50
353.25	212.49
353.63	212.55
354.01	212.69
354.39	212.80
354.77	212.86
355.15	212.97
355.54	213.04
355.92	213.03
356.30	213.08
356.68	213.29
357.06	213.25
357.44	213.41
357.82	213.53
358.20	213.57
358.58	213.59
358.97	213.63
359.35	213.70
359.73	213.84
360.11	213.90
360.49	213.97
360.87	214.00
361.25	214.12
361.63	214.21
362.01	214.18
362.39	214.21
362.77	214.26
363.15	214.27
363.53	214.30
363.91	214.28
364.29	214.29
364.67	214.12
365.05	214.14
365.43	214.08
365.81	214.07
366.19	214.11
366.57	214.15
366.95	214.21
367.33	214.11
367.71	214.08
368.09	214.18
368.47	214.17
368.85	214.18
369.23	214.15
369.61	214.10
369.99	214.18
370.37	214.10
370.75	214.12
371.13	214.06
371.51	214.00
371.89	213.98
372.27	213.93
372.65	213.87
373.03	213.84
373.41	213.82
373.78	213.77
374.16	213.75
374.54	213.67
374.92	213.53
375.30	213.55
375.68	213.46
376.06	213.35
376.44	213.19
376.82	213.13
377.19	213.09
377.57	213.01
377.95	212.89
378.33	212.87
378.71	212.76
379.09	212.66
379.47	212.65
379.84	212.57
380.22	212.55
380.60	212.54
380.98	212.50
381.36	212.43
381.73	212.36
382.11	212.31
382.49	212.35
382.87	212.34
383.25	212.27
383.62	212.39
384.00	212.28
384.38	212.27
384.76	212.31
385.13	212.30
385.51	212.24
385.89	212.17
386.27	212.08
386.64	212.04
387.02	212.09
387.40	212.03
387.78	212.06
388.15	211.95
388.53	211.88
388.91	211.86
389.29	211.85
389.66	211.81
390.04	211.74
390.42	211.69
390.79	211.68
391.17	211.69
391.55	211.52
391.92	211.58
392.30	211.63
392.68	211.49
393.05	211.52
393.43	211.54
393.81	211.45
394.18	211.45
394.56	211.42
394.94	211.40
395.31	211.39
395.69	211.44
396.06	211.58
396.44	211.62
396.82	211.62
397.19	211.74
397.57	211.76
397.95	211.79
398.32	211.71
398.70	211.74
399.07	211.77
399.45	211.79
399.82	211.75
400.20	211.73
400.58	211.84
400.95	211.79
401.33	211.87
401.70	212.15
402.08	212.21
402.45	212.29
402.83	212.47
403.20	212.57
403.58	212.58
403.95	212.67
404.33	212.76
404.71	212.83
405.08	212.96
405.46	213.01
405.83	213.16
406.21	213.35
406.58	213.42
406.96	213.62
407.33	213.74
407.70	214.00
408.08	214.33
408.45	214.63
408.83	214.85
409.20	215.06
409.58	215.26
409.95	215.60
410.33	215.96
410.70	216.09
411.08	216.43
411.45	216.87
411.82	217.22
412.20	217.66
412.57	218.16
412.95	218.51
413.32	219.08
413.69	219.57
414.07	220.10
414.44	220.85
414.82	221.42
415.19	222.23
415.56	222.91
415.94	223.60
416.31	224.43
416.68	225.37
417.06	226.39
417.43	227.22
417.81	228.23
418.18	229.27
418.55	230.50
418.93	231.70
419.30	232.91
419.67	234.24
420.04	235.60
420.42	237.10
420.79	238.87
421.16	240.61
421.54	242.44
421.91	244.26
422.28	246.07
422.66	248.08
423.03	250.13
423.40	252.25
423.77	254.45
424.15	256.66
424.52	258.91
424.89	261.36
425.26	263.89
425.64	266.33
426.01	268.88
426.38	271.61
426.75	274.42
427.13	277.30
427.50	280.32
427.87	283.44
428.24	286.49
428.61	289.33
428.99	292.51
429.36	296.02
429.73	299.49
430.10	302.88
430.47	306.40
430.85	309.95
431.22	313.89
431.59	318.08
431.96	321.98
432.33	326.35
432.70	330.61
433.08	335.52
433.45	340.00
433.82	344.56
434.19	349.65
434.56	354.55
434.93	359.25
435.30	363.93
435.68	369.11
436.05	374.23
436.42	379.33
436.79	384.09
437.16	388.97
437.53	394.28
437.90	399.65
438.27	404.78
438.64	410.06
439.01	414.90
439.38	419.27
439.75	423.55
440.13	428.37
440.50	432.84
440.87	436.48
441.24	440.39
441.61	444.64
441.98	447.70
442.35	451.28
442.72	455.01
443.09	458.51
443.46	460.55
443.83	461.90
444.20	463.10
444.57	464.65
444.94	465.42
445.31	466.11
445.68	466.85
446.05	467.23
446.42	466.61
446.79	465.80
447.16	464.88
447.53	464.14
447.90	462.00
448.27	459.86
448.64	456.95
449.01	454.86
449.37	451.30
449.74	447.78
450.11	443.73
450.48	439.12
450.85	434.52
451.22	430.68
451.59	426.98
451.96	423.54
452.33	418.93
452.70	414.61
453.07	409.59
453.43	404.38
453.80	399.41
454.17	394.76
454.54	390.36
454.91	385.52
455.28	380.86
455.65	376.54
456.02	372.35
456.38	368.64
456.75	364.03
457.12	360.12
457.49	356.34
457.86	352.52
458.23	349.36
458.59	345.92
458.96	342.41
459.33	339.38
459.70	336.06
460.07	333.52
460.43	330.77
460.80	328.11
461.17	325.67
461.54	323.14
461.91	320.73
462.27	318.37
462.64	316.41
463.01	314.18
463.38	312.11
463.74	309.85
464.11	307.97
464.48	306.27
464.85	304.56
465.21	303.19
465.58	301.76
465.95	300.10
466.32	298.61
466.68	297.25
467.05	295.84
467.42	294.53
467.78	293.09
468.15	291.76
468.52	290.82
468.88	289.62
469.25	288.44
469.62	287.56
469.98	286.62
470.35	285.71
470.72	284.96
471.08	283.98
471.45	283.23
471.82	282.50
472.18	281.68
472.55	281.08
472.92	280.35
473.28	279.85
473.65	279.25
474.02	278.79
474.38	278.24
474.75	277.90
475.11	277.56
475.48	277.35
475.85	277.14
476.21	276.86
476.58	276.69
476.94	276.67
477.31	276.64
477.67	276.53
478.04	276.56
478.41	276.62
478.77	276.90
479.14	276.99
479.50	277.25
479.87	277.66
480.23	278.03
480.60	278.41
480.96	278.85
481.33	279.51
481.69	280.18
482.06	280.90
482.42	281.49
482.79	282.09
483.15	283.04
483.52	283.98
483.88	285.02
484.25	286.08
484.61	287.17
484.98	288.27
485.34	289.49
485.71	290.82
486.07	292.28
486.44	293.56
486.80	295.20
487.17	296.82
487.53	298.52
487.90	300.31
488.26	302.24
488.62	304.17
488.99	306.24
489.35	308.34
489.72	310.64
490.08	313.03
490.44	315.59
490.81	318.15
491.17	320.81
491.54	323.78
491.90	326.79
492.26	329.99
492.63	333.26
492.99	336.83
493.36	340.36
493.72	344.16
494.08	348.29
494.45	352.57
494.81	356.99
495.17	361.56
495.54	366.44
495.90	371.44
496.26	376.74
496.63	382.23
496.99	387.95
497.35	393.92
497.72	400.42
498.08	406.91
498.44	413.64
498.80	420.84
499.17	428.13
499.53	435.76
499.89	443.72
500.26	451.87
500.62	460.16
500.98	469.14
501.34	478.17
501.71	487.50
502.07	497.10
502.43	507.21
502.79	517.48
503.16	528.09
503.52	539.18
503.88	550.32
504.24	561.90
504.60	573.77
504.97	585.97
505.33	598.09
505.69	611.45
506.05	624.80
506.41	638.32
506.78	651.96
507.14	665.90
507.50	680.41
507.86	695.37
508.22	710.56
508.59	726.08
508.95	742.13
509.31	758.50
509.67	775.15
510.03	791.93
510.39	809.42
510.75	827.22
511.12	845.10
511.48	863.40
511.84	881.82
512.20	900.36
512.56	919.52
512.92	939.07
513.28	958.36
513.64	978.06
514.00	997.93
514.37	1018.26
514.73	1039.13
515.09	1059.73
515.45	1080.63
515.81	1101.80
516.17	1122.77
516.53	1144.00
516.89	1165.54
517.25	1187.04
517.61	1208.72
517.97	1230.08
518.33	1251.35
518.69	1273.13
519.05	1295.15
519.41	1317.23
519.77	1339.96
520.13	1361.95
520.49	1384.06
520.85	1406.89
521.21	1429.23
521.57	1452.10
521.93	1474.24
522.29	1497.04
522.65	1519.63
523.01	1542.19
523.37	1564.20
523.73	1586.49
524.09	1608.61
524.45	1630.60
524.81	1652.94
525.17	1675.35
525.53	1697.80
525.89	1720.18
526.25	1742.15
526.61	1763.34
526.97	1785.14
527.33	1806.27
527.68	1828.07
528.04	1849.21
528.40	1869.21
528.76	1889.89
529.12	1910.39
529.48	1932.05
529.84	1952.18
530.20	1972.68
530.56	1992.96
530.91	2013.70
531.27	2034.04
531.63	2053.88
531.99	2073.65
532.35	2093.04
532.71	2111.70
533.07	2131.24
533.42	2149.62
533.78	2168.47
534.14	2186.99
534.50	2204.37
534.86	2222.48
535.21	2238.79
535.57	2256.71
535.93	2274.37
536.29	2291.33
536.65	2308.10
537.00	2322.97
537.36	2338.24
537.72	2353.32
538.08	2368.11
538.44	2383.52
538.79	2398.86
539.15	2413.91
539.51	2428.54
539.87	2443.25
540.22	2457.83
540.58	2472.33
540.94	2486.91
541.29	2499.67
541.65	2511.85
542.01	2524.79
542.37	2536.35
542.72	2548.32
543.08	2558.83
543.44	2570.37
543.79	2580.52
544.15	2590.63
544.51	2601.87
544.87	2612.95
545.22	2621.80
545.58	2630.16
545.94	2637.14
546.29	2643.65
546.65	2649.53
547.01	2655.76
547.36	2661.31
547.72	2666.88
548.07	2670.71
548.43	2674.39
548.79	2678.01
549.14	2682.53
549.50	2686.57
549.86	2690.75
550.21	2695.26
550.57	2699.36
550.92	2701.99
551.28	2704.74
551.64	2707.11
551.99	2709.25
552.35	2710.78
552.70	2713.47
553.06	2716.39
553.41	2719.31
553.77	2721.93
554.13	2724.19
554.48	2726.05
554.84	2727.67
555.19	2728.06
555.55	2728.75
555.90	2729.12
556.26	2729.84
556.61	2729.56
556.97	2728.38
557.32	2727.60
557.68	2725.68
558.03	2724.49
558.39	2722.90
558.74	2722.31
559.10	2721.11
559.45	2719.34
559.81	2718.10
560.16	2715.40
560.52	2712.87
560.87	2710.19
561.23	2706.41
561.58	2704.37
561.94	2700.89
562.29	2696.93
562.64	2694.56
563.00	2692.03
563.35	2690.03
563.71	2688.13
564.06	2686.43
564.42	2684.30
564.77	2681.95
565.12	2680.28
565.48	2676.57
565.83	2673.52
566.19	2670.18
566.54	2665.80
566.89	2661.93
567.25	2657.83
567.60	2654.64
567.96	2651.13
568.31	2647.36
568.66	2643.76
569.02	2638.77
569.37	2633.69
569.72	2629.89
570.08	2624.63
570.43	2618.56
570.78	2612.53
571.14	2606.16
571.49	2599.16
571.84	2593.55
572.20	2586.50
572.55	2579.65
572.90	2573.05
573.26	2566.15
573.61	2559.05
573.96	2552.39
574.31	2544.59
574.67	2536.71
575.02	2528.41
575.37	2519.87
575.72	2510.79
576.08	2503.19
576.43	2494.97
576.78	2487.21
577.13	2479.02
577.49	2470.89
577.84	2463.84
578.19	2456.34
578.54	2449.07
578.90	2442.19
579.25	2433.38
579.60	2424.32
579.95	2415.25
580.30	2407.29
580.66	2398.77
581.01	2389.68
581.36	2380.70
581.71	2372.55
582.06	2364.15
582.42	2355.95
582.77	2346.53
583.12	2337.75
583.47	2329.15
583.82	2320.68
584.17	2311.71
584.53	2302.74
584.88	2293.93
585.23	2284.36
585.58	2275.16
585.93	2265.53
586.28	2256.22
586.63	2247.39
586.98	2239.18
587.34	2230.92
587.69	2221.78
588.04	2213.01
588.39	2204.87
588.74	2196.09
589.09	2187.38
589.44	2177.82
589.79	2169.00
590.14	2161.41
590.49	2153.19
590.84	2143.87
591.19	2135.85
591.54	2127.18
591.89	2117.36
592.25	2108.19
592.60	2099.00
592.95	2089.38
593.30	2079.74
593.65	2070.11
594.00	2060.72
594.35	2052.91
594.70	2043.64
595.05	2035.04
595.40	2026.28
595.75	2016.62
596.10	2008.30
596.45	1999.62
596.80	1991.78
597.15	1983.65
597.50	1974.44
597.85	1965.90
598.19	1957.53
598.54	1948.77
598.89	1940.95
599.24	1934.14
599.59	1926.85
599.94	1919.74
600.29	1912.03
600.64	1904.16
600.99	1896.28
601.34	1888.97
601.69	1879.99
602.04	1871.88
602.39	1863.71
602.74	1855.90
603.08	1849.60
603.43	1842.61
603.78	1834.65
604.13	1826.87
604.48	1819.08
604.83	1812.23
605.18	1805.30
605.53	1797.78
605.87	1790.11
606.22	1782.78
606.57	1775.05
606.92	1767.06
607.27	1758.95
607.62	1751.79
607.96	1745.10
608.31	1738.68
608.66	1731.00
609.01	1723.36
609.36	1715.82
609.70	1707.97
610.05	1700.40
610.40	1692.00
610.75	1683.34
611.10	1675.75
611.44	1666.67
611.79	1657.61
612.14	1648.44
612.49	1638.74
612.83	1630.05
613.18	1620.63
613.53	1611.42
613.88	1601.75
614.22	1592.80
614.57	1583.55
614.92	1574.11
615.27	1564.66
615.61	1554.94
615.96	1546.05
616.31	1537.59
616.65	1529.68
617.00	1521.36
617.35	1512.67
617.70	1503.79
618.04	1494.84
618.39	1485.35
618.74	1476.84
619.08	1468.22
619.43	1460.07
619.78	1452.38
620.12	1444.19
620.47	1436.57
620.82	1427.95
621.16	1419.83
621.51	1411.31
621.85	1403.25
622.20	1395.01
622.55	1386.95
622.89	1378.49
623.24	1370.50
623.59	1361.86
623.93	1353.33
624.28	1345.18
624.62	1336.94
624.97	1328.92
625.32	1321.17
625.66	1314.03
626.01	1306.77
626.35	1299.72
626.70	1291.83
627.04	1284.15
627.39	1276.67
627.73	1268.97
628.08	1262.28
628.43	1254.85
628.77	1247.65
629.12	1240.14
629.46	1233.30
629.81	1225.98
630.15	1218.62
630.50	1211.13
630.84	1204.04
631.19	1196.78
631.53	1189.91
631.88	1182.37
632.22	1174.76
632.57	1167.71
632.91	1160.10
633.26	1152.65
633.60	1145.53
633.95	1138.89
634.29	1131.72
634.64	1125.07
634.98	1118.00
635.32	1110.81
635.67	1104.49
636.01	1097.89
636.36	1091.21
636.70	1084.64
637.05	1078.02
637.39	1071.86
637.73	1065.55
638.08	1059.89
638.42	1053.97
638.77	1047.58
639.11	1041.13
639.45	1035.21
639.80	1028.62
640.14	1022.45
640.49	1016.27
640.83	1009.96
641.17	1003.64
641.52	997.74
641.86	991.29
642.20	985.20
642.55	978.58
642.89	971.89
643.23	965.55
643.58	959.76
643.92	953.16
644.26	947.04
644.61	941.13
644.95	935.10
645.29	928.68
645.64	922.12
645.98	915.95
646.32	910.43
646.66	904.18
647.01	898.42
647.35	892.66
647.69	886.44
648.04	880.35
648.38	874.43
648.72	868.30
649.06	862.13
649.41	856.03
649.75	850.27
650.09	844.69
650.43	838.69
650.78	832.39
651.12	826.58
651.46	820.91
651.80	814.99
652.14	808.96
652.49	803.01
652.83	797.34
653.17	791.31
653.51	785.29
653.85	779.70
654.20	773.84
654.54	767.85
654.88	762.39
655.22	756.90
655.56	750.73
655.90	744.81
656.25	739.27
656.59	733.94
656.93	728.79
657.27	723.51
657.61	718.27
657.95	713.29
658.29	708.24
658.64	703.00
658.98	697.72
659.32	692.35
659.66	687.09
660.00	681.74
660.34	676.55
660.68	671.44
661.02	666.40
661.36	661.71
661.70	657.04
662.05	652.26
662.39	647.72
662.73	643.75
663.07	639.60
663.41	635.28
663.75	630.65
664.09	625.91
664.43	621.30
664.77	616.92
665.11	612.48
665.45	607.93
665.79	603.52
666.13	599.15
666.47	595.06
666.81	591.03
667.15	587.10
667.49	583.22
667.83	579.32
668.17	575.49
668.51	571.61
668.85	567.92
669.19	564.37
669.53	560.37
669.87	556.22
670.21	552.39
670.55	548.42
670.89	544.92
671.23	541.58
671.57	538.10
671.91	534.42
672.25	530.81
672.58	527.29
672.92	523.84
673.26	520.70
673.60	517.50
673.94	514.16
674.28	510.84
674.62	507.74
674.96	504.53
675.30	501.43
675.64	498.14
675.97	494.95
676.31	491.85
676.65	488.98
676.99	486.39
677.33	483.33
677.67	480.45
678.01	477.50
678.34	474.57
678.68	471.52
679.02	468.71
679.36	465.87
679.70	463.21
680.04	460.31
680.37	457.33
680.71	454.59
681.05	451.94
681.39	449.27
681.73	446.63
682.06	444.16
682.40	441.65
682.74	439.12
683.08	436.60
683.42	434.06
683.75	431.59
684.09	428.90
684.43	426.63
684.77	424.10
685.10	421.56
685.44	418.91
685.78	416.50
686.12	414.23
686.45	411.92
686.79	409.62
687.13	407.50
687.46	405.37
687.80	403.16
688.14	400.84
688.48	398.62
688.81	396.38
689.15	394.15
689.49	391.84
689.82	389.72
690.16	387.41
690.50	385.16
690.83	382.81
691.17	380.58
691.51	378.22
691.84	376.15
692.18	374.16
692.52	372.39
692.85	370.46
693.19	368.64
693.52	366.71
693.86	364.70
694.20	362.82
694.53	360.92
694.87	358.83
695.21	356.90
695.54	354.98
695.88	352.99
696.21	351.12
696.55	349.37
696.88	347.58
697.22	345.84
697.56	344.23
697.89	342.69
698.23	341.10
698.56	339.68
698.90	338.18
699.23	336.61
699.57	334.95
699.90	333.37
700.24	331.65
700.58	330.13
700.91	328.64
701.25	327.31
701.58	325.84
701.92	324.51
702.25	323.19
702.59	321.89
702.92	320.60
703.26	319.29
703.59	318.00
703.93	316.83
704.26	315.59
704.60	314.28
704.93	312.96
705.26	311.72
705.60	310.49
705.93	309.19
706.27	307.98
706.60	306.90
706.94	305.86
707.27	304.69
707.61	303.57
707.94	302.51
708.27	301.22
708.61	300.09
708.94	298.97
709.28	297.80
709.61	296.67
709.94	295.61
710.28	294.53
710.61	293.41
710.95	292.20
711.28	291.34
711.61	290.38
711.95	289.42
712.28	288.38
712.61	287.31
712.95	286.46
713.28	285.54
713.61	284.55
713.95	283.57
714.28	282.73
714.61	281.74
714.95	280.79
715.28	279.89
715.61	279.00
715.95	278.13
716.28	277.20
716.61	276.34
716.95	275.52
717.28	274.67
717.61	273.84
717.94	273.19
718.28	272.26
718.61	271.46
718.94	270.66
719.27	270.00
719.61	269.27
719.94	268.47
720.27	267.69
720.60	266.98
720.94	266.26
721.27	265.52
721.60	264.90
721.93	264.29
722.27	263.70
722.60	263.14
722.93	262.51
723.26	262.00
723.59	261.39
723.93	260.78
724.26	260.24
724.59	259.72
724.92	259.12
725.25	258.67
725.59	258.15
725.92	257.61
726.25	257.07
726.58	256.66
726.91	256.16
727.24	255.68
727.57	255.18
727.91	254.57
728.24	254.08
728.57	253.64
728.90	253.14
729.23	252.58
729.56	252.19
729.89	251.70
730.22	251.25
730.55	250.85
730.89	250.41
731.22	250.00
731.55	249.60
731.88	249.12
732.21	248.55
732.54	248.06
732.87	247.62
733.20	247.13
733.53	246.66
733.86	246.18
734.19	245.75
734.52	245.34
734.85	245.22
735.18	244.81
735.51	244.39
735.84	244.01
736.17	243.75
736.50	243.28
736.83	243.16
737.16	242.90
737.49	242.56
737.82	242.24
738.15	241.88
738.48	241.45
738.81	241.11
739.14	240.88
739.47	240.51
739.80	240.22
740.13	239.99
740.46	239.55
740.79	239.30
741.12	238.97
741.45	238.59
741.78	238.14
742.11	237.88
742.44	237.53
742.77	237.28
743.10	236.89
743.43	236.56
743.75	236.12
744.08	235.90
744.41	235.56
744.74	235.20
745.07	234.85
745.40	234.65
745.73	234.36
746.06	233.99
746.39	233.71
746.71	233.39
747.04	233.01
747.37	232.79
747.70	232.56
748.03	232.29
748.36	232.14
748.68	231.84
749.01	231.56
749.34	231.35
749.67	231.08
750.00	230.91
750.33	230.80
750.65	230.53
750.98	230.11
751.31	229.84
751.64	229.69
751.97	229.58
752.29	229.33
752.62	229.11
752.95	228.88
753.28	228.60
753.60	228.35
753.93	228.21
754.26	227.97
754.59	227.64
754.91	227.41
755.24	227.16
755.57	226.96
755.90	226.78
756.22	226.60
756.55	226.40
756.88	226.12
757.20	225.75
757.53	225.53
757.86	225.33
758.19	225.12
758.51	224.89
758.84	224.60
759.17	224.34
759.49	224.14
759.82	224.05
760.15	223.96
760.47	223.86
760.80	223.64
761.13	223.55
761.45	223.47
761.78	223.43
762.11	223.30
762.43	223.11
762.76	222.97
763.08	222.77
763.41	222.65
763.74	222.49
764.06	222.45
764.39	222.27
764.71	222.12
765.04	221.99
765.37	221.87
765.69	221.82
766.02	221.72
766.34	221.57
766.67	221.37
767.00	221.31
767.32	221.25
767.65	221.27
767.97	221.13
768.30	220.95
768.62	220.78
768.95	220.69
769.27	220.62
769.60	220.62
769.92	220.50
770.25	220.32
770.57	220.26
770.90	220.14
771.22	220.02
771.55	219.90
771.87	219.80
772.20	219.72
772.52	219.76
772.85	219.93
773.17	219.88
773.50	219.80
773.82	219.61
774.15	219.46
774.47	219.27
774.80	219.16
775.12	219.13
775.45	219.05
775.77	218.96
776.09	218.88
776.42	218.69
776.74	218.67
777.07	218.61
777.39	218.49
777.72	218.41
778.04	218.37
778.36	218.34
778.69	218.34
779.01	218.26
779.33	217.98
779.66	217.67
779.98	217.64
780.31	217.55
780.63	217.62
780.95	217.55
781.28	217.47
781.60	217.35
781.92	217.24
782.25	217.12
782.57	216.98
782.89	216.85
783.22	216.73
783.54	216.64
783.86	216.61
784.19	216.58
784.51	216.60
784.83	216.55
785.16	216.43
785.48	216.36
785.80	216.32
786.12	216.34
786.45	216.33
