SpectraSuite Data File
++++++++++++++++++++++++++++++++++++
Date: Mon Feb 25 17:35:59 EST 2013
User: group
Dark Spectrum Present: No
Reference Spectrum Present: No
Number of Sampled Component Spectra: 1
Spectrometers: USB2E7196
Integration Time (usec): 52000 (USB2E7196)
Spectra Averaged: 20 (USB2E7196)
Boxcar Smoothing: 10 (USB2E7196)
Correct for Electrical Dark: No (USB2E7196)
Strobe/Lamp Enabled: No (USB2E7196)
Correct for Detector Non-linearity: No (USB2E7196)
Correct for Stray Light: No (USB2E7196)
Number of Pixels in Processed Spectrum: 2048
>>>>>Begin Processed Spectral Data<<<<<
339.09	0.00
339.48	197.55
339.86	198.75
340.24	200.30
340.63	202.90
341.01	206.85
341.39	205.90
341.78	206.30
342.16	209.40
342.54	208.05
342.93	197.85
343.31	207.84
343.69	208.45
344.07	209.02
344.46	209.60
344.84	210.11
345.22	210.39
345.60	210.78
345.99	211.11
346.37	211.29
346.75	211.50
347.13	211.78
347.52	211.99
347.90	212.24
348.28	212.40
348.66	212.59
349.05	212.74
349.43	212.92
349.81	213.10
350.19	213.31
350.57	213.52
350.96	213.78
351.34	213.98
351.72	214.21
352.10	214.38
352.48	214.52
352.87	214.60
353.25	214.71
353.63	214.75
354.01	214.87
354.39	215.06
354.77	215.23
355.15	215.41
355.54	215.49
355.92	215.42
356.30	215.49
356.68	215.67
357.06	215.78
357.44	215.80
357.82	215.81
358.20	215.87
358.58	215.87
358.97	215.87
359.35	215.97
359.73	216.01
360.11	216.09
360.49	216.10
360.87	216.10
361.25	216.18
361.63	216.26
362.01	216.33
362.39	216.31
362.77	216.30
363.15	216.21
363.53	216.24
363.91	216.30
364.29	216.26
364.67	216.09
365.05	216.12
365.43	216.12
365.81	216.13
366.19	216.18
366.57	216.32
366.95	216.25
367.33	216.18
367.71	216.19
368.09	216.14
368.47	216.12
368.85	216.12
369.23	216.09
369.61	216.03
369.99	216.05
370.37	216.04
370.75	216.12
371.13	216.11
371.51	216.02
371.89	216.02
372.27	216.03
372.65	216.00
373.03	215.95
373.41	215.94
373.78	215.92
374.16	215.82
374.54	215.67
374.92	215.69
375.30	215.70
375.68	215.65
376.06	215.68
376.44	215.62
376.82	215.57
377.19	215.51
377.57	215.44
377.95	215.31
378.33	215.20
378.71	215.06
379.09	215.02
379.47	215.05
379.84	215.01
380.22	214.95
380.60	214.87
380.98	214.88
381.36	214.85
381.73	214.74
382.11	214.70
382.49	214.68
382.87	214.63
383.25	214.65
383.62	214.78
384.00	214.71
384.38	214.71
384.76	214.75
385.13	214.83
385.51	214.90
385.89	214.92
386.27	214.91
386.64	214.94
387.02	214.85
387.40	214.78
387.78	214.72
388.15	214.75
388.53	214.77
388.91	214.77
389.29	214.77
389.66	214.82
390.04	214.87
390.42	214.94
390.79	214.96
391.17	214.98
391.55	214.85
391.92	214.90
392.30	214.96
392.68	215.04
393.05	215.09
393.43	215.13
393.81	215.14
394.18	215.21
394.56	215.31
394.94	215.50
395.31	215.51
395.69	215.74
396.06	215.85
396.44	215.98
396.82	216.03
397.19	216.22
397.57	216.32
397.95	216.49
398.32	216.52
398.70	216.71
399.07	216.90
399.45	217.07
399.82	217.27
400.20	217.47
400.58	217.70
400.95	217.82
401.33	218.20
401.70	218.65
402.08	219.01
402.45	219.39
402.83	219.81
403.20	220.31
403.58	220.77
403.95	221.38
404.33	221.92
404.71	222.51
405.08	223.22
405.46	223.96
405.83	224.71
406.21	225.64
406.58	226.68
406.96	227.65
407.33	228.70
407.70	229.97
408.08	231.33
408.45	232.67
408.83	234.16
409.20	235.55
409.58	237.06
409.95	238.86
410.33	240.80
410.70	242.73
411.08	244.82
411.45	247.05
411.82	249.46
412.20	252.06
412.57	255.18
412.95	258.08
413.32	261.30
413.69	264.73
414.07	268.42
414.44	272.33
414.82	276.48
415.19	281.21
415.56	286.11
415.94	291.46
416.31	297.17
416.68	303.03
417.06	309.65
417.43	315.97
417.81	323.16
418.18	330.57
418.55	338.70
418.93	347.33
419.30	356.22
419.67	365.46
420.04	375.42
420.42	385.69
420.79	397.05
421.16	409.02
421.54	421.14
421.91	433.87
422.28	447.20
422.66	461.49
423.03	475.10
423.40	489.69
423.77	505.29
424.15	521.34
424.52	538.02
424.89	556.10
425.26	573.95
425.64	590.98
426.01	609.81
426.38	629.50
426.75	649.26
427.13	669.88
427.50	692.01
427.87	714.97
428.24	738.30
428.61	760.97
428.99	784.77
429.36	811.52
429.73	837.51
430.10	863.63
430.47	890.45
430.85	918.90
431.22	948.50
431.59	979.37
431.96	1009.55
432.33	1043.37
432.70	1075.84
433.08	1114.28
433.45	1150.38
433.82	1186.85
434.19	1226.73
434.56	1266.24
434.93	1304.77
435.30	1342.77
435.68	1384.93
436.05	1427.10
436.42	1469.25
436.79	1507.99
437.16	1549.87
437.53	1594.44
437.90	1638.22
438.27	1681.23
438.64	1726.39
439.01	1768.07
439.38	1806.89
439.75	1844.11
440.13	1885.61
440.50	1925.92
440.87	1959.08
441.24	1993.99
441.61	2032.06
441.98	2061.83
442.35	2095.68
442.72	2129.14
443.09	2161.39
443.46	2182.86
443.83	2198.37
444.20	2212.47
444.57	2231.85
444.94	2242.51
445.31	2253.70
445.68	2263.39
446.05	2270.90
446.42	2271.18
446.79	2270.26
447.16	2268.32
447.53	2267.90
447.90	2256.45
448.27	2244.44
448.64	2226.04
449.01	2213.59
449.37	2188.11
449.74	2163.55
450.11	2132.85
450.48	2101.02
450.85	2068.72
451.22	2040.74
451.59	2013.46
451.96	1987.70
452.33	1952.06
452.70	1920.20
453.07	1881.26
453.43	1842.90
453.80	1804.50
454.17	1767.54
454.54	1733.20
454.91	1695.86
455.28	1659.41
455.65	1625.34
456.02	1588.97
456.38	1559.62
456.75	1522.35
457.12	1492.03
457.49	1461.89
457.86	1433.70
458.23	1407.51
458.59	1379.23
458.96	1350.79
459.33	1326.00
459.70	1300.68
460.07	1280.72
460.43	1257.61
460.80	1235.43
461.17	1216.00
461.54	1195.80
461.91	1176.48
462.27	1157.01
462.64	1140.39
463.01	1121.81
463.38	1103.32
463.74	1087.24
464.11	1071.63
464.48	1058.13
464.85	1042.91
465.21	1031.01
465.58	1018.14
465.95	1003.67
466.32	991.24
466.68	978.87
467.05	966.38
467.42	954.10
467.78	941.22
468.15	929.10
468.52	920.08
468.88	908.71
469.25	898.50
469.62	890.19
469.98	881.21
470.35	872.87
470.72	864.97
471.08	856.76
471.45	849.17
471.82	841.45
472.18	833.11
472.55	827.44
472.92	820.61
473.28	814.81
473.65	809.10
474.02	803.38
474.38	798.48
474.75	794.25
475.11	789.87
475.48	786.38
475.85	783.38
476.21	780.34
476.58	777.78
476.94	776.01
477.31	773.60
477.67	771.38
478.04	769.60
478.41	768.57
478.77	767.74
479.14	766.89
479.50	766.77
479.87	767.31
480.23	767.82
480.60	767.99
480.96	768.31
481.33	769.72
481.69	771.37
482.06	772.74
482.42	773.67
482.79	775.23
483.15	778.02
483.52	781.62
483.88	784.65
484.25	787.88
484.61	790.94
484.98	794.37
485.34	798.71
485.71	803.46
486.07	808.51
486.44	813.64
486.80	819.41
487.17	825.49
487.53	832.44
487.90	839.47
488.26	847.04
488.62	854.98
488.99	862.93
489.35	870.95
489.72	880.26
490.08	890.40
490.44	900.41
490.81	910.35
491.17	920.14
491.54	931.35
491.90	942.30
492.26	954.41
492.63	966.96
492.99	979.87
493.36	993.01
493.72	1006.72
494.08	1020.92
494.45	1036.05
494.81	1051.53
495.17	1067.13
495.54	1083.61
495.90	1100.88
496.26	1118.41
496.63	1136.25
496.99	1154.33
497.35	1172.73
497.72	1191.68
498.08	1210.88
498.44	1230.46
498.80	1251.05
499.17	1271.57
499.53	1292.84
499.89	1314.64
500.26	1336.10
500.62	1357.59
500.98	1380.44
501.34	1403.12
501.71	1426.28
502.07	1449.64
502.43	1473.26
502.79	1496.73
503.16	1520.34
503.52	1543.73
503.88	1566.91
504.24	1590.54
504.60	1615.15
504.97	1640.07
505.33	1664.57
505.69	1690.20
506.05	1715.74
506.41	1740.53
506.78	1765.63
507.14	1790.75
507.50	1815.70
507.86	1841.22
508.22	1867.01
508.59	1891.93
508.95	1917.57
509.31	1942.92
509.67	1968.53
510.03	1993.96
510.39	2020.01
510.75	2045.28
511.12	2070.14
511.48	2095.21
511.84	2119.96
512.20	2144.15
512.56	2168.69
512.92	2193.61
513.28	2218.03
513.64	2242.17
514.00	2265.84
514.37	2289.46
514.73	2312.92
515.09	2336.00
515.45	2358.92
515.81	2381.45
516.17	2404.52
516.53	2426.37
516.89	2448.38
517.25	2468.60
517.61	2488.68
517.97	2508.10
518.33	2526.96
518.69	2546.78
519.05	2566.66
519.41	2586.24
519.77	2605.68
520.13	2623.85
520.49	2640.98
520.85	2657.84
521.21	2674.55
521.57	2693.20
521.93	2709.38
522.29	2727.19
522.65	2744.08
523.01	2760.51
523.37	2775.90
523.73	2790.70
524.09	2805.30
524.45	2819.44
524.81	2833.83
525.17	2848.82
525.53	2863.59
525.89	2878.91
526.25	2893.22
526.61	2905.90
526.97	2919.41
527.33	2932.71
527.68	2946.00
528.04	2959.02
528.40	2971.16
528.76	2983.39
529.12	2993.79
529.48	3006.28
529.84	3015.57
530.20	3025.71
530.56	3036.37
530.91	3047.84
531.27	3058.72
531.63	3069.83
531.99	3080.28
532.35	3089.82
532.71	3099.27
533.07	3110.15
533.42	3119.38
533.78	3129.80
534.14	3139.63
534.50	3148.05
534.86	3157.55
535.21	3165.06
535.57	3173.94
535.93	3182.10
536.29	3189.32
536.65	3198.11
537.00	3205.13
537.36	3212.92
537.72	3219.95
538.08	3226.98
538.44	3233.48
538.79	3240.23
539.15	3246.46
539.51	3253.64
539.87	3262.33
540.22	3268.55
540.58	3274.93
540.94	3281.88
541.29	3286.42
541.65	3289.84
542.01	3294.05
542.37	3297.37
542.72	3301.96
543.08	3305.35
543.44	3309.85
543.79	3313.84
544.15	3316.53
544.51	3321.05
544.87	3325.60
545.22	3328.96
545.58	3330.64
545.94	3332.52
546.29	3334.08
546.65	3335.49
547.01	3336.00
547.36	3336.66
547.72	3338.16
548.07	3337.06
548.43	3336.05
548.79	3335.54
549.14	3337.63
549.50	3338.92
549.86	3339.93
550.21	3339.92
550.57	3340.89
550.92	3340.49
551.28	3339.75
551.64	3338.36
551.99	3336.76
552.35	3335.26
552.70	3334.90
553.06	3335.70
553.41	3336.05
553.77	3335.63
554.13	3335.40
554.48	3336.73
554.84	3336.49
555.19	3335.77
555.55	3336.47
555.90	3336.10
556.26	3335.95
556.61	3334.83
556.97	3332.73
557.32	3329.97
557.68	3328.20
558.03	3325.30
558.39	3323.11
558.74	3322.77
559.10	3323.27
559.45	3323.21
559.81	3322.80
560.16	3320.85
560.52	3319.16
560.87	3317.17
561.23	3313.95
561.58	3311.53
561.94	3307.16
562.29	3303.18
562.64	3300.37
563.00	3296.39
563.35	3293.16
563.71	3290.26
564.06	3287.79
564.42	3285.48
564.77	3283.45
565.12	3280.81
565.48	3278.45
565.83	3276.15
566.19	3274.14
566.54	3270.99
566.89	3266.44
567.25	3262.32
567.60	3259.61
567.96	3254.90
568.31	3250.51
568.66	3247.35
569.02	3243.61
569.37	3239.66
569.72	3236.09
570.08	3231.98
570.43	3227.40
570.78	3224.06
571.14	3220.39
571.49	3216.24
571.84	3213.29
572.20	3209.02
572.55	3205.61
572.90	3200.33
573.26	3195.09
573.61	3187.98
573.96	3180.50
574.31	3174.48
574.67	3168.61
575.02	3161.22
575.37	3154.37
575.72	3147.80
576.08	3141.16
576.43	3133.84
576.78	3126.86
577.13	3120.00
577.49	3113.05
577.84	3106.52
578.19	3098.44
578.54	3090.93
578.90	3083.39
579.25	3073.75
579.60	3064.72
579.95	3055.45
580.30	3048.15
580.66	3040.34
581.01	3032.71
581.36	3023.90
581.71	3015.09
582.06	3006.79
582.42	2999.49
582.77	2991.35
583.12	2982.85
583.47	2973.89
583.82	2965.51
584.17	2956.74
584.53	2947.88
584.88	2938.30
585.23	2929.21
585.58	2920.84
585.93	2911.48
586.28	2902.84
586.63	2895.07
586.98	2887.40
587.34	2879.09
587.69	2869.53
588.04	2860.33
588.39	2851.43
588.74	2841.94
589.09	2833.23
589.44	2822.43
589.79	2812.57
590.14	2803.43
590.49	2792.77
590.84	2784.19
591.19	2775.37
591.54	2765.96
591.89	2755.46
592.25	2746.19
592.60	2735.19
592.95	2723.35
593.30	2711.99
593.65	2700.71
594.00	2689.86
594.35	2679.71
594.70	2668.75
595.05	2658.52
595.40	2647.68
595.75	2635.73
596.10	2625.96
596.45	2614.98
596.80	2605.65
597.15	2595.05
597.50	2584.74
597.85	2575.10
598.19	2562.95
598.54	2551.89
598.89	2541.49
599.24	2532.08
599.59	2520.89
599.94	2510.98
600.29	2500.62
600.64	2490.42
600.99	2478.48
601.34	2467.94
601.69	2455.72
602.04	2444.85
602.39	2434.06
602.74	2424.63
603.08	2416.07
603.43	2407.34
603.78	2397.77
604.13	2386.91
604.48	2376.01
604.83	2366.04
605.18	2356.05
605.53	2346.55
605.87	2335.15
606.22	2324.97
606.57	2313.51
606.92	2301.94
607.27	2290.95
607.62	2281.59
607.96	2271.82
608.31	2263.20
608.66	2252.24
609.01	2241.91
609.36	2231.21
609.70	2219.76
610.05	2207.08
610.40	2194.44
610.75	2181.79
611.10	2169.84
611.44	2157.43
611.79	2146.17
612.14	2133.20
612.49	2120.43
612.83	2108.79
613.18	2096.95
613.53	2084.53
613.88	2071.52
614.22	2060.08
614.57	2047.59
614.92	2034.62
615.27	2021.95
615.61	2008.14
615.96	1995.67
616.31	1983.64
616.65	1972.39
617.00	1961.41
617.35	1950.21
617.70	1938.48
618.04	1926.91
618.39	1915.51
618.74	1904.64
619.08	1892.21
619.43	1880.51
619.78	1869.73
620.12	1858.88
620.47	1848.31
620.82	1836.78
621.16	1826.65
621.51	1815.89
621.85	1805.51
622.20	1794.47
622.55	1782.72
622.89	1772.48
623.24	1761.83
623.59	1751.00
623.93	1740.14
624.28	1729.38
624.62	1718.65
624.97	1707.97
625.32	1697.31
625.66	1686.45
626.01	1675.98
626.35	1666.92
626.70	1657.48
627.04	1647.33
627.39	1636.29
627.73	1626.11
628.08	1616.64
628.43	1606.79
628.77	1597.58
629.12	1587.68
629.46	1578.49
629.81	1569.08
630.15	1558.65
630.50	1548.53
630.84	1538.08
631.19	1527.10
631.53	1516.67
631.88	1506.26
632.22	1496.72
632.57	1487.24
632.91	1477.59
633.26	1468.15
633.60	1457.89
633.95	1448.18
634.29	1438.81
634.64	1429.90
634.98	1420.27
635.32	1411.13
635.67	1402.28
636.01	1393.20
636.36	1384.31
636.70	1375.17
637.05	1366.34
637.39	1358.24
637.73	1350.08
638.08	1342.55
638.42	1335.00
638.77	1327.20
639.11	1319.35
639.45	1311.42
639.80	1302.58
640.14	1294.03
640.49	1285.19
640.83	1276.55
641.17	1268.51
641.52	1260.03
641.86	1251.26
642.20	1243.06
642.55	1233.79
642.89	1224.67
643.23	1215.46
643.58	1206.83
643.92	1197.80
644.26	1188.91
644.61	1180.22
644.95	1171.43
645.29	1162.53
645.64	1153.46
645.98	1144.87
646.32	1136.86
646.66	1128.08
647.01	1120.32
647.35	1112.25
647.69	1104.02
648.04	1096.01
648.38	1087.55
648.72	1079.47
649.06	1071.53
649.41	1063.22
649.75	1055.18
650.09	1047.66
650.43	1040.23
650.78	1032.58
651.12	1025.11
651.46	1018.03
651.80	1011.00
652.14	1003.89
652.49	996.68
652.83	989.34
653.17	981.36
653.51	973.42
653.85	966.30
654.20	959.04
654.54	951.92
654.88	945.03
655.22	937.90
655.56	930.56
655.90	923.03
656.25	915.82
656.59	909.11
656.93	902.56
657.27	895.66
657.61	888.75
657.95	882.18
658.29	875.65
658.64	869.25
658.98	862.67
659.32	855.88
659.66	849.48
660.00	843.16
660.34	837.41
660.68	831.28
661.02	824.88
661.36	818.76
661.70	812.79
662.05	806.98
662.39	801.34
662.73	795.75
663.07	790.44
663.41	785.16
663.75	779.72
664.09	774.24
664.43	768.42
664.77	762.85
665.11	757.26
665.45	752.00
665.79	746.70
666.13	741.28
666.47	736.20
666.81	731.03
667.15	725.74
667.49	720.59
667.83	715.76
668.17	711.07
668.51	706.13
668.85	701.20
669.19	696.02
669.53	690.96
669.87	686.21
670.21	681.63
670.55	676.58
670.89	671.72
671.23	667.06
671.57	662.52
671.91	657.99
672.25	653.55
672.58	648.99
672.92	644.29
673.26	640.07
673.60	635.84
673.94	631.87
674.28	628.21
674.62	624.20
674.96	619.94
675.30	615.93
675.64	612.02
675.97	608.35
676.31	605.00
676.65	601.47
676.99	597.95
677.33	594.18
677.67	590.58
678.01	586.78
678.34	583.14
678.68	579.65
679.02	576.05
679.36	572.30
679.70	568.65
680.04	565.09
680.37	561.40
680.71	557.83
681.05	554.18
681.39	550.65
681.73	547.15
682.06	544.01
682.40	540.50
682.74	537.02
683.08	533.43
683.42	529.82
683.75	526.45
684.09	523.02
684.43	519.60
684.77	516.40
685.10	513.26
685.44	509.83
685.78	506.56
686.12	503.43
686.45	500.40
686.79	497.57
687.13	494.87
687.46	492.00
687.80	489.15
688.14	486.19
688.48	483.24
688.81	480.30
689.15	477.51
689.49	474.70
689.82	471.91
690.16	468.91
690.50	466.07
690.83	463.23
691.17	460.30
691.51	457.52
691.84	454.76
692.18	452.21
692.52	449.76
692.85	447.26
693.19	444.61
693.52	442.05
693.86	439.30
694.20	436.54
694.53	433.88
694.87	431.13
695.21	428.44
695.54	425.79
695.88	423.19
696.21	420.50
696.55	418.10
696.88	415.76
697.22	413.56
697.56	411.46
697.89	409.16
698.23	407.03
698.56	404.77
698.90	402.67
699.23	400.32
699.57	398.10
699.90	395.94
700.24	393.87
700.58	391.75
700.91	389.72
701.25	387.83
701.58	386.00
701.92	384.23
702.25	382.50
702.59	380.80
702.92	379.03
703.26	377.25
703.59	375.64
703.93	374.04
704.26	372.37
704.60	370.53
704.93	368.79
705.26	366.97
705.60	365.38
705.93	363.78
706.27	362.36
706.60	360.90
706.94	359.23
707.27	357.50
707.61	355.88
707.94	354.27
708.27	352.48
708.61	350.93
708.94	349.26
709.28	347.66
709.61	346.14
709.94	344.59
710.28	342.95
710.61	341.16
710.95	339.43
711.28	337.79
711.61	336.16
711.95	334.75
712.28	333.38
712.61	332.03
712.95	330.62
713.28	329.15
713.61	327.61
713.95	326.36
714.28	325.10
714.61	323.87
714.95	322.73
715.28	321.45
715.61	319.99
715.95	318.76
716.28	317.56
716.61	316.23
716.95	315.03
717.28	313.98
717.61	312.80
717.94	311.73
718.28	310.52
718.61	309.44
718.94	308.28
719.27	307.20
719.61	306.05
719.94	304.92
720.27	303.83
720.60	302.86
720.94	301.81
721.27	300.95
721.60	300.15
721.93	299.24
722.27	298.45
722.60	297.64
722.93	296.74
723.26	295.87
723.59	295.05
723.93	294.14
724.26	293.21
724.59	292.40
724.92	291.49
725.25	290.84
725.59	290.17
725.92	289.43
726.25	288.63
726.58	287.81
726.91	286.99
727.24	286.18
727.57	285.31
727.91	284.44
728.24	283.54
728.57	282.53
728.90	281.65
729.23	280.83
729.56	280.20
729.89	279.36
730.22	278.59
730.55	277.80
730.89	277.16
731.22	276.50
731.55	275.79
731.88	275.13
732.21	274.32
732.54	273.55
732.87	272.83
733.20	272.26
733.53	271.74
733.86	271.13
734.19	270.60
734.52	270.20
734.85	269.77
735.18	269.17
735.51	268.63
735.84	268.08
736.17	267.54
736.50	266.81
736.83	266.46
737.16	265.85
737.49	265.38
737.82	264.76
738.15	264.15
738.48	263.59
738.81	262.98
739.14	262.49
739.47	261.93
739.80	261.42
740.13	260.93
740.46	260.35
740.79	259.82
741.12	259.21
741.45	258.62
741.78	257.95
742.11	257.42
742.44	256.91
742.77	256.41
743.10	255.85
743.43	255.27
743.75	254.55
744.08	254.29
744.41	253.70
744.74	253.18
745.07	252.72
745.40	252.26
745.73	251.86
746.06	251.35
746.39	250.93
746.71	250.41
747.04	249.81
747.37	249.35
747.70	249.00
748.03	248.55
748.36	248.05
748.68	247.72
749.01	247.28
749.34	246.88
749.67	246.37
750.00	246.05
750.33	245.81
750.65	245.51
750.98	244.97
751.31	244.60
751.64	244.23
751.97	243.93
752.29	243.60
752.62	243.22
752.95	242.91
753.28	242.45
753.60	242.05
753.93	241.83
754.26	241.43
754.59	240.98
754.91	240.64
755.24	240.37
755.57	239.94
755.90	239.65
756.22	239.35
756.55	239.09
756.88	238.70
757.20	238.31
757.53	237.90
757.86	237.57
758.19	237.36
758.51	237.04
758.84	236.70
759.17	236.36
759.49	236.05
759.82	235.76
760.15	235.60
760.47	235.36
760.80	234.97
761.13	234.76
761.45	234.45
761.78	234.23
762.11	233.92
762.43	233.71
762.76	233.43
763.08	233.23
763.41	232.96
763.74	232.70
764.06	232.40
764.39	232.21
764.71	232.00
765.04	231.74
765.37	231.55
765.69	231.35
766.02	231.18
766.34	231.02
766.67	230.87
767.00	230.60
767.32	230.56
767.65	230.48
767.97	230.33
768.30	230.14
768.62	229.93
768.95	229.78
769.27	229.60
769.60	229.43
769.92	229.10
770.25	228.94
770.57	228.73
770.90	228.62
771.22	228.46
771.55	228.19
771.87	227.97
772.20	227.74
772.52	227.65
772.85	227.58
773.17	227.40
773.50	227.11
773.82	226.98
774.15	226.75
774.47	226.51
774.80	226.28
775.12	226.15
775.45	225.95
775.77	225.77
776.09	225.66
776.42	225.54
776.74	225.51
777.07	225.26
777.39	225.13
777.72	224.91
778.04	224.73
778.36	224.67
778.69	224.58
779.01	224.53
779.33	224.26
779.66	223.97
779.98	223.83
780.31	223.77
780.63	223.70
780.95	223.57
781.28	223.46
781.60	223.37
781.92	223.26
782.25	223.26
782.57	223.09
