SpectraSuite Data File
++++++++++++++++++++++++++++++++++++
Date: Mon Feb 25 17:33:04 EST 2013
User: group
Dark Spectrum Present: No
Reference Spectrum Present: No
Number of Sampled Component Spectra: 1
Spectrometers: USB2E7196
Integration Time (usec): 52000 (USB2E7196)
Spectra Averaged: 20 (USB2E7196)
Boxcar Smoothing: 10 (USB2E7196)
Correct for Electrical Dark: No (USB2E7196)
Strobe/Lamp Enabled: No (USB2E7196)
Correct for Detector Non-linearity: No (USB2E7196)
Correct for Stray Light: No (USB2E7196)
Number of Pixels in Processed Spectrum: 2048
>>>>>Begin Processed Spectral Data<<<<<
339.09	0.00
339.48	198.15
339.86	201.15
340.24	201.30
340.63	202.35
341.01	206.95
341.39	205.25
341.78	207.10
342.16	208.45
342.54	208.65
342.93	197.99
343.31	208.00
343.69	208.58
344.07	208.94
344.46	209.42
344.84	209.84
345.22	210.04
345.60	210.28
345.99	210.48
346.37	210.62
346.75	210.73
347.13	210.78
347.52	210.87
347.90	211.03
348.28	211.06
348.66	211.12
349.05	211.11
349.43	211.18
349.81	211.23
350.19	211.33
350.57	211.35
350.96	211.41
351.34	211.44
351.72	211.47
352.10	211.63
352.48	211.66
352.87	211.74
353.25	211.77
353.63	211.80
354.01	211.81
354.39	211.89
354.77	211.97
355.15	212.09
355.54	212.12
355.92	212.12
356.30	212.24
356.68	212.39
357.06	212.47
357.44	212.42
357.82	212.43
358.20	212.47
358.58	212.50
358.97	212.57
359.35	212.74
359.73	212.90
360.11	213.03
360.49	213.08
360.87	213.13
361.25	213.20
361.63	213.36
362.01	213.43
362.39	213.49
362.77	213.53
363.15	213.57
363.53	213.64
363.91	213.80
364.29	213.77
364.67	213.66
365.05	213.70
365.43	213.85
365.81	213.98
366.19	214.04
366.57	214.18
366.95	214.13
367.33	214.08
367.71	214.06
368.09	214.04
368.47	214.10
368.85	214.06
369.23	214.13
369.61	214.09
369.99	214.18
370.37	214.15
370.75	214.20
371.13	214.18
371.51	214.21
371.89	214.15
372.27	214.15
372.65	214.14
373.03	214.12
373.41	214.03
373.78	213.99
374.16	213.91
374.54	213.76
374.92	213.78
375.30	213.80
375.68	213.72
376.06	213.68
376.44	213.56
376.82	213.58
377.19	213.50
377.57	213.45
377.95	213.37
378.33	213.33
378.71	213.19
379.09	213.19
379.47	213.12
379.84	213.02
380.22	212.98
380.60	212.92
380.98	212.81
381.36	212.75
381.73	212.70
382.11	212.71
382.49	212.73
382.87	212.63
383.25	212.47
383.62	212.60
384.00	212.52
384.38	212.54
384.76	212.48
385.13	212.51
385.51	212.42
385.89	212.32
386.27	212.27
386.64	212.29
387.02	212.24
387.40	212.17
387.78	212.12
388.15	212.04
388.53	211.93
388.91	211.87
389.29	211.85
389.66	211.74
390.04	211.68
390.42	211.63
390.79	211.62
391.17	211.67
391.55	211.52
391.92	211.43
392.30	211.46
392.68	211.38
393.05	211.35
393.43	211.33
393.81	211.35
394.18	211.35
394.56	211.33
394.94	211.35
395.31	211.30
395.69	211.34
396.06	211.33
396.44	211.37
396.82	211.46
397.19	211.60
397.57	211.67
397.95	211.70
398.32	211.75
398.70	211.76
399.07	211.85
399.45	211.80
399.82	211.94
400.20	211.92
400.58	211.99
400.95	211.99
401.33	212.14
401.70	212.32
402.08	212.39
402.45	212.40
402.83	212.46
403.20	212.56
403.58	212.61
403.95	212.80
404.33	212.98
404.71	213.05
405.08	213.19
405.46	213.23
405.83	213.41
406.21	213.44
406.58	213.64
406.96	213.76
407.33	213.96
407.70	214.15
408.08	214.54
408.45	214.83
408.83	215.06
409.20	215.29
409.58	215.45
409.95	215.75
410.33	216.15
410.70	216.46
411.08	216.86
411.45	217.26
411.82	217.63
412.20	218.04
412.57	218.58
412.95	218.95
413.32	219.60
413.69	220.07
414.07	220.67
414.44	221.32
414.82	221.89
415.19	222.65
415.56	223.38
415.94	224.00
416.31	224.91
416.68	225.86
417.06	226.89
417.43	227.87
417.81	228.92
418.18	229.99
418.55	231.22
418.93	232.36
419.30	233.64
419.67	235.00
420.04	236.42
420.42	237.87
420.79	239.64
421.16	241.25
421.54	243.03
421.91	244.90
422.28	246.74
422.66	248.87
423.03	250.94
423.40	252.97
423.77	255.18
424.15	257.38
424.52	259.70
424.89	262.20
425.26	264.60
425.64	266.98
426.01	269.62
426.38	272.24
426.75	275.08
427.13	277.90
427.50	280.88
427.87	284.03
428.24	287.06
428.61	289.97
428.99	293.33
429.36	296.87
429.73	300.34
430.10	303.80
430.47	307.33
430.85	310.97
431.22	314.86
431.59	319.10
431.96	322.95
432.33	327.23
432.70	331.44
433.08	336.39
433.45	341.03
433.82	345.52
434.19	350.65
434.56	355.60
434.93	360.32
435.30	364.96
435.68	370.20
436.05	375.44
436.42	380.56
436.79	385.24
437.16	390.29
437.53	395.67
437.90	401.00
438.27	406.28
438.64	411.57
439.01	416.52
439.38	420.79
439.75	425.13
440.13	429.84
440.50	434.22
440.87	437.87
441.24	441.71
441.61	446.02
441.98	449.10
442.35	452.73
442.72	456.35
443.09	459.87
443.46	461.92
443.83	463.25
444.20	464.38
444.57	466.08
444.94	466.80
445.31	467.53
445.68	468.26
446.05	468.38
446.42	467.78
446.79	467.07
447.16	466.25
447.53	465.57
447.90	463.49
448.27	461.40
448.64	458.58
449.01	456.46
449.37	452.80
449.74	449.35
450.11	445.19
450.48	440.78
450.85	436.20
451.22	432.25
451.59	428.53
451.96	425.07
452.33	420.36
452.70	416.10
453.07	410.93
453.43	405.62
453.80	400.64
454.17	395.90
454.54	391.28
454.91	386.46
455.28	381.76
455.65	377.46
456.02	373.25
456.38	369.44
456.75	364.72
457.12	360.81
457.49	356.88
457.86	353.16
458.23	350.01
458.59	346.56
458.96	343.05
459.33	339.88
459.70	336.58
460.07	334.01
460.43	331.07
460.80	328.36
461.17	326.00
461.54	323.51
461.91	321.14
462.27	318.84
462.64	316.76
463.01	314.52
463.38	312.44
463.74	310.08
464.11	308.30
464.48	306.75
464.85	304.98
465.21	303.71
465.58	302.31
465.95	300.50
466.32	299.05
466.68	297.64
467.05	296.30
467.42	294.96
467.78	293.48
468.15	292.15
468.52	291.19
468.88	289.93
469.25	288.81
469.62	287.82
469.98	286.80
470.35	285.95
470.72	285.03
471.08	284.02
471.45	283.40
471.82	282.69
472.18	281.80
472.55	281.24
472.92	280.47
473.28	279.75
473.65	279.12
474.02	278.53
474.38	278.10
474.75	277.70
475.11	277.26
475.48	277.01
475.85	276.78
476.21	276.51
476.58	276.41
476.94	276.39
477.31	276.38
477.67	276.35
478.04	276.41
478.41	276.63
478.77	276.95
479.14	277.09
479.50	277.31
479.87	277.67
480.23	278.09
480.60	278.44
480.96	278.94
481.33	279.75
481.69	280.37
482.06	280.98
482.42	281.61
482.79	282.36
483.15	283.26
483.52	284.22
483.88	285.20
484.25	286.27
484.61	287.20
484.98	288.29
485.34	289.52
485.71	290.74
486.07	292.12
486.44	293.38
486.80	294.85
487.17	296.34
487.53	298.07
487.90	299.87
488.26	301.85
488.62	303.91
488.99	305.96
489.35	308.11
489.72	310.38
490.08	312.87
490.44	315.39
490.81	318.06
491.17	320.74
491.54	323.65
491.90	326.56
492.26	329.78
492.63	333.04
492.99	336.50
493.36	340.22
493.72	344.03
494.08	348.05
494.45	352.37
494.81	356.89
495.17	361.41
495.54	366.21
495.90	371.32
496.26	376.41
496.63	381.81
496.99	387.48
497.35	393.58
497.72	399.83
498.08	406.30
498.44	413.00
498.80	420.27
499.17	427.70
499.53	435.35
499.89	443.39
500.26	451.53
500.62	459.92
500.98	468.82
501.34	478.03
501.71	487.61
502.07	497.29
502.43	507.21
502.79	517.54
503.16	528.16
503.52	539.03
503.88	550.41
504.24	562.07
504.60	573.84
504.97	585.91
505.33	598.37
505.69	611.59
506.05	625.05
506.41	638.54
506.78	652.23
507.14	666.26
507.50	680.60
507.86	695.59
508.22	711.04
508.59	726.46
508.95	742.28
509.31	758.49
509.67	775.25
510.03	792.11
510.39	809.75
510.75	827.43
511.12	845.45
511.48	863.81
511.84	882.33
512.20	901.22
512.56	920.59
512.92	940.20
513.28	959.72
513.64	979.42
514.00	999.51
514.37	1019.98
514.73	1040.86
515.09	1061.79
515.45	1082.82
515.81	1103.96
516.17	1125.07
516.53	1146.45
516.89	1167.85
517.25	1189.04
517.61	1210.74
517.97	1231.95
518.33	1253.53
518.69	1275.21
519.05	1297.24
519.41	1319.37
519.77	1341.96
520.13	1364.06
520.49	1386.20
520.85	1408.97
521.21	1431.38
521.57	1454.00
521.93	1476.04
522.29	1499.02
522.65	1521.79
523.01	1544.17
523.37	1566.27
523.73	1588.91
524.09	1611.21
524.45	1633.60
524.81	1656.38
525.17	1678.83
525.53	1701.48
525.89	1723.99
526.25	1746.24
526.61	1767.48
526.97	1789.26
527.33	1810.53
527.68	1831.99
528.04	1852.88
528.40	1873.18
528.76	1893.90
529.12	1914.84
529.48	1936.41
529.84	1956.50
530.20	1976.70
530.56	1997.22
530.91	2018.04
531.27	2038.24
531.63	2058.22
531.99	2078.09
532.35	2097.13
532.71	2116.32
533.07	2135.80
533.42	2154.17
533.78	2173.04
534.14	2191.67
534.50	2208.79
534.86	2226.85
535.21	2243.40
535.57	2261.40
535.93	2278.73
536.29	2296.04
536.65	2312.60
537.00	2328.01
537.36	2343.40
537.72	2359.06
538.08	2374.30
538.44	2389.10
538.79	2404.43
539.15	2419.20
539.51	2433.78
539.87	2449.13
540.22	2463.75
540.58	2478.42
540.94	2492.70
541.29	2505.37
541.65	2517.49
542.01	2530.90
542.37	2542.88
542.72	2555.73
543.08	2566.73
543.44	2578.43
543.79	2587.99
544.15	2598.49
544.51	2609.54
544.87	2620.50
545.22	2629.19
545.58	2637.80
545.94	2645.51
546.29	2651.88
546.65	2658.34
547.01	2664.40
547.36	2669.83
547.72	2675.11
548.07	2679.04
548.43	2683.16
548.79	2687.01
549.14	2691.81
549.50	2696.03
549.86	2700.15
550.21	2704.12
550.57	2708.38
550.92	2711.14
551.28	2714.29
551.64	2716.45
551.99	2718.99
552.35	2720.64
552.70	2723.75
553.06	2726.53
553.41	2729.53
553.77	2732.81
554.13	2735.00
554.48	2737.05
554.84	2738.57
555.19	2739.26
555.55	2740.28
555.90	2740.51
556.26	2741.18
556.61	2741.13
556.97	2739.89
557.32	2739.33
557.68	2737.82
558.03	2736.21
558.39	2734.83
558.74	2734.38
559.10	2733.19
559.45	2731.34
559.81	2730.14
560.16	2727.41
560.52	2724.95
560.87	2721.87
561.23	2718.05
561.58	2715.87
561.94	2712.88
562.29	2709.35
562.64	2707.06
563.00	2704.47
563.35	2702.75
563.71	2701.08
564.06	2698.97
564.42	2697.38
564.77	2694.80
565.12	2692.92
565.48	2689.74
565.83	2686.36
566.19	2683.01
566.54	2678.81
566.89	2674.77
567.25	2671.19
567.60	2667.51
567.96	2663.91
568.31	2660.22
568.66	2656.34
569.02	2651.63
569.37	2646.39
569.72	2642.55
570.08	2637.48
570.43	2631.56
570.78	2625.80
571.14	2619.38
571.49	2612.65
571.84	2606.30
572.20	2599.17
572.55	2592.35
572.90	2585.45
573.26	2578.83
573.61	2571.92
573.96	2565.41
574.31	2557.52
574.67	2549.40
575.02	2541.09
575.37	2532.34
575.72	2523.76
576.08	2516.43
576.43	2507.61
576.78	2500.21
577.13	2491.99
577.49	2483.52
577.84	2475.89
578.19	2468.47
578.54	2460.98
578.90	2454.15
579.25	2445.55
579.60	2436.72
579.95	2427.35
580.30	2419.28
580.66	2410.82
581.01	2401.73
581.36	2392.51
581.71	2384.30
582.06	2375.76
582.42	2367.68
582.77	2358.42
583.12	2349.23
583.47	2340.38
583.82	2332.15
584.17	2322.41
584.53	2313.26
584.88	2304.52
585.23	2295.40
585.58	2285.34
585.93	2275.47
586.28	2265.80
586.63	2256.97
586.98	2248.59
587.34	2240.31
587.69	2231.25
588.04	2222.30
588.39	2213.72
588.74	2204.88
589.09	2196.00
589.44	2186.54
589.79	2178.01
590.14	2169.98
590.49	2161.75
590.84	2152.62
591.19	2144.23
591.54	2135.88
591.89	2125.98
592.25	2116.82
592.60	2107.26
592.95	2098.00
593.30	2088.70
593.65	2079.13
594.00	2069.36
594.35	2061.16
594.70	2051.99
595.05	2043.43
595.40	2034.47
595.75	2024.64
596.10	2016.56
596.45	2008.27
596.80	2000.44
597.15	1992.09
597.50	1983.31
597.85	1974.82
598.19	1966.10
598.54	1957.93
598.89	1950.04
599.24	1943.48
599.59	1935.85
599.94	1928.82
600.29	1921.09
600.64	1913.09
600.99	1904.59
601.34	1897.69
601.69	1888.90
602.04	1880.63
602.39	1872.12
602.74	1864.58
603.08	1858.40
603.43	1850.85
603.78	1842.66
604.13	1834.39
604.48	1826.31
604.83	1819.20
605.18	1812.28
605.53	1804.56
605.87	1796.68
606.22	1789.32
606.57	1780.93
606.92	1772.95
607.27	1764.70
607.62	1757.35
607.96	1750.78
608.31	1744.74
608.66	1736.63
609.01	1729.19
609.36	1721.47
609.70	1713.78
610.05	1705.74
610.40	1697.10
610.75	1688.59
611.10	1680.93
611.44	1671.71
611.79	1662.53
612.14	1653.13
612.49	1643.31
612.83	1634.87
613.18	1625.27
613.53	1615.78
613.88	1606.06
614.22	1597.04
614.57	1587.90
614.92	1578.87
615.27	1569.35
615.61	1559.51
615.96	1550.46
616.31	1541.90
616.65	1534.22
617.00	1525.77
617.35	1517.13
617.70	1508.53
618.04	1499.36
618.39	1490.03
618.74	1481.72
619.08	1473.30
619.43	1465.38
619.78	1457.54
620.12	1449.17
620.47	1441.55
620.82	1432.88
621.16	1424.97
621.51	1416.56
621.85	1408.36
622.20	1399.75
622.55	1391.12
622.89	1383.12
623.24	1375.21
623.59	1366.74
623.93	1357.81
624.28	1349.66
624.62	1341.54
624.97	1333.41
625.32	1325.88
625.66	1318.58
626.01	1311.34
626.35	1304.04
626.70	1296.13
627.04	1288.78
627.39	1281.01
627.73	1273.19
628.08	1266.61
628.43	1259.20
628.77	1252.09
629.12	1244.61
629.46	1237.65
629.81	1230.50
630.15	1223.20
630.50	1215.93
630.84	1208.35
631.19	1201.29
631.53	1194.32
631.88	1186.85
632.22	1179.37
632.57	1172.32
632.91	1164.85
633.26	1157.23
633.60	1149.96
633.95	1143.24
634.29	1135.75
634.64	1129.37
634.98	1122.57
635.32	1115.50
635.67	1108.92
636.01	1102.08
636.36	1095.36
636.70	1088.88
637.05	1082.51
637.39	1076.01
637.73	1069.68
638.08	1063.92
638.42	1057.99
638.77	1051.37
639.11	1045.04
639.45	1038.77
639.80	1032.23
640.14	1025.65
640.49	1019.47
640.83	1013.15
641.17	1006.70
641.52	1000.82
641.86	994.19
642.20	987.91
642.55	981.02
642.89	974.60
643.23	968.16
643.58	962.22
643.92	955.65
644.26	949.43
644.61	943.43
644.95	937.24
645.29	930.91
645.64	924.39
645.98	918.42
646.32	912.45
646.66	906.45
647.01	900.35
647.35	894.70
647.69	888.63
648.04	882.82
648.38	876.85
648.72	870.84
649.06	864.83
649.41	858.87
649.75	853.17
650.09	847.29
650.43	841.34
650.78	835.17
651.12	829.11
651.46	823.36
651.80	817.20
652.14	811.37
652.49	805.42
652.83	799.69
653.17	793.57
653.51	787.96
653.85	782.33
654.20	776.55
654.54	770.74
654.88	765.22
655.22	759.46
655.56	753.51
655.90	747.50
656.25	741.60
656.59	736.16
656.93	731.05
657.27	725.89
657.61	720.62
657.95	715.56
658.29	710.59
658.64	705.51
658.98	700.46
659.32	695.02
659.66	689.87
660.00	684.37
660.34	679.29
660.68	673.97
661.02	668.92
661.36	664.30
661.70	659.44
662.05	654.79
662.39	650.25
662.73	645.87
663.07	641.71
663.41	637.55
663.75	632.99
664.09	628.30
664.43	623.54
664.77	619.20
665.11	614.64
665.45	610.23
665.79	605.66
666.13	601.22
666.47	597.07
666.81	592.92
667.15	589.02
667.49	585.15
667.83	581.25
668.17	577.28
668.51	573.38
668.85	569.70
669.19	565.92
669.53	562.04
669.87	558.12
670.21	554.11
670.55	550.13
670.89	546.43
671.23	542.95
671.57	539.51
671.91	535.90
672.25	532.39
672.58	528.83
672.92	525.45
673.26	522.52
673.60	519.20
673.94	515.89
674.28	512.56
674.62	509.43
674.96	506.27
675.30	503.29
675.64	500.10
675.97	496.95
676.31	493.90
676.65	490.98
676.99	488.23
677.33	485.37
677.67	482.54
678.01	479.51
678.34	476.44
678.68	473.56
679.02	470.68
679.36	467.84
679.70	465.01
680.04	462.03
680.37	458.90
680.71	456.02
681.05	453.41
681.39	450.66
681.73	447.78
682.06	445.28
682.40	442.54
682.74	439.85
683.08	437.13
683.42	434.48
683.75	431.89
684.09	429.30
684.43	426.83
684.77	424.29
685.10	421.76
685.44	419.30
685.78	416.77
686.12	414.45
686.45	412.12
686.79	409.81
687.13	407.66
687.46	405.49
687.80	403.41
688.14	401.09
688.48	398.96
688.81	396.80
689.15	394.49
689.49	392.24
689.82	390.01
690.16	387.77
690.50	385.48
690.83	383.28
691.17	380.99
691.51	378.69
691.84	376.51
692.18	374.62
692.52	372.69
692.85	370.84
693.19	368.94
693.52	366.96
693.86	364.98
694.20	363.10
694.53	361.20
694.87	359.16
695.21	357.19
695.54	355.27
695.88	353.40
696.21	351.62
696.55	349.94
696.88	348.20
697.22	346.47
697.56	344.85
697.89	343.22
698.23	341.66
698.56	340.03
698.90	338.59
699.23	336.84
699.57	335.22
699.90	333.61
700.24	331.96
700.58	330.36
700.91	328.79
701.25	327.40
701.58	325.94
701.92	324.61
702.25	323.28
702.59	321.91
702.92	320.55
703.26	319.17
703.59	317.93
703.93	316.80
704.26	315.59
704.60	314.31
704.93	313.04
705.26	311.80
705.60	310.75
705.93	309.50
706.27	308.41
706.60	307.29
706.94	306.20
707.27	304.98
707.61	303.96
707.94	302.95
708.27	301.57
708.61	300.46
708.94	299.30
709.28	298.15
709.61	297.11
709.94	296.03
710.28	295.02
710.61	293.90
710.95	292.77
711.28	291.74
711.61	290.75
711.95	289.69
712.28	288.65
712.61	287.53
712.95	286.61
713.28	285.69
713.61	284.72
713.95	283.69
714.28	282.82
714.61	281.85
714.95	280.92
715.28	280.15
715.61	279.19
715.95	278.34
716.28	277.51
716.61	276.62
716.95	275.91
717.28	275.05
717.61	274.33
717.94	273.54
718.28	272.72
718.61	271.93
718.94	271.18
719.27	270.51
719.61	269.88
719.94	269.18
720.27	268.39
720.60	267.77
720.94	267.07
721.27	266.38
721.60	265.76
721.93	265.10
722.27	264.54
722.60	263.95
722.93	263.40
723.26	262.73
723.59	262.15
723.93	261.45
724.26	260.84
724.59	260.05
724.92	259.56
725.25	259.04
725.59	258.47
725.92	258.07
726.25	257.48
726.58	256.93
726.91	256.36
727.24	255.85
727.57	255.25
727.91	254.71
728.24	254.29
728.57	253.82
728.90	253.38
729.23	252.84
729.56	252.44
729.89	251.90
730.22	251.41
730.55	250.94
730.89	250.56
731.22	250.10
731.55	249.69
731.88	249.16
732.21	248.63
732.54	248.21
732.87	247.74
733.20	247.30
733.53	246.86
733.86	246.44
734.19	246.00
734.52	245.66
734.85	245.42
735.18	244.92
735.51	244.54
735.84	244.10
736.17	243.69
736.50	243.22
736.83	243.01
737.16	242.77
737.49	242.42
737.82	242.04
738.15	241.73
738.48	241.38
738.81	240.96
739.14	240.69
739.47	240.32
739.80	239.99
740.13	239.68
740.46	239.33
740.79	238.96
741.12	238.64
741.45	238.26
741.78	237.83
742.11	237.58
742.44	237.24
742.77	237.04
743.10	236.73
743.43	236.34
743.75	235.77
744.08	235.69
744.41	235.39
744.74	235.00
745.07	234.61
745.40	234.43
745.73	234.25
746.06	233.95
746.39	233.67
746.71	233.36
747.04	233.07
747.37	232.80
747.70	232.66
748.03	232.45
748.36	232.23
748.68	232.00
749.01	231.66
749.34	231.35
749.67	231.03
750.00	230.85
750.33	230.79
750.65	230.65
750.98	230.12
751.31	229.88
751.64	229.65
751.97	229.55
752.29	229.22
752.62	228.92
752.95	228.71
753.28	228.48
753.60	228.22
753.93	228.00
754.26	227.76
754.59	227.35
754.91	227.15
755.24	226.89
755.57	226.66
755.90	226.47
756.22	226.32
756.55	226.15
756.88	225.85
757.20	225.59
757.53	225.35
757.86	225.15
758.19	224.97
758.51	224.83
758.84	224.50
759.17	224.37
759.49	224.23
759.82	224.10
760.15	223.86
760.47	223.78
760.80	223.55
761.13	223.42
761.45	223.31
761.78	223.16
762.11	223.03
762.43	222.90
762.76	222.75
763.08	222.59
763.41	222.45
763.74	222.38
764.06	222.22
764.39	222.12
764.71	222.00
765.04	221.85
765.37	221.72
765.69	221.62
766.02	221.50
766.34	221.31
766.67	221.10
767.00	221.09
767.32	220.98
767.65	221.02
767.97	220.93
768.30	220.85
768.62	220.69
768.95	220.56
769.27	220.42
769.60	220.33
769.92	220.15
770.25	220.00
770.57	219.87
770.90	219.72
771.22	219.58
771.55	219.51
771.87	219.43
772.20	219.30
772.52	219.32
772.85	219.40
773.17	219.36
773.50	219.35
773.82	219.18
774.15	219.04
774.47	218.80
774.80	218.65
775.12	218.55
775.45	218.44
775.77	218.39
776.09	218.26
776.42	218.21
776.74	218.20
777.07	218.08
777.39	217.90
777.72	217.92
778.04	217.88
778.36	217.79
778.69	217.71
779.01	217.72
779.33	217.54
779.66	217.34
779.98	217.20
780.31	217.08
780.63	217.08
780.95	217.05
781.28	217.01
781.60	216.96
781.92	216.91
782.25	216.92
782.57	216.83
782.89	216.72
783.22	216.67
783.54	216.53
783.86	216.51
784.19	216.52
784.51	216.46
784.83	216.41
785.16	216.32
785.48	216.26
785.80	216.17
786.12	216.09
786.45	215.99
