SpectraSuite Data File
++++++++++++++++++++++++++++++++++++
Date: Mon Feb 25 17:36:43 EST 2013
User: group
Dark Spectrum Present: No
Reference Spectrum Present: No
Number of Sampled Component Spectra: 1
Spectrometers: USB2E7196
Integration Time (usec): 52000 (USB2E7196)
Spectra Averaged: 20 (USB2E7196)
Boxcar Smoothing: 10 (USB2E7196)
Correct for Electrical Dark: No (USB2E7196)
Strobe/Lamp Enabled: No (USB2E7196)
Correct for Detector Non-linearity: No (USB2E7196)
Correct for Stray Light: No (USB2E7196)
Number of Pixels in Processed Spectrum: 2048
>>>>>Begin Processed Spectral Data<<<<<
339.09	0.00
339.48	199.25
339.86	201.05
340.24	201.65
340.63	203.40
341.01	206.80
341.39	205.60
341.78	206.70
342.16	208.10
342.54	209.10
342.93	198.22
343.31	208.22
343.69	208.79
344.07	209.20
344.46	209.64
344.84	210.15
345.22	210.44
345.60	210.81
345.99	211.14
346.37	211.39
346.75	211.57
347.13	211.82
347.52	211.98
347.90	212.20
348.28	212.37
348.66	212.45
349.05	212.50
349.43	212.65
349.81	212.84
350.19	213.09
350.57	213.27
350.96	213.44
351.34	213.63
351.72	213.72
352.10	213.96
352.48	214.10
352.87	214.17
353.25	214.27
353.63	214.32
354.01	214.35
354.39	214.45
354.77	214.55
355.15	214.63
355.54	214.67
355.92	214.63
356.30	214.70
356.68	214.88
357.06	214.98
357.44	214.97
357.82	215.01
358.20	215.03
358.58	215.09
358.97	215.13
359.35	215.26
359.73	215.44
360.11	215.46
360.49	215.53
360.87	215.50
361.25	215.53
361.63	215.65
362.01	215.80
362.39	215.86
362.77	215.95
363.15	215.98
363.53	215.97
363.91	216.01
364.29	215.99
364.67	215.92
365.05	215.95
365.43	215.99
365.81	216.00
366.19	216.15
366.57	216.23
366.95	216.31
367.33	216.23
367.71	216.20
368.09	216.27
368.47	216.36
368.85	216.43
369.23	216.50
369.61	216.49
369.99	216.51
370.37	216.50
370.75	216.52
371.13	216.48
371.51	216.46
371.89	216.44
372.27	216.46
372.65	216.47
373.03	216.44
373.41	216.36
373.78	216.41
374.16	216.30
374.54	216.24
374.92	216.16
375.30	216.18
375.68	216.08
376.06	216.04
376.44	215.96
376.82	215.87
377.19	215.83
377.57	215.77
377.95	215.67
378.33	215.57
378.71	215.46
379.09	215.44
379.47	215.42
379.84	215.44
380.22	215.41
380.60	215.31
380.98	215.30
381.36	215.37
381.73	215.27
382.11	215.23
382.49	215.22
382.87	215.17
383.25	215.13
383.62	215.39
384.00	215.38
384.38	215.38
384.76	215.43
385.13	215.45
385.51	215.41
385.89	215.38
386.27	215.46
386.64	215.42
387.02	215.41
387.40	215.41
387.78	215.42
388.15	215.44
388.53	215.46
388.91	215.41
389.29	215.39
389.66	215.40
390.04	215.36
390.42	215.40
390.79	215.38
391.17	215.42
391.55	215.21
391.92	215.20
392.30	215.23
392.68	215.20
393.05	215.23
393.43	215.24
393.81	215.28
394.18	215.27
394.56	215.39
394.94	215.45
395.31	215.55
395.69	215.72
396.06	215.80
396.44	215.88
396.82	215.98
397.19	216.16
397.57	216.25
397.95	216.50
398.32	216.53
398.70	216.80
399.07	216.97
399.45	217.15
399.82	217.37
400.20	217.61
400.58	217.86
400.95	217.99
401.33	218.32
401.70	218.72
402.08	219.05
402.45	219.42
402.83	219.88
403.20	220.27
403.58	220.65
403.95	221.19
404.33	221.83
404.71	222.42
405.08	223.10
405.46	223.80
405.83	224.45
406.21	225.30
406.58	226.18
406.96	227.13
407.33	228.17
407.70	229.30
408.08	230.55
408.45	231.94
408.83	233.45
409.20	234.86
409.58	236.37
409.95	238.13
410.33	240.07
410.70	242.06
411.08	244.22
411.45	246.46
411.82	248.80
412.20	251.34
412.57	254.29
412.95	257.14
413.32	260.27
413.69	263.73
414.07	267.30
414.44	271.25
414.82	275.36
415.19	280.03
415.56	284.84
415.94	290.05
416.31	295.68
416.68	301.35
417.06	307.88
417.43	314.03
417.81	321.20
418.18	328.42
418.55	336.16
418.93	344.47
419.30	353.13
419.67	362.33
420.04	371.99
420.42	382.09
420.79	393.15
421.16	404.98
421.54	416.80
421.91	429.27
422.28	442.32
422.66	456.15
423.03	469.32
423.40	483.63
423.77	499.01
424.15	514.52
424.52	530.87
424.89	548.47
425.26	565.92
425.64	582.28
426.01	600.62
426.38	619.92
426.75	639.09
427.13	659.41
427.50	680.99
427.87	703.41
428.24	725.93
428.61	748.16
428.99	771.26
429.36	797.58
429.73	823.11
430.10	848.40
430.47	874.52
430.85	902.47
431.22	931.20
431.59	961.20
431.96	990.93
432.33	1023.53
432.70	1055.28
433.08	1092.59
433.45	1128.19
433.82	1163.58
434.19	1202.73
434.56	1241.11
434.93	1278.51
435.30	1315.53
435.68	1356.71
436.05	1397.71
436.42	1438.50
436.79	1476.44
437.16	1516.86
437.53	1559.90
437.90	1602.74
438.27	1644.96
438.64	1689.04
439.01	1729.86
439.38	1767.78
439.75	1803.55
440.13	1844.41
440.50	1883.08
440.87	1915.39
441.24	1948.85
441.61	1985.70
441.98	2013.98
442.35	2047.00
442.72	2079.44
443.09	2110.98
443.46	2131.90
443.83	2147.33
444.20	2161.35
444.57	2180.22
444.94	2191.19
445.31	2202.20
445.68	2211.52
446.05	2219.08
446.42	2218.94
446.79	2217.97
447.16	2215.98
447.53	2215.59
447.90	2204.20
448.27	2192.84
448.64	2174.76
449.01	2162.68
449.37	2138.02
449.74	2114.41
450.11	2084.48
450.48	2053.42
450.85	2021.30
451.22	1993.68
451.59	1967.16
451.96	1941.74
452.33	1906.55
452.70	1874.89
453.07	1837.00
453.43	1799.04
453.80	1760.97
454.17	1724.81
454.54	1691.17
454.91	1654.38
455.28	1618.66
455.65	1585.32
456.02	1549.60
456.38	1520.88
456.75	1484.32
457.12	1454.65
457.49	1425.01
457.86	1397.31
458.23	1371.72
458.59	1344.25
458.96	1316.17
459.33	1291.49
459.70	1266.58
460.07	1246.90
460.43	1224.16
460.80	1202.35
461.17	1183.82
461.54	1163.88
461.91	1145.06
462.27	1125.91
462.64	1109.92
463.01	1091.90
463.38	1073.85
463.74	1058.27
464.11	1043.17
464.48	1030.02
464.85	1015.38
465.21	1003.73
465.58	991.48
465.95	977.36
466.32	965.27
466.68	953.47
467.05	941.36
467.42	929.58
467.78	917.31
468.15	905.53
468.52	896.57
468.88	885.35
469.25	875.50
469.62	867.06
469.98	858.21
470.35	849.89
470.72	842.34
471.08	834.41
471.45	827.29
471.82	819.91
472.18	812.00
472.55	806.30
472.92	800.05
473.28	794.20
473.65	788.45
474.02	782.99
474.38	778.29
474.75	774.30
475.11	770.05
475.48	766.80
475.85	763.98
476.21	761.30
476.58	758.98
476.94	757.35
477.31	755.35
477.67	753.18
478.04	751.56
478.41	750.48
478.77	749.49
479.14	748.49
479.50	748.14
479.87	748.86
480.23	749.51
480.60	749.36
480.96	749.75
481.33	751.13
481.69	752.65
482.06	753.83
482.42	754.63
482.79	755.94
483.15	758.32
483.52	761.62
483.88	764.44
484.25	767.40
484.61	770.36
484.98	773.82
485.34	778.08
485.71	782.71
486.07	787.64
486.44	792.72
486.80	798.20
487.17	803.97
487.53	810.32
487.90	816.91
488.26	824.12
488.62	831.68
488.99	839.48
489.35	847.33
489.72	856.33
490.08	866.27
490.44	876.01
490.81	885.98
491.17	895.69
491.54	906.47
491.90	917.15
492.26	928.82
492.63	940.75
492.99	953.25
493.36	966.10
493.72	979.15
494.08	993.08
494.45	1007.56
494.81	1022.68
495.17	1038.06
495.54	1053.78
495.90	1070.60
496.26	1087.76
496.63	1105.18
496.99	1122.79
497.35	1140.56
497.72	1158.70
498.08	1177.47
498.44	1196.07
498.80	1216.23
499.17	1236.33
499.53	1257.23
499.89	1278.22
500.26	1299.53
500.62	1320.25
500.98	1342.30
501.34	1364.62
501.71	1386.86
502.07	1409.57
502.43	1432.54
502.79	1455.59
503.16	1478.98
503.52	1502.22
503.88	1524.89
504.24	1548.06
504.60	1572.00
504.97	1596.50
505.33	1620.81
505.69	1645.81
506.05	1670.85
506.41	1695.10
506.78	1719.71
507.14	1744.14
507.50	1769.31
507.86	1794.10
508.22	1820.00
508.59	1844.73
508.95	1869.98
509.31	1895.56
509.67	1921.18
510.03	1946.45
510.39	1971.88
510.75	1996.88
511.12	2021.35
511.48	2045.95
511.84	2070.62
512.20	2094.73
512.56	2119.15
512.92	2143.53
513.28	2167.70
513.64	2191.70
514.00	2215.00
514.37	2238.19
514.73	2261.70
515.09	2283.74
515.45	2306.45
515.81	2328.60
516.17	2351.07
516.53	2372.84
516.89	2394.17
517.25	2414.03
517.61	2433.85
517.97	2453.24
518.33	2471.90
518.69	2491.37
519.05	2511.36
519.41	2530.95
519.77	2550.67
520.13	2568.90
520.49	2586.87
520.85	2604.36
521.21	2621.15
521.57	2639.42
521.93	2655.96
522.29	2672.83
522.65	2689.98
523.01	2706.70
523.37	2722.27
523.73	2737.94
524.09	2752.46
524.45	2767.23
524.81	2782.13
525.17	2797.40
525.53	2811.72
525.89	2827.21
526.25	2841.80
526.61	2854.69
526.97	2867.85
527.33	2880.63
527.68	2894.53
528.04	2907.84
528.40	2919.81
528.76	2932.94
529.12	2943.81
529.48	2956.13
529.84	2966.35
530.20	2977.69
530.56	2988.45
530.91	2999.84
531.27	3010.59
531.63	3021.85
531.99	3032.15
532.35	3042.01
532.71	3051.77
533.07	3063.53
533.42	3072.90
533.78	3083.39
534.14	3093.41
534.50	3101.98
534.86	3111.17
535.21	3117.95
535.57	3126.75
535.93	3135.35
536.29	3142.20
536.65	3151.17
537.00	3158.77
537.36	3167.18
537.72	3173.97
538.08	3181.17
538.44	3188.30
538.79	3195.25
539.15	3202.15
539.51	3208.99
539.87	3216.81
540.22	3223.75
540.58	3229.34
540.94	3235.81
541.29	3240.63
541.65	3244.07
542.01	3248.96
542.37	3252.95
542.72	3258.42
543.08	3261.52
543.44	3265.45
543.79	3268.90
544.15	3271.48
544.51	3275.25
544.87	3278.90
545.22	3281.48
545.58	3283.30
545.94	3284.92
546.29	3285.81
546.65	3286.62
547.01	3287.86
547.36	3288.66
547.72	3289.38
548.07	3289.25
548.43	3289.43
548.79	3288.93
549.14	3290.72
549.50	3291.86
549.86	3293.31
550.21	3292.76
550.57	3293.05
550.92	3292.23
551.28	3291.68
551.64	3290.94
551.99	3289.99
552.35	3289.07
552.70	3288.84
553.06	3288.32
553.41	3288.14
553.77	3288.04
554.13	3287.61
554.48	3287.57
554.84	3287.32
555.19	3285.81
555.55	3285.06
555.90	3284.01
556.26	3283.52
556.61	3282.47
556.97	3279.76
557.32	3276.21
557.68	3274.09
558.03	3271.91
558.39	3269.85
558.74	3270.16
559.10	3269.92
559.45	3269.08
559.81	3268.12
560.16	3266.29
560.52	3265.97
560.87	3263.99
561.23	3260.70
561.58	3257.76
561.94	3252.89
562.29	3248.54
562.64	3245.20
563.00	3242.00
563.35	3238.26
563.71	3234.70
564.06	3231.73
564.42	3228.88
564.77	3226.46
565.12	3223.86
565.48	3220.47
565.83	3217.97
566.19	3214.34
566.54	3210.20
566.89	3205.00
567.25	3199.56
567.60	3196.06
567.96	3190.03
568.31	3185.58
568.66	3182.10
569.02	3178.85
569.37	3176.29
569.72	3173.25
570.08	3169.46
570.43	3163.87
570.78	3159.43
571.14	3155.27
571.49	3150.20
571.84	3146.17
572.20	3140.46
572.55	3135.30
572.90	3129.83
573.26	3124.19
573.61	3116.49
573.96	3109.40
574.31	3102.35
574.67	3095.85
575.02	3088.18
575.37	3081.39
575.72	3073.80
576.08	3066.22
576.43	3057.57
576.78	3049.67
577.13	3041.59
577.49	3034.13
577.84	3027.78
578.19	3019.70
578.54	3011.32
578.90	3003.56
579.25	2994.45
579.60	2985.79
579.95	2976.95
580.30	2968.72
580.66	2959.50
581.01	2951.18
581.36	2941.34
581.71	2933.49
582.06	2925.06
582.42	2917.17
582.77	2907.75
583.12	2898.00
583.47	2888.90
583.82	2879.83
584.17	2870.01
584.53	2860.70
584.88	2850.48
585.23	2839.74
585.58	2830.76
585.93	2820.85
586.28	2811.38
586.63	2801.74
586.98	2792.30
587.34	2782.69
587.69	2772.37
588.04	2763.36
588.39	2754.15
588.74	2744.16
589.09	2733.82
589.44	2722.32
589.79	2710.78
590.14	2701.05
590.49	2690.27
590.84	2680.28
591.19	2670.73
591.54	2660.40
591.89	2648.64
592.25	2638.63
592.60	2627.64
592.95	2615.72
593.30	2604.40
593.65	2593.04
594.00	2582.19
594.35	2572.60
594.70	2561.56
595.05	2550.81
595.40	2538.45
595.75	2526.31
596.10	2516.11
596.45	2504.75
596.80	2495.06
597.15	2484.74
597.50	2473.70
597.85	2464.05
598.19	2451.67
598.54	2439.78
598.89	2428.60
599.24	2418.34
599.59	2407.10
599.94	2397.53
600.29	2387.82
600.64	2377.44
600.99	2365.57
601.34	2355.16
601.69	2343.25
602.04	2332.21
602.39	2321.78
602.74	2313.30
603.08	2304.84
603.43	2296.22
603.78	2286.83
604.13	2276.45
604.48	2265.69
604.83	2256.16
605.18	2246.11
605.53	2236.82
605.87	2227.31
606.22	2218.08
606.57	2208.53
606.92	2197.65
607.27	2186.72
607.62	2176.15
607.96	2166.24
608.31	2157.43
608.66	2146.64
609.01	2136.04
609.36	2125.83
609.70	2114.92
610.05	2102.36
610.40	2090.12
610.75	2077.51
611.10	2066.25
611.44	2054.30
611.79	2043.42
612.14	2031.76
612.49	2019.32
612.83	2007.70
613.18	1995.55
613.53	1983.27
613.88	1970.03
614.22	1958.31
614.57	1945.71
614.92	1933.44
615.27	1921.05
615.61	1907.79
615.96	1896.00
616.31	1884.83
616.65	1873.80
617.00	1863.09
617.35	1852.40
617.70	1840.60
618.04	1828.98
618.39	1816.70
618.74	1805.45
619.08	1793.38
619.43	1781.06
619.78	1770.04
620.12	1759.42
620.47	1748.91
620.82	1737.93
621.16	1727.65
621.51	1716.92
621.85	1706.51
622.20	1695.57
622.55	1684.29
622.89	1673.89
623.24	1663.36
623.59	1652.22
623.93	1641.15
624.28	1629.86
624.62	1619.00
624.97	1608.61
625.32	1598.24
625.66	1588.60
626.01	1578.52
626.35	1569.52
626.70	1560.44
627.04	1550.84
627.39	1540.22
627.73	1530.16
628.08	1520.73
628.43	1511.15
628.77	1502.12
629.12	1492.59
629.46	1483.42
629.81	1473.93
630.15	1464.08
630.50	1454.43
630.84	1444.75
631.19	1434.68
631.53	1425.15
631.88	1415.47
632.22	1406.63
632.57	1398.29
632.91	1389.35
633.26	1380.96
633.60	1371.56
633.95	1362.82
634.29	1354.35
634.64	1346.39
634.98	1337.29
635.32	1328.67
635.67	1320.53
636.01	1312.31
636.36	1303.80
636.70	1295.51
637.05	1287.63
637.39	1279.60
637.73	1271.21
638.08	1264.05
638.42	1256.86
638.77	1249.35
639.11	1241.77
639.45	1233.63
639.80	1225.38
640.14	1217.44
640.49	1208.91
640.83	1200.45
641.17	1192.11
641.52	1183.84
641.86	1175.61
642.20	1167.96
642.55	1159.16
642.89	1150.47
643.23	1141.92
643.58	1134.42
643.92	1125.99
644.26	1117.67
644.61	1110.03
644.95	1102.05
645.29	1093.67
645.64	1085.23
645.98	1076.89
646.32	1069.23
646.66	1061.75
647.01	1054.05
647.35	1046.02
647.69	1038.27
648.04	1031.17
648.38	1023.57
648.72	1016.17
649.06	1008.49
649.41	1000.96
649.75	993.57
650.09	986.70
650.43	979.58
650.78	972.26
651.12	965.21
651.46	958.63
651.80	951.79
652.14	945.42
652.49	938.83
652.83	932.26
653.17	925.45
653.51	918.37
653.85	912.08
654.20	905.82
654.54	899.63
654.88	893.51
655.22	886.58
655.56	879.56
655.90	872.32
656.25	865.23
656.59	858.77
656.93	852.63
657.27	846.12
657.61	839.30
657.95	832.98
658.29	827.07
658.64	821.16
658.98	815.04
659.32	808.74
659.66	802.56
660.00	796.37
660.34	790.62
660.68	784.83
661.02	778.13
661.36	771.77
661.70	765.98
662.05	760.32
662.39	755.24
662.73	750.26
663.07	745.72
663.41	741.21
663.75	736.17
664.09	730.88
664.43	725.63
664.77	720.82
665.11	715.81
665.45	710.97
665.79	705.71
666.13	701.04
666.47	696.47
666.81	691.97
667.15	687.63
667.49	683.21
667.83	678.82
668.17	674.72
668.51	670.59
668.85	666.19
669.19	661.79
669.53	657.14
669.87	652.52
670.21	647.87
670.55	643.38
670.89	639.20
671.23	635.29
671.57	631.12
671.91	627.14
672.25	623.18
672.58	618.98
672.92	615.05
673.26	611.14
673.60	607.16
673.94	603.43
674.28	599.73
674.62	595.76
674.96	591.74
675.30	587.92
675.64	583.95
675.97	580.32
676.31	576.90
676.65	573.66
676.99	570.78
677.33	567.69
677.67	564.32
678.01	560.75
678.34	557.26
678.68	554.16
679.02	550.73
679.36	547.39
679.70	544.07
680.04	540.90
680.37	537.55
680.71	534.39
681.05	531.13
681.39	527.89
681.73	524.85
682.06	522.03
682.40	519.00
682.74	516.18
683.08	512.96
683.42	509.77
683.75	506.64
684.09	503.30
684.43	500.07
684.77	497.10
685.10	494.07
685.44	491.01
685.78	487.93
686.12	485.06
686.45	482.11
686.79	479.26
687.13	476.52
687.46	473.77
687.80	470.98
688.14	468.10
688.48	465.45
688.81	462.80
689.15	460.11
689.49	457.47
689.82	454.59
690.16	451.71
690.50	448.98
690.83	446.26
691.17	443.54
691.51	440.92
691.84	438.45
692.18	436.17
692.52	433.90
692.85	431.57
693.19	429.24
693.52	426.89
693.86	424.31
694.20	421.78
694.53	419.30
694.87	416.83
695.21	414.40
695.54	411.93
695.88	409.58
696.21	407.34
696.55	405.15
696.88	403.08
697.22	401.27
697.56	399.42
697.89	397.40
698.23	395.52
698.56	393.44
698.90	391.42
699.23	389.31
699.57	387.40
699.90	385.40
700.24	383.40
700.58	381.48
700.91	379.85
701.25	378.08
701.58	376.50
701.92	374.80
702.25	373.24
702.59	371.65
702.92	369.94
703.26	368.19
703.59	366.63
703.93	365.16
704.26	363.47
704.60	361.68
704.93	360.10
705.26	358.45
705.60	357.10
705.93	355.51
706.27	353.97
706.60	352.45
706.94	351.01
707.27	349.53
707.61	348.01
707.94	346.44
708.27	344.88
708.61	343.34
708.94	341.93
709.28	340.50
709.61	338.97
709.94	337.57
710.28	335.97
710.61	334.40
710.95	332.78
711.28	331.49
711.61	330.17
711.95	328.78
712.28	327.39
712.61	325.93
712.95	324.71
713.28	323.51
713.61	322.19
713.95	320.89
714.28	319.64
714.61	318.51
714.95	317.31
715.28	316.10
715.61	314.77
715.95	313.46
716.28	312.16
716.61	310.93
716.95	309.65
717.28	308.60
717.61	307.45
717.94	306.43
718.28	305.16
718.61	304.05
718.94	303.08
719.27	302.07
719.61	301.14
719.94	300.21
720.27	299.11
720.60	298.18
720.94	297.31
721.27	296.45
721.60	295.50
721.93	294.66
722.27	293.87
722.60	293.10
722.93	292.30
723.26	291.55
723.59	290.76
723.93	290.04
724.26	289.25
724.59	288.57
724.92	287.83
725.25	287.11
725.59	286.42
725.92	285.53
726.25	284.86
726.58	284.05
726.91	283.26
727.24	282.57
727.57	281.74
727.91	280.88
728.24	280.11
728.57	279.34
728.90	278.59
729.23	277.87
729.56	277.22
729.89	276.58
730.22	275.81
730.55	275.18
730.89	274.53
731.22	273.87
731.55	273.14
731.88	272.37
732.21	271.80
732.54	271.08
732.87	270.50
733.20	269.90
733.53	269.33
733.86	268.78
734.19	268.23
734.52	267.75
734.85	267.31
735.18	266.72
735.51	266.24
735.84	265.68
736.17	265.15
736.50	264.59
736.83	264.14
737.16	263.66
737.49	263.05
737.82	262.47
738.15	261.93
738.48	261.31
738.81	260.81
739.14	260.22
739.47	259.69
739.80	259.22
740.13	258.65
740.46	258.09
740.79	257.50
741.12	256.97
741.45	256.47
741.78	255.86
742.11	255.38
742.44	254.79
742.77	254.25
743.10	253.67
743.43	253.09
743.75	252.48
744.08	252.08
744.41	251.63
744.74	251.14
745.07	250.70
745.40	250.33
745.73	249.94
746.06	249.44
746.39	249.05
746.71	248.49
747.04	248.12
747.37	247.69
747.70	247.32
748.03	246.89
748.36	246.52
748.68	246.18
749.01	245.78
749.34	245.42
749.67	245.07
750.00	244.70
750.33	244.46
750.65	244.05
750.98	243.53
751.31	243.24
751.64	242.90
751.97	242.60
752.29	242.21
752.62	241.84
752.95	241.52
753.28	241.09
753.60	240.78
753.93	240.46
754.26	240.11
754.59	239.70
754.91	239.29
755.24	238.93
755.57	238.50
755.90	238.17
756.22	237.92
756.55	237.67
756.88	237.43
757.20	236.99
757.53	236.63
757.86	236.35
758.19	236.02
758.51	235.72
758.84	235.34
759.17	235.14
759.49	234.88
759.82	234.75
760.15	234.55
760.47	234.31
760.80	233.91
761.13	233.73
761.45	233.50
761.78	233.21
762.11	232.89
762.43	232.72
762.76	232.46
763.08	232.08
763.41	231.85
763.74	231.47
764.06	231.23
764.39	231.05
764.71	230.80
765.04	230.50
765.37	230.30
765.69	230.09
766.02	229.87
766.34	229.60
766.67	229.29
767.00	229.07
767.32	228.91
767.65	228.87
767.97	228.68
768.30	228.46
768.62	228.39
768.95	228.30
769.27	228.08
769.60	227.95
769.92	227.84
770.25	227.58
770.57	227.50
770.90	227.35
771.22	227.12
771.55	226.98
771.87	226.84
772.20	226.55
772.52	226.49
772.85	226.55
773.17	226.40
773.50	226.23
773.82	226.10
774.15	225.91
774.47	225.64
774.80	225.42
775.12	225.29
775.45	225.14
775.77	224.89
776.09	224.72
776.42	224.55
776.74	224.47
777.07	224.32
777.39	224.12
777.72	223.98
778.04	223.95
778.36	223.76
778.69	223.62
779.01	223.55
779.33	223.28
779.66	222.94
779.98	222.86
780.31	222.76
780.63	222.75
780.95	222.67
781.28	222.59
781.60	222.44
781.92	222.35
782.25	222.23
782.57	222.19
782.89	222.10
