SpectraSuite Data File
++++++++++++++++++++++++++++++++++++
Date: Mon Feb 25 17:33:59 EST 2013
User: group
Dark Spectrum Present: No
Reference Spectrum Present: No
Number of Sampled Component Spectra: 1
Spectrometers: USB2E7196
Integration Time (usec): 52000 (USB2E7196)
Spectra Averaged: 20 (USB2E7196)
Boxcar Smoothing: 10 (USB2E7196)
Correct for Electrical Dark: No (USB2E7196)
Strobe/Lamp Enabled: No (USB2E7196)
Correct for Detector Non-linearity: No (USB2E7196)
Correct for Stray Light: No (USB2E7196)
Number of Pixels in Processed Spectrum: 2048
>>>>>Begin Processed Spectral Data<<<<<
339.09	0.00
339.48	199.60
339.86	201.40
340.24	200.65
340.63	203.90
341.01	208.50
341.39	206.70
341.78	208.30
342.16	209.85
342.54	208.70
342.93	198.67
343.31	208.71
343.69	209.20
344.07	209.62
344.46	210.09
344.84	210.51
345.22	210.72
345.60	210.98
345.99	211.07
346.37	211.14
346.75	211.27
347.13	211.35
347.52	211.45
347.90	211.58
348.28	211.66
348.66	211.75
349.05	211.70
349.43	211.76
349.81	211.80
350.19	211.85
350.57	211.82
350.96	211.85
351.34	211.95
351.72	212.08
352.10	212.17
352.48	212.29
352.87	212.31
353.25	212.29
353.63	212.29
354.01	212.42
354.39	212.51
354.77	212.57
355.15	212.70
355.54	212.68
355.92	212.66
356.30	212.68
356.68	212.82
357.06	212.93
357.44	212.97
357.82	212.88
358.20	212.93
358.58	213.04
358.97	213.14
359.35	213.24
359.73	213.34
360.11	213.34
360.49	213.37
360.87	213.45
361.25	213.49
361.63	213.58
362.01	213.61
362.39	213.62
362.77	213.68
363.15	213.68
363.53	213.69
363.91	213.69
364.29	213.70
364.67	213.52
365.05	213.51
365.43	213.51
365.81	213.62
366.19	213.72
366.57	213.82
366.95	213.83
367.33	213.70
367.71	213.75
368.09	213.75
368.47	213.76
368.85	213.68
369.23	213.69
369.61	213.60
369.99	213.65
370.37	213.65
370.75	213.70
371.13	213.70
371.51	213.66
371.89	213.67
372.27	213.68
372.65	213.65
373.03	213.62
373.41	213.56
373.78	213.46
374.16	213.39
374.54	213.26
374.92	213.21
375.30	213.22
375.68	213.06
376.06	213.03
376.44	212.96
376.82	212.97
377.19	212.93
377.57	212.88
377.95	212.74
378.33	212.64
378.71	212.51
379.09	212.39
379.47	212.35
379.84	212.30
380.22	212.25
380.60	212.18
380.98	212.15
381.36	212.19
381.73	212.22
382.11	212.15
382.49	212.07
382.87	211.92
383.25	211.88
383.62	212.04
384.00	212.09
384.38	212.05
384.76	212.01
385.13	212.06
385.51	212.03
385.89	211.99
386.27	212.06
386.64	212.04
387.02	212.09
387.40	212.10
387.78	212.09
388.15	212.07
388.53	212.09
388.91	212.03
389.29	211.88
389.66	211.83
390.04	211.79
390.42	211.81
390.79	211.84
391.17	211.80
391.55	211.59
391.92	211.50
392.30	211.53
392.68	211.45
393.05	211.41
393.43	211.44
393.81	211.45
394.18	211.38
394.56	211.41
394.94	211.39
395.31	211.40
395.69	211.50
396.06	211.48
396.44	211.49
396.82	211.52
397.19	211.65
397.57	211.63
397.95	211.66
398.32	211.61
398.70	211.63
399.07	211.66
399.45	211.65
399.82	211.74
400.20	211.72
400.58	211.74
400.95	211.69
401.33	211.77
401.70	211.90
402.08	211.95
402.45	211.96
402.83	212.05
403.20	212.10
403.58	212.14
403.95	212.28
404.33	212.40
404.71	212.50
405.08	212.70
405.46	212.84
405.83	212.96
406.21	213.12
406.58	213.35
406.96	213.48
407.33	213.77
407.70	213.95
408.08	214.30
408.45	214.51
408.83	214.80
409.20	215.03
409.58	215.19
409.95	215.54
410.33	215.85
410.70	216.14
411.08	216.48
411.45	216.83
411.82	217.14
412.20	217.56
412.57	218.05
412.95	218.37
413.32	218.85
413.69	219.38
414.07	219.95
414.44	220.58
414.82	221.23
415.19	221.92
415.56	222.57
415.94	223.27
416.31	224.23
416.68	225.13
417.06	226.08
417.43	227.07
417.81	228.21
418.18	229.32
418.55	230.49
418.93	231.75
419.30	233.07
419.67	234.53
420.04	236.01
420.42	237.44
420.79	239.27
421.16	241.04
421.54	242.92
421.91	244.84
422.28	246.64
422.66	248.68
423.03	250.70
423.40	252.87
423.77	255.09
424.15	257.40
424.52	259.79
424.89	262.43
425.26	264.89
425.64	267.21
426.01	269.85
426.38	272.60
426.75	275.30
427.13	278.11
427.50	281.08
427.87	284.15
428.24	287.35
428.61	290.23
428.99	293.55
429.36	297.00
429.73	300.38
430.10	303.93
430.47	307.55
430.85	311.27
431.22	315.27
431.59	319.47
431.96	323.33
432.33	327.55
432.70	331.69
433.08	336.70
433.45	341.33
433.82	345.91
434.19	351.04
434.56	356.01
434.93	360.73
435.30	365.54
435.68	370.92
436.05	376.04
436.42	381.24
436.79	385.91
437.16	390.98
437.53	396.35
437.90	401.67
438.27	406.88
438.64	412.23
439.01	417.01
439.38	421.35
439.75	425.66
440.13	430.58
440.50	435.10
440.87	438.80
441.24	442.71
441.61	447.11
441.98	450.16
442.35	453.84
442.72	457.48
443.09	460.90
443.46	462.88
443.83	464.38
444.20	465.50
444.57	467.32
444.94	468.10
445.31	468.94
445.68	469.62
446.05	469.88
446.42	469.05
446.79	468.38
447.16	467.58
447.53	466.94
447.90	464.85
448.27	462.90
448.64	460.05
449.01	457.75
449.37	453.97
449.74	450.39
450.11	446.35
450.48	441.85
450.85	437.27
451.22	433.26
451.59	429.50
451.96	425.86
452.33	420.96
452.70	416.68
453.07	411.54
453.43	406.30
453.80	401.24
454.17	396.56
454.54	392.09
454.91	387.18
455.28	382.46
455.65	378.06
456.02	373.63
456.38	369.76
456.75	365.21
457.12	361.32
457.49	357.55
457.86	353.68
458.23	350.53
458.59	347.03
458.96	343.52
459.33	340.31
459.70	337.26
460.07	334.78
460.43	331.84
460.80	329.13
461.17	326.81
461.54	324.39
461.91	322.03
462.27	319.54
462.64	317.52
463.01	315.30
463.38	313.23
463.74	310.94
464.11	309.09
464.48	307.49
464.85	305.71
465.21	304.40
465.58	303.03
465.95	301.32
466.32	299.82
466.68	298.43
467.05	297.05
467.42	295.59
467.78	294.08
468.15	292.72
468.52	291.70
468.88	290.29
469.25	289.06
469.62	288.17
469.98	287.21
470.35	286.28
470.72	285.38
471.08	284.32
471.45	283.64
471.82	282.89
472.18	281.98
472.55	281.42
472.92	280.70
473.28	280.03
473.65	279.48
474.02	278.95
474.38	278.58
474.75	278.23
475.11	277.88
475.48	277.70
475.85	277.52
476.21	277.23
476.58	277.28
476.94	277.30
477.31	277.19
477.67	277.21
478.04	277.21
478.41	277.33
478.77	277.73
479.14	277.85
479.50	278.03
479.87	278.35
480.23	278.73
480.60	279.04
480.96	279.43
481.33	280.11
481.69	280.76
482.06	281.33
482.42	281.85
482.79	282.57
483.15	283.35
483.52	284.30
483.88	285.41
484.25	286.30
484.61	287.28
484.98	288.41
485.34	289.64
485.71	290.98
486.07	292.37
486.44	293.67
486.80	295.20
487.17	296.88
487.53	298.68
487.90	300.42
488.26	302.35
488.62	304.50
488.99	306.48
489.35	308.54
489.72	310.87
490.08	313.44
490.44	315.96
490.81	318.64
491.17	321.34
491.54	324.09
491.90	327.07
492.26	330.35
492.63	333.71
492.99	337.14
493.36	340.85
493.72	344.75
494.08	348.75
494.45	353.00
494.81	357.52
495.17	362.16
495.54	367.06
495.90	372.17
496.26	377.37
496.63	382.87
496.99	388.81
497.35	394.74
497.72	401.02
498.08	407.39
498.44	414.10
498.80	421.38
499.17	428.88
499.53	436.68
499.89	444.51
500.26	452.71
500.62	460.99
500.98	469.78
501.34	478.87
501.71	488.49
502.07	498.14
502.43	508.15
502.79	518.37
503.16	529.05
503.52	539.93
503.88	551.32
504.24	562.86
504.60	574.64
504.97	586.94
505.33	599.47
505.69	612.79
506.05	626.14
506.41	639.57
506.78	653.35
507.14	667.47
507.50	682.23
507.86	697.00
508.22	712.50
508.59	728.18
508.95	743.99
509.31	760.15
509.67	776.85
510.03	793.74
510.39	811.37
510.75	829.12
511.12	847.42
511.48	865.55
511.84	884.28
512.20	903.00
512.56	922.40
512.92	941.90
513.28	961.35
513.64	981.43
514.00	1001.54
514.37	1021.90
514.73	1042.65
515.09	1063.36
515.45	1084.35
515.81	1105.72
516.17	1126.90
516.53	1148.47
516.89	1169.97
517.25	1191.46
517.61	1212.95
517.97	1234.47
518.33	1256.00
518.69	1277.70
519.05	1299.91
519.41	1322.34
519.77	1345.13
520.13	1367.11
520.49	1389.20
520.85	1412.02
521.21	1434.35
521.57	1457.47
521.93	1479.57
522.29	1502.50
522.65	1525.56
523.01	1548.14
523.37	1570.28
523.73	1592.89
524.09	1615.21
524.45	1637.52
524.81	1660.09
525.17	1682.82
525.53	1705.46
525.89	1727.95
526.25	1749.91
526.61	1771.21
526.97	1792.70
527.33	1814.03
527.68	1835.73
528.04	1857.16
528.40	1877.50
528.76	1898.52
529.12	1919.17
529.48	1941.33
529.84	1961.45
530.20	1981.69
530.56	2002.35
530.91	2023.57
531.27	2044.22
531.63	2064.40
531.99	2084.59
532.35	2103.77
532.71	2122.73
533.07	2142.45
533.42	2161.14
533.78	2180.01
534.14	2198.92
534.50	2216.37
534.86	2234.16
535.21	2251.04
535.57	2268.80
535.93	2286.39
536.29	2303.35
536.65	2320.28
537.00	2335.57
537.36	2351.55
537.72	2366.84
538.08	2382.14
538.44	2396.93
538.79	2411.94
539.15	2426.91
539.51	2441.48
539.87	2457.43
540.22	2472.26
540.58	2487.00
540.94	2501.79
541.29	2514.79
541.65	2527.07
542.01	2540.44
542.37	2552.80
542.72	2565.10
543.08	2575.98
543.44	2587.98
543.79	2598.26
544.15	2608.68
544.51	2619.76
544.87	2630.78
545.22	2639.94
545.58	2648.77
545.94	2656.21
546.29	2662.53
546.65	2668.78
547.01	2674.90
547.36	2680.24
547.72	2685.99
548.07	2689.74
548.43	2693.48
548.79	2697.68
549.14	2702.54
549.50	2706.93
549.86	2710.98
550.21	2715.43
550.57	2719.93
550.92	2722.66
551.28	2725.70
551.64	2727.76
551.99	2730.29
552.35	2731.73
552.70	2734.77
553.06	2737.52
553.41	2740.96
553.77	2744.12
554.13	2746.50
554.48	2749.28
554.84	2750.68
555.19	2750.95
555.55	2751.63
555.90	2752.20
556.26	2752.88
556.61	2752.83
556.97	2751.68
557.32	2751.30
557.68	2749.52
558.03	2747.91
558.39	2746.47
558.74	2745.88
559.10	2745.06
559.45	2743.10
559.81	2741.80
560.16	2738.89
560.52	2736.35
560.87	2733.20
561.23	2729.80
561.58	2727.62
561.94	2724.15
562.29	2720.41
562.64	2718.55
563.00	2716.39
563.35	2714.23
563.71	2712.70
564.06	2710.46
564.42	2708.74
564.77	2706.37
565.12	2704.52
565.48	2701.47
565.83	2698.57
566.19	2695.19
566.54	2690.80
566.89	2687.17
567.25	2683.90
567.60	2680.70
567.96	2677.09
568.31	2673.28
568.66	2669.34
569.02	2664.71
569.37	2659.45
569.72	2655.67
570.08	2649.89
570.43	2644.34
570.78	2638.75
571.14	2631.99
571.49	2625.40
571.84	2619.22
572.20	2612.09
572.55	2605.62
572.90	2598.83
573.26	2591.53
573.61	2584.78
573.96	2578.55
574.31	2570.59
574.67	2562.27
575.02	2553.81
575.37	2545.27
575.72	2536.40
576.08	2529.08
576.43	2520.35
576.78	2512.55
577.13	2504.65
577.49	2496.73
577.84	2488.77
578.19	2480.90
578.54	2473.40
578.90	2466.31
579.25	2457.65
579.60	2448.67
579.95	2439.28
580.30	2431.48
580.66	2423.36
581.01	2413.80
581.36	2404.24
581.71	2395.86
582.06	2386.96
582.42	2378.58
582.77	2369.40
583.12	2360.65
583.47	2351.61
583.82	2343.22
584.17	2333.96
584.53	2324.61
584.88	2315.65
585.23	2306.43
585.58	2296.71
585.93	2287.05
586.28	2277.89
586.63	2269.08
586.98	2260.96
587.34	2252.49
587.69	2243.01
588.04	2234.03
588.39	2225.96
588.74	2216.92
589.09	2208.05
589.44	2198.88
589.79	2190.42
590.14	2182.47
590.49	2173.87
590.84	2164.96
591.19	2156.75
591.54	2148.02
591.89	2137.97
592.25	2128.87
592.60	2119.45
592.95	2110.27
593.30	2100.88
593.65	2090.96
594.00	2081.04
594.35	2072.64
594.70	2063.35
595.05	2054.58
595.40	2045.63
595.75	2036.00
596.10	2027.79
596.45	2019.09
596.80	2011.01
597.15	2002.75
597.50	1993.53
597.85	1985.35
598.19	1976.52
598.54	1967.68
598.89	1959.64
599.24	1952.73
599.59	1945.16
599.94	1938.05
600.29	1929.95
600.64	1922.08
600.99	1913.58
601.34	1906.39
601.69	1897.42
602.04	1889.29
602.39	1881.19
602.74	1873.44
603.08	1866.70
603.43	1859.48
603.78	1851.40
604.13	1843.28
604.48	1835.28
604.83	1828.16
605.18	1820.97
605.53	1813.02
605.87	1805.49
606.22	1798.55
606.57	1790.88
606.92	1782.80
607.27	1774.50
607.62	1767.44
607.96	1760.36
608.31	1754.26
608.66	1746.22
609.01	1738.62
609.36	1730.93
609.70	1722.86
610.05	1714.80
610.40	1706.22
610.75	1697.58
611.10	1690.01
611.44	1681.00
611.79	1671.80
612.14	1662.51
612.49	1652.67
612.83	1644.24
613.18	1634.51
613.53	1624.73
613.88	1614.90
614.22	1606.01
614.57	1596.78
614.92	1587.31
615.27	1578.19
615.61	1567.90
615.96	1559.11
616.31	1550.44
616.65	1542.48
617.00	1534.16
617.35	1525.50
617.70	1516.68
618.04	1507.43
618.39	1498.13
618.74	1489.65
619.08	1481.15
619.43	1472.81
619.78	1464.95
620.12	1456.72
620.47	1448.98
620.82	1440.35
621.16	1431.94
621.51	1423.54
621.85	1415.21
622.20	1406.63
622.55	1397.77
622.89	1389.67
623.24	1381.55
623.59	1372.76
623.93	1363.99
624.28	1355.55
624.62	1347.35
624.97	1339.24
625.32	1331.60
625.66	1324.10
626.01	1316.73
626.35	1309.40
626.70	1301.72
627.04	1294.27
627.39	1286.53
627.73	1278.68
628.08	1271.80
628.43	1264.46
628.77	1256.91
629.12	1249.47
629.46	1242.88
629.81	1235.78
630.15	1228.60
630.50	1221.17
630.84	1213.93
631.19	1206.72
631.53	1199.85
631.88	1192.20
632.22	1184.57
632.57	1177.51
632.91	1169.94
633.26	1162.42
633.60	1155.07
633.95	1148.17
634.29	1140.49
634.64	1133.82
634.98	1126.86
635.32	1119.77
635.67	1113.30
636.01	1106.52
636.36	1099.63
636.70	1092.72
637.05	1086.08
637.39	1079.65
637.73	1073.12
638.08	1067.50
638.42	1061.60
638.77	1054.83
639.11	1048.62
639.45	1042.59
639.80	1035.75
640.14	1029.19
640.49	1023.00
640.83	1016.72
641.17	1010.36
641.52	1004.35
641.86	997.71
642.20	991.52
642.55	984.81
642.89	978.05
643.23	971.74
643.58	965.81
643.92	959.39
644.26	953.12
644.61	947.06
644.95	940.96
645.29	934.54
645.64	927.95
645.98	922.00
646.32	915.98
646.66	909.72
647.01	903.86
647.35	898.18
647.69	891.92
648.04	885.90
648.38	879.98
648.72	874.01
649.06	868.02
649.41	861.86
649.75	856.13
650.09	850.40
650.43	844.47
650.78	838.21
651.12	832.21
651.46	826.32
651.80	820.52
652.14	814.62
652.49	808.55
652.83	802.73
653.17	796.57
653.51	790.76
653.85	785.06
654.20	779.36
654.54	773.33
654.88	767.93
655.22	761.98
655.56	756.04
655.90	750.20
656.25	744.35
656.59	738.95
656.93	733.71
657.27	728.53
657.61	723.10
657.95	717.95
658.29	712.83
658.64	707.69
658.98	702.42
659.32	697.01
659.66	691.93
660.00	686.48
660.34	681.37
660.68	676.18
661.02	671.15
661.36	666.31
661.70	661.56
662.05	656.56
662.39	652.24
662.73	647.82
663.07	643.61
663.41	639.27
663.75	634.74
664.09	629.97
664.43	625.28
664.77	621.00
665.11	616.50
665.45	612.03
665.79	607.48
666.13	603.03
666.47	598.95
666.81	594.74
667.15	590.72
667.49	586.85
667.83	582.85
668.17	578.89
668.51	574.98
668.85	571.32
669.19	567.65
669.53	563.63
669.87	559.60
670.21	555.53
670.55	551.71
670.89	548.21
671.23	544.82
671.57	541.34
671.91	537.65
672.25	534.29
672.58	530.86
672.92	527.44
673.26	524.22
673.60	521.00
673.94	517.56
674.28	514.29
674.62	511.08
674.96	507.96
675.30	504.98
675.64	501.75
675.97	498.43
676.31	495.40
676.65	492.46
676.99	489.76
677.33	486.87
677.67	484.10
678.01	480.95
678.34	477.90
678.68	474.96
679.02	471.95
679.36	468.95
679.70	466.07
680.04	463.24
680.37	460.22
680.71	457.25
681.05	454.63
681.39	451.92
681.73	449.21
682.06	446.67
682.40	444.01
682.74	441.37
683.08	438.86
683.42	436.14
683.75	433.52
684.09	430.82
684.43	428.30
684.77	425.53
685.10	423.04
685.44	420.45
685.78	417.88
686.12	415.69
686.45	413.27
686.79	410.93
687.13	408.77
687.46	406.62
687.80	404.36
688.14	402.02
688.48	399.77
688.81	397.39
689.15	395.16
689.49	392.85
689.82	390.60
690.16	388.22
690.50	385.98
690.83	383.84
691.17	381.60
691.51	379.37
691.84	377.37
692.18	375.40
692.52	373.48
692.85	371.65
693.19	369.65
693.52	367.73
693.86	365.70
694.20	363.77
694.53	361.82
694.87	359.93
695.21	358.04
695.54	356.10
695.88	354.33
696.21	352.37
696.55	350.61
696.88	348.89
697.22	347.20
697.56	345.72
697.89	343.96
698.23	342.31
698.56	340.72
698.90	339.16
699.23	337.46
699.57	335.86
699.90	334.18
700.24	332.45
700.58	330.94
700.91	329.40
701.25	327.98
701.58	326.55
701.92	325.15
702.25	323.71
702.59	322.36
702.92	321.00
703.26	319.62
703.59	318.33
703.93	317.18
704.26	315.94
704.60	314.54
704.93	313.37
705.26	312.16
705.60	310.95
705.93	309.50
706.27	308.26
706.60	307.08
706.94	305.95
707.27	304.90
707.61	303.72
707.94	302.62
708.27	301.31
708.61	300.12
708.94	298.96
709.28	297.82
709.61	296.74
709.94	295.74
710.28	294.77
710.61	293.78
710.95	292.60
711.28	291.62
711.61	290.53
711.95	289.52
712.28	288.51
712.61	287.59
712.95	286.78
713.28	285.93
713.61	284.98
713.95	284.05
714.28	283.15
714.61	282.15
714.95	281.27
715.28	280.38
715.61	279.44
715.95	278.51
716.28	277.79
716.61	276.91
716.95	275.95
717.28	275.10
717.61	274.09
717.94	273.28
718.28	272.41
718.61	271.68
718.94	270.90
719.27	270.22
719.61	269.45
719.94	268.76
720.27	267.93
720.60	267.17
720.94	266.38
721.27	265.63
721.60	265.02
721.93	264.37
722.27	263.80
722.60	263.23
722.93	262.64
723.26	262.02
723.59	261.39
723.93	260.87
724.26	260.32
724.59	259.83
724.92	259.36
725.25	258.90
725.59	258.38
725.92	257.84
726.25	257.20
726.58	256.65
726.91	256.06
727.24	255.59
727.57	255.19
727.91	254.75
728.24	254.32
728.57	253.84
728.90	253.30
729.23	252.80
729.56	252.47
729.89	251.96
730.22	251.40
730.55	250.93
730.89	250.45
731.22	249.99
731.55	249.58
731.88	249.06
732.21	248.53
732.54	248.05
732.87	247.59
733.20	247.28
733.53	246.85
733.86	246.53
734.19	246.08
734.52	245.69
734.85	245.48
735.18	245.00
735.51	244.68
735.84	244.44
736.17	244.11
736.50	243.61
736.83	243.47
737.16	243.19
737.49	242.92
737.82	242.57
738.15	242.16
738.48	241.81
738.81	241.50
739.14	241.18
739.47	240.77
739.80	240.47
740.13	240.12
740.46	239.81
740.79	239.38
741.12	239.14
741.45	238.79
741.78	238.30
742.11	238.13
742.44	237.80
742.77	237.43
743.10	237.09
743.43	236.76
743.75	236.25
744.08	236.10
744.41	235.75
744.74	235.48
745.07	235.26
745.40	235.02
745.73	234.82
746.06	234.57
746.39	234.42
746.71	234.17
747.04	233.84
747.37	233.57
747.70	233.38
748.03	233.10
748.36	232.90
748.68	232.65
749.01	232.37
749.34	232.13
749.67	231.97
750.00	231.76
750.33	231.58
750.65	231.37
750.98	230.92
751.31	230.69
751.64	230.37
751.97	230.17
752.29	229.93
752.62	229.58
752.95	229.34
753.28	229.13
753.60	228.84
753.93	228.65
754.26	228.41
754.59	228.15
754.91	227.89
755.24	227.65
755.57	227.45
755.90	227.17
756.22	226.92
756.55	226.68
756.88	226.43
757.20	226.25
757.53	226.02
757.86	225.84
758.19	225.74
758.51	225.61
758.84	225.36
759.17	225.12
759.49	225.01
759.82	224.95
760.15	224.63
760.47	224.49
760.80	224.27
761.13	224.16
761.45	224.00
761.78	223.84
762.11	223.72
762.43	223.53
762.76	223.36
763.08	223.25
763.41	223.09
763.74	222.94
764.06	222.76
764.39	222.66
764.71	222.54
765.04	222.38
765.37	222.26
765.69	222.16
766.02	222.00
766.34	221.92
766.67	221.73
767.00	221.73
767.32	221.72
767.65	221.72
767.97	221.59
768.30	221.50
768.62	221.45
768.95	221.21
769.27	221.16
769.60	221.06
769.92	220.95
770.25	220.77
770.57	220.73
770.90	220.58
771.22	220.51
771.55	220.39
771.87	220.20
772.20	220.09
772.52	220.14
772.85	220.31
773.17	220.18
773.50	220.08
773.82	220.00
774.15	219.74
774.47	219.55
774.80	219.43
775.12	219.29
775.45	219.10
775.77	219.12
776.09	219.00
776.42	219.00
776.74	218.96
777.07	218.90
777.39	218.76
777.72	218.69
778.04	218.58
778.36	218.48
778.69	218.50
779.01	218.43
779.33	218.13
779.66	217.91
779.98	217.77
780.31	217.65
780.63	217.55
780.95	217.66
781.28	217.59
781.60	217.49
781.92	217.44
782.25	217.46
782.57	217.36
782.89	217.30
783.22	217.15
783.54	217.08
783.86	216.99
784.19	216.93
784.51	216.91
784.83	216.78
785.16	216.70
785.48	216.63
785.80	216.51
786.12	216.50
786.45	216.34
