SpectraSuite Data File
++++++++++++++++++++++++++++++++++++
Date: Mon Feb 25 17:36:33 EST 2013
User: group
Dark Spectrum Present: No
Reference Spectrum Present: No
Number of Sampled Component Spectra: 1
Spectrometers: USB2E7196
Integration Time (usec): 52000 (USB2E7196)
Spectra Averaged: 20 (USB2E7196)
Boxcar Smoothing: 10 (USB2E7196)
Correct for Electrical Dark: No (USB2E7196)
Strobe/Lamp Enabled: No (USB2E7196)
Correct for Detector Non-linearity: No (USB2E7196)
Correct for Stray Light: No (USB2E7196)
Number of Pixels in Processed Spectrum: 2048
>>>>>Begin Processed Spectral Data<<<<<
339.09	0.00
339.48	197.65
339.86	199.40
340.24	202.20
340.63	202.20
341.01	207.15
341.39	205.10
341.78	207.30
342.16	207.55
342.54	208.50
342.93	197.85
343.31	207.88
343.69	208.44
344.07	208.99
344.46	209.44
344.84	210.00
345.22	210.33
345.60	210.74
345.99	210.99
346.37	211.23
346.75	211.50
347.13	211.70
347.52	211.81
347.90	212.01
348.28	212.18
348.66	212.46
349.05	212.44
349.43	212.65
349.81	212.81
350.19	213.02
350.57	213.15
350.96	213.26
351.34	213.44
351.72	213.65
352.10	213.78
352.48	213.88
352.87	213.90
353.25	213.92
353.63	213.95
354.01	214.04
354.39	214.18
354.77	214.25
355.15	214.39
355.54	214.50
355.92	214.49
356.30	214.53
356.68	214.69
357.06	214.84
357.44	214.86
357.82	214.95
358.20	215.02
358.58	215.22
358.97	215.37
359.35	215.52
359.73	215.72
360.11	215.86
360.49	215.98
360.87	216.09
361.25	216.21
361.63	216.36
362.01	216.44
362.39	216.45
362.77	216.51
363.15	216.54
363.53	216.65
363.91	216.71
364.29	216.76
364.67	216.58
365.05	216.62
365.43	216.70
365.81	216.73
366.19	216.75
366.57	216.75
366.95	216.73
367.33	216.67
367.71	216.64
368.09	216.65
368.47	216.56
368.85	216.54
369.23	216.56
369.61	216.50
369.99	216.60
370.37	216.57
370.75	216.62
371.13	216.56
371.51	216.50
371.89	216.47
372.27	216.50
372.65	216.55
373.03	216.55
373.41	216.51
373.78	216.54
374.16	216.50
374.54	216.49
374.92	216.42
375.30	216.40
375.68	216.32
376.06	216.31
376.44	216.36
376.82	216.35
377.19	216.25
377.57	216.20
377.95	216.11
378.33	216.10
378.71	215.99
379.09	216.04
379.47	215.96
379.84	215.95
380.22	215.88
380.60	215.80
380.98	215.74
381.36	215.68
381.73	215.57
382.11	215.60
382.49	215.49
382.87	215.52
383.25	215.43
383.62	215.57
384.00	215.43
384.38	215.45
384.76	215.41
385.13	215.42
385.51	215.41
385.89	215.34
386.27	215.36
386.64	215.36
387.02	215.33
387.40	215.35
387.78	215.31
388.15	215.30
388.53	215.27
388.91	215.24
389.29	215.31
389.66	215.39
390.04	215.35
390.42	215.39
390.79	215.34
391.17	215.40
391.55	215.25
391.92	215.32
392.30	215.32
392.68	215.29
393.05	215.35
393.43	215.36
393.81	215.40
394.18	215.40
394.56	215.41
394.94	215.45
395.31	215.55
395.69	215.65
396.06	215.73
396.44	215.79
396.82	215.85
397.19	215.96
397.57	215.90
397.95	215.96
398.32	215.99
398.70	216.19
399.07	216.41
399.45	216.57
399.82	216.81
400.20	216.99
400.58	217.31
400.95	217.51
401.33	217.83
401.70	218.25
402.08	218.58
402.45	218.95
402.83	219.37
403.20	219.79
403.58	220.28
403.95	220.76
404.33	221.34
404.71	221.92
405.08	222.63
405.46	223.46
405.83	224.20
406.21	225.05
406.58	225.98
406.96	226.88
407.33	227.89
407.70	228.92
408.08	230.28
408.45	231.62
408.83	233.06
409.20	234.52
409.58	235.96
409.95	237.75
410.33	239.66
410.70	241.58
411.08	243.60
411.45	245.94
411.82	248.35
412.20	250.97
412.57	253.95
412.95	256.82
413.32	259.98
413.69	263.48
414.07	267.05
414.44	270.92
414.82	275.03
415.19	279.76
415.56	284.49
415.94	289.65
416.31	295.21
416.68	300.86
417.06	307.17
417.43	313.18
417.81	320.22
418.18	327.45
418.55	335.34
418.93	343.70
419.30	352.21
419.67	361.27
420.04	370.86
420.42	380.99
420.79	391.99
421.16	403.64
421.54	415.24
421.91	427.69
422.28	440.79
422.66	454.60
423.03	467.79
423.40	482.10
423.77	497.28
424.15	512.99
424.52	529.13
424.89	547.02
425.26	564.56
425.64	581.18
426.01	599.37
426.38	618.40
426.75	637.65
427.13	658.04
427.50	679.70
427.87	701.99
428.24	724.63
428.61	746.67
428.99	769.96
429.36	796.33
429.73	821.74
430.10	846.90
430.47	872.98
430.85	900.60
431.22	929.24
431.59	959.46
431.96	988.76
432.33	1021.61
432.70	1053.17
433.08	1090.83
433.45	1125.76
433.82	1161.25
434.19	1200.56
434.56	1238.81
434.93	1276.11
435.30	1312.93
435.68	1353.94
436.05	1394.61
436.42	1435.22
436.79	1472.84
437.16	1513.10
437.53	1556.26
437.90	1598.87
438.27	1640.81
438.64	1685.01
439.01	1725.87
439.38	1763.48
439.75	1799.48
440.13	1839.76
440.50	1878.26
440.87	1909.85
441.24	1943.59
441.61	1979.85
441.98	2008.00
442.35	2040.50
442.72	2072.62
443.09	2103.78
443.46	2124.89
443.83	2139.99
444.20	2153.84
444.57	2172.44
444.94	2183.33
445.31	2194.06
445.68	2203.74
446.05	2210.92
446.42	2210.57
446.79	2209.56
447.16	2207.62
447.53	2207.10
447.90	2195.65
448.27	2184.28
448.64	2166.72
449.01	2154.28
449.37	2129.81
449.74	2105.95
450.11	2076.38
450.48	2045.45
450.85	2013.90
451.22	1986.15
451.59	1959.81
451.96	1934.63
452.33	1899.58
452.70	1868.05
453.07	1829.99
453.43	1791.82
453.80	1754.39
454.17	1718.24
454.54	1684.34
454.91	1647.43
455.28	1611.77
455.65	1578.84
456.02	1543.07
456.38	1513.82
456.75	1477.70
457.12	1448.18
457.49	1418.66
457.86	1390.96
458.23	1365.26
458.59	1337.58
458.96	1309.70
459.33	1285.17
459.70	1260.41
460.07	1240.95
460.43	1218.24
460.80	1196.58
461.17	1178.11
461.54	1158.14
461.91	1139.41
462.27	1120.50
462.64	1104.58
463.01	1086.35
463.38	1068.33
463.74	1052.99
464.11	1038.36
464.48	1025.20
464.85	1010.51
465.21	999.09
465.58	986.78
465.95	972.58
466.32	960.74
466.68	948.90
467.05	936.89
467.42	925.07
467.78	912.71
468.15	901.18
468.52	892.55
468.88	881.39
469.25	871.63
469.62	863.36
469.98	854.55
470.35	846.51
470.72	838.95
471.08	831.10
471.45	823.80
471.82	816.28
472.18	808.48
472.55	802.90
472.92	796.44
473.28	790.94
473.65	785.64
474.02	780.01
474.38	775.38
474.75	771.39
475.11	767.22
475.48	763.90
475.85	760.97
476.21	758.12
476.58	755.53
476.94	753.63
477.31	751.70
477.67	749.68
478.04	747.97
478.41	746.99
478.77	745.99
479.14	745.13
479.50	744.69
479.87	745.11
480.23	745.79
480.60	745.73
480.96	745.71
481.33	746.95
481.69	748.40
482.06	749.38
482.42	750.23
482.79	751.67
483.15	754.14
483.52	757.30
483.88	760.24
484.25	763.21
484.61	766.44
484.98	769.59
485.34	773.87
485.71	778.40
486.07	783.16
486.44	788.24
486.80	793.48
487.17	799.28
487.53	805.90
487.90	812.47
488.26	819.56
488.62	827.26
488.99	834.90
489.35	842.61
489.72	851.61
490.08	861.30
490.44	870.75
490.81	880.60
491.17	890.32
491.54	901.11
491.90	911.90
492.26	923.17
492.63	935.15
492.99	947.48
493.36	960.06
493.72	973.26
494.08	986.86
494.45	1001.35
494.81	1016.56
495.17	1031.69
495.54	1047.48
495.90	1064.10
496.26	1080.84
496.63	1098.46
496.99	1116.07
497.35	1133.89
497.72	1152.35
498.08	1171.03
498.44	1189.82
498.80	1209.76
499.17	1229.73
499.53	1250.19
499.89	1271.37
500.26	1292.46
500.62	1313.40
500.98	1335.86
501.34	1358.36
501.71	1380.73
502.07	1403.46
502.43	1426.31
502.79	1449.14
503.16	1472.46
503.52	1495.52
503.88	1518.74
504.24	1541.66
504.60	1565.54
504.97	1589.82
505.33	1613.66
505.69	1638.75
506.05	1663.45
506.41	1687.51
506.78	1711.77
507.14	1736.52
507.50	1761.33
507.86	1786.25
508.22	1811.78
508.59	1836.25
508.95	1861.25
509.31	1886.94
509.67	1912.19
510.03	1937.33
510.39	1963.01
510.75	1987.80
511.12	2012.48
511.48	2036.84
511.84	2061.48
512.20	2085.73
512.56	2110.27
512.92	2134.53
513.28	2158.46
513.64	2182.76
514.00	2206.32
514.37	2229.85
514.73	2253.12
515.09	2275.55
515.45	2298.34
515.81	2320.86
516.17	2343.11
516.53	2364.71
516.89	2385.70
517.25	2405.82
517.61	2425.55
517.97	2444.72
518.33	2463.65
518.69	2483.03
519.05	2503.05
519.41	2522.69
519.77	2542.14
520.13	2560.59
520.49	2578.49
520.85	2596.01
521.21	2612.63
521.57	2630.82
521.93	2647.08
522.29	2664.63
522.65	2681.85
523.01	2698.25
523.37	2713.31
523.73	2728.99
524.09	2744.15
524.45	2758.90
524.81	2773.66
525.17	2789.23
525.53	2804.24
525.89	2819.65
526.25	2834.59
526.61	2847.54
526.97	2860.68
527.33	2873.62
527.68	2887.08
528.04	2900.64
528.40	2913.40
528.76	2926.41
529.12	2937.68
529.48	2949.88
529.84	2959.34
530.20	2970.61
530.56	2981.54
530.91	2993.57
531.27	3004.65
531.63	3015.39
531.99	3025.91
532.35	3036.30
532.71	3046.21
533.07	3057.61
533.42	3067.07
533.78	3077.40
534.14	3086.99
534.50	3095.87
534.86	3105.35
535.21	3112.66
535.57	3121.47
535.93	3129.53
536.29	3136.85
536.65	3145.69
537.00	3153.44
537.36	3162.45
537.72	3169.42
538.08	3177.03
538.44	3183.50
538.79	3189.81
539.15	3196.81
539.51	3203.98
539.87	3211.92
540.22	3218.20
540.58	3224.06
540.94	3230.72
541.29	3235.06
541.65	3238.90
542.01	3243.27
542.37	3247.42
542.72	3252.55
543.08	3255.64
543.44	3259.41
543.79	3262.27
544.15	3264.57
544.51	3268.52
544.87	3271.82
545.22	3274.16
545.58	3275.74
545.94	3277.77
546.29	3279.22
546.65	3279.89
547.01	3280.70
547.36	3281.76
547.72	3282.89
548.07	3282.33
548.43	3281.81
548.79	3281.64
549.14	3283.14
549.50	3284.41
549.86	3285.00
550.21	3284.44
550.57	3284.56
550.92	3283.95
551.28	3283.50
551.64	3282.83
551.99	3282.05
552.35	3281.61
552.70	3281.10
553.06	3280.78
553.41	3280.00
553.77	3279.84
554.13	3279.14
554.48	3279.52
554.84	3278.36
555.19	3276.94
555.55	3276.31
555.90	3275.89
556.26	3275.36
556.61	3274.17
556.97	3271.48
557.32	3268.56
557.68	3266.50
558.03	3264.08
558.39	3262.19
558.74	3262.19
559.10	3261.38
559.45	3260.42
559.81	3258.59
560.16	3257.04
560.52	3256.08
560.87	3254.31
561.23	3250.63
561.58	3247.88
561.94	3242.96
562.29	3238.24
562.64	3234.41
563.00	3231.08
563.35	3226.74
563.71	3223.42
564.06	3221.10
564.42	3218.37
564.77	3215.57
565.12	3212.92
565.48	3210.00
565.83	3206.90
566.19	3203.61
566.54	3200.03
566.89	3194.64
567.25	3189.05
567.60	3185.13
567.96	3179.93
568.31	3175.35
568.66	3171.93
569.02	3168.50
569.37	3165.37
569.72	3162.17
570.08	3158.61
570.43	3152.70
570.78	3148.27
571.14	3143.58
571.49	3137.61
571.84	3133.42
572.20	3127.63
572.55	3121.84
572.90	3115.80
573.26	3109.81
573.61	3102.27
573.96	3094.90
574.31	3087.59
574.67	3081.50
575.02	3073.87
575.37	3066.28
575.72	3058.75
576.08	3051.13
576.43	3042.83
576.78	3034.87
577.13	3027.28
577.49	3019.63
577.84	3013.04
578.19	3004.85
578.54	2996.23
578.90	2988.46
579.25	2978.77
579.60	2969.42
579.95	2960.84
580.30	2952.73
580.66	2943.65
581.01	2934.49
581.36	2924.99
581.71	2916.94
582.06	2908.25
582.42	2900.33
582.77	2890.71
583.12	2880.99
583.47	2872.02
583.82	2862.71
584.17	2852.33
584.53	2842.48
584.88	2832.10
585.23	2821.72
585.58	2812.52
585.93	2802.75
586.28	2793.44
586.63	2784.11
586.98	2775.52
587.34	2766.32
587.69	2755.97
588.04	2747.00
588.39	2738.11
588.74	2727.52
589.09	2717.41
589.44	2705.71
589.79	2694.06
590.14	2684.41
590.49	2673.51
590.84	2663.09
591.19	2653.48
591.54	2643.48
591.89	2632.06
592.25	2622.10
592.60	2610.96
592.95	2599.66
593.30	2588.36
593.65	2577.10
594.00	2566.58
594.35	2556.71
594.70	2545.25
595.05	2534.58
595.40	2522.10
595.75	2510.17
596.10	2500.07
596.45	2488.89
596.80	2479.33
597.15	2468.80
597.50	2457.72
597.85	2447.82
598.19	2435.64
598.54	2423.72
598.89	2412.97
599.24	2402.76
599.59	2391.51
599.94	2381.91
600.29	2371.87
600.64	2361.93
600.99	2349.99
601.34	2339.46
601.69	2327.46
602.04	2316.33
602.39	2306.16
602.74	2297.56
603.08	2289.14
603.43	2280.80
603.78	2271.21
604.13	2261.26
604.48	2250.73
604.83	2241.10
605.18	2231.54
605.53	2222.05
605.87	2212.24
606.22	2202.65
606.57	2192.77
606.92	2182.07
607.27	2171.20
607.62	2160.72
607.96	2150.52
608.31	2141.92
608.66	2131.26
609.01	2121.18
609.36	2111.05
609.70	2099.82
610.05	2087.20
610.40	2074.75
610.75	2062.04
611.10	2050.65
611.44	2038.80
611.79	2027.99
612.14	2016.53
612.49	2003.80
612.83	1992.58
613.18	1980.40
613.53	1968.72
613.88	1955.81
614.22	1944.00
614.57	1931.84
614.92	1919.45
615.27	1907.46
615.61	1894.21
615.96	1882.11
616.31	1870.84
616.65	1859.97
617.00	1849.12
617.35	1839.09
617.70	1827.43
618.04	1816.08
618.39	1804.35
618.74	1792.94
619.08	1781.25
619.43	1769.28
619.78	1758.45
620.12	1747.75
620.47	1737.82
620.82	1726.74
621.16	1716.65
621.51	1706.07
621.85	1695.49
622.20	1684.64
622.55	1673.30
622.89	1662.97
623.24	1652.60
623.59	1641.41
623.93	1630.44
624.28	1619.66
624.62	1608.48
624.97	1598.44
625.32	1588.12
625.66	1578.20
626.01	1568.11
626.35	1558.95
626.70	1549.61
627.04	1539.96
627.39	1529.73
627.73	1519.89
628.08	1510.38
628.43	1500.94
628.77	1492.10
629.12	1482.78
629.46	1473.66
629.81	1464.28
630.15	1454.68
630.50	1445.14
630.84	1435.76
631.19	1425.87
631.53	1416.35
631.88	1407.25
632.22	1398.44
632.57	1389.96
632.91	1381.11
633.26	1372.62
633.60	1363.33
633.95	1354.67
634.29	1346.39
634.64	1338.13
634.98	1328.97
635.32	1320.36
635.67	1312.22
636.01	1303.58
636.36	1295.24
636.70	1287.06
637.05	1279.04
637.39	1271.22
637.73	1263.05
638.08	1255.81
638.42	1248.87
638.77	1241.60
639.11	1234.00
639.45	1226.05
639.80	1217.62
640.14	1209.95
640.49	1201.99
640.83	1193.70
641.17	1185.56
641.52	1177.48
641.86	1169.45
642.20	1161.71
642.55	1153.07
642.89	1144.49
643.23	1136.30
643.58	1128.57
643.92	1120.41
644.26	1112.53
644.61	1104.56
644.95	1096.44
645.29	1088.10
645.64	1079.58
645.98	1071.44
646.32	1063.60
646.66	1056.12
647.01	1048.76
647.35	1040.69
647.69	1032.71
648.04	1025.49
648.38	1017.90
648.72	1010.50
649.06	1003.14
649.41	995.85
649.75	988.37
650.09	981.65
650.43	974.80
650.78	967.50
651.12	960.41
651.46	953.69
651.80	947.07
652.14	940.79
652.49	934.10
652.83	927.51
653.17	920.11
653.51	913.11
653.85	906.30
654.20	899.88
654.54	893.78
654.88	887.69
655.22	881.10
655.56	874.34
655.90	867.31
656.25	860.14
656.59	853.63
656.93	847.72
657.27	841.16
657.61	834.40
657.95	828.25
658.29	822.36
658.64	816.20
658.98	810.00
659.32	803.81
659.66	797.89
660.00	792.01
660.34	786.69
660.68	781.05
661.02	774.85
661.36	768.83
661.70	763.12
662.05	757.62
662.39	752.41
662.73	747.46
663.07	742.65
663.41	738.18
663.75	733.24
664.09	728.28
664.43	723.20
664.77	718.37
665.11	713.48
665.45	708.69
665.79	704.10
666.13	699.62
666.47	695.26
666.81	690.75
667.15	686.03
667.49	681.56
667.83	677.20
668.17	673.23
668.51	669.01
668.85	664.59
669.19	660.27
669.53	655.77
669.87	651.20
670.21	646.82
670.55	642.40
670.89	638.07
671.23	634.01
671.57	629.76
671.91	625.78
672.25	621.73
672.58	617.58
672.92	613.34
673.26	609.40
673.60	605.42
673.94	601.57
674.28	598.16
674.62	594.47
674.96	590.58
675.30	586.76
675.64	583.05
675.97	579.45
676.31	576.05
676.65	572.81
676.99	569.88
677.33	566.79
677.67	563.49
678.01	560.09
678.34	556.77
678.68	553.58
679.02	550.23
679.36	546.87
679.70	543.54
680.04	540.54
680.37	537.12
680.71	533.83
681.05	530.72
681.39	527.41
681.73	524.27
682.06	521.38
682.40	518.38
682.74	515.48
683.08	512.42
683.42	509.14
683.75	506.00
684.09	502.80
684.43	499.59
684.77	496.55
685.10	493.58
685.44	490.37
685.78	487.41
686.12	484.55
686.45	481.69
686.79	478.94
687.13	476.12
687.46	473.46
687.80	470.66
688.14	467.78
688.48	465.07
688.81	462.19
689.15	459.52
689.49	456.69
689.82	453.79
690.16	450.90
690.50	448.26
690.83	445.47
691.17	442.75
691.51	440.19
691.84	437.64
692.18	435.17
692.52	432.83
692.85	430.46
693.19	428.11
693.52	425.80
693.86	423.31
694.20	420.92
694.53	418.41
694.87	416.04
695.21	413.65
695.54	411.37
695.88	409.23
696.21	406.91
696.55	404.80
696.88	402.75
697.22	400.86
697.56	398.94
697.89	396.99
698.23	395.07
698.56	393.07
698.90	391.21
699.23	389.17
699.57	387.25
699.90	385.29
700.24	383.20
700.58	381.23
700.91	379.38
701.25	377.49
701.58	375.76
701.92	374.10
702.25	372.51
702.59	370.79
702.92	369.05
703.26	367.35
703.59	365.80
703.93	364.43
704.26	362.83
704.60	361.01
704.93	359.35
705.26	357.61
705.60	356.07
705.93	354.46
706.27	353.01
706.60	351.53
706.94	350.09
707.27	348.55
707.61	347.00
707.94	345.50
708.27	343.90
708.61	342.35
708.94	340.92
709.28	339.52
709.61	337.95
709.94	336.50
710.28	335.06
710.61	333.48
710.95	331.72
711.28	330.26
711.61	328.95
711.95	327.62
712.28	326.25
712.61	324.93
712.95	323.75
713.28	322.57
713.61	321.15
713.95	319.85
714.28	318.79
714.61	317.72
714.95	316.49
715.28	315.36
715.61	314.18
715.95	312.87
716.28	311.53
716.61	310.47
716.95	309.20
717.28	308.05
717.61	307.04
717.94	306.09
718.28	304.93
718.61	303.89
718.94	302.85
719.27	301.77
719.61	300.75
719.94	299.70
720.27	298.63
720.60	297.80
720.94	296.93
721.27	295.98
721.60	295.12
721.93	294.39
722.27	293.65
722.60	292.84
722.93	292.11
723.26	291.46
723.59	290.60
723.93	289.95
724.26	289.23
724.59	288.46
724.92	287.67
725.25	286.95
725.59	286.17
725.92	285.43
726.25	284.85
726.58	284.12
726.91	283.33
727.24	282.60
727.57	281.80
727.91	280.91
728.24	280.21
728.57	279.43
728.90	278.68
729.23	277.87
729.56	277.21
729.89	276.47
730.22	275.65
730.55	275.01
730.89	274.30
731.22	273.59
731.55	272.85
731.88	272.13
732.21	271.43
732.54	270.75
732.87	270.14
733.20	269.50
733.53	268.85
733.86	268.30
734.19	267.75
734.52	267.22
734.85	266.85
735.18	266.25
735.51	265.70
735.84	265.10
736.17	264.49
736.50	263.92
736.83	263.54
737.16	262.99
737.49	262.42
737.82	261.89
738.15	261.35
738.48	260.82
738.81	260.37
739.14	259.84
739.47	259.32
739.80	258.75
740.13	258.17
740.46	257.68
740.79	257.14
741.12	256.62
741.45	256.07
741.78	255.48
742.11	255.04
742.44	254.49
742.77	254.09
743.10	253.65
743.43	253.12
743.75	252.42
744.08	252.11
744.41	251.59
744.74	251.14
745.07	250.65
745.40	250.32
745.73	249.90
746.06	249.44
746.39	249.04
746.71	248.61
747.04	248.18
747.37	247.80
747.70	247.44
748.03	247.02
748.36	246.79
748.68	246.40
749.01	245.88
749.34	245.46
749.67	245.08
750.00	244.73
750.33	244.54
750.65	244.18
750.98	243.72
751.31	243.40
751.64	242.95
751.97	242.68
752.29	242.27
752.62	241.76
752.95	241.50
753.28	241.09
753.60	240.83
753.93	240.58
754.26	240.19
754.59	239.75
754.91	239.33
755.24	238.85
755.57	238.44
755.90	238.17
756.22	237.86
756.55	237.47
756.88	237.06
757.20	236.63
757.53	236.33
757.86	235.95
758.19	235.66
758.51	235.44
758.84	235.12
759.17	234.79
759.49	234.59
759.82	234.37
760.15	234.17
760.47	233.86
760.80	233.47
761.13	233.26
761.45	232.99
761.78	232.82
762.11	232.63
762.43	232.38
762.76	232.06
763.08	231.86
763.41	231.63
763.74	231.45
764.06	231.17
764.39	230.95
764.71	230.71
765.04	230.45
765.37	230.20
765.69	230.04
766.02	229.82
766.34	229.64
766.67	229.33
767.00	229.18
767.32	229.05
767.65	229.07
767.97	228.78
768.30	228.58
768.62	228.26
768.95	228.06
769.27	227.98
769.60	227.91
769.92	227.68
770.25	227.47
770.57	227.18
770.90	227.04
771.22	226.82
771.55	226.64
771.87	226.57
772.20	226.37
772.52	226.31
772.85	226.36
773.17	226.18
773.50	226.04
773.82	225.80
774.15	225.59
774.47	225.26
774.80	225.09
775.12	225.02
775.45	224.92
775.77	224.74
776.09	224.50
776.42	224.31
776.74	224.24
777.07	224.19
777.39	224.10
777.72	223.97
778.04	223.91
778.36	223.84
778.69	223.62
779.01	223.51
779.33	223.18
779.66	222.88
779.98	222.73
780.31	222.62
780.63	222.61
780.95	222.50
781.28	222.40
781.60	222.33
781.92	222.19
782.25	222.21
782.57	222.15
782.89	222.06
