SpectraSuite Data File
++++++++++++++++++++++++++++++++++++
Date: Mon Feb 25 17:31:32 EST 2013
User: group
Dark Spectrum Present: No
Reference Spectrum Present: No
Number of Sampled Component Spectra: 1
Spectrometers: USB2E7196
Integration Time (usec): 52000 (USB2E7196)
Spectra Averaged: 20 (USB2E7196)
Boxcar Smoothing: 10 (USB2E7196)
Correct for Electrical Dark: No (USB2E7196)
Strobe/Lamp Enabled: No (USB2E7196)
Correct for Detector Non-linearity: No (USB2E7196)
Correct for Stray Light: No (USB2E7196)
Number of Pixels in Processed Spectrum: 2048
>>>>>Begin Processed Spectral Data<<<<<
339.09	0.00
339.48	200.35
339.86	201.95
340.24	201.65
340.63	204.25
341.01	208.35
341.39	205.75
341.78	206.95
342.16	209.80
342.54	208.65
342.93	198.40
343.31	208.45
343.69	208.90
344.07	209.30
344.46	209.81
344.84	210.23
345.22	210.36
345.60	210.62
345.99	210.82
346.37	210.92
346.75	211.08
347.13	211.22
347.52	211.30
347.90	211.39
348.28	211.40
348.66	211.50
349.05	211.37
349.43	211.42
349.81	211.47
350.19	211.53
350.57	211.61
350.96	211.67
351.34	211.73
351.72	211.90
352.10	211.96
352.48	211.93
352.87	211.92
353.25	211.97
353.63	212.01
354.01	212.09
354.39	212.16
354.77	212.25
355.15	212.37
355.54	212.42
355.92	212.43
356.30	212.57
356.68	212.73
357.06	212.87
357.44	212.91
357.82	212.97
358.20	213.07
358.58	213.08
358.97	213.13
359.35	213.24
359.73	213.27
360.11	213.36
360.49	213.51
360.87	213.52
361.25	213.58
361.63	213.71
362.01	213.75
362.39	213.78
362.77	213.80
363.15	213.83
363.53	213.88
363.91	213.84
364.29	213.80
364.67	213.65
365.05	213.70
365.43	213.75
365.81	213.82
366.19	213.86
366.57	214.01
366.95	214.04
367.33	214.00
367.71	213.96
368.09	214.06
368.47	213.97
368.85	214.05
369.23	214.09
369.61	214.03
369.99	214.13
370.37	214.11
370.75	214.16
371.13	214.04
371.51	214.02
371.89	214.17
372.27	214.15
372.65	214.13
373.03	214.01
373.41	213.95
373.78	213.86
374.16	213.75
374.54	213.61
374.92	213.59
375.30	213.54
375.68	213.48
376.06	213.33
376.44	213.28
376.82	213.20
377.19	213.19
377.57	213.09
377.95	212.92
378.33	212.79
378.71	212.61
379.09	212.64
379.47	212.58
379.84	212.45
380.22	212.36
380.60	212.27
380.98	212.23
381.36	212.23
381.73	212.16
382.11	212.15
382.49	212.11
382.87	212.00
383.25	211.94
383.62	212.14
384.00	212.11
384.38	212.06
384.76	211.99
385.13	211.99
385.51	211.99
385.89	211.96
386.27	211.99
386.64	212.03
387.02	212.00
387.40	212.00
387.78	211.98
388.15	211.97
388.53	211.96
388.91	211.98
389.29	211.86
389.66	211.83
390.04	211.75
390.42	211.71
390.79	211.74
391.17	211.76
391.55	211.53
391.92	211.52
392.30	211.55
392.68	211.50
393.05	211.50
393.43	211.40
393.81	211.37
394.18	211.29
394.56	211.30
394.94	211.27
395.31	211.20
395.69	211.21
396.06	211.27
396.44	211.27
396.82	211.29
397.19	211.37
397.57	211.41
397.95	211.49
398.32	211.55
398.70	211.52
399.07	211.64
399.45	211.68
399.82	211.67
400.20	211.65
400.58	211.67
400.95	211.61
401.33	211.76
401.70	212.00
402.08	212.12
402.45	212.15
402.83	212.26
403.20	212.29
403.58	212.36
403.95	212.45
404.33	212.56
404.71	212.65
405.08	212.94
405.46	213.07
405.83	213.21
406.21	213.33
406.58	213.53
406.96	213.59
407.33	213.75
407.70	213.98
408.08	214.31
408.45	214.59
408.83	214.88
409.20	215.07
409.58	215.16
409.95	215.49
410.33	215.89
410.70	216.20
411.08	216.70
411.45	217.11
411.82	217.41
412.20	217.93
412.57	218.43
412.95	218.73
413.32	219.24
413.69	219.74
414.07	220.26
414.44	220.92
414.82	221.56
415.19	222.30
415.56	223.06
415.94	223.75
416.31	224.57
416.68	225.41
417.06	226.41
417.43	227.40
417.81	228.40
418.18	229.40
418.55	230.53
418.93	231.74
419.30	232.87
419.67	234.39
420.04	235.67
420.42	237.10
420.79	238.82
421.16	240.55
421.54	242.32
421.91	244.16
422.28	246.07
422.66	248.05
423.03	250.01
423.40	251.99
423.77	254.25
424.15	256.51
424.52	258.81
424.89	261.28
425.26	263.70
425.64	266.03
426.01	268.66
426.38	271.35
426.75	273.95
427.13	276.85
427.50	279.77
427.87	282.81
428.24	285.81
428.61	288.63
428.99	291.85
429.36	295.41
429.73	298.80
430.10	302.10
430.47	305.74
430.85	309.30
431.22	313.22
431.59	317.25
431.96	321.07
432.33	325.33
432.70	329.42
433.08	334.30
433.45	339.00
433.82	343.47
434.19	348.45
434.56	353.48
434.93	358.18
435.30	362.85
435.68	368.02
436.05	373.13
436.42	378.20
436.79	382.78
437.16	387.80
437.53	393.12
437.90	398.42
438.27	403.47
438.64	408.79
439.01	413.57
439.38	417.95
439.75	422.14
440.13	427.06
440.50	431.59
440.87	435.32
441.24	439.07
441.61	443.13
441.98	446.07
442.35	449.54
442.72	453.09
443.09	456.53
443.46	458.57
443.83	459.97
444.20	461.16
444.57	462.88
444.94	463.54
445.31	464.19
445.68	464.92
446.05	465.15
446.42	464.49
446.79	463.76
447.16	462.84
447.53	462.23
447.90	459.99
448.27	457.93
448.64	454.98
449.01	452.90
449.37	449.49
449.74	446.21
450.11	442.15
450.48	437.68
450.85	433.21
451.22	429.32
451.59	425.64
451.96	422.11
452.33	417.39
452.70	413.11
453.07	408.22
453.43	403.06
453.80	398.08
454.17	393.45
454.54	389.03
454.91	384.26
455.28	379.75
455.65	375.43
456.02	371.22
456.38	367.50
456.75	362.79
457.12	358.98
457.49	355.09
457.86	351.48
458.23	348.42
458.59	344.89
458.96	341.41
459.33	338.41
459.70	335.30
460.07	332.84
460.43	329.99
460.80	327.33
461.17	324.98
461.54	322.47
461.91	320.01
462.27	317.74
462.64	315.87
463.01	313.51
463.38	311.46
463.74	309.30
464.11	307.43
464.48	305.86
464.85	304.05
465.21	302.88
465.58	301.41
465.95	299.82
466.32	298.48
466.68	297.15
467.05	295.66
467.42	294.42
467.78	292.95
468.15	291.66
468.52	290.60
468.88	289.34
469.25	288.24
469.62	287.52
469.98	286.45
470.35	285.49
470.72	284.74
471.08	283.68
471.45	282.84
471.82	282.20
472.18	281.40
472.55	280.84
472.92	280.06
473.28	279.45
473.65	278.73
474.02	278.15
474.38	277.70
474.75	277.34
475.11	276.82
475.48	276.63
475.85	276.32
476.21	276.14
476.58	275.99
476.94	275.94
477.31	275.82
477.67	275.73
478.04	275.76
478.41	275.85
478.77	276.31
479.14	276.51
479.50	276.70
479.87	277.00
480.23	277.45
480.60	277.82
480.96	278.35
481.33	279.02
481.69	279.67
482.06	280.35
482.42	281.01
482.79	281.75
483.15	282.66
483.52	283.81
483.88	284.77
484.25	285.78
484.61	286.93
484.98	288.07
485.34	289.44
485.71	290.86
486.07	292.28
486.44	293.56
486.80	295.08
487.17	296.72
487.53	298.50
487.90	300.30
488.26	302.24
488.62	304.19
488.99	306.17
489.35	308.28
489.72	310.50
490.08	312.86
490.44	315.30
490.81	317.89
491.17	320.51
491.54	323.35
491.90	326.30
492.26	329.50
492.63	332.82
492.99	336.34
493.36	339.91
493.72	343.78
494.08	347.80
494.45	352.09
494.81	356.41
495.17	360.92
495.54	365.79
495.90	370.84
496.26	376.15
496.63	381.71
496.99	387.42
497.35	393.49
497.72	399.72
498.08	406.34
498.44	413.09
498.80	420.21
499.17	427.68
499.53	435.33
499.89	443.17
500.26	451.25
500.62	459.48
500.98	468.35
501.34	477.45
501.71	486.86
502.07	496.46
502.43	506.51
502.79	516.79
503.16	527.42
503.52	538.28
503.88	549.39
504.24	560.88
504.60	572.73
504.97	585.04
505.33	597.45
505.69	610.45
506.05	623.90
506.41	637.35
506.78	650.82
507.14	665.07
507.50	679.44
507.86	694.27
508.22	709.75
508.59	724.96
508.95	740.87
509.31	756.88
509.67	773.66
510.03	790.52
510.39	808.00
510.75	825.45
511.12	843.52
511.48	861.69
511.84	880.26
512.20	898.86
512.56	917.88
512.92	937.10
513.28	956.59
513.64	976.20
514.00	996.13
514.37	1016.54
514.73	1037.11
515.09	1058.07
515.45	1078.69
515.81	1099.47
516.17	1120.81
516.53	1141.85
516.89	1163.35
517.25	1184.30
517.61	1205.81
517.97	1227.12
518.33	1248.50
518.69	1269.81
519.05	1291.90
519.41	1313.91
519.77	1336.34
520.13	1358.13
520.49	1380.20
520.85	1402.71
521.21	1424.88
521.57	1447.41
521.93	1469.38
522.29	1491.90
522.65	1513.99
523.01	1536.40
523.37	1558.21
523.73	1580.30
524.09	1602.40
524.45	1624.26
524.81	1646.82
525.17	1668.90
525.53	1691.15
525.89	1713.25
526.25	1735.06
526.61	1755.98
526.97	1777.39
527.33	1798.60
527.68	1819.71
528.04	1841.04
528.40	1861.19
528.76	1881.70
529.12	1902.33
529.48	1923.81
529.84	1943.92
530.20	1963.95
530.56	1984.22
530.91	2004.93
531.27	2025.30
531.63	2045.04
531.99	2064.80
532.35	2083.49
532.71	2102.37
533.07	2121.30
533.42	2139.76
533.78	2158.51
534.14	2176.77
534.50	2193.72
534.86	2211.45
535.21	2228.20
535.57	2245.58
535.93	2262.56
536.29	2279.33
536.65	2295.56
537.00	2310.24
537.36	2325.01
537.72	2340.15
538.08	2355.13
538.44	2370.19
538.79	2384.63
539.15	2399.36
539.51	2413.57
539.87	2428.65
540.22	2442.87
540.58	2457.56
540.94	2471.72
541.29	2484.69
541.65	2496.71
542.01	2509.79
542.37	2520.94
542.72	2533.32
543.08	2543.77
543.44	2555.41
543.79	2565.56
544.15	2575.63
544.51	2586.64
544.87	2597.83
545.22	2607.08
545.58	2615.33
545.94	2622.10
546.29	2628.34
546.65	2634.11
547.01	2640.09
547.36	2645.39
547.72	2650.80
548.07	2654.37
548.43	2658.04
548.79	2661.29
549.14	2665.68
549.50	2669.56
549.86	2673.52
550.21	2676.80
550.57	2681.11
550.92	2683.48
551.28	2685.83
551.64	2687.90
551.99	2690.21
552.35	2691.43
552.70	2693.70
553.06	2696.06
553.41	2698.87
553.77	2702.23
554.13	2704.47
554.48	2706.47
554.84	2707.90
555.19	2708.27
555.55	2708.69
555.90	2709.01
556.26	2709.65
556.61	2709.65
556.97	2708.17
557.32	2707.73
557.68	2706.32
558.03	2704.37
558.39	2702.61
558.74	2702.19
559.10	2700.91
559.45	2698.88
559.81	2697.32
560.16	2694.47
560.52	2692.33
560.87	2689.29
561.23	2685.11
561.58	2682.86
561.94	2679.51
562.29	2675.63
562.64	2673.18
563.00	2670.76
563.35	2668.45
563.71	2666.50
564.06	2663.90
564.42	2662.25
564.77	2659.79
565.12	2657.96
565.48	2654.96
565.83	2651.96
566.19	2648.45
566.54	2644.23
566.89	2640.19
567.25	2636.63
567.60	2633.80
567.96	2629.78
568.31	2626.49
568.66	2622.75
569.02	2617.78
569.37	2613.03
569.72	2609.31
570.08	2604.10
570.43	2598.66
570.78	2593.00
571.14	2586.63
571.49	2580.23
571.84	2574.05
572.20	2567.15
572.55	2560.31
572.90	2553.58
573.26	2546.76
573.61	2539.56
573.96	2533.18
574.31	2525.33
574.67	2517.20
575.02	2508.59
575.37	2500.15
575.72	2491.20
576.08	2483.51
576.43	2475.16
576.78	2467.17
577.13	2459.15
577.49	2451.02
577.84	2443.25
578.19	2435.45
578.54	2428.21
578.90	2421.51
579.25	2412.80
579.60	2403.84
579.95	2394.78
580.30	2386.67
580.66	2378.67
581.01	2369.85
581.36	2360.66
581.71	2352.34
582.06	2343.97
582.42	2335.77
582.77	2326.61
583.12	2317.89
583.47	2309.35
583.82	2301.26
584.17	2292.10
584.53	2283.00
584.88	2274.56
585.23	2265.51
585.58	2255.97
585.93	2246.30
586.28	2237.15
586.63	2228.98
586.98	2220.86
587.34	2212.45
587.69	2203.49
588.04	2194.39
588.39	2186.22
588.74	2177.78
589.09	2169.53
589.44	2160.03
589.79	2151.32
590.14	2143.68
590.49	2135.54
590.84	2126.75
591.19	2118.51
591.54	2109.97
591.89	2100.15
592.25	2090.88
592.60	2081.60
592.95	2072.71
593.30	2063.28
593.65	2053.64
594.00	2043.85
594.35	2035.60
594.70	2026.96
595.05	2018.43
595.40	2009.94
595.75	2000.56
596.10	1992.11
596.45	1983.70
596.80	1976.24
597.15	1968.22
597.50	1959.46
597.85	1950.95
598.19	1942.45
598.54	1934.06
598.89	1926.44
599.24	1919.56
599.59	1912.18
599.94	1905.21
600.29	1897.61
600.64	1890.07
600.99	1881.73
601.34	1874.68
601.69	1866.21
602.04	1857.75
602.39	1849.70
602.74	1841.90
603.08	1835.46
603.43	1828.39
603.78	1820.84
604.13	1812.75
604.48	1804.65
604.83	1797.62
605.18	1790.62
605.53	1783.42
605.87	1776.05
606.22	1769.17
606.57	1761.56
606.92	1753.48
607.27	1745.51
607.62	1738.35
607.96	1731.37
608.31	1725.35
608.66	1717.59
609.01	1710.20
609.36	1703.03
609.70	1695.27
610.05	1687.33
610.40	1678.85
610.75	1670.71
611.10	1662.83
611.44	1653.97
611.79	1645.27
612.14	1636.04
612.49	1626.71
612.83	1617.65
613.18	1607.96
613.53	1598.25
613.88	1588.73
614.22	1580.19
614.57	1570.90
614.92	1561.43
615.27	1552.29
615.61	1542.68
615.96	1533.98
616.31	1525.55
616.65	1517.56
617.00	1509.26
617.35	1501.16
617.70	1492.70
618.04	1483.50
618.39	1474.40
618.74	1466.27
619.08	1458.02
619.43	1449.90
619.78	1442.10
620.12	1434.18
620.47	1426.58
620.82	1418.38
621.16	1410.34
621.51	1401.86
621.85	1394.15
622.20	1386.29
622.55	1377.87
622.89	1369.70
623.24	1361.77
623.59	1353.27
623.93	1344.84
624.28	1336.43
624.62	1328.22
624.97	1320.15
625.32	1312.60
625.66	1305.27
626.01	1297.94
626.35	1290.56
626.70	1283.15
627.04	1275.82
627.39	1268.35
627.73	1261.03
628.08	1254.24
628.43	1246.89
628.77	1239.69
629.12	1232.12
629.46	1225.04
629.81	1218.14
630.15	1210.72
630.50	1203.53
630.84	1196.26
631.19	1189.05
631.53	1182.47
631.88	1174.93
632.22	1167.29
632.57	1160.37
632.91	1152.85
633.26	1145.68
633.60	1138.63
633.95	1131.80
634.29	1124.49
634.64	1117.84
634.98	1110.65
635.32	1103.73
635.67	1097.37
636.01	1090.95
636.36	1084.26
636.70	1077.78
637.05	1071.17
637.39	1065.08
637.73	1058.65
638.08	1052.81
638.42	1047.13
638.77	1040.85
639.11	1034.71
639.45	1028.95
639.80	1022.33
640.14	1016.03
640.49	1009.90
640.83	1003.88
641.17	997.60
641.52	991.62
641.86	985.20
642.20	979.07
642.55	972.40
642.89	965.92
643.23	959.51
643.58	953.84
643.92	947.42
644.26	941.30
644.61	935.28
644.95	929.13
645.29	923.00
645.64	916.35
645.98	910.17
646.32	904.29
646.66	898.26
647.01	892.58
647.35	886.80
647.69	880.25
648.04	874.32
648.38	868.31
648.72	862.34
649.06	856.35
649.41	850.54
649.75	844.94
650.09	839.30
650.43	833.54
650.78	827.27
651.12	821.43
651.46	815.81
651.80	809.96
652.14	804.23
652.49	798.18
652.83	792.43
653.17	786.31
653.51	780.54
653.85	774.93
654.20	769.08
654.54	763.34
654.88	758.03
655.22	752.13
655.56	746.57
655.90	740.78
656.25	735.07
656.59	729.50
656.93	724.24
657.27	719.09
657.61	713.63
657.95	708.53
658.29	703.36
658.64	698.34
658.98	693.08
659.32	687.77
659.66	682.86
660.00	677.63
660.34	672.58
660.68	667.56
661.02	662.32
661.36	657.50
661.70	652.71
662.05	648.07
662.39	643.92
662.73	639.55
663.07	635.25
663.41	631.03
663.75	626.60
664.09	622.01
664.43	617.27
664.77	612.94
665.11	608.54
665.45	604.28
665.79	599.73
666.13	595.47
666.47	591.30
666.81	587.12
667.15	582.91
667.49	579.17
667.83	575.33
668.17	571.54
668.51	567.82
668.85	564.07
669.19	560.42
669.53	556.29
669.87	552.26
670.21	548.58
670.55	544.89
670.89	541.48
671.23	538.06
671.57	534.71
671.91	531.25
672.25	527.92
672.58	524.55
672.92	521.18
673.26	518.00
673.60	514.75
673.94	511.40
674.28	508.40
674.62	505.29
674.96	502.06
675.30	498.99
675.64	495.89
675.97	492.87
676.31	489.88
676.65	487.08
676.99	484.50
677.33	481.44
677.67	478.35
678.01	475.22
678.34	472.30
678.68	469.38
679.02	466.39
679.36	463.43
679.70	460.54
680.04	457.82
680.37	454.90
680.71	452.25
681.05	449.84
681.39	447.19
681.73	444.57
682.06	442.14
682.40	439.62
682.74	437.06
683.08	434.54
683.42	432.06
683.75	429.56
684.09	426.94
684.43	424.68
684.77	422.30
685.10	419.92
685.44	417.42
685.78	414.98
686.12	412.82
686.45	410.52
686.79	408.28
687.13	406.03
687.46	403.86
687.80	401.69
688.14	399.33
688.48	397.25
688.81	394.99
689.15	392.72
689.49	390.56
689.82	388.31
690.16	385.96
690.50	383.62
690.83	381.42
691.17	379.14
691.51	376.98
691.84	374.90
692.18	372.92
692.52	371.04
692.85	369.25
693.19	367.37
693.52	365.49
693.86	363.53
694.20	361.68
694.53	359.74
694.87	357.81
695.21	355.92
695.54	353.93
695.88	352.05
696.21	350.22
696.55	348.48
696.88	346.75
697.22	345.09
697.56	343.62
697.89	341.98
698.23	340.33
698.56	338.64
698.90	337.09
699.23	335.46
699.57	333.75
699.90	332.12
700.24	330.43
700.58	328.83
700.91	327.35
701.25	325.89
701.58	324.56
701.92	323.10
702.25	321.66
702.59	320.26
702.92	318.98
703.26	317.58
703.59	316.32
703.93	315.26
704.26	314.08
704.60	312.73
704.93	311.53
705.26	310.34
705.60	309.14
705.93	307.87
706.27	306.72
706.60	305.70
706.94	304.60
707.27	303.40
707.61	302.35
707.94	301.21
708.27	300.05
708.61	298.91
708.94	297.88
709.28	296.75
709.61	295.73
709.94	294.73
710.28	293.70
710.61	292.65
710.95	291.45
711.28	290.53
711.61	289.43
711.95	288.41
712.28	287.43
712.61	286.42
712.95	285.60
713.28	284.72
713.61	283.73
713.95	282.76
714.28	281.98
714.61	281.07
714.95	280.15
715.28	279.27
715.61	278.41
715.95	277.49
716.28	276.67
716.61	275.77
716.95	274.83
717.28	274.01
717.61	273.15
717.94	272.36
718.28	271.38
718.61	270.74
718.94	270.07
719.27	269.41
719.61	268.75
719.94	268.06
720.27	267.25
720.60	266.54
720.94	265.87
721.27	265.18
721.60	264.54
721.93	263.94
722.27	263.35
722.60	262.72
722.93	262.13
723.26	261.64
723.59	261.09
723.93	260.61
724.26	260.10
724.59	259.55
724.92	259.03
725.25	258.65
725.59	258.04
725.92	257.50
726.25	257.02
726.58	256.53
726.91	255.92
727.24	255.51
727.57	255.05
727.91	254.51
728.24	254.10
728.57	253.67
728.90	253.20
729.23	252.65
729.56	252.25
729.89	251.79
730.22	251.25
730.55	250.76
730.89	250.30
731.22	249.81
731.55	249.35
731.88	248.97
732.21	248.52
732.54	248.13
732.87	247.69
733.20	247.14
733.53	246.75
733.86	246.45
734.19	245.99
734.52	245.59
734.85	245.34
735.18	244.93
735.51	244.54
735.84	244.20
736.17	243.87
736.50	243.53
736.83	243.32
737.16	242.98
737.49	242.60
737.82	242.15
738.15	241.85
738.48	241.49
738.81	241.00
739.14	240.63
739.47	240.26
739.80	239.94
740.13	239.65
740.46	239.20
740.79	238.79
741.12	238.42
741.45	238.09
741.78	237.60
742.11	237.29
742.44	236.89
742.77	236.68
743.10	236.41
743.43	235.96
743.75	235.49
744.08	235.40
744.41	235.12
744.74	234.87
745.07	234.55
745.40	234.39
745.73	234.19
746.06	233.91
746.39	233.66
746.71	233.34
747.04	233.06
747.37	232.83
747.70	232.58
748.03	232.40
748.36	232.20
748.68	231.98
749.01	231.66
749.34	231.46
749.67	231.10
750.00	230.87
750.33	230.85
750.65	230.61
750.98	230.18
751.31	229.98
751.64	229.75
751.97	229.64
752.29	229.37
752.62	229.15
752.95	228.90
753.28	228.68
753.60	228.39
753.93	228.17
754.26	227.96
754.59	227.72
754.91	227.47
755.24	227.19
755.57	227.04
755.90	226.89
756.22	226.63
756.55	226.47
756.88	226.23
757.20	225.89
757.53	225.75
757.86	225.54
758.19	225.36
758.51	225.21
758.84	224.91
759.17	224.71
759.49	224.55
759.82	224.52
760.15	224.27
760.47	224.16
760.80	223.99
761.13	223.79
761.45	223.61
761.78	223.45
762.11	223.30
762.43	223.14
762.76	222.95
763.08	222.93
763.41	222.74
763.74	222.59
764.06	222.42
764.39	222.26
764.71	222.10
765.04	221.97
765.37	221.80
765.69	221.71
766.02	221.61
766.34	221.51
766.67	221.28
767.00	221.27
767.32	221.23
767.65	221.23
767.97	221.15
768.30	221.10
768.62	220.95
768.95	220.82
769.27	220.71
769.60	220.68
769.92	220.55
770.25	220.47
770.57	220.33
770.90	220.17
771.22	220.02
771.55	219.92
771.87	219.76
772.20	219.59
772.52	219.65
772.85	219.77
773.17	219.60
773.50	219.43
773.82	219.26
774.15	219.03
774.47	218.83
774.80	218.77
775.12	218.65
775.45	218.55
775.77	218.56
776.09	218.44
776.42	218.30
776.74	218.19
777.07	218.08
777.39	217.99
777.72	218.00
778.04	217.94
778.36	217.86
778.69	217.79
779.01	217.80
779.33	217.54
779.66	217.21
779.98	217.11
780.31	217.14
780.63	217.16
780.95	217.15
781.28	217.10
781.60	217.01
781.92	216.95
782.25	216.98
782.57	216.80
782.89	216.75
783.22	216.68
783.54	216.60
783.86	216.52
784.19	216.47
784.51	216.39
784.83	216.32
785.16	216.28
785.48	216.32
785.80	216.29
786.12	216.22
786.45	216.17
