SpectraSuite Data File
++++++++++++++++++++++++++++++++++++
Date: Mon Feb 25 17:33:46 EST 2013
User: group
Dark Spectrum Present: No
Reference Spectrum Present: No
Number of Sampled Component Spectra: 1
Spectrometers: USB2E7196
Integration Time (usec): 52000 (USB2E7196)
Spectra Averaged: 20 (USB2E7196)
Boxcar Smoothing: 10 (USB2E7196)
Correct for Electrical Dark: No (USB2E7196)
Strobe/Lamp Enabled: No (USB2E7196)
Correct for Detector Non-linearity: No (USB2E7196)
Correct for Stray Light: No (USB2E7196)
Number of Pixels in Processed Spectrum: 2048
>>>>>Begin Processed Spectral Data<<<<<
339.09	0.00
339.48	198.20
339.86	199.65
340.24	201.35
340.63	201.55
341.01	206.70
341.39	205.70
341.78	206.70
342.16	208.10
342.54	207.00
342.93	197.42
343.31	207.40
343.69	207.98
344.07	208.46
344.46	208.93
344.84	209.38
345.22	209.54
345.60	209.76
345.99	209.98
346.37	210.15
346.75	210.40
347.13	210.55
347.52	210.75
347.90	210.83
348.28	210.93
348.66	210.98
349.05	210.92
349.43	210.93
349.81	211.02
350.19	211.21
350.57	211.36
350.96	211.49
351.34	211.61
351.72	211.72
352.10	211.81
352.48	211.93
352.87	212.03
353.25	212.13
353.63	212.23
354.01	212.28
354.39	212.37
354.77	212.44
355.15	212.57
355.54	212.67
355.92	212.75
356.30	212.86
356.68	213.08
357.06	213.28
357.44	213.35
357.82	213.42
358.20	213.49
358.58	213.57
358.97	213.60
359.35	213.78
359.73	213.91
360.11	213.97
360.49	213.99
360.87	214.03
361.25	214.14
361.63	214.25
362.01	214.32
362.39	214.43
362.77	214.46
363.15	214.47
363.53	214.47
363.91	214.49
364.29	214.50
364.67	214.34
365.05	214.38
365.43	214.49
365.81	214.49
366.19	214.58
366.57	214.65
366.95	214.68
367.33	214.64
367.71	214.64
368.09	214.70
368.47	214.71
368.85	214.69
369.23	214.75
369.61	214.74
369.99	214.77
370.37	214.76
370.75	214.81
371.13	214.71
371.51	214.66
371.89	214.65
372.27	214.58
372.65	214.60
373.03	214.43
373.41	214.37
373.78	214.37
374.16	214.24
374.54	214.18
374.92	214.14
375.30	214.03
375.68	213.88
376.06	213.84
376.44	213.75
376.82	213.74
377.19	213.60
377.57	213.57
377.95	213.48
378.33	213.35
378.71	213.23
379.09	213.26
379.47	213.29
379.84	213.24
380.22	213.17
380.60	213.13
380.98	213.15
381.36	213.06
381.73	212.89
382.11	212.83
382.49	212.79
382.87	212.75
383.25	212.69
383.62	212.83
384.00	212.72
384.38	212.72
384.76	212.69
385.13	212.74
385.51	212.63
385.89	212.52
386.27	212.46
386.64	212.40
387.02	212.24
387.40	212.13
387.78	212.06
388.15	212.03
388.53	212.00
388.91	211.97
389.29	211.95
389.66	212.03
390.04	212.02
390.42	212.01
390.79	211.93
391.17	211.95
391.55	211.81
391.92	211.82
392.30	211.76
392.68	211.74
393.05	211.64
393.43	211.60
393.81	211.71
394.18	211.71
394.56	211.65
394.94	211.77
395.31	211.70
395.69	211.72
396.06	211.80
396.44	211.80
396.82	211.79
397.19	211.84
397.57	211.89
397.95	211.93
398.32	211.90
398.70	211.93
399.07	211.99
399.45	211.99
399.82	211.98
400.20	212.05
400.58	212.03
400.95	212.06
401.33	212.20
401.70	212.25
402.08	212.34
402.45	212.48
402.83	212.56
403.20	212.71
403.58	212.81
403.95	212.85
404.33	212.96
404.71	213.07
405.08	213.25
405.46	213.33
405.83	213.39
406.21	213.54
406.58	213.64
406.96	213.78
407.33	214.01
407.70	214.22
408.08	214.53
408.45	214.80
408.83	215.07
409.20	215.27
409.58	215.37
409.95	215.64
410.33	215.93
410.70	216.17
411.08	216.51
411.45	216.88
411.82	217.24
412.20	217.56
412.57	218.13
412.95	218.47
413.32	218.95
413.69	219.47
414.07	219.96
414.44	220.66
414.82	221.25
415.19	221.93
415.56	222.72
415.94	223.40
416.31	224.26
416.68	225.15
417.06	226.15
417.43	227.23
417.81	228.28
418.18	229.40
418.55	230.64
418.93	231.91
419.30	233.28
419.67	234.71
420.04	236.13
420.42	237.60
420.79	239.41
421.16	241.17
421.54	243.04
421.91	244.92
422.28	246.82
422.66	248.92
423.03	251.04
423.40	253.14
423.77	255.42
424.15	257.71
424.52	260.02
424.89	262.61
425.26	265.04
425.64	267.42
426.01	269.94
426.38	272.58
426.75	275.30
427.13	278.11
427.50	280.99
427.87	284.11
428.24	287.13
428.61	289.98
428.99	293.26
429.36	296.78
429.73	300.29
430.10	303.75
430.47	307.20
430.85	310.89
431.22	314.78
431.59	318.97
431.96	322.94
432.33	327.30
432.70	331.46
433.08	336.50
433.45	341.15
433.82	345.96
434.19	350.97
434.56	356.02
434.93	360.80
435.30	365.67
435.68	370.93
436.05	376.17
436.42	381.36
436.79	386.09
437.16	391.15
437.53	396.48
437.90	401.75
438.27	406.98
438.64	412.36
439.01	417.21
439.38	421.53
439.75	425.76
440.13	430.77
440.50	435.35
440.87	439.00
441.24	442.76
441.61	446.89
441.98	450.16
442.35	453.73
442.72	457.40
443.09	460.99
443.46	463.27
443.83	464.71
444.20	465.95
444.57	467.67
444.94	468.34
445.31	469.11
445.68	469.90
446.05	470.15
446.42	469.40
446.79	468.71
447.16	467.73
447.53	467.07
447.90	464.75
448.27	462.61
448.64	459.68
449.01	457.57
449.37	453.92
449.74	450.38
450.11	446.14
450.48	441.56
450.85	436.85
451.22	432.78
451.59	428.97
451.96	425.28
452.33	420.45
452.70	416.19
453.07	411.02
453.43	405.76
453.80	400.69
454.17	395.92
454.54	391.38
454.91	386.65
455.28	381.97
455.65	377.65
456.02	373.33
456.38	369.60
456.75	364.98
457.12	361.06
457.49	357.21
457.86	353.52
458.23	350.35
458.59	346.82
458.96	343.21
459.33	340.05
459.70	336.90
460.07	334.39
460.43	331.51
460.80	328.93
461.17	326.56
461.54	324.15
461.91	321.73
462.27	319.39
462.64	317.32
463.01	315.03
463.38	312.90
463.74	310.65
464.11	308.78
464.48	307.26
464.85	305.54
465.21	304.16
465.58	302.75
465.95	300.98
466.32	299.59
466.68	298.27
467.05	296.74
467.42	295.34
467.78	293.91
468.15	292.55
468.52	291.51
468.88	290.24
469.25	289.08
469.62	288.21
469.98	287.18
470.35	286.24
470.72	285.36
471.08	284.36
471.45	283.59
471.82	282.82
472.18	281.93
472.55	281.37
472.92	280.72
473.28	280.22
473.65	279.70
474.02	279.11
474.38	278.59
474.75	278.34
475.11	277.96
475.48	277.63
475.85	277.38
476.21	277.18
476.58	276.99
476.94	276.86
477.31	276.70
477.67	276.69
478.04	276.75
478.41	276.86
478.77	277.18
479.14	277.36
479.50	277.62
479.87	277.92
480.23	278.23
480.60	278.61
480.96	278.93
481.33	279.61
481.69	280.20
482.06	280.86
482.42	281.35
482.79	282.15
483.15	283.15
483.52	284.16
483.88	285.09
484.25	286.15
484.61	287.30
484.98	288.53
485.34	289.81
485.71	291.17
486.07	292.65
486.44	293.92
486.80	295.48
487.17	297.11
487.53	298.95
487.90	300.79
488.26	302.66
488.62	304.67
488.99	306.59
489.35	308.83
489.72	311.06
490.08	313.60
490.44	316.07
490.81	318.64
491.17	321.30
491.54	324.16
491.90	327.08
492.26	330.30
492.63	333.57
492.99	337.05
493.36	340.58
493.72	344.39
494.08	348.42
494.45	352.62
494.81	357.07
495.17	361.57
495.54	366.48
495.90	371.56
496.26	376.83
496.63	382.44
496.99	388.06
497.35	394.04
497.72	400.33
498.08	406.91
498.44	413.59
498.80	420.91
499.17	428.28
499.53	435.95
499.89	443.92
500.26	451.93
500.62	460.21
500.98	469.14
501.34	478.27
501.71	487.69
502.07	497.28
502.43	507.34
502.79	517.60
503.16	528.20
503.52	539.02
503.88	550.21
504.24	561.72
504.60	573.64
504.97	585.85
505.33	598.39
505.69	611.61
506.05	625.03
506.41	638.31
506.78	652.25
507.14	666.46
507.50	681.24
507.86	696.42
508.22	711.92
508.59	727.65
508.95	743.75
509.31	760.02
509.67	776.90
510.03	794.03
510.39	811.55
510.75	829.35
511.12	847.61
511.48	865.95
511.84	884.68
512.20	903.39
512.56	922.76
512.92	942.09
513.28	961.44
513.64	981.13
514.00	1001.36
514.37	1021.77
514.73	1042.64
515.09	1062.98
515.45	1083.79
515.81	1105.12
516.17	1126.23
516.53	1147.52
516.89	1169.17
517.25	1190.57
517.61	1212.07
517.97	1233.47
518.33	1254.96
518.69	1276.84
519.05	1299.01
519.41	1321.09
519.77	1343.73
520.13	1365.63
520.49	1387.92
520.85	1410.83
521.21	1433.50
521.57	1456.37
521.93	1478.36
522.29	1501.32
522.65	1524.09
523.01	1546.65
523.37	1568.74
523.73	1591.38
524.09	1613.75
524.45	1636.09
524.81	1658.40
525.17	1680.71
525.53	1703.45
525.89	1725.70
526.25	1747.50
526.61	1768.97
526.97	1790.80
527.33	1812.31
527.68	1834.28
528.04	1855.75
528.40	1876.01
528.76	1896.93
529.12	1917.62
529.48	1939.56
529.84	1959.92
530.20	1980.32
530.56	2000.94
530.91	2021.75
531.27	2041.95
531.63	2062.29
531.99	2082.23
532.35	2101.86
532.71	2121.19
533.07	2140.52
533.42	2159.39
533.78	2178.52
534.14	2197.11
534.50	2214.27
534.86	2232.34
535.21	2249.19
535.57	2266.96
535.93	2284.35
536.29	2301.20
536.65	2317.77
537.00	2333.03
537.36	2348.30
537.72	2363.94
538.08	2379.31
538.44	2394.47
538.79	2409.87
539.15	2424.73
539.51	2439.56
539.87	2454.90
540.22	2469.23
540.58	2484.55
540.94	2499.22
541.29	2512.16
541.65	2524.46
542.01	2538.00
542.37	2549.83
542.72	2562.39
543.08	2573.36
543.44	2585.48
543.79	2595.83
544.15	2606.50
544.51	2617.62
544.87	2628.77
545.22	2637.95
545.58	2646.36
545.94	2653.71
546.29	2660.38
546.65	2666.56
547.01	2672.91
547.36	2678.58
547.72	2684.38
548.07	2688.33
548.43	2692.06
548.79	2696.11
549.14	2700.81
549.50	2704.98
549.86	2709.21
550.21	2713.12
550.57	2717.32
550.92	2719.88
551.28	2722.82
551.64	2725.50
551.99	2728.12
552.35	2730.06
552.70	2732.71
553.06	2735.78
553.41	2739.07
553.77	2742.05
554.13	2744.21
554.48	2746.28
554.84	2747.88
555.19	2748.32
555.55	2748.81
555.90	2749.51
556.26	2750.05
556.61	2750.04
556.97	2749.07
557.32	2748.69
557.68	2747.08
558.03	2745.64
558.39	2744.31
558.74	2744.18
559.10	2742.83
559.45	2740.99
559.81	2739.55
560.16	2737.42
560.52	2734.89
560.87	2731.74
561.23	2728.28
561.58	2726.50
561.94	2723.14
562.29	2719.17
562.64	2717.07
563.00	2714.29
563.35	2712.41
563.71	2710.93
564.06	2708.98
564.42	2707.31
564.77	2705.05
565.12	2703.13
565.48	2699.76
565.83	2696.71
566.19	2693.17
566.54	2689.03
566.89	2685.08
567.25	2681.34
567.60	2677.63
567.96	2674.09
568.31	2670.65
568.66	2666.80
569.02	2661.62
569.37	2656.47
569.72	2652.87
570.08	2647.60
570.43	2642.52
570.78	2636.35
571.14	2629.85
571.49	2623.06
571.84	2617.07
572.20	2609.86
572.55	2603.35
572.90	2596.95
573.26	2590.18
573.61	2583.09
573.96	2576.63
574.31	2568.76
574.67	2560.59
575.02	2552.20
575.37	2543.49
575.72	2534.69
576.08	2526.86
576.43	2518.20
576.78	2510.30
577.13	2502.32
577.49	2494.18
577.84	2486.14
578.19	2478.67
578.54	2471.00
578.90	2464.11
579.25	2455.06
579.60	2446.18
579.95	2436.89
580.30	2428.57
580.66	2420.03
581.01	2410.68
581.36	2401.05
581.71	2392.81
582.06	2384.14
582.42	2375.59
582.77	2366.51
583.12	2357.26
583.47	2348.63
583.82	2340.60
584.17	2331.49
584.53	2322.44
584.88	2313.71
585.23	2304.30
585.58	2294.35
585.93	2284.69
586.28	2275.54
586.63	2266.63
586.98	2257.97
587.34	2249.65
587.69	2240.39
588.04	2231.38
588.39	2223.36
588.74	2214.64
589.09	2205.88
589.44	2196.46
589.79	2188.18
590.14	2180.14
590.49	2171.84
590.84	2162.71
591.19	2154.19
591.54	2145.35
591.89	2134.88
592.25	2125.49
592.60	2116.08
592.95	2106.86
593.30	2097.78
593.65	2087.55
594.00	2078.05
594.35	2069.98
594.70	2060.49
595.05	2052.00
595.40	2043.15
595.75	2033.17
596.10	2024.76
596.45	2015.98
596.80	2008.31
597.15	2000.00
597.50	1990.62
597.85	1982.13
598.19	1973.20
598.54	1964.73
598.89	1956.81
599.24	1950.38
599.59	1943.00
599.94	1935.97
600.29	1928.10
600.64	1919.78
600.99	1911.67
601.34	1904.28
601.69	1895.49
602.04	1887.65
602.39	1879.18
602.74	1871.24
603.08	1864.73
603.43	1857.46
603.78	1849.47
604.13	1841.16
604.48	1833.00
604.83	1826.29
605.18	1819.21
605.53	1811.59
605.87	1803.94
606.22	1796.97
606.57	1788.58
606.92	1780.43
607.27	1772.35
607.62	1765.05
607.96	1758.48
608.31	1752.12
608.66	1744.21
609.01	1736.79
609.36	1729.01
609.70	1721.37
610.05	1713.61
610.40	1705.12
610.75	1696.65
611.10	1689.12
611.44	1680.11
611.79	1671.10
612.14	1661.52
612.49	1651.70
612.83	1643.04
613.18	1633.26
613.53	1623.61
613.88	1614.00
614.22	1605.00
614.57	1595.69
614.92	1586.40
615.27	1576.80
615.61	1566.90
615.96	1557.84
616.31	1549.06
616.65	1540.75
617.00	1532.22
617.35	1523.51
617.70	1514.69
618.04	1505.36
618.39	1495.89
618.74	1487.47
619.08	1478.87
619.43	1470.70
619.78	1463.19
620.12	1454.96
620.47	1447.20
620.82	1438.63
621.16	1430.35
621.51	1421.73
621.85	1413.59
622.20	1405.06
622.55	1396.45
622.89	1388.18
623.24	1380.45
623.59	1371.66
623.93	1363.20
624.28	1354.95
624.62	1346.87
624.97	1338.60
625.32	1330.94
625.66	1323.40
626.01	1315.94
626.35	1308.59
626.70	1300.91
627.04	1293.22
627.39	1285.56
627.73	1277.86
628.08	1270.75
628.43	1263.33
628.77	1255.95
629.12	1248.24
629.46	1241.45
629.81	1234.12
630.15	1226.92
630.50	1219.14
630.84	1212.10
631.19	1204.78
631.53	1197.71
631.88	1190.07
632.22	1182.59
632.57	1175.70
632.91	1168.24
633.26	1160.61
633.60	1153.48
633.95	1146.82
634.29	1139.46
634.64	1132.79
634.98	1125.98
635.32	1118.89
635.67	1112.55
636.01	1105.88
636.36	1099.39
636.70	1092.81
637.05	1086.39
637.39	1079.96
637.73	1073.82
638.08	1067.80
638.42	1061.91
638.77	1055.44
639.11	1049.11
639.45	1042.99
639.80	1036.32
640.14	1029.85
640.49	1023.69
640.83	1017.42
641.17	1010.65
641.52	1004.68
641.86	998.30
642.20	991.88
642.55	985.30
642.89	978.64
643.23	972.45
643.58	966.41
643.92	959.95
644.26	953.56
644.61	947.56
644.95	941.48
645.29	935.20
645.64	928.60
645.98	922.52
646.32	916.59
646.66	910.48
647.01	904.43
647.35	898.65
647.69	892.38
648.04	886.19
648.38	880.50
648.72	874.44
649.06	868.23
649.41	862.35
649.75	856.62
650.09	850.94
650.43	844.83
650.78	838.52
651.12	832.38
651.46	826.79
651.80	820.70
652.14	814.71
652.49	808.62
652.83	802.92
653.17	796.70
653.51	790.92
653.85	785.17
654.20	779.35
654.54	773.49
654.88	768.14
655.22	762.42
655.56	756.35
655.90	750.33
656.25	744.55
656.59	738.82
656.93	733.66
657.27	728.31
657.61	722.83
657.95	717.74
658.29	712.60
658.64	707.34
658.98	702.06
659.32	696.69
659.66	691.44
660.00	686.08
660.34	680.95
660.68	675.84
661.02	670.78
661.36	665.95
661.70	661.07
662.05	656.36
662.39	651.92
662.73	647.53
663.07	643.27
663.41	638.99
663.75	634.45
664.09	629.51
664.43	624.83
664.77	620.62
665.11	616.02
665.45	611.60
665.79	606.97
666.13	602.63
666.47	598.29
666.81	594.30
667.15	590.04
667.49	586.17
667.83	582.09
668.17	578.07
668.51	574.34
668.85	570.60
669.19	566.69
669.53	562.70
669.87	558.65
670.21	554.77
670.55	550.77
670.89	547.32
671.23	543.97
671.57	540.47
671.91	536.77
672.25	533.25
672.58	529.64
672.92	526.30
673.26	523.16
673.60	519.87
673.94	516.32
674.28	513.16
674.62	510.01
674.96	506.84
675.30	503.90
675.64	500.57
675.97	497.38
676.31	494.34
676.65	491.43
676.99	488.75
677.33	485.72
677.67	482.90
678.01	479.79
678.34	476.90
678.68	473.91
679.02	470.96
679.36	468.18
679.70	465.45
680.04	462.55
680.37	459.42
680.71	456.65
681.05	454.03
681.39	451.37
681.73	448.64
682.06	446.05
682.40	443.43
682.74	440.84
683.08	438.21
683.42	435.59
683.75	432.93
684.09	430.34
684.43	427.83
684.77	425.30
685.10	422.76
685.44	420.14
685.78	417.70
686.12	415.50
686.45	413.10
686.79	410.76
687.13	408.65
687.46	406.56
687.80	404.36
688.14	402.10
688.48	399.80
688.81	397.47
689.15	395.22
689.49	392.91
689.82	390.75
690.16	388.46
690.50	386.13
690.83	383.98
691.17	381.65
691.51	379.50
691.84	377.43
692.18	375.39
692.52	373.47
692.85	371.56
693.19	369.56
693.52	367.73
693.86	365.72
694.20	363.84
694.53	361.91
694.87	359.97
695.21	358.08
695.54	356.22
695.88	354.43
696.21	352.60
696.55	350.98
696.88	349.27
697.22	347.54
697.56	346.07
697.89	344.40
698.23	342.75
698.56	341.17
698.90	339.50
699.23	337.90
699.57	336.25
699.90	334.56
700.24	332.83
700.58	331.11
700.91	329.58
701.25	328.15
701.58	326.56
701.92	325.17
702.25	323.71
702.59	322.31
702.92	320.94
703.26	319.65
703.59	318.27
703.93	317.07
704.26	315.85
704.60	314.52
704.93	313.24
705.26	312.04
705.60	310.90
705.93	309.75
706.27	308.57
706.60	307.55
706.94	306.52
707.27	305.42
707.61	304.31
707.94	303.20
708.27	301.85
708.61	300.81
708.94	299.73
709.28	298.72
709.61	297.57
709.94	296.43
710.28	295.22
710.61	294.15
710.95	292.98
711.28	292.05
711.61	290.92
711.95	290.02
712.28	288.93
712.61	287.73
712.95	286.67
713.28	285.79
713.61	284.70
713.95	283.72
714.28	282.84
714.61	281.90
714.95	281.04
715.28	280.19
715.61	279.30
715.95	278.33
716.28	277.35
716.61	276.50
716.95	275.75
717.28	274.96
717.61	274.14
717.94	273.33
718.28	272.40
718.61	271.70
718.94	270.83
719.27	270.20
719.61	269.53
719.94	268.86
720.27	268.05
720.60	267.34
720.94	266.65
721.27	265.99
721.60	265.35
721.93	264.67
722.27	264.09
722.60	263.47
722.93	262.88
723.26	262.30
723.59	261.70
723.93	261.11
724.26	260.55
724.59	259.86
724.92	259.27
725.25	258.73
725.59	258.19
725.92	257.64
726.25	257.03
726.58	256.57
726.91	255.98
727.24	255.51
727.57	255.06
727.91	254.54
728.24	254.06
728.57	253.56
728.90	253.10
729.23	252.55
729.56	252.17
729.89	251.61
730.22	251.21
730.55	250.78
730.89	250.35
731.22	249.91
731.55	249.48
731.88	249.00
732.21	248.56
732.54	248.04
732.87	247.64
733.20	247.27
733.53	246.85
733.86	246.51
734.19	246.02
734.52	245.61
734.85	245.33
735.18	244.93
735.51	244.55
735.84	244.15
736.17	243.86
736.50	243.42
736.83	243.32
737.16	242.95
737.49	242.58
737.82	242.17
738.15	241.78
738.48	241.47
738.81	241.13
739.14	240.81
739.47	240.46
739.80	240.05
740.13	239.75
740.46	239.38
740.79	238.98
741.12	238.73
741.45	238.35
741.78	237.92
742.11	237.56
742.44	237.29
742.77	237.01
743.10	236.65
743.43	236.27
743.75	235.73
744.08	235.57
744.41	235.29
744.74	234.95
745.07	234.72
745.40	234.46
745.73	234.26
746.06	234.01
746.39	233.84
746.71	233.57
747.04	233.28
747.37	232.99
747.70	232.76
748.03	232.46
748.36	232.30
748.68	231.98
749.01	231.73
749.34	231.41
749.67	231.10
750.00	230.83
750.33	230.70
750.65	230.49
750.98	229.98
751.31	229.72
751.64	229.55
751.97	229.37
752.29	229.06
752.62	228.73
752.95	228.43
753.28	228.16
753.60	227.95
753.93	227.74
754.26	227.54
754.59	227.30
754.91	227.07
755.24	226.82
755.57	226.68
755.90	226.50
756.22	226.25
756.55	226.10
756.88	225.90
757.20	225.68
757.53	225.46
757.86	225.40
758.19	225.20
758.51	225.06
758.84	224.75
759.17	224.63
759.49	224.43
759.82	224.38
760.15	224.22
760.47	224.07
760.80	223.90
761.13	223.79
761.45	223.60
761.78	223.52
762.11	223.44
762.43	223.24
762.76	223.08
763.08	223.05
763.41	222.92
763.74	222.80
764.06	222.60
764.39	222.47
764.71	222.29
765.04	222.13
765.37	221.90
765.69	221.76
766.02	221.65
766.34	221.53
766.67	221.36
767.00	221.25
767.32	221.24
767.65	221.20
767.97	221.05
768.30	220.96
768.62	220.84
768.95	220.70
769.27	220.63
769.60	220.60
769.92	220.50
770.25	220.37
770.57	220.18
770.90	220.05
771.22	219.99
771.55	219.97
771.87	219.89
772.20	219.85
772.52	219.94
772.85	220.06
773.17	220.09
773.50	219.93
773.82	219.78
774.15	219.57
774.47	219.36
774.80	219.20
775.12	219.07
775.45	218.89
775.77	218.74
776.09	218.62
776.42	218.39
776.74	218.35
777.07	218.30
777.39	218.28
777.72	218.22
778.04	218.15
778.36	217.96
778.69	217.85
779.01	217.82
779.33	217.68
779.66	217.34
779.98	217.16
780.31	217.14
780.63	217.16
780.95	217.14
781.28	217.07
781.60	217.05
781.92	217.06
782.25	217.02
782.57	216.95
782.89	216.86
783.22	216.86
783.54	216.71
783.86	216.60
784.19	216.57
784.51	216.58
784.83	216.46
785.16	216.44
785.48	216.49
785.80	216.41
786.12	216.24
786.45	216.28
