SpectraSuite Data File
++++++++++++++++++++++++++++++++++++
Date: Mon Feb 25 17:32:38 EST 2013
User: group
Dark Spectrum Present: No
Reference Spectrum Present: No
Number of Sampled Component Spectra: 1
Spectrometers: USB2E7196
Integration Time (usec): 52000 (USB2E7196)
Spectra Averaged: 20 (USB2E7196)
Boxcar Smoothing: 10 (USB2E7196)
Correct for Electrical Dark: No (USB2E7196)
Strobe/Lamp Enabled: No (USB2E7196)
Correct for Detector Non-linearity: No (USB2E7196)
Correct for Stray Light: No (USB2E7196)
Number of Pixels in Processed Spectrum: 2048
>>>>>Begin Processed Spectral Data<<<<<
339.09	0.00
339.48	198.65
339.86	200.50
340.24	202.50
340.63	201.85
341.01	208.00
341.39	205.80
341.78	208.10
342.16	208.60
342.54	210.10
342.93	198.20
343.31	208.21
343.69	208.77
344.07	209.23
344.46	209.63
344.84	210.04
345.22	210.12
345.60	210.31
345.99	210.43
346.37	210.54
346.75	210.60
347.13	210.66
347.52	210.67
347.90	210.73
348.28	210.72
348.66	210.84
349.05	210.78
349.43	210.82
349.81	210.81
350.19	210.92
350.57	210.95
350.96	211.04
351.34	211.11
351.72	211.16
352.10	211.24
352.48	211.29
352.87	211.38
353.25	211.52
353.63	211.66
354.01	211.70
354.39	211.76
354.77	211.83
355.15	211.94
355.54	211.96
355.92	211.99
356.30	212.11
356.68	212.23
357.06	212.33
357.44	212.41
357.82	212.54
358.20	212.63
358.58	212.74
358.97	212.81
359.35	212.92
359.73	213.06
360.11	213.14
360.49	213.14
360.87	213.21
361.25	213.27
361.63	213.43
362.01	213.54
362.39	213.66
362.77	213.75
363.15	213.83
363.53	213.89
363.91	213.95
364.29	213.97
364.67	213.85
365.05	213.85
365.43	213.85
365.81	213.86
366.19	213.94
366.57	213.93
366.95	213.95
367.33	213.92
367.71	213.93
368.09	213.91
368.47	214.05
368.85	214.05
369.23	214.07
369.61	213.89
369.99	213.93
370.37	213.87
370.75	213.82
371.13	213.80
371.51	213.80
371.89	213.77
372.27	213.74
372.65	213.80
373.03	213.75
373.41	213.72
373.78	213.68
374.16	213.54
374.54	213.57
374.92	213.52
375.30	213.43
375.68	213.33
376.06	213.30
376.44	213.18
376.82	213.10
377.19	213.07
377.57	213.02
377.95	212.90
378.33	212.84
378.71	212.71
379.09	212.65
379.47	212.67
379.84	212.64
380.22	212.58
380.60	212.47
380.98	212.45
381.36	212.40
381.73	212.29
382.11	212.33
382.49	212.22
382.87	212.09
383.25	212.06
383.62	212.18
384.00	212.09
384.38	211.98
384.76	211.98
385.13	212.00
385.51	211.99
385.89	211.92
386.27	211.85
386.64	211.96
387.02	211.95
387.40	211.76
387.78	211.74
388.15	211.67
388.53	211.57
388.91	211.62
389.29	211.65
389.66	211.69
390.04	211.57
390.42	211.59
390.79	211.61
391.17	211.66
391.55	211.46
391.92	211.45
392.30	211.53
392.68	211.49
393.05	211.46
393.43	211.48
393.81	211.55
394.18	211.60
394.56	211.52
394.94	211.55
395.31	211.60
395.69	211.64
396.06	211.72
396.44	211.79
396.82	211.71
397.19	211.79
397.57	211.85
397.95	211.95
398.32	211.87
398.70	211.89
399.07	211.89
399.45	211.94
399.82	212.05
400.20	212.09
400.58	212.16
400.95	212.10
401.33	212.21
401.70	212.38
402.08	212.39
402.45	212.48
402.83	212.58
403.20	212.69
403.58	212.74
403.95	212.85
404.33	212.97
404.71	213.09
405.08	213.20
405.46	213.23
405.83	213.30
406.21	213.51
406.58	213.66
406.96	213.90
407.33	214.06
407.70	214.30
408.08	214.55
408.45	214.76
408.83	215.06
409.20	215.31
409.58	215.46
409.95	215.80
410.33	216.09
410.70	216.32
411.08	216.68
411.45	217.06
411.82	217.45
412.20	217.96
412.57	218.57
412.95	218.96
413.32	219.56
413.69	220.09
414.07	220.64
414.44	221.32
414.82	221.90
415.19	222.63
415.56	223.33
415.94	224.06
416.31	224.92
416.68	225.75
417.06	226.74
417.43	227.68
417.81	228.71
418.18	229.78
418.55	230.95
418.93	232.26
419.30	233.55
419.67	234.93
420.04	236.30
420.42	237.65
420.79	239.42
421.16	241.12
421.54	242.89
421.91	244.76
422.28	246.60
422.66	248.65
423.03	250.80
423.40	252.93
423.77	255.22
424.15	257.48
424.52	259.90
424.89	262.34
425.26	264.80
425.64	267.20
426.01	269.86
426.38	272.60
426.75	275.29
427.13	278.08
427.50	280.99
427.87	283.98
428.24	287.03
428.61	289.96
428.99	293.24
429.36	296.88
429.73	300.29
430.10	303.76
430.47	307.30
430.85	310.74
431.22	314.57
431.59	318.71
431.96	322.60
432.33	326.95
432.70	331.14
433.08	336.01
433.45	340.67
433.82	345.17
434.19	350.18
434.56	355.08
434.93	359.84
435.30	364.60
435.68	369.89
436.05	375.13
436.42	380.18
436.79	384.73
437.16	389.75
437.53	394.96
437.90	400.12
438.27	405.17
438.64	410.49
439.01	415.36
439.38	419.63
439.75	423.90
440.13	428.63
440.50	433.14
440.87	436.78
441.24	440.46
441.61	444.70
441.98	447.83
442.35	451.53
442.72	455.25
443.09	458.74
443.46	460.81
443.83	462.20
444.20	463.29
444.57	465.03
444.94	465.72
445.31	466.70
445.68	467.55
446.05	467.77
446.42	467.19
446.79	466.45
447.16	465.59
447.53	465.00
447.90	462.79
448.27	460.70
448.64	457.85
449.01	455.83
449.37	452.15
449.74	448.64
450.11	444.51
450.48	439.97
450.85	435.30
451.22	431.44
451.59	427.71
451.96	424.24
452.33	419.59
452.70	415.20
453.07	409.98
453.43	404.82
453.80	399.93
454.17	395.25
454.54	390.70
454.91	385.91
455.28	381.08
455.65	376.80
456.02	372.56
456.38	368.83
456.75	364.18
457.12	360.46
457.49	356.70
457.86	352.98
458.23	349.79
458.59	346.49
458.96	342.87
459.33	339.72
459.70	336.63
460.07	334.12
460.43	331.36
460.80	328.67
461.17	326.30
461.54	323.82
461.91	321.42
462.27	319.10
462.64	317.10
463.01	314.98
463.38	312.90
463.74	310.64
464.11	308.90
464.48	307.26
464.85	305.48
465.21	304.14
465.58	302.62
465.95	300.86
466.32	299.35
466.68	297.96
467.05	296.56
467.42	295.09
467.78	293.69
468.15	292.41
468.52	291.46
468.88	290.10
469.25	288.91
469.62	288.03
469.98	287.08
470.35	286.18
470.72	285.19
471.08	284.17
471.45	283.49
471.82	282.69
472.18	281.89
472.55	281.34
472.92	280.60
473.28	280.05
473.65	279.46
474.02	278.91
474.38	278.49
474.75	278.13
475.11	277.80
475.48	277.53
475.85	277.28
476.21	277.06
476.58	276.88
476.94	276.93
477.31	276.89
477.67	276.85
478.04	276.84
478.41	277.07
478.77	277.40
479.14	277.45
479.50	277.67
479.87	278.01
480.23	278.40
480.60	278.82
480.96	279.20
481.33	279.82
481.69	280.42
482.06	281.06
482.42	281.71
482.79	282.44
483.15	283.20
483.52	284.12
483.88	285.06
484.25	286.09
484.61	287.08
484.98	288.17
485.34	289.50
485.71	290.90
486.07	292.23
486.44	293.54
486.80	295.11
487.17	296.74
487.53	298.50
487.90	300.17
488.26	302.09
488.62	304.20
488.99	306.22
489.35	308.40
489.72	310.68
490.08	313.13
490.44	315.57
490.81	318.25
491.17	320.90
491.54	323.78
491.90	326.75
492.26	330.02
492.63	333.39
492.99	336.80
493.36	340.43
493.72	344.35
494.08	348.42
494.45	352.67
494.81	357.02
495.17	361.58
495.54	366.63
495.90	371.63
496.26	376.78
496.63	382.43
496.99	388.20
497.35	394.17
497.72	400.36
498.08	406.85
498.44	413.57
498.80	420.70
499.17	428.06
499.53	435.80
499.89	443.57
500.26	451.56
500.62	459.85
500.98	468.70
501.34	477.76
501.71	487.17
502.07	496.81
502.43	506.87
502.79	517.00
503.16	527.48
503.52	538.41
503.88	549.66
504.24	561.12
504.60	572.84
504.97	585.09
505.33	597.59
505.69	610.89
506.05	624.26
506.41	637.91
506.78	651.67
507.14	665.79
507.50	680.44
507.86	695.57
508.22	711.04
508.59	726.65
508.95	742.56
509.31	758.74
509.67	775.39
510.03	792.35
510.39	809.98
510.75	827.81
511.12	845.99
511.48	864.44
511.84	883.15
512.20	902.05
512.56	921.21
512.92	940.74
513.28	960.15
513.64	979.78
514.00	999.66
514.37	1020.10
514.73	1040.84
515.09	1061.55
515.45	1082.23
515.81	1103.49
516.17	1124.55
516.53	1145.83
516.89	1167.47
517.25	1188.93
517.61	1210.49
517.97	1232.02
518.33	1253.38
518.69	1275.07
519.05	1297.17
519.41	1319.20
519.77	1341.44
520.13	1363.55
520.49	1385.56
520.85	1408.20
521.21	1430.78
521.57	1453.87
521.93	1475.87
522.29	1498.74
522.65	1521.48
523.01	1543.90
523.37	1565.70
523.73	1588.09
524.09	1610.33
524.45	1632.55
524.81	1655.03
525.17	1677.60
525.53	1699.85
525.89	1722.18
526.25	1744.01
526.61	1765.15
526.97	1787.04
527.33	1808.10
527.68	1829.41
528.04	1850.59
528.40	1870.80
528.76	1891.64
529.12	1912.10
529.48	1933.86
529.84	1953.85
530.20	1973.83
530.56	1994.47
530.91	2015.47
531.27	2035.86
531.63	2055.77
531.99	2075.48
532.35	2094.52
532.71	2113.23
533.07	2132.80
533.42	2151.02
533.78	2169.87
534.14	2188.34
534.50	2205.37
534.86	2223.88
535.21	2240.73
535.57	2258.31
535.93	2275.42
536.29	2292.14
536.65	2308.64
537.00	2323.61
537.36	2338.98
537.72	2354.23
538.08	2369.21
538.44	2384.28
538.79	2399.62
539.15	2414.30
539.51	2428.62
539.87	2443.95
540.22	2458.58
540.58	2473.24
540.94	2488.09
541.29	2500.84
541.65	2513.05
542.01	2526.05
542.37	2537.39
542.72	2549.89
543.08	2560.77
543.44	2572.83
543.79	2582.81
544.15	2592.68
544.51	2603.79
544.87	2614.86
545.22	2623.98
545.58	2632.28
545.94	2639.35
546.29	2645.60
546.65	2652.07
547.01	2658.60
547.36	2663.88
547.72	2669.14
548.07	2673.12
548.43	2676.79
548.79	2680.87
549.14	2685.55
549.50	2689.84
549.86	2693.97
550.21	2697.86
550.57	2702.13
550.92	2704.75
551.28	2707.57
551.64	2710.38
551.99	2712.53
552.35	2714.20
552.70	2716.90
553.06	2719.84
553.41	2722.75
553.77	2725.74
554.13	2728.06
554.48	2729.63
554.84	2731.29
555.19	2731.87
555.55	2732.55
555.90	2732.86
556.26	2733.20
556.61	2732.88
556.97	2731.19
557.32	2730.90
557.68	2729.05
558.03	2727.59
558.39	2726.36
558.74	2726.01
559.10	2724.85
559.45	2723.16
559.81	2721.65
560.16	2719.02
560.52	2716.43
560.87	2713.57
561.23	2709.70
561.58	2707.42
561.94	2704.54
562.29	2700.82
562.64	2698.73
563.00	2695.64
563.35	2693.56
563.71	2691.87
564.06	2690.10
564.42	2688.59
564.77	2686.03
565.12	2684.28
565.48	2680.77
565.83	2677.43
566.19	2674.11
566.54	2669.93
566.89	2666.04
567.25	2662.31
567.60	2658.83
567.96	2655.24
568.31	2652.00
568.66	2648.22
569.02	2643.42
569.37	2638.38
569.72	2634.65
570.08	2629.10
570.43	2623.82
570.78	2618.27
571.14	2611.80
571.49	2604.71
571.84	2598.89
572.20	2592.20
572.55	2585.39
572.90	2578.90
573.26	2571.92
573.61	2564.68
573.96	2558.03
574.31	2550.35
574.67	2542.35
575.02	2534.21
575.37	2525.37
575.72	2515.86
576.08	2508.34
576.43	2499.70
576.78	2491.82
577.13	2483.48
577.49	2475.51
577.84	2467.81
578.19	2460.11
578.54	2452.72
578.90	2446.01
579.25	2437.31
579.60	2428.15
579.95	2419.19
580.30	2411.07
580.66	2403.21
581.01	2394.10
581.36	2384.76
581.71	2376.48
582.06	2367.99
582.42	2359.85
582.77	2351.21
583.12	2342.50
583.47	2333.64
583.82	2325.30
584.17	2316.25
584.53	2307.49
584.88	2298.55
585.23	2289.06
585.58	2279.58
585.93	2269.90
586.28	2260.69
586.63	2251.69
586.98	2243.34
587.34	2235.05
587.69	2225.92
588.04	2216.45
588.39	2208.25
588.74	2199.53
589.09	2190.77
589.44	2181.37
589.79	2172.63
590.14	2164.53
590.49	2156.30
590.84	2147.26
591.19	2139.06
591.54	2130.32
591.89	2120.23
592.25	2111.29
592.60	2102.26
592.95	2092.73
593.30	2083.28
593.65	2073.60
594.00	2064.02
594.35	2055.82
594.70	2046.59
595.05	2037.74
595.40	2029.17
595.75	2019.66
596.10	2011.50
596.45	2002.80
596.80	1995.08
597.15	1986.79
597.50	1977.61
597.85	1968.92
598.19	1960.54
598.54	1951.81
598.89	1943.92
599.24	1937.00
599.59	1929.47
599.94	1922.46
600.29	1914.69
600.64	1906.75
600.99	1898.46
601.34	1891.52
601.69	1882.67
602.04	1874.33
602.39	1866.24
602.74	1858.24
603.08	1851.63
603.43	1844.30
603.78	1836.62
604.13	1828.44
604.48	1820.54
604.83	1813.90
605.18	1807.06
605.53	1799.45
605.87	1791.76
606.22	1784.61
606.57	1776.59
606.92	1768.54
607.27	1760.37
607.62	1753.14
607.96	1746.50
608.31	1740.26
608.66	1732.41
609.01	1724.96
609.36	1717.62
609.70	1709.92
610.05	1702.25
610.40	1694.08
610.75	1685.70
611.10	1678.08
611.44	1668.81
611.79	1660.04
612.14	1650.67
612.49	1641.00
612.83	1632.17
613.18	1622.87
613.53	1613.40
613.88	1603.86
614.22	1594.95
614.57	1585.74
614.92	1576.56
615.27	1566.98
615.61	1556.97
615.96	1547.96
616.31	1539.42
616.65	1531.45
617.00	1523.30
617.35	1514.60
617.70	1505.47
618.04	1496.16
618.39	1486.66
618.74	1478.43
619.08	1469.85
619.43	1461.63
619.78	1454.01
620.12	1445.89
620.47	1438.35
620.82	1429.85
621.16	1421.59
621.51	1413.33
621.85	1404.80
622.20	1396.34
622.55	1388.19
622.89	1380.09
623.24	1372.09
623.59	1363.41
623.93	1354.72
624.28	1346.29
624.62	1338.39
624.97	1330.41
625.32	1322.73
625.66	1315.38
626.01	1308.16
626.35	1300.79
626.70	1293.00
627.04	1285.45
627.39	1278.02
627.73	1270.21
628.08	1263.45
628.43	1256.24
628.77	1249.11
629.12	1241.78
629.46	1235.12
629.81	1227.80
630.15	1220.49
630.50	1213.01
630.84	1205.89
631.19	1198.77
631.53	1192.01
631.88	1184.32
632.22	1176.71
632.57	1169.71
632.91	1162.22
633.26	1154.74
633.60	1147.64
633.95	1140.99
634.29	1133.55
634.64	1126.74
634.98	1119.84
635.32	1112.70
635.67	1106.34
636.01	1099.39
636.36	1092.75
636.70	1085.99
637.05	1079.58
637.39	1073.27
637.73	1067.30
638.08	1061.58
638.42	1055.60
638.77	1049.18
639.11	1042.88
639.45	1036.98
639.80	1030.43
640.14	1023.99
640.49	1017.84
640.83	1011.55
641.17	1004.99
641.52	998.99
641.86	992.50
642.20	986.26
642.55	979.50
642.89	973.00
643.23	966.41
643.58	960.51
643.92	953.89
644.26	947.74
644.61	941.67
644.95	935.48
645.29	929.04
645.64	922.55
645.98	916.48
646.32	910.68
646.66	904.47
647.01	898.65
647.35	892.94
647.69	886.59
648.04	880.55
648.38	874.65
648.72	868.70
649.06	862.50
649.41	856.58
649.75	850.83
650.09	844.98
650.43	839.33
650.78	833.23
651.12	827.30
651.46	821.45
651.80	815.54
652.14	809.62
652.49	803.77
652.83	798.05
653.17	791.72
653.51	785.88
653.85	780.30
654.20	774.47
654.54	768.48
654.88	763.09
655.22	757.28
655.56	751.50
655.90	745.66
656.25	740.11
656.59	734.52
656.93	729.55
657.27	724.42
657.61	718.94
657.95	713.99
658.29	708.96
658.64	703.78
658.98	698.60
659.32	693.18
659.66	688.03
660.00	682.51
660.34	677.41
660.68	672.37
661.02	667.34
661.36	662.60
661.70	657.91
662.05	653.15
662.39	648.74
662.73	644.48
663.07	640.25
663.41	636.00
663.75	631.58
664.09	626.68
664.43	621.88
664.77	617.50
665.11	612.93
665.45	608.54
665.79	604.14
666.13	599.75
666.47	595.51
666.81	591.37
667.15	587.42
667.49	583.75
667.83	579.73
668.17	575.76
668.51	571.91
668.85	568.23
669.19	564.63
669.53	560.65
669.87	556.57
670.21	552.70
670.55	548.82
670.89	545.20
671.23	542.00
671.57	538.48
671.91	535.09
672.25	531.58
672.58	528.15
672.92	524.75
673.26	521.58
673.60	518.36
673.94	514.98
674.28	511.77
674.62	508.50
674.96	505.32
675.30	502.40
675.64	499.27
675.97	496.04
676.31	492.88
676.65	490.15
676.99	487.41
677.33	484.37
677.67	481.47
678.01	478.34
678.34	475.27
678.68	472.54
679.02	469.58
679.36	466.81
679.70	463.98
680.04	461.10
680.37	458.20
680.71	455.38
681.05	452.72
681.39	449.94
681.73	447.20
682.06	444.71
682.40	442.07
682.74	439.44
683.08	436.90
683.42	434.31
683.75	431.68
684.09	429.13
684.43	426.77
684.77	424.23
685.10	421.74
685.44	419.15
685.78	416.57
686.12	414.18
686.45	411.73
686.79	409.42
687.13	407.29
687.46	405.15
687.80	403.00
688.14	400.62
688.48	398.54
688.81	396.25
689.15	394.03
689.49	391.71
689.82	389.46
690.16	387.22
690.50	385.00
690.83	382.83
691.17	380.62
691.51	378.39
691.84	376.36
692.18	374.35
692.52	372.48
692.85	370.64
693.19	368.84
693.52	366.95
693.86	365.04
694.20	363.12
694.53	361.18
694.87	359.12
695.21	357.30
695.54	355.35
695.88	353.55
696.21	351.62
696.55	349.90
696.88	348.23
697.22	346.55
697.56	345.05
697.89	343.48
698.23	341.97
698.56	340.33
698.90	338.84
699.23	337.30
699.57	335.77
699.90	334.15
700.24	332.49
700.58	330.88
700.91	329.38
701.25	327.93
701.58	326.51
701.92	325.12
702.25	323.72
702.59	322.39
702.92	321.10
703.26	319.83
703.59	318.58
703.93	317.47
704.26	316.14
704.60	314.69
704.93	313.32
705.26	312.05
705.60	310.90
705.93	309.52
706.27	308.31
706.60	307.20
706.94	306.16
707.27	305.01
707.61	303.83
707.94	302.70
708.27	301.43
708.61	300.21
708.94	299.14
709.28	298.01
709.61	296.88
709.94	295.84
710.28	294.73
710.61	293.65
710.95	292.48
711.28	291.60
711.61	290.59
711.95	289.61
712.28	288.47
712.61	287.46
712.95	286.55
713.28	285.64
713.61	284.64
713.95	283.60
714.28	282.78
714.61	281.87
714.95	280.97
715.28	280.04
715.61	279.15
715.95	278.34
716.28	277.54
716.61	276.69
716.95	275.66
717.28	274.87
717.61	274.08
717.94	273.29
718.28	272.42
718.61	271.82
718.94	271.09
719.27	270.42
719.61	269.64
719.94	268.90
720.27	268.21
720.60	267.44
720.94	266.69
721.27	265.88
721.60	265.26
721.93	264.60
722.27	264.07
722.60	263.51
722.93	262.89
723.26	262.34
723.59	261.78
723.93	261.35
724.26	260.68
724.59	260.10
724.92	259.50
725.25	258.92
725.59	258.26
725.92	257.72
726.25	257.16
726.58	256.75
726.91	256.28
727.24	255.75
727.57	255.30
727.91	254.80
728.24	254.42
728.57	253.94
728.90	253.46
729.23	252.86
729.56	252.48
729.89	252.02
730.22	251.43
730.55	250.91
730.89	250.44
731.22	250.09
731.55	249.60
731.88	249.19
732.21	248.75
732.54	248.35
732.87	247.90
733.20	247.55
733.53	247.09
733.86	246.60
734.19	246.16
734.52	245.80
734.85	245.60
735.18	245.16
735.51	244.85
735.84	244.49
736.17	244.27
736.50	243.76
736.83	243.53
737.16	243.21
737.49	242.89
737.82	242.47
738.15	242.05
738.48	241.79
738.81	241.42
739.14	241.05
739.47	240.69
739.80	240.33
740.13	239.97
740.46	239.64
740.79	239.28
741.12	238.90
741.45	238.52
741.78	238.05
742.11	237.80
742.44	237.45
742.77	237.21
743.10	236.75
743.43	236.49
743.75	236.02
744.08	235.94
744.41	235.62
744.74	235.33
745.07	235.12
745.40	234.72
745.73	234.46
746.06	234.21
746.39	234.00
746.71	233.72
747.04	233.52
747.37	233.23
747.70	233.10
748.03	232.88
748.36	232.61
748.68	232.32
749.01	231.98
749.34	231.70
749.67	231.36
750.00	231.23
750.33	231.07
750.65	230.80
750.98	230.43
751.31	230.22
751.64	229.98
751.97	229.74
752.29	229.57
752.62	229.34
752.95	229.07
753.28	228.73
753.60	228.56
753.93	228.21
754.26	227.98
754.59	227.70
754.91	227.35
755.24	227.16
755.57	227.07
755.90	226.84
756.22	226.68
756.55	226.48
756.88	226.23
757.20	226.00
757.53	225.80
757.86	225.50
758.19	225.33
758.51	225.14
758.84	224.91
759.17	224.71
759.49	224.50
759.82	224.45
760.15	224.28
760.47	224.07
760.80	223.91
761.13	223.76
761.45	223.55
761.78	223.52
762.11	223.38
762.43	223.18
762.76	223.13
763.08	222.94
763.41	222.79
763.74	222.65
764.06	222.49
764.39	222.40
764.71	222.33
765.04	222.11
765.37	222.03
765.69	221.94
766.02	221.86
766.34	221.74
766.67	221.57
767.00	221.56
767.32	221.51
767.65	221.51
767.97	221.39
768.30	221.29
768.62	221.14
768.95	221.01
769.27	220.86
769.60	220.72
769.92	220.61
770.25	220.47
770.57	220.38
770.90	220.23
771.22	220.05
771.55	219.88
771.87	219.80
772.20	219.68
772.52	219.65
772.85	219.68
773.17	219.61
773.50	219.46
773.82	219.32
774.15	219.17
774.47	218.96
774.80	218.87
775.12	218.83
775.45	218.74
775.77	218.60
776.09	218.54
776.42	218.42
776.74	218.44
777.07	218.40
777.39	218.31
777.72	218.22
778.04	218.19
778.36	218.13
778.69	218.06
779.01	217.96
779.33	217.79
779.66	217.52
779.98	217.38
780.31	217.37
780.63	217.27
780.95	217.21
781.28	217.15
781.60	217.11
781.92	217.04
782.25	217.01
782.57	217.00
782.89	216.91
783.22	216.86
783.54	216.70
783.86	216.63
784.19	216.52
784.51	216.49
784.83	216.43
785.16	216.37
785.48	216.35
785.80	216.33
786.12	216.26
786.45	216.23
