SpectraSuite Data File
++++++++++++++++++++++++++++++++++++
Date: Mon Feb 25 17:30:09 EST 2013
User: group
Dark Spectrum Present: No
Reference Spectrum Present: No
Number of Sampled Component Spectra: 1
Spectrometers: USB2E7196
Integration Time (usec): 52000 (USB2E7196)
Spectra Averaged: 20 (USB2E7196)
Boxcar Smoothing: 10 (USB2E7196)
Correct for Electrical Dark: No (USB2E7196)
Strobe/Lamp Enabled: No (USB2E7196)
Correct for Detector Non-linearity: No (USB2E7196)
Correct for Stray Light: No (USB2E7196)
Number of Pixels in Processed Spectrum: 2048
>>>>>Begin Processed Spectral Data<<<<<
339.09	0.00
339.48	199.50
339.86	200.60
340.24	201.85
340.63	203.10
341.01	208.00
341.39	205.85
341.78	207.20
342.16	209.45
342.54	209.25
342.93	198.25
343.31	208.29
343.69	208.79
344.07	209.20
344.46	209.65
344.84	210.05
345.22	210.17
345.60	210.44
345.99	210.65
346.37	210.75
346.75	210.84
347.13	210.91
347.52	210.96
347.90	211.14
348.28	211.17
348.66	211.16
349.05	211.18
349.43	211.18
349.81	211.23
350.19	211.38
350.57	211.50
350.96	211.56
351.34	211.65
351.72	211.75
352.10	211.86
352.48	211.86
352.87	211.94
353.25	212.04
353.63	212.06
354.01	212.03
354.39	212.18
354.77	212.30
355.15	212.40
355.54	212.53
355.92	212.54
356.30	212.60
356.68	212.80
357.06	212.84
357.44	212.89
357.82	212.96
358.20	212.99
358.58	213.06
358.97	213.14
359.35	213.21
359.73	213.28
360.11	213.32
360.49	213.42
360.87	213.48
361.25	213.56
361.63	213.72
362.01	213.87
362.39	213.85
362.77	213.83
363.15	213.86
363.53	213.84
363.91	213.82
364.29	213.85
364.67	213.71
365.05	213.72
365.43	213.81
365.81	213.86
366.19	213.90
366.57	213.90
366.95	213.93
367.33	213.95
367.71	213.97
368.09	214.04
368.47	214.06
368.85	213.98
369.23	214.02
369.61	213.90
369.99	213.90
370.37	213.94
370.75	214.04
371.13	214.04
371.51	213.95
371.89	214.02
372.27	213.96
372.65	213.91
373.03	213.86
373.41	213.77
373.78	213.70
374.16	213.61
374.54	213.59
374.92	213.51
375.30	213.48
375.68	213.34
376.06	213.35
376.44	213.24
376.82	213.19
377.19	213.05
377.57	213.05
377.95	212.98
378.33	212.81
378.71	212.63
379.09	212.54
379.47	212.55
379.84	212.39
380.22	212.36
380.60	212.34
380.98	212.25
381.36	212.23
381.73	212.21
382.11	212.16
382.49	212.10
382.87	212.07
383.25	212.00
383.62	212.21
384.00	212.16
384.38	212.17
384.76	212.19
385.13	212.25
385.51	212.20
385.89	212.11
386.27	212.07
386.64	212.06
387.02	212.03
387.40	211.96
387.78	212.00
388.15	212.04
388.53	211.98
388.91	211.98
389.29	211.93
389.66	211.92
390.04	211.96
390.42	211.91
390.79	211.94
391.17	211.86
391.55	211.71
391.92	211.68
392.30	211.74
392.68	211.67
393.05	211.73
393.43	211.65
393.81	211.75
394.18	211.78
394.56	211.87
394.94	211.89
395.31	211.97
395.69	211.97
396.06	211.95
396.44	212.00
396.82	212.02
397.19	212.16
397.57	212.18
397.95	212.16
398.32	212.17
398.70	212.07
399.07	212.15
399.45	212.14
399.82	212.12
400.20	212.01
400.58	212.08
400.95	211.95
401.33	212.13
401.70	212.18
402.08	212.26
402.45	212.19
402.83	212.29
403.20	212.33
403.58	212.45
403.95	212.55
404.33	212.63
404.71	212.75
405.08	212.87
405.46	212.92
405.83	213.08
406.21	213.17
406.58	213.40
406.96	213.60
407.33	213.79
407.70	214.05
408.08	214.40
408.45	214.64
408.83	214.95
409.20	215.04
409.58	215.23
409.95	215.46
410.33	215.85
410.70	215.99
411.08	216.37
411.45	216.67
411.82	217.01
412.20	217.45
412.57	217.90
412.95	218.25
413.32	218.88
413.69	219.39
414.07	219.99
414.44	220.60
414.82	221.14
415.19	221.82
415.56	222.50
415.94	223.23
416.31	224.04
416.68	224.86
417.06	225.88
417.43	226.79
417.81	227.90
418.18	228.92
418.55	230.25
418.93	231.35
419.30	232.68
419.67	233.99
420.04	235.39
420.42	236.90
420.79	238.58
421.16	240.17
421.54	241.93
421.91	243.74
422.28	245.64
422.66	247.60
423.03	249.61
423.40	251.52
423.77	253.65
424.15	255.78
424.52	258.05
424.89	260.51
425.26	262.88
425.64	265.20
426.01	267.72
426.38	270.29
426.75	273.02
427.13	275.73
427.50	278.63
427.87	281.60
428.24	284.45
428.61	287.24
428.99	290.27
429.36	293.69
429.73	297.10
430.10	300.40
430.47	303.88
430.85	307.40
431.22	311.27
431.59	315.28
431.96	319.18
432.33	323.36
432.70	327.37
433.08	332.20
433.45	336.72
433.82	341.14
434.19	346.05
434.56	350.87
434.93	355.35
435.30	359.93
435.68	364.94
436.05	370.04
436.42	375.10
436.79	379.68
437.16	384.59
437.53	389.64
437.90	394.68
438.27	399.69
438.64	404.75
439.01	409.55
439.38	413.77
439.75	417.92
440.13	422.60
440.50	427.10
440.87	430.59
441.24	434.14
441.61	438.28
441.98	441.29
442.35	444.88
442.72	448.50
443.09	451.92
443.46	453.97
443.83	455.29
444.20	456.38
444.57	458.05
444.94	458.55
445.31	459.31
445.68	460.11
446.05	460.17
446.42	459.54
446.79	458.76
447.16	457.98
447.53	457.24
447.90	455.18
448.27	453.11
448.64	450.37
449.01	448.26
449.37	444.74
449.74	441.28
450.11	437.23
450.48	432.90
450.85	428.40
451.22	424.62
451.59	421.03
451.96	417.52
452.33	413.04
452.70	409.02
453.07	404.08
453.43	398.99
453.80	394.31
454.17	389.70
454.54	385.28
454.91	380.46
455.28	375.96
455.65	371.73
456.02	367.63
456.38	363.97
456.75	359.54
457.12	355.83
457.49	352.23
457.86	348.57
458.23	345.45
458.59	342.09
458.96	338.68
459.33	335.58
459.70	332.54
460.07	330.05
460.43	327.19
460.80	324.65
461.17	322.37
461.54	320.01
461.91	317.71
462.27	315.49
462.64	313.63
463.01	311.42
463.38	309.42
463.74	307.18
464.11	305.42
464.48	303.79
464.85	302.08
465.21	300.77
465.58	299.45
465.95	297.84
466.32	296.49
466.68	295.10
467.05	293.74
467.42	292.44
467.78	291.08
468.15	289.83
468.52	288.82
468.88	287.58
469.25	286.35
469.62	285.57
469.98	284.56
470.35	283.67
470.72	282.83
471.08	281.91
471.45	281.15
471.82	280.47
472.18	279.74
472.55	279.20
472.92	278.50
473.28	277.91
473.65	277.28
474.02	276.82
474.38	276.40
474.75	276.18
475.11	275.84
475.48	275.61
475.85	275.50
476.21	275.34
476.58	275.25
476.94	275.30
477.31	275.20
477.67	275.16
478.04	275.27
478.41	275.46
478.77	275.74
479.14	275.97
479.50	276.25
479.87	276.61
480.23	276.91
480.60	277.21
480.96	277.58
481.33	278.29
481.69	278.86
482.06	279.51
482.42	280.09
482.79	280.80
483.15	281.65
483.52	282.60
483.88	283.54
484.25	284.52
484.61	285.58
484.98	286.71
485.34	288.10
485.71	289.42
486.07	290.80
486.44	292.11
486.80	293.55
487.17	295.11
487.53	296.90
487.90	298.75
488.26	300.75
488.62	302.85
488.99	304.82
489.35	307.02
489.72	309.28
490.08	311.67
490.44	314.10
490.81	316.75
491.17	319.31
491.54	322.10
491.90	325.07
492.26	328.18
492.63	331.52
492.99	334.91
493.36	338.51
493.72	342.35
494.08	346.49
494.45	350.73
494.81	355.17
495.17	359.67
495.54	364.53
495.90	369.50
496.26	374.65
496.63	380.13
496.99	385.73
497.35	391.65
497.72	397.87
498.08	404.39
498.44	411.04
498.80	418.20
499.17	425.57
499.53	433.06
499.89	441.08
500.26	449.04
500.62	457.35
500.98	466.09
501.34	475.05
501.71	484.30
502.07	493.82
502.43	503.64
502.79	513.81
503.16	524.35
503.52	535.26
503.88	546.34
504.24	557.78
504.60	569.38
504.97	581.71
505.33	594.10
505.69	607.29
506.05	620.69
506.41	634.07
506.78	647.68
507.14	661.67
507.50	676.04
507.86	691.08
508.22	706.23
508.59	721.47
508.95	737.15
509.31	753.16
509.67	769.56
510.03	786.35
510.39	803.69
510.75	821.28
511.12	838.92
511.48	857.02
511.84	875.48
512.20	894.09
512.56	912.78
512.92	931.84
513.28	950.76
513.64	970.08
514.00	989.59
514.37	1009.63
514.73	1030.18
515.09	1050.62
515.45	1070.87
515.81	1091.57
516.17	1112.35
516.53	1133.39
516.89	1154.55
517.25	1175.90
517.61	1197.15
517.97	1218.02
518.33	1238.80
518.69	1260.12
519.05	1281.63
519.41	1303.30
519.77	1325.25
520.13	1346.84
520.49	1368.53
520.85	1390.55
521.21	1412.41
521.57	1435.03
521.93	1456.48
522.29	1478.58
522.65	1500.34
523.01	1522.41
523.37	1543.82
523.73	1565.86
524.09	1587.50
524.45	1609.11
524.81	1630.63
525.17	1652.23
525.53	1673.94
525.89	1695.74
526.25	1717.09
526.61	1737.83
526.97	1758.73
527.33	1779.22
527.68	1799.99
528.04	1820.46
528.40	1840.14
528.76	1860.06
529.12	1879.75
529.48	1900.85
529.84	1920.52
530.20	1939.87
530.56	1959.31
530.91	1979.27
531.27	1998.57
531.63	2017.59
531.99	2036.62
532.35	2055.21
532.71	2073.32
533.07	2091.95
533.42	2109.83
533.78	2128.17
534.14	2145.61
534.50	2162.09
534.86	2179.40
535.21	2195.41
535.57	2212.50
535.93	2229.48
536.29	2245.76
536.65	2261.64
537.00	2276.00
537.36	2290.28
537.72	2305.16
538.08	2319.62
538.44	2334.17
538.79	2348.98
539.15	2363.04
539.51	2376.84
539.87	2391.24
540.22	2405.11
540.58	2419.43
540.94	2432.64
541.29	2444.63
541.65	2456.25
542.01	2468.66
542.37	2480.25
542.72	2492.04
543.08	2502.23
543.44	2512.84
543.79	2522.18
544.15	2531.57
544.51	2542.18
544.87	2552.49
545.22	2561.18
545.58	2569.17
545.94	2575.76
546.29	2581.54
546.65	2587.22
547.01	2592.68
547.36	2597.68
547.72	2602.75
548.07	2606.05
548.43	2609.57
548.79	2612.73
549.14	2617.21
549.50	2620.95
549.86	2624.15
550.21	2627.61
550.57	2631.27
550.92	2633.81
551.28	2636.09
551.64	2638.30
551.99	2640.19
552.35	2641.68
552.70	2643.95
553.06	2646.22
553.41	2648.94
553.77	2651.40
554.13	2653.15
554.48	2654.90
554.84	2656.21
555.19	2656.36
555.55	2656.35
555.90	2656.96
556.26	2657.21
556.61	2656.76
556.97	2655.30
557.32	2654.40
557.68	2652.25
558.03	2650.35
558.39	2648.27
558.74	2647.59
559.10	2646.29
559.45	2643.84
559.81	2642.49
560.16	2639.17
560.52	2636.61
560.87	2633.61
561.23	2629.59
561.58	2627.45
561.94	2623.80
562.29	2619.62
562.64	2617.11
563.00	2614.60
563.35	2611.61
563.71	2609.68
564.06	2607.26
564.42	2604.87
564.77	2602.26
565.12	2600.33
565.48	2596.95
565.83	2593.97
566.19	2590.68
566.54	2585.99
566.89	2582.11
567.25	2578.08
567.60	2574.93
567.96	2571.04
568.31	2566.97
568.66	2563.35
569.02	2558.44
569.37	2553.60
569.72	2549.78
570.08	2544.26
570.43	2538.51
570.78	2532.89
571.14	2526.65
571.49	2520.22
571.84	2514.38
572.20	2507.38
572.55	2500.93
572.90	2494.51
573.26	2487.82
573.61	2480.45
573.96	2474.64
574.31	2466.91
574.67	2458.95
575.02	2450.55
575.37	2442.04
575.72	2433.21
576.08	2425.55
576.43	2417.01
576.78	2409.28
577.13	2401.28
577.49	2393.63
577.84	2386.38
578.19	2379.10
578.54	2371.97
578.90	2364.58
579.25	2356.21
579.60	2347.86
579.95	2338.92
580.30	2330.93
580.66	2322.89
581.01	2314.72
581.36	2305.31
581.71	2297.38
582.06	2289.20
582.42	2281.40
582.77	2272.64
583.12	2264.34
583.47	2255.96
583.82	2248.15
584.17	2239.49
584.53	2231.04
584.88	2222.49
585.23	2213.46
585.58	2204.39
585.93	2194.98
586.28	2186.61
586.63	2178.30
586.98	2170.33
587.34	2162.37
587.69	2153.59
588.04	2144.69
588.39	2136.51
588.74	2127.85
589.09	2119.28
589.44	2110.06
589.79	2101.90
590.14	2094.51
590.49	2086.60
590.84	2078.10
591.19	2070.76
591.54	2062.50
591.89	2052.72
592.25	2044.05
592.60	2035.08
592.95	2026.00
593.30	2016.85
593.65	2007.42
594.00	1998.07
594.35	1990.08
594.70	1981.37
595.05	1973.03
595.40	1964.71
595.75	1955.64
596.10	1948.02
596.45	1940.15
596.80	1932.70
597.15	1924.94
597.50	1916.32
597.85	1908.18
598.19	1899.82
598.54	1891.19
598.89	1883.89
599.24	1877.31
599.59	1870.12
599.94	1863.56
600.29	1856.12
600.64	1848.43
600.99	1840.37
601.34	1833.63
601.69	1825.05
602.04	1817.11
602.39	1809.18
602.74	1801.65
603.08	1795.14
603.43	1788.30
603.78	1780.83
604.13	1772.87
604.48	1765.16
604.83	1758.55
605.18	1751.99
605.53	1744.90
605.87	1737.61
606.22	1730.79
606.57	1723.48
606.92	1716.11
607.27	1708.31
607.62	1701.45
607.96	1695.09
608.31	1689.33
608.66	1681.90
609.01	1674.86
609.36	1667.79
609.70	1660.35
610.05	1653.08
610.40	1645.13
610.75	1636.95
611.10	1629.56
611.44	1621.05
611.79	1612.38
612.14	1603.48
612.49	1594.06
612.83	1585.57
613.18	1576.24
613.53	1566.85
613.88	1557.36
614.22	1548.37
614.57	1539.52
614.92	1530.53
615.27	1521.48
615.61	1511.95
615.96	1503.19
616.31	1494.96
616.65	1487.12
617.00	1479.21
617.35	1470.91
617.70	1462.60
618.04	1453.80
618.39	1444.66
618.74	1436.71
619.08	1428.29
619.43	1420.54
619.78	1413.12
620.12	1405.24
620.47	1397.86
620.82	1389.67
621.16	1381.72
621.51	1373.84
621.85	1365.74
622.20	1357.62
622.55	1349.83
622.89	1341.81
623.24	1334.42
623.59	1326.17
623.93	1317.71
624.28	1309.67
624.62	1301.70
624.97	1293.74
625.32	1286.18
625.66	1279.10
626.01	1272.12
626.35	1265.23
626.70	1257.38
627.04	1250.28
627.39	1242.96
627.73	1235.70
628.08	1229.19
628.43	1222.28
628.77	1215.15
629.12	1208.19
629.46	1201.80
629.81	1194.75
630.15	1187.89
630.50	1180.83
630.84	1174.05
631.19	1167.22
631.53	1160.62
631.88	1153.34
632.22	1146.08
632.57	1139.44
632.91	1132.31
633.26	1125.13
633.60	1118.04
633.95	1111.73
634.29	1104.40
634.64	1097.97
634.98	1091.39
635.32	1084.45
635.67	1078.38
636.01	1071.88
636.36	1065.25
636.70	1058.90
637.05	1052.44
637.39	1046.37
637.73	1039.99
638.08	1034.02
638.42	1028.42
638.77	1022.21
639.11	1016.28
639.45	1010.55
639.80	1004.23
640.14	997.83
640.49	991.58
640.83	985.78
641.17	979.45
641.52	973.63
641.86	967.26
642.20	961.11
642.55	954.63
642.89	948.15
643.23	942.09
643.58	936.58
643.92	930.07
644.26	924.08
644.61	918.09
644.95	912.18
645.29	906.19
645.64	899.68
645.98	893.75
646.32	888.10
646.66	882.01
647.01	876.30
647.35	870.88
647.69	865.06
648.04	859.31
648.38	853.57
648.72	847.82
649.06	842.13
649.41	836.38
649.75	830.87
650.09	825.19
650.43	819.35
650.78	813.12
651.12	807.32
651.46	801.76
651.80	796.22
652.14	790.49
652.49	784.76
652.83	779.17
653.17	773.22
653.51	767.56
653.85	762.15
654.20	756.56
654.54	750.74
654.88	745.40
655.22	739.81
655.56	734.33
655.90	728.66
656.25	723.07
656.59	717.64
656.93	712.54
657.27	707.55
657.61	702.39
657.95	697.57
658.29	692.73
658.64	687.73
658.98	682.40
659.32	677.15
659.66	672.17
660.00	667.03
660.34	662.08
660.68	656.91
661.02	652.09
661.36	647.38
661.70	642.87
662.05	638.16
662.39	633.62
662.73	629.30
663.07	625.29
663.41	621.20
663.75	617.02
664.09	612.44
664.43	607.89
664.77	603.67
665.11	599.40
665.45	595.09
665.79	590.81
666.13	586.73
666.47	582.81
666.81	578.68
667.15	574.84
667.49	571.24
667.83	567.47
668.17	563.56
668.51	559.87
668.85	556.36
669.19	552.90
669.53	549.26
669.87	545.27
670.21	541.51
670.55	537.80
670.89	534.25
671.23	531.12
671.57	527.80
671.91	524.38
672.25	520.91
672.58	517.59
672.92	514.30
673.26	511.33
673.60	508.15
673.94	504.99
674.28	501.92
674.62	498.81
674.96	495.84
675.30	492.90
675.64	489.86
675.97	486.74
676.31	483.78
676.65	480.98
676.99	478.44
677.33	475.54
677.67	472.57
678.01	469.50
678.34	466.54
678.68	463.69
679.02	460.82
679.36	458.13
679.70	455.40
680.04	452.52
680.37	449.62
680.71	446.96
681.05	444.43
681.39	441.76
681.73	439.08
682.06	436.63
682.40	434.16
682.74	431.70
683.08	429.35
683.42	426.86
683.75	424.37
684.09	421.78
684.43	419.44
684.77	416.94
685.10	414.65
685.44	412.30
685.78	409.92
686.12	407.68
686.45	405.39
686.79	403.17
687.13	401.22
687.46	398.98
687.80	396.87
688.14	394.59
688.48	392.47
688.81	390.29
689.15	388.02
689.49	385.76
689.82	383.53
690.16	381.24
690.50	379.05
690.83	376.89
691.17	374.75
691.51	372.60
691.84	370.67
692.18	368.69
692.52	366.68
692.85	364.94
693.19	363.19
693.52	361.36
693.86	359.53
694.20	357.66
694.53	355.93
694.87	353.93
695.21	352.15
695.54	350.37
695.88	348.54
696.21	346.77
696.55	345.27
696.88	343.66
697.22	341.89
697.56	340.35
697.89	338.79
698.23	337.28
698.56	335.68
698.90	334.28
699.23	332.61
699.57	331.13
699.90	329.50
700.24	327.85
700.58	326.31
700.91	324.81
701.25	323.40
701.58	322.02
701.92	320.74
702.25	319.45
702.59	318.13
702.92	316.93
703.26	315.64
703.59	314.26
703.93	313.11
704.26	311.89
704.60	310.65
704.93	309.43
705.26	308.16
705.60	307.08
705.93	305.80
706.27	304.80
706.60	303.71
706.94	302.65
707.27	301.48
707.61	300.41
707.94	299.30
708.27	298.18
708.61	297.10
708.94	296.02
709.28	294.89
709.61	293.83
709.94	292.67
710.28	291.69
710.61	290.71
710.95	289.59
711.28	288.74
711.61	287.70
711.95	286.71
712.28	285.76
712.61	284.81
712.95	283.97
713.28	283.12
713.61	282.22
713.95	281.38
714.28	280.60
714.61	279.64
714.95	278.83
715.28	277.86
715.61	276.99
715.95	276.19
716.28	275.34
716.61	274.50
716.95	273.79
717.28	272.97
717.61	272.16
717.94	271.45
718.28	270.55
718.61	269.83
718.94	269.13
719.27	268.51
719.61	267.83
719.94	267.09
720.27	266.26
720.60	265.47
720.94	264.72
721.27	263.96
721.60	263.33
721.93	262.64
722.27	262.19
722.60	261.51
722.93	260.80
723.26	260.30
723.59	259.74
723.93	259.21
724.26	258.60
724.59	257.96
724.92	257.37
725.25	256.97
725.59	256.44
725.92	256.03
726.25	255.46
726.58	254.87
726.91	254.33
727.24	253.89
727.57	253.43
727.91	252.88
728.24	252.51
728.57	252.03
728.90	251.63
729.23	251.12
729.56	250.80
729.89	250.44
730.22	249.92
730.55	249.43
730.89	248.91
731.22	248.57
731.55	248.19
731.88	247.75
732.21	247.21
732.54	246.71
732.87	246.16
733.20	245.65
733.53	245.30
733.86	244.91
734.19	244.45
734.52	244.05
734.85	243.86
735.18	243.39
735.51	243.14
735.84	242.73
736.17	242.41
736.50	241.95
736.83	241.70
737.16	241.35
737.49	241.08
737.82	240.74
738.15	240.37
738.48	240.07
738.81	239.75
739.14	239.48
739.47	239.21
739.80	238.98
740.13	238.73
740.46	238.44
740.79	238.06
741.12	237.76
741.45	237.50
741.78	237.10
742.11	236.84
742.44	236.43
742.77	236.16
743.10	235.76
743.43	235.44
743.75	235.07
744.08	235.01
744.41	234.64
744.74	234.34
745.07	234.12
745.40	233.89
745.73	233.72
746.06	233.46
746.39	233.19
746.71	232.85
747.04	232.62
747.37	232.32
747.70	232.18
748.03	231.98
748.36	231.78
748.68	231.55
749.01	231.31
749.34	231.21
749.67	231.00
750.00	230.77
750.33	230.70
750.65	230.42
750.98	229.99
751.31	229.75
751.64	229.65
751.97	229.51
752.29	229.30
752.62	228.91
752.95	228.66
753.28	228.47
753.60	228.19
753.93	228.01
754.26	227.78
754.59	227.47
754.91	227.32
755.24	227.10
755.57	226.93
755.90	226.77
756.22	226.43
756.55	226.24
756.88	226.10
757.20	225.76
757.53	225.47
757.86	225.38
758.19	225.30
758.51	225.00
758.84	224.72
759.17	224.44
759.49	224.43
759.82	224.34
760.15	224.21
760.47	224.05
760.80	223.86
761.13	223.80
761.45	223.67
761.78	223.42
762.11	223.24
762.43	223.00
762.76	222.79
763.08	222.78
763.41	222.66
763.74	222.50
764.06	222.39
764.39	222.32
764.71	222.17
765.04	221.99
765.37	221.86
765.69	221.64
766.02	221.56
766.34	221.37
766.67	221.17
767.00	221.07
767.32	221.06
767.65	221.01
767.97	220.84
768.30	220.73
768.62	220.62
768.95	220.45
769.27	220.42
769.60	220.33
769.92	220.13
770.25	219.93
770.57	219.84
770.90	219.73
771.22	219.60
771.55	219.47
771.87	219.36
772.20	219.34
772.52	219.47
772.85	219.56
773.17	219.43
773.50	219.34
773.82	219.19
774.15	218.96
774.47	218.79
774.80	218.68
775.12	218.53
775.45	218.48
775.77	218.48
776.09	218.35
776.42	218.21
776.74	218.23
777.07	218.19
777.39	218.14
777.72	218.08
778.04	217.98
778.36	217.86
778.69	217.79
779.01	217.64
779.33	217.37
779.66	217.18
779.98	217.10
780.31	217.00
780.63	216.99
780.95	217.06
781.28	216.93
781.60	216.82
781.92	216.89
782.25	216.77
782.57	216.67
782.89	216.56
783.22	216.59
783.54	216.42
783.86	216.30
784.19	216.23
784.51	216.19
784.83	216.13
785.16	216.07
785.48	216.05
785.80	216.03
786.12	216.05
786.45	216.00
786.77	215.96
