SpectraSuite Data File
++++++++++++++++++++++++++++++++++++
Date: Mon Feb 25 17:31:44 EST 2013
User: group
Dark Spectrum Present: No
Reference Spectrum Present: No
Number of Sampled Component Spectra: 1
Spectrometers: USB2E7196
Integration Time (usec): 52000 (USB2E7196)
Spectra Averaged: 20 (USB2E7196)
Boxcar Smoothing: 10 (USB2E7196)
Correct for Electrical Dark: No (USB2E7196)
Strobe/Lamp Enabled: No (USB2E7196)
Correct for Detector Non-linearity: No (USB2E7196)
Correct for Stray Light: No (USB2E7196)
Number of Pixels in Processed Spectrum: 2048
>>>>>Begin Processed Spectral Data<<<<<
339.09	0.00
339.48	199.55
339.86	202.10
340.24	201.65
340.63	204.20
341.01	206.65
341.39	206.00
341.78	207.60
342.16	208.75
342.54	208.75
342.93	198.72
343.31	208.79
343.69	209.28
344.07	209.67
344.46	210.20
344.84	210.58
345.22	210.79
345.60	211.11
345.99	211.31
346.37	211.42
346.75	211.51
347.13	211.49
347.52	211.49
347.90	211.59
348.28	211.62
348.66	211.66
349.05	211.60
349.43	211.57
349.81	211.55
350.19	211.57
350.57	211.65
350.96	211.69
351.34	211.73
351.72	211.77
352.10	211.86
352.48	211.81
352.87	211.80
353.25	211.85
353.63	211.86
354.01	211.90
354.39	211.95
354.77	212.01
355.15	212.08
355.54	212.09
355.92	212.05
356.30	212.09
356.68	212.17
357.06	212.25
357.44	212.35
357.82	212.45
358.20	212.52
358.58	212.53
358.97	212.55
359.35	212.62
359.73	212.78
360.11	212.83
360.49	212.88
360.87	212.89
361.25	212.93
361.63	212.98
362.01	213.03
362.39	213.11
362.77	213.23
363.15	213.31
363.53	213.39
363.91	213.37
364.29	213.46
364.67	213.36
365.05	213.40
365.43	213.47
365.81	213.51
366.19	213.65
366.57	213.69
366.95	213.70
367.33	213.67
367.71	213.72
368.09	213.72
368.47	213.73
368.85	213.75
369.23	213.83
369.61	213.78
369.99	213.81
370.37	213.79
370.75	213.83
371.13	213.80
371.51	213.69
371.89	213.75
372.27	213.70
372.65	213.69
373.03	213.68
373.41	213.66
373.78	213.67
374.16	213.44
374.54	213.34
374.92	213.29
375.30	213.30
375.68	213.13
376.06	213.08
376.44	213.07
376.82	213.04
377.19	212.93
377.57	212.88
377.95	212.77
378.33	212.74
378.71	212.60
379.09	212.57
379.47	212.61
379.84	212.56
380.22	212.52
380.60	212.50
380.98	212.42
381.36	212.32
381.73	212.17
382.11	212.24
382.49	212.29
382.87	212.27
383.25	212.17
383.62	212.43
384.00	212.36
384.38	212.32
384.76	212.33
385.13	212.40
385.51	212.32
385.89	212.32
386.27	212.30
386.64	212.22
387.02	212.20
387.40	212.16
387.78	212.12
388.15	212.10
388.53	212.05
388.91	212.05
389.29	212.01
389.66	212.04
390.04	212.02
390.42	211.99
390.79	211.91
391.17	211.93
391.55	211.66
391.92	211.69
392.30	211.68
392.68	211.68
393.05	211.63
393.43	211.65
393.81	211.61
394.18	211.57
394.56	211.64
394.94	211.62
395.31	211.57
395.69	211.61
396.06	211.65
396.44	211.67
396.82	211.65
397.19	211.76
397.57	211.73
397.95	211.83
398.32	211.86
398.70	211.98
399.07	212.05
399.45	212.12
399.82	212.16
400.20	212.15
400.58	212.25
400.95	212.25
401.33	212.34
401.70	212.55
402.08	212.65
402.45	212.65
402.83	212.75
403.20	212.88
403.58	212.98
403.95	213.09
404.33	213.19
404.71	213.33
405.08	213.51
405.46	213.63
405.83	213.68
406.21	213.75
406.58	213.88
406.96	214.00
407.33	214.10
407.70	214.31
408.08	214.69
408.45	214.90
408.83	215.13
409.20	215.37
409.58	215.43
409.95	215.73
410.33	216.07
410.70	216.36
411.08	216.65
411.45	216.91
411.82	217.26
412.20	217.75
412.57	218.25
412.95	218.55
413.32	219.08
413.69	219.55
414.07	220.17
414.44	220.74
414.82	221.35
415.19	222.14
415.56	222.86
415.94	223.47
416.31	224.31
416.68	225.17
417.06	226.18
417.43	227.25
417.81	228.30
418.18	229.41
418.55	230.56
418.93	231.82
419.30	233.21
419.67	234.60
420.04	235.99
420.42	237.46
420.79	239.27
421.16	240.92
421.54	242.80
421.91	244.62
422.28	246.57
422.66	248.65
423.03	250.68
423.40	252.75
423.77	255.01
424.15	257.17
424.52	259.48
424.89	261.96
425.26	264.40
425.64	266.69
426.01	269.20
426.38	271.83
426.75	274.53
427.13	277.23
427.50	280.15
427.87	283.21
428.24	286.25
428.61	289.12
428.99	292.40
429.36	295.83
429.73	299.18
430.10	302.62
430.47	306.13
430.85	309.69
431.22	313.58
431.59	317.71
431.96	321.62
432.33	325.90
432.70	329.98
433.08	334.76
433.45	339.35
433.82	343.85
434.19	348.96
434.56	353.92
434.93	358.70
435.30	363.45
435.68	368.67
436.05	373.80
436.42	378.80
436.79	383.39
437.16	388.40
437.53	393.83
437.90	398.96
438.27	403.94
438.64	409.23
439.01	414.06
439.38	418.29
439.75	422.49
440.13	427.32
440.50	431.93
440.87	435.58
441.24	439.36
441.61	443.66
441.98	446.73
442.35	450.35
442.72	453.80
443.09	457.17
443.46	459.10
443.83	460.47
444.20	461.66
444.57	463.35
444.94	464.16
445.31	464.92
445.68	465.65
446.05	465.94
446.42	465.25
446.79	464.55
447.16	463.68
447.53	463.06
447.90	460.94
448.27	458.80
448.64	455.94
449.01	453.90
449.37	450.32
449.74	446.80
450.11	442.73
450.48	438.40
450.85	433.82
451.22	430.01
451.59	426.21
451.96	422.66
452.33	417.96
452.70	413.54
453.07	408.37
453.43	403.19
453.80	398.29
454.17	393.46
454.54	388.94
454.91	384.26
455.28	379.69
455.65	375.35
456.02	371.12
456.38	367.48
456.75	362.90
457.12	359.04
457.49	355.23
457.86	351.54
458.23	348.35
458.59	344.95
458.96	341.43
459.33	338.35
459.70	335.24
460.07	332.90
460.43	330.08
460.80	327.40
461.17	325.12
461.54	322.70
461.91	320.52
462.27	318.14
462.64	316.09
463.01	313.82
463.38	311.71
463.74	309.50
464.11	307.64
464.48	306.02
464.85	304.20
465.21	302.91
465.58	301.45
465.95	299.75
466.32	298.27
466.68	296.91
467.05	295.54
467.42	294.24
467.78	292.71
468.15	291.38
468.52	290.38
468.88	289.07
469.25	287.89
469.62	287.00
469.98	286.04
470.35	285.20
470.72	284.27
471.08	283.33
471.45	282.59
471.82	281.75
472.18	280.91
472.55	280.39
472.92	279.69
473.28	279.05
473.65	278.43
474.02	277.96
474.38	277.49
474.75	277.11
475.11	276.69
475.48	276.46
475.85	276.29
476.21	276.14
476.58	276.07
476.94	276.09
477.31	276.02
477.67	275.93
478.04	275.90
478.41	276.12
478.77	276.47
479.14	276.59
479.50	276.95
479.87	277.26
480.23	277.63
480.60	278.01
480.96	278.40
481.33	279.13
481.69	279.79
482.06	280.42
482.42	281.12
482.79	281.87
483.15	282.79
483.52	283.77
483.88	284.75
484.25	285.67
484.61	286.68
484.98	287.73
485.34	289.20
485.71	290.58
486.07	291.95
486.44	293.26
486.80	294.80
487.17	296.41
487.53	298.13
487.90	299.95
488.26	301.87
488.62	304.02
488.99	306.09
489.35	308.19
489.72	310.55
490.08	313.02
490.44	315.48
490.81	317.95
491.17	320.58
491.54	323.49
491.90	326.46
492.26	329.73
492.63	333.15
492.99	336.49
493.36	340.10
493.72	343.97
494.08	347.99
494.45	352.20
494.81	356.68
495.17	361.33
495.54	366.17
495.90	371.29
496.26	376.42
496.63	381.84
496.99	387.61
497.35	393.62
497.72	399.84
498.08	406.32
498.44	413.11
498.80	420.29
499.17	427.64
499.53	435.34
499.89	443.16
500.26	451.24
500.62	459.61
500.98	468.49
501.34	477.46
501.71	486.92
502.07	496.57
502.43	506.53
502.79	516.69
503.16	527.39
503.52	538.08
503.88	549.32
504.24	560.85
504.60	572.81
504.97	584.93
505.33	597.36
505.69	610.55
506.05	624.05
506.41	637.48
506.78	651.18
507.14	665.30
507.50	679.90
507.86	694.75
508.22	710.06
508.59	725.43
508.95	741.51
509.31	757.61
509.67	774.21
510.03	790.94
510.39	808.38
510.75	826.01
511.12	844.01
511.48	862.21
511.84	880.84
512.20	899.40
512.56	918.73
512.92	938.25
513.28	957.65
513.64	977.39
514.00	997.43
514.37	1017.81
514.73	1038.39
515.09	1059.14
515.45	1079.79
515.81	1100.90
516.17	1121.95
516.53	1143.08
516.89	1164.67
517.25	1186.08
517.61	1207.80
517.97	1229.16
518.33	1250.37
518.69	1272.09
519.05	1294.15
519.41	1316.14
519.77	1338.32
520.13	1360.27
520.49	1382.19
520.85	1404.33
521.21	1426.53
521.57	1449.23
521.93	1471.01
522.29	1493.67
522.65	1516.07
523.01	1538.43
523.37	1560.49
523.73	1582.95
524.09	1604.90
524.45	1626.79
524.81	1649.09
525.17	1671.24
525.53	1693.54
525.89	1716.06
526.25	1737.87
526.61	1758.82
526.97	1780.17
527.33	1801.45
527.68	1822.62
528.04	1843.68
528.40	1864.01
528.76	1884.57
529.12	1905.04
529.48	1926.36
529.84	1946.41
530.20	1966.53
530.56	1986.53
530.91	2007.07
531.27	2027.03
531.63	2046.81
531.99	2066.55
532.35	2085.60
532.71	2104.27
533.07	2123.54
533.42	2141.55
533.78	2160.39
534.14	2178.81
534.50	2195.96
534.86	2213.66
535.21	2230.26
535.57	2247.52
535.93	2264.68
536.29	2281.37
536.65	2297.89
537.00	2313.21
537.36	2328.42
537.72	2343.66
538.08	2359.07
538.44	2373.78
538.79	2388.83
539.15	2403.61
539.51	2418.13
539.87	2432.85
540.22	2447.07
540.58	2461.51
540.94	2475.96
541.29	2488.30
541.65	2500.24
542.01	2513.28
542.37	2524.77
542.72	2536.92
543.08	2547.63
543.44	2559.53
543.79	2569.49
544.15	2579.33
544.51	2590.15
544.87	2600.98
545.22	2609.64
545.58	2617.96
545.94	2625.14
546.29	2631.59
546.65	2637.45
547.01	2643.29
547.36	2648.85
547.72	2654.42
548.07	2658.05
548.43	2661.73
548.79	2665.50
549.14	2670.15
549.50	2673.89
549.86	2677.92
550.21	2682.07
550.57	2686.41
550.92	2688.79
551.28	2691.44
551.64	2693.90
551.99	2695.96
552.35	2697.26
552.70	2699.97
553.06	2702.64
553.41	2705.45
553.77	2708.15
554.13	2710.44
554.48	2712.14
554.84	2713.27
555.19	2713.71
555.55	2714.48
555.90	2714.70
556.26	2715.41
556.61	2715.13
556.97	2714.47
557.32	2713.91
557.68	2711.59
558.03	2710.04
558.39	2708.55
558.74	2708.00
559.10	2706.51
559.45	2704.50
559.81	2703.42
560.16	2700.75
560.52	2697.96
560.87	2695.01
561.23	2690.94
561.58	2688.82
561.94	2685.47
562.29	2681.83
562.64	2679.83
563.00	2677.24
563.35	2675.17
563.71	2673.39
564.06	2671.24
564.42	2669.13
564.77	2666.61
565.12	2664.50
565.48	2661.12
565.83	2657.79
566.19	2654.30
566.54	2650.23
566.89	2646.40
567.25	2642.59
567.60	2639.17
567.96	2635.55
568.31	2631.93
568.66	2628.35
569.02	2623.31
569.37	2618.51
569.72	2615.06
570.08	2609.30
570.43	2603.65
570.78	2597.69
571.14	2591.29
571.49	2584.37
571.84	2578.43
572.20	2571.59
572.55	2565.45
572.90	2558.46
573.26	2551.77
573.61	2544.68
573.96	2538.12
574.31	2530.38
574.67	2522.24
575.02	2513.76
575.37	2505.27
575.72	2496.36
576.08	2488.85
576.43	2480.58
576.78	2472.76
577.13	2464.41
577.49	2456.60
577.84	2448.95
578.19	2441.40
578.54	2434.00
578.90	2427.38
579.25	2418.60
579.60	2409.48
579.95	2400.09
580.30	2392.60
580.66	2384.50
581.01	2375.52
581.36	2366.30
581.71	2358.32
582.06	2350.24
582.42	2342.25
582.77	2333.27
583.12	2324.69
583.47	2316.16
583.82	2307.55
584.17	2298.27
584.53	2289.34
584.88	2280.15
585.23	2271.15
585.58	2261.72
585.93	2252.08
586.28	2242.60
586.63	2234.14
586.98	2226.16
587.34	2218.27
587.69	2208.90
588.04	2199.70
588.39	2191.51
588.74	2182.48
589.09	2173.56
589.44	2163.77
589.79	2155.15
590.14	2147.50
590.49	2139.10
590.84	2129.85
591.19	2121.93
591.54	2113.76
591.89	2103.62
592.25	2094.82
592.60	2085.50
592.95	2076.26
593.30	2066.80
593.65	2057.48
594.00	2047.69
594.35	2039.49
594.70	2030.30
595.05	2021.67
595.40	2013.30
595.75	2003.88
596.10	1996.13
596.45	1987.97
596.80	1980.31
597.15	1972.00
597.50	1962.92
597.85	1954.90
598.19	1946.40
598.54	1937.95
598.89	1930.15
599.24	1923.64
599.59	1916.10
599.94	1909.07
600.29	1901.48
600.64	1893.49
600.99	1885.40
601.34	1878.47
601.69	1870.07
602.04	1861.96
602.39	1854.10
602.74	1846.46
603.08	1839.90
603.43	1832.67
603.78	1824.40
604.13	1816.16
604.48	1808.51
604.83	1801.71
605.18	1794.34
605.53	1786.82
605.87	1779.20
606.22	1772.07
606.57	1764.33
606.92	1756.49
607.27	1748.42
607.62	1741.40
607.96	1734.88
608.31	1728.71
608.66	1720.71
609.01	1713.00
609.36	1705.49
609.70	1697.54
610.05	1689.54
610.40	1681.27
610.75	1672.74
611.10	1665.34
611.44	1656.60
611.79	1647.52
612.14	1638.18
612.49	1628.64
612.83	1620.39
613.18	1610.83
613.53	1601.39
613.88	1591.82
614.22	1583.07
614.57	1573.82
614.92	1564.21
615.27	1554.98
615.61	1544.97
615.96	1536.25
616.31	1527.95
616.65	1520.03
617.00	1512.01
617.35	1503.50
617.70	1495.03
618.04	1486.10
618.39	1476.95
618.74	1468.88
619.08	1460.57
619.43	1452.53
619.78	1444.85
620.12	1436.62
620.47	1429.28
620.82	1420.79
621.16	1412.57
621.51	1404.47
621.85	1396.43
622.20	1388.10
622.55	1379.82
622.89	1371.98
623.24	1364.03
623.59	1355.26
623.93	1346.66
624.28	1338.35
624.62	1330.39
624.97	1322.17
625.32	1314.43
625.66	1307.21
626.01	1299.65
626.35	1292.57
626.70	1284.74
627.04	1277.49
627.39	1270.11
627.73	1262.32
628.08	1255.67
628.43	1248.48
628.77	1241.15
629.12	1233.82
629.46	1227.30
629.81	1220.31
630.15	1213.03
630.50	1205.73
630.84	1198.84
631.19	1191.79
631.53	1184.85
631.88	1177.33
632.22	1169.87
632.57	1163.06
632.91	1155.59
633.26	1148.40
633.60	1141.20
633.95	1134.48
634.29	1127.14
634.64	1120.29
634.98	1113.32
635.32	1106.14
635.67	1099.68
636.01	1093.12
636.36	1086.53
636.70	1080.04
637.05	1073.41
637.39	1067.10
637.73	1060.86
638.08	1055.13
638.42	1049.22
638.77	1042.98
639.11	1036.67
639.45	1030.83
639.80	1024.41
640.14	1018.10
640.49	1011.99
640.83	1005.79
641.17	999.62
641.52	993.69
641.86	987.30
642.20	981.24
642.55	974.60
642.89	968.23
643.23	961.54
643.58	955.51
643.92	948.97
644.26	942.80
644.61	936.88
644.95	930.85
645.29	924.22
645.64	917.65
645.98	911.47
646.32	905.68
646.66	899.55
647.01	893.46
647.35	887.61
647.69	881.31
648.04	875.40
648.38	869.41
648.72	863.45
649.06	857.54
649.41	851.70
649.75	846.04
650.09	840.26
650.43	834.84
650.78	828.67
651.12	822.62
651.46	816.90
651.80	811.05
652.14	805.16
652.49	799.54
652.83	793.95
653.17	787.86
653.51	782.03
653.85	776.23
654.20	770.68
654.54	764.80
654.88	759.41
655.22	753.69
655.56	747.86
655.90	741.91
656.25	736.30
656.59	730.79
656.93	725.62
657.27	720.38
657.61	714.62
657.95	709.56
658.29	704.62
658.64	699.40
658.98	694.24
659.32	688.79
659.66	683.55
660.00	678.33
660.34	673.30
660.68	668.23
661.02	663.35
661.36	658.54
661.70	653.89
662.05	649.28
662.39	644.73
662.73	640.43
663.07	636.26
663.41	632.06
663.75	627.55
664.09	622.94
664.43	618.29
664.77	614.17
665.11	609.79
665.45	605.28
665.79	601.07
666.13	596.66
666.47	592.61
666.81	588.52
667.15	584.44
667.49	580.67
667.83	576.77
668.17	573.02
668.51	569.25
668.85	565.54
669.19	561.86
669.53	557.99
669.87	554.00
670.21	550.10
670.55	546.02
670.89	542.54
671.23	539.21
671.57	535.88
671.91	532.24
672.25	528.76
672.58	525.46
672.92	521.93
673.26	518.72
673.60	515.52
673.94	512.28
674.28	509.04
674.62	505.90
674.96	502.86
675.30	499.76
675.64	496.62
675.97	493.41
676.31	490.33
676.65	487.45
676.99	484.86
677.33	481.90
677.67	479.10
678.01	475.99
678.34	473.11
678.68	470.27
679.02	467.44
679.36	464.74
679.70	462.01
680.04	459.18
680.37	456.34
680.71	453.52
681.05	450.87
681.39	448.17
681.73	445.47
682.06	442.88
682.40	440.27
682.74	437.66
683.08	435.13
683.42	432.50
683.75	429.96
684.09	427.32
684.43	424.94
684.77	422.46
685.10	420.17
685.44	417.55
685.78	414.91
686.12	412.72
686.45	410.35
686.79	408.03
687.13	405.97
687.46	403.75
687.80	401.62
688.14	399.25
688.48	397.17
688.81	394.91
689.15	392.63
689.49	390.30
689.82	388.14
690.16	385.83
690.50	383.61
690.83	381.56
691.17	379.30
691.51	377.09
691.84	374.93
692.18	372.77
692.52	370.82
692.85	369.09
693.19	367.10
693.52	365.15
693.86	363.10
694.20	361.10
694.53	359.22
694.87	357.19
695.21	355.40
695.54	353.44
695.88	351.55
696.21	349.80
696.55	348.17
696.88	346.34
697.22	344.76
697.56	343.22
697.89	341.58
698.23	340.02
698.56	338.53
698.90	337.20
699.23	335.69
699.57	334.27
699.90	332.54
700.24	330.92
700.58	329.34
700.91	327.94
701.25	326.60
701.58	325.16
701.92	323.75
702.25	322.30
702.59	321.03
702.92	319.80
703.26	318.48
703.59	317.21
703.93	316.21
704.26	314.89
704.60	313.58
704.93	312.28
705.26	311.02
705.60	309.79
705.93	308.41
706.27	307.21
706.60	306.04
706.94	305.10
707.27	304.05
707.61	302.96
707.94	301.83
708.27	300.47
708.61	299.38
708.94	298.40
709.28	297.40
709.61	296.30
709.94	295.16
710.28	293.98
710.61	292.88
710.95	291.56
711.28	290.76
711.61	289.73
711.95	288.71
712.28	287.80
712.61	286.75
712.95	285.84
713.28	284.99
713.61	283.88
713.95	282.82
714.28	281.88
714.61	280.97
714.95	280.15
715.28	279.38
715.61	278.44
715.95	277.54
716.28	276.52
716.61	275.57
716.95	274.74
717.28	273.98
717.61	273.18
717.94	272.45
718.28	271.51
718.61	270.77
718.94	270.07
719.27	269.25
719.61	268.64
719.94	267.94
720.27	267.07
720.60	266.43
720.94	265.75
721.27	264.99
721.60	264.30
721.93	263.55
722.27	263.03
722.60	262.36
722.93	261.74
723.26	261.29
723.59	260.68
723.93	260.09
724.26	259.53
724.59	258.92
724.92	258.47
725.25	257.99
725.59	257.42
725.92	256.94
726.25	256.48
726.58	255.92
726.91	255.39
727.24	254.96
727.57	254.53
727.91	254.01
728.24	253.69
728.57	253.34
728.90	252.93
729.23	252.33
729.56	251.98
729.89	251.55
730.22	251.08
730.55	250.74
730.89	250.39
731.22	249.99
731.55	249.60
731.88	249.05
732.21	248.64
732.54	248.24
732.87	247.82
733.20	247.40
733.53	247.07
733.86	246.71
734.19	246.34
734.52	246.03
734.85	245.85
735.18	245.40
735.51	244.93
735.84	244.56
736.17	244.29
736.50	243.81
736.83	243.59
737.16	243.20
737.49	242.81
737.82	242.42
738.15	242.01
738.48	241.66
738.81	241.38
739.14	240.98
739.47	240.63
739.80	240.24
740.13	239.86
740.46	239.42
740.79	238.94
741.12	238.48
741.45	238.02
741.78	237.58
742.11	237.30
742.44	237.02
742.77	236.73
743.10	236.39
743.43	236.19
743.75	235.75
744.08	235.68
744.41	235.36
744.74	235.04
745.07	234.77
745.40	234.56
745.73	234.25
746.06	234.01
746.39	233.76
746.71	233.41
747.04	233.16
747.37	232.89
747.70	232.70
748.03	232.51
748.36	232.29
748.68	232.00
749.01	231.71
749.34	231.48
749.67	231.20
750.00	230.97
750.33	230.83
750.65	230.56
750.98	230.10
751.31	229.87
751.64	229.66
751.97	229.48
752.29	229.23
752.62	228.95
752.95	228.62
753.28	228.37
753.60	228.21
753.93	228.05
754.26	227.85
754.59	227.65
754.91	227.39
755.24	227.15
755.57	227.00
755.90	226.79
756.22	226.55
756.55	226.41
756.88	226.10
757.20	225.77
757.53	225.55
757.86	225.28
758.19	225.17
758.51	225.00
758.84	224.70
759.17	224.47
759.49	224.31
759.82	224.32
760.15	224.16
760.47	223.96
760.80	223.73
761.13	223.63
761.45	223.42
761.78	223.31
762.11	223.19
762.43	223.04
762.76	222.82
763.08	222.66
763.41	222.48
763.74	222.49
764.06	222.34
764.39	222.24
764.71	222.16
765.04	221.92
765.37	221.82
765.69	221.72
766.02	221.57
766.34	221.47
766.67	221.20
767.00	221.11
767.32	221.07
767.65	221.10
767.97	220.92
768.30	220.88
768.62	220.75
768.95	220.62
769.27	220.52
769.60	220.46
769.92	220.38
770.25	220.29
770.57	220.07
770.90	219.95
771.22	219.82
771.55	219.71
771.87	219.65
772.20	219.48
772.52	219.60
772.85	219.71
773.17	219.61
773.50	219.59
773.82	219.44
774.15	219.28
774.47	219.01
774.80	218.96
775.12	218.86
775.45	218.79
775.77	218.67
776.09	218.52
776.42	218.45
776.74	218.35
777.07	218.22
777.39	218.15
777.72	218.05
778.04	218.01
778.36	217.94
778.69	217.86
779.01	217.87
779.33	217.64
779.66	217.39
779.98	217.33
780.31	217.24
780.63	217.33
780.95	217.31
781.28	217.30
781.60	217.20
781.92	217.12
782.25	217.14
782.57	217.12
782.89	217.08
783.22	216.99
783.54	216.95
783.86	216.88
784.19	216.81
784.51	216.80
784.83	216.71
785.16	216.70
785.48	216.68
785.80	216.60
786.12	216.52
786.45	216.47
