SpectraSuite Data File
++++++++++++++++++++++++++++++++++++
Date: Mon Feb 25 17:32:57 EST 2013
User: group
Dark Spectrum Present: No
Reference Spectrum Present: No
Number of Sampled Component Spectra: 1
Spectrometers: USB2E7196
Integration Time (usec): 52000 (USB2E7196)
Spectra Averaged: 20 (USB2E7196)
Boxcar Smoothing: 10 (USB2E7196)
Correct for Electrical Dark: No (USB2E7196)
Strobe/Lamp Enabled: No (USB2E7196)
Correct for Detector Non-linearity: No (USB2E7196)
Correct for Stray Light: No (USB2E7196)
Number of Pixels in Processed Spectrum: 2048
>>>>>Begin Processed Spectral Data<<<<<
339.09	0.00
339.48	198.40
339.86	200.15
340.24	201.75
340.63	201.90
341.01	207.55
341.39	205.20
341.78	207.20
342.16	208.60
342.54	208.25
342.93	197.98
343.31	208.04
343.69	208.61
344.07	209.07
344.46	209.50
344.84	209.97
345.22	210.14
345.60	210.48
345.99	210.65
346.37	210.84
346.75	210.94
347.13	211.06
347.52	211.10
347.90	211.25
348.28	211.33
348.66	211.41
349.05	211.36
349.43	211.40
349.81	211.43
350.19	211.52
350.57	211.60
350.96	211.76
351.34	211.80
351.72	211.95
352.10	212.06
352.48	212.09
352.87	212.10
353.25	212.21
353.63	212.19
354.01	212.32
354.39	212.36
354.77	212.47
355.15	212.57
355.54	212.62
355.92	212.67
356.30	212.73
356.68	212.92
357.06	213.04
357.44	213.15
357.82	213.23
358.20	213.36
358.58	213.43
358.97	213.43
359.35	213.55
359.73	213.62
360.11	213.75
360.49	213.88
360.87	213.98
361.25	214.08
361.63	214.17
362.01	214.18
362.39	214.25
362.77	214.38
363.15	214.38
363.53	214.45
363.91	214.45
364.29	214.42
364.67	214.24
365.05	214.28
365.43	214.21
365.81	214.21
366.19	214.28
366.57	214.35
366.95	214.37
367.33	214.32
367.71	214.25
368.09	214.27
368.47	214.26
368.85	214.30
369.23	214.22
369.61	214.19
369.99	214.24
370.37	214.19
370.75	214.17
371.13	214.20
371.51	214.20
371.89	214.22
372.27	214.20
372.65	214.18
373.03	214.12
373.41	214.13
373.78	214.10
374.16	213.97
374.54	213.85
374.92	213.73
375.30	213.72
375.68	213.61
376.06	213.56
376.44	213.55
376.82	213.54
377.19	213.49
377.57	213.44
377.95	213.29
378.33	213.27
378.71	213.10
379.09	212.93
379.47	212.91
379.84	212.83
380.22	212.75
380.60	212.73
380.98	212.68
381.36	212.62
381.73	212.50
382.11	212.42
382.49	212.41
382.87	212.39
383.25	212.38
383.62	212.57
384.00	212.43
384.38	212.35
384.76	212.19
385.13	212.19
385.51	212.18
385.89	212.20
386.27	212.11
386.64	212.09
387.02	212.08
387.40	211.97
387.78	211.89
388.15	211.86
388.53	211.80
388.91	211.73
389.29	211.65
389.66	211.69
390.04	211.70
390.42	211.71
390.79	211.69
391.17	211.56
391.55	211.40
391.92	211.46
392.30	211.46
392.68	211.50
393.05	211.46
393.43	211.44
393.81	211.42
394.18	211.47
394.56	211.50
394.94	211.62
395.31	211.61
395.69	211.76
396.06	211.85
396.44	211.90
396.82	211.92
397.19	212.11
397.57	212.12
397.95	212.15
398.32	212.08
398.70	212.09
399.07	212.18
399.45	212.21
399.82	212.20
400.20	212.23
400.58	212.22
400.95	212.27
401.33	212.37
401.70	212.51
402.08	212.50
402.45	212.61
402.83	212.64
403.20	212.67
403.58	212.68
403.95	212.74
404.33	212.87
404.71	213.02
405.08	213.15
405.46	213.30
405.83	213.40
406.21	213.54
406.58	213.72
406.96	213.95
407.33	214.11
407.70	214.33
408.08	214.65
408.45	214.87
408.83	215.09
409.20	215.33
409.58	215.48
409.95	215.85
410.33	216.12
410.70	216.32
411.08	216.69
411.45	217.13
411.82	217.44
412.20	217.92
412.57	218.45
412.95	218.75
413.32	219.21
413.69	219.75
414.07	220.39
414.44	220.98
414.82	221.52
415.19	222.25
415.56	222.95
415.94	223.68
416.31	224.60
416.68	225.46
417.06	226.43
417.43	227.46
417.81	228.54
418.18	229.60
418.55	230.89
418.93	232.17
419.30	233.51
419.67	235.01
420.04	236.39
420.42	237.85
420.79	239.67
421.16	241.40
421.54	243.18
421.91	244.99
422.28	246.84
422.66	248.95
423.03	251.02
423.40	253.10
423.77	255.30
424.15	257.44
424.52	259.87
424.89	262.32
425.26	264.73
425.64	267.02
426.01	269.66
426.38	272.30
426.75	275.10
427.13	277.80
427.50	280.68
427.87	283.70
428.24	286.69
428.61	289.54
428.99	292.76
429.36	296.30
429.73	299.76
430.10	303.35
430.47	306.83
430.85	310.51
431.22	314.36
431.59	318.54
431.96	322.53
432.33	326.80
432.70	331.07
433.08	335.96
433.45	340.60
433.82	345.20
434.19	350.36
434.56	355.24
434.93	360.11
435.30	364.87
435.68	370.00
436.05	375.27
436.42	380.44
436.79	385.14
437.16	390.12
437.53	395.47
437.90	400.68
438.27	405.87
438.64	411.22
439.01	416.21
439.38	420.48
439.75	424.71
440.13	429.48
440.50	433.93
440.87	437.55
441.24	441.38
441.61	445.50
441.98	448.44
442.35	452.17
442.72	455.65
443.09	459.17
443.46	461.35
443.83	462.71
444.20	463.83
444.57	465.62
444.94	466.34
445.31	467.09
445.68	467.96
446.05	468.26
446.42	467.46
446.79	466.64
447.16	465.81
447.53	465.25
447.90	463.19
448.27	461.17
448.64	458.42
449.01	456.32
449.37	452.70
449.74	449.35
450.11	445.27
450.48	440.73
450.85	436.08
451.22	432.13
451.59	428.41
451.96	424.88
452.33	420.03
452.70	415.81
453.07	410.70
453.43	405.32
453.80	400.20
454.17	395.48
454.54	390.94
454.91	386.13
455.28	381.43
455.65	377.11
456.02	372.76
456.38	368.93
456.75	364.31
457.12	360.51
457.49	356.62
457.86	352.76
458.23	349.64
458.59	346.20
458.96	342.70
459.33	339.45
459.70	336.28
460.07	333.80
460.43	330.89
460.80	328.16
461.17	325.85
461.54	323.45
461.91	321.11
462.27	318.84
462.64	316.82
463.01	314.50
463.38	312.29
463.74	310.06
464.11	308.18
464.48	306.54
464.85	304.81
465.21	303.46
465.58	302.07
465.95	300.33
466.32	298.95
466.68	297.59
467.05	296.20
467.42	294.86
467.78	293.40
468.15	292.09
468.52	291.09
468.88	289.71
469.25	288.55
469.62	287.65
469.98	286.66
470.35	285.80
470.72	285.05
471.08	284.14
471.45	283.37
471.82	282.62
472.18	281.79
472.55	281.17
472.92	280.55
473.28	279.89
473.65	279.35
474.02	278.77
474.38	278.27
474.75	278.01
475.11	277.60
475.48	277.37
475.85	277.14
476.21	276.98
476.58	276.91
476.94	276.78
477.31	276.66
477.67	276.55
478.04	276.50
478.41	276.57
478.77	276.83
479.14	277.02
479.50	277.30
479.87	277.69
480.23	278.08
480.60	278.37
480.96	278.83
481.33	279.49
481.69	280.14
482.06	280.85
482.42	281.46
482.79	282.25
483.15	283.18
483.52	284.21
483.88	285.10
484.25	286.17
484.61	287.35
484.98	288.57
485.34	289.94
485.71	291.31
486.07	292.73
486.44	294.10
486.80	295.63
487.17	297.22
487.53	298.86
487.90	300.66
488.26	302.53
488.62	304.65
488.99	306.71
489.35	308.85
489.72	311.17
490.08	313.60
490.44	316.05
490.81	318.58
491.17	321.15
491.54	324.02
491.90	326.95
492.26	330.17
492.63	333.41
492.99	336.89
493.36	340.53
493.72	344.43
494.08	348.45
494.45	352.79
494.81	357.30
495.17	362.05
495.54	366.83
495.90	371.82
496.26	377.02
496.63	382.46
496.99	388.20
497.35	394.21
497.72	400.55
498.08	407.08
498.44	413.93
498.80	421.27
499.17	428.70
499.53	436.31
499.89	444.17
500.26	452.36
500.62	460.69
500.98	469.42
501.34	478.33
501.71	487.94
502.07	497.51
502.43	507.35
502.79	517.61
503.16	528.47
503.52	539.37
503.88	550.47
504.24	561.91
504.60	573.81
504.97	585.94
505.33	598.35
505.69	611.79
506.05	625.27
506.41	638.85
506.78	652.65
507.14	666.86
507.50	681.42
507.86	696.40
508.22	711.89
508.59	727.44
508.95	743.65
509.31	759.68
509.67	776.34
510.03	793.36
510.39	810.80
510.75	828.53
511.12	846.73
511.48	865.28
511.84	883.95
512.20	902.67
512.56	921.95
512.92	941.42
513.28	960.77
513.64	980.50
514.00	1000.36
514.37	1020.61
514.73	1041.35
515.09	1062.14
515.45	1082.92
515.81	1103.96
516.17	1125.39
516.53	1146.55
516.89	1167.97
517.25	1189.35
517.61	1210.98
517.97	1232.28
518.33	1253.67
518.69	1275.32
519.05	1297.48
519.41	1319.79
519.77	1342.22
520.13	1364.23
520.49	1386.19
520.85	1408.66
521.21	1430.98
521.57	1453.94
521.93	1476.14
522.29	1499.18
522.65	1521.74
523.01	1544.27
523.37	1566.34
523.73	1588.56
524.09	1610.92
524.45	1633.34
524.81	1655.86
525.17	1678.46
525.53	1701.30
525.89	1723.74
526.25	1745.61
526.61	1766.59
526.97	1788.04
527.33	1809.22
527.68	1830.80
528.04	1852.01
528.40	1871.99
528.76	1892.88
529.12	1913.25
529.48	1934.83
529.84	1955.02
530.20	1975.40
530.56	1995.61
530.91	2016.37
531.27	2036.72
531.63	2056.80
531.99	2076.54
532.35	2095.87
532.71	2114.70
533.07	2134.02
533.42	2152.30
533.78	2171.32
534.14	2189.84
534.50	2207.27
534.86	2225.46
535.21	2242.29
535.57	2260.41
535.93	2278.21
536.29	2294.95
536.65	2311.49
537.00	2326.86
537.36	2341.90
537.72	2356.95
538.08	2372.27
538.44	2387.20
538.79	2402.31
539.15	2416.95
539.51	2431.53
539.87	2446.61
540.22	2461.26
540.58	2475.93
540.94	2490.86
541.29	2503.63
541.65	2516.15
542.01	2529.44
542.37	2541.40
542.72	2553.79
543.08	2564.50
543.44	2576.34
543.79	2586.53
544.15	2596.91
544.51	2607.93
544.87	2619.05
545.22	2628.42
545.58	2637.02
545.94	2644.84
546.29	2651.78
546.65	2658.20
547.01	2664.38
547.36	2669.91
547.72	2675.40
548.07	2679.41
548.43	2682.97
548.79	2687.11
549.14	2691.56
549.50	2695.63
549.86	2699.79
550.21	2703.81
550.57	2707.82
550.92	2710.32
551.28	2713.27
551.64	2715.84
551.99	2718.19
552.35	2719.70
552.70	2722.46
553.06	2725.05
553.41	2727.84
553.77	2730.54
554.13	2732.93
554.48	2735.16
554.84	2736.52
555.19	2736.59
555.55	2737.30
555.90	2737.77
556.26	2738.05
556.61	2737.95
556.97	2736.77
557.32	2735.78
557.68	2733.94
558.03	2732.30
558.39	2730.86
558.74	2730.55
559.10	2729.44
559.45	2727.62
559.81	2726.45
560.16	2723.84
560.52	2721.50
560.87	2718.29
561.23	2714.67
561.58	2712.30
561.94	2708.92
562.29	2705.39
562.64	2703.30
563.00	2700.63
563.35	2698.65
563.71	2697.13
564.06	2695.03
564.42	2693.24
564.77	2691.01
565.12	2689.44
565.48	2686.57
565.83	2683.66
566.19	2679.88
566.54	2675.54
566.89	2671.60
567.25	2667.95
567.60	2664.44
567.96	2660.78
568.31	2657.09
568.66	2653.11
569.02	2648.18
569.37	2643.20
569.72	2639.44
570.08	2634.18
570.43	2628.58
570.78	2622.72
571.14	2616.34
571.49	2609.46
571.84	2603.49
572.20	2596.63
572.55	2590.02
572.90	2583.14
573.26	2576.04
573.61	2569.31
573.96	2562.86
574.31	2555.39
574.67	2547.33
575.02	2538.75
575.37	2530.25
575.72	2521.69
576.08	2513.94
576.43	2505.40
576.78	2497.69
577.13	2489.37
577.49	2481.15
577.84	2473.46
578.19	2465.80
578.54	2458.31
578.90	2451.68
579.25	2442.90
579.60	2433.86
579.95	2424.53
580.30	2416.31
580.66	2408.45
581.01	2399.27
581.36	2389.76
581.71	2381.26
582.06	2372.65
582.42	2364.96
582.77	2355.68
583.12	2346.78
583.47	2338.28
583.82	2329.76
584.17	2320.63
584.53	2311.87
584.88	2303.38
585.23	2294.06
585.58	2284.34
585.93	2274.75
586.28	2265.28
586.63	2256.55
586.98	2248.38
587.34	2239.69
587.69	2230.86
588.04	2221.33
588.39	2213.16
588.74	2204.59
589.09	2195.92
589.44	2186.37
589.79	2177.42
590.14	2169.79
590.49	2161.46
590.84	2152.49
591.19	2144.45
591.54	2135.86
591.89	2125.87
592.25	2116.53
592.60	2107.11
592.95	2097.83
593.30	2088.58
593.65	2078.93
594.00	2069.16
594.35	2060.86
594.70	2051.95
595.05	2043.03
595.40	2034.31
595.75	2024.64
596.10	2016.32
596.45	2007.49
596.80	1999.65
597.15	1991.48
597.50	1982.30
597.85	1973.79
598.19	1965.23
598.54	1956.68
598.89	1948.64
599.24	1941.78
599.59	1934.53
599.94	1927.45
600.29	1919.64
600.64	1911.58
600.99	1903.41
601.34	1896.39
601.69	1887.33
602.04	1878.95
602.39	1871.08
602.74	1863.30
603.08	1856.37
603.43	1848.92
603.78	1841.12
604.13	1833.20
604.48	1825.10
604.83	1818.09
605.18	1810.99
605.53	1803.33
605.87	1795.68
606.22	1788.51
606.57	1780.41
606.92	1772.45
607.27	1764.23
607.62	1757.00
607.96	1750.10
608.31	1743.70
608.66	1735.75
609.01	1728.18
609.36	1720.68
609.70	1712.59
610.05	1705.14
610.40	1696.91
610.75	1688.63
611.10	1680.86
611.44	1671.87
611.79	1662.86
612.14	1653.50
612.49	1643.71
612.83	1635.00
613.18	1625.25
613.53	1615.86
613.88	1606.24
614.22	1597.01
614.57	1587.57
614.92	1578.21
615.27	1568.75
615.61	1559.21
615.96	1550.12
616.31	1541.88
616.65	1533.87
617.00	1525.56
617.35	1516.68
617.70	1507.87
618.04	1498.96
618.39	1489.60
618.74	1481.23
619.08	1472.76
619.43	1464.75
619.78	1457.23
620.12	1448.83
620.47	1441.17
620.82	1432.52
621.16	1424.36
621.51	1416.09
621.85	1408.08
622.20	1399.69
622.55	1391.46
622.89	1383.01
623.24	1375.13
623.59	1366.36
623.93	1357.93
624.28	1349.82
624.62	1341.72
624.97	1333.54
625.32	1325.57
625.66	1318.37
626.01	1310.98
626.35	1303.64
626.70	1295.68
627.04	1288.06
627.39	1280.51
627.73	1272.93
628.08	1265.93
628.43	1258.43
628.77	1250.99
629.12	1243.75
629.46	1236.94
629.81	1229.34
630.15	1222.11
630.50	1214.42
630.84	1207.18
631.19	1200.20
631.53	1193.20
631.88	1185.51
632.22	1178.11
632.57	1171.20
632.91	1163.51
633.26	1155.88
633.60	1148.72
633.95	1142.02
634.29	1134.74
634.64	1128.13
634.98	1121.15
635.32	1114.08
635.67	1107.73
636.01	1101.11
636.36	1094.23
636.70	1087.45
637.05	1081.13
637.39	1074.87
637.73	1068.86
638.08	1063.00
638.42	1056.71
638.77	1050.22
639.11	1044.21
639.45	1038.19
639.80	1031.49
640.14	1025.16
640.49	1019.01
640.83	1012.96
641.17	1006.52
641.52	1000.40
641.86	993.85
642.20	987.53
642.55	980.93
642.89	974.45
643.23	968.08
643.58	962.18
643.92	955.76
644.26	949.46
644.61	943.22
644.95	937.31
645.29	930.97
645.64	924.35
645.98	918.10
646.32	912.03
646.66	905.85
647.01	899.97
647.35	894.13
647.69	887.91
648.04	881.63
648.38	875.57
648.72	869.51
649.06	863.56
649.41	857.61
649.75	851.85
650.09	846.01
650.43	840.23
650.78	834.02
651.12	828.10
651.46	822.35
651.80	816.43
652.14	810.26
652.49	804.54
652.83	798.70
653.17	792.74
653.51	786.94
653.85	781.25
654.20	775.39
654.54	769.49
654.88	764.05
655.22	758.50
655.56	752.73
655.90	747.02
656.25	741.27
656.59	735.87
656.93	730.69
657.27	725.47
657.61	719.91
657.95	714.89
658.29	709.74
658.64	704.58
658.98	699.44
659.32	694.13
659.66	688.81
660.00	683.57
660.34	678.23
660.68	673.07
661.02	667.99
661.36	663.34
661.70	658.51
662.05	653.75
662.39	649.26
662.73	645.04
663.07	640.77
663.41	636.36
663.75	631.80
664.09	627.09
664.43	622.39
664.77	618.09
665.11	613.58
665.45	609.25
665.79	604.95
666.13	600.42
666.47	596.16
666.81	592.04
667.15	588.19
667.49	584.53
667.83	580.66
668.17	576.86
668.51	573.03
668.85	569.44
669.19	565.80
669.53	561.83
669.87	557.83
670.21	553.87
670.55	550.08
670.89	546.50
671.23	543.13
671.57	539.61
671.91	536.01
672.25	532.38
672.58	528.96
672.92	525.42
673.26	522.40
673.60	519.23
673.94	515.94
674.28	512.46
674.62	509.27
674.96	506.02
675.30	502.82
675.64	499.51
675.97	496.35
676.31	493.23
676.65	490.24
676.99	487.50
677.33	484.60
677.67	481.75
678.01	478.79
678.34	475.75
678.68	472.94
679.02	470.07
679.36	467.30
679.70	464.42
680.04	461.53
680.37	458.45
680.71	455.78
681.05	453.11
681.39	450.43
681.73	447.85
682.06	445.26
682.40	442.78
682.74	440.20
683.08	437.59
683.42	434.91
683.75	432.39
684.09	429.73
684.43	427.26
684.77	424.69
685.10	422.10
685.44	419.62
685.78	417.16
686.12	414.89
686.45	412.64
686.79	410.35
687.13	408.23
687.46	406.12
687.80	403.79
688.14	401.45
688.48	399.35
688.81	396.94
689.15	394.72
689.49	392.42
689.82	390.21
690.16	387.87
690.50	385.68
690.83	383.51
691.17	381.22
691.51	378.99
691.84	376.78
692.18	374.78
692.52	372.75
692.85	370.89
693.19	368.95
693.52	367.00
693.86	365.03
694.20	363.25
694.53	361.33
694.87	359.37
695.21	357.50
695.54	355.54
695.88	353.74
696.21	351.90
696.55	350.15
696.88	348.44
697.22	346.75
697.56	345.25
697.89	343.57
698.23	341.98
698.56	340.33
698.90	338.94
699.23	337.39
699.57	335.86
699.90	334.11
700.24	332.39
700.58	330.76
700.91	329.19
701.25	327.68
701.58	326.27
701.92	324.84
702.25	323.57
702.59	322.25
702.92	320.90
703.26	319.51
703.59	318.20
703.93	316.98
704.26	315.78
704.60	314.49
704.93	313.23
705.26	311.99
705.60	310.72
705.93	309.44
706.27	308.25
706.60	307.13
706.94	306.10
707.27	305.00
707.61	303.92
707.94	302.85
708.27	301.64
708.61	300.53
708.94	299.53
709.28	298.27
709.61	297.12
709.94	296.04
710.28	294.98
710.61	293.96
710.95	292.85
711.28	291.93
711.61	290.82
711.95	289.90
712.28	288.98
712.61	288.05
712.95	287.10
713.28	286.20
713.61	285.17
713.95	284.17
714.28	283.31
714.61	282.36
714.95	281.50
715.28	280.51
715.61	279.52
715.95	278.46
716.28	277.67
716.61	276.83
716.95	276.02
717.28	275.15
717.61	274.35
717.94	273.57
718.28	272.65
718.61	271.99
718.94	271.10
719.27	270.32
719.61	269.58
719.94	268.91
720.27	268.07
720.60	267.41
720.94	266.76
721.27	265.99
721.60	265.40
721.93	264.72
722.27	264.23
722.60	263.60
722.93	263.11
723.26	262.49
723.59	261.92
723.93	261.25
724.26	260.76
724.59	260.12
724.92	259.60
725.25	259.03
725.59	258.35
725.92	257.89
726.25	257.38
726.58	256.89
726.91	256.30
727.24	255.87
727.57	255.36
727.91	254.81
728.24	254.28
728.57	253.73
728.90	253.25
729.23	252.68
729.56	252.31
729.89	251.85
730.22	251.29
730.55	250.79
730.89	250.43
731.22	249.87
731.55	249.44
731.88	248.98
732.21	248.57
732.54	248.14
732.87	247.67
733.20	247.20
733.53	246.81
733.86	246.39
734.19	245.94
734.52	245.60
734.85	245.29
735.18	244.95
735.51	244.62
735.84	244.27
736.17	243.95
736.50	243.51
736.83	243.30
737.16	242.98
737.49	242.55
737.82	242.19
738.15	241.85
738.48	241.49
738.81	241.12
739.14	240.70
739.47	240.28
739.80	239.90
740.13	239.63
740.46	239.24
740.79	238.89
741.12	238.54
741.45	238.12
741.78	237.75
742.11	237.48
742.44	237.16
742.77	236.80
743.10	236.45
743.43	236.16
743.75	235.69
744.08	235.62
744.41	235.39
744.74	235.05
745.07	234.80
745.40	234.66
745.73	234.45
746.06	234.18
746.39	234.01
746.71	233.74
747.04	233.46
747.37	233.24
747.70	233.02
748.03	232.76
748.36	232.59
748.68	232.35
749.01	232.06
749.34	231.81
749.67	231.64
750.00	231.41
750.33	231.19
750.65	230.93
750.98	230.40
751.31	230.11
751.64	229.88
751.97	229.79
752.29	229.46
752.62	229.17
752.95	228.97
753.28	228.72
753.60	228.50
753.93	228.37
754.26	228.15
754.59	227.90
754.91	227.71
755.24	227.49
755.57	227.20
755.90	227.00
756.22	226.81
756.55	226.58
756.88	226.35
757.20	226.06
757.53	225.84
757.86	225.75
758.19	225.66
758.51	225.43
758.84	225.08
759.17	224.83
759.49	224.71
759.82	224.62
760.15	224.44
760.47	224.32
760.80	224.01
761.13	223.83
761.45	223.60
761.78	223.50
762.11	223.34
762.43	223.24
762.76	223.05
763.08	222.89
763.41	222.76
763.74	222.61
764.06	222.59
764.39	222.43
764.71	222.23
765.04	222.03
765.37	221.88
765.69	221.81
766.02	221.76
766.34	221.63
766.67	221.41
767.00	221.33
767.32	221.38
767.65	221.40
767.97	221.33
768.30	221.27
768.62	221.06
768.95	220.89
769.27	220.78
769.60	220.73
769.92	220.56
770.25	220.37
770.57	220.33
770.90	220.20
771.22	220.12
771.55	220.04
771.87	219.97
772.20	219.89
772.52	219.87
772.85	219.93
773.17	219.81
773.50	219.74
773.82	219.56
774.15	219.36
774.47	219.14
774.80	219.01
775.12	218.89
775.45	218.78
775.77	218.73
776.09	218.61
776.42	218.53
776.74	218.44
777.07	218.43
777.39	218.28
777.72	218.17
778.04	218.07
778.36	218.03
778.69	217.90
779.01	217.85
779.33	217.69
779.66	217.39
779.98	217.28
780.31	217.23
780.63	217.33
780.95	217.19
781.28	217.16
781.60	217.09
781.92	217.07
782.25	217.08
782.57	217.00
782.89	216.93
783.22	216.84
783.54	216.86
783.86	216.82
784.19	216.75
784.51	216.71
784.83	216.70
785.16	216.60
785.48	216.56
785.80	216.53
786.12	216.51
786.45	216.54
