SpectraSuite Data File
++++++++++++++++++++++++++++++++++++
Date: Mon Feb 25 17:31:49 EST 2013
User: group
Dark Spectrum Present: No
Reference Spectrum Present: No
Number of Sampled Component Spectra: 1
Spectrometers: USB2E7196
Integration Time (usec): 52000 (USB2E7196)
Spectra Averaged: 20 (USB2E7196)
Boxcar Smoothing: 10 (USB2E7196)
Correct for Electrical Dark: No (USB2E7196)
Strobe/Lamp Enabled: No (USB2E7196)
Correct for Detector Non-linearity: No (USB2E7196)
Correct for Stray Light: No (USB2E7196)
Number of Pixels in Processed Spectrum: 2048
>>>>>Begin Processed Spectral Data<<<<<
339.09	0.00
339.48	197.55
339.86	199.90
340.24	199.95
340.63	203.20
341.01	206.20
341.39	205.10
341.78	207.30
342.16	207.90
342.54	209.05
342.93	197.71
343.31	207.67
343.69	208.27
344.07	208.74
344.46	209.25
344.84	209.62
345.22	209.83
345.60	210.07
345.99	210.19
346.37	210.41
346.75	210.45
347.13	210.52
347.52	210.53
347.90	210.61
348.28	210.58
348.66	210.68
349.05	210.68
349.43	210.75
349.81	210.81
350.19	210.88
350.57	210.94
350.96	211.02
351.34	211.20
351.72	211.33
352.10	211.43
352.48	211.55
352.87	211.57
353.25	211.67
353.63	211.81
354.01	211.91
354.39	211.96
354.77	212.10
355.15	212.29
355.54	212.46
355.92	212.55
356.30	212.68
356.68	212.84
357.06	212.94
357.44	213.01
357.82	213.07
358.20	213.16
358.58	213.25
358.97	213.28
359.35	213.37
359.73	213.43
360.11	213.47
360.49	213.57
360.87	213.69
361.25	213.74
361.63	213.81
362.01	213.94
362.39	213.93
362.77	213.97
363.15	214.07
363.53	214.01
363.91	213.98
364.29	214.01
364.67	213.90
365.05	213.92
365.43	214.00
365.81	214.04
366.19	214.19
366.57	214.31
366.95	214.41
367.33	214.39
367.71	214.37
368.09	214.45
368.47	214.41
368.85	214.36
369.23	214.42
369.61	214.36
369.99	214.33
370.37	214.41
370.75	214.51
371.13	214.36
371.51	214.35
371.89	214.42
372.27	214.35
372.65	214.30
373.03	214.26
373.41	214.18
373.78	214.09
374.16	213.91
374.54	213.79
374.92	213.71
375.30	213.63
375.68	213.55
376.06	213.49
376.44	213.38
376.82	213.36
377.19	213.31
377.57	213.32
377.95	213.29
378.33	213.11
378.71	212.93
379.09	212.91
379.47	212.95
379.84	212.87
380.22	212.86
380.60	212.81
380.98	212.75
381.36	212.71
381.73	212.69
382.11	212.64
382.49	212.60
382.87	212.55
383.25	212.48
383.62	212.66
384.00	212.56
384.38	212.57
384.76	212.61
385.13	212.59
385.51	212.50
385.89	212.37
386.27	212.38
386.64	212.31
387.02	212.32
387.40	212.22
387.78	212.21
388.15	212.18
388.53	212.14
388.91	212.09
389.29	212.01
389.66	212.02
390.04	212.00
390.42	211.96
390.79	211.88
391.17	211.92
391.55	211.75
391.92	211.74
392.30	211.68
392.68	211.60
393.05	211.49
393.43	211.46
393.81	211.45
394.18	211.39
394.56	211.43
394.94	211.34
395.31	211.31
395.69	211.30
396.06	211.27
396.44	211.27
396.82	211.27
397.19	211.40
397.57	211.30
397.95	211.33
398.32	211.27
398.70	211.39
399.07	211.47
399.45	211.44
399.82	211.46
400.20	211.46
400.58	211.45
400.95	211.50
401.33	211.58
401.70	211.76
402.08	211.82
402.45	211.95
402.83	212.13
403.20	212.20
403.58	212.28
403.95	212.39
404.33	212.49
404.71	212.60
405.08	212.73
405.46	212.91
405.83	213.10
406.21	213.24
406.58	213.35
406.96	213.44
407.33	213.63
407.70	213.85
408.08	214.17
408.45	214.38
408.83	214.71
409.20	214.87
409.58	215.02
409.95	215.34
410.33	215.54
410.70	215.76
411.08	216.12
411.45	216.42
411.82	216.77
412.20	217.19
412.57	217.77
412.95	218.10
413.32	218.62
413.69	219.05
414.07	219.62
414.44	220.25
414.82	220.83
415.19	221.56
415.56	222.31
415.94	223.01
416.31	223.96
416.68	224.77
417.06	225.82
417.43	226.82
417.81	227.94
418.18	229.10
418.55	230.31
418.93	231.52
419.30	232.80
419.67	234.21
420.04	235.65
420.42	236.96
420.79	238.73
421.16	240.37
421.54	242.20
421.91	244.05
422.28	245.90
422.66	248.07
423.03	250.15
423.40	252.16
423.77	254.37
424.15	256.52
424.52	258.82
424.89	261.44
425.26	263.87
425.64	266.16
426.01	268.70
426.38	271.35
426.75	274.05
427.13	276.92
427.50	279.77
427.87	282.81
428.24	285.84
428.61	288.74
428.99	292.01
429.36	295.46
429.73	298.98
430.10	302.40
430.47	305.70
430.85	309.27
431.22	313.12
431.59	317.38
431.96	321.30
432.33	325.65
432.70	329.72
433.08	334.59
433.45	339.17
433.82	343.71
434.19	348.82
434.56	353.85
434.93	358.60
435.30	363.41
435.68	368.60
436.05	373.80
436.42	378.88
436.79	383.44
437.16	388.49
437.53	393.65
437.90	398.86
438.27	404.09
438.64	409.27
439.01	414.31
439.38	418.53
439.75	422.75
440.13	427.48
440.50	431.89
440.87	435.57
441.24	439.42
441.61	443.61
441.98	446.61
442.35	450.15
442.72	453.62
443.09	457.09
443.46	459.06
443.83	460.36
444.20	461.56
444.57	463.45
444.94	464.08
445.31	464.90
445.68	465.64
446.05	465.82
446.42	465.26
446.79	464.34
447.16	463.39
447.53	462.69
447.90	460.58
448.27	458.58
448.64	455.72
449.01	453.53
449.37	449.96
449.74	446.59
450.11	442.49
450.48	438.19
450.85	433.53
451.22	429.72
451.59	426.18
451.96	422.66
452.33	417.93
452.70	413.81
453.07	408.73
453.43	403.53
453.80	398.67
454.17	393.87
454.54	389.45
454.91	384.74
455.28	380.14
455.65	375.81
456.02	371.52
456.38	367.84
456.75	363.30
457.12	359.42
457.49	355.61
457.86	351.93
458.23	348.74
458.59	345.38
458.96	341.84
459.33	338.68
459.70	335.56
460.07	333.00
460.43	330.09
460.80	327.46
461.17	325.12
461.54	322.72
461.91	320.47
462.27	318.18
462.64	316.16
463.01	313.99
463.38	312.01
463.74	309.81
464.11	307.94
464.48	306.29
464.85	304.53
465.21	303.28
465.58	301.84
465.95	300.13
466.32	298.73
466.68	297.33
467.05	295.95
467.42	294.50
467.78	293.11
468.15	291.83
468.52	290.90
468.88	289.60
469.25	288.40
469.62	287.53
469.98	286.46
470.35	285.60
470.72	284.69
471.08	283.66
471.45	282.89
471.82	282.16
472.18	281.33
472.55	280.74
472.92	279.89
473.28	279.31
473.65	278.70
474.02	278.07
474.38	277.71
474.75	277.38
475.11	277.08
475.48	276.87
475.85	276.61
476.21	276.35
476.58	276.25
476.94	276.19
477.31	276.02
477.67	276.08
478.04	276.15
478.41	276.31
478.77	276.61
479.14	276.74
479.50	276.91
479.87	277.33
480.23	277.76
480.60	278.10
480.96	278.49
481.33	279.12
481.69	279.84
482.06	280.47
482.42	281.03
482.79	281.73
483.15	282.47
483.52	283.39
483.88	284.40
484.25	285.48
484.61	286.52
484.98	287.74
485.34	289.04
485.71	290.38
486.07	291.85
486.44	293.13
486.80	294.70
487.17	296.30
487.53	297.96
487.90	299.79
488.26	301.80
488.62	303.86
488.99	305.85
489.35	307.97
489.72	310.33
490.08	312.81
490.44	315.30
490.81	317.95
491.17	320.65
491.54	323.48
491.90	326.40
492.26	329.54
492.63	332.83
492.99	336.19
493.36	339.84
493.72	343.67
494.08	347.70
494.45	352.00
494.81	356.66
495.17	361.23
495.54	366.11
495.90	371.13
496.26	376.38
496.63	381.92
496.99	387.68
497.35	393.58
497.72	399.80
498.08	406.26
498.44	412.99
498.80	420.17
499.17	427.59
499.53	435.26
499.89	443.27
500.26	451.27
500.62	459.55
500.98	468.30
501.34	477.20
501.71	486.55
502.07	496.02
502.43	505.88
502.79	516.16
503.16	526.70
503.52	537.60
503.88	548.74
504.24	560.27
504.60	572.17
504.97	584.45
505.33	596.97
505.69	610.25
506.05	623.82
506.41	637.33
506.78	651.15
507.14	665.12
507.50	679.67
507.86	694.74
508.22	710.33
508.59	725.75
508.95	741.83
509.31	757.95
509.67	774.60
510.03	791.41
510.39	808.77
510.75	826.34
511.12	844.41
511.48	862.64
511.84	881.12
512.20	899.62
512.56	918.75
512.92	938.11
513.28	957.47
513.64	977.10
514.00	996.62
514.37	1016.70
514.73	1037.66
515.09	1058.21
515.45	1078.96
515.81	1099.82
516.17	1121.05
516.53	1142.18
516.89	1163.90
517.25	1185.35
517.61	1206.98
517.97	1228.16
518.33	1249.73
518.69	1271.35
519.05	1293.25
519.41	1315.29
519.77	1337.99
520.13	1359.98
520.49	1381.89
520.85	1404.37
521.21	1426.69
521.57	1449.75
521.93	1471.59
522.29	1493.94
522.65	1516.21
523.01	1538.56
523.37	1560.64
523.73	1582.80
524.09	1604.84
524.45	1626.81
524.81	1649.02
525.17	1671.16
525.53	1693.82
525.89	1716.10
526.25	1737.73
526.61	1759.07
526.97	1780.50
527.33	1801.54
527.68	1822.85
528.04	1844.08
528.40	1864.44
528.76	1884.94
529.12	1905.19
529.48	1926.70
529.84	1946.70
530.20	1966.99
530.56	1987.13
530.91	2007.49
531.27	2027.52
531.63	2047.25
531.99	2066.86
532.35	2085.86
532.71	2104.69
533.07	2123.67
533.42	2141.66
533.78	2160.45
534.14	2178.94
534.50	2195.95
534.86	2213.74
535.21	2230.21
535.57	2247.47
535.93	2264.47
536.29	2281.09
536.65	2297.79
537.00	2313.01
537.36	2328.51
537.72	2343.70
538.08	2358.77
538.44	2373.93
538.79	2389.08
539.15	2404.01
539.51	2418.49
539.87	2434.04
540.22	2448.40
540.58	2462.93
540.94	2477.30
541.29	2490.26
541.65	2502.28
542.01	2515.79
542.37	2527.45
542.72	2539.66
543.08	2550.60
543.44	2562.22
543.79	2572.33
544.15	2582.45
544.51	2593.55
544.87	2604.27
545.22	2613.28
545.58	2621.75
545.94	2628.76
546.29	2635.19
546.65	2641.01
547.01	2646.99
547.36	2652.13
547.72	2657.40
548.07	2661.88
548.43	2665.54
548.79	2669.12
549.14	2673.14
549.50	2676.92
549.86	2680.76
550.21	2684.68
550.57	2688.48
550.92	2691.21
551.28	2693.51
551.64	2695.76
551.99	2697.67
552.35	2698.84
552.70	2701.34
553.06	2704.07
553.41	2707.09
553.77	2709.82
554.13	2712.38
554.48	2714.54
554.84	2715.71
555.19	2716.38
555.55	2716.22
555.90	2716.88
556.26	2717.20
556.61	2717.56
556.97	2716.45
557.32	2715.88
557.68	2713.80
558.03	2712.57
558.39	2710.62
558.74	2710.56
559.10	2709.22
559.45	2707.18
559.81	2705.79
560.16	2703.21
560.52	2700.39
560.87	2697.12
561.23	2693.47
561.58	2690.49
561.94	2687.16
562.29	2683.43
562.64	2680.97
563.00	2678.61
563.35	2676.13
563.71	2674.37
564.06	2672.18
564.42	2670.46
564.77	2667.50
565.12	2666.00
565.48	2662.47
565.83	2659.76
566.19	2656.21
566.54	2651.76
566.89	2647.87
567.25	2644.60
567.60	2641.26
567.96	2637.62
568.31	2634.24
568.66	2630.19
569.02	2625.69
569.37	2620.51
569.72	2616.44
570.08	2611.27
570.43	2605.48
570.78	2599.56
571.14	2593.17
571.49	2586.23
571.84	2579.51
572.20	2572.89
572.55	2566.15
572.90	2559.35
573.26	2552.39
573.61	2545.53
573.96	2539.48
574.31	2531.84
574.67	2523.76
575.02	2515.05
575.37	2506.70
575.72	2497.64
576.08	2490.35
576.43	2481.92
576.78	2474.03
577.13	2466.30
577.49	2457.96
577.84	2450.36
578.19	2442.83
578.54	2435.43
578.90	2428.64
579.25	2420.32
579.60	2411.25
579.95	2402.01
580.30	2394.12
580.66	2385.78
581.01	2376.65
581.36	2367.36
581.71	2359.43
582.06	2350.66
582.42	2342.91
582.77	2333.78
583.12	2325.04
583.47	2316.15
583.82	2307.79
584.17	2298.61
584.53	2289.52
584.88	2280.97
585.23	2271.95
585.58	2262.72
585.93	2253.02
586.28	2243.92
586.63	2235.18
586.98	2227.33
587.34	2219.10
587.69	2209.96
588.04	2201.01
588.39	2192.80
588.74	2183.96
589.09	2174.72
589.44	2165.81
589.79	2157.08
590.14	2149.38
590.49	2141.37
590.84	2132.66
591.19	2124.54
591.54	2116.16
591.89	2106.11
592.25	2096.99
592.60	2087.69
592.95	2078.46
593.30	2069.37
593.65	2059.69
594.00	2050.51
594.35	2042.14
594.70	2033.24
595.05	2024.87
595.40	2016.19
595.75	2006.70
596.10	1998.40
596.45	1990.23
596.80	1982.52
597.15	1974.69
597.50	1965.46
597.85	1956.93
598.19	1948.25
598.54	1939.83
598.89	1932.21
599.24	1925.82
599.59	1918.35
599.94	1911.17
600.29	1903.45
600.64	1895.53
600.99	1887.02
601.34	1879.64
601.69	1871.25
602.04	1863.12
602.39	1855.11
602.74	1847.32
603.08	1840.60
603.43	1833.69
603.78	1825.76
604.13	1817.35
604.48	1809.30
604.83	1802.60
605.18	1795.60
605.53	1788.14
605.87	1780.58
606.22	1773.19
606.57	1765.25
606.92	1757.43
607.27	1749.55
607.62	1742.61
607.96	1735.80
608.31	1729.97
608.66	1722.27
609.01	1714.54
609.36	1706.97
609.70	1699.07
610.05	1691.46
610.40	1683.37
610.75	1674.86
611.10	1667.34
611.44	1658.44
611.79	1649.48
612.14	1640.32
612.49	1630.91
612.83	1622.28
613.18	1612.74
613.53	1603.41
613.88	1593.85
614.22	1584.93
614.57	1575.98
614.92	1566.57
615.27	1557.27
615.61	1547.36
615.96	1538.20
616.31	1529.75
616.65	1521.82
617.00	1513.66
617.35	1504.95
617.70	1495.97
618.04	1486.88
618.39	1477.46
618.74	1468.98
619.08	1460.44
619.43	1452.08
619.78	1444.30
620.12	1436.30
620.47	1428.85
620.82	1420.55
621.16	1412.28
621.51	1404.05
621.85	1395.82
622.20	1387.44
622.55	1378.99
622.89	1371.05
623.24	1363.32
623.59	1354.95
623.93	1346.36
624.28	1338.10
624.62	1330.10
624.97	1322.30
625.32	1314.50
625.66	1307.42
626.01	1300.53
626.35	1293.43
626.70	1285.86
627.04	1278.40
627.39	1270.74
627.73	1263.18
628.08	1256.27
628.43	1249.16
628.77	1242.04
629.12	1234.59
629.46	1228.07
629.81	1220.93
630.15	1213.70
630.50	1206.49
630.84	1199.23
631.19	1191.87
631.53	1185.00
631.88	1177.47
632.22	1170.05
632.57	1163.46
632.91	1156.07
633.26	1148.55
633.60	1141.30
633.95	1134.70
634.29	1127.49
634.64	1120.83
634.98	1113.92
635.32	1106.95
635.67	1100.31
636.01	1093.54
636.36	1086.83
636.70	1080.14
637.05	1073.78
637.39	1067.28
637.73	1060.97
638.08	1055.20
638.42	1049.67
638.77	1043.38
639.11	1037.20
639.45	1031.13
639.80	1024.46
640.14	1018.21
640.49	1012.07
640.83	1005.85
641.17	999.45
641.52	993.41
641.86	986.97
642.20	980.73
642.55	974.01
642.89	967.99
643.23	961.63
643.58	955.95
643.92	949.08
644.26	942.92
644.61	937.04
644.95	931.01
645.29	924.68
645.64	918.05
645.98	911.72
646.32	905.90
646.66	899.84
647.01	894.00
647.35	888.21
647.69	881.92
648.04	876.08
648.38	870.15
648.72	864.03
649.06	857.89
649.41	852.07
649.75	846.42
650.09	840.37
650.43	834.53
650.78	828.08
651.12	822.38
651.46	816.67
651.80	810.73
652.14	804.77
652.49	798.93
652.83	793.31
653.17	787.32
653.51	781.35
653.85	775.67
654.20	769.81
654.54	763.90
654.88	758.61
655.22	753.03
655.56	747.15
655.90	741.53
656.25	736.09
656.59	730.47
656.93	725.39
657.27	720.27
657.61	714.76
657.95	709.74
658.29	704.78
658.64	699.83
658.98	694.63
659.32	689.37
659.66	684.30
660.00	679.09
660.34	674.07
660.68	669.03
661.02	663.93
661.36	659.31
661.70	654.62
662.05	649.84
662.39	645.24
662.73	641.05
663.07	636.71
663.41	632.43
663.75	627.98
664.09	623.23
664.43	618.51
664.77	614.24
665.11	610.01
665.45	605.64
665.79	601.17
666.13	596.91
666.47	592.70
666.81	588.40
667.15	584.34
667.49	580.67
667.83	576.80
668.17	573.06
668.51	569.25
668.85	565.52
669.19	561.98
669.53	558.24
669.87	554.18
670.21	550.43
670.55	546.53
670.89	543.02
671.23	539.69
671.57	536.15
671.91	532.77
672.25	529.25
672.58	525.85
672.92	522.36
673.26	519.10
673.60	515.99
673.94	512.78
674.28	509.51
674.62	506.31
674.96	503.20
675.30	500.09
675.64	497.05
675.97	493.91
676.31	490.74
676.65	487.79
676.99	485.18
677.33	482.21
677.67	479.35
678.01	476.32
678.34	473.36
678.68	470.55
679.02	467.60
679.36	464.70
679.70	461.85
680.04	459.16
680.37	456.24
680.71	453.40
681.05	450.88
681.39	448.23
681.73	445.48
682.06	442.97
682.40	440.47
682.74	437.74
683.08	435.27
683.42	432.66
683.75	430.09
684.09	427.38
684.43	424.95
684.77	422.40
685.10	420.04
685.44	417.47
685.78	415.10
686.12	412.79
686.45	410.50
686.79	408.28
687.13	406.01
687.46	403.97
687.80	401.83
688.14	399.41
688.48	397.31
688.81	395.10
689.15	392.88
689.49	390.62
689.82	388.45
690.16	386.12
690.50	383.93
690.83	381.66
691.17	379.53
691.51	377.33
691.84	375.30
692.18	373.20
692.52	371.39
692.85	369.45
693.19	367.58
693.52	365.71
693.86	363.71
694.20	361.89
694.53	359.90
694.87	357.85
695.21	356.00
695.54	354.05
695.88	352.11
696.21	350.25
696.55	348.56
696.88	346.81
697.22	345.13
697.56	343.62
697.89	342.04
698.23	340.40
698.56	338.85
698.90	337.40
699.23	335.83
699.57	334.12
699.90	332.52
700.24	330.82
700.58	329.13
700.91	327.71
701.25	326.28
701.58	324.94
701.92	323.63
702.25	322.25
702.59	320.88
702.92	319.54
703.26	318.21
703.59	316.83
703.93	315.69
704.26	314.51
704.60	313.15
704.93	311.85
705.26	310.66
705.60	309.45
705.93	308.09
706.27	306.93
706.60	305.91
706.94	304.95
707.27	303.81
707.61	302.73
707.94	301.50
708.27	300.28
708.61	299.05
708.94	297.93
709.28	296.84
709.61	295.81
709.94	294.89
710.28	293.88
710.61	292.89
710.95	291.74
711.28	290.73
711.61	289.80
711.95	288.92
712.28	287.93
712.61	286.94
712.95	286.07
713.28	285.19
713.61	284.16
713.95	283.11
714.28	282.33
714.61	281.41
714.95	280.65
715.28	279.70
715.61	278.82
715.95	277.92
716.28	277.10
716.61	276.17
716.95	275.16
717.28	274.41
717.61	273.64
717.94	272.95
718.28	272.09
718.61	271.26
718.94	270.49
719.27	269.71
719.61	269.07
719.94	268.39
720.27	267.55
720.60	266.85
720.94	266.14
721.27	265.43
721.60	264.85
721.93	264.14
722.27	263.62
722.60	263.07
722.93	262.48
723.26	261.93
723.59	261.44
723.93	260.94
724.26	260.37
724.59	259.79
724.92	259.22
725.25	258.73
725.59	258.24
725.92	257.70
726.25	257.15
726.58	256.54
726.91	255.97
727.24	255.54
727.57	255.14
727.91	254.68
728.24	254.15
728.57	253.66
728.90	253.25
729.23	252.66
729.56	252.28
729.89	251.87
730.22	251.34
730.55	250.82
730.89	250.42
731.22	249.81
731.55	249.35
731.88	248.91
732.21	248.40
732.54	247.85
732.87	247.39
733.20	247.06
733.53	246.66
733.86	246.22
734.19	245.76
734.52	245.26
734.85	244.84
735.18	244.48
735.51	244.08
735.84	243.67
736.17	243.39
736.50	242.81
736.83	242.66
737.16	242.37
737.49	241.99
737.82	241.56
738.15	241.28
738.48	240.94
738.81	240.53
739.14	240.13
739.47	239.79
739.80	239.45
740.13	239.12
740.46	238.81
740.79	238.49
741.12	238.21
741.45	237.92
741.78	237.58
742.11	237.26
742.44	236.98
742.77	236.67
743.10	236.34
743.43	236.11
743.75	235.47
744.08	235.27
744.41	234.93
744.74	234.64
745.07	234.29
745.40	234.03
745.73	233.75
746.06	233.55
746.39	233.38
746.71	233.11
747.04	232.80
747.37	232.41
747.70	232.21
748.03	231.94
748.36	231.71
748.68	231.51
749.01	231.27
749.34	231.06
749.67	230.84
750.00	230.60
750.33	230.54
750.65	230.43
750.98	230.12
751.31	229.96
751.64	229.75
751.97	229.70
752.29	229.44
752.62	229.23
752.95	229.03
753.28	228.80
753.60	228.60
753.93	228.44
754.26	228.27
754.59	227.98
754.91	227.71
755.24	227.44
755.57	227.24
755.90	227.05
756.22	226.74
756.55	226.53
756.88	226.29
757.20	225.96
757.53	225.76
757.86	225.52
758.19	225.37
758.51	225.24
758.84	224.90
759.17	224.70
759.49	224.54
759.82	224.39
760.15	224.21
760.47	224.00
760.80	223.78
761.13	223.62
761.45	223.45
761.78	223.35
762.11	223.28
762.43	223.12
762.76	222.99
763.08	222.97
763.41	222.85
763.74	222.69
764.06	222.59
764.39	222.38
764.71	222.24
765.04	222.02
765.37	221.84
765.69	221.77
766.02	221.57
766.34	221.37
766.67	221.16
767.00	221.10
767.32	221.06
767.65	221.06
767.97	220.94
768.30	220.85
768.62	220.68
768.95	220.53
769.27	220.39
769.60	220.30
769.92	220.08
770.25	219.89
770.57	219.83
770.90	219.59
771.22	219.48
771.55	219.35
771.87	219.29
772.20	219.18
772.52	219.20
772.85	219.37
773.17	219.39
773.50	219.29
773.82	219.13
774.15	218.94
774.47	218.67
774.80	218.60
775.12	218.49
775.45	218.38
775.77	218.30
776.09	218.25
776.42	218.17
776.74	218.19
777.07	218.11
777.39	218.00
777.72	217.98
778.04	217.94
778.36	217.89
778.69	217.88
779.01	217.88
779.33	217.66
779.66	217.42
779.98	217.27
780.31	217.17
780.63	217.17
780.95	217.19
781.28	217.15
781.60	217.09
781.92	217.01
782.25	216.98
782.57	216.90
782.89	216.77
783.22	216.58
783.54	216.48
783.86	216.41
784.19	216.34
784.51	216.36
784.83	216.28
785.16	216.17
785.48	216.11
785.80	216.08
786.12	216.07
786.45	215.99
