SpectraSuite Data File
++++++++++++++++++++++++++++++++++++
Date: Mon Feb 25 17:35:11 EST 2013
User: group
Dark Spectrum Present: No
Reference Spectrum Present: No
Number of Sampled Component Spectra: 1
Spectrometers: USB2E7196
Integration Time (usec): 52000 (USB2E7196)
Spectra Averaged: 20 (USB2E7196)
Boxcar Smoothing: 10 (USB2E7196)
Correct for Electrical Dark: No (USB2E7196)
Strobe/Lamp Enabled: No (USB2E7196)
Correct for Detector Non-linearity: No (USB2E7196)
Correct for Stray Light: No (USB2E7196)
Number of Pixels in Processed Spectrum: 2048
>>>>>Begin Processed Spectral Data<<<<<
339.09	0.00
339.48	199.35
339.86	199.85
340.24	202.95
340.63	203.35
341.01	208.50
341.39	206.45
341.78	208.55
342.16	209.45
342.54	209.05
342.93	198.52
343.31	208.56
343.69	209.08
344.07	209.55
344.46	209.93
344.84	210.31
345.22	210.46
345.60	210.66
345.99	210.77
346.37	210.79
346.75	210.94
347.13	211.01
347.52	211.05
347.90	211.13
348.28	211.09
348.66	211.15
349.05	211.10
349.43	211.18
349.81	211.17
350.19	211.27
350.57	211.35
350.96	211.39
351.34	211.42
351.72	211.53
352.10	211.66
352.48	211.71
352.87	211.72
353.25	211.77
353.63	211.84
354.01	211.91
354.39	211.98
354.77	212.02
355.15	212.11
355.54	212.19
355.92	212.19
356.30	212.24
356.68	212.42
357.06	212.48
357.44	212.44
357.82	212.52
358.20	212.56
358.58	212.63
358.97	212.69
359.35	212.79
359.73	212.86
360.11	212.90
360.49	212.99
360.87	213.03
361.25	213.06
361.63	213.22
362.01	213.24
362.39	213.35
362.77	213.38
363.15	213.50
363.53	213.47
363.91	213.49
364.29	213.56
364.67	213.36
365.05	213.49
365.43	213.51
365.81	213.54
366.19	213.68
366.57	213.78
366.95	213.75
367.33	213.76
367.71	213.72
368.09	213.76
368.47	213.67
368.85	213.67
369.23	213.64
369.61	213.48
369.99	213.58
370.37	213.49
370.75	213.50
371.13	213.39
371.51	213.38
371.89	213.39
372.27	213.39
372.65	213.44
373.03	213.28
373.41	213.23
373.78	213.31
374.16	213.21
374.54	213.07
374.92	213.05
375.30	212.96
375.68	212.84
376.06	212.81
376.44	212.81
376.82	212.83
377.19	212.82
377.57	212.89
377.95	212.76
378.33	212.77
378.71	212.68
379.09	212.65
379.47	212.69
379.84	212.62
380.22	212.55
380.60	212.46
380.98	212.51
381.36	212.51
381.73	212.31
382.11	212.34
382.49	212.29
382.87	212.28
383.25	212.27
383.62	212.54
384.00	212.45
384.38	212.45
384.76	212.46
385.13	212.53
385.51	212.45
385.89	212.41
386.27	212.37
386.64	212.34
387.02	212.30
387.40	212.19
387.78	212.18
388.15	212.17
388.53	212.13
388.91	212.10
389.29	212.04
389.66	212.07
390.04	211.94
390.42	212.00
390.79	211.97
391.17	211.92
391.55	211.69
391.92	211.65
392.30	211.59
392.68	211.50
393.05	211.42
393.43	211.39
393.81	211.41
394.18	211.35
394.56	211.35
394.94	211.36
395.31	211.33
395.69	211.42
396.06	211.44
396.44	211.49
396.82	211.40
397.19	211.53
397.57	211.55
397.95	211.63
398.32	211.60
398.70	211.60
399.07	211.75
399.45	211.77
399.82	211.89
400.20	211.97
400.58	211.97
400.95	211.96
401.33	212.08
401.70	212.24
402.08	212.40
402.45	212.48
402.83	212.64
403.20	212.78
403.58	212.82
403.95	212.96
404.33	213.06
404.71	213.19
405.08	213.33
405.46	213.49
405.83	213.59
406.21	213.76
406.58	213.94
406.96	214.05
407.33	214.24
407.70	214.39
408.08	214.70
408.45	214.96
408.83	215.22
409.20	215.45
409.58	215.58
409.95	215.75
410.33	216.07
410.70	216.35
411.08	216.65
411.45	217.00
411.82	217.30
412.20	217.68
412.57	218.20
412.95	218.55
413.32	219.04
413.69	219.66
414.07	220.25
414.44	220.92
414.82	221.53
415.19	222.32
415.56	223.13
415.94	223.89
416.31	224.83
416.68	225.77
417.06	226.80
417.43	227.83
417.81	229.00
418.18	230.15
418.55	231.34
418.93	232.68
419.30	234.01
419.67	235.48
420.04	236.94
420.42	238.52
420.79	240.31
421.16	242.09
421.54	243.90
421.91	245.75
422.28	247.65
422.66	249.72
423.03	251.75
423.40	253.77
423.77	256.00
424.15	258.20
424.52	260.51
424.89	263.07
425.26	265.55
425.64	267.92
426.01	270.47
426.38	273.20
426.75	275.91
427.13	278.75
427.50	281.71
427.87	284.87
428.24	287.87
428.61	290.82
428.99	294.05
429.36	297.47
429.73	300.95
430.10	304.45
430.47	308.02
430.85	311.64
431.22	315.54
431.59	319.71
431.96	323.74
432.33	328.16
432.70	332.34
433.08	337.37
433.45	341.97
433.82	346.65
434.19	351.84
434.56	356.87
434.93	361.82
435.30	366.59
435.68	371.88
436.05	377.16
436.42	382.39
436.79	387.13
437.16	392.31
437.53	397.73
437.90	403.06
438.27	408.32
438.64	413.75
439.01	418.81
439.38	423.26
439.75	427.39
440.13	432.24
440.50	436.77
440.87	440.51
441.24	444.37
441.61	448.60
441.98	451.70
442.35	455.26
442.72	458.89
443.09	462.50
443.46	464.56
443.83	465.91
444.20	467.09
444.57	468.95
444.94	469.63
445.31	470.24
445.68	471.09
446.05	471.31
446.42	470.65
446.79	469.94
447.16	469.12
447.53	468.66
447.90	466.43
448.27	464.39
448.64	461.34
449.01	459.34
449.37	455.77
449.74	452.10
450.11	447.90
450.48	443.35
450.85	438.70
451.22	434.81
451.59	431.04
451.96	427.35
452.33	422.49
452.70	418.16
453.07	413.14
453.43	407.70
453.80	402.69
454.17	397.92
454.54	393.26
454.91	388.29
455.28	383.41
455.65	379.15
456.02	374.76
456.38	371.05
456.75	366.33
457.12	362.31
457.49	358.46
457.86	354.81
458.23	351.54
458.59	348.00
458.96	344.33
459.33	341.16
459.70	338.06
460.07	335.39
460.43	332.52
460.80	329.82
461.17	327.47
461.54	324.89
461.91	322.46
462.27	319.98
462.64	317.93
463.01	315.73
463.38	313.51
463.74	311.28
464.11	309.42
464.48	307.70
464.85	305.90
465.21	304.65
465.58	303.20
465.95	301.44
466.32	300.01
466.68	298.53
467.05	297.17
467.42	295.72
467.78	294.32
468.15	292.92
468.52	291.84
468.88	290.43
469.25	289.28
469.62	288.31
469.98	287.40
470.35	286.48
470.72	285.66
471.08	284.67
471.45	283.83
471.82	282.98
472.18	282.14
472.55	281.64
472.92	280.90
473.28	280.29
473.65	279.67
474.02	279.12
474.38	278.77
474.75	278.37
475.11	277.90
475.48	277.64
475.85	277.46
476.21	277.25
476.58	277.20
476.94	277.09
477.31	277.04
477.67	277.02
478.04	277.03
478.41	277.07
478.77	277.40
479.14	277.49
479.50	277.78
479.87	278.18
480.23	278.53
480.60	278.83
480.96	279.25
481.33	279.92
481.69	280.44
482.06	281.08
482.42	281.70
482.79	282.45
483.15	283.25
483.52	284.23
483.88	285.13
484.25	286.10
484.61	287.19
484.98	288.28
485.34	289.54
485.71	290.85
486.07	292.29
486.44	293.48
486.80	295.05
487.17	296.60
487.53	298.34
487.90	300.13
488.26	302.13
488.62	304.16
488.99	306.15
489.35	308.37
489.72	310.59
490.08	313.00
490.44	315.53
490.81	318.29
491.17	320.90
491.54	323.92
491.90	326.95
492.26	330.14
492.63	333.53
492.99	336.98
493.36	340.64
493.72	344.50
494.08	348.66
494.45	353.01
494.81	357.50
495.17	362.03
495.54	366.96
495.90	372.05
496.26	377.30
496.63	382.81
496.99	388.52
497.35	394.51
497.72	400.86
498.08	407.35
498.44	414.06
498.80	421.30
499.17	428.71
499.53	436.30
499.89	444.21
500.26	452.34
500.62	460.65
500.98	469.51
501.34	478.50
501.71	487.89
502.07	497.69
502.43	507.75
502.79	518.04
503.16	528.64
503.52	539.51
503.88	550.80
504.24	562.39
504.60	574.44
504.97	586.79
505.33	599.34
505.69	612.76
506.05	626.17
506.41	639.74
506.78	653.43
507.14	667.59
507.50	682.31
507.86	697.32
508.22	712.71
508.59	728.15
508.95	744.25
509.31	760.59
509.67	777.14
510.03	793.98
510.39	811.66
510.75	829.61
511.12	847.85
511.48	866.29
511.84	885.18
512.20	903.87
512.56	923.06
512.92	942.68
513.28	962.20
513.64	982.24
514.00	1002.30
514.37	1022.79
514.73	1043.53
515.09	1064.53
515.45	1085.77
515.81	1107.25
516.17	1128.74
516.53	1150.15
516.89	1172.10
517.25	1193.86
517.61	1215.77
517.97	1237.47
518.33	1258.98
518.69	1280.70
519.05	1303.11
519.41	1325.30
519.77	1348.21
520.13	1370.65
520.49	1392.93
520.85	1415.72
521.21	1438.14
521.57	1461.22
521.93	1483.42
522.29	1506.56
522.65	1528.99
523.01	1551.62
523.37	1573.76
523.73	1596.38
524.09	1618.97
524.45	1641.44
524.81	1663.91
525.17	1686.57
525.53	1708.93
525.89	1731.53
526.25	1753.90
526.61	1775.14
526.97	1796.90
527.33	1818.07
527.68	1839.75
528.04	1861.01
528.40	1881.50
528.76	1902.63
529.12	1923.51
529.48	1945.30
529.84	1965.89
530.20	1986.82
530.56	2007.45
530.91	2028.54
531.27	2049.33
531.63	2069.45
531.99	2089.22
532.35	2108.39
532.71	2127.51
533.07	2147.47
533.42	2166.17
533.78	2184.91
534.14	2203.63
534.50	2221.08
534.86	2239.64
535.21	2256.63
535.57	2274.64
535.93	2292.30
536.29	2309.33
536.65	2326.30
537.00	2341.99
537.36	2357.46
537.72	2372.73
538.08	2387.94
538.44	2403.51
538.79	2418.85
539.15	2433.96
539.51	2448.97
539.87	2465.00
540.22	2479.86
540.58	2494.89
540.94	2509.70
541.29	2523.15
541.65	2535.65
542.01	2549.44
542.37	2561.30
542.72	2573.63
543.08	2584.71
543.44	2596.70
543.79	2607.15
544.15	2617.42
544.51	2629.00
544.87	2640.30
545.22	2649.82
545.58	2658.55
545.94	2665.95
546.29	2672.74
546.65	2679.19
547.01	2685.63
547.36	2691.11
547.72	2696.99
548.07	2700.92
548.43	2704.78
548.79	2709.17
549.14	2714.14
549.50	2718.14
549.86	2722.28
550.21	2726.92
550.57	2731.30
550.92	2734.11
551.28	2737.19
551.64	2739.80
551.99	2742.08
552.35	2743.69
552.70	2746.61
553.06	2749.43
553.41	2752.38
553.77	2755.22
554.13	2757.47
554.48	2759.27
554.84	2761.09
555.19	2761.61
555.55	2762.34
555.90	2763.27
556.26	2763.70
556.61	2763.79
556.97	2762.66
557.32	2762.77
557.68	2760.89
558.03	2759.82
558.39	2758.55
558.74	2758.22
559.10	2757.25
559.45	2755.35
559.81	2754.63
560.16	2752.01
560.52	2749.86
560.87	2747.04
561.23	2743.39
561.58	2741.44
561.94	2737.99
562.29	2734.24
562.64	2731.97
563.00	2729.71
563.35	2727.51
563.71	2725.56
564.06	2723.53
564.42	2721.79
564.77	2718.96
565.12	2716.99
565.48	2713.38
565.83	2710.26
566.19	2706.84
566.54	2702.70
566.89	2699.20
567.25	2695.24
567.60	2691.90
567.96	2688.16
568.31	2684.71
568.66	2681.06
569.02	2676.31
569.37	2671.76
569.72	2667.98
570.08	2662.89
570.43	2657.37
570.78	2651.25
571.14	2644.92
571.49	2637.96
571.84	2632.12
572.20	2625.59
572.55	2619.42
572.90	2612.63
573.26	2605.65
573.61	2598.46
573.96	2591.67
574.31	2583.46
574.67	2575.22
575.02	2566.75
575.37	2558.07
575.72	2548.73
576.08	2540.80
576.43	2532.09
576.78	2524.29
577.13	2516.02
577.49	2507.58
577.84	2499.53
578.19	2492.13
578.54	2484.62
578.90	2477.90
579.25	2469.20
579.60	2459.98
579.95	2450.51
580.30	2442.35
580.66	2434.17
581.01	2425.07
581.36	2416.07
581.71	2407.86
582.06	2399.53
582.42	2391.28
582.77	2382.29
583.12	2373.63
583.47	2365.05
583.82	2356.68
584.17	2347.07
584.53	2337.92
584.88	2329.01
585.23	2319.85
585.58	2310.07
585.93	2300.28
586.28	2290.82
586.63	2281.91
586.98	2273.20
587.34	2264.77
587.69	2255.53
588.04	2246.15
588.39	2237.62
588.74	2228.11
589.09	2219.22
589.44	2209.33
589.79	2200.61
590.14	2192.62
590.49	2184.15
590.84	2175.04
591.19	2166.65
591.54	2158.05
591.89	2147.78
592.25	2138.56
592.60	2129.01
592.95	2119.29
593.30	2109.78
593.65	2099.73
594.00	2089.83
594.35	2081.61
594.70	2072.17
595.05	2063.47
595.40	2054.63
595.75	2044.85
596.10	2036.72
596.45	2027.79
596.80	2019.98
597.15	2011.56
597.50	2001.92
597.85	1993.55
598.19	1984.70
598.54	1976.04
598.89	1967.96
599.24	1961.37
599.59	1953.64
599.94	1946.50
600.29	1938.94
600.64	1930.91
600.99	1922.53
601.34	1915.20
601.69	1906.16
602.04	1897.89
602.39	1889.60
602.74	1881.62
603.08	1875.00
603.43	1867.59
603.78	1859.59
604.13	1851.40
604.48	1843.09
604.83	1836.47
605.18	1829.04
605.53	1821.44
605.87	1813.59
606.22	1806.61
606.57	1798.45
606.92	1790.27
607.27	1781.91
607.62	1774.59
607.96	1767.70
608.31	1761.30
608.66	1753.41
609.01	1745.85
609.36	1738.20
609.70	1730.59
610.05	1722.85
610.40	1714.60
610.75	1706.07
611.10	1698.27
611.44	1689.07
611.79	1680.06
612.14	1670.54
612.49	1660.69
612.83	1651.68
613.18	1641.98
613.53	1632.19
613.88	1621.91
614.22	1612.99
614.57	1603.50
614.92	1594.06
615.27	1584.39
615.61	1574.46
615.96	1565.55
616.31	1556.89
616.65	1548.80
617.00	1540.08
617.35	1531.30
617.70	1521.95
618.04	1512.84
618.39	1503.48
618.74	1494.85
619.08	1486.13
619.43	1477.63
619.78	1469.89
620.12	1461.67
620.47	1453.89
620.82	1445.19
621.16	1437.18
621.51	1428.65
621.85	1420.50
622.20	1411.65
622.55	1403.38
622.89	1395.05
623.24	1386.77
623.59	1378.05
623.93	1369.27
624.28	1361.09
624.62	1352.88
624.97	1344.66
625.32	1336.79
625.66	1329.47
626.01	1322.08
626.35	1314.85
626.70	1307.00
627.04	1299.63
627.39	1291.99
627.73	1284.42
628.08	1277.62
628.43	1270.28
628.77	1262.66
629.12	1255.05
629.46	1248.30
629.81	1240.94
630.15	1233.55
630.50	1226.19
630.84	1218.93
631.19	1211.78
631.53	1204.49
631.88	1196.60
632.22	1189.28
632.57	1182.26
632.91	1174.64
633.26	1166.94
633.60	1159.74
633.95	1153.05
634.29	1145.50
634.64	1138.69
634.98	1131.44
635.32	1124.36
635.67	1117.80
636.01	1111.28
636.36	1104.57
636.70	1097.91
637.05	1091.25
637.39	1084.86
637.73	1078.40
638.08	1072.51
638.42	1066.67
638.77	1060.13
639.11	1053.83
639.45	1047.71
639.80	1041.15
640.14	1034.60
640.49	1028.58
640.83	1022.16
641.17	1015.59
641.52	1009.45
641.86	1002.84
642.20	996.59
642.55	989.65
642.89	983.24
643.23	976.80
643.58	970.87
643.92	964.42
644.26	958.24
644.61	951.98
644.95	945.79
645.29	939.28
645.64	932.45
645.98	926.06
646.32	920.16
646.66	913.84
647.01	907.64
647.35	901.60
647.69	895.36
648.04	889.46
648.38	883.35
648.72	877.13
649.06	870.93
649.41	864.88
649.75	859.23
650.09	853.19
650.43	847.22
650.78	840.80
651.12	834.60
651.46	828.66
651.80	822.85
652.14	816.77
652.49	810.80
652.83	804.89
653.17	799.15
653.51	793.39
653.85	787.63
654.20	781.83
654.54	776.17
654.88	770.57
655.22	764.62
655.56	758.80
655.90	753.04
656.25	747.46
656.59	742.01
656.93	736.59
657.27	731.45
657.61	725.92
657.95	720.80
658.29	715.69
658.64	710.68
658.98	705.33
659.32	700.02
659.66	694.78
660.00	689.33
660.34	684.02
660.68	678.70
661.02	673.64
661.36	668.85
661.70	664.03
662.05	659.42
662.39	654.98
662.73	650.63
663.07	646.32
663.41	641.95
663.75	637.37
664.09	632.74
664.43	627.95
664.77	623.63
665.11	619.15
665.45	614.74
665.79	610.20
666.13	605.82
666.47	601.67
666.81	597.54
667.15	593.46
667.49	589.59
667.83	585.68
668.17	581.88
668.51	578.01
668.85	574.14
669.19	570.20
669.53	566.18
669.87	562.14
670.21	558.13
670.55	554.10
670.89	550.53
671.23	547.09
671.57	543.58
671.91	539.97
672.25	536.40
672.58	532.88
672.92	529.37
673.26	526.23
673.60	522.83
673.94	519.37
674.28	516.11
674.62	512.85
674.96	509.70
675.30	506.41
675.64	503.13
675.97	499.88
676.31	496.90
676.65	494.03
676.99	491.36
677.33	488.38
677.67	485.51
678.01	482.31
678.34	479.27
678.68	476.19
679.02	473.34
679.36	470.57
679.70	467.66
680.04	464.74
680.37	461.79
680.71	458.91
681.05	456.29
681.39	453.60
681.73	450.80
682.06	448.20
682.40	445.64
682.74	443.05
683.08	440.60
683.42	437.78
683.75	435.08
684.09	432.29
684.43	429.76
684.77	427.18
685.10	424.65
685.44	422.13
685.78	419.71
686.12	417.31
686.45	414.83
686.79	412.56
687.13	410.42
687.46	408.15
687.80	405.92
688.14	403.61
688.48	401.37
688.81	399.13
689.15	396.82
689.49	394.55
689.82	392.24
690.16	389.74
690.50	387.58
690.83	385.23
691.17	383.02
691.51	380.74
691.84	378.57
692.18	376.60
692.52	374.57
692.85	372.74
693.19	370.83
693.52	368.84
693.86	366.70
694.20	364.70
694.53	362.77
694.87	360.85
695.21	358.81
695.54	356.88
695.88	355.00
696.21	353.12
696.55	351.30
696.88	349.60
697.22	347.91
697.56	346.30
697.89	344.74
698.23	343.00
698.56	341.55
698.90	340.08
699.23	338.45
699.57	336.80
699.90	335.03
700.24	333.24
700.58	331.68
700.91	330.27
701.25	328.78
701.58	327.36
701.92	325.93
702.25	324.66
702.59	323.35
702.92	322.05
703.26	320.69
703.59	319.46
703.93	318.28
704.26	317.13
704.60	315.82
704.93	314.55
705.26	313.36
705.60	312.13
705.93	310.86
706.27	309.66
706.60	308.57
706.94	307.53
707.27	306.39
707.61	305.35
707.94	304.27
708.27	302.98
708.61	301.72
708.94	300.61
709.28	299.40
709.61	298.27
709.94	297.11
710.28	296.12
710.61	295.00
710.95	293.77
711.28	292.81
711.61	291.75
711.95	290.83
712.28	289.67
712.61	288.57
712.95	287.61
713.28	286.68
713.61	285.64
713.95	284.72
714.28	283.89
714.61	282.90
714.95	281.91
715.28	280.97
715.61	280.03
715.95	279.13
716.28	278.26
716.61	277.46
716.95	276.68
717.28	275.67
717.61	274.85
717.94	274.08
718.28	273.12
718.61	272.22
718.94	271.37
719.27	270.74
719.61	269.99
719.94	269.30
720.27	268.51
720.60	267.77
720.94	266.95
721.27	266.12
721.60	265.49
721.93	264.86
722.27	264.30
722.60	263.81
722.93	263.15
723.26	262.45
723.59	261.76
723.93	261.14
724.26	260.60
724.59	260.08
724.92	259.47
725.25	258.93
725.59	258.46
725.92	257.93
726.25	257.35
726.58	256.85
726.91	256.23
727.24	255.73
727.57	255.23
727.91	254.69
728.24	254.24
728.57	253.68
728.90	253.13
729.23	252.70
729.56	252.18
729.89	251.77
730.22	251.44
730.55	250.95
730.89	250.51
731.22	250.08
731.55	249.55
731.88	249.15
732.21	248.70
732.54	248.22
732.87	247.79
733.20	247.43
733.53	246.94
733.86	246.53
734.19	246.03
734.52	245.72
734.85	245.48
735.18	245.05
735.51	244.75
735.84	244.47
736.17	244.11
736.50	243.63
736.83	243.46
737.16	243.03
737.49	242.65
737.82	242.21
738.15	241.84
738.48	241.52
738.81	241.13
739.14	240.85
739.47	240.58
739.80	240.21
740.13	239.93
740.46	239.57
740.79	239.29
741.12	239.02
741.45	238.59
741.78	238.28
742.11	238.07
742.44	237.69
742.77	237.35
743.10	237.01
743.43	236.80
743.75	236.36
744.08	236.30
744.41	236.00
744.74	235.74
745.07	235.47
745.40	235.21
745.73	234.96
746.06	234.65
746.39	234.41
746.71	234.13
747.04	233.84
747.37	233.63
747.70	233.37
748.03	233.15
748.36	232.98
748.68	232.65
749.01	232.38
749.34	232.06
749.67	231.90
750.00	231.64
750.33	231.46
750.65	231.14
750.98	230.70
751.31	230.56
751.64	230.33
751.97	230.14
752.29	229.86
752.62	229.65
752.95	229.43
753.28	229.11
753.60	228.84
753.93	228.65
754.26	228.44
754.59	228.17
754.91	227.93
755.24	227.69
755.57	227.45
755.90	227.26
756.22	227.14
756.55	226.90
756.88	226.70
757.20	226.46
757.53	226.26
757.86	226.05
758.19	225.77
758.51	225.64
758.84	225.39
759.17	225.26
759.49	225.08
759.82	224.95
760.15	224.77
760.47	224.67
760.80	224.43
761.13	224.34
761.45	224.16
761.78	224.00
762.11	223.82
762.43	223.66
762.76	223.42
763.08	223.25
763.41	223.14
763.74	222.97
764.06	222.85
764.39	222.73
764.71	222.59
765.04	222.49
765.37	222.32
765.69	222.13
766.02	222.02
766.34	221.85
766.67	221.66
767.00	221.64
767.32	221.54
767.65	221.52
767.97	221.37
768.30	221.30
768.62	221.11
768.95	220.97
769.27	220.88
769.60	220.82
769.92	220.71
770.25	220.56
770.57	220.47
770.90	220.30
771.22	220.20
771.55	220.09
771.87	220.03
772.20	219.94
772.52	220.03
772.85	219.96
773.17	219.92
773.50	219.77
773.82	219.60
774.15	219.45
774.47	219.24
774.80	219.16
775.12	219.12
775.45	219.12
775.77	219.06
776.09	219.00
776.42	218.90
776.74	218.88
777.07	218.76
777.39	218.64
777.72	218.57
778.04	218.44
778.36	218.41
778.69	218.27
779.01	218.20
779.33	218.07
779.66	217.93
779.98	217.82
780.31	217.80
780.63	217.83
780.95	217.78
781.28	217.70
781.60	217.54
781.92	217.41
782.25	217.36
782.57	217.27
782.89	217.18
783.22	217.15
783.54	217.03
783.86	217.00
784.19	216.95
784.51	216.89
784.83	216.77
785.16	216.61
785.48	216.58
785.80	216.50
786.12	216.38
786.45	216.30
