SpectraSuite Data File
++++++++++++++++++++++++++++++++++++
Date: Mon Feb 25 17:35:54 EST 2013
User: group
Dark Spectrum Present: No
Reference Spectrum Present: No
Number of Sampled Component Spectra: 1
Spectrometers: USB2E7196
Integration Time (usec): 52000 (USB2E7196)
Spectra Averaged: 20 (USB2E7196)
Boxcar Smoothing: 10 (USB2E7196)
Correct for Electrical Dark: No (USB2E7196)
Strobe/Lamp Enabled: No (USB2E7196)
Correct for Detector Non-linearity: No (USB2E7196)
Correct for Stray Light: No (USB2E7196)
Number of Pixels in Processed Spectrum: 2048
>>>>>Begin Processed Spectral Data<<<<<
339.09	0.00
339.48	199.30
339.86	200.55
340.24	202.50
340.63	202.30
341.01	207.35
341.39	204.80
341.78	207.40
342.16	208.85
342.54	208.50
342.93	198.41
343.31	208.50
343.69	209.03
344.07	209.49
344.46	209.90
344.84	210.31
345.22	210.58
345.60	210.89
345.99	211.13
346.37	211.25
346.75	211.40
347.13	211.45
347.52	211.61
347.90	211.79
348.28	211.76
348.66	211.85
349.05	211.83
349.43	211.90
349.81	212.04
350.19	212.12
350.57	212.27
350.96	212.41
351.34	212.49
351.72	212.64
352.10	212.73
352.48	212.82
352.87	212.92
353.25	212.96
353.63	213.01
354.01	213.00
354.39	213.10
354.77	213.22
355.15	213.37
355.54	213.40
355.92	213.41
356.30	213.44
356.68	213.60
357.06	213.74
357.44	213.77
357.82	213.73
358.20	213.85
358.58	213.80
358.97	213.77
359.35	213.85
359.73	213.91
360.11	214.00
360.49	214.07
360.87	214.13
361.25	214.18
361.63	214.25
362.01	214.38
362.39	214.38
362.77	214.36
363.15	214.39
363.53	214.37
363.91	214.35
364.29	214.43
364.67	214.28
365.05	214.24
365.43	214.25
365.81	214.34
366.19	214.34
366.57	214.47
366.95	214.47
367.33	214.37
367.71	214.38
368.09	214.44
368.47	214.44
368.85	214.44
369.23	214.45
369.61	214.43
369.99	214.40
370.37	214.38
370.75	214.51
371.13	214.41
371.51	214.45
371.89	214.43
372.27	214.38
372.65	214.30
373.03	214.32
373.41	214.26
373.78	214.25
374.16	214.11
374.54	214.00
374.92	214.01
375.30	214.02
375.68	213.97
376.06	213.88
376.44	213.83
376.82	213.81
377.19	213.79
377.57	213.75
377.95	213.65
378.33	213.67
378.71	213.50
379.09	213.45
379.47	213.39
379.84	213.35
380.22	213.31
380.60	213.33
380.98	213.25
381.36	213.19
381.73	213.07
382.11	213.10
382.49	213.01
382.87	212.86
383.25	212.79
383.62	212.88
384.00	212.83
384.38	212.80
384.76	212.73
385.13	212.64
385.51	212.60
385.89	212.54
386.27	212.48
386.64	212.42
387.02	212.44
387.40	212.39
387.78	212.39
388.15	212.36
388.53	212.26
388.91	212.21
389.29	212.20
389.66	212.22
390.04	212.22
390.42	212.19
390.79	212.25
391.17	212.18
391.55	212.05
391.92	212.07
392.30	212.05
392.68	212.06
393.05	212.11
393.43	212.17
393.81	212.23
394.18	212.28
394.56	212.35
394.94	212.45
395.31	212.51
395.69	212.57
396.06	212.59
396.44	212.70
396.82	212.79
397.19	212.95
397.57	213.00
397.95	213.05
398.32	213.18
398.70	213.30
399.07	213.57
399.45	213.64
399.82	213.73
400.20	213.85
400.58	213.99
400.95	214.10
401.33	214.27
401.70	214.62
402.08	214.84
402.45	215.11
402.83	215.37
403.20	215.65
403.58	215.95
403.95	216.33
404.33	216.70
404.71	217.04
405.08	217.49
405.46	217.95
405.83	218.43
406.21	218.94
406.58	219.43
406.96	220.01
407.33	220.65
407.70	221.39
408.08	222.31
408.45	223.10
408.83	224.07
409.20	224.95
409.58	225.80
409.95	226.90
410.33	228.01
410.70	229.15
411.08	230.40
411.45	231.76
411.82	233.27
412.20	234.97
412.57	236.87
412.95	238.60
413.32	240.61
413.69	242.75
414.07	245.02
414.44	247.67
414.82	250.19
415.19	253.23
415.56	256.16
415.94	259.46
416.31	263.12
416.68	266.62
417.06	270.70
417.43	274.61
417.81	279.09
418.18	283.74
418.55	288.84
418.93	294.18
419.30	299.77
419.67	305.43
420.04	311.38
420.42	317.71
420.79	324.77
421.16	332.15
421.54	339.57
421.91	347.46
422.28	355.72
422.66	364.65
423.03	372.87
423.40	381.90
423.77	391.36
424.15	401.10
424.52	411.35
424.89	422.49
425.26	433.37
425.64	443.78
426.01	455.21
426.38	467.11
426.75	479.17
427.13	491.66
427.50	505.05
427.87	519.06
428.24	533.02
428.61	546.59
428.99	560.88
429.36	576.95
429.73	592.67
430.10	608.25
430.47	624.29
430.85	641.62
431.22	659.54
431.59	678.14
431.96	696.37
432.33	716.61
432.70	736.00
433.08	759.02
433.45	780.65
433.82	802.18
434.19	826.18
434.56	849.93
434.93	873.02
435.30	896.13
435.68	921.51
436.05	946.71
436.42	972.06
436.79	995.28
437.16	1020.41
437.53	1046.72
437.90	1072.90
438.27	1098.73
438.64	1125.77
439.01	1150.81
439.38	1173.68
439.75	1195.39
440.13	1220.29
440.50	1244.13
440.87	1263.68
441.24	1283.92
441.61	1306.48
441.98	1323.83
442.35	1343.44
442.72	1362.91
443.09	1381.12
443.46	1393.05
443.83	1401.59
444.20	1409.15
444.57	1419.95
444.94	1425.69
445.31	1431.74
445.68	1436.26
446.05	1439.28
446.42	1437.99
446.79	1435.85
447.16	1433.70
447.53	1432.70
447.90	1424.29
448.27	1415.95
448.64	1403.78
449.01	1395.08
449.37	1378.66
449.74	1362.50
450.11	1343.07
450.48	1322.56
450.85	1301.98
451.22	1284.03
451.59	1266.77
451.96	1250.13
452.33	1227.42
452.70	1207.26
453.07	1182.69
453.43	1158.83
453.80	1135.13
454.17	1112.01
454.54	1090.62
454.91	1067.32
455.28	1044.46
455.65	1023.20
456.02	1000.70
456.38	982.37
456.75	959.91
457.12	941.33
457.49	922.83
457.86	905.33
458.23	889.23
458.59	871.98
458.96	854.41
459.33	838.92
459.70	823.30
460.07	811.00
460.43	796.54
460.80	783.10
461.17	771.19
461.54	758.84
461.91	747.36
462.27	735.41
462.64	725.44
463.01	714.27
463.38	703.21
463.74	693.33
464.11	683.78
464.48	675.29
464.85	665.89
465.21	658.48
465.58	650.73
465.95	641.84
466.32	634.11
466.68	626.54
467.05	619.06
467.42	611.67
467.78	603.86
468.15	596.48
468.52	590.80
468.88	583.83
469.25	577.32
469.62	571.61
469.98	565.80
470.35	560.10
470.72	554.78
471.08	549.34
471.45	544.27
471.82	539.14
472.18	533.73
472.55	529.87
472.92	525.32
473.28	521.12
473.65	517.20
474.02	513.20
474.38	509.85
474.75	506.74
475.11	503.31
475.48	500.62
475.85	497.95
476.21	495.35
476.58	492.91
476.94	490.95
477.31	488.73
477.67	486.60
478.04	484.78
478.41	483.18
478.77	481.74
479.14	480.20
479.50	479.03
479.87	477.99
480.23	476.93
480.60	475.89
480.96	474.71
481.33	474.07
481.69	473.63
482.06	472.79
482.42	471.72
482.79	471.03
483.15	470.79
483.52	471.04
483.88	470.95
484.25	470.82
484.61	470.70
484.98	470.82
485.34	471.23
485.71	471.79
486.07	472.44
486.44	472.87
486.80	473.55
487.17	474.27
487.53	475.41
487.90	476.51
488.26	477.63
488.62	478.90
488.99	480.19
489.35	481.35
489.72	482.90
490.08	484.68
490.44	486.34
490.81	488.00
491.17	489.35
491.54	491.06
491.90	492.81
492.26	494.90
492.63	496.82
492.99	498.82
493.36	500.68
493.72	502.78
494.08	504.98
494.45	507.37
494.81	509.89
495.17	512.23
495.54	514.78
495.90	517.25
496.26	519.64
496.63	522.21
496.99	524.93
497.35	527.54
497.72	530.30
498.08	533.03
498.44	535.43
498.80	538.41
499.17	541.46
499.53	544.44
499.89	547.14
500.26	549.92
500.62	552.52
500.98	555.34
501.34	557.82
501.71	560.59
502.07	563.13
502.43	565.53
502.79	568.01
503.16	570.37
503.52	572.85
503.88	575.46
504.24	577.70
504.60	579.93
504.97	582.20
505.33	584.33
505.69	586.78
506.05	589.19
506.41	591.20
506.78	592.95
507.14	594.72
507.50	596.62
507.86	598.30
508.22	600.46
508.59	602.25
508.95	604.06
509.31	605.93
509.67	607.88
510.03	609.83
510.39	611.79
510.75	613.49
511.12	615.33
511.48	617.02
511.84	618.87
512.20	620.68
512.56	622.71
512.92	624.83
513.28	626.70
513.64	628.57
514.00	630.65
514.37	632.69
514.73	635.05
515.09	637.23
515.45	639.51
515.81	641.53
516.17	643.92
516.53	646.22
516.89	648.60
517.25	650.99
517.61	653.48
517.97	655.93
518.33	658.61
518.69	661.38
519.05	664.30
519.41	667.49
519.77	671.06
520.13	674.55
520.49	677.85
520.85	681.48
521.21	685.35
521.57	689.34
521.93	693.35
522.29	697.68
522.65	702.05
523.01	706.58
523.37	711.07
523.73	715.90
524.09	721.15
524.45	726.37
524.81	731.80
525.17	737.59
525.53	743.50
525.89	749.51
526.25	755.77
526.61	761.91
526.97	768.34
527.33	774.73
527.68	781.38
528.04	788.23
528.40	795.04
528.76	802.21
529.12	809.41
529.48	817.44
529.84	825.01
530.20	832.95
530.56	841.07
530.91	849.71
531.27	858.29
531.63	866.95
531.99	875.73
532.35	884.71
532.71	893.73
533.07	903.26
533.42	912.87
533.78	922.54
534.14	932.42
534.50	941.90
534.86	951.85
535.21	961.61
535.57	972.20
535.93	982.61
536.29	993.10
536.65	1003.90
537.00	1014.28
537.36	1024.92
537.72	1035.85
538.08	1047.04
538.44	1058.26
538.79	1069.56
539.15	1080.80
539.51	1092.58
539.87	1104.45
540.22	1116.27
540.58	1128.31
540.94	1140.34
541.29	1152.06
541.65	1163.62
542.01	1175.98
542.37	1187.87
542.72	1200.08
543.08	1211.62
543.44	1223.93
543.79	1235.56
544.15	1247.21
544.51	1259.35
544.87	1271.60
545.22	1283.27
545.58	1294.98
545.94	1306.37
546.29	1317.70
546.65	1328.84
547.01	1339.73
547.36	1350.59
547.72	1361.74
548.07	1372.36
548.43	1382.45
548.79	1392.74
549.14	1403.39
549.50	1414.04
549.86	1424.57
550.21	1435.05
550.57	1445.88
550.92	1456.06
551.28	1466.52
551.64	1476.79
551.99	1487.07
552.35	1496.71
552.70	1506.98
553.06	1517.19
553.41	1527.92
553.77	1538.53
554.13	1549.07
554.48	1559.60
554.84	1570.10
555.19	1579.70
555.55	1589.30
555.90	1599.25
556.26	1609.12
556.61	1618.88
556.97	1627.77
557.32	1637.47
557.68	1646.64
558.03	1655.61
558.39	1664.44
558.74	1673.56
559.10	1682.82
559.45	1691.58
559.81	1701.39
560.16	1709.86
560.52	1718.56
560.87	1726.36
561.23	1733.86
561.58	1742.15
561.94	1749.94
562.29	1757.35
562.64	1765.61
563.00	1774.11
563.35	1782.43
563.71	1790.70
564.06	1798.94
564.42	1807.37
564.77	1815.35
565.12	1823.46
565.48	1831.23
565.83	1838.95
566.19	1847.11
566.54	1854.45
566.89	1862.28
567.25	1869.60
567.60	1877.05
567.96	1884.10
568.31	1891.40
568.66	1898.53
569.02	1905.06
569.37	1911.38
569.72	1918.83
570.08	1925.37
570.43	1931.18
570.78	1936.88
571.14	1942.36
571.49	1947.28
571.84	1952.41
572.20	1957.14
572.55	1962.24
572.90	1966.95
573.26	1971.88
573.61	1975.88
573.96	1980.07
574.31	1983.78
574.67	1987.82
575.02	1991.02
575.37	1994.04
575.72	1996.90
576.08	2000.59
576.43	2003.26
576.78	2006.48
577.13	2009.05
577.49	2011.52
577.84	2014.29
578.19	2016.86
578.54	2020.12
578.90	2023.51
579.25	2025.79
579.60	2027.30
579.95	2028.60
580.30	2030.72
580.66	2032.57
581.01	2033.90
581.36	2035.23
581.71	2036.60
582.06	2037.62
582.42	2039.90
582.77	2041.31
583.12	2042.50
583.47	2043.76
583.82	2045.59
584.17	2046.03
584.53	2046.76
584.88	2047.45
585.23	2047.93
585.58	2048.52
585.93	2048.44
586.28	2048.92
586.63	2049.55
586.98	2050.87
587.34	2052.07
587.69	2051.92
588.04	2051.80
588.39	2052.45
588.74	2052.42
589.09	2052.54
589.44	2051.73
589.79	2051.54
590.14	2051.86
590.49	2051.45
590.84	2050.41
591.19	2050.38
591.54	2049.71
591.89	2047.71
592.25	2046.55
592.60	2045.38
592.95	2043.87
593.30	2042.34
593.65	2040.23
594.00	2038.55
594.35	2038.06
594.70	2036.15
595.05	2035.60
595.40	2034.49
595.75	2032.48
596.10	2031.21
596.45	2029.62
596.80	2029.29
597.15	2028.04
597.50	2025.98
597.85	2024.79
598.19	2023.40
598.54	2021.82
598.89	2021.16
599.24	2021.47
599.59	2020.71
599.94	2020.16
600.29	2019.49
600.64	2018.20
600.99	2016.41
601.34	2015.57
601.69	2012.58
602.04	2011.26
602.39	2009.56
602.74	2008.15
603.08	2007.73
603.43	2007.12
603.78	2005.42
604.13	2003.28
604.48	2001.22
604.83	2000.42
605.18	1999.57
605.53	1997.94
605.87	1995.77
606.22	1994.29
606.57	1991.85
606.92	1989.78
607.27	1987.69
607.62	1986.43
607.96	1985.61
608.31	1985.42
608.66	1983.14
609.01	1981.56
609.36	1979.00
609.70	1976.12
610.05	1973.95
610.40	1971.03
610.75	1967.59
611.10	1965.10
611.44	1960.95
611.79	1956.86
612.14	1952.57
612.49	1947.73
612.83	1944.05
613.18	1939.66
613.53	1934.89
613.88	1930.06
614.22	1925.72
614.57	1920.51
614.92	1914.55
615.27	1908.94
615.61	1903.10
615.96	1898.44
616.31	1893.99
616.65	1890.17
617.00	1885.70
617.35	1880.37
617.70	1875.13
618.04	1869.94
618.39	1864.40
618.74	1859.61
619.08	1855.10
619.43	1850.74
619.78	1846.77
620.12	1842.10
620.47	1837.74
620.82	1832.68
621.16	1828.09
621.51	1822.98
621.85	1818.63
622.20	1814.01
622.55	1809.01
622.89	1804.24
623.24	1799.39
623.59	1793.83
623.93	1788.24
624.28	1783.65
624.62	1778.80
624.97	1773.91
625.32	1769.55
625.66	1765.14
626.01	1761.14
626.35	1757.02
626.70	1752.16
627.04	1747.18
627.39	1742.45
627.73	1737.86
628.08	1733.87
628.43	1729.28
628.77	1725.22
629.12	1720.50
629.46	1716.59
629.81	1712.19
630.15	1706.75
630.50	1701.78
630.84	1696.74
631.19	1691.62
631.53	1686.73
631.88	1681.10
632.22	1675.00
632.57	1669.80
632.91	1663.94
633.26	1658.55
633.60	1652.96
633.95	1648.03
634.29	1643.16
634.64	1638.45
634.98	1632.96
635.32	1627.92
635.67	1623.40
636.01	1618.37
636.36	1612.98
636.70	1607.71
637.05	1602.56
637.39	1598.30
637.73	1593.50
638.08	1589.74
638.42	1585.74
638.77	1580.48
639.11	1575.77
639.45	1571.66
639.80	1566.07
640.14	1561.56
640.49	1556.43
640.83	1551.22
641.17	1545.72
641.52	1540.17
641.86	1534.54
642.20	1529.37
642.55	1523.01
642.89	1516.73
643.23	1510.20
643.58	1504.62
643.92	1498.55
644.26	1492.80
644.61	1487.09
644.95	1481.33
645.29	1475.07
645.64	1468.25
645.98	1462.37
646.32	1456.92
646.66	1450.72
647.01	1445.25
647.35	1439.77
647.69	1433.08
648.04	1427.41
648.38	1421.48
648.72	1415.52
649.06	1408.86
649.41	1402.31
649.75	1396.38
650.09	1390.08
650.43	1383.88
650.78	1377.34
651.12	1370.56
651.46	1364.23
651.80	1357.61
652.14	1351.09
652.49	1344.17
652.83	1338.04
653.17	1330.94
653.51	1324.24
653.85	1318.10
654.20	1311.15
654.54	1303.69
654.88	1297.23
655.22	1289.27
655.56	1281.53
655.90	1273.95
656.25	1267.37
656.59	1260.83
656.93	1254.52
657.27	1248.46
657.61	1242.10
657.95	1235.70
658.29	1229.24
658.64	1222.68
658.98	1216.12
659.32	1208.95
659.66	1202.52
660.00	1195.86
660.34	1189.28
660.68	1182.11
661.02	1174.68
661.36	1168.51
661.70	1162.07
662.05	1156.17
662.39	1150.66
662.73	1145.21
663.07	1139.52
663.41	1133.20
663.75	1126.48
664.09	1119.48
664.43	1112.80
664.77	1106.63
665.11	1100.36
665.45	1094.59
665.79	1088.03
666.13	1081.58
666.47	1075.80
666.81	1069.71
667.15	1063.50
667.49	1057.84
667.83	1052.33
668.17	1047.04
668.51	1041.30
668.85	1035.98
669.19	1030.32
669.53	1024.38
669.87	1018.07
670.21	1012.54
670.55	1006.77
670.89	1002.02
671.23	997.30
671.57	991.64
671.91	986.09
672.25	980.85
672.58	975.21
672.92	970.01
673.26	965.00
673.60	959.80
673.94	954.54
674.28	949.60
674.62	944.60
674.96	939.25
675.30	934.47
675.64	929.08
675.97	923.72
676.31	918.66
676.65	913.92
676.99	909.55
677.33	904.34
677.67	899.35
678.01	894.03
678.34	888.93
678.68	884.03
679.02	878.88
679.36	873.99
679.70	869.22
680.04	864.23
680.37	858.97
680.71	854.12
681.05	849.23
681.39	844.12
681.73	839.33
682.06	835.10
682.40	829.97
682.74	825.06
683.08	820.33
683.42	815.32
683.75	810.68
684.09	805.89
684.43	801.23
684.77	796.37
685.10	791.37
685.44	786.20
685.78	781.67
686.12	777.38
686.45	772.60
686.79	768.18
687.13	763.96
687.46	759.73
687.80	755.12
688.14	750.45
688.48	746.10
688.81	741.23
689.15	736.52
689.49	732.09
689.82	727.53
690.16	722.63
690.50	717.93
690.83	712.98
691.17	708.11
691.51	703.32
691.84	699.10
692.18	694.88
692.52	690.63
692.85	686.41
693.19	681.99
693.52	677.65
693.86	673.16
694.20	668.79
694.53	664.42
694.87	660.19
695.21	656.12
695.54	651.73
695.88	647.56
696.21	643.20
696.55	638.87
696.88	634.88
697.22	631.00
697.56	627.38
697.89	623.59
698.23	619.96
698.56	616.36
698.90	612.83
699.23	608.83
699.57	605.14
699.90	601.05
700.24	596.97
700.58	592.98
700.91	589.27
701.25	585.64
701.58	582.05
701.92	578.27
702.25	574.57
702.59	570.92
702.92	567.51
703.26	564.00
703.59	560.76
703.93	557.50
704.26	554.26
704.60	550.70
704.93	547.51
705.26	544.10
705.60	540.83
705.93	537.43
706.27	534.44
706.60	531.48
706.94	528.66
707.27	525.69
707.61	522.74
707.94	519.56
708.27	516.40
708.61	513.38
708.94	510.44
709.28	507.50
709.61	504.78
709.94	501.96
710.28	499.08
710.61	496.22
710.95	493.49
711.28	490.74
711.61	487.87
711.95	485.11
712.28	482.48
712.61	479.75
712.95	477.04
713.28	474.40
713.61	471.71
713.95	469.13
714.28	466.64
714.61	463.99
714.95	461.65
715.28	459.28
715.61	456.74
715.95	454.21
716.28	451.62
716.61	449.12
716.95	446.49
717.28	444.14
717.61	441.76
717.94	439.25
718.28	436.89
718.61	434.84
718.94	432.54
719.27	430.30
719.61	428.20
719.94	426.05
720.27	423.80
720.60	421.58
720.94	419.45
721.27	417.41
721.60	415.62
721.93	413.70
722.27	411.64
722.60	409.82
722.93	408.11
723.26	406.39
723.59	404.55
723.93	402.80
724.26	401.10
724.59	399.37
724.92	397.66
725.25	395.95
725.59	394.26
725.92	392.67
726.25	391.01
726.58	389.34
726.91	387.65
727.24	386.06
727.57	384.46
727.91	382.55
728.24	380.89
728.57	379.28
728.90	377.62
729.23	376.09
729.56	374.61
729.89	372.91
730.22	371.35
730.55	369.81
730.89	368.14
731.22	366.52
731.55	365.02
731.88	363.51
732.21	362.14
732.54	360.58
732.87	358.99
733.20	357.44
733.53	355.86
733.86	354.39
734.19	352.88
734.52	351.51
734.85	350.53
735.18	349.11
735.51	347.73
735.84	346.36
736.17	344.96
736.50	343.51
736.83	342.46
737.16	341.16
737.49	339.78
737.82	338.60
738.15	337.31
738.48	335.96
738.81	334.69
739.14	333.26
739.47	331.99
739.80	330.72
740.13	329.57
740.46	328.36
740.79	327.11
741.12	325.98
741.45	324.74
741.78	323.42
742.11	322.38
742.44	321.13
742.77	320.04
743.10	318.91
743.43	317.81
743.75	316.41
744.08	315.49
744.41	314.35
744.74	313.20
745.07	312.10
745.40	311.11
745.73	310.10
746.06	309.06
746.39	307.97
746.71	306.93
747.04	305.85
747.37	304.86
747.70	303.86
748.03	302.82
748.36	301.83
748.68	300.74
749.01	299.66
749.34	298.75
749.67	297.80
750.00	296.84
750.33	295.95
750.65	295.08
750.98	293.82
751.31	292.86
751.64	291.97
751.97	291.05
752.29	290.08
752.62	289.05
752.95	288.09
753.28	287.21
753.60	286.35
753.93	285.46
754.26	284.58
754.59	283.77
754.91	282.93
755.24	282.17
755.57	281.37
755.90	280.62
756.22	279.80
756.55	279.00
756.88	278.20
757.20	277.28
757.53	276.36
757.86	275.72
758.19	275.01
758.51	274.22
758.84	273.47
759.17	272.75
759.49	272.08
759.82	271.45
760.15	270.71
760.47	269.96
760.80	269.24
761.13	268.52
761.45	267.82
761.78	267.13
762.11	266.45
762.43	265.76
762.76	265.08
763.08	264.40
763.41	263.67
763.74	263.06
764.06	262.45
764.39	261.90
764.71	261.22
765.04	260.62
765.37	260.06
765.69	259.52
766.02	258.96
766.34	258.46
766.67	257.90
767.00	257.44
767.32	257.04
767.65	256.63
767.97	256.17
768.30	255.66
768.62	255.15
768.95	254.61
769.27	254.20
769.60	253.75
769.92	253.25
770.25	252.79
770.57	252.30
770.90	251.83
771.22	251.31
771.55	250.91
771.87	250.51
772.20	250.08
772.52	249.79
772.85	249.58
773.17	249.19
773.50	248.74
773.82	248.33
774.15	247.83
774.47	247.35
774.80	246.87
775.12	246.41
775.45	246.00
775.77	245.62
776.09	245.15
776.42	244.70
776.74	244.45
777.07	244.08
777.39	243.75
777.72	243.45
778.04	243.20
778.36	242.86
778.69	242.46
779.01	242.18
779.33	241.70
779.66	241.20
779.98	240.78
780.31	240.47
780.63	240.27
780.95	240.01
781.28	239.72
781.60	239.40
781.92	239.07
782.25	238.82
782.57	238.56
782.89	238.32
783.22	238.01
783.54	237.65
783.86	237.40
784.19	237.09
784.51	236.82
784.83	236.45
