SpectraSuite Data File
++++++++++++++++++++++++++++++++++++
Date: Mon Feb 25 17:33:58 EST 2013
User: group
Dark Spectrum Present: No
Reference Spectrum Present: No
Number of Sampled Component Spectra: 1
Spectrometers: USB2E7196
Integration Time (usec): 52000 (USB2E7196)
Spectra Averaged: 20 (USB2E7196)
Boxcar Smoothing: 10 (USB2E7196)
Correct for Electrical Dark: No (USB2E7196)
Strobe/Lamp Enabled: No (USB2E7196)
Correct for Detector Non-linearity: No (USB2E7196)
Correct for Stray Light: No (USB2E7196)
Number of Pixels in Processed Spectrum: 2048
>>>>>Begin Processed Spectral Data<<<<<
339.09	0.00
339.48	198.40
339.86	200.85
340.24	202.80
340.63	203.55
341.01	207.70
341.39	205.60
341.78	207.80
342.16	208.60
342.54	209.80
342.93	198.47
343.31	208.49
343.69	209.06
344.07	209.50
344.46	209.89
344.84	210.27
345.22	210.46
345.60	210.71
345.99	210.88
346.37	210.99
346.75	211.07
347.13	211.17
347.52	211.28
347.90	211.35
348.28	211.39
348.66	211.50
349.05	211.54
349.43	211.57
349.81	211.64
350.19	211.71
350.57	211.72
350.96	211.80
351.34	211.88
351.72	211.95
352.10	212.04
352.48	212.09
352.87	212.10
353.25	212.08
353.63	212.18
354.01	212.21
354.39	212.38
354.77	212.42
355.15	212.52
355.54	212.50
355.92	212.50
356.30	212.56
356.68	212.69
357.06	212.75
357.44	212.75
357.82	212.80
358.20	212.83
358.58	212.91
358.97	212.97
359.35	213.01
359.73	213.11
360.11	213.20
360.49	213.31
360.87	213.38
361.25	213.51
361.63	213.64
362.01	213.66
362.39	213.64
362.77	213.70
363.15	213.70
363.53	213.69
363.91	213.75
364.29	213.81
364.67	213.61
365.05	213.62
365.43	213.68
365.81	213.65
366.19	213.72
366.57	213.81
366.95	213.81
367.33	213.83
367.71	213.87
368.09	213.86
368.47	213.83
368.85	213.83
369.23	213.83
369.61	213.68
369.99	213.78
370.37	213.82
370.75	213.90
371.13	213.87
371.51	213.87
371.89	213.82
372.27	213.80
372.65	213.86
373.03	213.80
373.41	213.75
373.78	213.79
374.16	213.70
374.54	213.58
374.92	213.48
375.30	213.47
375.68	213.35
376.06	213.34
376.44	213.24
376.82	213.16
377.19	213.19
377.57	213.25
377.95	213.09
378.33	212.95
378.71	212.74
379.09	212.71
379.47	212.68
379.84	212.66
380.22	212.50
380.60	212.40
380.98	212.37
381.36	212.31
381.73	212.20
382.11	212.16
382.49	212.09
382.87	212.09
383.25	211.99
383.62	212.12
384.00	212.02
384.38	212.00
384.76	212.04
385.13	211.99
385.51	211.87
385.89	211.87
386.27	211.84
386.64	211.87
387.02	211.81
387.40	211.76
387.78	211.70
388.15	211.78
388.53	211.74
388.91	211.79
389.29	211.78
389.66	211.81
390.04	211.74
390.42	211.76
390.79	211.67
391.17	211.70
391.55	211.57
391.92	211.51
392.30	211.50
392.68	211.41
393.05	211.40
393.43	211.40
393.81	211.45
394.18	211.42
394.56	211.42
394.94	211.46
395.31	211.45
395.69	211.50
396.06	211.45
396.44	211.45
396.82	211.37
397.19	211.45
397.57	211.48
397.95	211.59
398.32	211.62
398.70	211.74
399.07	211.75
399.45	211.71
399.82	211.78
400.20	211.88
400.58	212.00
400.95	212.00
401.33	212.07
401.70	212.20
402.08	212.30
402.45	212.34
402.83	212.47
403.20	212.62
403.58	212.75
403.95	212.84
404.33	213.01
404.71	213.16
405.08	213.34
405.46	213.38
405.83	213.51
406.21	213.60
406.58	213.69
406.96	213.86
407.33	214.09
407.70	214.36
408.08	214.69
408.45	214.89
408.83	215.18
409.20	215.48
409.58	215.66
409.95	216.01
410.33	216.33
410.70	216.63
411.08	216.99
411.45	217.30
411.82	217.72
412.20	218.09
412.57	218.64
412.95	218.98
413.32	219.57
413.69	220.09
414.07	220.68
414.44	221.38
414.82	222.05
415.19	222.71
415.56	223.41
415.94	224.05
416.31	224.95
416.68	225.80
417.06	226.78
417.43	227.70
417.81	228.81
418.18	229.97
418.55	231.09
418.93	232.32
419.30	233.66
419.67	235.06
420.04	236.53
420.42	237.92
420.79	239.81
421.16	241.57
421.54	243.40
421.91	245.28
422.28	247.22
422.66	249.30
423.03	251.45
423.40	253.53
423.77	255.81
424.15	257.99
424.52	260.35
424.89	262.90
425.26	265.40
425.64	267.70
426.01	270.20
426.38	273.00
426.75	275.77
427.13	278.63
427.50	281.62
427.87	284.75
428.24	287.91
428.61	290.68
428.99	293.83
429.36	297.30
429.73	300.71
430.10	304.12
430.47	307.56
430.85	311.26
431.22	315.18
431.59	319.40
431.96	323.36
432.33	327.70
432.70	331.88
433.08	336.82
433.45	341.41
433.82	346.06
434.19	351.13
434.56	356.11
434.93	360.85
435.30	365.48
435.68	370.76
436.05	375.86
436.42	381.07
436.79	385.89
437.16	391.02
437.53	396.42
437.90	401.66
438.27	406.91
438.64	412.10
439.01	417.10
439.38	421.43
439.75	425.85
440.13	430.75
440.50	435.20
440.87	438.90
441.24	442.82
441.61	447.06
441.98	450.14
442.35	453.85
442.72	457.56
443.09	461.22
443.46	463.20
443.83	464.74
444.20	465.84
444.57	467.61
444.94	468.31
445.31	469.11
445.68	469.88
446.05	470.03
446.42	469.53
446.79	468.66
447.16	467.81
447.53	467.02
447.90	464.82
448.27	462.75
448.64	459.89
449.01	457.79
449.37	454.15
449.74	450.69
450.11	446.49
450.48	441.96
450.85	437.23
451.22	433.38
451.59	429.64
451.96	426.23
452.33	421.31
452.70	416.97
453.07	411.76
453.43	406.44
453.80	401.47
454.17	396.68
454.54	392.12
454.91	387.26
455.28	382.50
455.65	378.07
456.02	373.84
456.38	370.07
456.75	365.45
457.12	361.54
457.49	357.64
457.86	353.84
458.23	350.51
458.59	347.04
458.96	343.45
459.33	340.24
459.70	336.97
460.07	334.51
460.43	331.70
460.80	329.04
461.17	326.76
461.54	324.37
461.91	322.00
462.27	319.70
462.64	317.62
463.01	315.38
463.38	313.26
463.74	310.98
464.11	309.07
464.48	307.43
464.85	305.68
465.21	304.35
465.58	302.98
465.95	301.35
466.32	300.01
466.68	298.61
467.05	297.16
467.42	295.79
467.78	294.32
468.15	292.98
468.52	291.91
468.88	290.55
469.25	289.30
469.62	288.33
469.98	287.26
470.35	286.39
470.72	285.57
471.08	284.66
471.45	283.94
471.82	283.17
472.18	282.26
472.55	281.62
472.92	280.93
473.28	280.19
473.65	279.52
474.02	278.88
474.38	278.50
474.75	278.11
475.11	277.59
475.48	277.35
475.85	277.04
476.21	276.83
476.58	276.78
476.94	276.80
477.31	276.70
477.67	276.64
478.04	276.65
478.41	276.79
478.77	277.08
479.14	277.16
479.50	277.39
479.87	277.76
480.23	278.13
480.60	278.41
480.96	278.90
481.33	279.58
481.69	280.27
482.06	280.83
482.42	281.46
482.79	282.29
483.15	283.14
483.52	284.20
483.88	285.17
484.25	286.14
484.61	287.21
484.98	288.38
485.34	289.70
485.71	290.99
486.07	292.32
486.44	293.56
486.80	295.12
487.17	296.69
487.53	298.45
487.90	300.27
488.26	302.19
488.62	304.25
488.99	306.27
489.35	308.32
489.72	310.63
490.08	313.04
490.44	315.51
490.81	318.11
491.17	320.66
491.54	323.55
491.90	326.49
492.26	329.65
492.63	332.97
492.99	336.47
493.36	340.14
493.72	344.17
494.08	348.20
494.45	352.46
494.81	357.09
495.17	361.57
495.54	366.50
495.90	371.64
496.26	376.87
496.63	382.33
496.99	388.07
497.35	394.15
497.72	400.37
498.08	406.84
498.44	413.55
498.80	420.83
499.17	428.11
499.53	435.81
499.89	443.81
500.26	452.06
500.62	460.47
500.98	469.37
501.34	478.25
501.71	487.74
502.07	497.35
502.43	507.28
502.79	517.64
503.16	528.42
503.52	539.46
503.88	550.77
504.24	562.34
504.60	574.30
504.97	586.56
505.33	599.17
505.69	612.55
506.05	626.06
506.41	639.68
506.78	653.57
507.14	667.85
507.50	682.39
507.86	697.26
508.22	712.65
508.59	728.14
508.95	744.29
509.31	760.55
509.67	777.34
510.03	794.37
510.39	811.84
510.75	829.65
511.12	847.75
511.48	865.95
511.84	884.77
512.20	903.38
512.56	922.37
512.92	941.75
513.28	961.36
513.64	981.08
514.00	1001.00
514.37	1021.65
514.73	1042.39
515.09	1063.26
515.45	1084.03
515.81	1105.15
516.17	1126.50
516.53	1147.83
516.89	1169.65
517.25	1191.00
517.61	1212.50
517.97	1234.16
518.33	1255.64
518.69	1277.29
519.05	1299.62
519.41	1321.70
519.77	1344.45
520.13	1366.78
520.49	1389.19
520.85	1411.85
521.21	1434.60
521.57	1457.64
521.93	1479.71
522.29	1502.62
522.65	1525.43
523.01	1548.11
523.37	1570.25
523.73	1592.55
524.09	1614.81
524.45	1637.18
524.81	1659.90
525.17	1682.27
525.53	1704.79
525.89	1727.29
526.25	1749.23
526.61	1770.61
526.97	1792.43
527.33	1814.01
527.68	1835.62
528.04	1856.87
528.40	1877.40
528.76	1898.12
529.12	1918.70
529.48	1940.69
529.84	1961.08
530.20	1981.25
530.56	2001.91
530.91	2023.02
531.27	2043.65
531.63	2063.88
531.99	2083.88
532.35	2103.32
532.71	2122.79
533.07	2142.39
533.42	2161.00
533.78	2180.36
534.14	2198.70
534.50	2216.10
534.86	2234.20
535.21	2251.25
535.57	2269.21
535.93	2286.75
536.29	2303.94
536.65	2320.92
537.00	2336.15
537.36	2351.45
537.72	2366.83
538.08	2382.16
538.44	2397.52
538.79	2413.05
539.15	2427.99
539.51	2442.50
539.87	2457.54
540.22	2472.13
540.58	2487.10
540.94	2501.91
541.29	2514.68
541.65	2527.38
542.01	2540.62
542.37	2552.73
542.72	2565.34
543.08	2576.36
543.44	2587.96
543.79	2598.33
544.15	2608.65
544.51	2619.67
544.87	2631.19
545.22	2640.59
545.58	2649.09
545.94	2656.33
546.29	2662.70
546.65	2669.09
547.01	2675.22
547.36	2680.97
547.72	2686.50
548.07	2690.62
548.43	2694.05
548.79	2698.15
549.14	2702.88
549.50	2707.50
549.86	2711.30
550.21	2715.24
550.57	2719.29
550.92	2722.21
551.28	2724.91
551.64	2727.43
551.99	2730.15
552.35	2731.55
552.70	2734.40
553.06	2737.71
553.41	2740.89
553.77	2744.07
554.13	2746.35
554.48	2748.40
554.84	2749.95
555.19	2750.44
555.55	2751.29
555.90	2751.93
556.26	2752.61
556.61	2752.67
556.97	2751.39
557.32	2751.28
557.68	2749.44
558.03	2748.18
558.39	2746.94
558.74	2746.38
559.10	2745.03
559.45	2743.08
559.81	2742.14
560.16	2739.13
560.52	2736.23
560.87	2733.17
561.23	2729.39
561.58	2727.13
561.94	2723.91
562.29	2720.54
562.64	2718.63
563.00	2715.91
563.35	2713.61
563.71	2711.90
564.06	2709.83
564.42	2708.35
564.77	2705.80
565.12	2704.15
565.48	2700.70
565.83	2697.48
566.19	2694.29
566.54	2690.21
566.89	2686.35
567.25	2682.74
567.60	2680.05
567.96	2676.60
568.31	2673.30
568.66	2669.56
569.02	2664.96
569.37	2660.25
569.72	2656.32
570.08	2651.10
570.43	2645.34
570.78	2639.95
571.14	2633.51
571.49	2626.83
571.84	2620.41
572.20	2613.30
572.55	2606.44
572.90	2599.96
573.26	2592.78
573.61	2585.76
573.96	2579.47
574.31	2571.74
574.67	2563.16
575.02	2554.55
575.37	2545.71
575.72	2536.60
576.08	2529.10
576.43	2520.39
576.78	2512.27
577.13	2504.03
577.49	2495.73
577.84	2488.22
578.19	2480.50
578.54	2473.45
578.90	2466.54
579.25	2457.85
579.60	2448.61
579.95	2439.46
580.30	2431.45
580.66	2423.42
581.01	2414.16
581.36	2404.67
581.71	2395.90
582.06	2387.26
582.42	2378.97
582.77	2369.89
583.12	2361.02
583.47	2351.93
583.82	2343.75
584.17	2334.97
584.53	2325.85
584.88	2316.67
585.23	2307.25
585.58	2297.54
585.93	2287.06
586.28	2277.52
586.63	2268.52
586.98	2260.55
587.34	2251.91
587.69	2242.66
588.04	2233.67
588.39	2225.71
588.74	2216.96
589.09	2208.36
589.44	2199.06
589.79	2190.39
590.14	2182.39
590.49	2173.93
590.84	2164.95
591.19	2156.49
591.54	2147.60
591.89	2137.39
592.25	2128.40
592.60	2118.78
592.95	2109.39
593.30	2100.09
593.65	2090.29
594.00	2080.60
594.35	2072.09
594.70	2062.99
595.05	2054.08
595.40	2045.10
595.75	2034.91
596.10	2026.43
596.45	2017.94
596.80	2009.99
597.15	2001.44
597.50	1992.26
597.85	1983.63
598.19	1975.00
598.54	1966.05
598.89	1957.99
599.24	1951.31
599.59	1943.72
599.94	1936.83
600.29	1929.05
600.64	1920.88
600.99	1912.31
601.34	1905.25
601.69	1896.36
602.04	1888.14
602.39	1879.81
602.74	1871.84
603.08	1865.23
603.43	1858.00
603.78	1849.83
604.13	1841.71
604.48	1833.93
604.83	1826.92
605.18	1819.85
605.53	1812.15
605.87	1804.81
606.22	1797.56
606.57	1789.43
606.92	1781.35
607.27	1773.02
607.62	1765.58
607.96	1758.84
608.31	1752.70
608.66	1744.73
609.01	1737.10
609.36	1729.65
609.70	1721.78
610.05	1713.91
610.40	1705.50
610.75	1696.69
611.10	1689.03
611.44	1679.94
611.79	1670.80
612.14	1661.59
612.49	1652.16
612.83	1643.47
613.18	1633.41
613.53	1623.82
613.88	1614.14
614.22	1605.01
614.57	1595.60
614.92	1586.27
615.27	1577.01
615.61	1567.15
615.96	1558.28
616.31	1549.85
616.65	1541.73
617.00	1533.59
617.35	1525.07
617.70	1516.15
618.04	1507.31
618.39	1497.91
618.74	1489.42
619.08	1480.76
619.43	1472.50
619.78	1464.42
620.12	1456.11
620.47	1448.69
620.82	1440.29
621.16	1431.96
621.51	1423.64
621.85	1415.57
622.20	1407.01
622.55	1398.51
622.89	1390.26
623.24	1382.04
623.59	1373.13
623.93	1364.46
624.28	1355.67
624.62	1347.16
624.97	1338.98
625.32	1331.11
625.66	1323.85
626.01	1316.60
626.35	1309.27
626.70	1301.32
627.04	1293.73
627.39	1285.95
627.73	1278.15
628.08	1271.05
628.43	1263.65
628.77	1256.30
629.12	1248.50
629.46	1242.07
629.81	1234.88
630.15	1227.47
630.50	1220.10
630.84	1213.02
631.19	1205.93
631.53	1199.19
631.88	1191.72
632.22	1184.34
632.57	1177.31
632.91	1169.75
633.26	1162.03
633.60	1154.87
633.95	1148.26
634.29	1140.91
634.64	1134.11
634.98	1127.15
635.32	1120.11
635.67	1113.84
636.01	1107.20
636.36	1100.67
636.70	1093.79
637.05	1087.34
637.39	1081.02
637.73	1074.52
638.08	1068.72
638.42	1062.68
638.77	1056.44
639.11	1050.07
639.45	1043.94
639.80	1037.21
640.14	1030.78
640.49	1024.50
640.83	1018.25
641.17	1011.88
641.52	1005.81
641.86	999.46
642.20	993.45
642.55	986.79
642.89	980.14
643.23	973.62
643.58	967.63
643.92	960.81
644.26	954.39
644.61	948.20
644.95	942.16
645.29	935.50
645.64	928.88
645.98	922.48
646.32	916.67
646.66	910.53
647.01	904.72
647.35	898.87
647.69	892.76
648.04	886.71
648.38	880.69
648.72	874.55
649.06	868.46
649.41	862.36
649.75	856.40
650.09	850.64
650.43	844.76
650.78	838.68
651.12	832.76
651.46	826.62
651.80	820.71
652.14	814.75
652.49	809.01
652.83	803.06
653.17	797.02
653.51	791.18
653.85	785.53
654.20	779.67
654.54	773.82
654.88	768.25
655.22	762.44
655.56	756.35
655.90	750.51
656.25	744.67
656.59	738.97
656.93	733.99
657.27	728.62
657.61	723.23
657.95	717.83
658.29	712.85
658.64	707.97
658.98	702.82
659.32	697.42
659.66	692.22
660.00	687.00
660.34	681.79
660.68	676.51
661.02	671.36
661.36	666.53
661.70	661.58
662.05	656.90
662.39	652.44
662.73	648.18
663.07	643.74
663.41	639.45
663.75	634.78
664.09	629.82
664.43	625.26
664.77	620.90
665.11	616.35
665.45	611.85
665.79	607.43
666.13	602.87
666.47	598.75
666.81	594.48
667.15	590.39
667.49	586.53
667.83	582.49
668.17	578.56
668.51	574.66
668.85	570.95
669.19	567.24
669.53	563.19
669.87	559.10
670.21	555.37
670.55	551.50
670.89	548.28
671.23	545.01
671.57	541.34
671.91	537.69
672.25	534.28
672.58	530.67
672.92	527.22
673.26	524.08
673.60	520.61
673.94	517.22
674.28	514.00
674.62	510.78
674.96	507.67
675.30	504.46
675.64	501.16
675.97	497.96
676.31	494.84
676.65	491.99
676.99	489.33
677.33	486.39
677.67	483.43
678.01	480.16
678.34	477.15
678.68	474.32
679.02	471.20
679.36	468.48
679.70	465.81
680.04	462.84
680.37	459.88
680.71	457.23
681.05	454.57
681.39	451.75
681.73	449.09
682.06	446.61
682.40	444.17
682.74	441.74
683.08	439.11
683.42	436.45
683.75	433.81
684.09	431.13
684.43	428.65
684.77	426.10
685.10	423.57
685.44	420.92
685.78	418.49
686.12	416.25
686.45	413.73
686.79	411.36
687.13	409.22
687.46	407.05
687.80	404.66
688.14	402.43
688.48	400.29
688.81	397.89
689.15	395.56
689.49	393.25
689.82	390.97
690.16	388.59
690.50	386.27
690.83	384.08
691.17	381.83
691.51	379.55
691.84	377.41
692.18	375.48
692.52	373.61
692.85	371.74
693.19	369.88
693.52	368.02
693.86	366.06
694.20	364.07
694.53	362.09
694.87	360.21
695.21	358.30
695.54	356.42
695.88	354.72
696.21	352.93
696.55	351.20
696.88	349.45
697.22	347.84
697.56	346.32
697.89	344.65
698.23	343.00
698.56	341.42
698.90	339.94
699.23	338.30
699.57	336.72
699.90	334.95
700.24	333.30
700.58	331.66
700.91	330.10
701.25	328.75
701.58	327.39
701.92	325.99
702.25	324.59
702.59	323.19
702.92	321.76
703.26	320.36
703.59	319.04
703.93	317.80
704.26	316.50
704.60	315.12
704.93	313.79
705.26	312.58
705.60	311.35
705.93	310.11
706.27	308.97
706.60	307.81
706.94	306.71
707.27	305.59
707.61	304.43
707.94	303.34
708.27	302.05
708.61	300.84
708.94	299.77
709.28	298.62
709.61	297.53
709.94	296.47
710.28	295.38
710.61	294.37
710.95	293.19
711.28	292.23
711.61	291.23
711.95	290.27
712.28	289.22
712.61	288.20
712.95	287.25
713.28	286.27
713.61	285.27
713.95	284.43
714.28	283.53
714.61	282.62
714.95	281.65
715.28	280.76
715.61	279.86
715.95	278.99
716.28	278.19
716.61	277.35
716.95	276.49
717.28	275.72
717.61	274.84
717.94	274.09
718.28	273.21
718.61	272.35
718.94	271.59
719.27	270.81
719.61	270.19
719.94	269.38
720.27	268.62
720.60	267.85
720.94	267.05
721.27	266.39
721.60	265.76
721.93	265.13
722.27	264.50
722.60	263.89
722.93	263.20
723.26	262.59
723.59	261.96
723.93	261.32
724.26	260.70
724.59	260.07
724.92	259.54
725.25	259.00
725.59	258.60
725.92	258.05
726.25	257.47
726.58	256.95
726.91	256.43
727.24	255.88
727.57	255.46
727.91	254.89
728.24	254.30
728.57	253.82
728.90	253.37
729.23	252.77
729.56	252.38
729.89	251.89
730.22	251.35
730.55	250.92
730.89	250.52
731.22	250.06
731.55	249.63
731.88	249.11
732.21	248.57
732.54	248.00
732.87	247.47
733.20	247.11
733.53	246.61
733.86	246.18
734.19	245.79
734.52	245.41
734.85	245.16
735.18	244.74
735.51	244.39
735.84	243.97
736.17	243.74
736.50	243.24
736.83	243.07
737.16	242.73
737.49	242.26
737.82	241.82
738.15	241.44
738.48	241.09
738.81	240.79
739.14	240.51
739.47	240.18
739.80	239.94
740.13	239.59
740.46	239.21
740.79	238.85
741.12	238.52
741.45	238.14
741.78	237.75
742.11	237.51
742.44	237.17
742.77	236.95
743.10	236.62
743.43	236.37
743.75	235.88
744.08	235.81
744.41	235.63
744.74	235.31
745.07	234.99
745.40	234.72
745.73	234.45
746.06	234.20
746.39	233.99
746.71	233.72
747.04	233.50
747.37	233.21
747.70	232.95
748.03	232.67
748.36	232.44
748.68	232.20
749.01	231.94
749.34	231.66
749.67	231.42
750.00	231.13
750.33	230.95
750.65	230.75
750.98	230.30
751.31	230.05
751.64	229.90
751.97	229.85
752.29	229.59
752.62	229.29
752.95	229.07
753.28	228.87
753.60	228.64
753.93	228.42
754.26	228.33
754.59	228.17
754.91	227.98
755.24	227.71
755.57	227.48
755.90	227.22
756.22	227.06
756.55	226.81
756.88	226.64
757.20	226.30
757.53	226.12
757.86	225.93
758.19	225.73
758.51	225.55
758.84	225.23
759.17	225.00
759.49	224.86
759.82	224.69
760.15	224.48
760.47	224.35
760.80	224.20
761.13	224.03
761.45	223.89
761.78	223.72
762.11	223.60
762.43	223.44
762.76	223.29
763.08	223.18
763.41	223.08
763.74	222.95
764.06	222.86
764.39	222.65
764.71	222.52
765.04	222.37
765.37	222.28
765.69	222.16
766.02	222.07
766.34	221.88
766.67	221.70
767.00	221.63
767.32	221.58
767.65	221.48
767.97	221.30
768.30	221.25
768.62	221.17
768.95	221.04
769.27	220.98
769.60	220.93
769.92	220.80
770.25	220.61
770.57	220.49
770.90	220.41
771.22	220.31
771.55	220.18
771.87	220.10
772.20	219.90
772.52	219.93
772.85	220.10
773.17	220.11
773.50	219.99
773.82	219.89
774.15	219.73
774.47	219.64
774.80	219.52
775.12	219.32
775.45	219.21
775.77	219.12
776.09	219.00
776.42	218.88
776.74	218.78
777.07	218.74
777.39	218.64
777.72	218.58
778.04	218.50
778.36	218.44
778.69	218.38
779.01	218.32
779.33	218.14
779.66	217.80
779.98	217.67
780.31	217.58
780.63	217.54
780.95	217.48
781.28	217.27
781.60	217.19
781.92	217.19
782.25	217.11
782.57	217.03
782.89	216.91
783.22	216.83
783.54	216.73
783.86	216.61
784.19	216.54
784.51	216.49
784.83	216.45
785.16	216.41
785.48	216.34
785.80	216.32
786.12	216.21
786.45	216.14
