SpectraSuite Data File
++++++++++++++++++++++++++++++++++++
Date: Mon Feb 25 17:30:46 EST 2013
User: group
Dark Spectrum Present: No
Reference Spectrum Present: No
Number of Sampled Component Spectra: 1
Spectrometers: USB2E7196
Integration Time (usec): 52000 (USB2E7196)
Spectra Averaged: 20 (USB2E7196)
Boxcar Smoothing: 10 (USB2E7196)
Correct for Electrical Dark: No (USB2E7196)
Strobe/Lamp Enabled: No (USB2E7196)
Correct for Detector Non-linearity: No (USB2E7196)
Correct for Stray Light: No (USB2E7196)
Number of Pixels in Processed Spectrum: 2048
>>>>>Begin Processed Spectral Data<<<<<
339.09	0.00
339.48	199.55
339.86	200.00
340.24	201.85
340.63	202.90
341.01	207.70
341.39	205.20
341.78	208.10
342.16	208.25
342.54	208.95
342.93	198.27
343.31	208.25
343.69	208.75
344.07	209.24
344.46	209.72
344.84	210.14
345.22	210.29
345.60	210.59
345.99	210.74
346.37	210.90
346.75	211.05
347.13	211.18
347.52	211.29
347.90	211.42
348.28	211.53
348.66	211.58
349.05	211.54
349.43	211.56
349.81	211.69
350.19	211.68
350.57	211.76
350.96	211.81
351.34	211.93
351.72	212.01
352.10	212.17
352.48	212.25
352.87	212.26
353.25	212.31
353.63	212.33
354.01	212.39
354.39	212.47
354.77	212.53
355.15	212.59
355.54	212.52
355.92	212.61
356.30	212.65
356.68	212.75
357.06	212.80
357.44	212.89
357.82	212.92
358.20	213.03
358.58	213.12
358.97	213.20
359.35	213.33
359.73	213.44
360.11	213.41
360.49	213.49
360.87	213.58
361.25	213.70
361.63	213.90
362.01	213.95
362.39	213.99
362.77	214.00
363.15	214.08
363.53	214.09
363.91	214.11
364.29	214.18
364.67	214.10
365.05	214.18
365.43	214.11
365.81	214.21
366.19	214.29
366.57	214.30
366.95	214.38
367.33	214.40
367.71	214.40
368.09	214.48
368.47	214.41
368.85	214.36
369.23	214.35
369.61	214.23
369.99	214.29
370.37	214.26
370.75	214.35
371.13	214.31
371.51	214.29
371.89	214.26
372.27	214.23
372.65	214.22
373.03	214.12
373.41	214.10
373.78	214.07
374.16	213.93
374.54	213.82
374.92	213.75
375.30	213.63
375.68	213.55
376.06	213.46
376.44	213.36
376.82	213.38
377.19	213.36
377.57	213.28
377.95	213.19
378.33	213.13
378.71	212.95
379.09	212.92
379.47	212.87
379.84	212.80
380.22	212.72
380.60	212.64
380.98	212.66
381.36	212.61
381.73	212.44
382.11	212.38
382.49	212.34
382.87	212.17
383.25	212.11
383.62	212.20
384.00	212.13
384.38	212.04
384.76	212.00
385.13	211.93
385.51	211.92
385.89	211.81
386.27	211.82
386.64	211.75
387.02	211.71
387.40	211.73
387.78	211.68
388.15	211.59
388.53	211.53
388.91	211.47
389.29	211.40
389.66	211.41
390.04	211.36
390.42	211.40
390.79	211.45
391.17	211.38
391.55	211.26
391.92	211.30
392.30	211.30
392.68	211.29
393.05	211.28
393.43	211.29
393.81	211.33
394.18	211.23
394.56	211.33
394.94	211.35
395.31	211.36
395.69	211.42
396.06	211.46
396.44	211.53
396.82	211.62
397.19	211.75
397.57	211.78
397.95	211.84
398.32	211.86
398.70	211.90
399.07	212.06
399.45	212.10
399.82	212.05
400.20	212.16
400.58	212.17
400.95	212.09
401.33	212.10
401.70	212.30
402.08	212.41
402.45	212.42
402.83	212.45
403.20	212.53
403.58	212.62
403.95	212.73
404.33	212.79
404.71	212.75
405.08	213.00
405.46	213.12
405.83	213.31
406.21	213.38
406.58	213.55
406.96	213.65
407.33	213.81
407.70	214.00
408.08	214.30
408.45	214.51
408.83	214.89
409.20	215.20
409.58	215.33
409.95	215.61
410.33	215.95
410.70	216.23
411.08	216.55
411.45	216.94
411.82	217.29
412.20	217.72
412.57	218.24
412.95	218.51
413.32	219.01
413.69	219.46
414.07	220.08
414.44	220.61
414.82	221.26
415.19	221.97
415.56	222.80
415.94	223.52
416.31	224.42
416.68	225.22
417.06	226.19
417.43	227.08
417.81	228.18
418.18	229.30
418.55	230.54
418.93	231.76
419.30	233.05
419.67	234.44
420.04	235.86
420.42	237.36
420.79	239.16
421.16	240.82
421.54	242.69
421.91	244.42
422.28	246.34
422.66	248.27
423.03	250.23
423.40	252.21
423.77	254.36
424.15	256.49
424.52	258.83
424.89	261.30
425.26	263.72
425.64	266.03
426.01	268.47
426.38	271.03
426.75	273.72
427.13	276.35
427.50	279.26
427.87	282.25
428.24	285.22
428.61	288.00
428.99	291.16
429.36	294.57
429.73	298.02
430.10	301.35
430.47	304.82
430.85	308.34
431.22	312.21
431.59	316.26
431.96	320.15
432.33	324.40
432.70	328.38
433.08	333.22
433.45	337.68
433.82	342.22
434.19	347.21
434.56	352.02
434.93	356.71
435.30	361.20
435.68	366.45
436.05	371.61
436.42	376.70
436.79	381.23
437.16	386.06
437.53	391.25
437.90	396.41
438.27	401.51
438.64	406.86
439.01	411.58
439.38	415.75
439.75	419.99
440.13	424.62
440.50	429.08
440.87	432.72
441.24	436.52
441.61	440.66
441.98	443.58
442.35	447.11
442.72	450.64
443.09	454.19
443.46	456.24
443.83	457.45
444.20	458.44
444.57	460.15
444.94	460.93
445.31	461.62
445.68	462.29
446.05	462.49
446.42	461.71
446.79	461.01
447.16	460.26
447.53	459.62
447.90	457.49
448.27	455.52
448.64	452.68
449.01	450.54
449.37	446.88
449.74	443.66
450.11	439.71
450.48	435.40
450.85	430.84
451.22	426.89
451.59	423.35
451.96	419.95
452.33	415.35
452.70	411.09
453.07	406.10
453.43	401.01
453.80	396.17
454.17	391.59
454.54	387.17
454.91	382.54
455.28	377.86
455.65	373.68
456.02	369.46
456.38	365.84
456.75	361.42
457.12	357.75
457.49	353.86
457.86	350.22
458.23	347.03
458.59	343.64
458.96	340.16
459.33	337.00
459.70	333.90
460.07	331.52
460.43	328.79
460.80	326.25
461.17	324.08
461.54	321.69
461.91	319.40
462.27	317.06
462.64	315.06
463.01	312.95
463.38	310.85
463.74	308.62
464.11	306.68
464.48	304.98
464.85	303.23
465.21	301.96
465.58	300.58
465.95	298.94
466.32	297.58
466.68	296.21
467.05	294.85
467.42	293.52
467.78	291.99
468.15	290.59
468.52	289.61
468.88	288.28
469.25	287.12
469.62	286.25
469.98	285.29
470.35	284.33
470.72	283.46
471.08	282.55
471.45	281.89
471.82	281.21
472.18	280.42
472.55	279.88
472.92	279.22
473.28	278.62
473.65	278.13
474.02	277.59
474.38	277.13
474.75	276.87
475.11	276.46
475.48	276.29
475.85	276.15
476.21	275.90
476.58	275.75
476.94	275.74
477.31	275.63
477.67	275.64
478.04	275.66
478.41	275.72
478.77	276.10
479.14	276.21
479.50	276.51
479.87	276.86
480.23	277.25
480.60	277.66
480.96	278.07
481.33	278.64
481.69	279.30
482.06	280.03
482.42	280.65
482.79	281.47
483.15	282.37
483.52	283.36
483.88	284.29
484.25	285.28
484.61	286.42
484.98	287.57
485.34	288.87
485.71	290.24
486.07	291.72
486.44	292.98
486.80	294.51
487.17	296.15
487.53	297.90
487.90	299.63
488.26	301.63
488.62	303.61
488.99	305.69
489.35	307.80
489.72	310.05
490.08	312.41
490.44	314.80
490.81	317.40
491.17	320.09
491.54	323.04
491.90	326.10
492.26	329.17
492.63	332.47
492.99	335.83
493.36	339.44
493.72	343.29
494.08	347.27
494.45	351.54
494.81	355.83
495.17	360.27
495.54	365.16
495.90	369.99
496.26	375.29
496.63	380.55
496.99	386.29
497.35	392.29
497.72	398.47
498.08	404.93
498.44	411.62
498.80	418.64
499.17	425.99
499.53	433.54
499.89	441.49
500.26	449.46
500.62	457.85
500.98	466.55
501.34	475.57
501.71	484.98
502.07	494.56
502.43	504.58
502.79	514.84
503.16	525.38
503.52	536.30
503.88	547.52
504.24	559.16
504.60	570.95
504.97	583.10
505.33	595.54
505.69	608.64
506.05	621.90
506.41	635.22
506.78	648.96
507.14	662.89
507.50	677.29
507.86	692.15
508.22	707.44
508.59	722.89
508.95	738.68
509.31	754.72
509.67	771.17
510.03	787.92
510.39	805.16
510.75	822.76
511.12	840.52
511.48	858.60
511.84	877.01
512.20	895.56
512.56	914.66
512.92	934.06
513.28	953.47
513.64	973.19
514.00	993.11
514.37	1013.02
514.73	1033.92
515.09	1054.50
515.45	1075.05
515.81	1095.93
516.17	1116.86
516.53	1138.12
516.89	1159.49
517.25	1180.85
517.61	1202.39
517.97	1223.54
518.33	1244.65
518.69	1266.27
519.05	1287.94
519.41	1309.71
519.77	1331.89
520.13	1353.59
520.49	1375.29
520.85	1397.71
521.21	1419.64
521.57	1442.13
521.93	1463.94
522.29	1485.90
522.65	1508.11
523.01	1530.58
523.37	1552.23
523.73	1574.29
524.09	1595.86
524.45	1617.63
524.81	1639.74
525.17	1661.75
525.53	1683.99
525.89	1705.81
526.25	1727.30
526.61	1748.23
526.97	1769.65
527.33	1790.55
527.68	1811.33
528.04	1831.94
528.40	1851.71
528.76	1872.11
529.12	1892.37
529.48	1913.52
529.84	1933.51
530.20	1953.16
530.56	1972.95
530.91	1993.24
531.27	2012.93
531.63	2032.41
531.99	2051.97
532.35	2070.43
532.71	2088.96
533.07	2107.57
533.42	2125.67
533.78	2144.02
534.14	2162.01
534.50	2178.86
534.86	2196.42
535.21	2212.86
535.57	2230.19
535.93	2246.97
536.29	2263.01
536.65	2279.00
537.00	2293.91
537.36	2308.65
537.72	2323.50
538.08	2338.05
538.44	2352.58
538.79	2367.79
539.15	2382.35
539.51	2396.18
539.87	2410.90
540.22	2424.66
540.58	2439.19
540.94	2453.38
541.29	2465.91
541.65	2477.57
542.01	2489.91
542.37	2501.30
542.72	2513.19
543.08	2523.87
543.44	2535.17
543.79	2545.17
544.15	2555.20
544.51	2565.95
544.87	2576.83
545.22	2585.77
545.58	2593.85
545.94	2600.76
546.29	2606.55
546.65	2612.16
547.01	2617.77
547.36	2623.25
547.72	2628.34
548.07	2631.83
548.43	2635.19
548.79	2638.68
549.14	2643.02
549.50	2647.33
549.86	2650.82
550.21	2654.69
550.57	2658.31
550.92	2660.89
551.28	2663.62
551.64	2665.65
551.99	2667.40
552.35	2668.63
552.70	2671.25
553.06	2673.76
553.41	2676.46
553.77	2678.83
554.13	2680.98
554.48	2682.84
554.84	2684.03
555.19	2684.66
555.55	2685.08
555.90	2685.41
556.26	2686.00
556.61	2685.89
556.97	2684.21
557.32	2683.71
557.68	2681.83
558.03	2679.93
558.39	2677.81
558.74	2676.90
559.10	2675.32
559.45	2673.48
559.81	2671.62
560.16	2668.51
560.52	2665.83
560.87	2662.95
561.23	2659.43
561.58	2656.88
561.94	2653.49
562.29	2649.46
562.64	2646.91
563.00	2644.42
563.35	2642.13
563.71	2639.75
564.06	2637.34
564.42	2635.37
564.77	2632.67
565.12	2630.56
565.48	2627.46
565.83	2624.37
566.19	2620.82
566.54	2616.84
566.89	2612.67
567.25	2608.90
567.60	2605.94
567.96	2602.72
568.31	2598.96
568.66	2595.19
569.02	2590.67
569.37	2585.90
569.72	2582.15
570.08	2576.95
570.43	2571.25
570.78	2565.19
571.14	2558.81
571.49	2552.21
571.84	2546.46
572.20	2539.87
572.55	2533.11
572.90	2526.28
573.26	2519.69
573.61	2512.84
573.96	2506.10
574.31	2498.33
574.67	2490.74
575.02	2482.03
575.37	2473.23
575.72	2464.38
576.08	2456.95
576.43	2448.38
576.78	2440.50
577.13	2432.59
577.49	2424.89
577.84	2417.22
578.19	2409.99
578.54	2403.20
578.90	2396.56
579.25	2387.55
579.60	2378.45
579.95	2369.71
580.30	2362.01
580.66	2354.08
581.01	2345.14
581.36	2336.04
581.71	2328.13
582.06	2319.57
582.42	2311.67
582.77	2302.86
583.12	2294.47
583.47	2285.69
583.82	2277.68
584.17	2268.82
584.53	2259.93
584.88	2251.03
585.23	2242.38
585.58	2232.91
585.93	2223.20
586.28	2214.02
586.63	2205.79
586.98	2198.00
587.34	2190.02
587.69	2181.10
588.04	2171.97
588.39	2163.97
588.74	2155.43
589.09	2146.82
589.44	2137.41
589.79	2128.87
590.14	2121.14
590.49	2113.07
590.84	2104.38
591.19	2096.22
591.54	2087.81
591.89	2077.99
592.25	2068.99
592.60	2059.63
592.95	2050.90
593.30	2041.69
593.65	2032.31
594.00	2022.86
594.35	2014.73
594.70	2005.80
595.05	1997.46
595.40	1989.07
595.75	1979.79
596.10	1971.84
596.45	1963.61
596.80	1956.49
597.15	1948.64
597.50	1939.91
597.85	1931.38
598.19	1923.00
598.54	1914.70
598.89	1906.89
599.24	1900.24
599.59	1893.21
599.94	1886.66
600.29	1879.04
600.64	1871.52
600.99	1863.47
601.34	1856.68
601.69	1848.06
602.04	1840.10
602.39	1832.14
602.74	1824.65
603.08	1818.12
603.43	1811.42
603.78	1803.61
604.13	1795.47
604.48	1787.70
604.83	1780.88
605.18	1774.06
605.53	1766.80
605.87	1759.49
606.22	1752.84
606.57	1745.28
606.92	1737.55
607.27	1729.41
607.62	1722.40
607.96	1715.68
608.31	1709.83
608.66	1701.88
609.01	1694.63
609.36	1686.90
609.70	1679.26
610.05	1671.70
610.40	1663.95
610.75	1655.65
611.10	1648.40
611.44	1639.51
611.79	1630.76
612.14	1621.67
612.49	1612.43
612.83	1603.99
613.18	1594.57
613.53	1585.17
613.88	1575.66
614.22	1566.71
614.57	1557.71
614.92	1548.43
615.27	1539.19
615.61	1529.37
615.96	1520.75
616.31	1512.65
616.65	1505.30
617.00	1497.27
617.35	1488.81
617.70	1479.81
618.04	1470.89
618.39	1461.72
618.74	1453.78
619.08	1445.29
619.43	1437.20
619.78	1429.49
620.12	1421.39
620.47	1413.94
620.82	1405.65
621.16	1397.60
621.51	1389.30
621.85	1381.31
622.20	1373.06
622.55	1365.04
622.89	1357.05
623.24	1349.53
623.59	1341.15
623.93	1332.38
624.28	1324.23
624.62	1316.32
624.97	1308.45
625.32	1300.72
625.66	1293.49
626.01	1286.40
626.35	1279.27
626.70	1271.94
627.04	1264.76
627.39	1257.44
627.73	1250.00
628.08	1243.40
628.43	1236.21
628.77	1229.32
629.12	1221.99
629.46	1215.59
629.81	1208.54
630.15	1201.51
630.50	1194.21
630.84	1186.87
631.19	1179.95
631.53	1173.08
631.88	1165.54
632.22	1158.28
632.57	1151.60
632.91	1144.37
633.26	1137.00
633.60	1130.11
633.95	1123.54
634.29	1116.36
634.64	1109.70
634.98	1102.79
635.32	1095.95
635.67	1089.77
636.01	1083.19
636.36	1076.68
636.70	1070.11
637.05	1063.78
637.39	1057.52
637.73	1051.41
638.08	1045.57
638.42	1039.77
638.77	1033.57
639.11	1027.43
639.45	1021.60
639.80	1014.94
640.14	1008.59
640.49	1002.59
640.83	996.60
641.17	990.18
641.52	984.12
641.86	977.80
642.20	971.94
642.55	965.42
642.89	958.98
643.23	952.64
643.58	946.65
643.92	940.22
644.26	933.94
644.61	927.85
644.95	921.68
645.29	915.43
645.64	909.07
645.98	902.88
646.32	897.25
646.66	891.11
647.01	885.44
647.35	879.72
647.69	873.58
648.04	867.49
648.38	861.63
648.72	855.86
649.06	849.73
649.41	843.65
649.75	837.82
650.09	832.10
650.43	826.32
650.78	820.40
651.12	814.61
651.46	809.03
651.80	803.37
652.14	797.51
652.49	791.90
652.83	786.28
653.17	780.50
653.51	774.54
653.85	768.94
654.20	763.13
654.54	757.53
654.88	752.07
655.22	746.58
655.56	740.85
655.90	735.05
656.25	729.67
656.59	724.36
656.93	719.34
657.27	714.30
657.61	708.90
657.95	703.95
658.29	698.92
658.64	693.84
658.98	688.67
659.32	683.51
659.66	678.37
660.00	673.04
660.34	668.00
660.68	662.93
661.02	657.95
661.36	653.44
661.70	648.60
662.05	644.11
662.39	639.76
662.73	635.51
663.07	631.37
663.41	627.20
663.75	622.53
664.09	617.81
664.43	613.02
664.77	608.75
665.11	604.31
665.45	599.85
665.79	595.45
666.13	591.16
666.47	587.12
666.81	583.01
667.15	579.05
667.49	575.15
667.83	571.49
668.17	567.77
668.51	563.94
668.85	560.40
669.19	556.76
669.53	552.85
669.87	548.91
670.21	545.03
670.55	541.16
670.89	537.83
671.23	534.60
671.57	531.32
671.91	527.80
672.25	524.38
672.58	521.12
672.92	517.80
673.26	514.76
673.60	511.55
673.94	508.29
674.28	505.10
674.62	502.04
674.96	498.89
675.30	495.87
675.64	492.76
675.97	489.63
676.31	486.64
676.65	483.74
676.99	481.07
677.33	478.17
677.67	475.35
678.01	472.36
678.34	469.44
678.68	466.57
679.02	463.74
679.36	461.02
679.70	458.29
680.04	455.42
680.37	452.42
680.71	449.64
681.05	447.10
681.39	444.51
681.73	441.89
682.06	439.41
682.40	436.95
682.74	434.51
683.08	432.03
683.42	429.50
683.75	427.00
684.09	424.45
684.43	422.14
684.77	419.69
685.10	417.32
685.44	414.84
685.78	412.45
686.12	410.23
686.45	407.91
686.79	405.54
687.13	403.47
687.46	401.35
687.80	399.22
688.14	397.01
688.48	394.93
688.81	392.72
689.15	390.54
689.49	388.30
689.82	386.00
690.16	383.59
690.50	381.35
690.83	379.18
691.17	377.03
691.51	374.80
691.84	372.70
692.18	370.67
692.52	368.86
692.85	367.07
693.19	365.17
693.52	363.25
693.86	361.38
694.20	359.50
694.53	357.73
694.87	355.79
695.21	353.84
695.54	351.99
695.88	350.22
696.21	348.37
696.55	346.61
696.88	344.99
697.22	343.44
697.56	341.87
697.89	340.25
698.23	338.67
698.56	337.15
698.90	335.75
699.23	334.21
699.57	332.60
699.90	330.97
700.24	329.33
700.58	327.82
700.91	326.35
701.25	324.96
701.58	323.54
701.92	322.23
702.25	320.97
702.59	319.57
702.92	318.23
703.26	316.90
703.59	315.71
703.93	314.58
704.26	313.35
704.60	312.05
704.93	310.82
705.26	309.56
705.60	308.38
705.93	307.15
706.27	306.07
706.60	305.03
706.94	303.97
707.27	302.84
707.61	301.70
707.94	300.60
708.27	299.42
708.61	298.27
708.94	297.12
709.28	295.99
709.61	294.94
709.94	293.85
710.28	292.86
710.61	291.90
710.95	290.70
711.28	289.80
711.61	288.87
711.95	287.95
712.28	287.01
712.61	285.99
712.95	285.11
713.28	284.20
713.61	283.11
713.95	282.18
714.28	281.35
714.61	280.45
714.95	279.56
715.28	278.70
715.61	277.74
715.95	276.90
716.28	276.12
716.61	275.27
716.95	274.53
717.28	273.69
717.61	272.81
717.94	272.12
718.28	271.20
718.61	270.35
718.94	269.58
719.27	268.86
719.61	268.21
719.94	267.41
720.27	266.61
720.60	265.96
720.94	265.16
721.27	264.51
721.60	263.95
721.93	263.30
722.27	262.77
722.60	262.21
722.93	261.61
723.26	261.04
723.59	260.41
723.93	259.79
724.26	259.27
724.59	258.71
724.92	258.17
725.25	257.67
725.59	257.20
725.92	256.72
726.25	256.17
726.58	255.70
726.91	255.16
727.24	254.72
727.57	254.26
727.91	253.83
728.24	253.41
728.57	252.88
728.90	252.49
729.23	251.91
729.56	251.54
729.89	251.16
730.22	250.69
730.55	250.30
730.89	249.82
731.22	249.45
731.55	249.00
731.88	248.57
732.21	248.17
732.54	247.76
732.87	247.29
733.20	246.92
733.53	246.36
733.86	246.03
734.19	245.57
734.52	245.18
734.85	244.95
735.18	244.51
735.51	244.19
735.84	243.90
736.17	243.59
736.50	243.12
736.83	242.89
737.16	242.47
737.49	242.13
737.82	241.79
738.15	241.41
738.48	241.13
738.81	240.78
739.14	240.31
739.47	239.89
739.80	239.50
740.13	239.09
740.46	238.83
740.79	238.41
741.12	238.05
741.45	237.68
741.78	237.22
742.11	236.97
742.44	236.55
742.77	236.18
743.10	235.85
743.43	235.58
743.75	235.05
744.08	234.95
744.41	234.56
744.74	234.27
745.07	233.92
745.40	233.65
745.73	233.41
746.06	233.24
746.39	233.00
746.71	232.75
747.04	232.54
747.37	232.28
747.70	232.12
748.03	231.86
748.36	231.61
748.68	231.41
749.01	231.04
749.34	230.91
749.67	230.69
750.00	230.53
750.33	230.36
750.65	230.22
750.98	229.85
751.31	229.73
751.64	229.50
751.97	229.44
752.29	229.14
752.62	228.89
752.95	228.60
753.28	228.43
753.60	228.24
753.93	228.10
754.26	227.96
754.59	227.65
754.91	227.56
755.24	227.38
755.57	227.19
755.90	227.07
756.22	226.76
756.55	226.47
756.88	226.23
757.20	226.01
757.53	225.74
757.86	225.58
758.19	225.33
758.51	225.19
758.84	224.90
759.17	224.80
759.49	224.65
759.82	224.65
760.15	224.45
760.47	224.27
760.80	224.03
761.13	223.84
761.45	223.73
761.78	223.54
762.11	223.47
762.43	223.33
762.76	223.19
763.08	223.10
763.41	222.99
763.74	222.83
764.06	222.62
764.39	222.55
764.71	222.40
765.04	222.33
765.37	222.18
765.69	222.01
766.02	221.85
766.34	221.70
766.67	221.48
767.00	221.46
767.32	221.51
767.65	221.53
767.97	221.45
768.30	221.32
768.62	221.22
768.95	221.05
769.27	220.92
769.60	220.84
769.92	220.78
770.25	220.65
770.57	220.57
770.90	220.54
771.22	220.38
771.55	220.29
771.87	220.11
772.20	220.00
772.52	220.07
772.85	220.21
773.17	220.06
773.50	219.97
773.82	219.78
774.15	219.55
774.47	219.36
774.80	219.16
775.12	219.12
775.45	219.03
775.77	218.96
776.09	218.91
776.42	218.76
776.74	218.71
777.07	218.71
777.39	218.62
777.72	218.48
778.04	218.31
778.36	218.19
778.69	218.20
779.01	218.11
779.33	217.96
779.66	217.66
779.98	217.59
780.31	217.59
780.63	217.61
780.95	217.59
781.28	217.49
781.60	217.48
781.92	217.43
782.25	217.31
782.57	217.30
782.89	217.20
783.22	217.18
783.54	217.07
783.86	216.99
784.19	216.92
784.51	216.95
784.83	217.00
785.16	216.93
785.48	216.81
785.80	216.75
786.12	216.70
786.45	216.59
