SpectraSuite Data File
++++++++++++++++++++++++++++++++++++
Date: Mon Feb 25 17:35:05 EST 2013
User: group
Dark Spectrum Present: No
Reference Spectrum Present: No
Number of Sampled Component Spectra: 1
Spectrometers: USB2E7196
Integration Time (usec): 52000 (USB2E7196)
Spectra Averaged: 20 (USB2E7196)
Boxcar Smoothing: 10 (USB2E7196)
Correct for Electrical Dark: No (USB2E7196)
Strobe/Lamp Enabled: No (USB2E7196)
Correct for Detector Non-linearity: No (USB2E7196)
Correct for Stray Light: No (USB2E7196)
Number of Pixels in Processed Spectrum: 2048
>>>>>Begin Processed Spectral Data<<<<<
339.09	0.00
339.48	199.60
339.86	200.25
340.24	202.20
340.63	203.00
341.01	207.05
341.39	206.30
341.78	208.00
342.16	208.95
342.54	210.15
342.93	198.49
343.31	208.51
343.69	209.01
344.07	209.49
344.46	209.92
344.84	210.36
345.22	210.54
345.60	210.76
345.99	210.88
346.37	211.01
346.75	211.07
347.13	211.19
347.52	211.21
347.90	211.32
348.28	211.36
348.66	211.39
349.05	211.33
349.43	211.30
349.81	211.38
350.19	211.40
350.57	211.41
350.96	211.53
351.34	211.55
351.72	211.63
352.10	211.70
352.48	211.72
352.87	211.72
353.25	211.81
353.63	211.88
354.01	211.92
354.39	211.98
354.77	211.97
355.15	211.99
355.54	212.00
355.92	211.95
356.30	211.97
356.68	212.12
357.06	212.27
357.44	212.36
357.82	212.44
358.20	212.48
358.58	212.54
358.97	212.56
359.35	212.68
359.73	212.74
360.11	212.77
360.49	212.87
360.87	212.97
361.25	213.00
361.63	213.08
362.01	213.16
362.39	213.22
362.77	213.32
363.15	213.33
363.53	213.37
363.91	213.46
364.29	213.49
364.67	213.40
365.05	213.38
365.43	213.42
365.81	213.40
366.19	213.57
366.57	213.68
366.95	213.70
367.33	213.68
367.71	213.73
368.09	213.80
368.47	213.75
368.85	213.71
369.23	213.68
369.61	213.58
369.99	213.65
370.37	213.60
370.75	213.63
371.13	213.58
371.51	213.55
371.89	213.51
372.27	213.48
372.65	213.45
373.03	213.39
373.41	213.27
373.78	213.23
374.16	213.03
374.54	212.87
374.92	212.86
375.30	212.85
375.68	212.74
376.06	212.71
376.44	212.64
376.82	212.57
377.19	212.58
377.57	212.62
377.95	212.53
378.33	212.50
378.71	212.33
379.09	212.35
379.47	212.36
379.84	212.27
380.22	212.18
380.60	212.12
380.98	212.03
381.36	212.07
381.73	212.03
382.11	212.05
382.49	212.06
382.87	211.97
383.25	211.88
383.62	212.09
384.00	212.05
384.38	212.08
384.76	212.08
385.13	212.17
385.51	212.11
385.89	212.06
386.27	212.04
386.64	212.10
387.02	212.03
387.40	212.00
387.78	212.00
388.15	212.02
388.53	211.91
388.91	211.96
389.29	211.93
389.66	211.97
390.04	211.94
390.42	211.92
390.79	211.96
391.17	211.97
391.55	211.73
391.92	211.64
392.30	211.62
392.68	211.57
393.05	211.55
393.43	211.58
393.81	211.53
394.18	211.49
394.56	211.46
394.94	211.55
395.31	211.50
395.69	211.62
396.06	211.67
396.44	211.77
396.82	211.75
397.19	211.81
397.57	211.79
397.95	211.82
398.32	211.83
398.70	211.85
399.07	211.86
399.45	211.84
399.82	211.87
400.20	211.95
400.58	211.97
400.95	211.87
401.33	211.98
401.70	212.20
402.08	212.27
402.45	212.41
402.83	212.51
403.20	212.58
403.58	212.64
403.95	212.75
404.33	212.91
404.71	213.01
405.08	213.21
405.46	213.31
405.83	213.48
406.21	213.61
406.58	213.78
406.96	213.90
407.33	214.19
407.70	214.45
408.08	214.74
408.45	214.98
408.83	215.28
409.20	215.43
409.58	215.55
409.95	215.92
410.33	216.19
410.70	216.40
411.08	216.81
411.45	217.10
411.82	217.46
412.20	217.85
412.57	218.44
412.95	218.76
413.32	219.35
413.69	219.84
414.07	220.40
414.44	221.02
414.82	221.78
415.19	222.52
415.56	223.22
415.94	224.01
416.31	224.89
416.68	225.80
417.06	226.80
417.43	227.80
417.81	228.83
418.18	229.98
418.55	231.25
418.93	232.46
419.30	233.85
419.67	235.24
420.04	236.63
420.42	238.10
420.79	239.96
421.16	241.64
421.54	243.51
421.91	245.41
422.28	247.31
422.66	249.35
423.03	251.49
423.40	253.59
423.77	255.67
424.15	257.95
424.52	260.33
424.89	262.94
425.26	265.49
425.64	267.95
426.01	270.49
426.38	273.19
426.75	276.05
427.13	278.84
427.50	281.83
427.87	284.97
428.24	288.06
428.61	290.94
428.99	294.16
429.36	297.65
429.73	301.00
430.10	304.54
430.47	308.12
430.85	311.66
431.22	315.64
431.59	319.97
431.96	323.90
432.33	328.21
432.70	332.36
433.08	337.34
433.45	341.82
433.82	346.54
434.19	351.67
434.56	356.62
434.93	361.42
435.30	366.33
435.68	371.58
436.05	376.83
436.42	382.01
436.79	386.81
437.16	392.00
437.53	397.44
437.90	402.65
438.27	407.92
438.64	413.41
439.01	418.29
439.38	422.74
439.75	427.01
440.13	431.88
440.50	436.54
440.87	440.17
441.24	444.04
441.61	448.27
441.98	451.40
442.35	454.90
442.72	458.56
443.09	461.95
443.46	464.09
443.83	465.42
444.20	466.73
444.57	468.53
444.94	469.15
445.31	470.02
445.68	470.75
446.05	470.85
446.42	470.20
446.79	469.53
447.16	468.49
447.53	467.90
447.90	465.78
448.27	463.65
448.64	460.61
449.01	458.63
449.37	454.90
449.74	451.35
450.11	447.32
450.48	442.89
450.85	438.29
451.22	434.33
451.59	430.54
451.96	426.80
452.33	421.91
452.70	417.56
453.07	412.28
453.43	407.07
453.80	402.03
454.17	397.07
454.54	392.41
454.91	387.66
455.28	382.89
455.65	378.46
456.02	374.04
456.38	370.32
456.75	365.60
457.12	361.80
457.49	357.97
457.86	354.19
458.23	350.83
458.59	347.38
458.96	343.80
459.33	340.65
459.70	337.40
460.07	334.95
460.43	332.02
460.80	329.37
461.17	326.96
461.54	324.50
461.91	322.27
462.27	319.95
462.64	317.86
463.01	315.63
463.38	313.45
463.74	311.17
464.11	309.42
464.48	307.74
464.85	305.91
465.21	304.58
465.58	303.21
465.95	301.48
466.32	299.97
466.68	298.51
467.05	297.09
467.42	295.75
467.78	294.22
468.15	293.01
468.52	292.02
468.88	290.73
469.25	289.50
469.62	288.55
469.98	287.52
470.35	286.61
470.72	285.73
471.08	284.77
471.45	284.01
471.82	283.11
472.18	282.29
472.55	281.80
472.92	280.97
473.28	280.24
473.65	279.68
474.02	279.16
474.38	278.61
474.75	278.31
475.11	277.88
475.48	277.62
475.85	277.33
476.21	277.05
476.58	276.87
476.94	276.88
477.31	276.71
477.67	276.73
478.04	276.69
478.41	276.82
478.77	277.17
479.14	277.39
479.50	277.64
479.87	278.05
480.23	278.37
480.60	278.73
480.96	279.22
481.33	279.84
481.69	280.41
482.06	281.22
482.42	281.86
482.79	282.64
483.15	283.52
483.52	284.45
483.88	285.45
484.25	286.53
484.61	287.48
484.98	288.60
485.34	289.86
485.71	291.25
486.07	292.68
486.44	294.07
486.80	295.60
487.17	297.29
487.53	298.94
487.90	300.68
488.26	302.68
488.62	304.79
488.99	306.85
489.35	309.02
489.72	311.34
490.08	313.65
490.44	316.02
490.81	318.72
491.17	321.44
491.54	324.33
491.90	327.21
492.26	330.46
492.63	333.83
492.99	337.28
493.36	340.93
493.72	344.84
494.08	348.84
494.45	353.17
494.81	357.67
495.17	362.25
495.54	367.15
495.90	372.29
496.26	377.44
496.63	382.93
496.99	388.67
497.35	394.63
497.72	401.02
498.08	407.62
498.44	414.28
498.80	421.52
499.17	429.01
499.53	436.70
499.89	444.79
500.26	452.94
500.62	461.30
500.98	470.16
501.34	479.27
501.71	488.69
502.07	498.24
502.43	508.24
502.79	518.50
503.16	529.07
503.52	540.01
503.88	551.32
504.24	562.99
504.60	574.90
504.97	587.27
505.33	599.85
505.69	613.28
506.05	626.73
506.41	640.25
506.78	654.08
507.14	668.24
507.50	682.89
507.86	697.85
508.22	713.40
508.59	729.01
508.95	745.08
509.31	761.28
509.67	778.02
510.03	795.02
510.39	812.63
510.75	830.45
511.12	848.52
511.48	866.70
511.84	885.44
512.20	904.17
512.56	923.45
512.92	942.97
513.28	962.28
513.64	982.20
514.00	1002.25
514.37	1022.58
514.73	1043.62
515.09	1064.37
515.45	1085.35
515.81	1106.62
516.17	1127.87
516.53	1149.06
516.89	1170.75
517.25	1192.55
517.61	1214.21
517.97	1235.78
518.33	1257.51
518.69	1279.14
519.05	1301.59
519.41	1323.88
519.77	1346.69
520.13	1368.89
520.49	1390.84
520.85	1413.70
521.21	1436.41
521.57	1459.66
521.93	1481.75
522.29	1504.53
522.65	1527.35
523.01	1550.15
523.37	1572.36
523.73	1595.05
524.09	1617.57
524.45	1640.26
524.81	1663.07
525.17	1685.74
525.53	1708.30
525.89	1730.95
526.25	1753.68
526.61	1775.10
526.97	1796.89
527.33	1818.22
527.68	1840.09
528.04	1861.71
528.40	1882.21
528.76	1902.94
529.12	1923.73
529.48	1945.84
529.84	1966.38
530.20	1986.54
530.56	2006.92
530.91	2027.94
531.27	2048.50
531.63	2068.82
531.99	2088.75
532.35	2107.75
532.71	2127.25
533.07	2147.17
533.42	2165.72
533.78	2184.48
534.14	2203.38
534.50	2220.54
534.86	2239.02
535.21	2255.79
535.57	2274.15
535.93	2291.95
536.29	2308.97
536.65	2325.58
537.00	2341.01
537.36	2356.59
537.72	2372.41
538.08	2387.87
538.44	2403.13
538.79	2418.37
539.15	2433.75
539.51	2448.49
539.87	2464.08
540.22	2478.50
540.58	2493.56
540.94	2508.13
541.29	2521.20
541.65	2533.85
542.01	2547.54
542.37	2559.51
542.72	2571.95
543.08	2582.98
543.44	2594.86
543.79	2605.45
544.15	2616.09
544.51	2627.63
544.87	2638.92
545.22	2648.23
545.58	2657.20
545.94	2665.06
546.29	2671.90
546.65	2677.85
547.01	2684.40
547.36	2690.38
547.72	2696.53
548.07	2700.14
548.43	2704.22
548.79	2708.23
549.14	2712.68
549.50	2717.07
549.86	2721.29
550.21	2725.75
550.57	2730.15
550.92	2733.11
551.28	2736.09
551.64	2738.82
551.99	2741.24
552.35	2743.01
552.70	2746.15
553.06	2748.83
553.41	2751.71
553.77	2754.59
554.13	2757.23
554.48	2759.69
554.84	2761.05
555.19	2761.22
555.55	2762.33
555.90	2763.02
556.26	2763.75
556.61	2763.89
556.97	2762.62
557.32	2761.99
557.68	2760.55
558.03	2758.88
558.39	2756.99
558.74	2756.68
559.10	2755.53
559.45	2753.81
559.81	2752.56
560.16	2749.69
560.52	2747.36
560.87	2744.20
561.23	2740.88
561.58	2738.21
561.94	2734.42
562.29	2730.65
562.64	2728.81
563.00	2726.35
563.35	2724.53
563.71	2723.08
564.06	2721.00
564.42	2719.48
564.77	2717.53
565.12	2715.64
565.48	2712.33
565.83	2709.59
566.19	2706.28
566.54	2702.12
566.89	2698.14
567.25	2694.54
567.60	2691.42
567.96	2687.93
568.31	2684.97
568.66	2681.43
569.02	2677.05
569.37	2672.10
569.72	2668.41
570.08	2662.61
570.43	2656.89
570.78	2650.95
571.14	2643.99
571.49	2637.31
571.84	2631.50
572.20	2624.55
572.55	2617.88
572.90	2611.43
573.26	2604.61
573.61	2597.58
573.96	2590.73
574.31	2582.93
574.67	2574.66
575.02	2566.12
575.37	2557.17
575.72	2547.80
576.08	2539.65
576.43	2530.95
576.78	2523.18
577.13	2515.11
577.49	2507.13
577.84	2499.56
578.19	2491.99
578.54	2484.87
578.90	2478.01
579.25	2468.91
579.60	2459.60
579.95	2450.10
580.30	2441.64
580.66	2433.48
581.01	2423.98
581.36	2414.82
581.71	2406.64
582.06	2397.94
582.42	2389.89
582.77	2380.83
583.12	2371.72
583.47	2363.04
583.82	2354.53
584.17	2345.41
584.53	2336.22
584.88	2327.34
585.23	2317.84
585.58	2307.92
585.93	2297.93
586.28	2288.56
586.63	2279.62
586.98	2271.40
587.34	2263.16
587.69	2254.19
588.04	2244.76
588.39	2236.60
588.74	2227.48
589.09	2218.45
589.44	2209.13
589.79	2200.29
590.14	2192.54
590.49	2184.25
590.84	2175.33
591.19	2167.30
591.54	2158.31
591.89	2148.16
592.25	2138.76
592.60	2129.43
592.95	2119.82
593.30	2110.51
593.65	2100.56
594.00	2091.01
594.35	2082.50
594.70	2072.91
595.05	2064.17
595.40	2055.08
595.75	2045.34
596.10	2037.18
596.45	2028.54
596.80	2020.43
597.15	2011.98
597.50	2002.48
597.85	1993.87
598.19	1984.67
598.54	1975.63
598.89	1967.55
599.24	1960.81
599.59	1953.28
599.94	1945.98
600.29	1938.28
600.64	1930.06
600.99	1921.53
601.34	1914.31
601.69	1905.28
602.04	1897.26
602.39	1888.85
602.74	1881.20
603.08	1874.55
603.43	1866.89
603.78	1858.55
604.13	1850.25
604.48	1842.03
604.83	1835.17
605.18	1827.99
605.53	1820.33
605.87	1812.86
606.22	1805.49
606.57	1797.15
606.92	1789.20
607.27	1780.84
607.62	1773.64
607.96	1766.74
608.31	1760.40
608.66	1752.33
609.01	1745.09
609.36	1737.22
609.70	1729.16
610.05	1721.28
610.40	1712.70
610.75	1704.47
611.10	1696.67
611.44	1687.55
611.79	1678.42
612.14	1668.72
612.49	1659.02
612.83	1650.25
613.18	1640.31
613.53	1630.82
613.88	1621.17
614.22	1612.05
614.57	1602.55
614.92	1593.06
615.27	1583.65
615.61	1573.55
615.96	1564.49
616.31	1555.67
616.65	1547.71
617.00	1539.50
617.35	1530.67
617.70	1521.59
618.04	1512.14
618.39	1502.65
618.74	1494.26
619.08	1485.61
619.43	1477.62
619.78	1469.65
620.12	1461.48
620.47	1453.93
620.82	1445.28
621.16	1436.85
621.51	1428.26
621.85	1420.20
622.20	1411.31
622.55	1402.68
622.89	1394.71
623.24	1386.55
623.59	1377.52
623.93	1368.72
624.28	1360.16
624.62	1351.94
624.97	1343.93
625.32	1336.20
625.66	1328.92
626.01	1321.60
626.35	1314.38
626.70	1306.50
627.04	1298.88
627.39	1291.25
627.73	1283.50
628.08	1276.73
628.43	1269.38
628.77	1261.87
629.12	1254.42
629.46	1247.82
629.81	1240.53
630.15	1232.85
630.50	1225.27
630.84	1218.16
631.19	1210.92
631.53	1203.91
631.88	1196.15
632.22	1188.39
632.57	1181.37
632.91	1173.90
633.26	1166.33
633.60	1158.84
633.95	1151.80
634.29	1144.43
634.64	1137.67
634.98	1130.57
635.32	1123.47
635.67	1116.96
636.01	1110.27
636.36	1103.41
636.70	1096.66
637.05	1090.31
637.39	1084.10
637.73	1077.90
638.08	1071.89
638.42	1066.02
638.77	1059.52
639.11	1053.26
639.45	1047.10
639.80	1040.36
640.14	1033.66
640.49	1027.48
640.83	1021.29
641.17	1014.90
641.52	1008.92
641.86	1002.35
642.20	995.93
642.55	989.04
642.89	982.52
643.23	976.21
643.58	970.19
643.92	963.70
644.26	957.22
644.61	950.87
644.95	944.52
645.29	938.18
645.64	931.37
645.98	925.13
646.32	919.12
646.66	913.05
647.01	907.17
647.35	901.47
647.69	894.91
648.04	889.02
648.38	883.08
648.72	876.99
649.06	870.77
649.41	864.85
649.75	859.02
650.09	853.07
650.43	846.95
650.78	840.79
651.12	834.81
651.46	828.95
651.80	823.06
652.14	817.24
652.49	811.34
652.83	805.44
653.17	799.42
653.51	793.55
653.85	787.87
654.20	781.93
654.54	775.95
654.88	770.64
655.22	764.60
655.56	758.65
655.90	752.68
656.25	746.90
656.59	741.24
656.93	736.17
657.27	730.93
657.61	725.41
657.95	720.25
658.29	715.11
658.64	710.06
658.98	704.77
659.32	699.43
659.66	694.09
660.00	688.86
660.34	683.63
660.68	678.49
661.02	673.48
661.36	668.80
661.70	663.92
662.05	659.17
662.39	654.88
662.73	650.58
663.07	646.31
663.41	641.99
663.75	637.47
664.09	632.60
664.43	627.77
664.77	623.46
665.11	618.83
665.45	614.46
665.79	609.94
666.13	605.61
666.47	601.18
666.81	597.09
667.15	592.96
667.49	589.12
667.83	585.04
668.17	580.94
668.51	576.97
668.85	573.27
669.19	569.45
669.53	565.32
669.87	561.09
670.21	557.13
670.55	553.21
670.89	549.66
671.23	546.43
671.57	542.93
671.91	539.31
672.25	535.73
672.58	532.00
672.92	528.53
673.26	525.26
673.60	521.99
673.94	518.54
674.28	515.33
674.62	511.98
674.96	508.92
675.30	505.81
675.64	502.47
675.97	499.26
676.31	496.12
676.65	493.25
676.99	490.65
677.33	487.65
677.67	484.86
678.01	481.66
678.34	478.44
678.68	475.47
679.02	472.55
679.36	469.77
679.70	466.99
680.04	464.04
680.37	461.08
680.71	458.43
681.05	455.82
681.39	452.99
681.73	450.24
682.06	447.63
682.40	445.01
682.74	442.39
683.08	439.85
683.42	437.21
683.75	434.54
684.09	431.93
684.43	429.38
684.77	426.76
685.10	424.33
685.44	421.78
685.78	419.36
686.12	416.98
686.45	414.51
686.79	412.16
687.13	410.05
687.46	407.88
687.80	405.60
688.14	403.22
688.48	401.11
688.81	398.82
689.15	396.62
689.49	394.30
689.82	392.19
690.16	389.80
690.50	387.49
690.83	385.25
691.17	382.89
691.51	380.61
691.84	378.42
692.18	376.42
692.52	374.42
692.85	372.48
693.19	370.59
693.52	368.68
693.86	366.66
694.20	364.73
694.53	362.82
694.87	360.83
695.21	358.95
695.54	356.93
695.88	355.08
696.21	353.08
696.55	351.38
696.88	349.50
697.22	347.75
697.56	346.20
697.89	344.56
698.23	342.89
698.56	341.42
698.90	339.92
699.23	338.28
699.57	336.62
699.90	334.87
700.24	333.24
700.58	331.73
700.91	330.17
701.25	328.78
701.58	327.33
701.92	325.87
702.25	324.46
702.59	323.07
702.92	321.79
703.26	320.50
703.59	319.14
703.93	317.99
704.26	316.80
704.60	315.43
704.93	314.20
705.26	313.00
705.60	311.72
705.93	310.44
706.27	309.24
706.60	308.16
706.94	307.26
707.27	306.11
707.61	304.91
707.94	303.81
708.27	302.39
708.61	301.24
708.94	300.17
709.28	298.89
709.61	297.68
709.94	296.51
710.28	295.37
710.61	294.39
710.95	293.22
711.28	292.29
711.61	291.24
711.95	290.18
712.28	289.20
712.61	288.23
712.95	287.29
713.28	286.30
713.61	285.35
713.95	284.35
714.28	283.45
714.61	282.46
714.95	281.50
715.28	280.60
715.61	279.57
715.95	278.63
716.28	277.82
716.61	277.01
716.95	276.16
717.28	275.36
717.61	274.36
717.94	273.55
718.28	272.65
718.61	271.92
718.94	271.17
719.27	270.41
719.61	269.69
719.94	268.96
720.27	268.20
720.60	267.43
720.94	266.65
721.27	265.96
721.60	265.40
721.93	264.83
722.27	264.27
722.60	263.76
722.93	263.12
723.26	262.50
723.59	261.91
723.93	261.36
724.26	260.81
724.59	260.31
724.92	259.81
725.25	259.28
725.59	258.72
725.92	258.15
726.25	257.63
726.58	257.06
726.91	256.61
727.24	256.18
727.57	255.63
727.91	255.08
728.24	254.64
728.57	253.98
728.90	253.59
729.23	253.15
729.56	252.66
729.89	252.24
730.22	251.81
730.55	251.38
730.89	250.96
731.22	250.51
731.55	250.12
731.88	249.62
732.21	249.19
732.54	248.74
732.87	248.34
733.20	247.91
733.53	247.53
733.86	247.06
734.19	246.62
734.52	246.33
734.85	246.10
735.18	245.65
735.51	245.38
735.84	244.91
736.17	244.54
736.50	244.11
736.83	243.96
737.16	243.63
737.49	243.30
737.82	242.85
738.15	242.38
738.48	241.98
738.81	241.61
739.14	241.19
739.47	240.83
739.80	240.45
740.13	240.01
740.46	239.62
740.79	239.25
741.12	238.95
741.45	238.55
741.78	238.10
742.11	237.86
742.44	237.47
742.77	237.19
743.10	236.81
743.43	236.57
743.75	236.04
744.08	235.96
744.41	235.61
744.74	235.28
745.07	234.99
745.40	234.78
745.73	234.58
746.06	234.27
746.39	234.00
746.71	233.70
747.04	233.41
747.37	233.22
747.70	233.03
748.03	232.70
748.36	232.44
748.68	232.20
749.01	231.85
749.34	231.69
749.67	231.46
750.00	231.18
750.33	230.97
750.65	230.74
750.98	230.18
751.31	229.97
751.64	229.78
751.97	229.66
752.29	229.41
752.62	229.10
752.95	228.85
753.28	228.60
753.60	228.36
753.93	228.20
754.26	227.91
754.59	227.62
754.91	227.44
755.24	227.20
755.57	226.96
755.90	226.78
756.22	226.60
756.55	226.30
756.88	226.08
757.20	225.80
757.53	225.56
757.86	225.46
758.19	225.30
758.51	225.10
758.84	224.85
759.17	224.65
759.49	224.49
759.82	224.50
760.15	224.34
760.47	224.20
760.80	224.00
761.13	223.88
761.45	223.70
761.78	223.55
762.11	223.40
762.43	223.29
762.76	223.14
763.08	222.94
763.41	222.80
763.74	222.72
764.06	222.61
764.39	222.47
764.71	222.28
765.04	222.11
765.37	222.03
765.69	221.90
766.02	221.80
766.34	221.64
766.67	221.41
767.00	221.34
767.32	221.37
767.65	221.36
767.97	221.20
768.30	221.06
768.62	220.88
768.95	220.84
769.27	220.68
769.60	220.57
769.92	220.41
770.25	220.35
770.57	220.22
770.90	220.05
771.22	219.95
771.55	219.88
771.87	219.82
772.20	219.72
772.52	219.81
772.85	219.88
773.17	219.81
773.50	219.71
773.82	219.55
774.15	219.32
774.47	219.13
774.80	219.01
775.12	218.91
775.45	218.81
775.77	218.68
776.09	218.65
776.42	218.55
776.74	218.55
777.07	218.46
777.39	218.38
777.72	218.34
778.04	218.24
778.36	218.10
778.69	217.95
779.01	217.90
779.33	217.62
779.66	217.40
779.98	217.31
780.31	217.28
780.63	217.32
780.95	217.27
781.28	217.18
781.60	217.12
781.92	217.15
782.25	217.10
782.57	217.04
782.89	216.95
783.22	216.87
783.54	216.67
783.86	216.62
784.19	216.50
784.51	216.47
784.83	216.34
785.16	216.32
785.48	216.27
785.80	216.20
786.12	216.18
786.45	216.14
