SpectraSuite Data File
++++++++++++++++++++++++++++++++++++
Date: Mon Feb 25 17:31:40 EST 2013
User: group
Dark Spectrum Present: No
Reference Spectrum Present: No
Number of Sampled Component Spectra: 1
Spectrometers: USB2E7196
Integration Time (usec): 52000 (USB2E7196)
Spectra Averaged: 20 (USB2E7196)
Boxcar Smoothing: 10 (USB2E7196)
Correct for Electrical Dark: No (USB2E7196)
Strobe/Lamp Enabled: No (USB2E7196)
Correct for Detector Non-linearity: No (USB2E7196)
Correct for Stray Light: No (USB2E7196)
Number of Pixels in Processed Spectrum: 2048
>>>>>Begin Processed Spectral Data<<<<<
339.09	0.00
339.48	197.95
339.86	199.70
340.24	200.05
340.63	202.65
341.01	207.50
341.39	205.20
341.78	207.30
342.16	208.25
342.54	210.15
342.93	197.91
343.31	207.90
343.69	208.47
344.07	208.96
344.46	209.49
344.84	209.92
345.22	210.10
345.60	210.40
345.99	210.63
346.37	210.80
346.75	210.89
347.13	211.04
347.52	211.12
347.90	211.34
348.28	211.43
348.66	211.54
349.05	211.59
349.43	211.69
349.81	211.82
350.19	211.86
350.57	211.90
350.96	212.05
351.34	212.23
351.72	212.37
352.10	212.50
352.48	212.53
352.87	212.57
353.25	212.65
353.63	212.70
354.01	212.80
354.39	212.88
354.77	212.93
355.15	213.11
355.54	213.17
355.92	213.12
356.30	213.15
356.68	213.28
357.06	213.36
357.44	213.39
357.82	213.49
358.20	213.54
358.58	213.63
358.97	213.70
359.35	213.81
359.73	213.94
360.11	213.99
360.49	214.06
360.87	214.09
361.25	214.17
361.63	214.24
362.01	214.22
362.39	214.22
362.77	214.22
363.15	214.13
363.53	214.19
363.91	214.24
364.29	214.25
364.67	214.07
365.05	214.06
365.43	214.07
365.81	214.08
366.19	214.17
366.57	214.24
366.95	214.26
367.33	214.21
367.71	214.17
368.09	214.20
368.47	214.18
368.85	214.20
369.23	214.21
369.61	214.22
369.99	214.23
370.37	214.22
370.75	214.38
371.13	214.32
371.51	214.22
371.89	214.24
372.27	214.23
372.65	214.27
373.03	214.17
373.41	214.05
373.78	214.00
374.16	213.88
374.54	213.77
374.92	213.67
375.30	213.64
375.68	213.50
376.06	213.45
376.44	213.47
376.82	213.43
377.19	213.30
377.57	213.25
377.95	213.16
378.33	213.12
378.71	212.90
379.09	212.89
379.47	212.83
379.84	212.68
380.22	212.62
380.60	212.56
380.98	212.56
381.36	212.56
381.73	212.39
382.11	212.33
382.49	212.24
382.87	212.10
383.25	212.00
383.62	212.15
384.00	212.06
384.38	211.94
384.76	211.92
385.13	211.98
385.51	211.90
385.89	211.83
386.27	211.76
386.64	211.76
387.02	211.75
387.40	211.73
387.78	211.73
388.15	211.68
388.53	211.62
388.91	211.61
389.29	211.65
389.66	211.73
390.04	211.67
390.42	211.72
390.79	211.74
391.17	211.73
391.55	211.54
391.92	211.49
392.30	211.58
392.68	211.45
393.05	211.35
393.43	211.35
393.81	211.35
394.18	211.37
394.56	211.35
394.94	211.37
395.31	211.32
395.69	211.36
396.06	211.44
396.44	211.39
396.82	211.36
397.19	211.44
397.57	211.43
397.95	211.53
398.32	211.47
398.70	211.50
399.07	211.57
399.45	211.68
399.82	211.75
400.20	211.74
400.58	211.85
400.95	211.92
401.33	212.01
401.70	212.17
402.08	212.23
402.45	212.28
402.83	212.38
403.20	212.47
403.58	212.56
403.95	212.65
404.33	212.81
404.71	212.89
405.08	213.08
405.46	213.19
405.83	213.25
406.21	213.45
406.58	213.66
406.96	213.87
407.33	214.00
407.70	214.27
408.08	214.58
408.45	214.81
408.83	215.08
409.20	215.28
409.58	215.45
409.95	215.70
410.33	215.99
410.70	216.22
411.08	216.60
411.45	216.98
411.82	217.32
412.20	217.74
412.57	218.30
412.95	218.55
413.32	219.09
413.69	219.68
414.07	220.20
414.44	220.76
414.82	221.31
415.19	221.93
415.56	222.61
415.94	223.29
416.31	224.18
416.68	224.99
417.06	225.95
417.43	227.03
417.81	228.10
418.18	229.20
418.55	230.43
418.93	231.65
419.30	232.83
419.67	234.19
420.04	235.62
420.42	237.09
420.79	238.93
421.16	240.61
421.54	242.36
421.91	244.14
422.28	246.05
422.66	248.14
423.03	250.21
423.40	252.31
423.77	254.51
424.15	256.67
424.52	259.02
424.89	261.60
425.26	263.97
425.64	266.30
426.01	268.90
426.38	271.57
426.75	274.29
427.13	277.21
427.50	280.16
427.87	283.18
428.24	286.11
428.61	288.95
428.99	292.22
429.36	295.63
429.73	299.15
430.10	302.51
430.47	305.89
430.85	309.49
431.22	313.31
431.59	317.45
431.96	321.35
432.33	325.65
432.70	329.75
433.08	334.71
433.45	339.37
433.82	343.93
434.19	348.98
434.56	353.91
434.93	358.54
435.30	363.26
435.68	368.43
436.05	373.66
436.42	378.78
436.79	383.39
437.16	388.48
437.53	393.66
437.90	398.91
438.27	404.12
438.64	409.48
439.01	414.28
439.38	418.54
439.75	422.80
440.13	427.53
440.50	432.03
440.87	435.51
441.24	439.33
441.61	443.39
441.98	446.43
442.35	450.01
442.72	453.67
443.09	456.98
443.46	459.22
443.83	460.46
444.20	461.50
444.57	463.24
444.94	464.00
445.31	464.77
445.68	465.58
446.05	465.87
446.42	465.25
446.79	464.59
447.16	463.74
447.53	463.09
447.90	460.97
448.27	458.89
448.64	456.10
449.01	453.89
449.37	450.38
449.74	446.94
450.11	442.93
450.48	438.48
450.85	434.08
451.22	429.90
451.59	426.25
451.96	422.80
452.33	418.08
452.70	413.77
453.07	408.83
453.43	403.48
453.80	398.51
454.17	393.70
454.54	389.16
454.91	384.42
455.28	379.69
455.65	375.42
456.02	371.21
456.38	367.46
456.75	362.95
457.12	359.16
457.49	355.32
457.86	351.56
458.23	348.38
458.59	344.91
458.96	341.51
459.33	338.51
459.70	335.40
460.07	332.87
460.43	330.00
460.80	327.26
461.17	325.11
461.54	322.67
461.91	320.37
462.27	318.11
462.64	316.14
463.01	314.06
463.38	311.95
463.74	309.71
464.11	307.91
464.48	306.22
464.85	304.54
465.21	303.20
465.58	301.82
465.95	300.15
466.32	298.83
466.68	297.55
467.05	296.07
467.42	294.73
467.78	293.35
468.15	292.05
468.52	291.11
468.88	289.72
469.25	288.55
469.62	287.64
469.98	286.66
470.35	285.82
470.72	284.85
471.08	283.92
471.45	283.15
471.82	282.41
472.18	281.66
472.55	280.96
472.92	280.29
473.28	279.70
473.65	279.13
474.02	278.51
474.38	278.09
474.75	277.75
475.11	277.35
475.48	277.10
475.85	276.91
476.21	276.64
476.58	276.61
476.94	276.53
477.31	276.49
477.67	276.43
478.04	276.38
478.41	276.58
478.77	276.88
479.14	277.05
479.50	277.28
479.87	277.61
480.23	278.04
480.60	278.38
480.96	278.77
481.33	279.42
481.69	280.15
482.06	280.73
482.42	281.38
482.79	282.10
483.15	282.97
483.52	283.87
483.88	284.83
484.25	285.72
484.61	286.75
484.98	287.87
485.34	289.16
485.71	290.51
486.07	291.91
486.44	293.22
486.80	294.76
487.17	296.36
487.53	298.16
487.90	299.92
488.26	301.95
488.62	304.03
488.99	305.95
489.35	307.97
489.72	310.26
490.08	312.68
490.44	315.22
490.81	317.80
491.17	320.49
491.54	323.39
491.90	326.43
492.26	329.60
492.63	332.81
492.99	336.21
493.36	339.77
493.72	343.58
494.08	347.65
494.45	351.88
494.81	356.45
495.17	360.99
495.54	366.00
495.90	370.99
496.26	376.17
496.63	381.76
496.99	387.56
497.35	393.51
497.72	399.78
498.08	406.18
498.44	412.83
498.80	420.12
499.17	427.45
499.53	435.10
499.89	443.11
500.26	451.29
500.62	459.64
500.98	468.42
501.34	477.48
501.71	486.77
502.07	496.45
502.43	506.28
502.79	516.39
503.16	527.02
503.52	537.86
503.88	548.88
504.24	560.46
504.60	572.31
504.97	584.55
505.33	596.89
505.69	610.09
506.05	623.75
506.41	637.10
506.78	650.93
507.14	665.15
507.50	679.62
507.86	694.65
508.22	710.04
508.59	725.39
508.95	741.28
509.31	757.59
509.67	774.01
510.03	790.85
510.39	808.37
510.75	825.71
511.12	843.73
511.48	862.07
511.84	880.58
512.20	899.28
512.56	918.25
512.92	937.80
513.28	957.14
513.64	976.69
514.00	996.56
514.37	1016.81
514.73	1037.38
515.09	1058.10
515.45	1078.60
515.81	1099.30
516.17	1120.42
516.53	1141.54
516.89	1162.90
517.25	1184.52
517.61	1206.01
517.97	1227.25
518.33	1248.65
518.69	1270.29
519.05	1292.42
519.41	1314.55
519.77	1336.87
520.13	1358.93
520.49	1380.79
520.85	1403.41
521.21	1425.63
521.57	1448.56
521.93	1470.28
522.29	1492.95
522.65	1515.35
523.01	1537.88
523.37	1560.11
523.73	1582.41
524.09	1604.52
524.45	1626.49
524.81	1648.48
525.17	1670.82
525.53	1693.38
525.89	1715.65
526.25	1737.28
526.61	1758.31
526.97	1779.64
527.33	1800.75
527.68	1822.04
528.04	1843.15
528.40	1863.29
528.76	1883.98
529.12	1904.29
529.48	1926.02
529.84	1946.32
530.20	1966.50
530.56	1986.92
530.91	2007.43
531.27	2027.65
531.63	2047.45
531.99	2067.21
532.35	2086.21
532.71	2104.62
533.07	2123.72
533.42	2142.33
533.78	2161.03
534.14	2179.49
534.50	2196.31
534.86	2213.85
535.21	2230.44
535.57	2247.96
535.93	2264.96
536.29	2281.29
536.65	2297.56
537.00	2312.99
537.36	2327.77
537.72	2342.65
538.08	2357.32
538.44	2371.99
538.79	2387.24
539.15	2401.85
539.51	2416.23
539.87	2431.29
540.22	2445.75
540.58	2460.16
540.94	2474.11
541.29	2486.94
541.65	2498.89
542.01	2512.19
542.37	2523.58
542.72	2535.65
543.08	2546.35
543.44	2557.99
543.79	2568.21
544.15	2578.26
544.51	2588.60
544.87	2599.31
545.22	2608.49
545.58	2616.89
545.94	2624.21
546.29	2630.25
546.65	2636.49
547.01	2642.35
547.36	2647.98
547.72	2653.53
548.07	2657.49
548.43	2661.29
548.79	2664.89
549.14	2669.15
549.50	2673.19
549.86	2677.47
550.21	2681.26
550.57	2685.28
550.92	2687.86
551.28	2690.59
551.64	2693.06
551.99	2695.11
552.35	2696.41
552.70	2698.96
553.06	2701.62
553.41	2704.44
553.77	2707.36
554.13	2709.50
554.48	2711.16
554.84	2712.28
555.19	2712.43
555.55	2712.89
555.90	2713.25
556.26	2713.79
556.61	2713.90
556.97	2712.42
557.32	2711.76
557.68	2710.09
558.03	2708.45
558.39	2706.94
558.74	2705.95
559.10	2704.50
559.45	2702.91
559.81	2701.98
560.16	2699.30
560.52	2696.72
560.87	2693.89
561.23	2689.98
561.58	2687.74
561.94	2684.63
562.29	2681.04
562.64	2679.04
563.00	2676.35
563.35	2674.25
563.71	2672.17
564.06	2669.93
564.42	2668.09
564.77	2665.84
565.12	2663.97
565.48	2660.80
565.83	2657.72
566.19	2654.75
566.54	2650.36
566.89	2646.44
567.25	2642.34
567.60	2638.95
567.96	2635.12
568.31	2631.43
568.66	2627.74
569.02	2622.66
569.37	2617.64
569.72	2613.58
570.08	2608.25
570.43	2602.34
570.78	2596.32
571.14	2590.22
571.49	2583.23
571.84	2577.01
572.20	2569.87
572.55	2563.35
572.90	2556.53
573.26	2549.36
573.61	2541.95
573.96	2535.66
574.31	2527.76
574.67	2519.71
575.02	2511.17
575.37	2502.55
575.72	2493.61
576.08	2486.06
576.43	2477.74
576.78	2470.08
577.13	2461.91
577.49	2453.80
577.84	2446.65
578.19	2439.28
578.54	2431.88
578.90	2425.30
579.25	2416.82
579.60	2407.85
579.95	2398.49
580.30	2390.68
580.66	2383.01
581.01	2374.31
581.36	2364.88
581.71	2356.83
582.06	2348.56
582.42	2340.47
582.77	2331.75
583.12	2323.04
583.47	2314.14
583.82	2305.93
584.17	2296.81
584.53	2288.05
584.88	2279.23
585.23	2270.03
585.58	2260.62
585.93	2251.04
586.28	2241.98
586.63	2233.28
586.98	2225.36
587.34	2217.22
587.69	2207.65
588.04	2198.35
588.39	2190.22
588.74	2181.62
589.09	2172.78
589.44	2163.22
589.79	2154.84
590.14	2146.95
590.49	2138.68
590.84	2129.86
591.19	2121.74
591.54	2113.17
591.89	2103.38
592.25	2094.19
592.60	2084.87
592.95	2075.42
593.30	2065.80
593.65	2055.93
594.00	2046.57
594.35	2038.32
594.70	2029.38
595.05	2021.05
595.40	2012.19
595.75	2002.53
596.10	1994.33
596.45	1986.21
596.80	1978.29
597.15	1969.84
597.50	1960.60
597.85	1952.50
598.19	1944.23
598.54	1935.74
598.89	1927.90
599.24	1920.94
599.59	1914.03
599.94	1907.05
600.29	1899.34
600.64	1891.98
600.99	1883.59
601.34	1876.79
601.69	1868.16
602.04	1859.97
602.39	1852.21
602.74	1844.77
603.08	1838.21
603.43	1831.17
603.78	1823.07
604.13	1815.39
604.48	1807.65
604.83	1800.99
605.18	1793.75
605.53	1786.24
605.87	1778.59
606.22	1771.66
606.57	1764.03
606.92	1755.96
607.27	1747.89
607.62	1740.85
607.96	1733.78
608.31	1727.90
608.66	1719.75
609.01	1712.09
609.36	1704.52
609.70	1696.80
610.05	1689.25
610.40	1681.11
610.75	1672.48
611.10	1665.00
611.44	1656.28
611.79	1647.25
612.14	1638.19
612.49	1628.68
612.83	1619.86
613.18	1610.45
613.53	1600.85
613.88	1591.39
614.22	1582.45
614.57	1573.25
614.92	1563.81
615.27	1554.65
615.61	1544.92
615.96	1536.24
616.31	1527.88
616.65	1520.07
617.00	1511.59
617.35	1503.03
617.70	1494.29
618.04	1485.66
618.39	1476.47
618.74	1468.18
619.08	1459.78
619.43	1451.65
619.78	1443.74
620.12	1435.74
620.47	1428.05
620.82	1420.03
621.16	1411.83
621.51	1403.64
621.85	1395.61
622.20	1387.63
622.55	1379.28
622.89	1371.15
623.24	1363.11
623.59	1354.77
623.93	1346.13
624.28	1337.97
624.62	1329.73
624.97	1321.79
625.32	1314.04
625.66	1306.70
626.01	1299.48
626.35	1292.53
626.70	1284.78
627.04	1277.80
627.39	1270.32
627.73	1262.68
628.08	1255.82
628.43	1248.37
628.77	1241.05
629.12	1233.70
629.46	1226.95
629.81	1219.85
630.15	1212.64
630.50	1205.48
630.84	1198.15
631.19	1191.21
631.53	1184.55
631.88	1176.87
632.22	1169.19
632.57	1162.25
632.91	1154.50
633.26	1147.11
633.60	1139.87
633.95	1133.17
634.29	1125.65
634.64	1119.13
634.98	1112.28
635.32	1105.15
635.67	1098.94
636.01	1092.52
636.36	1085.89
636.70	1079.21
637.05	1072.84
637.39	1066.51
637.73	1060.16
638.08	1054.34
638.42	1048.45
638.77	1041.96
639.11	1036.01
639.45	1030.20
639.80	1024.03
640.14	1017.99
640.49	1011.74
640.83	1005.73
641.17	999.41
641.52	993.38
641.86	986.79
642.20	980.85
642.55	974.11
642.89	967.44
643.23	960.84
643.58	954.80
643.92	948.27
644.26	941.99
644.61	935.96
644.95	929.90
645.29	923.76
645.64	917.13
645.98	910.86
646.32	905.03
646.66	898.85
647.01	892.75
647.35	886.90
647.69	880.75
648.04	874.80
648.38	868.94
648.72	863.19
649.06	857.12
649.41	851.05
649.75	845.28
650.09	839.63
650.43	833.86
650.78	827.80
651.12	821.79
651.46	816.05
651.80	810.30
652.14	804.27
652.49	798.36
652.83	792.81
653.17	786.85
653.51	781.07
653.85	775.46
654.20	769.71
654.54	764.01
654.88	758.68
655.22	752.92
655.56	747.10
655.90	741.15
656.25	735.53
656.59	730.13
656.93	725.22
657.27	720.16
657.61	714.63
657.95	709.62
658.29	704.62
658.64	699.76
658.98	694.58
659.32	689.34
659.66	684.29
660.00	678.83
660.34	673.89
660.68	668.74
661.02	663.78
661.36	659.07
661.70	654.18
662.05	649.35
662.39	644.92
662.73	640.58
663.07	636.40
663.41	632.11
663.75	627.52
664.09	622.83
664.43	618.18
664.77	614.05
665.11	609.57
665.45	605.28
665.79	600.56
666.13	596.28
666.47	592.06
666.81	587.94
667.15	584.13
667.49	580.21
667.83	576.25
668.17	572.44
668.51	568.64
668.85	565.17
669.19	561.59
669.53	557.59
669.87	553.74
670.21	549.85
670.55	545.98
670.89	542.61
671.23	539.40
671.57	535.92
671.91	532.48
672.25	529.00
672.58	525.63
672.92	522.40
673.26	519.14
673.60	516.16
673.94	512.84
674.28	509.52
674.62	506.36
674.96	503.18
675.30	500.12
675.64	496.89
675.97	493.51
676.31	490.44
676.65	487.68
676.99	485.03
677.33	482.09
677.67	479.35
678.01	476.32
678.34	473.16
678.68	470.25
679.02	467.28
679.36	464.41
679.70	461.61
680.04	458.82
680.37	455.79
680.71	452.94
681.05	450.28
681.39	447.64
681.73	444.89
682.06	442.38
682.40	439.85
682.74	437.45
683.08	435.01
683.42	432.36
683.75	429.72
684.09	427.00
684.43	424.63
684.77	422.01
685.10	419.58
685.44	417.15
685.78	414.71
686.12	412.34
686.45	410.05
686.79	407.75
687.13	405.59
687.46	403.60
687.80	401.46
688.14	399.15
688.48	396.97
688.81	394.81
689.15	392.65
689.49	390.44
689.82	388.14
690.16	385.78
690.50	383.59
690.83	381.35
691.17	379.25
691.51	377.02
691.84	374.97
692.18	373.02
692.52	371.16
692.85	369.35
693.19	367.53
693.52	365.64
693.86	363.63
694.20	361.85
694.53	359.87
694.87	357.91
695.21	356.11
695.54	354.29
695.88	352.47
696.21	350.63
696.55	348.87
696.88	347.13
697.22	345.46
697.56	343.90
697.89	342.35
698.23	340.65
698.56	339.06
698.90	337.70
699.23	336.02
699.57	334.35
699.90	332.76
700.24	331.21
700.58	329.73
700.91	328.35
701.25	326.72
701.58	325.33
701.92	323.86
702.25	322.39
702.59	321.05
702.92	319.65
703.26	318.35
703.59	317.10
703.93	316.02
704.26	314.86
704.60	313.60
704.93	312.29
705.26	311.08
705.60	309.92
705.93	308.61
706.27	307.45
706.60	306.41
706.94	305.35
707.27	304.09
707.61	302.96
707.94	301.81
708.27	300.73
708.61	299.63
708.94	298.53
709.28	297.52
709.61	296.40
709.94	295.39
710.28	294.30
710.61	293.25
710.95	292.01
711.28	291.05
711.61	289.98
711.95	289.10
712.28	288.11
712.61	287.18
712.95	286.25
713.28	285.30
713.61	284.19
713.95	283.20
714.28	282.43
714.61	281.44
714.95	280.50
715.28	279.60
715.61	278.62
715.95	277.75
716.28	276.80
716.61	275.97
716.95	275.13
717.28	274.35
717.61	273.58
717.94	272.75
718.28	271.87
718.61	271.17
718.94	270.41
719.27	269.74
719.61	268.94
719.94	268.20
720.27	267.47
720.60	266.94
720.94	266.25
721.27	265.46
721.60	264.86
721.93	264.22
722.27	263.62
722.60	263.07
722.93	262.47
723.26	261.95
723.59	261.26
723.93	260.64
724.26	260.05
724.59	259.38
724.92	258.96
725.25	258.48
725.59	257.95
725.92	257.40
726.25	256.78
726.58	256.28
726.91	255.74
727.24	255.16
727.57	254.53
727.91	253.97
728.24	253.55
728.57	253.08
728.90	252.73
729.23	252.19
729.56	251.78
729.89	251.29
730.22	250.87
730.55	250.48
730.89	250.07
731.22	249.60
731.55	249.23
731.88	248.75
732.21	248.22
732.54	247.74
732.87	247.30
733.20	246.92
733.53	246.46
733.86	246.10
734.19	245.67
734.52	245.36
734.85	245.12
735.18	244.69
735.51	244.31
735.84	243.82
736.17	243.47
736.50	242.98
736.83	242.89
737.16	242.44
737.49	242.06
737.82	241.63
738.15	241.35
738.48	240.94
738.81	240.56
739.14	240.21
739.47	239.90
739.80	239.54
740.13	239.19
740.46	238.85
740.79	238.50
741.12	238.26
741.45	237.86
741.78	237.50
742.11	237.23
742.44	236.87
742.77	236.63
743.10	236.24
743.43	236.00
743.75	235.57
744.08	235.47
744.41	235.24
744.74	234.99
745.07	234.63
745.40	234.37
745.73	234.15
746.06	233.92
746.39	233.66
746.71	233.38
747.04	233.16
747.37	232.96
747.70	232.73
748.03	232.45
748.36	232.25
748.68	231.94
749.01	231.67
749.34	231.51
749.67	231.27
750.00	231.11
750.33	231.00
750.65	230.76
750.98	230.39
751.31	230.14
751.64	229.86
751.97	229.74
752.29	229.54
752.62	229.25
752.95	228.96
753.28	228.62
753.60	228.41
753.93	228.20
754.26	227.99
754.59	227.73
754.91	227.47
755.24	227.28
755.57	227.11
755.90	226.89
756.22	226.63
756.55	226.39
756.88	226.20
757.20	225.86
757.53	225.55
757.86	225.35
758.19	225.21
758.51	225.04
758.84	224.81
759.17	224.60
759.49	224.45
759.82	224.46
760.15	224.35
760.47	224.14
760.80	223.89
761.13	223.74
761.45	223.53
761.78	223.36
762.11	223.14
762.43	222.98
762.76	222.80
763.08	222.69
763.41	222.57
763.74	222.39
764.06	222.28
764.39	222.14
764.71	221.95
765.04	221.74
765.37	221.57
765.69	221.38
766.02	221.31
766.34	221.20
766.67	220.95
767.00	220.93
767.32	220.90
767.65	220.87
767.97	220.69
768.30	220.55
768.62	220.52
768.95	220.37
769.27	220.26
769.60	220.24
769.92	220.10
770.25	219.98
770.57	219.89
770.90	219.77
771.22	219.67
771.55	219.61
771.87	219.53
772.20	219.49
772.52	219.60
772.85	219.65
773.17	219.62
773.50	219.47
773.82	219.29
774.15	219.12
774.47	219.02
774.80	218.96
775.12	218.96
775.45	218.84
775.77	218.80
776.09	218.73
776.42	218.60
776.74	218.55
777.07	218.38
777.39	218.21
777.72	218.07
778.04	218.04
778.36	217.97
778.69	217.85
779.01	217.73
779.33	217.48
779.66	217.23
779.98	217.05
780.31	216.99
780.63	217.07
780.95	217.05
781.28	216.95
781.60	216.85
781.92	216.77
782.25	216.72
782.57	216.65
782.89	216.55
783.22	216.51
783.54	216.41
783.86	216.37
784.19	216.40
784.51	216.40
784.83	216.35
785.16	216.25
785.48	216.28
785.80	216.25
786.12	216.23
786.45	216.14
