SpectraSuite Data File
++++++++++++++++++++++++++++++++++++
Date: Mon Feb 25 17:32:49 EST 2013
User: group
Dark Spectrum Present: No
Reference Spectrum Present: No
Number of Sampled Component Spectra: 1
Spectrometers: USB2E7196
Integration Time (usec): 52000 (USB2E7196)
Spectra Averaged: 20 (USB2E7196)
Boxcar Smoothing: 10 (USB2E7196)
Correct for Electrical Dark: No (USB2E7196)
Strobe/Lamp Enabled: No (USB2E7196)
Correct for Detector Non-linearity: No (USB2E7196)
Correct for Stray Light: No (USB2E7196)
Number of Pixels in Processed Spectrum: 2048
>>>>>Begin Processed Spectral Data<<<<<
339.09	0.00
339.48	198.90
339.86	201.05
340.24	201.45
340.63	203.75
341.01	208.35
341.39	207.25
341.78	206.85
342.16	208.55
342.54	210.55
342.93	198.56
343.31	208.54
343.69	209.07
344.07	209.56
344.46	210.02
344.84	210.39
345.22	210.55
345.60	210.73
345.99	210.97
346.37	211.15
346.75	211.22
347.13	211.28
347.52	211.27
347.90	211.38
348.28	211.44
348.66	211.54
349.05	211.50
349.43	211.55
349.81	211.59
350.19	211.62
350.57	211.71
350.96	211.79
351.34	211.98
351.72	212.07
352.10	212.17
352.48	212.23
352.87	212.28
353.25	212.35
353.63	212.42
354.01	212.43
354.39	212.50
354.77	212.53
355.15	212.68
355.54	212.75
355.92	212.77
356.30	212.79
356.68	212.97
357.06	213.08
357.44	213.18
357.82	213.20
358.20	213.30
358.58	213.33
358.97	213.40
359.35	213.41
359.73	213.46
360.11	213.43
360.49	213.54
360.87	213.56
361.25	213.60
361.63	213.68
362.01	213.76
362.39	213.77
362.77	213.85
363.15	213.83
363.53	213.85
363.91	213.88
364.29	213.92
364.67	213.76
365.05	213.81
365.43	213.84
365.81	213.91
366.19	213.88
366.57	213.93
366.95	213.92
367.33	213.86
367.71	213.92
368.09	213.98
368.47	213.91
368.85	213.94
369.23	213.97
369.61	213.94
369.99	214.04
370.37	214.02
370.75	214.03
371.13	213.98
371.51	213.95
371.89	213.93
372.27	213.87
372.65	213.87
373.03	213.89
373.41	213.77
373.78	213.73
374.16	213.67
374.54	213.60
374.92	213.57
375.30	213.61
375.68	213.48
376.06	213.44
376.44	213.41
376.82	213.41
377.19	213.29
377.57	213.19
377.95	213.05
378.33	213.05
378.71	212.93
379.09	212.89
379.47	212.88
379.84	212.85
380.22	212.85
380.60	212.82
380.98	212.68
381.36	212.75
381.73	212.68
382.11	212.64
382.49	212.65
382.87	212.57
383.25	212.50
383.62	212.65
384.00	212.54
384.38	212.49
384.76	212.48
385.13	212.58
385.51	212.56
385.89	212.50
386.27	212.47
386.64	212.45
387.02	212.45
387.40	212.36
387.78	212.35
388.15	212.28
388.53	212.26
388.91	212.21
389.29	212.10
389.66	212.05
390.04	212.02
390.42	211.97
390.79	212.03
391.17	212.07
391.55	211.91
391.92	211.91
392.30	211.92
392.68	211.80
393.05	211.79
393.43	211.87
393.81	211.86
394.18	211.76
394.56	211.73
394.94	211.80
395.31	211.83
395.69	211.80
396.06	211.77
396.44	211.73
396.82	211.75
397.19	211.85
397.57	211.87
397.95	211.91
398.32	211.86
398.70	211.88
399.07	211.85
399.45	211.87
399.82	211.94
400.20	212.01
400.58	212.11
400.95	212.05
401.33	212.04
401.70	212.21
402.08	212.32
402.45	212.43
402.83	212.44
403.20	212.56
403.58	212.70
403.95	212.86
404.33	213.01
404.71	213.08
405.08	213.33
405.46	213.52
405.83	213.67
406.21	213.83
406.58	213.91
406.96	214.00
407.33	214.13
407.70	214.35
408.08	214.61
408.45	214.77
408.83	215.06
409.20	215.28
409.58	215.43
409.95	215.72
410.33	216.07
410.70	216.37
411.08	216.62
411.45	216.93
411.82	217.27
412.20	217.75
412.57	218.35
412.95	218.60
413.32	219.09
413.69	219.59
414.07	220.16
414.44	220.81
414.82	221.49
415.19	222.33
415.56	223.08
415.94	223.82
416.31	224.78
416.68	225.65
417.06	226.68
417.43	227.71
417.81	228.75
418.18	229.86
418.55	231.05
418.93	232.40
419.30	233.72
419.67	235.08
420.04	236.44
420.42	237.86
420.79	239.65
421.16	241.38
421.54	243.17
421.91	245.01
422.28	246.93
422.66	248.94
423.03	251.03
423.40	253.09
423.77	255.30
424.15	257.49
424.52	259.86
424.89	262.30
425.26	264.70
425.64	267.05
426.01	269.55
426.38	272.31
426.75	274.99
427.13	277.76
427.50	280.76
427.87	283.81
428.24	286.93
428.61	289.87
428.99	293.15
429.36	296.63
429.73	300.12
430.10	303.64
430.47	307.20
430.85	310.81
431.22	314.68
431.59	318.85
431.96	322.74
432.33	327.03
432.70	331.31
433.08	336.22
433.45	340.79
433.82	345.38
434.19	350.30
434.56	355.16
434.93	360.01
435.30	364.82
435.68	370.13
436.05	375.32
436.42	380.38
436.79	384.97
437.16	390.06
437.53	395.41
437.90	400.66
438.27	405.76
438.64	411.08
439.01	415.87
439.38	420.10
439.75	424.42
440.13	429.13
440.50	433.70
440.87	437.33
441.24	441.18
441.61	445.53
441.98	448.78
442.35	452.62
442.72	456.25
443.09	459.68
443.46	461.64
443.83	463.05
444.20	464.23
444.57	465.97
444.94	466.65
445.31	467.33
445.68	467.92
446.05	468.13
446.42	467.25
446.79	466.63
447.16	465.87
447.53	465.10
447.90	463.05
448.27	460.93
448.64	458.05
449.01	456.00
449.37	452.24
449.74	448.64
450.11	444.45
450.48	439.88
450.85	435.26
451.22	431.33
451.59	427.56
451.96	424.10
452.33	419.37
452.70	415.13
453.07	409.94
453.43	404.73
453.80	399.75
454.17	395.11
454.54	390.53
454.91	385.74
455.28	381.09
455.65	376.70
456.02	372.38
456.38	368.67
456.75	363.96
457.12	360.07
457.49	356.25
457.86	352.43
458.23	349.20
458.59	345.72
458.96	342.23
459.33	339.01
459.70	335.78
460.07	333.29
460.43	330.25
460.80	327.78
461.17	325.44
461.54	323.05
461.91	320.76
462.27	318.45
462.64	316.35
463.01	314.15
463.38	312.08
463.74	309.82
464.11	307.93
464.48	306.38
464.85	304.68
465.21	303.39
465.58	302.01
465.95	300.30
466.32	298.95
466.68	297.52
467.05	296.17
467.42	294.74
467.78	293.25
468.15	292.04
468.52	290.94
468.88	289.72
469.25	288.57
469.62	287.65
469.98	286.67
470.35	285.78
470.72	284.94
471.08	283.97
471.45	283.30
471.82	282.53
472.18	281.74
472.55	281.19
472.92	280.41
473.28	279.80
473.65	279.23
474.02	278.67
474.38	278.21
474.75	277.90
475.11	277.54
475.48	277.28
475.85	277.05
476.21	276.93
476.58	276.73
476.94	276.75
477.31	276.70
477.67	276.64
478.04	276.74
478.41	276.87
478.77	277.19
479.14	277.27
479.50	277.61
479.87	277.96
480.23	278.27
480.60	278.65
480.96	279.14
481.33	279.85
481.69	280.50
482.06	281.18
482.42	281.82
482.79	282.60
483.15	283.48
483.52	284.57
483.88	285.43
484.25	286.39
484.61	287.41
484.98	288.58
485.34	289.90
485.71	291.20
486.07	292.65
486.44	293.99
486.80	295.65
487.17	297.25
487.53	298.95
487.90	300.80
488.26	302.81
488.62	304.87
488.99	306.86
489.35	308.92
489.72	311.23
490.08	313.63
490.44	315.98
490.81	318.57
491.17	321.22
491.54	324.13
491.90	327.22
492.26	330.44
492.63	333.75
492.99	337.19
493.36	340.79
493.72	344.56
494.08	348.64
494.45	352.73
494.81	357.19
495.17	361.75
495.54	366.68
495.90	371.65
496.26	376.85
496.63	382.23
496.99	388.09
497.35	394.04
497.72	400.45
498.08	407.00
498.44	413.69
498.80	420.81
499.17	428.19
499.53	435.88
499.89	443.85
500.26	451.92
500.62	460.29
500.98	469.15
501.34	478.30
501.71	487.75
502.07	497.34
502.43	507.27
502.79	517.50
503.16	528.15
503.52	539.14
503.88	550.37
504.24	561.99
504.60	573.80
504.97	586.09
505.33	598.47
505.69	611.84
506.05	625.37
506.41	638.80
506.78	652.65
507.14	666.77
507.50	681.28
507.86	696.21
508.22	711.55
508.59	727.10
508.95	742.98
509.31	759.10
509.67	775.88
510.03	792.86
510.39	810.41
510.75	827.92
511.12	845.97
511.48	864.28
511.84	882.98
512.20	901.62
512.56	920.78
512.92	940.06
513.28	959.32
513.64	979.08
514.00	999.06
514.37	1019.41
514.73	1040.18
515.09	1060.84
515.45	1081.74
515.81	1103.03
516.17	1124.23
516.53	1145.38
516.89	1166.93
517.25	1188.45
517.61	1210.06
517.97	1231.25
518.33	1252.91
518.69	1274.75
519.05	1296.76
519.41	1318.88
519.77	1341.32
520.13	1363.45
520.49	1385.58
520.85	1408.38
521.21	1430.75
521.57	1453.71
521.93	1475.66
522.29	1498.62
522.65	1521.30
523.01	1544.09
523.37	1566.07
523.73	1588.29
524.09	1610.57
524.45	1632.97
524.81	1655.14
525.17	1677.49
525.53	1700.15
525.89	1722.61
526.25	1744.18
526.61	1765.38
526.97	1786.93
527.33	1808.33
527.68	1829.88
528.04	1851.40
528.40	1871.71
528.76	1892.55
529.12	1913.10
529.48	1934.96
529.84	1955.06
530.20	1975.28
530.56	1995.32
530.91	2016.11
531.27	2036.85
531.63	2056.84
531.99	2076.68
532.35	2096.06
532.71	2115.15
533.07	2134.88
533.42	2153.14
533.78	2172.46
534.14	2191.14
534.50	2208.39
534.86	2226.57
535.21	2243.21
535.57	2260.94
535.93	2278.10
536.29	2294.93
536.65	2311.79
537.00	2326.95
537.36	2342.23
537.72	2357.13
538.08	2372.37
538.44	2387.26
538.79	2402.14
539.15	2417.19
539.51	2431.72
539.87	2447.01
540.22	2460.94
540.58	2475.42
540.94	2489.78
541.29	2502.64
541.65	2514.87
542.01	2528.25
542.37	2540.06
542.72	2552.61
543.08	2563.13
543.44	2575.19
543.79	2585.43
544.15	2595.57
544.51	2606.60
544.87	2617.52
545.22	2626.80
545.58	2635.15
545.94	2642.43
546.29	2648.88
546.65	2655.11
547.01	2660.96
547.36	2666.33
547.72	2672.55
548.07	2676.44
548.43	2680.12
548.79	2683.82
549.14	2687.99
549.50	2692.09
549.86	2696.07
550.21	2699.88
550.57	2704.29
550.92	2706.76
551.28	2709.19
551.64	2711.38
551.99	2713.53
552.35	2715.00
552.70	2717.89
553.06	2720.63
553.41	2723.85
553.77	2727.00
554.13	2728.84
554.48	2730.85
554.84	2732.53
555.19	2732.95
555.55	2733.63
555.90	2734.42
556.26	2734.87
556.61	2735.58
556.97	2734.42
557.32	2733.74
557.68	2731.81
558.03	2730.12
558.39	2728.82
558.74	2728.62
559.10	2727.56
559.45	2726.00
559.81	2725.01
560.16	2722.42
560.52	2720.05
560.87	2716.88
561.23	2713.10
561.58	2711.21
561.94	2708.19
562.29	2704.28
562.64	2702.16
563.00	2699.73
563.35	2697.47
563.71	2695.90
564.06	2693.51
564.42	2691.67
564.77	2689.20
565.12	2687.57
565.48	2684.41
565.83	2681.20
566.19	2678.07
566.54	2673.86
566.89	2669.85
567.25	2666.15
567.60	2662.95
567.96	2659.55
568.31	2656.00
568.66	2652.08
569.02	2647.44
569.37	2642.25
569.72	2638.64
570.08	2633.13
570.43	2627.55
570.78	2621.99
571.14	2615.28
571.49	2608.45
571.84	2602.83
572.20	2596.12
572.55	2589.30
572.90	2582.57
573.26	2575.28
573.61	2568.13
573.96	2561.60
574.31	2553.92
574.67	2545.59
575.02	2537.15
575.37	2528.33
575.72	2519.44
576.08	2511.73
576.43	2502.88
576.78	2495.16
577.13	2486.69
577.49	2478.78
577.84	2471.10
578.19	2463.44
578.54	2456.41
578.90	2449.62
579.25	2440.75
579.60	2431.62
579.95	2422.63
580.30	2414.70
580.66	2406.90
581.01	2397.73
581.36	2388.49
581.71	2379.99
582.06	2371.25
582.42	2362.84
582.77	2353.77
583.12	2344.96
583.47	2336.30
583.82	2327.98
584.17	2318.84
584.53	2310.05
584.88	2300.92
585.23	2291.52
585.58	2281.82
585.93	2272.00
586.28	2262.41
586.63	2253.41
586.98	2244.91
587.34	2236.78
587.69	2227.67
588.04	2218.46
588.39	2210.12
588.74	2201.60
589.09	2192.88
589.44	2183.63
589.79	2175.51
590.14	2167.65
590.49	2159.45
590.84	2150.54
591.19	2142.39
591.54	2133.75
591.89	2123.80
592.25	2114.70
592.60	2105.34
592.95	2096.19
593.30	2086.50
593.65	2076.90
594.00	2067.16
594.35	2059.46
594.70	2049.75
595.05	2040.99
595.40	2032.20
595.75	2022.71
596.10	2013.92
596.45	2005.33
596.80	1997.58
597.15	1988.87
597.50	1979.84
597.85	1971.30
598.19	1962.43
598.54	1953.91
598.89	1946.17
599.24	1939.45
599.59	1932.02
599.94	1925.18
600.29	1917.32
600.64	1909.50
600.99	1901.14
601.34	1894.13
601.69	1884.84
602.04	1876.98
602.39	1868.68
602.74	1860.94
603.08	1854.20
603.43	1847.10
603.78	1839.28
604.13	1831.10
604.48	1823.23
604.83	1816.30
605.18	1809.27
605.53	1801.98
605.87	1794.39
606.22	1786.96
606.57	1778.93
606.92	1770.87
607.27	1762.58
607.62	1755.38
607.96	1748.80
608.31	1742.70
608.66	1734.57
609.01	1727.25
609.36	1719.84
609.70	1712.06
610.05	1704.48
610.40	1696.30
610.75	1688.00
611.10	1680.25
611.44	1671.32
611.79	1662.41
612.14	1652.96
612.49	1643.50
612.83	1634.86
613.18	1625.12
613.53	1615.66
613.88	1605.93
614.22	1596.97
614.57	1587.73
614.92	1578.26
615.27	1569.06
615.61	1559.48
615.96	1550.69
616.31	1542.19
616.65	1534.07
617.00	1525.81
617.35	1516.92
617.70	1508.02
618.04	1498.78
618.39	1489.41
618.74	1481.05
619.08	1472.53
619.43	1464.56
619.78	1456.53
620.12	1448.36
620.47	1440.92
620.82	1432.61
621.16	1424.59
621.51	1416.36
621.85	1407.92
622.20	1399.40
622.55	1390.53
622.89	1382.04
623.24	1374.04
623.59	1365.27
623.93	1356.59
624.28	1348.24
624.62	1339.96
624.97	1331.72
625.32	1324.09
625.66	1316.95
626.01	1309.81
626.35	1302.54
626.70	1294.56
627.04	1287.23
627.39	1279.48
627.73	1271.73
628.08	1264.84
628.43	1257.23
628.77	1249.65
629.12	1242.38
629.46	1235.90
629.81	1228.73
630.15	1221.43
630.50	1214.02
630.84	1206.86
631.19	1199.80
631.53	1192.96
631.88	1185.37
632.22	1177.82
632.57	1170.84
632.91	1163.09
633.26	1155.31
633.60	1148.05
633.95	1141.37
634.29	1133.95
634.64	1127.44
634.98	1120.48
635.32	1113.34
635.67	1106.92
636.01	1100.41
636.36	1093.52
636.70	1086.78
637.05	1080.25
637.39	1074.10
637.73	1068.00
638.08	1062.30
638.42	1056.27
638.77	1049.79
639.11	1043.88
639.45	1038.07
639.80	1031.28
640.14	1025.02
640.49	1018.85
640.83	1012.33
641.17	1005.87
641.52	999.85
641.86	993.31
642.20	986.94
642.55	980.13
642.89	973.52
643.23	967.10
643.58	961.25
643.92	954.85
644.26	948.70
644.61	942.55
644.95	936.34
645.29	929.89
645.64	923.38
645.98	917.15
646.32	911.23
646.66	905.03
647.01	899.31
647.35	893.46
647.69	887.28
648.04	881.66
648.38	875.70
648.72	869.68
649.06	863.45
649.41	857.61
649.75	851.93
650.09	846.28
650.43	840.57
650.78	834.38
651.12	828.35
651.46	822.56
651.80	816.55
652.14	810.55
652.49	804.67
652.83	798.89
653.17	792.87
653.51	786.90
653.85	781.32
654.20	775.39
654.54	769.60
654.88	764.21
655.22	758.20
655.56	752.49
655.90	746.63
656.25	740.98
656.59	735.47
656.93	730.30
657.27	724.97
657.61	719.40
657.95	714.35
658.29	709.19
658.64	704.14
658.98	698.94
659.32	693.52
659.66	688.42
660.00	683.08
660.34	677.87
660.68	672.73
661.02	667.55
661.36	662.93
661.70	658.19
662.05	653.47
662.39	649.13
662.73	644.78
663.07	640.24
663.41	635.90
663.75	631.45
664.09	626.71
664.43	622.09
664.77	617.70
665.11	613.26
665.45	608.88
665.79	604.41
666.13	600.05
666.47	596.12
666.81	591.98
667.15	588.00
667.49	584.26
667.83	580.22
668.17	576.33
668.51	572.48
668.85	568.77
669.19	565.00
669.53	561.00
669.87	556.80
670.21	553.05
670.55	549.21
670.89	545.70
671.23	542.42
671.57	539.01
671.91	535.43
672.25	531.94
672.58	528.41
672.92	524.92
673.26	521.69
673.60	518.24
673.94	514.70
674.28	511.38
674.62	508.22
674.96	505.15
675.30	502.10
675.64	498.98
675.97	495.71
676.31	492.63
676.65	489.79
676.99	487.28
677.33	484.42
677.67	481.49
678.01	478.28
678.34	475.35
678.68	472.49
679.02	469.57
679.36	466.77
679.70	464.06
680.04	461.25
680.37	458.25
680.71	455.43
681.05	452.84
681.39	450.13
681.73	447.28
682.06	444.82
682.40	442.29
682.74	439.52
683.08	436.95
683.42	434.28
683.75	431.59
684.09	428.87
684.43	426.32
684.77	423.80
685.10	421.29
685.44	418.60
685.78	416.03
686.12	413.85
686.45	411.45
686.79	409.14
687.13	407.14
687.46	405.12
687.80	402.98
688.14	400.77
688.48	398.66
688.81	396.49
689.15	394.12
689.49	391.83
689.82	389.50
690.16	387.23
690.50	385.00
690.83	382.90
691.17	380.69
691.51	378.56
691.84	376.66
692.18	374.69
692.52	372.87
692.85	371.03
693.19	369.01
693.52	367.12
693.86	365.10
694.20	363.11
694.53	361.15
694.87	359.13
695.21	357.20
695.54	355.31
695.88	353.50
696.21	351.72
696.55	349.88
696.88	348.26
697.22	346.53
697.56	345.10
697.89	343.43
698.23	341.81
698.56	340.21
698.90	338.63
699.23	337.01
699.57	335.40
699.90	333.83
700.24	332.17
700.58	330.56
700.91	329.16
701.25	327.69
701.58	326.32
701.92	324.96
702.25	323.65
702.59	322.29
702.92	320.97
703.26	319.69
703.59	318.51
703.93	317.43
704.26	316.26
704.60	314.87
704.93	313.72
705.26	312.57
705.60	311.41
705.93	310.14
706.27	308.96
706.60	307.80
706.94	306.64
707.27	305.55
707.61	304.47
707.94	303.25
708.27	302.08
708.61	300.85
708.94	299.74
709.28	298.54
709.61	297.41
709.94	296.39
710.28	295.25
710.61	294.20
710.95	292.96
711.28	292.03
711.61	290.99
711.95	289.92
712.28	288.93
712.61	287.92
712.95	286.95
713.28	286.17
713.61	285.19
713.95	284.34
714.28	283.45
714.61	282.53
714.95	281.64
715.28	280.67
715.61	279.81
715.95	278.95
716.28	278.10
716.61	277.20
716.95	276.23
717.28	275.44
717.61	274.69
717.94	273.96
718.28	273.12
718.61	272.44
718.94	271.69
719.27	270.88
719.61	270.07
719.94	269.42
720.27	268.59
720.60	267.93
720.94	267.20
721.27	266.50
721.60	265.84
721.93	265.23
722.27	264.72
722.60	264.11
722.93	263.46
723.26	262.98
723.59	262.41
723.93	261.93
724.26	261.38
724.59	260.75
724.92	260.12
725.25	259.58
725.59	258.97
725.92	258.49
726.25	258.03
726.58	257.58
726.91	256.96
727.24	256.43
727.57	255.90
727.91	255.27
728.24	254.81
728.57	254.31
728.90	253.88
729.23	253.26
729.56	252.80
729.89	252.35
730.22	251.71
730.55	251.19
730.89	250.68
731.22	250.09
731.55	249.51
731.88	249.17
732.21	248.63
732.54	248.17
732.87	247.58
733.20	247.08
733.53	246.64
733.86	246.30
734.19	245.88
734.52	245.52
734.85	245.37
735.18	244.90
735.51	244.50
735.84	244.06
736.17	243.83
736.50	243.38
736.83	243.27
737.16	242.99
737.49	242.71
737.82	242.38
738.15	242.06
738.48	241.82
738.81	241.39
739.14	240.97
739.47	240.71
739.80	240.43
740.13	240.09
740.46	239.84
740.79	239.35
741.12	239.05
741.45	238.65
741.78	238.18
742.11	237.94
742.44	237.62
742.77	237.34
743.10	236.94
743.43	236.67
743.75	236.09
744.08	236.00
744.41	235.69
744.74	235.31
745.07	235.05
745.40	234.80
745.73	234.67
746.06	234.48
746.39	234.22
746.71	234.00
747.04	233.67
747.37	233.30
747.70	233.24
748.03	232.98
748.36	232.80
748.68	232.52
749.01	232.21
749.34	231.96
749.67	231.68
750.00	231.45
750.33	231.40
750.65	231.20
750.98	230.78
751.31	230.55
751.64	230.36
751.97	230.27
752.29	230.00
752.62	229.63
752.95	229.34
753.28	229.10
753.60	228.82
753.93	228.73
754.26	228.53
754.59	228.16
754.91	227.99
755.24	227.72
755.57	227.56
755.90	227.41
756.22	227.25
756.55	227.03
756.88	226.80
757.20	226.48
757.53	226.25
757.86	226.11
758.19	225.93
758.51	225.80
758.84	225.52
759.17	225.30
759.49	225.20
759.82	225.21
760.15	224.97
760.47	224.75
760.80	224.51
761.13	224.34
761.45	224.16
761.78	224.01
762.11	223.85
762.43	223.68
762.76	223.57
763.08	223.43
763.41	223.30
763.74	223.24
764.06	223.00
764.39	222.87
764.71	222.65
765.04	222.49
765.37	222.37
765.69	222.25
766.02	222.16
766.34	221.96
766.67	221.70
767.00	221.61
767.32	221.68
767.65	221.64
767.97	221.57
768.30	221.45
768.62	221.29
768.95	221.12
769.27	221.01
769.60	220.86
769.92	220.69
770.25	220.58
770.57	220.38
770.90	220.29
771.22	220.18
771.55	220.08
771.87	219.99
772.20	219.84
772.52	219.81
772.85	219.86
773.17	219.78
773.50	219.67
773.82	219.60
774.15	219.34
774.47	219.11
774.80	218.94
775.12	218.91
775.45	218.84
775.77	218.85
776.09	218.76
776.42	218.60
776.74	218.59
777.07	218.45
777.39	218.35
777.72	218.29
778.04	218.20
778.36	218.11
778.69	217.98
779.01	217.85
779.33	217.65
779.66	217.37
779.98	217.23
780.31	217.20
780.63	217.21
780.95	217.20
781.28	217.14
781.60	217.05
781.92	216.95
782.25	216.84
782.57	216.69
782.89	216.60
783.22	216.47
783.54	216.37
783.86	216.34
784.19	216.30
784.51	216.27
784.83	216.18
785.16	216.07
785.48	216.03
785.80	215.97
786.12	215.93
786.45	215.94
