SpectraSuite Data File
++++++++++++++++++++++++++++++++++++
Date: Mon Feb 25 17:30:26 EST 2013
User: group
Dark Spectrum Present: No
Reference Spectrum Present: No
Number of Sampled Component Spectra: 1
Spectrometers: USB2E7196
Integration Time (usec): 52000 (USB2E7196)
Spectra Averaged: 20 (USB2E7196)
Boxcar Smoothing: 10 (USB2E7196)
Correct for Electrical Dark: No (USB2E7196)
Strobe/Lamp Enabled: No (USB2E7196)
Correct for Detector Non-linearity: No (USB2E7196)
Correct for Stray Light: No (USB2E7196)
Number of Pixels in Processed Spectrum: 2048
>>>>>Begin Processed Spectral Data<<<<<
339.09	0.00
339.48	200.40
339.86	200.35
340.24	203.30
340.63	203.40
341.01	206.90
341.39	204.90
341.78	208.05
342.16	208.55
342.54	208.35
342.93	198.41
343.31	208.41
343.69	208.86
344.07	209.34
344.46	209.77
344.84	210.21
345.22	210.46
345.60	210.81
345.99	211.03
346.37	211.17
346.75	211.28
347.13	211.42
347.52	211.47
347.90	211.61
348.28	211.66
348.66	211.74
349.05	211.62
349.43	211.64
349.81	211.81
350.19	211.82
350.57	211.90
350.96	211.95
351.34	212.07
351.72	212.12
352.10	212.25
352.48	212.21
352.87	212.20
353.25	212.17
353.63	212.24
354.01	212.21
354.39	212.27
354.77	212.30
355.15	212.38
355.54	212.45
355.92	212.42
356.30	212.43
356.68	212.60
357.06	212.73
357.44	212.78
357.82	212.79
358.20	212.82
358.58	212.81
358.97	212.89
359.35	212.96
359.73	213.12
360.11	213.19
360.49	213.34
360.87	213.39
361.25	213.51
361.63	213.56
362.01	213.64
362.39	213.67
362.77	213.80
363.15	213.87
363.53	213.92
363.91	213.95
364.29	213.99
364.67	213.77
365.05	213.79
365.43	213.87
365.81	213.92
366.19	214.06
366.57	214.16
366.95	214.19
367.33	214.12
367.71	214.09
368.09	214.07
368.47	213.98
368.85	213.94
369.23	213.92
369.61	213.86
369.99	213.94
370.37	213.94
370.75	213.99
371.13	213.92
371.51	213.81
371.89	213.78
372.27	213.74
372.65	213.78
373.03	213.73
373.41	213.64
373.78	213.51
374.16	213.36
374.54	213.32
374.92	213.25
375.30	213.22
375.68	213.19
376.06	213.19
376.44	213.24
376.82	213.22
377.19	213.20
377.57	213.14
377.95	213.00
378.33	212.94
378.71	212.75
379.09	212.69
379.47	212.72
379.84	212.65
380.22	212.59
380.60	212.49
380.98	212.45
381.36	212.43
381.73	212.44
382.11	212.47
382.49	212.43
382.87	212.38
383.25	212.36
383.62	212.47
384.00	212.35
384.38	212.35
384.76	212.29
385.13	212.32
385.51	212.32
385.89	212.32
386.27	212.33
386.64	212.35
387.02	212.30
387.40	212.18
387.78	212.23
388.15	212.26
388.53	212.27
388.91	212.27
389.29	212.17
389.66	212.13
390.04	212.09
390.42	212.02
390.79	211.98
391.17	211.95
391.55	211.73
391.92	211.69
392.30	211.66
392.68	211.65
393.05	211.61
393.43	211.54
393.81	211.46
394.18	211.41
394.56	211.46
394.94	211.54
395.31	211.57
395.69	211.58
396.06	211.57
396.44	211.51
396.82	211.47
397.19	211.65
397.57	211.67
397.95	211.65
398.32	211.65
398.70	211.65
399.07	211.72
399.45	211.76
399.82	211.85
400.20	211.81
400.58	211.85
400.95	211.80
401.33	211.94
401.70	212.18
402.08	212.22
402.45	212.23
402.83	212.34
403.20	212.45
403.58	212.48
403.95	212.60
404.33	212.76
404.71	212.93
405.08	213.04
405.46	213.17
405.83	213.36
406.21	213.47
406.58	213.67
406.96	213.83
407.33	214.03
407.70	214.23
408.08	214.52
408.45	214.83
408.83	215.09
409.20	215.31
409.58	215.40
409.95	215.63
410.33	215.93
410.70	216.16
411.08	216.49
411.45	216.82
411.82	217.20
412.20	217.60
412.57	218.10
412.95	218.40
413.32	218.95
413.69	219.40
414.07	219.98
414.44	220.59
414.82	221.24
415.19	221.93
415.56	222.57
415.94	223.30
416.31	224.12
416.68	224.97
417.06	225.92
417.43	226.90
417.81	228.09
418.18	229.12
418.55	230.30
418.93	231.45
419.30	232.80
419.67	234.11
420.04	235.51
420.42	236.98
420.79	238.77
421.16	240.37
421.54	242.13
421.91	243.94
422.28	245.79
422.66	247.65
423.03	249.72
423.40	251.78
423.77	253.94
424.15	256.15
424.52	258.36
424.89	260.79
425.26	263.11
425.64	265.32
426.01	267.88
426.38	270.50
426.75	273.24
427.13	275.87
427.50	278.68
427.87	281.59
428.24	284.53
428.61	287.38
428.99	290.55
429.36	293.96
429.73	297.38
430.10	300.71
430.47	304.24
430.85	307.72
431.22	311.52
431.59	315.50
431.96	319.34
432.33	323.59
432.70	327.73
433.08	332.63
433.45	337.08
433.82	341.45
434.19	346.40
434.56	351.22
434.93	356.00
435.30	360.64
435.68	365.84
436.05	370.82
436.42	375.86
436.79	380.39
437.16	385.32
437.53	390.51
437.90	395.70
438.27	400.67
438.64	405.80
439.01	410.61
439.38	414.88
439.75	418.97
440.13	423.72
440.50	428.11
440.87	431.71
441.24	435.54
441.61	439.82
441.98	442.72
442.35	446.37
442.72	449.83
443.09	453.30
443.46	455.31
443.83	456.70
444.20	457.82
444.57	459.57
444.94	460.27
445.31	460.94
445.68	461.56
446.05	461.81
446.42	461.18
446.79	460.44
447.16	459.61
447.53	458.94
447.90	456.90
448.27	454.80
448.64	451.84
449.01	449.71
449.37	446.22
449.74	442.90
450.11	438.89
450.48	434.53
450.85	430.06
451.22	426.19
451.59	422.51
451.96	418.97
452.33	414.35
452.70	410.18
453.07	405.22
453.43	400.25
453.80	395.47
454.17	390.86
454.54	386.44
454.91	381.74
455.28	377.17
455.65	372.91
456.02	368.79
456.38	365.34
456.75	360.85
457.12	356.98
457.49	353.29
457.86	349.58
458.23	346.47
458.59	343.07
458.96	339.63
459.33	336.55
459.70	333.50
460.07	331.06
460.43	328.40
460.80	325.84
461.17	323.60
461.54	321.18
461.91	318.89
462.27	316.63
462.64	314.72
463.01	312.63
463.38	310.57
463.74	308.30
464.11	306.40
464.48	304.89
464.85	303.20
465.21	301.91
465.58	300.51
465.95	298.85
466.32	297.48
466.68	296.15
467.05	294.82
467.42	293.48
467.78	292.06
468.15	290.61
468.52	289.66
468.88	288.31
469.25	287.12
469.62	286.34
469.98	285.34
470.35	284.43
470.72	283.56
471.08	282.65
471.45	281.96
471.82	281.29
472.18	280.44
472.55	279.83
472.92	279.05
473.28	278.39
473.65	277.79
474.02	277.31
474.38	276.94
474.75	276.74
475.11	276.39
475.48	276.21
475.85	276.09
476.21	275.82
476.58	275.73
476.94	275.76
477.31	275.66
477.67	275.68
478.04	275.75
478.41	275.90
478.77	276.21
479.14	276.41
479.50	276.54
479.87	276.93
480.23	277.41
480.60	277.82
480.96	278.42
481.33	279.13
481.69	279.78
482.06	280.32
482.42	280.87
482.79	281.68
483.15	282.46
483.52	283.45
483.88	284.40
484.25	285.43
484.61	286.52
484.98	287.66
485.34	288.98
485.71	290.33
486.07	291.67
486.44	292.95
486.80	294.42
487.17	296.10
487.53	297.86
487.90	299.64
488.26	301.61
488.62	303.55
488.99	305.52
489.35	307.64
489.72	310.00
490.08	312.39
490.44	314.80
490.81	317.48
491.17	320.08
491.54	322.97
491.90	325.84
492.26	329.00
492.63	332.28
492.99	335.67
493.36	339.23
493.72	343.16
494.08	347.23
494.45	351.63
494.81	356.08
495.17	360.62
495.54	365.47
495.90	370.40
496.26	375.65
496.63	381.19
496.99	386.92
497.35	392.93
497.72	399.19
498.08	405.64
498.44	412.33
498.80	419.46
499.17	426.78
499.53	434.50
499.89	442.50
500.26	450.50
500.62	458.73
500.98	467.45
501.34	476.43
501.71	485.74
502.07	495.21
502.43	505.13
502.79	515.32
503.16	525.84
503.52	536.61
503.88	547.66
504.24	558.95
504.60	570.58
504.97	582.72
505.33	595.07
505.69	608.21
506.05	621.50
506.41	634.94
506.78	648.51
507.14	662.43
507.50	676.73
507.86	691.43
508.22	706.76
508.59	722.14
508.95	737.94
509.31	754.03
509.67	770.46
510.03	786.86
510.39	804.11
510.75	821.60
511.12	839.54
511.48	857.75
511.84	876.35
512.20	894.78
512.56	913.73
512.92	932.99
513.28	952.26
513.64	971.67
514.00	991.29
514.37	1011.58
514.73	1032.21
515.09	1052.65
515.45	1073.17
515.81	1093.86
516.17	1114.79
516.53	1135.45
516.89	1156.36
517.25	1177.50
517.61	1199.09
517.97	1220.26
518.33	1241.44
518.69	1262.75
519.05	1284.30
519.41	1305.92
519.77	1328.26
520.13	1349.85
520.49	1371.32
520.85	1393.40
521.21	1415.33
521.57	1437.74
521.93	1458.96
522.29	1480.92
522.65	1503.16
523.01	1525.03
523.37	1546.40
523.73	1568.32
524.09	1590.25
524.45	1612.13
524.81	1634.17
525.17	1656.03
525.53	1677.91
525.89	1699.42
526.25	1720.93
526.61	1741.79
526.97	1762.85
527.33	1783.50
527.68	1804.26
528.04	1824.91
528.40	1844.82
528.76	1864.92
529.12	1885.00
529.48	1906.28
529.84	1926.24
530.20	1945.84
530.56	1965.87
530.91	1986.30
531.27	2005.62
531.63	2024.99
531.99	2044.38
532.35	2062.78
532.71	2081.14
533.07	2099.71
533.42	2117.91
533.78	2136.14
534.14	2153.90
534.50	2170.52
534.86	2187.79
535.21	2204.12
535.57	2221.41
535.93	2238.06
536.29	2254.23
536.65	2270.25
537.00	2285.09
537.36	2299.79
537.72	2314.52
538.08	2329.19
538.44	2343.63
538.79	2358.66
539.15	2372.98
539.51	2387.04
539.87	2401.84
540.22	2415.56
540.58	2430.00
540.94	2443.91
541.29	2456.53
541.65	2468.00
542.01	2480.87
542.37	2492.38
542.72	2504.15
543.08	2514.56
543.44	2525.88
543.79	2535.95
544.15	2545.55
544.51	2556.10
544.87	2566.29
545.22	2574.78
545.58	2582.83
545.94	2589.59
546.29	2595.47
546.65	2601.05
547.01	2606.49
547.36	2611.55
547.72	2616.51
548.07	2619.96
548.43	2623.09
548.79	2626.40
549.14	2630.69
549.50	2634.15
549.86	2637.34
550.21	2640.71
550.57	2644.20
550.92	2646.05
551.28	2648.28
551.64	2650.32
551.99	2652.15
552.35	2653.50
552.70	2655.79
553.06	2658.17
553.41	2660.76
553.77	2663.30
554.13	2665.39
554.48	2667.12
554.84	2668.36
555.19	2669.04
555.55	2669.45
555.90	2669.95
556.26	2670.03
556.61	2670.04
556.97	2668.45
557.32	2667.96
557.68	2666.12
558.03	2664.21
558.39	2662.46
558.74	2661.81
559.10	2660.63
559.45	2658.46
559.81	2656.85
560.16	2654.20
560.52	2651.54
560.87	2648.92
561.23	2645.00
561.58	2642.78
561.94	2639.36
562.29	2635.30
562.64	2632.73
563.00	2629.89
563.35	2627.13
563.71	2625.12
564.06	2622.74
564.42	2620.70
564.77	2618.28
565.12	2616.48
565.48	2613.42
565.83	2610.37
566.19	2606.78
566.54	2602.12
566.89	2598.25
567.25	2594.66
567.60	2591.23
567.96	2587.75
568.31	2583.75
568.66	2580.05
569.02	2575.19
569.37	2569.99
569.72	2566.23
570.08	2560.93
570.43	2555.20
570.78	2549.60
571.14	2543.19
571.49	2536.47
571.84	2530.67
572.20	2523.75
572.55	2517.09
572.90	2510.43
573.26	2504.00
573.61	2496.92
573.96	2490.86
574.31	2482.91
574.67	2475.05
575.02	2466.73
575.37	2457.94
575.72	2449.09
576.08	2441.81
576.43	2433.10
576.78	2425.60
577.13	2417.96
577.49	2409.88
577.84	2402.34
578.19	2394.94
578.54	2387.96
578.90	2381.19
579.25	2372.84
579.60	2363.94
579.95	2354.91
580.30	2347.33
580.66	2339.25
581.01	2330.47
581.36	2321.32
581.71	2313.51
582.06	2305.13
582.42	2297.40
582.77	2288.76
583.12	2280.43
583.47	2271.82
583.82	2263.85
584.17	2254.95
584.53	2245.72
584.88	2237.26
585.23	2228.18
585.58	2218.95
585.93	2209.73
586.28	2200.57
586.63	2191.95
586.98	2184.17
587.34	2176.38
587.69	2167.62
588.04	2158.71
588.39	2150.77
588.74	2142.31
589.09	2133.84
589.44	2124.70
589.79	2116.31
590.14	2108.69
590.49	2100.61
590.84	2092.00
591.19	2084.15
591.54	2075.80
591.89	2066.11
592.25	2057.35
592.60	2048.69
592.95	2039.67
593.30	2030.30
593.65	2021.02
594.00	2011.81
594.35	2004.06
594.70	1995.27
595.05	1986.61
595.40	1978.04
595.75	1969.08
596.10	1960.94
596.45	1952.56
596.80	1945.03
597.15	1937.02
597.50	1928.41
597.85	1919.98
598.19	1911.50
598.54	1903.18
598.89	1895.63
599.24	1889.23
599.59	1882.08
599.94	1875.30
600.29	1867.87
600.64	1860.19
600.99	1852.33
601.34	1845.53
601.69	1836.63
602.04	1828.63
602.39	1820.76
602.74	1813.15
603.08	1806.48
603.43	1799.36
603.78	1791.98
604.13	1784.22
604.48	1776.24
604.83	1769.47
605.18	1762.88
605.53	1755.72
605.87	1748.46
606.22	1741.66
606.57	1734.19
606.92	1726.43
607.27	1718.61
607.62	1711.61
607.96	1704.94
608.31	1698.98
608.66	1691.21
609.01	1684.01
609.36	1676.61
609.70	1668.93
610.05	1661.49
610.40	1653.83
610.75	1645.78
611.10	1638.14
611.44	1629.28
611.79	1620.81
612.14	1611.84
612.49	1602.43
612.83	1593.61
613.18	1583.97
613.53	1574.83
613.88	1565.30
614.22	1556.44
614.57	1547.38
614.92	1538.44
615.27	1529.72
615.61	1520.22
615.96	1511.65
616.31	1503.52
616.65	1495.67
617.00	1487.66
617.35	1479.59
617.70	1470.87
618.04	1462.10
618.39	1453.07
618.74	1445.13
619.08	1436.75
619.43	1428.73
619.78	1421.37
620.12	1413.70
620.47	1406.40
620.82	1398.11
621.16	1390.15
621.51	1382.23
621.85	1374.25
622.20	1365.89
622.55	1357.65
622.89	1349.74
623.24	1342.15
623.59	1333.67
623.93	1325.42
624.28	1317.39
624.62	1309.47
624.97	1301.36
625.32	1293.75
625.66	1286.52
626.01	1279.61
626.35	1272.63
626.70	1265.04
627.04	1257.58
627.39	1250.38
627.73	1243.24
628.08	1236.36
628.43	1229.42
628.77	1222.30
629.12	1215.15
629.46	1208.96
629.81	1202.05
630.15	1195.06
630.50	1188.03
630.84	1180.96
631.19	1174.12
631.53	1167.52
631.88	1160.08
632.22	1152.96
632.57	1146.36
632.91	1139.15
633.26	1131.60
633.60	1124.50
633.95	1117.74
634.29	1110.80
634.64	1104.08
634.98	1097.25
635.32	1090.53
635.67	1084.25
636.01	1077.80
636.36	1071.09
636.70	1064.31
637.05	1057.70
637.39	1051.37
637.73	1044.86
638.08	1039.24
638.42	1033.34
638.77	1026.85
639.11	1020.70
639.45	1014.78
639.80	1008.29
640.14	1002.35
640.49	996.26
640.83	990.31
641.17	984.19
641.52	978.12
641.86	971.77
642.20	965.77
642.55	959.26
642.89	952.89
643.23	946.58
643.58	941.04
643.92	934.91
644.26	928.74
644.61	922.79
644.95	916.95
645.29	910.75
645.64	904.37
645.98	898.51
646.32	892.85
646.66	886.81
647.01	881.21
647.35	875.49
647.69	869.58
648.04	863.83
648.38	858.10
648.72	852.37
649.06	846.59
649.41	840.64
649.75	835.06
650.09	829.35
650.43	823.58
650.78	817.46
651.12	811.44
651.46	806.05
651.80	800.13
652.14	794.41
652.49	788.72
652.83	783.08
653.17	777.28
653.51	771.50
653.85	766.25
654.20	760.33
654.54	754.65
654.88	749.27
655.22	743.68
655.56	737.86
655.90	732.07
656.25	726.50
656.59	721.15
656.93	716.09
657.27	711.04
657.61	705.87
657.95	700.95
658.29	695.98
658.64	690.87
658.98	685.90
659.32	680.69
659.66	675.69
660.00	670.48
660.34	665.45
660.68	660.52
661.02	655.33
661.36	650.85
661.70	646.03
662.05	641.49
662.39	637.02
662.73	632.95
663.07	628.89
663.41	624.74
663.75	620.33
664.09	615.69
664.43	610.99
664.77	606.71
665.11	602.30
665.45	598.12
665.79	593.95
666.13	589.58
666.47	585.46
666.81	581.42
667.15	577.55
667.49	573.90
667.83	570.06
668.17	566.35
668.51	562.68
668.85	559.12
669.19	555.44
669.53	551.61
669.87	547.74
670.21	543.88
670.55	540.02
670.89	536.57
671.23	533.33
671.57	530.03
671.91	526.48
672.25	523.14
672.58	519.75
672.92	516.30
673.26	513.38
673.60	510.24
673.94	506.89
674.28	503.76
674.62	500.65
674.96	497.49
675.30	494.49
675.64	491.37
675.97	488.39
676.31	485.43
676.65	482.58
676.99	479.93
677.33	477.10
677.67	474.35
678.01	471.36
678.34	468.34
678.68	465.49
679.02	462.69
679.36	460.04
679.70	457.25
680.04	454.45
680.37	451.49
680.71	448.64
681.05	446.07
681.39	443.44
681.73	440.65
682.06	438.25
682.40	435.64
682.74	433.04
683.08	430.44
683.42	427.95
683.75	425.38
684.09	422.73
684.43	420.23
684.77	417.78
685.10	415.38
685.44	412.92
685.78	410.48
686.12	408.29
686.45	405.84
686.79	403.57
687.13	401.46
687.46	399.30
687.80	397.29
688.14	395.03
688.48	392.85
688.81	390.66
689.15	388.43
689.49	386.29
689.82	384.12
690.16	381.82
690.50	379.61
690.83	377.47
691.17	375.30
691.51	373.27
691.84	371.26
692.18	369.38
692.52	367.54
692.85	365.79
693.19	363.95
693.52	362.04
693.86	360.14
694.20	358.35
694.53	356.69
694.87	354.72
695.21	352.92
695.54	351.02
695.88	349.32
696.21	347.52
696.55	345.87
696.88	344.27
697.22	342.70
697.56	341.19
697.89	339.66
698.23	338.13
698.56	336.53
698.90	335.05
699.23	333.41
699.57	331.92
699.90	330.27
700.24	328.54
700.58	327.03
700.91	325.58
701.25	324.22
701.58	322.79
701.92	321.46
702.25	320.18
702.59	318.90
702.92	317.58
703.26	316.29
703.59	314.94
703.93	313.77
704.26	312.55
704.60	311.19
704.93	310.01
705.26	308.81
705.60	307.66
705.93	306.36
706.27	305.26
706.60	304.16
706.94	303.18
707.27	302.11
707.61	301.05
707.94	300.00
708.27	298.71
708.61	297.51
708.94	296.37
709.28	295.18
709.61	294.07
709.94	293.04
710.28	291.97
710.61	291.01
710.95	289.88
711.28	289.05
711.61	288.09
711.95	287.15
712.28	286.27
712.61	285.31
712.95	284.47
713.28	283.53
713.61	282.54
713.95	281.63
714.28	280.75
714.61	279.82
714.95	278.94
715.28	278.07
715.61	277.16
715.95	276.40
716.28	275.52
716.61	274.74
716.95	273.87
717.28	273.12
717.61	272.32
717.94	271.61
718.28	270.76
718.61	270.01
718.94	269.20
719.27	268.37
719.61	267.66
719.94	267.01
720.27	266.30
720.60	265.71
720.94	265.01
721.27	264.37
721.60	263.82
721.93	263.06
722.27	262.58
722.60	262.07
722.93	261.42
723.26	260.95
723.59	260.38
723.93	259.80
724.26	259.29
724.59	258.70
724.92	258.16
725.25	257.52
725.59	256.90
725.92	256.37
726.25	255.86
726.58	255.35
726.91	254.85
727.24	254.39
727.57	253.82
727.91	253.25
728.24	252.81
728.57	252.28
728.90	251.90
729.23	251.34
729.56	250.90
729.89	250.49
730.22	249.98
730.55	249.51
730.89	249.07
731.22	248.61
731.55	248.18
731.88	247.70
732.21	247.30
732.54	246.91
732.87	246.49
733.20	246.10
733.53	245.64
733.86	245.18
734.19	244.74
734.52	244.35
734.85	244.17
735.18	243.74
735.51	243.40
735.84	243.08
736.17	242.75
736.50	242.31
736.83	242.17
737.16	241.83
737.49	241.60
737.82	241.32
738.15	240.90
738.48	240.58
738.81	240.30
739.14	239.98
739.47	239.73
739.80	239.42
740.13	239.07
740.46	238.76
740.79	238.40
741.12	238.08
741.45	237.85
741.78	237.39
742.11	237.20
742.44	236.83
742.77	236.51
743.10	236.20
743.43	235.92
743.75	235.39
744.08	235.23
744.41	234.88
744.74	234.52
745.07	234.30
745.40	234.09
745.73	233.90
746.06	233.61
746.39	233.36
746.71	233.04
747.04	232.87
747.37	232.64
747.70	232.43
748.03	232.19
748.36	231.93
748.68	231.69
749.01	231.30
749.34	231.07
749.67	230.89
750.00	230.79
750.33	230.72
750.65	230.56
750.98	230.16
751.31	229.88
751.64	229.69
751.97	229.55
752.29	229.35
752.62	229.06
752.95	228.81
753.28	228.50
753.60	228.32
753.93	228.14
754.26	227.92
754.59	227.70
754.91	227.53
755.24	227.31
755.57	227.11
755.90	226.93
756.22	226.75
756.55	226.53
756.88	226.23
757.20	225.95
757.53	225.68
757.86	225.52
758.19	225.37
758.51	225.19
758.84	224.83
759.17	224.58
759.49	224.41
759.82	224.33
760.15	224.24
760.47	224.09
760.80	223.90
761.13	223.85
761.45	223.62
761.78	223.47
762.11	223.24
762.43	223.04
762.76	222.90
763.08	222.72
763.41	222.58
763.74	222.45
764.06	222.25
764.39	222.16
764.71	222.04
765.04	221.85
765.37	221.69
765.69	221.69
766.02	221.65
766.34	221.48
766.67	221.30
767.00	221.18
767.32	221.11
767.65	220.98
767.97	220.73
768.30	220.68
768.62	220.58
768.95	220.47
769.27	220.42
769.60	220.35
769.92	220.26
770.25	220.14
770.57	220.05
770.90	219.98
771.22	219.81
771.55	219.76
771.87	219.74
772.20	219.64
772.52	219.62
772.85	219.61
773.17	219.45
773.50	219.35
773.82	219.23
774.15	219.11
774.47	218.85
774.80	218.75
775.12	218.60
775.45	218.49
775.77	218.40
776.09	218.35
776.42	218.22
776.74	218.16
777.07	218.09
777.39	218.01
777.72	217.91
778.04	217.84
778.36	217.76
778.69	217.71
779.01	217.65
779.33	217.40
779.66	217.18
779.98	217.14
780.31	217.13
780.63	217.07
780.95	217.00
781.28	217.00
781.60	216.93
781.92	216.86
782.25	216.78
782.57	216.74
782.89	216.66
783.22	216.69
783.54	216.61
783.86	216.56
784.19	216.49
784.51	216.48
784.83	216.40
785.16	216.32
785.48	216.22
785.80	216.18
786.12	216.16
786.45	216.16
