SpectraSuite Data File
++++++++++++++++++++++++++++++++++++
Date: Mon Feb 25 17:33:02 EST 2013
User: group
Dark Spectrum Present: No
Reference Spectrum Present: No
Number of Sampled Component Spectra: 1
Spectrometers: USB2E7196
Integration Time (usec): 52000 (USB2E7196)
Spectra Averaged: 20 (USB2E7196)
Boxcar Smoothing: 10 (USB2E7196)
Correct for Electrical Dark: No (USB2E7196)
Strobe/Lamp Enabled: No (USB2E7196)
Correct for Detector Non-linearity: No (USB2E7196)
Correct for Stray Light: No (USB2E7196)
Number of Pixels in Processed Spectrum: 2048
>>>>>Begin Processed Spectral Data<<<<<
339.09	0.00
339.48	199.00
339.86	200.25
340.24	202.60
340.63	203.25
341.01	207.05
341.39	205.90
341.78	205.85
342.16	208.90
342.54	208.25
342.93	197.80
343.31	207.78
343.69	208.30
344.07	208.77
344.46	209.10
344.84	209.51
345.22	209.65
345.60	209.94
345.99	210.17
346.37	210.27
346.75	210.35
347.13	210.44
347.52	210.48
347.90	210.63
348.28	210.67
348.66	210.74
349.05	210.72
349.43	210.80
349.81	210.86
350.19	210.95
350.57	211.05
350.96	211.23
351.34	211.35
351.72	211.51
352.10	211.60
352.48	211.73
352.87	211.79
353.25	211.93
353.63	211.99
354.01	212.15
354.39	212.25
354.77	212.43
355.15	212.60
355.54	212.72
355.92	212.71
356.30	212.87
356.68	213.07
357.06	213.26
357.44	213.31
357.82	213.32
358.20	213.42
358.58	213.46
358.97	213.50
359.35	213.59
359.73	213.60
360.11	213.67
360.49	213.71
360.87	213.73
361.25	213.83
361.63	213.94
362.01	214.01
362.39	214.04
362.77	214.06
363.15	214.06
363.53	214.08
363.91	214.22
364.29	214.19
364.67	214.05
365.05	214.00
365.43	214.08
365.81	214.24
366.19	214.36
366.57	214.48
366.95	214.46
367.33	214.42
367.71	214.46
368.09	214.47
368.47	214.48
368.85	214.49
369.23	214.42
369.61	214.32
369.99	214.24
370.37	214.27
370.75	214.36
371.13	214.36
371.51	214.30
371.89	214.20
372.27	214.19
372.65	214.28
373.03	214.25
373.41	214.19
373.78	214.12
374.16	214.00
374.54	213.86
374.92	213.77
375.30	213.75
375.68	213.68
376.06	213.60
376.44	213.53
376.82	213.48
377.19	213.41
377.57	213.33
377.95	213.23
378.33	213.15
378.71	212.96
379.09	212.90
379.47	212.87
379.84	212.80
380.22	212.80
380.60	212.71
380.98	212.71
381.36	212.66
381.73	212.61
382.11	212.56
382.49	212.59
382.87	212.52
383.25	212.48
383.62	212.69
384.00	212.69
384.38	212.72
384.76	212.70
385.13	212.73
385.51	212.79
385.89	212.72
386.27	212.66
386.64	212.62
387.02	212.55
387.40	212.50
387.78	212.48
388.15	212.37
388.53	212.25
388.91	212.21
389.29	212.15
389.66	212.11
390.04	212.03
390.42	211.99
390.79	211.95
391.17	211.97
391.55	211.71
391.92	211.62
392.30	211.55
392.68	211.51
393.05	211.51
393.43	211.42
393.81	211.45
394.18	211.38
394.56	211.46
394.94	211.54
395.31	211.52
395.69	211.57
396.06	211.56
396.44	211.65
396.82	211.58
397.19	211.63
397.57	211.64
397.95	211.70
398.32	211.63
398.70	211.77
399.07	211.78
399.45	211.84
399.82	211.91
400.20	211.95
400.58	211.99
400.95	211.95
401.33	212.11
401.70	212.30
402.08	212.47
402.45	212.50
402.83	212.56
403.20	212.70
403.58	212.74
403.95	212.89
404.33	212.95
404.71	213.05
405.08	213.30
405.46	213.39
405.83	213.53
406.21	213.75
406.58	213.85
406.96	213.99
407.33	214.08
407.70	214.31
408.08	214.62
408.45	214.85
408.83	215.13
409.20	215.30
409.58	215.48
409.95	215.76
410.33	216.02
410.70	216.25
411.08	216.56
411.45	216.93
411.82	217.27
412.20	217.76
412.57	218.33
412.95	218.56
413.32	219.16
413.69	219.67
414.07	220.21
414.44	220.85
414.82	221.56
415.19	222.32
415.56	223.03
415.94	223.85
416.31	224.78
416.68	225.63
417.06	226.65
417.43	227.60
417.81	228.73
418.18	229.90
418.55	231.12
418.93	232.38
419.30	233.76
419.67	235.12
420.04	236.49
420.42	238.00
420.79	239.83
421.16	241.51
421.54	243.33
421.91	245.16
422.28	247.11
422.66	249.10
423.03	251.18
423.40	253.26
423.77	255.40
424.15	257.58
424.52	259.92
424.89	262.40
425.26	264.88
425.64	267.14
426.01	269.66
426.38	272.38
426.75	275.13
427.13	277.77
427.50	280.74
427.87	283.76
428.24	286.86
428.61	289.85
428.99	293.12
429.36	296.54
429.73	300.04
430.10	303.40
430.47	306.91
430.85	310.57
431.22	314.47
431.59	318.60
431.96	322.51
432.33	326.83
432.70	331.09
433.08	335.96
433.45	340.68
433.82	345.29
434.19	350.45
434.56	355.41
434.93	360.29
435.30	365.15
435.68	370.46
436.05	375.60
436.42	380.72
436.79	385.31
437.16	390.42
437.53	395.70
437.90	400.96
438.27	406.15
438.64	411.50
439.01	416.39
439.38	420.73
439.75	424.98
440.13	429.76
440.50	434.30
440.87	437.99
441.24	441.65
441.61	445.85
441.98	448.84
442.35	452.48
442.72	455.99
443.09	459.40
443.46	461.44
443.83	462.76
444.20	463.86
444.57	465.77
444.94	466.57
445.31	467.26
445.68	468.02
446.05	468.26
446.42	467.60
446.79	466.83
447.16	465.96
447.53	465.38
447.90	463.25
448.27	461.18
448.64	458.29
449.01	456.21
449.37	452.60
449.74	449.08
450.11	444.86
450.48	440.37
450.85	435.79
451.22	431.82
451.59	427.99
451.96	424.43
452.33	419.50
452.70	415.16
453.07	410.07
453.43	404.81
453.80	399.75
454.17	394.88
454.54	390.40
454.91	385.60
455.28	380.94
455.65	376.63
456.02	372.25
456.38	368.54
456.75	363.89
457.12	360.00
457.49	356.18
457.86	352.53
458.23	349.39
458.59	345.91
458.96	342.34
459.33	339.30
459.70	336.13
460.07	333.59
460.43	330.69
460.80	328.00
461.17	325.69
461.54	323.31
461.91	321.07
462.27	318.77
462.64	316.75
463.01	314.44
463.38	312.33
463.74	310.14
464.11	308.22
464.48	306.67
464.85	304.87
465.21	303.51
465.58	302.04
465.95	300.32
466.32	298.95
466.68	297.64
467.05	296.28
467.42	294.93
467.78	293.58
468.15	292.29
468.52	291.44
468.88	290.07
469.25	288.83
469.62	287.89
469.98	286.87
470.35	285.92
470.72	285.09
471.08	284.12
471.45	283.35
471.82	282.58
472.18	281.66
472.55	281.16
472.92	280.45
473.28	279.91
473.65	279.33
474.02	278.61
474.38	278.17
474.75	277.75
475.11	277.30
475.48	277.00
475.85	276.72
476.21	276.45
476.58	276.41
476.94	276.40
477.31	276.25
477.67	276.09
478.04	276.21
478.41	276.27
478.77	276.60
479.14	276.67
479.50	276.99
479.87	277.49
480.23	277.85
480.60	278.30
480.96	278.67
481.33	279.39
481.69	280.11
482.06	280.74
482.42	281.48
482.79	282.29
483.15	283.23
483.52	284.22
483.88	285.13
484.25	286.17
484.61	287.27
484.98	288.50
485.34	289.89
485.71	291.25
486.07	292.71
486.44	294.05
486.80	295.67
487.17	297.20
487.53	298.84
487.90	300.63
488.26	302.63
488.62	304.70
488.99	306.58
489.35	308.74
489.72	311.04
490.08	313.31
490.44	315.80
490.81	318.43
491.17	321.05
491.54	323.95
491.90	327.01
492.26	330.12
492.63	333.39
492.99	336.83
493.36	340.41
493.72	344.35
494.08	348.34
494.45	352.59
494.81	357.13
495.17	361.83
495.54	366.72
495.90	371.69
496.26	376.86
496.63	382.40
496.99	388.12
497.35	394.16
497.72	400.42
498.08	406.89
498.44	413.61
498.80	420.90
499.17	428.20
499.53	435.73
499.89	443.80
500.26	451.96
500.62	460.20
500.98	469.01
501.34	477.94
501.71	487.32
502.07	496.96
502.43	506.83
502.79	516.86
503.16	527.62
503.52	538.38
503.88	549.68
504.24	561.28
504.60	573.09
504.97	585.45
505.33	598.03
505.69	611.29
506.05	624.67
506.41	638.24
506.78	652.04
507.14	666.31
507.50	680.66
507.86	695.68
508.22	710.99
508.59	726.70
508.95	742.83
509.31	759.10
509.67	775.80
510.03	792.80
510.39	810.47
510.75	827.91
511.12	846.07
511.48	864.50
511.84	883.13
512.20	901.74
512.56	921.02
512.92	940.36
513.28	959.82
513.64	979.72
514.00	999.57
514.37	1020.02
514.73	1040.84
515.09	1061.60
515.45	1082.52
515.81	1103.86
516.17	1124.86
516.53	1146.30
516.89	1167.75
517.25	1189.39
517.61	1211.15
517.97	1232.90
518.33	1254.67
518.69	1276.37
519.05	1298.12
519.41	1320.24
519.77	1343.10
520.13	1365.17
520.49	1387.40
520.85	1410.07
521.21	1432.55
521.57	1455.47
521.93	1477.39
522.29	1500.00
522.65	1522.64
523.01	1545.09
523.37	1567.18
523.73	1589.67
524.09	1611.74
524.45	1634.27
524.81	1656.47
525.17	1678.89
525.53	1701.19
525.89	1723.48
526.25	1745.69
526.61	1767.18
526.97	1788.69
527.33	1809.83
527.68	1831.15
528.04	1852.25
528.40	1872.45
528.76	1893.26
529.12	1913.78
529.48	1935.68
529.84	1955.93
530.20	1976.45
530.56	1996.90
530.91	2017.69
531.27	2038.10
531.63	2057.80
531.99	2077.41
532.35	2096.81
532.71	2115.81
533.07	2135.07
533.42	2153.66
533.78	2172.30
534.14	2190.95
534.50	2208.43
534.86	2226.84
535.21	2243.70
535.57	2261.58
535.93	2279.09
536.29	2296.00
536.65	2312.87
537.00	2328.16
537.36	2343.50
537.72	2358.78
538.08	2374.08
538.44	2389.25
538.79	2404.50
539.15	2419.48
539.51	2434.20
539.87	2449.38
540.22	2463.55
540.58	2478.69
540.94	2492.90
541.29	2506.03
541.65	2518.29
542.01	2531.49
542.37	2543.03
542.72	2555.43
543.08	2566.60
543.44	2578.65
543.79	2588.80
544.15	2598.89
544.51	2609.88
544.87	2621.15
545.22	2630.00
545.58	2638.58
545.94	2645.64
546.29	2652.11
546.65	2658.75
547.01	2664.79
547.36	2670.23
547.72	2675.77
548.07	2679.55
548.43	2683.77
548.79	2687.60
549.14	2692.00
549.50	2696.15
549.86	2700.28
550.21	2704.10
550.57	2708.01
550.92	2710.40
551.28	2713.08
551.64	2715.75
551.99	2718.10
552.35	2719.34
552.70	2722.28
553.06	2725.08
553.41	2728.49
553.77	2731.30
554.13	2733.42
554.48	2735.77
554.84	2737.32
555.19	2738.06
555.55	2738.70
555.90	2738.95
556.26	2739.42
556.61	2739.43
556.97	2738.44
557.32	2737.88
557.68	2736.25
558.03	2734.96
558.39	2733.30
558.74	2732.99
559.10	2731.60
559.45	2729.71
559.81	2728.67
560.16	2726.13
560.52	2723.31
560.87	2720.12
561.23	2716.20
561.58	2714.02
561.94	2710.91
562.29	2707.18
562.64	2705.19
563.00	2702.70
563.35	2700.71
563.71	2698.94
564.06	2696.95
564.42	2694.91
564.77	2692.41
565.12	2690.62
565.48	2687.28
565.83	2684.30
566.19	2680.72
566.54	2676.44
566.89	2672.81
567.25	2669.30
567.60	2666.33
567.96	2662.95
568.31	2659.40
568.66	2655.90
569.02	2651.03
569.37	2645.65
569.72	2641.81
570.08	2636.49
570.43	2630.64
570.78	2624.87
571.14	2618.83
571.49	2611.99
571.84	2606.30
572.20	2599.67
572.55	2593.13
572.90	2586.32
573.26	2579.65
573.61	2572.73
573.96	2566.18
574.31	2557.95
574.67	2549.60
575.02	2540.47
575.37	2531.57
575.72	2522.76
576.08	2515.08
576.43	2506.37
576.78	2498.58
577.13	2490.59
577.49	2482.50
577.84	2474.86
578.19	2467.08
578.54	2459.30
578.90	2452.59
579.25	2443.47
579.60	2434.44
579.95	2425.03
580.30	2417.03
580.66	2408.44
581.01	2399.06
581.36	2389.70
581.71	2381.72
582.06	2373.17
582.42	2365.27
582.77	2356.27
583.12	2347.24
583.47	2338.51
583.82	2330.41
584.17	2321.28
584.53	2311.79
584.88	2302.85
585.23	2293.81
585.58	2284.27
585.93	2274.44
586.28	2265.06
586.63	2256.55
586.98	2247.88
587.34	2239.90
587.69	2230.78
588.04	2221.70
588.39	2213.55
588.74	2205.15
589.09	2196.29
589.44	2186.78
589.79	2178.33
590.14	2170.65
590.49	2162.44
590.84	2153.43
591.19	2145.05
591.54	2136.39
591.89	2126.65
592.25	2117.74
592.60	2108.18
592.95	2098.80
593.30	2089.48
593.65	2079.25
594.00	2069.43
594.35	2061.18
594.70	2051.67
595.05	2042.90
595.40	2034.42
595.75	2024.80
596.10	2016.55
596.45	2007.89
596.80	2000.10
597.15	1991.73
597.50	1982.60
597.85	1974.08
598.19	1965.47
598.54	1957.10
598.89	1949.19
599.24	1942.73
599.59	1935.16
599.94	1928.15
600.29	1920.48
600.64	1912.61
600.99	1904.76
601.34	1897.51
601.69	1888.77
602.04	1880.76
602.39	1872.57
602.74	1864.74
603.08	1858.46
603.43	1851.12
603.78	1843.32
604.13	1835.15
604.48	1827.13
604.83	1819.94
605.18	1812.90
605.53	1805.14
605.87	1797.20
606.22	1790.20
606.57	1781.95
606.92	1773.52
607.27	1765.39
607.62	1758.21
607.96	1751.13
608.31	1744.90
608.66	1737.13
609.01	1729.70
609.36	1722.00
609.70	1714.22
610.05	1706.43
610.40	1697.88
610.75	1689.33
611.10	1681.59
611.44	1672.81
611.79	1663.79
612.14	1654.50
612.49	1644.86
612.83	1636.38
613.18	1626.76
613.53	1616.87
613.88	1607.13
614.22	1598.25
614.57	1588.94
614.92	1579.50
615.27	1570.25
615.61	1560.40
615.96	1551.63
616.31	1543.03
616.65	1535.17
617.00	1526.79
617.35	1517.88
617.70	1508.90
618.04	1499.82
618.39	1490.32
618.74	1481.65
619.08	1473.10
619.43	1464.98
619.78	1457.15
620.12	1448.93
620.47	1441.41
620.82	1433.33
621.16	1425.05
621.51	1416.90
621.85	1408.58
622.20	1400.12
622.55	1391.82
622.89	1383.58
623.24	1375.53
623.59	1367.01
623.93	1358.12
624.28	1349.68
624.62	1341.66
624.97	1333.55
625.32	1325.74
625.66	1318.65
626.01	1311.63
626.35	1304.32
626.70	1296.39
627.04	1288.92
627.39	1281.17
627.73	1273.56
628.08	1266.52
628.43	1259.22
628.77	1251.63
629.12	1244.23
629.46	1237.32
629.81	1230.00
630.15	1222.65
630.50	1215.16
630.84	1207.88
631.19	1200.82
631.53	1194.10
631.88	1186.66
632.22	1179.17
632.57	1172.12
632.91	1164.60
633.26	1156.98
633.60	1149.81
633.95	1143.02
634.29	1135.69
634.64	1128.96
634.98	1121.73
635.32	1114.52
635.67	1108.14
636.01	1101.62
636.36	1094.90
636.70	1088.34
637.05	1081.95
637.39	1075.80
637.73	1069.60
638.08	1063.85
638.42	1057.92
638.77	1051.30
639.11	1045.00
639.45	1038.83
639.80	1032.25
640.14	1026.04
640.49	1019.78
640.83	1013.47
641.17	1007.11
641.52	1001.22
641.86	994.93
642.20	988.87
642.55	982.21
642.89	975.66
643.23	969.14
643.58	963.30
643.92	957.10
644.26	950.70
644.61	944.42
644.95	938.45
645.29	932.07
645.64	925.38
645.98	919.33
646.32	913.41
646.66	907.54
647.01	901.63
647.35	895.52
647.69	889.20
648.04	883.22
648.38	877.39
648.72	871.14
649.06	864.93
649.41	858.92
649.75	853.28
650.09	847.72
650.43	841.91
650.78	835.66
651.12	829.33
651.46	823.65
651.80	817.82
652.14	811.78
652.49	805.77
652.83	799.95
653.17	793.81
653.51	787.90
653.85	782.21
654.20	776.43
654.54	770.78
654.88	765.55
655.22	759.71
655.56	753.79
655.90	748.13
656.25	742.62
656.59	737.13
656.93	731.92
657.27	726.50
657.61	721.01
657.95	715.99
658.29	710.87
658.64	705.69
658.98	700.45
659.32	694.94
659.66	689.71
660.00	684.59
660.34	679.46
660.68	674.38
661.02	669.23
661.36	664.45
661.70	659.46
662.05	654.57
662.39	650.06
662.73	645.75
663.07	641.41
663.41	637.05
663.75	632.53
664.09	627.68
664.43	623.03
664.77	618.69
665.11	614.14
665.45	609.90
665.79	605.53
666.13	601.20
666.47	597.02
666.81	592.82
667.15	588.72
667.49	584.95
667.83	580.92
668.17	577.07
668.51	573.27
668.85	569.54
669.19	565.85
669.53	562.17
669.87	558.10
670.21	554.04
670.55	550.14
670.89	546.65
671.23	543.25
671.57	539.58
671.91	535.99
672.25	532.40
672.58	528.90
672.92	525.41
673.26	522.27
673.60	519.10
673.94	515.79
674.28	512.51
674.62	509.27
674.96	506.12
675.30	503.01
675.64	499.72
675.97	496.40
676.31	493.33
676.65	490.22
676.99	487.53
677.33	484.65
677.67	481.70
678.01	478.55
678.34	475.60
678.68	472.85
679.02	469.92
679.36	467.06
679.70	464.16
680.04	461.25
680.37	458.17
680.71	455.27
681.05	452.64
681.39	449.95
681.73	447.27
682.06	444.75
682.40	442.03
682.74	439.48
683.08	437.04
683.42	434.38
683.75	431.84
684.09	429.18
684.43	426.75
684.77	424.12
685.10	421.61
685.44	419.01
685.78	416.50
686.12	414.23
686.45	411.86
686.79	409.63
687.13	407.52
687.46	405.35
687.80	403.23
688.14	400.94
688.48	398.77
688.81	396.53
689.15	394.29
689.49	392.01
689.82	389.83
690.16	387.55
690.50	385.33
690.83	383.13
691.17	380.99
691.51	378.84
691.84	376.82
692.18	374.92
692.52	373.07
692.85	371.07
693.19	369.16
693.52	367.32
693.86	365.37
694.20	363.50
694.53	361.59
694.87	359.63
695.21	357.78
695.54	355.86
695.88	353.97
696.21	352.20
696.55	350.57
696.88	348.78
697.22	347.01
697.56	345.43
697.89	343.75
698.23	342.10
698.56	340.40
698.90	338.94
699.23	337.20
699.57	335.58
699.90	334.06
700.24	332.44
700.58	330.83
700.91	329.30
701.25	327.89
701.58	326.50
701.92	325.03
702.25	323.63
702.59	322.30
702.92	320.93
703.26	319.49
703.59	318.19
703.93	317.08
704.26	315.89
704.60	314.59
704.93	313.39
705.26	312.15
705.60	310.99
705.93	309.70
706.27	308.62
706.60	307.49
706.94	306.46
707.27	305.31
707.61	304.17
707.94	303.07
708.27	301.74
708.61	300.55
708.94	299.47
709.28	298.28
709.61	297.18
709.94	296.06
710.28	295.00
710.61	293.97
710.95	292.70
711.28	291.76
711.61	290.72
711.95	289.72
712.28	288.60
712.61	287.58
712.95	286.60
713.28	285.60
713.61	284.70
713.95	283.74
714.28	282.86
714.61	281.88
714.95	280.90
715.28	280.03
715.61	279.07
715.95	278.13
716.28	277.24
716.61	276.36
716.95	275.46
717.28	274.69
717.61	273.87
717.94	273.10
718.28	272.22
718.61	271.54
718.94	270.76
719.27	270.05
719.61	269.39
719.94	268.76
720.27	268.00
720.60	267.24
720.94	266.49
721.27	265.75
721.60	265.17
721.93	264.53
722.27	263.92
722.60	263.36
722.93	262.77
723.26	262.30
723.59	261.69
723.93	261.19
724.26	260.64
724.59	260.01
724.92	259.45
725.25	258.96
725.59	258.29
725.92	257.87
726.25	257.32
726.58	256.81
726.91	256.16
727.24	255.61
727.57	255.14
727.91	254.52
728.24	254.06
728.57	253.54
728.90	253.16
729.23	252.60
729.56	252.24
729.89	251.72
730.22	251.19
730.55	250.79
730.89	250.34
731.22	249.82
731.55	249.34
731.88	248.90
732.21	248.47
732.54	248.03
732.87	247.59
733.20	247.24
733.53	246.76
733.86	246.41
734.19	246.08
734.52	245.69
734.85	245.50
735.18	245.08
735.51	244.77
735.84	244.38
736.17	244.11
736.50	243.67
736.83	243.60
737.16	243.23
737.49	242.90
737.82	242.51
738.15	242.20
738.48	241.96
738.81	241.61
739.14	241.15
739.47	240.82
739.80	240.43
740.13	240.10
740.46	239.72
740.79	239.38
741.12	239.04
741.45	238.70
741.78	238.36
742.11	238.10
742.44	237.75
742.77	237.47
743.10	237.13
743.43	236.80
743.75	236.35
744.08	236.26
744.41	235.87
744.74	235.62
745.07	235.29
745.40	234.98
745.73	234.78
746.06	234.52
746.39	234.23
746.71	233.87
747.04	233.59
747.37	233.38
747.70	233.16
748.03	232.90
748.36	232.64
748.68	232.30
749.01	231.99
749.34	231.67
749.67	231.40
750.00	231.21
750.33	231.06
750.65	230.78
750.98	230.32
751.31	230.12
751.64	229.92
751.97	229.77
752.29	229.51
752.62	229.14
752.95	228.91
753.28	228.70
753.60	228.54
753.93	228.37
754.26	228.13
754.59	227.86
754.91	227.63
755.24	227.37
755.57	227.25
755.90	227.05
756.22	226.94
756.55	226.65
756.88	226.45
757.20	226.18
757.53	225.96
757.86	225.79
758.19	225.63
758.51	225.40
758.84	225.15
759.17	224.95
759.49	224.84
759.82	224.76
760.15	224.60
760.47	224.37
760.80	224.13
761.13	224.04
761.45	223.90
761.78	223.71
762.11	223.61
762.43	223.33
762.76	223.15
763.08	223.01
763.41	222.91
763.74	222.73
764.06	222.55
764.39	222.29
764.71	222.19
765.04	222.04
765.37	221.83
765.69	221.66
766.02	221.57
766.34	221.45
766.67	221.33
767.00	221.23
767.32	221.29
767.65	221.33
767.97	221.14
768.30	220.97
768.62	220.91
768.95	220.72
769.27	220.65
769.60	220.58
769.92	220.37
770.25	220.24
770.57	220.16
770.90	220.06
771.22	220.05
771.55	219.99
771.87	219.90
772.20	219.84
772.52	219.89
772.85	219.99
773.17	219.88
773.50	219.72
773.82	219.56
774.15	219.35
774.47	219.12
774.80	218.98
775.12	218.94
775.45	218.82
775.77	218.79
776.09	218.76
776.42	218.66
776.74	218.70
777.07	218.66
777.39	218.55
777.72	218.45
778.04	218.40
778.36	218.22
778.69	218.09
779.01	218.03
779.33	217.85
779.66	217.55
779.98	217.43
780.31	217.33
780.63	217.35
780.95	217.26
781.28	217.12
781.60	217.12
781.92	217.00
782.25	216.98
782.57	216.91
782.89	216.80
783.22	216.73
783.54	216.55
783.86	216.56
784.19	216.47
784.51	216.46
784.83	216.39
785.16	216.35
785.48	216.30
785.80	216.29
786.12	216.27
786.45	216.23
