SpectraSuite Data File
++++++++++++++++++++++++++++++++++++
Date: Mon Feb 25 17:31:55 EST 2013
User: group
Dark Spectrum Present: No
Reference Spectrum Present: No
Number of Sampled Component Spectra: 1
Spectrometers: USB2E7196
Integration Time (usec): 52000 (USB2E7196)
Spectra Averaged: 20 (USB2E7196)
Boxcar Smoothing: 10 (USB2E7196)
Correct for Electrical Dark: No (USB2E7196)
Strobe/Lamp Enabled: No (USB2E7196)
Correct for Detector Non-linearity: No (USB2E7196)
Correct for Stray Light: No (USB2E7196)
Number of Pixels in Processed Spectrum: 2048
>>>>>Begin Processed Spectral Data<<<<<
339.09	0.00
339.48	198.80
339.86	200.30
340.24	201.45
340.63	203.25
341.01	206.70
341.39	205.35
341.78	208.20
342.16	208.80
342.54	207.95
342.93	198.31
343.31	208.37
343.69	208.94
344.07	209.40
344.46	209.80
344.84	210.19
345.22	210.35
345.60	210.59
345.99	210.75
346.37	210.89
346.75	211.00
347.13	211.04
347.52	211.06
347.90	211.14
348.28	211.17
348.66	211.16
349.05	211.08
349.43	211.04
349.81	211.04
350.19	211.01
350.57	211.03
350.96	211.11
351.34	211.15
351.72	211.23
352.10	211.30
352.48	211.37
352.87	211.43
353.25	211.48
353.63	211.55
354.01	211.62
354.39	211.67
354.77	211.82
355.15	212.00
355.54	212.09
355.92	212.09
356.30	212.14
356.68	212.30
357.06	212.42
357.44	212.52
357.82	212.59
358.20	212.73
358.58	212.84
358.97	212.92
359.35	213.01
359.73	213.11
360.11	213.25
360.49	213.36
360.87	213.39
361.25	213.54
361.63	213.72
362.01	213.77
362.39	213.85
362.77	213.99
363.15	214.03
363.53	214.12
363.91	214.13
364.29	214.16
364.67	214.09
365.05	214.12
365.43	214.20
365.81	214.34
366.19	214.42
366.57	214.48
366.95	214.50
367.33	214.51
367.71	214.55
368.09	214.58
368.47	214.59
368.85	214.64
369.23	214.66
369.61	214.59
369.99	214.62
370.37	214.62
370.75	214.58
371.13	214.52
371.51	214.44
371.89	214.48
372.27	214.51
372.65	214.53
373.03	214.54
373.41	214.45
373.78	214.39
374.16	214.31
374.54	214.23
374.92	214.11
375.30	214.06
375.68	213.94
376.06	213.90
376.44	213.84
376.82	213.78
377.19	213.73
377.57	213.73
377.95	213.60
378.33	213.54
378.71	213.43
379.09	213.43
379.47	213.40
379.84	213.35
380.22	213.29
380.60	213.25
380.98	213.18
381.36	213.22
381.73	213.10
382.11	213.04
382.49	213.04
382.87	213.03
383.25	213.00
383.62	213.17
384.00	213.05
384.38	213.00
384.76	212.93
385.13	212.97
385.51	212.85
385.89	212.77
386.27	212.73
386.64	212.71
387.02	212.58
387.40	212.54
387.78	212.40
388.15	212.35
388.53	212.26
388.91	212.29
389.29	212.17
389.66	212.21
390.04	212.20
390.42	212.18
390.79	212.14
391.17	212.07
391.55	211.83
391.92	211.88
392.30	211.89
392.68	211.88
393.05	211.83
393.43	211.87
393.81	211.86
394.18	211.83
394.56	211.75
394.94	211.81
395.31	211.82
395.69	211.87
396.06	211.88
396.44	211.84
396.82	211.72
397.19	211.81
397.57	211.75
397.95	211.76
398.32	211.77
398.70	211.84
399.07	211.94
399.45	211.95
399.82	211.89
400.20	211.94
400.58	211.97
400.95	211.97
401.33	212.01
401.70	212.20
402.08	212.20
402.45	212.29
402.83	212.37
403.20	212.47
403.58	212.50
403.95	212.60
404.33	212.75
404.71	212.91
405.08	213.06
405.46	213.15
405.83	213.23
406.21	213.34
406.58	213.47
406.96	213.59
407.33	213.76
407.70	213.97
408.08	214.21
408.45	214.48
408.83	214.69
409.20	214.91
409.58	215.13
409.95	215.52
410.33	215.81
410.70	216.12
411.08	216.41
411.45	216.82
411.82	217.19
412.20	217.61
412.57	218.14
412.95	218.47
413.32	219.01
413.69	219.59
414.07	220.14
414.44	220.68
414.82	221.30
415.19	222.05
415.56	222.77
415.94	223.49
416.31	224.38
416.68	225.24
417.06	226.28
417.43	227.27
417.81	228.29
418.18	229.43
418.55	230.56
418.93	231.83
419.30	233.17
419.67	234.60
420.04	236.07
420.42	237.47
420.79	239.24
421.16	240.98
421.54	242.81
421.91	244.69
422.28	246.70
422.66	248.70
423.03	250.77
423.40	252.85
423.77	255.08
424.15	257.21
424.52	259.49
424.89	261.95
425.26	264.41
425.64	266.75
426.01	269.29
426.38	272.05
426.75	274.74
427.13	277.47
427.50	280.29
427.87	283.26
428.24	286.29
428.61	289.19
428.99	292.32
429.36	295.71
429.73	299.16
430.10	302.53
430.47	306.08
430.85	309.65
431.22	313.55
431.59	317.75
431.96	321.74
432.33	326.17
432.70	330.39
433.08	335.14
433.45	339.69
433.82	344.32
434.19	349.37
434.56	354.28
434.93	359.02
435.30	363.78
435.68	369.03
436.05	374.21
436.42	379.26
436.79	384.06
437.16	389.24
437.53	394.44
437.90	399.62
438.27	404.94
438.64	410.33
439.01	415.23
439.38	419.49
439.75	423.66
440.13	428.37
440.50	432.80
440.87	436.55
441.24	440.41
441.61	444.58
441.98	447.68
442.35	451.31
442.72	454.81
443.09	458.29
443.46	460.23
443.83	461.66
444.20	462.81
444.57	464.52
444.94	465.11
445.31	465.94
445.68	466.73
446.05	466.74
446.42	465.97
446.79	465.26
447.16	464.37
447.53	463.62
447.90	461.54
448.27	459.40
448.64	456.50
449.01	454.43
449.37	450.74
449.74	447.15
450.11	443.04
450.48	438.67
450.85	434.06
451.22	430.24
451.59	426.56
451.96	423.11
452.33	418.35
452.70	414.02
453.07	408.96
453.43	403.77
453.80	398.83
454.17	394.09
454.54	389.50
454.91	384.71
455.28	380.05
455.65	375.69
456.02	371.40
456.38	367.75
456.75	363.04
457.12	359.26
457.49	355.46
457.86	351.76
458.23	348.65
458.59	345.23
458.96	341.76
459.33	338.62
459.70	335.44
460.07	332.91
460.43	330.09
460.80	327.36
461.17	324.98
461.54	322.55
461.91	320.27
462.27	317.92
462.64	315.93
463.01	313.81
463.38	311.73
463.74	309.57
464.11	307.62
464.48	306.10
464.85	304.28
465.21	303.01
465.58	301.62
465.95	299.86
466.32	298.52
466.68	297.17
467.05	295.76
467.42	294.45
467.78	293.07
468.15	291.70
468.52	290.71
468.88	289.47
469.25	288.36
469.62	287.43
469.98	286.45
470.35	285.47
470.72	284.64
471.08	283.65
471.45	282.88
471.82	282.19
472.18	281.28
472.55	280.82
472.92	280.10
473.28	279.46
473.65	278.96
474.02	278.35
474.38	277.87
474.75	277.50
475.11	277.10
475.48	276.82
475.85	276.65
476.21	276.49
476.58	276.41
476.94	276.30
477.31	276.25
477.67	276.17
478.04	276.30
478.41	276.46
478.77	276.81
479.14	276.96
479.50	277.16
479.87	277.58
480.23	277.89
480.60	278.21
480.96	278.69
481.33	279.29
481.69	279.90
482.06	280.52
482.42	281.14
482.79	281.94
483.15	282.79
483.52	283.80
483.88	284.68
484.25	285.64
484.61	286.75
484.98	287.86
485.34	289.19
485.71	290.47
486.07	291.78
486.44	293.07
486.80	294.61
487.17	296.25
487.53	297.93
487.90	299.74
488.26	301.71
488.62	303.76
488.99	305.79
489.35	307.90
489.72	310.23
490.08	312.58
490.44	314.92
490.81	317.56
491.17	320.13
491.54	322.95
491.90	325.97
492.26	329.06
492.63	332.24
492.99	335.77
493.36	339.47
493.72	343.44
494.08	347.47
494.45	351.73
494.81	356.11
495.17	360.73
495.54	365.52
495.90	370.47
496.26	375.58
496.63	381.07
496.99	386.86
497.35	392.80
497.72	399.12
498.08	405.73
498.44	412.40
498.80	419.58
499.17	427.19
499.53	434.61
499.89	442.58
500.26	450.91
500.62	459.25
500.98	468.11
501.34	477.01
501.71	486.44
502.07	496.06
502.43	506.11
502.79	516.41
503.16	527.08
503.52	537.97
503.88	549.25
504.24	560.75
504.60	572.64
504.97	584.87
505.33	597.36
505.69	610.54
506.05	623.91
506.41	637.52
506.78	651.07
507.14	665.39
507.50	679.90
507.86	694.84
508.22	710.15
508.59	725.51
508.95	741.40
509.31	757.58
509.67	774.17
510.03	791.08
510.39	808.34
510.75	825.94
511.12	843.95
511.48	861.97
511.84	880.54
512.20	899.10
512.56	918.29
512.92	937.69
513.28	957.17
513.64	976.86
514.00	996.65
514.37	1017.13
514.73	1037.85
515.09	1058.54
515.45	1079.21
515.81	1100.06
516.17	1121.31
516.53	1142.42
516.89	1163.98
517.25	1185.44
517.61	1207.09
517.97	1228.56
518.33	1250.30
518.69	1272.01
519.05	1294.11
519.41	1316.05
519.77	1338.55
520.13	1360.53
520.49	1382.56
520.85	1404.96
521.21	1427.35
521.57	1450.24
521.93	1471.86
522.29	1494.38
522.65	1516.89
523.01	1539.33
523.37	1561.28
523.73	1583.45
524.09	1605.82
524.45	1627.81
524.81	1650.14
525.17	1672.03
525.53	1694.21
525.89	1716.21
526.25	1738.09
526.61	1759.20
526.97	1780.78
527.33	1801.65
527.68	1822.85
528.04	1843.86
528.40	1864.16
528.76	1884.82
529.12	1905.05
529.48	1926.67
529.84	1947.13
530.20	1967.17
530.56	1987.36
530.91	2008.41
531.27	2028.78
531.63	2048.73
531.99	2068.59
532.35	2087.25
532.71	2106.34
533.07	2125.79
533.42	2144.24
533.78	2162.80
534.14	2181.34
534.50	2198.35
534.86	2216.30
535.21	2232.99
535.57	2250.51
535.93	2267.45
536.29	2283.75
536.65	2300.27
537.00	2315.45
537.36	2330.27
537.72	2345.57
538.08	2360.72
538.44	2375.77
538.79	2390.78
539.15	2405.36
539.51	2419.84
539.87	2434.97
540.22	2448.86
540.58	2463.39
540.94	2477.58
541.29	2490.36
541.65	2502.21
542.01	2515.33
542.37	2527.35
542.72	2539.57
543.08	2550.26
543.44	2562.28
543.79	2572.95
544.15	2583.02
544.51	2593.85
544.87	2604.71
545.22	2613.75
545.58	2622.08
545.94	2628.63
546.29	2634.78
546.65	2640.95
547.01	2646.61
547.36	2652.23
547.72	2657.90
548.07	2661.63
548.43	2665.07
548.79	2668.79
549.14	2673.52
549.50	2677.29
549.86	2680.95
550.21	2684.67
550.57	2688.95
550.92	2691.21
551.28	2693.19
551.64	2695.65
551.99	2698.03
552.35	2699.40
552.70	2701.65
553.06	2704.32
553.41	2707.61
553.77	2710.69
554.13	2712.64
554.48	2714.84
554.84	2716.06
555.19	2716.57
555.55	2717.00
555.90	2717.84
556.26	2718.56
556.61	2718.53
556.97	2717.30
557.32	2716.89
557.68	2715.44
558.03	2713.87
558.39	2712.14
558.74	2711.72
559.10	2710.60
559.45	2708.29
559.81	2706.75
560.16	2704.19
560.52	2701.78
560.87	2698.86
561.23	2694.85
561.58	2692.57
561.94	2689.06
562.29	2685.47
562.64	2683.27
563.00	2681.14
563.35	2678.86
563.71	2676.73
564.06	2674.48
564.42	2672.90
564.77	2670.48
565.12	2668.50
565.48	2665.03
565.83	2662.11
566.19	2658.87
566.54	2654.26
566.89	2650.88
567.25	2647.58
567.60	2644.29
567.96	2640.31
568.31	2636.65
568.66	2632.65
569.02	2627.89
569.37	2622.91
569.72	2619.10
570.08	2613.78
570.43	2607.99
570.78	2602.00
571.14	2595.93
571.49	2589.39
571.84	2583.33
572.20	2576.30
572.55	2569.29
572.90	2562.89
573.26	2555.93
573.61	2549.10
573.96	2542.95
574.31	2535.02
574.67	2526.79
575.02	2518.34
575.37	2509.77
575.72	2500.66
576.08	2493.48
576.43	2484.92
576.78	2477.09
577.13	2469.27
577.49	2461.29
577.84	2453.52
578.19	2445.97
578.54	2438.63
578.90	2431.74
579.25	2423.17
579.60	2414.43
579.95	2405.61
580.30	2397.40
580.66	2389.60
581.01	2380.17
581.36	2370.71
581.71	2362.58
582.06	2354.20
582.42	2346.22
582.77	2337.31
583.12	2328.56
583.47	2319.65
583.82	2311.52
584.17	2302.55
584.53	2293.41
584.88	2284.68
585.23	2275.68
585.58	2266.09
585.93	2256.42
586.28	2247.14
586.63	2238.26
586.98	2229.94
587.34	2221.88
587.69	2212.74
588.04	2203.53
588.39	2195.94
588.74	2187.18
589.09	2178.44
589.44	2169.19
589.79	2160.80
590.14	2153.03
590.49	2144.85
590.84	2135.97
591.19	2128.02
591.54	2119.26
591.89	2108.99
592.25	2099.70
592.60	2090.32
592.95	2081.19
593.30	2071.53
593.65	2062.03
594.00	2052.64
594.35	2044.31
594.70	2035.01
595.05	2026.52
595.40	2017.84
595.75	2007.80
596.10	1999.99
596.45	1991.61
596.80	1983.96
597.15	1975.51
597.50	1966.58
597.85	1958.28
598.19	1949.85
598.54	1940.92
598.89	1933.08
599.24	1926.69
599.59	1919.60
599.94	1912.73
600.29	1905.30
600.64	1897.89
600.99	1889.44
601.34	1882.32
601.69	1873.65
602.04	1865.71
602.39	1857.62
602.74	1849.80
603.08	1843.44
603.43	1836.00
603.78	1827.88
604.13	1819.64
604.48	1811.59
604.83	1804.74
605.18	1797.52
605.53	1789.94
605.87	1782.71
606.22	1775.94
606.57	1768.03
606.92	1759.69
607.27	1751.72
607.62	1744.18
607.96	1737.28
608.31	1731.13
608.66	1723.40
609.01	1715.87
609.36	1708.41
609.70	1700.49
610.05	1692.94
610.40	1684.84
610.75	1676.25
611.10	1669.05
611.44	1660.10
611.79	1651.10
612.14	1642.02
612.49	1632.66
612.83	1624.22
613.18	1614.70
613.53	1605.11
613.88	1595.56
614.22	1586.96
614.57	1577.47
614.92	1568.44
615.27	1559.14
615.61	1549.35
615.96	1540.34
616.31	1531.84
616.65	1523.75
617.00	1515.45
617.35	1506.87
617.70	1497.98
618.04	1489.35
618.39	1479.92
618.74	1471.66
619.08	1463.51
619.43	1455.13
619.78	1447.11
620.12	1439.00
620.47	1431.49
620.82	1423.19
621.16	1414.80
621.51	1406.27
621.85	1398.31
622.20	1389.83
622.55	1381.49
622.89	1373.31
623.24	1365.51
623.59	1357.13
623.93	1348.46
624.28	1340.41
624.62	1332.31
624.97	1324.13
625.32	1316.17
625.66	1308.75
626.01	1301.62
626.35	1294.30
626.70	1286.93
627.04	1279.76
627.39	1272.05
627.73	1264.23
628.08	1257.38
628.43	1250.30
628.77	1243.05
629.12	1235.56
629.46	1228.98
629.81	1221.62
630.15	1214.40
630.50	1207.10
630.84	1199.70
631.19	1192.63
631.53	1185.80
631.88	1178.07
632.22	1170.76
632.57	1163.90
632.91	1156.45
633.26	1148.96
633.60	1141.88
633.95	1134.83
634.29	1127.58
634.64	1120.80
634.98	1113.84
635.32	1106.87
635.67	1100.49
636.01	1094.00
636.36	1087.40
636.70	1080.68
637.05	1074.29
637.39	1067.96
637.73	1061.80
638.08	1056.33
638.42	1050.44
638.77	1044.03
639.11	1037.94
639.45	1032.05
639.80	1025.67
640.14	1019.44
640.49	1013.22
640.83	1007.03
641.17	1000.82
641.52	994.87
641.86	988.58
642.20	982.47
642.55	975.59
642.89	969.19
643.23	962.85
643.58	956.91
643.92	950.47
644.26	944.23
644.61	938.25
644.95	931.96
645.29	925.42
645.64	918.89
645.98	912.68
646.32	906.85
646.66	900.62
647.01	894.68
647.35	888.87
647.69	882.79
648.04	876.87
648.38	870.76
648.72	864.61
649.06	858.61
649.41	852.46
649.75	846.92
650.09	840.86
650.43	834.91
650.78	828.90
651.12	822.89
651.46	817.15
651.80	811.36
652.14	805.52
652.49	799.84
652.83	794.03
653.17	788.05
653.51	782.19
653.85	776.64
654.20	770.75
654.54	764.96
654.88	759.42
655.22	753.63
655.56	747.85
655.90	742.11
656.25	736.32
656.59	730.96
656.93	725.74
657.27	720.81
657.61	715.63
657.95	710.31
658.29	705.31
658.64	700.31
658.98	695.00
659.32	689.70
659.66	684.53
660.00	679.39
660.34	674.29
660.68	668.99
661.02	663.90
661.36	659.40
661.70	654.49
662.05	649.86
662.39	645.57
662.73	641.39
663.07	637.11
663.41	633.02
663.75	628.64
664.09	624.13
664.43	619.46
664.77	614.88
665.11	610.50
665.45	606.23
665.79	601.73
666.13	597.41
666.47	593.27
666.81	589.12
667.15	585.14
667.49	581.32
667.83	577.68
668.17	573.81
668.51	569.92
668.85	566.35
669.19	562.67
669.53	558.64
669.87	554.66
670.21	550.90
670.55	546.95
670.89	543.53
671.23	540.15
671.57	536.70
671.91	533.24
672.25	529.77
672.58	526.22
672.92	522.90
673.26	519.66
673.60	516.55
673.94	513.22
674.28	509.98
674.62	506.85
674.96	503.62
675.30	500.56
675.64	497.36
675.97	494.20
676.31	491.19
676.65	488.42
676.99	485.50
677.33	482.53
677.67	479.60
678.01	476.40
678.34	473.32
678.68	470.40
679.02	467.49
679.36	464.79
679.70	462.02
680.04	459.20
680.37	456.38
680.71	453.59
681.05	450.89
681.39	448.29
681.73	445.58
682.06	443.17
682.40	440.67
682.74	438.01
683.08	435.45
683.42	432.84
683.75	430.24
684.09	427.81
684.43	425.36
684.77	422.90
685.10	420.53
685.44	417.99
685.78	415.52
686.12	413.29
686.45	410.84
686.79	408.56
687.13	406.42
687.46	404.24
687.80	402.02
688.14	399.83
688.48	397.64
688.81	395.27
689.15	392.97
689.49	390.68
689.82	388.57
690.16	386.25
690.50	384.08
690.83	381.83
691.17	379.50
691.51	377.17
691.84	375.03
692.18	372.92
692.52	371.05
692.85	369.19
693.19	367.31
693.52	365.44
693.86	363.55
694.20	361.67
694.53	359.80
694.87	357.90
695.21	355.98
695.54	353.99
695.88	352.24
696.21	350.36
696.55	348.61
696.88	346.93
697.22	345.17
697.56	343.56
697.89	341.88
698.23	340.39
698.56	338.96
698.90	337.57
699.23	336.03
699.57	334.51
699.90	332.88
700.24	331.24
700.58	329.71
700.91	328.13
701.25	326.64
701.58	325.20
701.92	323.77
702.25	322.37
702.59	321.06
702.92	319.76
703.26	318.50
703.59	317.25
703.93	316.09
704.26	314.96
704.60	313.62
704.93	312.38
705.26	311.08
705.60	309.87
705.93	308.51
706.27	307.40
706.60	306.23
706.94	305.21
707.27	304.11
707.61	303.03
707.94	302.02
708.27	300.86
708.61	299.79
708.94	298.71
709.28	297.62
709.61	296.45
709.94	295.39
710.28	294.31
710.61	293.35
710.95	292.10
711.28	291.14
711.61	290.15
711.95	289.19
712.28	288.28
712.61	287.33
712.95	286.53
713.28	285.60
713.61	284.65
713.95	283.65
714.28	282.72
714.61	281.75
714.95	280.77
715.28	279.91
715.61	278.95
715.95	278.06
716.28	277.25
716.61	276.48
716.95	275.62
717.28	274.78
717.61	273.85
717.94	273.10
718.28	272.22
718.61	271.50
718.94	270.76
719.27	270.08
719.61	269.36
719.94	268.55
720.27	267.80
720.60	267.10
720.94	266.48
721.27	265.86
721.60	265.27
721.93	264.66
722.27	264.03
722.60	263.47
722.93	262.88
723.26	262.37
723.59	261.75
723.93	261.18
724.26	260.60
724.59	260.12
724.92	259.65
725.25	259.19
725.59	258.60
725.92	258.13
726.25	257.47
726.58	256.92
726.91	256.38
727.24	255.93
727.57	255.39
727.91	254.78
728.24	254.27
728.57	253.78
728.90	253.35
729.23	252.84
729.56	252.42
729.89	251.92
730.22	251.32
730.55	250.87
730.89	250.45
731.22	250.08
731.55	249.61
731.88	249.15
732.21	248.67
732.54	248.18
732.87	247.66
733.20	247.29
733.53	246.86
733.86	246.49
734.19	245.96
734.52	245.63
734.85	245.49
735.18	245.07
735.51	244.62
735.84	244.24
736.17	243.80
736.50	243.31
736.83	243.10
737.16	242.75
737.49	242.38
737.82	242.03
738.15	241.58
738.48	241.17
738.81	240.75
739.14	240.40
739.47	240.01
739.80	239.67
740.13	239.29
740.46	238.91
740.79	238.55
741.12	238.25
741.45	237.87
741.78	237.35
742.11	237.09
742.44	236.81
742.77	236.51
743.10	236.27
743.43	236.00
743.75	235.52
744.08	235.44
744.41	235.15
744.74	234.82
745.07	234.58
745.40	234.35
745.73	234.17
746.06	233.90
746.39	233.75
746.71	233.50
747.04	233.24
747.37	233.01
747.70	232.82
748.03	232.60
748.36	232.31
748.68	232.03
749.01	231.78
749.34	231.53
749.67	231.30
750.00	231.09
750.33	230.95
750.65	230.75
750.98	230.32
751.31	230.05
751.64	229.83
751.97	229.69
752.29	229.42
752.62	229.11
752.95	228.88
753.28	228.65
753.60	228.55
753.93	228.41
754.26	228.21
754.59	227.96
754.91	227.69
755.24	227.49
755.57	227.34
755.90	227.09
756.22	226.91
756.55	226.71
756.88	226.43
757.20	226.21
757.53	225.99
757.86	225.82
758.19	225.69
758.51	225.54
758.84	225.23
759.17	225.05
759.49	224.87
759.82	224.78
760.15	224.60
760.47	224.25
760.80	224.04
761.13	223.92
761.45	223.71
761.78	223.69
762.11	223.59
762.43	223.43
762.76	223.30
763.08	223.13
763.41	222.99
763.74	222.95
764.06	222.74
764.39	222.59
764.71	222.39
765.04	222.27
765.37	222.06
765.69	221.94
766.02	221.81
766.34	221.66
766.67	221.42
767.00	221.35
767.32	221.46
767.65	221.39
767.97	221.25
768.30	221.15
768.62	220.96
768.95	220.75
769.27	220.58
769.60	220.43
769.92	220.25
770.25	220.14
770.57	219.94
770.90	219.80
771.22	219.71
771.55	219.62
771.87	219.46
772.20	219.40
772.52	219.43
772.85	219.47
773.17	219.40
773.50	219.34
773.82	219.20
774.15	218.94
774.47	218.74
774.80	218.61
775.12	218.56
775.45	218.45
775.77	218.41
776.09	218.33
776.42	218.27
776.74	218.32
777.07	218.24
777.39	218.20
777.72	218.15
778.04	218.03
778.36	217.94
778.69	217.86
779.01	217.81
779.33	217.63
779.66	217.41
779.98	217.33
780.31	217.23
780.63	217.21
780.95	217.15
781.28	217.09
781.60	217.02
781.92	216.91
782.25	216.83
782.57	216.90
782.89	216.81
783.22	216.78
783.54	216.65
783.86	216.57
784.19	216.47
784.51	216.45
784.83	216.40
785.16	216.31
785.48	216.28
785.80	216.25
786.12	216.21
786.45	216.20
