SpectraSuite Data File
++++++++++++++++++++++++++++++++++++
Date: Mon Feb 25 17:32:30 EST 2013
User: group
Dark Spectrum Present: No
Reference Spectrum Present: No
Number of Sampled Component Spectra: 1
Spectrometers: USB2E7196
Integration Time (usec): 52000 (USB2E7196)
Spectra Averaged: 20 (USB2E7196)
Boxcar Smoothing: 10 (USB2E7196)
Correct for Electrical Dark: No (USB2E7196)
Strobe/Lamp Enabled: No (USB2E7196)
Correct for Detector Non-linearity: No (USB2E7196)
Correct for Stray Light: No (USB2E7196)
Number of Pixels in Processed Spectrum: 2048
>>>>>Begin Processed Spectral Data<<<<<
339.09	0.00
339.48	199.00
339.86	200.80
340.24	201.65
340.63	200.95
341.01	207.30
341.39	204.70
341.78	207.40
342.16	207.70
342.54	208.95
342.93	197.84
343.31	207.89
343.69	208.42
344.07	208.83
344.46	209.25
344.84	209.70
345.22	209.86
345.60	210.22
345.99	210.44
346.37	210.58
346.75	210.71
347.13	210.84
347.52	210.93
347.90	211.03
348.28	211.03
348.66	211.16
349.05	211.18
349.43	211.20
349.81	211.15
350.19	211.22
350.57	211.27
350.96	211.38
351.34	211.40
351.72	211.49
352.10	211.59
352.48	211.68
352.87	211.78
353.25	211.82
353.63	211.82
354.01	211.85
354.39	211.97
354.77	212.07
355.15	212.10
355.54	212.19
355.92	212.21
356.30	212.34
356.68	212.47
357.06	212.58
357.44	212.72
357.82	212.85
358.20	212.91
358.58	213.02
358.97	213.09
359.35	213.28
359.73	213.36
360.11	213.51
360.49	213.67
360.87	213.77
361.25	213.93
361.63	214.09
362.01	214.19
362.39	214.23
362.77	214.27
363.15	214.36
363.53	214.37
363.91	214.45
364.29	214.50
364.67	214.34
365.05	214.41
365.43	214.39
365.81	214.48
366.19	214.64
366.57	214.70
366.95	214.73
367.33	214.68
367.71	214.75
368.09	214.73
368.47	214.63
368.85	214.56
369.23	214.50
369.61	214.43
369.99	214.45
370.37	214.47
370.75	214.50
371.13	214.44
371.51	214.41
371.89	214.39
372.27	214.38
372.65	214.36
373.03	214.29
373.41	214.21
373.78	214.10
374.16	213.90
374.54	213.82
374.92	213.79
375.30	213.72
375.68	213.62
376.06	213.59
376.44	213.58
376.82	213.58
377.19	213.54
377.57	213.48
377.95	213.28
378.33	213.14
378.71	212.95
379.09	212.94
379.47	212.88
379.84	212.74
380.22	212.66
380.60	212.63
380.98	212.54
381.36	212.52
381.73	212.45
382.11	212.44
382.49	212.36
382.87	212.35
383.25	212.32
383.62	212.41
384.00	212.35
384.38	212.27
384.76	212.25
385.13	212.26
385.51	212.25
385.89	212.28
386.27	212.31
386.64	212.33
387.02	212.26
387.40	212.32
387.78	212.38
388.15	212.31
388.53	212.31
388.91	212.34
389.29	212.32
389.66	212.34
390.04	212.34
390.42	212.38
390.79	212.29
391.17	212.21
391.55	212.06
391.92	212.05
392.30	212.07
392.68	212.00
393.05	211.98
393.43	211.89
393.81	211.90
394.18	211.81
394.56	211.86
394.94	211.89
395.31	211.77
395.69	211.78
396.06	211.89
396.44	211.87
396.82	211.85
397.19	211.92
397.57	211.97
397.95	212.03
398.32	211.97
398.70	212.02
399.07	212.11
399.45	212.07
399.82	212.03
400.20	212.04
400.58	212.11
400.95	212.09
401.33	212.23
401.70	212.40
402.08	212.55
402.45	212.52
402.83	212.62
403.20	212.76
403.58	212.82
403.95	212.85
404.33	212.91
404.71	213.02
405.08	213.22
405.46	213.28
405.83	213.41
406.21	213.57
406.58	213.71
406.96	213.90
407.33	214.10
407.70	214.41
408.08	214.76
408.45	214.98
408.83	215.28
409.20	215.45
409.58	215.57
409.95	215.82
410.33	216.15
410.70	216.38
411.08	216.67
411.45	217.07
411.82	217.48
412.20	218.02
412.57	218.55
412.95	218.84
413.32	219.27
413.69	219.81
414.07	220.36
414.44	220.97
414.82	221.59
415.19	222.32
415.56	222.98
415.94	223.68
416.31	224.56
416.68	225.48
417.06	226.48
417.43	227.46
417.81	228.56
418.18	229.67
418.55	230.87
418.93	232.23
419.30	233.55
419.67	234.85
420.04	236.24
420.42	237.71
420.79	239.44
421.16	241.29
421.54	243.08
421.91	244.94
422.28	246.90
422.66	248.90
423.03	250.99
423.40	252.96
423.77	255.19
424.15	257.33
424.52	259.58
424.89	262.03
425.26	264.54
425.64	266.79
426.01	269.41
426.38	272.05
426.75	274.72
427.13	277.40
427.50	280.37
427.87	283.40
428.24	286.46
428.61	289.42
428.99	292.60
429.36	296.06
429.73	299.45
430.10	302.78
430.47	306.32
430.85	309.90
431.22	314.02
431.59	318.00
431.96	321.95
432.33	326.19
432.70	330.39
433.08	335.13
433.45	339.75
433.82	344.30
434.19	349.44
434.56	354.31
434.93	359.12
435.30	363.85
435.68	369.04
436.05	374.24
436.42	379.23
436.79	383.90
437.16	388.90
437.53	394.19
437.90	399.47
438.27	404.75
438.64	410.08
439.01	414.90
439.38	419.41
439.75	423.60
440.13	428.51
440.50	433.11
440.87	436.80
441.24	440.71
441.61	444.99
441.98	448.05
442.35	451.64
442.72	455.30
443.09	458.76
443.46	460.79
443.83	462.05
444.20	463.31
444.57	465.12
444.94	465.90
445.31	466.70
445.68	467.41
446.05	467.44
446.42	466.80
446.79	465.95
447.16	464.98
447.53	464.33
447.90	462.25
448.27	460.12
448.64	457.35
449.01	455.17
449.37	451.53
449.74	448.04
450.11	444.05
450.48	439.50
450.85	434.92
451.22	431.01
451.59	427.35
451.96	423.80
452.33	418.88
452.70	414.59
453.07	409.47
453.43	404.29
453.80	399.31
454.17	394.50
454.54	390.01
454.91	385.29
455.28	380.66
455.65	376.22
456.02	371.92
456.38	368.14
456.75	363.60
457.12	359.66
457.49	355.84
457.86	352.13
458.23	348.90
458.59	345.40
458.96	341.88
459.33	338.70
459.70	335.61
460.07	333.13
460.43	330.24
460.80	327.59
461.17	325.25
461.54	322.85
461.91	320.56
462.27	318.26
462.64	316.21
463.01	313.98
463.38	312.00
463.74	309.74
464.11	307.92
464.48	306.29
464.85	304.59
465.21	303.24
465.58	301.74
465.95	300.17
466.32	298.84
466.68	297.50
467.05	296.09
467.42	294.81
467.78	293.48
468.15	292.13
468.52	291.19
468.88	289.90
469.25	288.75
469.62	287.83
469.98	286.81
470.35	285.92
470.72	285.04
471.08	284.00
471.45	283.24
471.82	282.39
472.18	281.46
472.55	280.89
472.92	280.24
473.28	279.59
473.65	278.95
474.02	278.39
474.38	278.01
474.75	277.70
475.11	277.18
475.48	276.80
475.85	276.69
476.21	276.43
476.58	276.29
476.94	276.23
477.31	276.17
477.67	276.04
478.04	276.05
478.41	276.26
478.77	276.60
479.14	276.78
479.50	277.12
479.87	277.48
480.23	277.90
480.60	278.27
480.96	278.76
481.33	279.46
481.69	280.06
482.06	280.61
482.42	281.28
482.79	281.96
483.15	282.96
483.52	283.95
483.88	284.93
484.25	285.91
484.61	286.93
484.98	287.96
485.34	289.28
485.71	290.68
486.07	292.04
486.44	293.30
486.80	294.89
487.17	296.47
487.53	298.26
487.90	300.04
488.26	302.03
488.62	304.15
488.99	306.15
489.35	308.37
489.72	310.59
490.08	312.97
490.44	315.45
490.81	317.99
491.17	320.63
491.54	323.44
491.90	326.52
492.26	329.84
492.63	333.24
492.99	336.73
493.36	340.33
493.72	344.23
494.08	348.32
494.45	352.59
494.81	357.08
495.17	361.62
495.54	366.52
495.90	371.49
496.26	376.55
496.63	382.08
496.99	387.70
497.35	393.70
497.72	399.94
498.08	406.40
498.44	413.06
498.80	420.21
499.17	427.68
499.53	435.30
499.89	443.20
500.26	451.42
500.62	459.81
500.98	468.57
501.34	477.58
501.71	486.93
502.07	496.59
502.43	506.44
502.79	516.70
503.16	527.20
503.52	538.08
503.88	549.35
504.24	560.72
504.60	572.80
504.97	585.30
505.33	597.85
505.69	611.12
506.05	624.67
506.41	638.17
506.78	652.01
507.14	666.01
507.50	680.37
507.86	695.33
508.22	710.88
508.59	726.64
508.95	742.59
509.31	758.82
509.67	775.25
510.03	792.26
510.39	809.78
510.75	827.56
511.12	845.57
511.48	863.94
511.84	882.67
512.20	901.11
512.56	920.12
512.92	939.60
513.28	959.15
513.64	979.10
514.00	998.80
514.37	1019.19
514.73	1040.15
515.09	1061.16
515.45	1081.87
515.81	1102.89
516.17	1124.12
516.53	1145.45
516.89	1166.74
517.25	1188.54
517.61	1210.30
517.97	1231.78
518.33	1253.20
518.69	1274.97
519.05	1296.91
519.41	1319.24
519.77	1341.93
520.13	1363.95
520.49	1385.92
520.85	1408.70
521.21	1430.82
521.57	1453.96
521.93	1475.84
522.29	1498.31
522.65	1520.76
523.01	1543.02
523.37	1564.68
523.73	1586.85
524.09	1608.92
524.45	1631.44
524.81	1653.67
525.17	1675.71
525.53	1698.06
525.89	1720.35
526.25	1742.40
526.61	1763.60
526.97	1784.95
527.33	1806.02
527.68	1827.41
528.04	1848.38
528.40	1868.32
528.76	1889.05
529.12	1909.68
529.48	1931.31
529.84	1951.99
530.20	1972.18
530.56	1992.81
530.91	2014.01
531.27	2034.24
531.63	2054.24
531.99	2074.09
532.35	2093.09
532.71	2112.29
533.07	2131.60
533.42	2149.91
533.78	2168.67
534.14	2187.27
534.50	2204.24
534.86	2222.30
535.21	2239.15
535.57	2257.10
535.93	2274.42
536.29	2291.07
536.65	2307.78
537.00	2323.20
537.36	2338.20
537.72	2353.52
538.08	2368.58
538.44	2383.63
538.79	2399.02
539.15	2413.90
539.51	2428.50
539.87	2444.05
540.22	2458.56
540.58	2473.08
540.94	2487.57
541.29	2500.36
541.65	2512.64
542.01	2526.10
542.37	2537.81
542.72	2550.08
543.08	2560.73
543.44	2572.42
543.79	2582.76
544.15	2592.59
544.51	2603.61
544.87	2614.57
545.22	2623.50
545.58	2631.96
545.94	2639.08
546.29	2645.10
546.65	2651.18
547.01	2657.11
547.36	2662.55
547.72	2667.93
548.07	2672.13
548.43	2675.87
548.79	2679.62
549.14	2683.97
549.50	2688.27
549.86	2692.15
550.21	2695.88
550.57	2700.25
550.92	2702.86
551.28	2705.78
551.64	2708.23
551.99	2710.47
552.35	2711.91
552.70	2714.60
553.06	2717.48
553.41	2720.55
553.77	2723.49
554.13	2725.82
554.48	2727.68
554.84	2729.05
555.19	2729.40
555.55	2729.79
555.90	2730.25
556.26	2730.90
556.61	2730.98
556.97	2729.44
557.32	2728.96
557.68	2727.55
558.03	2725.64
558.39	2724.00
558.74	2723.15
559.10	2722.12
559.45	2719.79
559.81	2718.71
560.16	2716.07
560.52	2713.22
560.87	2710.04
561.23	2706.47
561.58	2704.15
561.94	2701.03
562.29	2697.18
562.64	2694.79
563.00	2692.19
563.35	2690.21
563.71	2688.28
564.06	2686.08
564.42	2684.39
564.77	2682.11
565.12	2680.24
565.48	2677.28
565.83	2674.68
566.19	2671.49
566.54	2667.17
566.89	2663.75
567.25	2659.64
567.60	2656.57
567.96	2653.05
568.31	2649.32
568.66	2645.41
569.02	2640.68
569.37	2635.47
569.72	2631.82
570.08	2626.46
570.43	2620.95
570.78	2615.23
571.14	2608.74
571.49	2602.15
571.84	2596.21
572.20	2589.62
572.55	2582.84
572.90	2576.27
573.26	2569.11
573.61	2561.76
573.96	2555.53
574.31	2547.57
574.67	2539.72
575.02	2531.02
575.37	2522.38
575.72	2513.54
576.08	2506.18
576.43	2497.74
576.78	2489.90
577.13	2481.36
577.49	2473.49
577.84	2466.03
578.19	2458.42
578.54	2451.46
578.90	2444.63
579.25	2435.59
579.60	2426.11
579.95	2417.27
580.30	2408.97
580.66	2400.69
581.01	2392.00
581.36	2382.36
581.71	2373.94
582.06	2365.10
582.42	2356.96
582.77	2348.08
583.12	2339.46
583.47	2330.62
583.82	2322.20
584.17	2313.45
584.53	2304.43
584.88	2295.73
585.23	2286.10
585.58	2276.41
585.93	2266.45
586.28	2257.20
586.63	2248.96
586.98	2240.84
587.34	2232.29
587.69	2223.37
588.04	2214.63
588.39	2206.21
588.74	2197.60
589.09	2189.12
589.44	2179.91
589.79	2171.54
590.14	2164.01
590.49	2155.49
590.84	2146.58
591.19	2138.56
591.54	2129.46
591.89	2119.50
592.25	2110.31
592.60	2101.27
592.95	2092.00
593.30	2082.62
593.65	2072.37
594.00	2062.57
594.35	2054.48
594.70	2045.17
595.05	2036.31
595.40	2027.40
595.75	2017.81
596.10	2009.21
596.45	2000.62
596.80	1992.99
597.15	1984.80
597.50	1975.30
597.85	1967.04
598.19	1958.19
598.54	1949.37
598.89	1942.03
599.24	1935.63
599.59	1928.17
599.94	1920.99
600.29	1913.23
600.64	1905.70
600.99	1897.64
601.34	1890.22
601.69	1881.14
602.04	1873.27
602.39	1865.35
602.74	1857.57
603.08	1850.99
603.43	1843.96
603.78	1835.96
604.13	1827.80
604.48	1819.68
604.83	1812.84
605.18	1805.75
605.53	1798.28
605.87	1790.79
606.22	1783.38
606.57	1775.13
606.92	1767.18
607.27	1759.14
607.62	1751.99
607.96	1744.72
608.31	1738.70
608.66	1731.02
609.01	1723.82
609.36	1716.16
609.70	1708.18
610.05	1700.43
610.40	1692.33
610.75	1683.75
611.10	1676.04
611.44	1666.96
611.79	1657.90
612.14	1648.46
612.49	1638.57
612.83	1629.97
613.18	1620.24
613.53	1610.76
613.88	1601.32
614.22	1592.31
614.57	1583.40
614.92	1574.02
615.27	1564.91
615.61	1555.15
615.96	1546.52
616.31	1537.71
616.65	1529.53
617.00	1521.42
617.35	1512.75
617.70	1503.86
618.04	1494.99
618.39	1485.59
618.74	1477.35
619.08	1468.80
619.43	1460.88
619.78	1453.37
620.12	1445.25
620.47	1437.84
620.82	1429.48
621.16	1421.30
621.51	1412.99
621.85	1404.57
622.20	1396.12
622.55	1387.66
622.89	1379.35
623.24	1371.29
623.59	1362.89
623.93	1354.52
624.28	1346.17
624.62	1337.91
624.97	1329.61
625.32	1321.90
625.66	1314.73
626.01	1307.32
626.35	1300.10
626.70	1292.20
627.04	1284.68
627.39	1277.15
627.73	1269.53
628.08	1262.49
628.43	1255.19
628.77	1247.67
629.12	1240.27
629.46	1233.68
629.81	1226.60
630.15	1219.23
630.50	1211.75
630.84	1204.33
631.19	1197.13
631.53	1190.17
631.88	1182.62
632.22	1175.14
632.57	1168.07
632.91	1160.55
633.26	1153.21
633.60	1146.17
633.95	1139.46
634.29	1132.31
634.64	1125.42
634.98	1118.30
635.32	1111.36
635.67	1104.80
636.01	1098.44
636.36	1091.81
636.70	1085.01
637.05	1078.36
637.39	1072.17
637.73	1065.95
638.08	1060.19
638.42	1054.16
638.77	1047.72
639.11	1041.60
639.45	1035.52
639.80	1029.10
640.14	1022.75
640.49	1016.70
640.83	1010.37
641.17	1004.02
641.52	997.73
641.86	991.28
642.20	985.13
642.55	978.46
642.89	972.15
643.23	965.59
643.58	959.61
643.92	953.05
644.26	946.88
644.61	940.88
644.95	934.57
645.29	928.34
645.64	921.93
645.98	915.86
646.32	910.04
646.66	904.21
647.01	898.33
647.35	892.66
647.69	886.31
648.04	880.44
648.38	874.57
648.72	868.63
649.06	862.62
649.41	856.73
649.75	850.95
650.09	845.06
650.43	839.36
650.78	833.17
651.12	827.34
651.46	821.46
651.80	815.61
652.14	809.78
652.49	803.76
652.83	798.00
653.17	791.81
653.51	785.80
653.85	780.19
654.20	774.22
654.54	768.34
654.88	762.75
655.22	757.01
655.56	750.95
655.90	745.16
656.25	739.55
656.59	733.93
656.93	728.84
657.27	723.66
657.61	718.14
657.95	712.90
658.29	707.77
658.64	702.87
658.98	697.60
659.32	692.31
659.66	687.27
660.00	681.82
660.34	676.82
660.68	671.91
661.02	666.76
661.36	662.08
661.70	657.35
662.05	652.77
662.39	648.35
662.73	644.10
663.07	639.89
663.41	635.62
663.75	631.07
664.09	626.29
664.43	621.60
664.77	617.24
665.11	612.91
665.45	608.66
665.79	604.08
666.13	599.76
666.47	595.65
666.81	591.56
667.15	587.52
667.49	583.61
667.83	579.60
668.17	575.75
668.51	571.95
668.85	568.11
669.19	564.44
669.53	560.37
669.87	556.32
670.21	552.57
670.55	548.57
670.89	545.21
671.23	542.02
671.57	538.68
671.91	535.25
672.25	531.59
672.58	528.03
672.92	524.72
673.26	521.51
673.60	518.08
673.94	514.69
674.28	511.46
674.62	508.31
674.96	505.21
675.30	501.99
675.64	498.74
675.97	495.63
676.31	492.44
676.65	489.53
676.99	486.90
677.33	483.83
677.67	480.91
678.01	477.73
678.34	474.51
678.68	471.56
679.02	468.57
679.36	465.90
679.70	463.07
680.04	460.01
680.37	457.00
680.71	454.33
681.05	451.72
681.39	449.09
681.73	446.47
682.06	443.85
682.40	441.35
682.74	438.74
683.08	436.27
683.42	433.79
683.75	431.36
684.09	428.71
684.43	426.29
684.77	423.85
685.10	421.40
685.44	418.85
685.78	416.27
686.12	414.00
686.45	411.57
686.79	409.25
687.13	407.23
687.46	405.20
687.80	403.02
688.14	400.66
688.48	398.60
688.81	396.33
689.15	394.11
689.49	391.92
689.82	389.81
690.16	387.42
690.50	384.99
690.83	382.81
691.17	380.64
691.51	378.38
691.84	376.27
692.18	374.25
692.52	372.44
692.85	370.65
693.19	368.73
693.52	366.84
693.86	365.01
694.20	363.03
694.53	361.01
694.87	358.99
695.21	357.09
695.54	355.08
695.88	353.10
696.21	351.38
696.55	349.64
696.88	347.79
697.22	346.08
697.56	344.72
697.89	342.97
698.23	341.32
698.56	339.76
698.90	338.29
699.23	336.69
699.57	335.01
699.90	333.33
700.24	331.70
700.58	330.16
700.91	328.60
701.25	327.21
701.58	325.77
701.92	324.40
702.25	323.08
702.59	321.79
702.92	320.50
703.26	319.02
703.59	317.72
703.93	316.65
704.26	315.41
704.60	314.01
704.93	312.88
705.26	311.67
705.60	310.49
705.93	309.24
706.27	308.15
706.60	307.15
706.94	306.12
707.27	304.96
707.61	303.76
707.94	302.56
708.27	301.34
708.61	300.28
708.94	299.10
709.28	297.96
709.61	296.81
709.94	295.80
710.28	294.72
710.61	293.63
710.95	292.38
711.28	291.53
711.61	290.54
711.95	289.49
712.28	288.44
712.61	287.43
712.95	286.51
713.28	285.50
713.61	284.46
713.95	283.53
714.28	282.62
714.61	281.77
714.95	280.94
715.28	279.98
715.61	279.00
715.95	278.15
716.28	277.30
716.61	276.45
716.95	275.55
717.28	274.81
717.61	273.93
717.94	273.15
718.28	272.21
718.61	271.49
718.94	270.63
719.27	269.94
719.61	269.20
719.94	268.50
720.27	267.71
720.60	266.93
720.94	266.10
721.27	265.42
721.60	264.70
721.93	263.97
722.27	263.37
722.60	262.85
722.93	262.25
723.26	261.61
723.59	260.97
723.93	260.46
724.26	259.85
724.59	259.34
724.92	258.80
725.25	258.34
725.59	257.72
725.92	257.20
726.25	256.62
726.58	256.17
726.91	255.57
727.24	255.08
727.57	254.65
727.91	254.15
728.24	253.74
728.57	253.39
728.90	253.06
729.23	252.52
729.56	252.01
729.89	251.64
730.22	251.15
730.55	250.77
730.89	250.28
731.22	249.82
731.55	249.32
731.88	248.89
732.21	248.37
732.54	247.90
732.87	247.49
733.20	247.09
733.53	246.57
733.86	246.17
734.19	245.70
734.52	245.30
734.85	245.10
735.18	244.66
735.51	244.25
735.84	243.78
736.17	243.52
736.50	243.07
736.83	242.81
737.16	242.50
737.49	242.16
737.82	241.77
738.15	241.46
738.48	241.13
738.81	240.78
739.14	240.38
739.47	240.05
739.80	239.71
740.13	239.33
740.46	239.09
740.79	238.81
741.12	238.52
741.45	238.18
741.78	237.75
742.11	237.47
742.44	237.14
742.77	236.89
743.10	236.61
743.43	236.35
743.75	235.82
744.08	235.69
744.41	235.31
744.74	235.07
745.07	234.74
745.40	234.47
745.73	234.31
746.06	234.04
746.39	233.74
746.71	233.42
747.04	233.17
747.37	232.83
747.70	232.52
748.03	232.31
748.36	232.07
748.68	231.76
749.01	231.50
749.34	231.24
749.67	230.95
750.00	230.67
750.33	230.46
750.65	230.27
750.98	229.84
751.31	229.67
751.64	229.40
751.97	229.20
752.29	228.95
752.62	228.63
752.95	228.42
753.28	228.28
753.60	228.10
753.93	227.96
754.26	227.80
754.59	227.57
754.91	227.37
755.24	227.21
755.57	227.03
755.90	226.80
756.22	226.59
756.55	226.32
756.88	226.12
757.20	225.88
757.53	225.61
757.86	225.47
758.19	225.24
758.51	225.05
758.84	224.86
759.17	224.70
759.49	224.46
759.82	224.35
760.15	224.15
760.47	223.97
760.80	223.74
761.13	223.52
761.45	223.28
761.78	223.15
762.11	222.95
762.43	222.79
762.76	222.68
763.08	222.56
763.41	222.52
763.74	222.37
764.06	222.20
764.39	222.16
764.71	222.04
765.04	221.91
765.37	221.78
765.69	221.66
766.02	221.47
766.34	221.39
766.67	221.24
767.00	221.16
767.32	221.18
767.65	221.18
767.97	221.07
768.30	221.13
768.62	220.99
768.95	220.88
769.27	220.80
769.60	220.60
769.92	220.52
770.25	220.31
770.57	220.19
770.90	220.08
771.22	219.94
771.55	219.83
771.87	219.75
772.20	219.62
772.52	219.70
772.85	219.97
773.17	219.83
773.50	219.74
773.82	219.61
774.15	219.44
774.47	219.26
774.80	219.15
775.12	218.95
775.45	218.88
775.77	218.83
776.09	218.74
776.42	218.73
776.74	218.66
777.07	218.66
777.39	218.62
777.72	218.60
778.04	218.55
778.36	218.44
778.69	218.42
779.01	218.40
779.33	218.10
779.66	217.73
779.98	217.71
780.31	217.66
780.63	217.76
780.95	217.75
781.28	217.61
781.60	217.57
781.92	217.50
782.25	217.45
782.57	217.40
782.89	217.36
783.22	217.29
783.54	217.16
783.86	217.07
784.19	216.99
784.51	216.92
784.83	216.86
785.16	216.76
785.48	216.68
785.80	216.60
786.12	216.59
786.45	216.52
