SpectraSuite Data File
++++++++++++++++++++++++++++++++++++
Date: Mon Feb 25 17:30:53 EST 2013
User: group
Dark Spectrum Present: No
Reference Spectrum Present: No
Number of Sampled Component Spectra: 1
Spectrometers: USB2E7196
Integration Time (usec): 52000 (USB2E7196)
Spectra Averaged: 20 (USB2E7196)
Boxcar Smoothing: 10 (USB2E7196)
Correct for Electrical Dark: No (USB2E7196)
Strobe/Lamp Enabled: No (USB2E7196)
Correct for Detector Non-linearity: No (USB2E7196)
Correct for Stray Light: No (USB2E7196)
Number of Pixels in Processed Spectrum: 2048
>>>>>Begin Processed Spectral Data<<<<<
339.09	0.00
339.48	198.45
339.86	198.75
340.24	201.40
340.63	201.80
341.01	207.15
341.39	204.80
341.78	206.60
342.16	208.25
342.54	208.75
342.93	197.45
343.31	207.42
343.69	207.96
344.07	208.43
344.46	208.84
344.84	209.25
345.22	209.39
345.60	209.66
345.99	209.88
346.37	209.98
346.75	210.12
347.13	210.24
347.52	210.24
347.90	210.36
348.28	210.43
348.66	210.50
349.05	210.53
349.43	210.66
349.81	210.75
350.19	210.83
350.57	210.88
350.96	210.98
351.34	211.09
351.72	211.20
352.10	211.40
352.48	211.50
352.87	211.57
353.25	211.70
353.63	211.77
354.01	211.86
354.39	212.00
354.77	212.02
355.15	212.18
355.54	212.32
355.92	212.35
356.30	212.50
356.68	212.80
357.06	212.86
357.44	212.88
357.82	212.93
358.20	213.09
358.58	213.23
358.97	213.34
359.35	213.48
359.73	213.61
360.11	213.71
360.49	213.80
360.87	213.86
361.25	214.00
361.63	214.12
362.01	214.18
362.39	214.22
362.77	214.30
363.15	214.39
363.53	214.50
363.91	214.55
364.29	214.57
364.67	214.43
365.05	214.46
365.43	214.52
365.81	214.64
366.19	214.69
366.57	214.79
366.95	214.72
367.33	214.75
367.71	214.72
368.09	214.73
368.47	214.73
368.85	214.73
369.23	214.66
369.61	214.59
369.99	214.65
370.37	214.67
370.75	214.82
371.13	214.70
371.51	214.55
371.89	214.58
372.27	214.56
372.65	214.43
373.03	214.43
373.41	214.35
373.78	214.28
374.16	214.13
374.54	213.98
374.92	214.06
375.30	213.91
375.68	213.86
376.06	213.82
376.44	213.74
376.82	213.72
377.19	213.64
377.57	213.60
377.95	213.57
378.33	213.47
378.71	213.24
379.09	213.22
379.47	213.25
379.84	213.16
380.22	213.10
380.60	213.04
380.98	212.95
381.36	212.98
381.73	212.87
382.11	212.85
382.49	212.81
382.87	212.65
383.25	212.61
383.62	212.76
384.00	212.63
384.38	212.58
384.76	212.52
385.13	212.62
385.51	212.56
385.89	212.44
386.27	212.44
386.64	212.39
387.02	212.36
387.40	212.29
387.78	212.19
388.15	212.17
388.53	212.19
388.91	212.12
389.29	212.04
389.66	212.05
390.04	212.03
390.42	212.04
390.79	212.04
391.17	211.94
391.55	211.70
391.92	211.71
392.30	211.75
392.68	211.80
393.05	211.78
393.43	211.78
393.81	211.75
394.18	211.75
394.56	211.76
394.94	211.80
395.31	211.75
395.69	211.81
396.06	211.83
396.44	211.80
396.82	211.80
397.19	211.92
397.57	211.96
397.95	211.95
398.32	211.90
398.70	211.94
399.07	212.06
399.45	212.08
399.82	212.13
400.20	212.19
400.58	212.20
400.95	212.11
401.33	212.25
401.70	212.40
402.08	212.39
402.45	212.50
402.83	212.59
403.20	212.68
403.58	212.74
403.95	212.84
404.33	212.95
404.71	213.10
405.08	213.28
405.46	213.35
405.83	213.53
406.21	213.71
406.58	213.82
406.96	214.01
407.33	214.18
407.70	214.37
408.08	214.69
408.45	214.89
408.83	215.19
409.20	215.36
409.58	215.56
409.95	215.87
410.33	216.10
410.70	216.34
411.08	216.70
411.45	217.13
411.82	217.47
412.20	217.93
412.57	218.47
412.95	218.71
413.32	219.27
413.69	219.77
414.07	220.27
414.44	220.93
414.82	221.51
415.19	222.22
415.56	222.92
415.94	223.51
416.31	224.36
416.68	225.19
417.06	226.15
417.43	227.06
417.81	228.08
418.18	229.19
418.55	230.35
418.93	231.55
419.30	232.80
419.67	234.08
420.04	235.50
420.42	236.86
420.79	238.65
421.16	240.26
421.54	242.12
421.91	243.97
422.28	245.77
422.66	247.75
423.03	249.78
423.40	251.85
423.77	254.06
424.15	256.28
424.52	258.57
424.89	261.07
425.26	263.43
425.64	265.84
426.01	268.39
426.38	271.03
426.75	273.68
427.13	276.39
427.50	279.28
427.87	282.27
428.24	285.32
428.61	288.12
428.99	291.27
429.36	294.52
429.73	298.01
430.10	301.35
430.47	304.82
430.85	308.38
431.22	312.14
431.59	316.20
431.96	319.99
432.33	324.24
432.70	328.37
433.08	333.17
433.45	337.59
433.82	342.05
434.19	347.02
434.56	351.91
434.93	356.59
435.30	361.37
435.68	366.45
436.05	371.52
436.42	376.62
436.79	381.19
437.16	386.27
437.53	391.27
437.90	396.53
438.27	401.57
438.64	406.81
439.01	411.75
439.38	416.10
439.75	420.32
440.13	425.07
440.50	429.50
440.87	433.13
441.24	436.88
441.61	441.03
441.98	443.99
442.35	447.55
442.72	451.22
443.09	454.70
443.46	456.77
443.83	458.18
444.20	459.38
444.57	461.10
444.94	461.72
445.31	462.55
445.68	463.44
446.05	463.70
446.42	463.07
446.79	462.27
447.16	461.37
447.53	460.75
447.90	458.59
448.27	456.42
448.64	453.64
449.01	451.74
449.37	448.22
449.74	444.87
450.11	440.86
450.48	436.43
450.85	431.85
451.22	428.01
451.59	424.31
451.96	420.78
452.33	416.20
452.70	412.09
453.07	407.11
453.43	401.79
453.80	396.95
454.17	392.28
454.54	387.89
454.91	383.18
455.28	378.44
455.65	374.22
456.02	370.03
456.38	366.32
456.75	361.64
457.12	357.84
457.49	354.09
457.86	350.42
458.23	347.21
458.59	343.82
458.96	340.30
459.33	337.04
459.70	333.84
460.07	331.40
460.43	328.46
460.80	325.80
461.17	323.55
461.54	321.14
461.91	318.77
462.27	316.45
462.64	314.57
463.01	312.47
463.38	310.46
463.74	308.31
464.11	306.50
464.48	304.98
464.85	303.28
465.21	301.94
465.58	300.57
465.95	298.96
466.32	297.56
466.68	296.24
467.05	295.02
467.42	293.70
467.78	292.35
468.15	291.08
468.52	290.18
468.88	288.88
469.25	287.74
469.62	286.91
469.98	285.90
470.35	284.85
470.72	284.11
471.08	283.15
471.45	282.44
471.82	281.70
472.18	280.80
472.55	280.32
472.92	279.68
473.28	279.09
473.65	278.53
474.02	278.00
474.38	277.56
474.75	277.23
475.11	276.84
475.48	276.49
475.85	276.30
476.21	276.05
476.58	276.02
476.94	275.95
477.31	275.86
477.67	275.84
478.04	275.90
478.41	275.97
478.77	276.27
479.14	276.46
479.50	276.72
479.87	277.10
480.23	277.45
480.60	277.76
480.96	278.20
481.33	278.73
481.69	279.33
482.06	279.95
482.42	280.59
482.79	281.31
483.15	282.14
483.52	283.23
483.88	284.25
484.25	285.19
484.61	286.30
484.98	287.44
485.34	288.74
485.71	290.13
486.07	291.41
486.44	292.75
486.80	294.27
487.17	295.96
487.53	297.64
487.90	299.46
488.26	301.35
488.62	303.31
488.99	305.40
489.35	307.57
489.72	309.90
490.08	312.29
490.44	314.87
490.81	317.51
491.17	320.11
491.54	322.97
491.90	325.97
492.26	329.10
492.63	332.40
492.99	335.78
493.36	339.35
493.72	343.31
494.08	347.26
494.45	351.50
494.81	355.90
495.17	360.53
495.54	365.30
495.90	370.51
496.26	375.73
496.63	381.27
496.99	387.05
497.35	392.96
497.72	399.25
498.08	405.72
498.44	412.49
498.80	419.63
499.17	427.07
499.53	434.64
499.89	442.55
500.26	450.60
500.62	458.77
500.98	467.58
501.34	476.53
501.71	485.85
502.07	495.47
502.43	505.41
502.79	515.68
503.16	526.15
503.52	536.91
503.88	548.18
504.24	559.49
504.60	571.21
504.97	583.43
505.33	595.90
505.69	609.06
506.05	622.41
506.41	635.75
506.78	649.26
507.14	663.33
507.50	677.77
507.86	692.61
508.22	708.15
508.59	723.40
508.95	739.31
509.31	755.45
509.67	771.89
510.03	788.71
510.39	805.85
510.75	823.48
511.12	841.39
511.48	859.66
511.84	878.28
512.20	896.73
512.56	915.70
512.92	934.80
513.28	954.17
513.64	973.52
514.00	993.53
514.37	1013.74
514.73	1034.20
515.09	1054.78
515.45	1075.20
515.81	1095.90
516.17	1117.14
516.53	1138.10
516.89	1159.59
517.25	1180.61
517.61	1202.05
517.97	1223.27
518.33	1244.74
518.69	1266.22
519.05	1287.87
519.41	1309.55
519.77	1331.87
520.13	1353.64
520.49	1375.39
520.85	1397.71
521.21	1419.93
521.57	1442.18
521.93	1463.89
522.29	1486.48
522.65	1508.99
523.01	1531.47
523.37	1553.39
523.73	1575.11
524.09	1597.09
524.45	1618.99
524.81	1641.08
525.17	1663.17
525.53	1685.52
525.89	1707.37
526.25	1729.00
526.61	1749.75
526.97	1771.17
527.33	1792.10
527.68	1813.23
528.04	1833.99
528.40	1853.85
528.76	1874.46
529.12	1894.98
529.48	1916.46
529.84	1936.40
530.20	1956.06
530.56	1975.89
530.91	1996.21
531.27	2016.20
531.63	2035.74
531.99	2055.28
532.35	2074.06
532.71	2092.53
533.07	2111.50
533.42	2129.45
533.78	2147.79
534.14	2166.06
534.50	2182.71
534.86	2200.08
535.21	2216.20
535.57	2233.72
535.93	2250.54
536.29	2266.87
536.65	2282.76
537.00	2297.32
537.36	2312.12
537.72	2326.67
538.08	2341.49
538.44	2356.08
538.79	2371.05
539.15	2385.43
539.51	2399.35
539.87	2414.36
540.22	2428.26
540.58	2442.24
540.94	2456.54
541.29	2468.91
541.65	2480.76
542.01	2493.90
542.37	2505.46
542.72	2517.70
543.08	2528.31
543.44	2539.60
543.79	2549.17
544.15	2559.14
544.51	2569.95
544.87	2580.74
545.22	2589.81
545.58	2598.27
545.94	2605.41
546.29	2611.55
546.65	2617.38
547.01	2623.37
547.36	2628.40
547.72	2633.68
548.07	2637.56
548.43	2640.68
548.79	2644.38
549.14	2648.46
549.50	2652.61
549.86	2656.39
550.21	2659.95
550.57	2663.69
550.92	2666.12
551.28	2668.71
551.64	2670.94
551.99	2672.98
552.35	2673.94
552.70	2676.44
553.06	2678.25
553.41	2680.76
553.77	2683.47
554.13	2685.38
554.48	2686.85
554.84	2688.21
555.19	2688.47
555.55	2688.66
555.90	2689.37
556.26	2689.95
556.61	2689.67
556.97	2687.56
557.32	2686.75
557.68	2684.94
558.03	2683.06
558.39	2681.41
558.74	2680.96
559.10	2679.60
559.45	2677.56
559.81	2676.48
560.16	2673.65
560.52	2671.27
560.87	2668.25
561.23	2664.54
561.58	2662.54
561.94	2659.27
562.29	2655.22
562.64	2652.75
563.00	2650.17
563.35	2647.73
563.71	2645.46
564.06	2643.14
564.42	2641.50
564.77	2639.08
565.12	2637.41
565.48	2634.37
565.83	2630.98
566.19	2627.38
566.54	2623.05
566.89	2619.16
567.25	2615.19
567.60	2611.88
567.96	2608.50
568.31	2605.04
568.66	2600.53
569.02	2595.42
569.37	2590.15
569.72	2586.45
570.08	2581.58
570.43	2575.96
570.78	2570.10
571.14	2563.63
571.49	2557.19
571.84	2551.08
572.20	2543.99
572.55	2537.04
572.90	2530.33
573.26	2523.95
573.61	2516.70
573.96	2510.27
574.31	2502.54
574.67	2494.48
575.02	2486.02
575.37	2477.46
575.72	2468.30
576.08	2461.28
576.43	2452.85
576.78	2445.21
577.13	2437.22
577.49	2429.22
577.84	2421.70
578.19	2414.48
578.54	2407.55
578.90	2400.73
579.25	2392.01
579.60	2383.16
579.95	2374.25
580.30	2366.24
580.66	2358.39
581.01	2349.81
581.36	2340.51
581.71	2332.34
582.06	2323.99
582.42	2316.18
582.77	2307.31
583.12	2298.79
583.47	2290.23
583.82	2282.24
584.17	2273.28
584.53	2264.67
584.88	2255.93
585.23	2247.02
585.58	2237.51
585.93	2227.97
586.28	2218.91
586.63	2210.66
586.98	2202.82
587.34	2194.71
587.69	2185.86
588.04	2176.55
588.39	2168.31
588.74	2159.72
589.09	2151.26
589.44	2141.97
589.79	2133.28
590.14	2125.64
590.49	2117.75
590.84	2109.07
591.19	2101.52
591.54	2092.92
591.89	2083.10
592.25	2074.14
592.60	2064.73
592.95	2055.65
593.30	2046.61
593.65	2037.11
594.00	2027.60
594.35	2019.56
594.70	2010.46
595.05	2002.22
595.40	1993.77
595.75	1984.41
596.10	1976.42
596.45	1967.95
596.80	1960.37
597.15	1952.50
597.50	1943.69
597.85	1935.07
598.19	1926.52
598.54	1917.64
598.89	1910.22
599.24	1903.58
599.59	1896.45
599.94	1889.53
600.29	1882.00
600.64	1874.10
600.99	1866.25
601.34	1859.03
601.69	1850.60
602.04	1842.79
602.39	1834.61
602.74	1826.92
603.08	1820.46
603.43	1813.68
603.78	1805.99
604.13	1798.13
604.48	1790.40
604.83	1783.43
605.18	1776.91
605.53	1769.55
605.87	1761.98
606.22	1755.12
606.57	1747.24
606.92	1739.12
607.27	1731.71
607.62	1724.58
607.96	1717.81
608.31	1711.68
608.66	1704.44
609.01	1696.96
609.36	1689.64
609.70	1681.96
610.05	1674.32
610.40	1666.47
610.75	1657.92
611.10	1650.32
611.44	1641.71
611.79	1632.69
612.14	1623.78
612.49	1614.33
612.83	1605.90
613.18	1596.54
613.53	1587.09
613.88	1577.72
614.22	1568.90
614.57	1559.55
614.92	1550.64
615.27	1541.55
615.61	1531.78
615.96	1522.72
616.31	1514.29
616.65	1506.53
617.00	1498.57
617.35	1490.18
617.70	1481.32
618.04	1472.72
618.39	1463.60
618.74	1455.42
619.08	1446.94
619.43	1438.57
619.78	1430.80
620.12	1422.80
620.47	1415.36
620.82	1407.15
621.16	1399.08
621.51	1391.03
621.85	1383.18
622.20	1374.55
622.55	1366.15
622.89	1358.19
623.24	1350.57
623.59	1342.14
623.93	1333.58
624.28	1325.25
624.62	1317.30
624.97	1309.50
625.32	1301.60
625.66	1294.48
626.01	1287.24
626.35	1280.31
626.70	1272.93
627.04	1265.68
627.39	1258.23
627.73	1251.03
628.08	1244.41
628.43	1237.23
628.77	1230.06
629.12	1222.71
629.46	1216.18
629.81	1209.39
630.15	1202.31
630.50	1195.11
630.84	1188.14
631.19	1181.23
631.53	1174.55
631.88	1167.20
632.22	1159.63
632.57	1152.83
632.91	1145.50
633.26	1137.96
633.60	1130.97
633.95	1124.16
634.29	1116.95
634.64	1110.29
634.98	1103.20
635.32	1096.07
635.67	1089.91
636.01	1083.39
636.36	1076.71
636.70	1070.12
637.05	1063.88
637.39	1057.75
637.73	1051.46
638.08	1045.66
638.42	1039.84
638.77	1033.49
639.11	1027.31
639.45	1021.64
639.80	1015.26
640.14	1009.05
640.49	1003.15
640.83	996.85
641.17	990.78
641.52	984.84
641.86	978.54
642.20	972.56
642.55	966.11
642.89	959.64
643.23	953.40
643.58	947.60
643.92	941.32
644.26	934.98
644.61	928.94
644.95	922.83
645.29	916.58
645.64	910.04
645.98	903.95
646.32	898.27
646.66	892.19
647.01	886.27
647.35	880.68
647.69	874.51
648.04	868.75
648.38	862.97
648.72	857.00
649.06	851.05
649.41	845.17
649.75	839.62
650.09	834.03
650.43	828.16
650.78	821.83
651.12	815.85
651.46	810.30
651.80	804.40
652.14	798.56
652.49	792.84
652.83	787.12
653.17	781.24
653.51	775.42
653.85	769.92
654.20	764.52
654.54	758.45
654.88	753.19
655.22	747.54
655.56	741.74
655.90	736.09
656.25	730.49
656.59	725.18
656.93	720.00
657.27	714.84
657.61	709.55
657.95	704.86
658.29	699.91
658.64	694.71
658.98	689.59
659.32	684.51
659.66	679.34
660.00	674.29
660.34	669.25
660.68	664.25
661.02	659.11
661.36	654.36
661.70	649.89
662.05	645.20
662.39	640.78
662.73	636.50
663.07	632.36
663.41	628.18
663.75	623.65
664.09	618.96
664.43	614.45
664.77	610.14
665.11	605.63
665.45	601.48
665.79	597.26
666.13	592.87
666.47	588.80
666.81	584.66
667.15	580.51
667.49	576.78
667.83	572.87
668.17	569.13
668.51	565.19
668.85	561.60
669.19	558.09
669.53	554.28
669.87	550.30
670.21	546.43
670.55	542.50
670.89	538.98
671.23	535.75
671.57	532.29
671.91	528.79
672.25	525.39
672.58	521.80
672.92	518.35
673.26	515.44
673.60	512.21
673.94	509.03
674.28	505.77
674.62	502.61
674.96	499.51
675.30	496.43
675.64	493.34
675.97	489.96
676.31	486.75
676.65	483.85
676.99	481.35
677.33	478.58
677.67	475.81
678.01	472.93
678.34	469.92
678.68	466.91
679.02	464.08
679.36	461.34
679.70	458.72
680.04	455.91
680.37	452.88
680.71	450.18
681.05	447.67
681.39	445.13
681.73	442.55
682.06	440.03
682.40	437.54
682.74	435.05
683.08	432.71
683.42	430.11
683.75	427.71
684.09	424.92
684.43	422.44
684.77	419.95
685.10	417.36
685.44	414.93
685.78	412.65
686.12	410.36
686.45	407.97
686.79	405.68
687.13	403.71
687.46	401.63
687.80	399.38
688.14	397.07
688.48	395.02
688.81	392.78
689.15	390.63
689.49	388.42
689.82	386.28
690.16	384.00
690.50	381.90
690.83	379.54
691.17	377.50
691.51	375.24
691.84	373.21
692.18	371.32
692.52	369.34
692.85	367.46
693.19	365.71
693.52	363.87
693.86	361.88
694.20	359.89
694.53	358.09
694.87	356.24
695.21	354.42
695.54	352.50
695.88	350.63
696.21	348.79
696.55	347.10
696.88	345.37
697.22	343.70
697.56	342.13
697.89	340.66
698.23	339.05
698.56	337.54
698.90	336.10
699.23	334.50
699.57	333.10
699.90	331.44
700.24	329.75
700.58	328.20
700.91	326.75
701.25	325.41
701.58	324.05
701.92	322.61
702.25	321.22
702.59	319.95
702.92	318.76
703.26	317.48
703.59	316.23
703.93	315.17
704.26	314.00
704.60	312.69
704.93	311.43
705.26	310.12
705.60	309.04
705.93	307.72
706.27	306.62
706.60	305.54
706.94	304.53
707.27	303.39
707.61	302.27
707.94	301.18
708.27	299.94
708.61	298.76
708.94	297.66
709.28	296.66
709.61	295.50
709.94	294.40
710.28	293.28
710.61	292.31
710.95	291.05
711.28	290.12
711.61	289.15
711.95	288.23
712.28	287.28
712.61	286.25
712.95	285.43
713.28	284.51
713.61	283.45
713.95	282.51
714.28	281.71
714.61	280.79
714.95	279.81
715.28	278.85
715.61	277.98
715.95	277.10
716.28	276.08
716.61	275.27
716.95	274.37
717.28	273.56
717.61	272.64
717.94	272.00
718.28	271.17
718.61	270.39
718.94	269.60
719.27	268.95
719.61	268.30
719.94	267.45
720.27	266.68
720.60	265.97
720.94	265.31
721.27	264.57
721.60	264.00
721.93	263.49
722.27	262.99
722.60	262.35
722.93	261.78
723.26	261.26
723.59	260.66
723.93	260.14
724.26	259.66
724.59	259.11
724.92	258.50
725.25	257.95
725.59	257.43
725.92	256.96
726.25	256.42
726.58	255.85
726.91	255.50
727.24	254.99
727.57	254.50
727.91	253.95
728.24	253.52
728.57	253.05
728.90	252.60
729.23	252.02
729.56	251.60
729.89	251.14
730.22	250.72
730.55	250.25
730.89	249.74
731.22	249.22
731.55	248.78
731.88	248.40
732.21	247.96
732.54	247.53
732.87	247.12
733.20	246.59
733.53	246.17
733.86	245.71
734.19	245.25
734.52	244.90
734.85	244.65
735.18	244.23
735.51	243.85
735.84	243.50
736.17	243.20
736.50	242.84
736.83	242.71
737.16	242.32
737.49	242.04
737.82	241.68
738.15	241.40
738.48	241.10
738.81	240.65
739.14	240.34
739.47	240.03
739.80	239.65
740.13	239.40
740.46	239.04
740.79	238.60
741.12	238.37
741.45	238.00
741.78	237.54
742.11	237.27
742.44	236.95
742.77	236.67
743.10	236.32
743.43	235.98
743.75	235.46
744.08	235.36
744.41	234.99
744.74	234.71
745.07	234.31
745.40	234.06
745.73	233.85
746.06	233.47
746.39	233.21
746.71	232.91
747.04	232.70
747.37	232.45
747.70	232.29
748.03	232.03
748.36	231.89
748.68	231.67
749.01	231.36
749.34	231.13
749.67	230.82
750.00	230.65
750.33	230.48
750.65	230.26
750.98	229.85
751.31	229.60
751.64	229.34
751.97	229.27
752.29	229.01
752.62	228.73
752.95	228.55
753.28	228.27
753.60	228.02
753.93	227.83
754.26	227.56
754.59	227.27
754.91	227.01
755.24	226.80
755.57	226.59
755.90	226.46
756.22	226.23
756.55	226.04
756.88	225.81
757.20	225.57
757.53	225.28
757.86	225.10
758.19	224.90
758.51	224.74
758.84	224.52
759.17	224.35
759.49	224.20
759.82	224.18
760.15	224.03
760.47	223.86
760.80	223.62
761.13	223.52
761.45	223.39
761.78	223.17
762.11	222.92
762.43	222.74
762.76	222.46
763.08	222.38
763.41	222.23
763.74	222.07
764.06	221.94
764.39	221.88
764.71	221.75
765.04	221.64
765.37	221.55
765.69	221.31
766.02	221.15
766.34	220.97
766.67	220.80
767.00	220.75
767.32	220.77
767.65	220.72
767.97	220.57
768.30	220.47
768.62	220.42
768.95	220.33
769.27	220.24
769.60	220.28
769.92	220.10
770.25	219.99
770.57	219.85
770.90	219.70
771.22	219.53
771.55	219.45
771.87	219.38
772.20	219.27
772.52	219.42
772.85	219.52
773.17	219.44
773.50	219.24
773.82	219.12
774.15	218.90
774.47	218.80
774.80	218.72
775.12	218.64
775.45	218.60
775.77	218.43
776.09	218.42
776.42	218.27
776.74	218.21
777.07	218.14
777.39	218.15
777.72	218.02
778.04	218.01
778.36	217.88
778.69	217.81
779.01	217.74
779.33	217.50
779.66	217.28
779.98	217.21
780.31	217.23
780.63	217.18
780.95	217.17
781.28	217.05
781.60	216.98
781.92	216.90
782.25	216.81
782.57	216.80
782.89	216.68
783.22	216.64
783.54	216.61
783.86	216.57
784.19	216.43
784.51	216.48
784.83	216.40
785.16	216.33
785.48	216.31
785.80	216.26
786.12	216.21
786.45	216.14
