SpectraSuite Data File
++++++++++++++++++++++++++++++++++++
Date: Mon Feb 25 17:32:07 EST 2013
User: group
Dark Spectrum Present: No
Reference Spectrum Present: No
Number of Sampled Component Spectra: 1
Spectrometers: USB2E7196
Integration Time (usec): 52000 (USB2E7196)
Spectra Averaged: 20 (USB2E7196)
Boxcar Smoothing: 10 (USB2E7196)
Correct for Electrical Dark: No (USB2E7196)
Strobe/Lamp Enabled: No (USB2E7196)
Correct for Detector Non-linearity: No (USB2E7196)
Correct for Stray Light: No (USB2E7196)
Number of Pixels in Processed Spectrum: 2048
>>>>>Begin Processed Spectral Data<<<<<
339.09	0.00
339.48	200.10
339.86	201.50
340.24	203.05
340.63	202.55
341.01	208.35
341.39	207.25
341.78	207.55
342.16	210.30
342.54	210.70
342.93	198.95
343.31	208.99
343.69	209.50
344.07	209.90
344.46	210.24
344.84	210.66
345.22	210.77
345.60	210.97
345.99	211.11
346.37	211.19
346.75	211.21
347.13	211.35
347.52	211.42
347.90	211.42
348.28	211.48
348.66	211.53
349.05	211.50
349.43	211.48
349.81	211.54
350.19	211.53
350.57	211.51
350.96	211.62
351.34	211.70
351.72	211.74
352.10	211.87
352.48	211.97
352.87	211.98
353.25	212.02
353.63	212.08
354.01	212.16
354.39	212.26
354.77	212.33
355.15	212.39
355.54	212.39
355.92	212.40
356.30	212.42
356.68	212.62
357.06	212.63
357.44	212.67
357.82	212.74
358.20	212.80
358.58	212.89
358.97	212.91
359.35	212.96
359.73	213.04
360.11	213.06
360.49	213.05
360.87	213.08
361.25	213.21
361.63	213.32
362.01	213.39
362.39	213.40
362.77	213.47
363.15	213.52
363.53	213.57
363.91	213.64
364.29	213.63
364.67	213.45
365.05	213.47
365.43	213.49
365.81	213.43
366.19	213.53
366.57	213.59
366.95	213.59
367.33	213.55
367.71	213.57
368.09	213.62
368.47	213.71
368.85	213.74
369.23	213.78
369.61	213.68
369.99	213.75
370.37	213.78
370.75	213.89
371.13	213.85
371.51	213.85
371.89	213.80
372.27	213.79
372.65	213.80
373.03	213.83
373.41	213.81
373.78	213.87
374.16	213.75
374.54	213.63
374.92	213.65
375.30	213.67
375.68	213.60
376.06	213.58
376.44	213.46
376.82	213.41
377.19	213.29
377.57	213.30
377.95	213.20
378.33	213.09
378.71	212.90
379.09	212.88
379.47	212.82
379.84	212.73
380.22	212.71
380.60	212.65
380.98	212.58
381.36	212.58
381.73	212.45
382.11	212.44
382.49	212.41
382.87	212.32
383.25	212.27
383.62	212.46
384.00	212.30
384.38	212.37
384.76	212.41
385.13	212.50
385.51	212.39
385.89	212.26
386.27	212.25
386.64	212.23
387.02	212.17
387.40	212.15
387.78	212.22
388.15	212.23
388.53	212.18
388.91	212.12
389.29	212.00
389.66	211.98
390.04	211.94
390.42	211.97
390.79	211.94
391.17	211.92
391.55	211.70
391.92	211.79
392.30	211.70
392.68	211.64
393.05	211.58
393.43	211.66
393.81	211.73
394.18	211.68
394.56	211.65
394.94	211.60
395.31	211.58
395.69	211.56
396.06	211.51
396.44	211.56
396.82	211.59
397.19	211.73
397.57	211.69
397.95	211.72
398.32	211.69
398.70	211.75
399.07	211.79
399.45	211.76
399.82	211.77
400.20	211.81
400.58	211.89
400.95	211.86
401.33	211.85
401.70	212.01
402.08	212.02
402.45	212.15
402.83	212.31
403.20	212.42
403.58	212.51
403.95	212.65
404.33	212.78
404.71	212.81
405.08	212.99
405.46	213.13
405.83	213.29
406.21	213.39
406.58	213.51
406.96	213.63
407.33	213.88
407.70	214.08
408.08	214.45
408.45	214.61
408.83	214.86
409.20	215.11
409.58	215.23
409.95	215.61
410.33	215.88
410.70	216.16
411.08	216.52
411.45	216.88
411.82	217.28
412.20	217.73
412.57	218.24
412.95	218.50
413.32	219.05
413.69	219.57
414.07	220.21
414.44	220.84
414.82	221.48
415.19	222.21
415.56	222.99
415.94	223.65
416.31	224.51
416.68	225.33
417.06	226.38
417.43	227.34
417.81	228.39
418.18	229.50
418.55	230.65
418.93	231.85
419.30	233.17
419.67	234.47
420.04	235.83
420.42	237.33
420.79	239.19
421.16	240.93
421.54	242.75
421.91	244.55
422.28	246.48
422.66	248.54
423.03	250.55
423.40	252.56
423.77	254.85
424.15	257.10
424.52	259.50
424.89	261.96
425.26	264.38
425.64	266.69
426.01	269.26
426.38	272.00
426.75	274.77
427.13	277.45
427.50	280.43
427.87	283.59
428.24	286.69
428.61	289.50
428.99	292.70
429.36	296.14
429.73	299.62
430.10	302.96
430.47	306.48
430.85	310.06
431.22	313.91
431.59	317.98
431.96	321.84
432.33	326.20
432.70	330.35
433.08	335.25
433.45	339.82
433.82	344.46
434.19	349.43
434.56	354.35
434.93	359.10
435.30	363.82
435.68	369.00
436.05	374.11
436.42	379.30
436.79	384.03
437.16	389.03
437.53	394.29
437.90	399.52
438.27	404.65
438.64	410.07
439.01	414.92
439.38	419.26
439.75	423.46
440.13	428.22
440.50	432.77
440.87	436.57
441.24	440.31
441.61	444.35
441.98	447.44
442.35	451.01
442.72	454.74
443.09	458.23
443.46	460.13
443.83	461.56
444.20	462.64
444.57	464.34
444.94	465.16
445.31	465.97
445.68	466.68
446.05	466.87
446.42	466.14
446.79	465.57
447.16	464.72
447.53	464.12
447.90	461.94
448.27	459.88
448.64	456.87
449.01	454.89
449.37	451.46
449.74	447.98
450.11	443.88
450.48	439.37
450.85	434.82
451.22	430.99
451.59	427.21
451.96	423.57
452.33	418.79
452.70	414.44
453.07	409.43
453.43	404.32
453.80	399.33
454.17	394.63
454.54	389.98
454.91	385.24
455.28	380.57
455.65	376.32
456.02	372.02
456.38	368.41
456.75	363.76
457.12	359.86
457.49	356.08
457.86	352.43
458.23	349.27
458.59	345.79
458.96	342.35
459.33	339.21
459.70	336.21
460.07	333.74
460.43	330.89
460.80	328.09
461.17	325.74
461.54	323.31
461.91	320.95
462.27	318.60
462.64	316.48
463.01	314.24
463.38	312.11
463.74	309.91
464.11	308.00
464.48	306.41
464.85	304.62
465.21	303.29
465.58	301.81
465.95	300.10
466.32	298.72
466.68	297.31
467.05	295.95
467.42	294.50
467.78	293.04
468.15	291.76
468.52	290.75
468.88	289.48
469.25	288.34
469.62	287.45
469.98	286.44
470.35	285.60
470.72	284.77
471.08	283.84
471.45	283.10
471.82	282.28
472.18	281.48
472.55	280.87
472.92	280.13
473.28	279.58
473.65	279.03
474.02	278.45
474.38	278.06
474.75	277.71
475.11	277.35
475.48	277.19
475.85	276.96
476.21	276.87
476.58	276.72
476.94	276.72
477.31	276.66
477.67	276.72
478.04	276.75
478.41	276.91
478.77	277.28
479.14	277.39
479.50	277.72
479.87	278.04
480.23	278.47
480.60	278.91
480.96	279.30
481.33	279.88
481.69	280.57
482.06	281.13
482.42	281.73
482.79	282.52
483.15	283.26
483.52	284.25
483.88	285.01
484.25	286.05
484.61	287.17
484.98	288.27
485.34	289.56
485.71	290.99
486.07	292.45
486.44	293.67
486.80	295.20
487.17	296.81
487.53	298.59
487.90	300.36
488.26	302.23
488.62	304.25
488.99	306.30
489.35	308.45
489.72	310.73
490.08	313.18
490.44	315.66
490.81	318.35
491.17	320.97
491.54	323.96
491.90	326.95
492.26	330.07
492.63	333.38
492.99	336.79
493.36	340.31
493.72	344.02
494.08	348.10
494.45	352.40
494.81	356.82
495.17	361.33
495.54	366.33
495.90	371.51
496.26	376.75
496.63	382.17
496.99	387.92
497.35	393.86
497.72	400.12
498.08	406.64
498.44	413.38
498.80	420.63
499.17	428.14
499.53	435.75
499.89	443.75
500.26	451.93
500.62	460.20
500.98	468.97
501.34	478.09
501.71	487.26
502.07	496.84
502.43	506.87
502.79	517.15
503.16	527.67
503.52	538.44
503.88	549.67
504.24	561.32
504.60	572.97
504.97	585.27
505.33	597.66
505.69	610.82
506.05	624.34
506.41	637.77
506.78	651.36
507.14	665.58
507.50	679.99
507.86	694.76
508.22	710.13
508.59	725.61
508.95	741.57
509.31	757.94
509.67	774.47
510.03	791.25
510.39	808.59
510.75	826.30
511.12	844.31
511.48	862.63
511.84	880.98
512.20	899.71
512.56	918.87
512.92	938.39
513.28	957.78
513.64	977.49
514.00	997.55
514.37	1017.69
514.73	1038.45
515.09	1059.34
515.45	1080.15
515.81	1101.24
516.17	1122.52
516.53	1143.67
516.89	1165.08
517.25	1186.47
517.61	1207.95
517.97	1229.54
518.33	1250.95
518.69	1272.62
519.05	1294.54
519.41	1316.81
519.77	1339.13
520.13	1360.88
520.49	1382.82
520.85	1405.44
521.21	1427.74
521.57	1450.40
521.93	1472.42
522.29	1494.96
522.65	1517.41
523.01	1539.96
523.37	1561.95
523.73	1584.20
524.09	1606.52
524.45	1628.87
524.81	1651.28
525.17	1673.84
525.53	1696.00
525.89	1718.27
526.25	1739.98
526.61	1760.97
526.97	1782.71
527.33	1804.02
527.68	1825.90
528.04	1847.47
528.40	1867.74
528.76	1888.27
529.12	1908.72
529.48	1930.25
529.84	1950.23
530.20	1970.20
530.56	1990.51
530.91	2011.17
531.27	2031.45
531.63	2051.32
531.99	2070.83
532.35	2089.99
532.71	2108.83
533.07	2128.21
533.42	2146.51
533.78	2165.29
534.14	2183.84
534.50	2200.76
534.86	2218.80
535.21	2235.24
535.57	2252.40
535.93	2269.67
536.29	2286.28
536.65	2302.69
537.00	2318.04
537.36	2333.36
537.72	2348.36
538.08	2363.50
538.44	2378.55
538.79	2393.92
539.15	2408.52
539.51	2423.09
539.87	2438.32
540.22	2452.44
540.58	2467.14
540.94	2481.60
541.29	2494.53
541.65	2506.75
542.01	2520.07
542.37	2531.50
542.72	2543.78
543.08	2554.53
543.44	2566.05
543.79	2576.46
544.15	2586.56
544.51	2597.70
544.87	2608.66
545.22	2618.06
545.58	2626.18
545.94	2633.26
546.29	2639.18
546.65	2645.29
547.01	2651.16
547.36	2656.63
547.72	2662.21
548.07	2665.79
548.43	2669.01
548.79	2672.98
549.14	2677.24
549.50	2681.08
549.86	2685.21
550.21	2688.88
550.57	2693.25
550.92	2695.70
551.28	2698.27
551.64	2700.69
551.99	2703.05
552.35	2704.53
552.70	2707.06
553.06	2710.03
553.41	2713.47
553.77	2716.70
554.13	2718.97
554.48	2721.09
554.84	2722.30
555.19	2722.76
555.55	2723.35
555.90	2724.09
556.26	2724.36
556.61	2724.33
556.97	2723.03
557.32	2722.39
557.68	2720.67
558.03	2718.96
558.39	2717.24
558.74	2716.65
559.10	2715.39
559.45	2713.13
559.81	2711.91
560.16	2709.24
560.52	2706.50
560.87	2703.04
561.23	2699.16
561.58	2697.00
561.94	2693.64
562.29	2689.83
562.64	2687.62
563.00	2685.09
563.35	2683.23
563.71	2681.46
564.06	2679.38
564.42	2677.59
564.77	2675.15
565.12	2673.40
565.48	2670.22
565.83	2667.35
566.19	2664.06
566.54	2659.85
566.89	2655.90
567.25	2652.06
567.60	2648.75
567.96	2644.80
568.31	2641.49
568.66	2637.33
569.02	2632.35
569.37	2627.33
569.72	2623.11
570.08	2617.54
570.43	2612.07
570.78	2606.28
571.14	2599.87
571.49	2593.11
571.84	2586.93
572.20	2580.24
572.55	2573.48
572.90	2566.57
573.26	2559.78
573.61	2552.86
573.96	2546.58
574.31	2538.74
574.67	2530.81
575.02	2522.41
575.37	2514.05
575.72	2504.63
576.08	2497.25
576.43	2488.70
576.78	2481.06
577.13	2473.64
577.49	2465.81
577.84	2458.24
578.19	2450.57
578.54	2443.22
578.90	2436.57
579.25	2428.25
579.60	2419.07
579.95	2409.95
580.30	2402.18
580.66	2394.08
581.01	2384.84
581.36	2375.47
581.71	2367.28
582.06	2358.89
582.42	2350.81
582.77	2341.95
583.12	2333.36
583.47	2324.70
583.82	2316.52
584.17	2307.21
584.53	2297.95
584.88	2289.17
585.23	2279.88
585.58	2270.28
585.93	2260.68
586.28	2251.58
586.63	2242.55
586.98	2234.45
587.34	2226.38
587.69	2216.97
588.04	2207.60
588.39	2199.36
588.74	2190.38
589.09	2181.78
589.44	2172.20
589.79	2163.49
590.14	2155.58
590.49	2147.39
590.84	2138.46
591.19	2130.32
591.54	2121.71
591.89	2111.76
592.25	2102.59
592.60	2093.40
592.95	2084.06
593.30	2074.72
593.65	2064.74
594.00	2055.12
594.35	2046.78
594.70	2037.80
595.05	2029.29
595.40	2020.76
595.75	2011.30
596.10	2003.03
596.45	1994.45
596.80	1986.84
597.15	1978.66
597.50	1969.61
597.85	1961.13
598.19	1952.33
598.54	1943.50
598.89	1935.66
599.24	1928.89
599.59	1921.53
599.94	1914.51
600.29	1906.46
600.64	1898.64
600.99	1890.23
601.34	1883.32
601.69	1874.56
602.04	1866.25
602.39	1858.25
602.74	1850.70
603.08	1844.19
603.43	1837.29
603.78	1829.54
604.13	1821.33
604.48	1813.49
604.83	1806.82
605.18	1800.00
605.53	1792.91
605.87	1785.48
606.22	1778.52
606.57	1770.79
606.92	1762.81
607.27	1754.68
607.62	1747.91
607.96	1741.20
608.31	1735.19
608.66	1727.34
609.01	1719.91
609.36	1712.24
609.70	1704.49
610.05	1696.65
610.40	1688.10
610.75	1679.53
611.10	1671.93
611.44	1662.85
611.79	1653.67
612.14	1644.28
612.49	1634.55
612.83	1625.58
613.18	1616.26
613.53	1606.86
613.88	1597.24
614.22	1588.25
614.57	1579.00
614.92	1569.79
615.27	1560.19
615.61	1550.56
615.96	1541.73
616.31	1533.23
616.65	1525.41
617.00	1517.20
617.35	1508.60
617.70	1499.87
618.04	1491.00
618.39	1481.80
618.74	1473.44
619.08	1465.17
619.43	1456.99
619.78	1449.34
620.12	1441.54
620.47	1433.82
620.82	1425.18
621.16	1417.02
621.51	1408.52
621.85	1400.34
622.20	1391.86
622.55	1383.54
622.89	1375.40
623.24	1367.19
623.59	1358.51
623.93	1349.91
624.28	1341.60
624.62	1333.39
624.97	1325.31
625.32	1317.56
625.66	1310.07
626.01	1303.09
626.35	1295.75
626.70	1288.03
627.04	1280.60
627.39	1272.72
627.73	1265.10
628.08	1258.69
628.43	1251.21
628.77	1244.23
629.12	1236.93
629.46	1229.97
629.81	1223.03
630.15	1215.73
630.50	1208.74
630.84	1201.95
631.19	1194.70
631.53	1187.86
631.88	1180.16
632.22	1172.86
632.57	1165.80
632.91	1158.51
633.26	1150.85
633.60	1143.72
633.95	1137.10
634.29	1129.81
634.64	1123.36
634.98	1116.36
635.32	1109.12
635.67	1102.98
636.01	1096.30
636.36	1089.61
636.70	1083.19
637.05	1076.66
637.39	1070.43
637.73	1063.93
638.08	1057.94
638.42	1052.39
638.77	1045.78
639.11	1039.83
639.45	1034.03
639.80	1027.62
640.14	1021.15
640.49	1015.06
640.83	1008.94
641.17	1002.50
641.52	996.58
641.86	989.96
642.20	983.99
642.55	977.20
642.89	970.67
643.23	964.25
643.58	958.38
643.92	951.99
644.26	945.66
644.61	939.48
644.95	933.62
645.29	927.29
645.64	920.52
645.98	914.38
646.32	908.59
646.66	902.25
647.01	896.37
647.35	890.64
647.69	884.38
648.04	878.35
648.38	872.47
648.72	866.29
649.06	860.26
649.41	854.31
649.75	848.60
650.09	842.86
650.43	837.03
650.78	830.78
651.12	824.61
651.46	818.93
651.80	812.91
652.14	806.88
652.49	801.06
652.83	795.19
653.17	789.24
653.51	783.53
653.85	777.81
654.20	771.96
654.54	766.03
654.88	760.69
655.22	754.95
655.56	749.11
655.90	743.48
656.25	737.89
656.59	732.28
656.93	727.15
657.27	722.02
657.61	716.64
657.95	711.66
658.29	706.84
658.64	701.78
658.98	696.86
659.32	691.57
659.66	686.43
660.00	681.22
660.34	676.13
660.68	670.84
661.02	665.90
661.36	661.26
661.70	656.60
662.05	651.80
662.39	647.44
662.73	643.16
663.07	638.82
663.41	634.38
663.75	629.74
664.09	624.99
664.43	620.17
664.77	615.82
665.11	611.31
665.45	606.85
665.79	602.42
666.13	598.05
666.47	593.90
666.81	589.70
667.15	585.69
667.49	581.73
667.83	577.83
668.17	573.88
668.51	570.11
668.85	566.40
669.19	562.86
669.53	558.91
669.87	554.88
670.21	550.94
670.55	547.09
670.89	543.77
671.23	540.44
671.57	536.91
671.91	533.25
672.25	529.74
672.58	526.30
672.92	522.82
673.26	519.63
673.60	516.29
673.94	512.99
674.28	509.90
674.62	506.69
674.96	503.58
675.30	500.66
675.64	497.40
675.97	494.26
676.31	491.13
676.65	488.31
676.99	485.69
677.33	482.71
677.67	479.97
678.01	476.78
678.34	473.71
678.68	470.82
679.02	468.09
679.36	465.33
679.70	462.53
680.04	459.74
680.37	456.70
680.71	453.98
681.05	451.44
681.39	448.62
681.73	446.03
682.06	443.54
682.40	440.97
682.74	438.37
683.08	435.78
683.42	433.16
683.75	430.46
684.09	427.86
684.43	425.36
684.77	422.80
685.10	420.45
685.44	418.07
685.78	415.67
686.12	413.22
686.45	410.86
686.79	408.60
687.13	406.35
687.46	404.25
687.80	402.00
688.14	399.60
688.48	397.57
688.81	395.39
689.15	393.08
689.49	390.75
689.82	388.54
690.16	386.22
690.50	383.95
690.83	381.77
691.17	379.46
691.51	377.37
691.84	375.35
692.18	373.40
692.52	371.60
692.85	369.81
693.19	368.07
693.52	366.13
693.86	364.18
694.20	362.31
694.53	360.41
694.87	358.48
695.21	356.62
695.54	354.66
695.88	352.79
696.21	350.90
696.55	349.17
696.88	347.47
697.22	345.73
697.56	344.16
697.89	342.54
698.23	340.95
698.56	339.41
698.90	337.87
699.23	336.21
699.57	334.47
699.90	332.88
700.24	331.25
700.58	329.75
700.91	328.20
701.25	326.85
701.58	325.53
701.92	324.18
702.25	322.79
702.59	321.46
702.92	320.11
703.26	318.88
703.59	317.65
703.93	316.53
704.26	315.30
704.60	314.05
704.93	312.85
705.26	311.59
705.60	310.43
705.93	309.11
706.27	307.89
706.60	306.82
706.94	305.66
707.27	304.55
707.61	303.38
707.94	302.24
708.27	300.95
708.61	299.70
708.94	298.59
709.28	297.56
709.61	296.47
709.94	295.46
710.28	294.37
710.61	293.39
710.95	292.14
711.28	291.30
711.61	290.31
711.95	289.40
712.28	288.39
712.61	287.30
712.95	286.41
713.28	285.59
713.61	284.59
713.95	283.67
714.28	282.83
714.61	281.88
714.95	280.99
715.28	280.11
715.61	279.22
715.95	278.30
716.28	277.30
716.61	276.38
716.95	275.51
717.28	274.75
717.61	273.80
717.94	273.05
718.28	272.19
718.61	271.40
718.94	270.58
719.27	269.99
719.61	269.33
719.94	268.61
720.27	267.72
720.60	267.02
720.94	266.37
721.27	265.66
721.60	265.06
721.93	264.43
722.27	263.87
722.60	263.24
722.93	262.66
723.26	262.12
723.59	261.59
723.93	260.95
724.26	260.29
724.59	259.73
724.92	259.23
725.25	258.68
725.59	258.05
725.92	257.53
726.25	256.92
726.58	256.39
726.91	255.80
727.24	255.45
727.57	255.01
727.91	254.31
728.24	253.83
728.57	253.30
728.90	252.81
729.23	252.26
729.56	251.88
729.89	251.36
730.22	250.87
730.55	250.35
730.89	249.92
731.22	249.44
731.55	248.91
731.88	248.50
732.21	247.99
732.54	247.58
732.87	247.07
733.20	246.61
733.53	246.17
733.86	245.78
734.19	245.30
734.52	244.85
734.85	244.71
735.18	244.30
735.51	243.98
735.84	243.60
736.17	243.33
736.50	242.90
736.83	242.79
737.16	242.46
737.49	242.14
737.82	241.80
738.15	241.53
738.48	241.27
738.81	240.86
739.14	240.54
739.47	240.18
739.80	239.85
740.13	239.42
740.46	239.04
740.79	238.72
741.12	238.39
741.45	238.02
741.78	237.55
742.11	237.25
742.44	236.82
742.77	236.60
743.10	236.23
743.43	235.90
743.75	235.41
744.08	235.32
744.41	235.03
744.74	234.77
745.07	234.51
745.40	234.28
745.73	234.16
746.06	233.85
746.39	233.65
746.71	233.38
747.04	233.21
747.37	232.93
747.70	232.67
748.03	232.45
748.36	232.25
748.68	232.03
749.01	231.71
749.34	231.54
749.67	231.27
750.00	231.05
750.33	230.98
750.65	230.79
750.98	230.30
751.31	230.07
751.64	229.84
751.97	229.72
752.29	229.42
752.62	229.04
752.95	228.85
753.28	228.62
753.60	228.45
753.93	228.25
754.26	228.10
754.59	227.89
754.91	227.62
755.24	227.40
755.57	227.23
755.90	227.06
756.22	226.85
756.55	226.69
756.88	226.50
757.20	226.10
757.53	225.84
757.86	225.72
758.19	225.49
758.51	225.25
758.84	225.00
759.17	224.85
759.49	224.74
759.82	224.62
760.15	224.46
760.47	224.25
760.80	224.03
761.13	223.95
761.45	223.79
761.78	223.64
762.11	223.50
762.43	223.31
762.76	223.21
763.08	223.05
763.41	222.86
763.74	222.71
764.06	222.56
764.39	222.45
764.71	222.32
765.04	222.16
765.37	222.04
765.69	221.83
766.02	221.64
766.34	221.45
766.67	221.35
767.00	221.21
767.32	221.19
767.65	221.18
767.97	221.09
768.30	220.97
768.62	220.86
768.95	220.77
769.27	220.67
769.60	220.50
769.92	220.44
770.25	220.31
770.57	220.15
770.90	220.13
771.22	219.95
771.55	219.82
771.87	219.70
772.20	219.56
772.52	219.60
772.85	219.77
773.17	219.66
773.50	219.50
773.82	219.42
774.15	219.24
774.47	219.03
774.80	218.84
775.12	218.70
775.45	218.58
775.77	218.51
776.09	218.49
776.42	218.34
776.74	218.32
777.07	218.19
777.39	218.17
777.72	218.05
778.04	218.04
778.36	217.90
778.69	217.93
779.01	217.85
779.33	217.65
779.66	217.35
779.98	217.29
780.31	217.23
780.63	217.20
780.95	217.17
781.28	217.12
781.60	217.05
781.92	217.01
782.25	217.02
782.57	216.90
782.89	216.83
783.22	216.82
783.54	216.64
783.86	216.69
784.19	216.55
784.51	216.57
784.83	216.53
785.16	216.50
785.48	216.49
785.80	216.46
786.12	216.49
786.45	216.47
