SpectraSuite Data File
++++++++++++++++++++++++++++++++++++
Date: Mon Feb 25 17:30:03 EST 2013
User: group
Dark Spectrum Present: No
Reference Spectrum Present: No
Number of Sampled Component Spectra: 1
Spectrometers: USB2E7196
Integration Time (usec): 52000 (USB2E7196)
Spectra Averaged: 20 (USB2E7196)
Boxcar Smoothing: 10 (USB2E7196)
Correct for Electrical Dark: No (USB2E7196)
Strobe/Lamp Enabled: No (USB2E7196)
Correct for Detector Non-linearity: No (USB2E7196)
Correct for Stray Light: No (USB2E7196)
Number of Pixels in Processed Spectrum: 2048
>>>>>Begin Processed Spectral Data<<<<<
339.09	0.00
339.48	198.60
339.86	200.35
340.24	201.15
340.63	204.65
341.01	207.85
341.39	204.30
341.78	207.65
342.16	209.45
342.54	208.60
342.93	198.08
343.31	208.08
343.69	208.65
344.07	209.11
344.46	209.60
344.84	209.92
345.22	210.12
345.60	210.46
345.99	210.63
346.37	210.74
346.75	210.86
347.13	211.01
347.52	211.04
347.90	211.17
348.28	211.19
348.66	211.35
349.05	211.41
349.43	211.50
349.81	211.58
350.19	211.68
350.57	211.78
350.96	211.91
351.34	212.02
351.72	212.08
352.10	212.22
352.48	212.25
352.87	212.28
353.25	212.39
353.63	212.46
354.01	212.54
354.39	212.64
354.77	212.74
355.15	212.84
355.54	212.93
355.92	212.88
356.30	213.00
356.68	213.13
357.06	213.14
357.44	213.16
357.82	213.26
358.20	213.30
358.58	213.32
358.97	213.34
359.35	213.44
359.73	213.55
360.11	213.60
360.49	213.70
360.87	213.75
361.25	213.76
361.63	213.86
362.01	213.89
362.39	213.90
362.77	213.87
363.15	213.90
363.53	213.97
363.91	214.00
364.29	214.01
364.67	213.90
365.05	213.94
365.43	213.98
365.81	213.97
366.19	214.07
366.57	214.19
366.95	214.23
367.33	214.20
367.71	214.26
368.09	214.22
368.47	214.20
368.85	214.23
369.23	214.22
369.61	214.15
369.99	214.18
370.37	214.23
370.75	214.30
371.13	214.29
371.51	214.23
371.89	214.17
372.27	214.18
372.65	214.10
373.03	214.06
373.41	214.02
373.78	214.02
374.16	213.93
374.54	213.82
374.92	213.71
375.30	213.69
375.68	213.53
376.06	213.45
376.44	213.38
376.82	213.37
377.19	213.29
377.57	213.24
377.95	213.16
378.33	213.06
378.71	213.02
379.09	212.94
379.47	212.92
379.84	212.87
380.22	212.79
380.60	212.78
380.98	212.74
381.36	212.64
381.73	212.46
382.11	212.42
382.49	212.36
382.87	212.34
383.25	212.25
383.62	212.46
384.00	212.49
384.38	212.49
384.76	212.42
385.13	212.47
385.51	212.42
385.89	212.42
386.27	212.35
386.64	212.30
387.02	212.22
387.40	212.17
387.78	212.14
388.15	212.13
388.53	212.03
388.91	212.00
389.29	212.06
389.66	212.10
390.04	212.06
390.42	212.08
390.79	212.04
391.17	212.05
391.55	211.80
391.92	211.75
392.30	211.70
392.68	211.67
393.05	211.59
393.43	211.60
393.81	211.58
394.18	211.55
394.56	211.51
394.94	211.58
395.31	211.55
395.69	211.65
396.06	211.66
396.44	211.75
396.82	211.70
397.19	211.75
397.57	211.80
397.95	211.89
398.32	211.90
398.70	211.96
399.07	212.04
399.45	212.03
399.82	212.04
400.20	212.05
400.58	212.07
400.95	212.13
401.33	212.21
401.70	212.36
402.08	212.47
402.45	212.54
402.83	212.60
403.20	212.74
403.58	212.68
403.95	212.74
404.33	212.84
404.71	212.95
405.08	213.18
405.46	213.24
405.83	213.34
406.21	213.45
406.58	213.57
406.96	213.62
407.33	213.88
407.70	214.05
408.08	214.37
408.45	214.68
408.83	214.91
409.20	215.12
409.58	215.25
409.95	215.46
410.33	215.82
410.70	216.07
411.08	216.31
411.45	216.79
411.82	217.17
412.20	217.52
412.57	217.93
412.95	218.25
413.32	218.77
413.69	219.18
414.07	219.72
414.44	220.27
414.82	220.88
415.19	221.54
415.56	222.27
415.94	222.93
416.31	223.72
416.68	224.51
417.06	225.54
417.43	226.47
417.81	227.60
418.18	228.65
418.55	229.82
418.93	231.01
419.30	232.26
419.67	233.58
420.04	235.02
420.42	236.53
420.79	238.18
421.16	239.83
421.54	241.65
421.91	243.40
422.28	245.33
422.66	247.30
423.03	249.24
423.40	251.25
423.77	253.41
424.15	255.56
424.52	257.85
424.89	260.22
425.26	262.60
425.64	264.89
426.01	267.30
426.38	269.91
426.75	272.55
427.13	275.20
427.50	278.10
427.87	281.03
428.24	283.95
428.61	286.82
428.99	289.98
429.36	293.26
429.73	296.63
430.10	299.95
430.47	303.32
430.85	306.85
431.22	310.60
431.59	314.67
431.96	318.48
432.33	322.53
432.70	326.48
433.08	331.22
433.45	335.58
433.82	340.02
434.19	344.88
434.56	349.72
434.93	354.38
435.30	358.85
435.68	363.98
436.05	369.00
436.42	373.86
436.79	378.40
437.16	383.36
437.53	388.51
437.90	393.53
438.27	398.59
438.64	403.76
439.01	408.61
439.38	412.68
439.75	416.64
440.13	421.39
440.50	425.85
440.87	429.39
441.24	433.06
441.61	437.18
441.98	440.36
442.35	443.86
442.72	447.38
443.09	450.83
443.46	452.77
443.83	454.12
444.20	455.32
444.57	456.95
444.94	457.62
445.31	458.51
445.68	459.19
446.05	459.44
446.42	458.77
446.79	457.94
447.16	457.20
447.53	456.76
447.90	454.75
448.27	452.75
448.64	449.99
449.01	447.98
449.37	444.51
449.74	440.96
450.11	437.10
450.48	432.76
450.85	428.36
451.22	424.50
451.59	420.86
451.96	417.41
452.33	412.91
452.70	408.77
453.07	403.70
453.43	398.79
453.80	394.03
454.17	389.51
454.54	385.15
454.91	380.56
455.28	375.94
455.65	371.74
456.02	367.61
456.38	364.11
456.75	359.67
457.12	355.91
457.49	352.17
457.86	348.45
458.23	345.32
458.59	341.98
458.96	338.63
459.33	335.52
459.70	332.46
460.07	329.97
460.43	327.16
460.80	324.54
461.17	322.25
461.54	319.85
461.91	317.59
462.27	315.39
462.64	313.37
463.01	311.25
463.38	309.23
463.74	307.04
464.11	305.16
464.48	303.72
464.85	302.03
465.21	300.77
465.58	299.37
465.95	297.76
466.32	296.39
466.68	294.98
467.05	293.73
467.42	292.39
467.78	290.97
468.15	289.71
468.52	288.81
468.88	287.57
469.25	286.46
469.62	285.57
469.98	284.63
470.35	283.72
470.72	282.85
471.08	281.88
471.45	281.09
471.82	280.40
472.18	279.47
472.55	278.92
472.92	278.20
473.28	277.66
473.65	277.03
474.02	276.46
474.38	276.19
474.75	275.92
475.11	275.50
475.48	275.30
475.85	275.24
476.21	275.04
476.58	274.90
476.94	274.86
477.31	274.77
477.67	274.62
478.04	274.77
478.41	274.94
478.77	275.35
479.14	275.57
479.50	275.81
479.87	276.26
480.23	276.58
480.60	277.03
480.96	277.47
481.33	278.14
481.69	278.72
482.06	279.26
482.42	279.85
482.79	280.70
483.15	281.54
483.52	282.44
483.88	283.34
484.25	284.35
484.61	285.42
484.98	286.57
485.34	287.99
485.71	289.20
486.07	290.50
486.44	291.72
486.80	293.28
487.17	294.78
487.53	296.46
487.90	298.31
488.26	300.22
488.62	302.25
488.99	304.30
489.35	306.43
489.72	308.79
490.08	311.19
490.44	313.57
490.81	316.19
491.17	318.87
491.54	321.75
491.90	324.75
492.26	327.91
492.63	331.18
492.99	334.58
493.36	338.28
493.72	342.21
494.08	346.14
494.45	350.41
494.81	354.99
495.17	359.56
495.54	364.37
495.90	369.39
496.26	374.63
496.63	380.13
496.99	385.90
497.35	391.88
497.72	398.06
498.08	404.62
498.44	411.37
498.80	418.46
499.17	425.78
499.53	433.30
499.89	441.20
500.26	449.25
500.62	457.53
500.98	466.25
501.34	475.28
501.71	484.72
502.07	494.33
502.43	504.27
502.79	514.44
503.16	525.20
503.52	535.95
503.88	546.99
504.24	558.39
504.60	570.09
504.97	582.12
505.33	594.65
505.69	607.74
506.05	620.95
506.41	634.30
506.78	648.10
507.14	662.31
507.50	676.64
507.86	691.40
508.22	706.55
508.59	721.86
508.95	737.61
509.31	753.50
509.67	769.84
510.03	786.18
510.39	803.35
510.75	820.71
511.12	838.55
511.48	856.54
511.84	874.68
512.20	893.09
512.56	911.90
512.92	930.85
513.28	949.85
513.64	969.46
514.00	988.86
514.37	1008.57
514.73	1028.68
515.09	1048.98
515.45	1069.48
515.81	1090.12
516.17	1110.90
516.53	1131.64
516.89	1153.01
517.25	1174.12
517.61	1195.19
517.97	1216.12
518.33	1236.95
518.69	1258.02
519.05	1279.43
519.41	1301.18
519.77	1323.06
520.13	1344.49
520.49	1365.89
520.85	1387.83
521.21	1409.23
521.57	1431.80
521.93	1453.24
522.29	1475.13
522.65	1497.20
523.01	1518.85
523.37	1540.33
523.73	1562.07
524.09	1583.57
524.45	1604.76
524.81	1626.13
525.17	1648.03
525.53	1669.61
525.89	1691.43
526.25	1712.74
526.61	1733.37
526.97	1754.18
527.33	1774.80
527.68	1795.62
528.04	1816.00
528.40	1835.63
528.76	1855.75
529.12	1875.08
529.48	1895.98
529.84	1915.84
530.20	1935.09
530.56	1954.78
530.91	1974.77
531.27	1994.24
531.63	2013.50
531.99	2032.50
532.35	2051.22
532.71	2069.45
533.07	2088.15
533.42	2105.76
533.78	2123.83
534.14	2141.67
534.50	2157.84
534.86	2174.65
535.21	2190.28
535.57	2207.08
535.93	2223.63
536.29	2239.43
536.65	2255.38
537.00	2270.07
537.36	2284.30
537.72	2298.58
538.08	2312.65
538.44	2326.86
538.79	2341.33
539.15	2355.09
539.51	2368.58
539.87	2382.45
540.22	2395.99
540.58	2409.88
540.94	2423.30
541.29	2435.30
541.65	2446.51
542.01	2458.97
542.37	2470.15
542.72	2481.97
543.08	2491.83
543.44	2502.70
543.79	2512.44
544.15	2522.09
544.51	2532.18
544.87	2542.57
545.22	2551.05
545.58	2559.04
545.94	2565.28
546.29	2570.88
546.65	2576.57
547.01	2582.64
547.36	2587.79
547.72	2592.43
548.07	2595.98
548.43	2599.23
548.79	2602.51
549.14	2606.75
549.50	2610.33
549.86	2614.00
550.21	2617.20
550.57	2621.46
550.92	2623.48
551.28	2625.39
551.64	2627.35
551.99	2629.37
552.35	2630.16
552.70	2632.61
553.06	2634.77
553.41	2637.44
553.77	2639.96
554.13	2641.88
554.48	2643.05
554.84	2644.38
555.19	2644.98
555.55	2644.77
555.90	2644.80
556.26	2645.25
556.61	2644.83
556.97	2643.51
557.32	2642.57
557.68	2640.74
558.03	2638.74
558.39	2637.04
558.74	2636.61
559.10	2635.27
559.45	2632.91
559.81	2631.49
560.16	2628.58
560.52	2626.18
560.87	2623.02
561.23	2619.02
561.58	2616.59
561.94	2613.22
562.29	2608.99
562.64	2606.24
563.00	2603.69
563.35	2601.27
563.71	2599.04
564.06	2596.55
564.42	2594.55
564.77	2591.80
565.12	2590.01
565.48	2586.30
565.83	2583.14
566.19	2579.30
566.54	2574.39
566.89	2570.12
567.25	2566.24
567.60	2562.67
567.96	2558.91
568.31	2555.43
568.66	2551.91
569.02	2546.95
569.37	2541.85
569.72	2538.07
570.08	2533.02
570.43	2527.36
570.78	2521.60
571.14	2514.95
571.49	2508.36
571.84	2502.27
572.20	2495.57
572.55	2489.07
572.90	2482.62
573.26	2475.94
573.61	2469.29
573.96	2463.23
574.31	2456.00
574.67	2447.86
575.02	2439.50
575.37	2430.87
575.72	2422.04
576.08	2414.19
576.43	2406.05
576.78	2398.66
577.13	2390.83
577.49	2382.74
577.84	2375.35
578.19	2367.97
578.54	2361.18
578.90	2354.58
579.25	2346.25
579.60	2337.45
579.95	2328.23
580.30	2320.56
580.66	2312.57
581.01	2303.65
581.36	2294.61
581.71	2286.45
582.06	2278.51
582.42	2271.19
582.77	2262.66
583.12	2254.17
583.47	2245.86
583.82	2237.84
584.17	2229.14
584.53	2220.56
584.88	2212.21
585.23	2203.77
585.58	2194.84
585.93	2185.51
586.28	2176.47
586.63	2168.51
586.98	2160.82
587.34	2153.12
587.69	2144.63
588.04	2136.09
588.39	2128.21
588.74	2119.98
589.09	2111.75
589.44	2102.73
589.79	2094.32
590.14	2086.98
590.49	2079.08
590.84	2070.70
591.19	2062.99
591.54	2054.70
591.89	2045.00
592.25	2036.08
592.60	2026.63
592.95	2017.60
593.30	2008.73
593.65	1999.58
594.00	1989.89
594.35	1981.81
594.70	1973.04
595.05	1964.56
595.40	1956.05
595.75	1947.28
596.10	1939.49
596.45	1931.20
596.80	1923.76
597.15	1916.15
597.50	1907.45
597.85	1899.49
598.19	1891.26
598.54	1882.76
598.89	1875.14
599.24	1868.63
599.59	1861.87
599.94	1855.41
600.29	1848.39
600.64	1840.70
600.99	1832.86
601.34	1826.21
601.69	1818.18
602.04	1810.60
602.39	1803.06
602.74	1795.74
603.08	1789.27
603.43	1782.29
603.78	1774.76
604.13	1767.25
604.48	1759.36
604.83	1752.50
605.18	1745.58
605.53	1738.24
605.87	1730.93
606.22	1724.43
606.57	1716.87
606.92	1709.17
607.27	1701.48
607.62	1694.26
607.96	1687.78
608.31	1681.63
608.66	1673.96
609.01	1666.55
609.36	1658.93
609.70	1651.26
610.05	1643.59
610.40	1635.55
610.75	1627.34
611.10	1620.18
611.44	1611.28
611.79	1602.76
612.14	1594.11
612.49	1585.23
612.83	1577.19
613.18	1568.17
613.53	1558.77
613.88	1549.73
614.22	1540.89
614.57	1532.00
614.92	1523.09
615.27	1514.19
615.61	1505.13
615.96	1496.65
616.31	1488.62
616.65	1481.07
617.00	1473.28
617.35	1465.23
617.70	1456.99
618.04	1448.46
618.39	1439.50
618.74	1431.71
619.08	1423.41
619.43	1415.33
619.78	1407.92
620.12	1399.96
620.47	1392.65
620.82	1384.83
621.16	1377.05
621.51	1369.21
621.85	1361.30
622.20	1353.22
622.55	1345.30
622.89	1337.39
623.24	1329.85
623.59	1321.64
623.93	1313.28
624.28	1305.38
624.62	1297.61
624.97	1289.56
625.32	1282.31
625.66	1275.40
626.01	1268.56
626.35	1261.63
626.70	1254.17
627.04	1246.93
627.39	1239.72
627.73	1232.45
628.08	1225.69
628.43	1218.58
628.77	1211.44
629.12	1204.27
629.46	1197.70
629.81	1190.74
630.15	1183.63
630.50	1176.64
630.84	1169.74
631.19	1162.86
631.53	1156.30
631.88	1148.80
632.22	1141.79
632.57	1134.91
632.91	1127.57
633.26	1120.24
633.60	1113.32
633.95	1107.05
634.29	1100.04
634.64	1093.46
634.98	1086.75
635.32	1079.77
635.67	1073.49
636.01	1067.25
636.36	1060.80
636.70	1054.50
637.05	1048.30
637.39	1042.29
637.73	1036.15
638.08	1030.29
638.42	1024.72
638.77	1018.32
639.11	1012.64
639.45	1006.90
639.80	1000.50
640.14	994.37
640.49	988.58
640.83	982.69
641.17	976.54
641.52	970.61
641.86	964.43
642.20	958.48
642.55	952.15
642.89	945.85
643.23	939.67
643.58	934.21
643.92	928.07
644.26	921.88
644.61	915.99
644.95	910.08
645.29	904.07
645.64	897.84
645.98	891.78
646.32	886.18
646.66	880.22
647.01	874.57
647.35	869.08
647.69	862.78
648.04	857.05
648.38	851.31
648.72	845.54
649.06	839.76
649.41	834.03
649.75	828.62
650.09	822.98
650.43	817.31
650.78	811.18
651.12	805.22
651.46	799.72
651.80	793.93
652.14	788.16
652.49	782.49
652.83	776.94
653.17	771.14
653.51	765.21
653.85	759.64
654.20	754.02
654.54	748.13
654.88	743.25
655.22	737.50
655.56	731.79
655.90	726.14
656.25	720.66
656.59	715.22
656.93	710.08
657.27	705.24
657.61	700.03
657.95	695.12
658.29	690.38
658.64	685.40
658.98	680.44
659.32	675.27
659.66	670.35
660.00	665.24
660.34	660.33
660.68	655.38
661.02	650.43
661.36	645.76
661.70	641.27
662.05	636.63
662.39	632.51
662.73	628.31
663.07	624.21
663.41	620.01
663.75	615.65
664.09	611.30
664.43	606.59
664.77	602.42
665.11	598.12
665.45	593.79
665.79	589.55
666.13	585.27
666.47	581.38
666.81	577.35
667.15	573.37
667.49	569.67
667.83	566.01
668.17	562.45
668.51	558.86
668.85	555.26
669.19	551.64
669.53	547.80
669.87	543.91
670.21	540.19
670.55	536.42
670.89	533.23
671.23	529.88
671.57	526.67
671.91	523.31
672.25	519.86
672.58	516.50
672.92	513.30
673.26	510.30
673.60	507.15
673.94	503.93
674.28	500.74
674.62	497.70
674.96	494.60
675.30	491.73
675.64	488.70
675.97	485.54
676.31	482.48
676.65	479.64
676.99	477.13
677.33	474.29
677.67	471.54
678.01	468.42
678.34	465.54
678.68	462.69
679.02	459.71
679.36	457.03
679.70	454.40
680.04	451.45
680.37	448.64
680.71	445.93
681.05	443.43
681.39	441.00
681.73	438.45
682.06	435.92
682.40	433.28
682.74	430.82
683.08	428.44
683.42	425.96
683.75	423.49
684.09	420.90
684.43	418.50
684.77	416.04
685.10	413.73
685.44	411.31
685.78	408.97
686.12	406.86
686.45	404.55
686.79	402.38
687.13	400.41
687.46	398.30
687.80	396.14
688.14	393.92
688.48	391.75
688.81	389.50
689.15	387.46
689.49	385.37
689.82	383.14
690.16	380.97
690.50	378.81
690.83	376.70
691.17	374.55
691.51	372.50
691.84	370.40
692.18	368.36
692.52	366.44
692.85	364.61
693.19	362.81
693.52	360.95
693.86	359.00
694.20	357.17
694.53	355.32
694.87	353.49
695.21	351.62
695.54	349.80
695.88	348.02
696.21	346.20
696.55	344.45
696.88	342.84
697.22	341.10
697.56	339.64
697.89	338.05
698.23	336.49
698.56	334.92
698.90	333.54
699.23	332.00
699.57	330.50
699.90	328.93
700.24	327.26
700.58	325.82
700.91	324.37
701.25	322.98
701.58	321.59
701.92	320.19
702.25	318.88
702.59	317.60
702.92	316.38
703.26	315.12
703.59	313.85
703.93	312.69
704.26	311.52
704.60	310.22
704.93	309.06
705.26	307.86
705.60	306.56
705.93	305.23
706.27	304.18
706.60	303.07
706.94	302.13
707.27	301.00
707.61	299.83
707.94	298.75
708.27	297.49
708.61	296.37
708.94	295.27
709.28	294.06
709.61	292.91
709.94	291.91
710.28	290.88
710.61	289.90
710.95	288.80
711.28	287.94
711.61	286.85
711.95	285.83
712.28	284.85
712.61	283.90
712.95	283.20
713.28	282.27
713.61	281.33
713.95	280.30
714.28	279.49
714.61	278.60
714.95	277.76
715.28	276.90
715.61	276.01
715.95	275.20
716.28	274.47
716.61	273.75
716.95	272.87
717.28	272.06
717.61	271.31
717.94	270.60
718.28	269.75
718.61	269.04
718.94	268.34
719.27	267.70
719.61	267.08
719.94	266.30
720.27	265.59
720.60	264.87
720.94	264.23
721.27	263.48
721.60	262.92
721.93	262.33
722.27	261.82
722.60	261.34
722.93	260.75
723.26	260.20
723.59	259.57
723.93	259.03
724.26	258.52
724.59	257.96
724.92	257.44
725.25	256.99
725.59	256.47
725.92	255.99
726.25	255.47
726.58	255.07
726.91	254.52
727.24	253.99
727.57	253.57
727.91	253.05
728.24	252.65
728.57	252.26
728.90	251.76
729.23	251.28
729.56	250.95
729.89	250.58
730.22	250.13
730.55	249.61
730.89	249.16
731.22	248.69
731.55	248.20
731.88	247.65
732.21	247.14
732.54	246.70
732.87	246.25
733.20	245.81
733.53	245.21
733.86	244.84
734.19	244.46
734.52	244.06
734.85	243.88
735.18	243.50
735.51	243.08
735.84	242.69
736.17	242.38
736.50	241.85
736.83	241.56
737.16	241.28
737.49	241.00
737.82	240.65
738.15	240.31
738.48	240.00
738.81	239.70
739.14	239.44
739.47	239.14
739.80	238.85
740.13	238.56
740.46	238.28
740.79	237.95
741.12	237.67
741.45	237.43
741.78	237.01
742.11	236.70
742.44	236.41
742.77	236.17
743.10	235.83
743.43	235.51
743.75	235.22
744.08	235.09
744.41	234.82
744.74	234.58
745.07	234.29
745.40	234.09
745.73	233.93
746.06	233.61
746.39	233.39
746.71	233.18
747.04	232.94
747.37	232.66
747.70	232.48
748.03	232.19
748.36	231.91
748.68	231.60
749.01	231.32
749.34	231.10
749.67	230.91
750.00	230.70
750.33	230.67
750.65	230.35
750.98	229.91
751.31	229.65
751.64	229.49
751.97	229.43
752.29	229.20
752.62	228.94
752.95	228.67
753.28	228.41
753.60	228.09
753.93	227.92
754.26	227.78
754.59	227.53
754.91	227.30
755.24	227.09
755.57	226.90
755.90	226.68
756.22	226.41
756.55	226.20
756.88	225.95
757.20	225.56
757.53	225.30
757.86	225.07
758.19	224.94
758.51	224.73
758.84	224.46
759.17	224.32
759.49	224.12
759.82	224.10
760.15	224.00
760.47	223.91
760.80	223.71
761.13	223.54
761.45	223.30
761.78	223.16
762.11	223.05
762.43	222.96
762.76	222.94
763.08	222.86
763.41	222.70
763.74	222.56
764.06	222.46
764.39	222.33
764.71	222.22
765.04	222.05
765.37	221.85
765.69	221.67
766.02	221.52
766.34	221.41
766.67	221.24
767.00	221.14
767.32	221.05
767.65	221.00
767.97	220.93
768.30	220.94
768.62	220.84
768.95	220.68
769.27	220.55
769.60	220.39
769.92	220.30
770.25	220.12
770.57	220.08
770.90	219.97
771.22	219.87
771.55	219.88
771.87	219.85
772.20	219.78
772.52	219.87
772.85	220.02
773.17	219.92
773.50	219.80
773.82	219.66
774.15	219.43
774.47	219.26
774.80	219.08
775.12	218.97
775.45	218.90
775.77	218.80
776.09	218.70
776.42	218.66
776.74	218.63
777.07	218.55
777.39	218.42
777.72	218.30
778.04	218.30
778.36	218.16
778.69	218.08
779.01	218.01
779.33	217.76
779.66	217.44
779.98	217.29
780.31	217.25
780.63	217.24
780.95	217.27
781.28	217.21
781.60	217.14
781.92	217.09
782.25	217.00
782.57	216.98
782.89	216.88
783.22	216.78
783.54	216.65
783.86	216.61
784.19	216.55
784.51	216.58
784.83	216.49
785.16	216.36
785.48	216.26
785.80	216.20
786.12	216.15
786.45	216.07
786.77	216.09
