SpectraSuite Data File
++++++++++++++++++++++++++++++++++++
Date: Mon Feb 25 17:34:28 EST 2013
User: group
Dark Spectrum Present: No
Reference Spectrum Present: No
Number of Sampled Component Spectra: 1
Spectrometers: USB2E7196
Integration Time (usec): 52000 (USB2E7196)
Spectra Averaged: 20 (USB2E7196)
Boxcar Smoothing: 10 (USB2E7196)
Correct for Electrical Dark: No (USB2E7196)
Strobe/Lamp Enabled: No (USB2E7196)
Correct for Detector Non-linearity: No (USB2E7196)
Correct for Stray Light: No (USB2E7196)
Number of Pixels in Processed Spectrum: 2048
>>>>>Begin Processed Spectral Data<<<<<
339.09	0.00
339.48	198.95
339.86	201.05
340.24	202.05
340.63	204.45
341.01	207.40
341.39	204.25
341.78	206.85
342.16	209.35
342.54	210.05
342.93	198.58
343.31	208.62
343.69	209.20
344.07	209.70
344.46	210.18
344.84	210.50
345.22	210.71
345.60	211.09
345.99	211.27
346.37	211.35
346.75	211.47
347.13	211.55
347.52	211.60
347.90	211.71
348.28	211.75
348.66	211.79
349.05	211.72
349.43	211.82
349.81	211.78
350.19	211.84
350.57	211.84
350.96	211.92
351.34	211.96
351.72	212.04
352.10	212.09
352.48	212.09
352.87	212.15
353.25	212.15
353.63	212.21
354.01	212.32
354.39	212.42
354.77	212.39
355.15	212.52
355.54	212.58
355.92	212.52
356.30	212.59
356.68	212.74
357.06	212.83
357.44	212.86
357.82	212.82
358.20	212.84
358.58	212.91
358.97	212.93
359.35	213.05
359.73	213.12
360.11	213.16
360.49	213.20
360.87	213.21
361.25	213.32
361.63	213.33
362.01	213.39
362.39	213.41
362.77	213.46
363.15	213.41
363.53	213.40
363.91	213.48
364.29	213.55
364.67	213.41
365.05	213.41
365.43	213.44
365.81	213.54
366.19	213.70
366.57	213.70
366.95	213.70
367.33	213.57
367.71	213.55
368.09	213.55
368.47	213.56
368.85	213.61
369.23	213.68
369.61	213.61
369.99	213.60
370.37	213.66
370.75	213.79
371.13	213.71
371.51	213.68
371.89	213.68
372.27	213.66
372.65	213.61
373.03	213.57
373.41	213.55
373.78	213.57
374.16	213.38
374.54	213.35
374.92	213.24
375.30	213.25
375.68	213.17
376.06	213.13
376.44	213.08
376.82	213.05
377.19	212.88
377.57	212.80
377.95	212.69
378.33	212.62
378.71	212.37
379.09	212.34
379.47	212.33
379.84	212.26
380.22	212.15
380.60	212.15
380.98	212.12
381.36	212.05
381.73	211.95
382.11	211.96
382.49	211.91
382.87	211.90
383.25	211.87
383.62	212.01
384.00	211.93
384.38	211.92
384.76	211.86
385.13	211.92
385.51	211.93
385.89	211.89
386.27	211.81
386.64	211.85
387.02	211.78
387.40	211.69
387.78	211.74
388.15	211.76
388.53	211.68
388.91	211.66
389.29	211.64
389.66	211.65
390.04	211.59
390.42	211.58
390.79	211.58
391.17	211.56
391.55	211.36
391.92	211.40
392.30	211.40
392.68	211.40
393.05	211.32
393.43	211.35
393.81	211.33
394.18	211.34
394.56	211.35
394.94	211.50
395.31	211.47
395.69	211.43
396.06	211.37
396.44	211.40
396.82	211.36
397.19	211.43
397.57	211.44
397.95	211.51
398.32	211.52
398.70	211.62
399.07	211.71
399.45	211.77
399.82	211.81
400.20	211.79
400.58	211.78
400.95	211.83
401.33	211.91
401.70	212.10
402.08	212.22
402.45	212.25
402.83	212.30
403.20	212.45
403.58	212.54
403.95	212.68
404.33	212.77
404.71	212.93
405.08	213.13
405.46	213.25
405.83	213.35
406.21	213.45
406.58	213.57
406.96	213.74
407.33	213.88
407.70	214.06
408.08	214.41
408.45	214.74
408.83	214.94
409.20	215.16
409.58	215.36
409.95	215.56
410.33	215.88
410.70	216.16
411.08	216.47
411.45	216.81
411.82	217.15
412.20	217.60
412.57	218.10
412.95	218.43
413.32	218.97
413.69	219.45
414.07	220.06
414.44	220.64
414.82	221.26
415.19	222.01
415.56	222.73
415.94	223.45
416.31	224.29
416.68	225.24
417.06	226.24
417.43	227.20
417.81	228.35
418.18	229.50
418.55	230.70
418.93	231.98
419.30	233.31
419.67	234.79
420.04	236.23
420.42	237.69
420.79	239.40
421.16	241.15
421.54	243.04
421.91	244.94
422.28	246.87
422.66	248.92
423.03	250.98
423.40	253.17
423.77	255.43
424.15	257.66
424.52	259.97
424.89	262.54
425.26	264.98
425.64	267.32
426.01	269.88
426.38	272.58
426.75	275.40
427.13	278.13
427.50	281.12
427.87	284.13
428.24	287.22
428.61	290.21
428.99	293.49
429.36	297.01
429.73	300.55
430.10	304.07
430.47	307.56
430.85	311.15
431.22	314.97
431.59	319.10
431.96	323.03
432.33	327.40
432.70	331.60
433.08	336.62
433.45	341.30
433.82	345.89
434.19	351.05
434.56	356.07
434.93	360.92
435.30	365.74
435.68	371.14
436.05	376.43
436.42	381.72
436.79	386.43
437.16	391.60
437.53	396.87
437.90	402.11
438.27	407.39
438.64	412.86
439.01	418.00
439.38	422.36
439.75	426.72
440.13	431.48
440.50	436.03
440.87	439.76
441.24	443.54
441.61	447.82
441.98	450.85
442.35	454.47
442.72	458.15
443.09	461.57
443.46	463.75
443.83	465.15
444.20	466.24
444.57	468.01
444.94	468.63
445.31	469.35
445.68	470.25
446.05	470.47
446.42	469.90
446.79	469.01
447.16	468.08
447.53	467.46
447.90	465.44
448.27	463.33
448.64	460.35
449.01	458.29
449.37	454.67
449.74	451.18
450.11	447.03
450.48	442.58
450.85	437.99
451.22	433.85
451.59	430.09
451.96	426.51
452.33	421.68
452.70	417.37
453.07	412.30
453.43	406.86
453.80	401.90
454.17	397.03
454.54	392.49
454.91	387.74
455.28	382.98
455.65	378.53
456.02	374.29
456.38	370.58
456.75	365.92
457.12	362.08
457.49	358.24
457.86	354.37
458.23	351.13
458.59	347.64
458.96	344.19
459.33	340.88
459.70	337.68
460.07	335.15
460.43	332.29
460.80	329.63
461.17	327.37
461.54	324.89
461.91	322.55
462.27	320.18
462.64	318.19
463.01	315.85
463.38	313.72
463.74	311.38
464.11	309.49
464.48	307.84
464.85	306.04
465.21	304.73
465.58	303.36
465.95	301.72
466.32	300.27
466.68	298.75
467.05	297.41
467.42	296.08
467.78	294.69
468.15	293.31
468.52	292.26
468.88	290.92
469.25	289.69
469.62	288.71
469.98	287.65
470.35	286.65
470.72	285.89
471.08	284.90
471.45	284.17
471.82	283.42
472.18	282.57
472.55	281.93
472.92	281.19
473.28	280.57
473.65	279.93
474.02	279.34
474.38	279.05
474.75	278.75
475.11	278.26
475.48	277.96
475.85	277.72
476.21	277.45
476.58	277.32
476.94	277.33
477.31	277.19
477.67	277.15
478.04	277.27
478.41	277.33
478.77	277.71
479.14	277.84
479.50	278.07
479.87	278.41
480.23	278.83
480.60	279.10
480.96	279.52
481.33	280.10
481.69	280.81
482.06	281.26
482.42	281.78
482.79	282.51
483.15	283.30
483.52	284.41
483.88	285.43
484.25	286.39
484.61	287.40
484.98	288.52
485.34	289.82
485.71	291.17
486.07	292.52
486.44	293.84
486.80	295.40
487.17	296.95
487.53	298.71
487.90	300.45
488.26	302.46
488.62	304.50
488.99	306.52
489.35	308.60
489.72	311.01
490.08	313.48
490.44	315.97
490.81	318.63
491.17	321.19
491.54	323.95
491.90	326.98
492.26	330.15
492.63	333.60
492.99	336.95
493.36	340.57
493.72	344.43
494.08	348.42
494.45	352.80
494.81	357.36
495.17	361.93
495.54	366.91
495.90	371.93
496.26	377.13
496.63	382.49
496.99	388.10
497.35	394.05
497.72	400.28
498.08	406.73
498.44	413.37
498.80	420.60
499.17	428.08
499.53	435.73
499.89	443.75
500.26	451.69
500.62	460.09
500.98	468.93
501.34	478.06
501.71	487.55
502.07	497.09
502.43	506.94
502.79	517.26
503.16	527.92
503.52	538.96
503.88	550.24
504.24	562.06
504.60	574.06
504.97	586.33
505.33	598.87
505.69	612.30
506.05	625.94
506.41	639.50
506.78	653.44
507.14	667.64
507.50	682.22
507.86	697.20
508.22	712.68
508.59	728.27
508.95	744.25
509.31	760.60
509.67	777.34
510.03	794.33
510.39	811.73
510.75	829.35
511.12	847.47
511.48	865.87
511.84	884.52
512.20	903.16
512.56	922.48
512.92	941.97
513.28	961.50
513.64	981.17
514.00	1001.05
514.37	1021.38
514.73	1042.20
515.09	1063.19
515.45	1084.42
515.81	1105.78
516.17	1127.08
516.53	1148.52
516.89	1170.03
517.25	1191.73
517.61	1213.56
517.97	1235.40
518.33	1257.07
518.69	1279.02
519.05	1301.08
519.41	1323.09
519.77	1345.85
520.13	1368.35
520.49	1390.74
520.85	1413.35
521.21	1435.93
521.57	1459.04
521.93	1481.34
522.29	1504.51
522.65	1527.01
523.01	1549.55
523.37	1571.57
523.73	1594.11
524.09	1616.71
524.45	1638.99
524.81	1661.46
525.17	1684.17
525.53	1706.56
525.89	1729.11
526.25	1751.04
526.61	1772.41
526.97	1794.42
527.33	1815.81
527.68	1837.19
528.04	1858.58
528.40	1879.13
528.76	1900.20
529.12	1920.92
529.48	1942.74
529.84	1963.03
530.20	1983.50
530.56	2004.21
530.91	2025.37
531.27	2045.89
531.63	2065.87
531.99	2086.14
532.35	2105.70
532.71	2124.95
533.07	2144.77
533.42	2163.47
533.78	2182.62
534.14	2201.53
534.50	2218.96
534.86	2237.25
535.21	2254.31
535.57	2272.40
535.93	2289.81
536.29	2306.72
536.65	2323.53
537.00	2339.12
537.36	2354.37
537.72	2369.83
538.08	2385.56
538.44	2400.72
538.79	2416.14
539.15	2431.18
539.51	2445.78
539.87	2461.04
540.22	2475.57
540.58	2490.55
540.94	2505.50
541.29	2518.65
541.65	2531.16
542.01	2544.61
542.37	2556.75
542.72	2568.91
543.08	2579.56
543.44	2591.66
543.79	2602.17
544.15	2612.94
544.51	2624.13
544.87	2635.30
545.22	2644.80
545.58	2652.82
545.94	2660.47
546.29	2666.77
546.65	2673.04
547.01	2679.47
547.36	2684.87
547.72	2690.32
548.07	2694.32
548.43	2698.10
548.79	2702.02
549.14	2706.69
549.50	2711.19
549.86	2715.18
550.21	2719.39
550.57	2724.01
550.92	2727.10
551.28	2730.01
551.64	2732.36
551.99	2734.80
552.35	2736.49
552.70	2739.15
553.06	2742.15
553.41	2745.13
553.77	2748.40
554.13	2750.80
554.48	2752.80
554.84	2754.82
555.19	2755.60
555.55	2755.96
555.90	2756.49
556.26	2757.33
556.61	2757.28
556.97	2755.89
557.32	2755.66
557.68	2754.20
558.03	2752.49
558.39	2750.74
558.74	2750.56
559.10	2749.42
559.45	2747.54
559.81	2746.59
560.16	2744.05
560.52	2741.69
560.87	2738.80
561.23	2735.22
561.58	2733.29
561.94	2730.20
562.29	2726.57
562.64	2724.39
563.00	2722.25
563.35	2720.04
563.71	2718.18
564.06	2716.08
564.42	2714.67
564.77	2712.19
565.12	2710.49
565.48	2707.60
565.83	2704.64
566.19	2700.94
566.54	2696.69
566.89	2692.89
567.25	2689.16
567.60	2686.00
567.96	2682.60
568.31	2679.00
568.66	2675.16
569.02	2670.16
569.37	2665.11
569.72	2661.09
570.08	2656.01
570.43	2650.35
570.78	2644.99
571.14	2638.68
571.49	2632.16
571.84	2625.88
572.20	2619.17
572.55	2612.61
572.90	2605.86
573.26	2598.84
573.61	2591.90
573.96	2585.36
574.31	2577.88
574.67	2569.81
575.02	2561.20
575.37	2552.50
575.72	2543.73
576.08	2536.22
576.43	2527.77
576.78	2519.93
577.13	2511.78
577.49	2503.54
577.84	2495.89
578.19	2487.71
578.54	2479.99
578.90	2473.19
579.25	2464.56
579.60	2455.10
579.95	2445.50
580.30	2437.26
580.66	2428.97
581.01	2419.88
581.36	2410.53
581.71	2401.64
582.06	2392.80
582.42	2384.69
582.77	2375.21
583.12	2365.88
583.47	2356.96
583.82	2348.58
584.17	2339.30
584.53	2329.98
584.88	2320.99
585.23	2311.27
585.58	2301.59
585.93	2291.92
586.28	2282.47
586.63	2273.61
586.98	2265.35
587.34	2257.14
587.69	2247.84
588.04	2238.56
588.39	2229.78
588.74	2220.75
589.09	2212.13
589.44	2202.49
589.79	2193.84
590.14	2186.01
590.49	2177.82
590.84	2168.66
591.19	2160.34
591.54	2151.59
591.89	2141.72
592.25	2132.39
592.60	2123.39
592.95	2114.30
593.30	2104.78
593.65	2094.83
594.00	2084.86
594.35	2076.48
594.70	2067.14
595.05	2058.54
595.40	2049.87
595.75	2040.59
596.10	2032.35
596.45	2023.65
596.80	2015.89
597.15	2007.26
597.50	1998.04
597.85	1989.34
598.19	1980.38
598.54	1971.46
598.89	1963.67
599.24	1956.84
599.59	1949.45
599.94	1941.93
600.29	1934.01
600.64	1926.02
600.99	1917.41
601.34	1910.23
601.69	1901.45
602.04	1893.17
602.39	1884.94
602.74	1876.97
603.08	1870.26
603.43	1862.85
603.78	1854.60
604.13	1846.38
604.48	1838.54
604.83	1831.54
605.18	1824.51
605.53	1816.96
605.87	1809.17
606.22	1801.74
606.57	1793.52
606.92	1785.26
607.27	1777.10
607.62	1769.54
607.96	1762.70
608.31	1756.28
608.66	1748.27
609.01	1740.56
609.36	1732.99
609.70	1724.75
610.05	1717.14
610.40	1708.84
610.75	1700.14
611.10	1692.50
611.44	1683.50
611.79	1674.48
612.14	1664.95
612.49	1655.26
612.83	1646.50
613.18	1636.94
613.53	1627.40
613.88	1617.77
614.22	1608.88
614.57	1599.60
614.92	1590.18
615.27	1580.63
615.61	1571.05
615.96	1561.83
616.31	1553.24
616.65	1545.03
617.00	1536.82
617.35	1527.76
617.70	1518.46
618.04	1509.63
618.39	1500.24
618.74	1491.78
619.08	1482.94
619.43	1474.72
619.78	1466.86
620.12	1459.00
620.47	1451.26
620.82	1442.53
621.16	1434.14
621.51	1425.51
621.85	1417.39
622.20	1408.77
622.55	1400.07
622.89	1391.77
623.24	1383.88
623.59	1375.17
623.93	1366.55
624.28	1358.11
624.62	1349.97
624.97	1341.89
625.32	1334.00
625.66	1326.38
626.01	1318.91
626.35	1311.51
626.70	1303.86
627.04	1296.30
627.39	1288.49
627.73	1280.79
628.08	1273.99
628.43	1266.64
628.77	1259.10
629.12	1251.32
629.46	1244.90
629.81	1237.76
630.15	1230.50
630.50	1223.07
630.84	1215.64
631.19	1208.39
631.53	1201.35
631.88	1193.70
632.22	1185.92
632.57	1178.87
632.91	1171.59
633.26	1164.09
633.60	1156.98
633.95	1149.94
634.29	1142.47
634.64	1135.43
634.98	1128.38
635.32	1121.19
635.67	1114.83
636.01	1108.36
636.36	1101.78
636.70	1094.63
637.05	1088.14
637.39	1081.65
637.73	1075.44
638.08	1069.63
638.42	1063.70
638.77	1057.16
639.11	1051.03
639.45	1045.24
639.80	1038.60
640.14	1032.21
640.49	1025.96
640.83	1019.53
641.17	1012.95
641.52	1006.96
641.86	1000.52
642.20	994.36
642.55	987.52
642.89	980.89
643.23	974.30
643.58	968.23
643.92	961.78
644.26	955.38
644.61	949.11
644.95	942.70
645.29	936.39
645.64	929.60
645.98	923.45
646.32	917.41
646.66	911.15
647.01	905.15
647.35	899.10
647.69	892.91
648.04	886.94
648.38	881.12
648.72	874.91
649.06	868.78
649.41	862.75
649.75	856.96
650.09	850.95
650.43	845.00
650.78	838.68
651.12	832.75
651.46	826.95
651.80	821.01
652.14	815.08
652.49	809.06
652.83	803.23
653.17	797.16
653.51	791.27
653.85	785.41
654.20	779.52
654.54	773.71
654.88	768.21
655.22	762.36
655.56	756.49
655.90	750.79
656.25	745.24
656.59	739.56
656.93	734.54
657.27	729.26
657.61	723.76
657.95	718.77
658.29	713.61
658.64	708.29
658.98	703.14
659.32	697.70
659.66	692.51
660.00	687.35
660.34	682.23
660.68	677.02
661.02	672.09
661.36	667.29
661.70	662.49
662.05	657.70
662.39	653.25
662.73	648.72
663.07	644.30
663.41	639.82
663.75	635.33
664.09	630.45
664.43	625.65
664.77	621.15
665.11	616.69
665.45	612.27
665.79	607.94
666.13	603.54
666.47	599.42
666.81	595.16
667.15	591.03
667.49	587.02
667.83	583.06
668.17	579.14
668.51	575.35
668.85	571.38
669.19	567.65
669.53	563.60
669.87	559.52
670.21	555.53
670.55	551.67
670.89	548.13
671.23	544.74
671.57	541.30
671.91	537.84
672.25	534.14
672.58	530.62
672.92	527.08
673.26	523.88
673.60	520.63
673.94	517.48
674.28	514.12
674.62	510.93
674.96	507.79
675.30	504.67
675.64	501.45
675.97	498.38
676.31	495.28
676.65	492.52
676.99	489.96
677.33	486.94
677.67	484.07
678.01	480.91
678.34	478.03
678.68	475.17
679.02	472.15
679.36	469.38
679.70	466.62
680.04	463.71
680.37	460.74
680.71	457.92
681.05	455.12
681.39	452.50
681.73	449.83
682.06	447.24
682.40	444.61
682.74	442.01
683.08	439.37
683.42	436.73
683.75	434.05
684.09	431.41
684.43	429.02
684.77	426.24
685.10	423.78
685.44	421.20
685.78	418.72
686.12	416.52
686.45	414.14
686.79	411.75
687.13	409.69
687.46	407.33
687.80	405.18
688.14	402.87
688.48	400.70
688.81	398.33
689.15	396.03
689.49	393.70
689.82	391.41
690.16	389.18
690.50	386.82
690.83	384.65
691.17	382.42
691.51	380.24
691.84	378.28
692.18	376.24
692.52	374.26
692.85	372.39
693.19	370.45
693.52	368.50
693.86	366.55
694.20	364.63
694.53	362.83
694.87	360.74
695.21	358.89
695.54	356.86
695.88	355.07
696.21	353.24
696.55	351.46
696.88	349.73
697.22	348.09
697.56	346.56
697.89	344.83
698.23	343.21
698.56	341.61
698.90	340.17
699.23	338.49
699.57	336.90
699.90	335.17
700.24	333.45
700.58	331.85
700.91	330.27
701.25	328.81
701.58	327.33
701.92	325.96
702.25	324.52
702.59	323.22
702.92	321.87
703.26	320.55
703.59	319.28
703.93	318.10
704.26	316.75
704.60	315.48
704.93	314.16
705.26	312.90
705.60	311.67
705.93	310.26
706.27	309.16
706.60	308.00
706.94	306.96
707.27	305.80
707.61	304.68
707.94	303.52
708.27	302.20
708.61	301.01
708.94	299.85
709.28	298.72
709.61	297.60
709.94	296.60
710.28	295.49
710.61	294.49
710.95	293.23
711.28	292.22
711.61	291.06
711.95	290.14
712.28	289.05
712.61	288.08
712.95	287.21
713.28	286.27
713.61	285.22
713.95	284.21
714.28	283.35
714.61	282.39
714.95	281.60
715.28	280.76
715.61	279.89
715.95	279.04
716.28	278.14
716.61	277.24
716.95	276.24
717.28	275.36
717.61	274.52
717.94	273.75
718.28	272.85
718.61	272.13
718.94	271.30
719.27	270.60
719.61	269.82
719.94	269.10
720.27	268.31
720.60	267.60
720.94	266.89
721.27	266.13
721.60	265.59
721.93	264.85
722.27	264.28
722.60	263.70
722.93	263.05
723.26	262.50
723.59	261.88
723.93	261.35
724.26	260.82
724.59	260.27
724.92	259.73
725.25	259.28
725.59	258.75
725.92	258.22
726.25	257.69
726.58	257.14
726.91	256.54
727.24	256.00
727.57	255.53
727.91	255.00
728.24	254.55
728.57	253.91
728.90	253.44
729.23	252.98
729.56	252.54
729.89	252.08
730.22	251.56
730.55	251.12
730.89	250.66
731.22	250.17
731.55	249.69
731.88	249.25
732.21	248.75
732.54	248.27
732.87	247.82
733.20	247.32
733.53	246.93
733.86	246.57
734.19	246.14
734.52	245.76
734.85	245.56
735.18	245.10
735.51	244.80
735.84	244.42
736.17	244.02
736.50	243.57
736.83	243.43
737.16	243.06
737.49	242.74
737.82	242.32
738.15	241.97
738.48	241.62
738.81	241.15
739.14	240.79
739.47	240.39
739.80	240.05
740.13	239.75
740.46	239.33
740.79	238.93
741.12	238.65
741.45	238.22
741.78	237.83
742.11	237.69
742.44	237.40
742.77	237.18
743.10	236.84
743.43	236.52
743.75	235.96
744.08	235.84
744.41	235.46
744.74	235.16
745.07	234.77
745.40	234.62
745.73	234.46
746.06	234.17
746.39	233.91
746.71	233.64
747.04	233.37
747.37	233.16
747.70	232.91
748.03	232.61
748.36	232.46
748.68	232.15
749.01	231.74
749.34	231.47
749.67	231.21
750.00	230.95
750.33	230.81
750.65	230.57
750.98	230.19
751.31	229.94
751.64	229.73
751.97	229.71
752.29	229.39
752.62	229.14
752.95	228.91
753.28	228.71
753.60	228.53
753.93	228.28
754.26	228.05
754.59	227.78
754.91	227.60
755.24	227.32
755.57	227.12
755.90	226.97
756.22	226.70
756.55	226.42
756.88	226.22
757.20	225.93
757.53	225.75
757.86	225.43
758.19	225.27
758.51	225.12
758.84	224.85
759.17	224.68
759.49	224.50
759.82	224.41
760.15	224.20
760.47	224.02
760.80	223.89
761.13	223.80
761.45	223.65
761.78	223.39
762.11	223.29
762.43	223.10
762.76	222.98
763.08	222.93
763.41	222.83
763.74	222.70
764.06	222.58
764.39	222.46
764.71	222.43
765.04	222.34
765.37	222.16
765.69	221.98
766.02	221.86
766.34	221.73
766.67	221.57
767.00	221.55
767.32	221.50
767.65	221.45
767.97	221.38
768.30	221.34
768.62	221.29
768.95	221.14
769.27	221.05
769.60	220.97
769.92	220.76
770.25	220.63
770.57	220.47
770.90	220.41
771.22	220.21
771.55	220.10
771.87	219.99
772.20	219.95
772.52	220.02
772.85	220.12
773.17	220.06
773.50	219.95
773.82	219.79
774.15	219.65
774.47	219.42
774.80	219.27
775.12	219.15
775.45	219.12
775.77	219.05
776.09	219.01
776.42	218.87
776.74	218.89
777.07	218.79
777.39	218.70
777.72	218.50
778.04	218.54
778.36	218.45
778.69	218.42
779.01	218.27
779.33	218.09
779.66	217.71
779.98	217.59
780.31	217.46
780.63	217.50
780.95	217.44
781.28	217.34
781.60	217.20
781.92	217.14
782.25	217.01
782.57	216.96
782.89	216.84
783.22	216.78
783.54	216.69
783.86	216.72
784.19	216.70
784.51	216.75
784.83	216.63
785.16	216.55
785.48	216.54
785.80	216.50
786.12	216.41
786.45	216.50
