SpectraSuite Data File
++++++++++++++++++++++++++++++++++++
Date: Mon Feb 25 17:34:01 EST 2013
User: group
Dark Spectrum Present: No
Reference Spectrum Present: No
Number of Sampled Component Spectra: 1
Spectrometers: USB2E7196
Integration Time (usec): 52000 (USB2E7196)
Spectra Averaged: 20 (USB2E7196)
Boxcar Smoothing: 10 (USB2E7196)
Correct for Electrical Dark: No (USB2E7196)
Strobe/Lamp Enabled: No (USB2E7196)
Correct for Detector Non-linearity: No (USB2E7196)
Correct for Stray Light: No (USB2E7196)
Number of Pixels in Processed Spectrum: 2048
>>>>>Begin Processed Spectral Data<<<<<
339.09	0.00
339.48	198.25
339.86	201.25
340.24	201.50
340.63	203.10
341.01	206.45
341.39	205.70
341.78	208.55
342.16	208.55
342.54	209.15
342.93	198.17
343.31	208.14
343.69	208.70
344.07	209.11
344.46	209.54
344.84	209.99
345.22	210.22
345.60	210.47
345.99	210.59
346.37	210.70
346.75	210.79
347.13	210.85
347.52	210.92
347.90	211.01
348.28	211.09
348.66	211.10
349.05	211.12
349.43	211.18
349.81	211.16
350.19	211.12
350.57	211.12
350.96	211.21
351.34	211.32
351.72	211.37
352.10	211.42
352.48	211.52
352.87	211.59
353.25	211.61
353.63	211.62
354.01	211.66
354.39	211.75
354.77	211.79
355.15	211.96
355.54	212.04
355.92	211.98
356.30	211.99
356.68	212.22
357.06	212.30
357.44	212.29
357.82	212.38
358.20	212.50
358.58	212.58
358.97	212.63
359.35	212.70
359.73	212.88
360.11	212.94
360.49	212.96
360.87	212.95
361.25	213.05
361.63	213.21
362.01	213.32
362.39	213.36
362.77	213.51
363.15	213.49
363.53	213.54
363.91	213.69
364.29	213.67
364.67	213.57
365.05	213.65
365.43	213.75
365.81	213.81
366.19	213.98
366.57	214.04
366.95	214.12
367.33	214.15
367.71	214.12
368.09	214.21
368.47	214.26
368.85	214.24
369.23	214.25
369.61	214.16
369.99	214.15
370.37	214.19
370.75	214.16
371.13	214.11
371.51	214.07
371.89	214.03
372.27	214.12
372.65	214.08
373.03	214.06
373.41	214.00
373.78	213.98
374.16	213.74
374.54	213.72
374.92	213.70
375.30	213.63
375.68	213.59
376.06	213.55
376.44	213.45
376.82	213.41
377.19	213.35
377.57	213.35
377.95	213.29
378.33	213.15
378.71	213.05
379.09	213.08
379.47	213.04
379.84	212.92
380.22	212.83
380.60	212.77
380.98	212.66
381.36	212.67
381.73	212.56
382.11	212.64
382.49	212.55
382.87	212.42
383.25	212.42
383.62	212.48
384.00	212.45
384.38	212.48
384.76	212.55
385.13	212.67
385.51	212.63
385.89	212.54
386.27	212.58
386.64	212.60
387.02	212.55
387.40	212.49
387.78	212.55
388.15	212.55
388.53	212.51
388.91	212.45
389.29	212.35
389.66	212.37
390.04	212.27
390.42	212.25
390.79	212.18
391.17	212.09
391.55	211.89
391.92	211.80
392.30	211.76
392.68	211.71
393.05	211.62
393.43	211.67
393.81	211.69
394.18	211.60
394.56	211.52
394.94	211.51
395.31	211.46
395.69	211.45
396.06	211.46
396.44	211.54
396.82	211.53
397.19	211.66
397.57	211.69
397.95	211.79
398.32	211.79
398.70	211.84
399.07	211.94
399.45	212.00
399.82	212.05
400.20	211.97
400.58	211.91
400.95	211.91
401.33	211.96
401.70	212.12
402.08	212.17
402.45	212.28
402.83	212.38
403.20	212.52
403.58	212.62
403.95	212.68
404.33	212.72
404.71	212.85
405.08	213.05
405.46	213.13
405.83	213.24
406.21	213.39
406.58	213.55
406.96	213.72
407.33	213.86
407.70	214.10
408.08	214.60
408.45	214.91
408.83	215.12
409.20	215.34
409.58	215.49
409.95	215.81
410.33	216.05
410.70	216.32
411.08	216.63
411.45	216.99
411.82	217.39
412.20	217.83
412.57	218.42
412.95	218.72
413.32	219.21
413.69	219.71
414.07	220.30
414.44	220.94
414.82	221.53
415.19	222.31
415.56	223.01
415.94	223.67
416.31	224.56
416.68	225.44
417.06	226.39
417.43	227.41
417.81	228.59
418.18	229.74
418.55	230.94
418.93	232.28
419.30	233.54
419.67	234.93
420.04	236.36
420.42	237.82
420.79	239.66
421.16	241.40
421.54	243.29
421.91	245.09
422.28	247.11
422.66	249.19
423.03	251.31
423.40	253.44
423.77	255.65
424.15	257.85
424.52	260.22
424.89	262.92
425.26	265.42
425.64	267.68
426.01	270.27
426.38	272.89
426.75	275.59
427.13	278.49
427.50	281.49
427.87	284.58
428.24	287.62
428.61	290.52
428.99	293.88
429.36	297.37
429.73	300.86
430.10	304.21
430.47	307.80
430.85	311.35
431.22	315.19
431.59	319.35
431.96	323.34
432.33	327.70
432.70	331.77
433.08	336.68
433.45	341.38
433.82	345.93
434.19	351.25
434.56	356.22
434.93	360.97
435.30	365.70
435.68	371.03
436.05	376.22
436.42	381.33
436.79	386.07
437.16	391.10
437.53	396.55
437.90	401.90
438.27	407.19
438.64	412.61
439.01	417.59
439.38	421.98
439.75	426.12
440.13	430.93
440.50	435.46
440.87	439.09
441.24	442.92
441.61	447.28
441.98	450.21
442.35	453.92
442.72	457.58
443.09	461.16
443.46	463.24
443.83	464.60
444.20	465.85
444.57	467.65
444.94	468.28
445.31	469.00
445.68	469.64
446.05	469.70
446.42	469.10
446.79	468.37
447.16	467.40
447.53	466.79
447.90	464.71
448.27	462.57
448.64	459.67
449.01	457.46
449.37	453.78
449.74	450.27
450.11	446.07
450.48	441.57
450.85	436.96
451.22	432.93
451.59	429.15
451.96	425.39
452.33	420.48
452.70	416.31
453.07	411.16
453.43	405.97
453.80	401.00
454.17	396.12
454.54	391.56
454.91	386.85
455.28	382.10
455.65	377.72
456.02	373.41
456.38	369.73
456.75	365.10
457.12	361.21
457.49	357.44
457.86	353.60
458.23	350.45
458.59	346.91
458.96	343.44
459.33	340.33
459.70	337.27
460.07	334.68
460.43	331.76
460.80	329.01
461.17	326.66
461.54	324.19
461.91	321.89
462.27	319.51
462.64	317.46
463.01	315.23
463.38	313.10
463.74	310.89
464.11	309.00
464.48	307.43
464.85	305.66
465.21	304.34
465.58	302.94
465.95	301.09
466.32	299.61
466.68	298.15
467.05	296.69
467.42	295.34
467.78	293.88
468.15	292.48
468.52	291.49
468.88	290.16
469.25	289.04
469.62	287.99
469.98	286.96
470.35	286.03
470.72	285.20
471.08	284.26
471.45	283.54
471.82	282.75
472.18	281.85
472.55	281.26
472.92	280.55
473.28	280.00
473.65	279.46
474.02	278.97
474.38	278.56
474.75	278.24
475.11	277.85
475.48	277.67
475.85	277.48
476.21	277.22
476.58	277.00
476.94	276.95
477.31	276.95
477.67	276.97
478.04	276.98
478.41	277.08
478.77	277.31
479.14	277.44
479.50	277.62
479.87	278.05
480.23	278.50
480.60	278.81
480.96	279.20
481.33	279.90
481.69	280.49
482.06	281.05
482.42	281.67
482.79	282.34
483.15	283.20
483.52	284.26
483.88	285.22
484.25	286.35
484.61	287.33
484.98	288.40
485.34	289.70
485.71	291.06
486.07	292.50
486.44	293.76
486.80	295.33
487.17	296.93
487.53	298.60
487.90	300.34
488.26	302.32
488.62	304.42
488.99	306.48
489.35	308.70
489.72	311.06
490.08	313.49
490.44	315.94
490.81	318.51
491.17	321.16
491.54	324.14
491.90	327.12
492.26	330.37
492.63	333.80
492.99	337.26
493.36	340.97
493.72	344.83
494.08	348.93
494.45	353.19
494.81	357.75
495.17	362.33
495.54	367.23
495.90	372.22
496.26	377.40
496.63	382.79
496.99	388.43
497.35	394.41
497.72	400.69
498.08	407.29
498.44	414.15
498.80	421.27
499.17	428.62
499.53	436.28
499.89	444.39
500.26	452.45
500.62	460.77
500.98	469.52
501.34	478.55
501.71	488.09
502.07	497.64
502.43	507.49
502.79	517.73
503.16	528.26
503.52	539.16
503.88	550.38
504.24	561.99
504.60	573.92
504.97	586.37
505.33	598.92
505.69	612.30
506.05	625.68
506.41	639.37
506.78	653.31
507.14	667.42
507.50	681.89
507.86	696.90
508.22	712.31
508.59	728.00
508.95	744.05
509.31	760.28
509.67	777.20
510.03	794.30
510.39	811.78
510.75	829.75
511.12	847.91
511.48	866.38
511.84	885.12
512.20	903.92
512.56	923.15
512.92	942.81
513.28	962.51
513.64	982.19
514.00	1002.29
514.37	1022.40
514.73	1043.21
515.09	1064.05
515.45	1085.05
515.81	1106.32
516.17	1127.49
516.53	1148.87
516.89	1170.55
517.25	1191.92
517.61	1213.70
517.97	1235.58
518.33	1257.14
518.69	1279.00
519.05	1300.86
519.41	1323.10
519.77	1345.80
520.13	1367.75
520.49	1389.88
520.85	1412.17
521.21	1434.88
521.57	1457.61
521.93	1479.93
522.29	1503.00
522.65	1525.58
523.01	1548.05
523.37	1570.10
523.73	1592.57
524.09	1614.79
524.45	1637.27
524.81	1659.94
525.17	1682.37
525.53	1704.90
525.89	1727.37
526.25	1749.50
526.61	1771.19
526.97	1793.02
527.33	1814.41
527.68	1836.21
528.04	1857.32
528.40	1877.87
528.76	1898.74
529.12	1919.74
529.48	1941.84
529.84	1962.00
530.20	1982.72
530.56	2003.36
530.91	2024.65
531.27	2045.00
531.63	2065.35
531.99	2085.19
532.35	2104.66
532.71	2123.80
533.07	2143.40
533.42	2161.89
533.78	2180.57
534.14	2199.12
534.50	2216.39
534.86	2234.42
535.21	2251.30
535.57	2269.26
535.93	2286.77
536.29	2303.77
536.65	2320.45
537.00	2335.53
537.36	2350.99
537.72	2366.12
538.08	2381.42
538.44	2396.65
538.79	2412.25
539.15	2427.31
539.51	2442.02
539.87	2457.19
540.22	2471.89
540.58	2486.67
540.94	2501.30
541.29	2514.44
541.65	2526.91
542.01	2540.06
542.37	2552.14
542.72	2564.47
543.08	2575.63
543.44	2587.85
543.79	2598.40
544.15	2608.67
544.51	2620.08
544.87	2631.26
545.22	2640.51
545.58	2649.06
545.94	2656.48
546.29	2662.98
546.65	2669.24
547.01	2675.39
547.36	2681.18
547.72	2686.66
548.07	2690.67
548.43	2694.73
548.79	2699.03
549.14	2703.89
549.50	2708.59
549.86	2712.40
550.21	2716.86
550.57	2721.01
550.92	2723.65
551.28	2726.22
551.64	2728.66
551.99	2731.10
552.35	2732.90
552.70	2735.87
553.06	2739.06
553.41	2741.73
553.77	2744.93
554.13	2747.25
554.48	2749.26
554.84	2750.76
555.19	2751.47
555.55	2752.17
555.90	2752.77
556.26	2753.37
556.61	2753.41
556.97	2752.05
557.32	2751.65
557.68	2749.78
558.03	2748.38
558.39	2746.96
558.74	2746.68
559.10	2745.58
559.45	2743.62
559.81	2742.67
560.16	2739.90
560.52	2737.21
560.87	2734.13
561.23	2730.04
561.58	2728.01
561.94	2725.00
562.29	2721.31
562.64	2719.11
563.00	2716.49
563.35	2714.29
563.71	2712.78
564.06	2710.68
564.42	2708.84
564.77	2706.53
565.12	2704.69
565.48	2701.06
565.83	2697.89
566.19	2694.26
566.54	2690.11
566.89	2686.41
567.25	2682.62
567.60	2679.47
567.96	2675.88
568.31	2672.83
568.66	2669.14
569.02	2663.99
569.37	2658.97
569.72	2655.20
570.08	2650.12
570.43	2644.59
570.78	2638.73
571.14	2632.07
571.49	2625.10
571.84	2619.21
572.20	2612.62
572.55	2606.08
572.90	2599.87
573.26	2593.18
573.61	2586.29
573.96	2579.69
574.31	2571.79
574.67	2563.42
575.02	2554.82
575.37	2546.31
575.72	2536.95
576.08	2529.30
576.43	2520.92
576.78	2513.05
577.13	2504.84
577.49	2496.54
577.84	2488.92
578.19	2481.44
578.54	2474.11
578.90	2467.25
579.25	2458.45
579.60	2449.15
579.95	2439.69
580.30	2431.26
580.66	2422.91
581.01	2413.58
581.36	2404.18
581.71	2395.65
582.06	2387.07
582.42	2379.02
582.77	2369.89
583.12	2361.21
583.47	2352.58
583.82	2344.20
584.17	2334.91
584.53	2325.91
584.88	2317.11
585.23	2307.63
585.58	2297.85
585.93	2287.71
586.28	2278.22
586.63	2269.52
586.98	2261.21
587.34	2252.90
587.69	2243.72
588.04	2234.40
588.39	2226.59
588.74	2217.58
589.09	2208.91
589.44	2199.04
589.79	2190.30
590.14	2182.21
590.49	2173.58
590.84	2164.58
591.19	2156.44
591.54	2147.68
591.89	2137.33
592.25	2128.05
592.60	2118.79
592.95	2109.46
593.30	2100.06
593.65	2090.33
594.00	2080.51
594.35	2072.27
594.70	2063.03
595.05	2054.15
595.40	2045.24
595.75	2035.20
596.10	2027.02
596.45	2018.29
596.80	2010.67
597.15	2002.15
597.50	1992.75
597.85	1984.63
598.19	1975.88
598.54	1967.02
598.89	1959.15
599.24	1952.75
599.59	1945.14
599.94	1937.75
600.29	1929.81
600.64	1921.90
600.99	1913.65
601.34	1906.47
601.69	1897.29
602.04	1889.13
602.39	1881.06
602.74	1873.02
603.08	1866.33
603.43	1858.83
603.78	1850.70
604.13	1842.73
604.48	1834.87
604.83	1828.09
605.18	1821.07
605.53	1813.26
605.87	1805.70
606.22	1798.52
606.57	1790.21
606.92	1782.09
607.27	1774.18
607.62	1766.88
607.96	1759.88
608.31	1753.49
608.66	1745.49
609.01	1738.06
609.36	1730.20
609.70	1722.56
610.05	1714.87
610.40	1706.69
610.75	1698.51
611.10	1690.98
611.44	1681.83
611.79	1672.47
612.14	1663.25
612.49	1653.10
612.83	1644.31
613.18	1634.49
613.53	1624.63
613.88	1614.96
614.22	1605.89
614.57	1596.42
614.92	1586.80
615.27	1577.69
615.61	1567.82
615.96	1558.82
616.31	1550.13
616.65	1542.31
617.00	1533.72
617.35	1525.12
617.70	1515.91
618.04	1506.58
618.39	1497.13
618.74	1488.71
619.08	1480.16
619.43	1471.72
619.78	1464.20
620.12	1456.42
620.47	1448.75
620.82	1440.31
621.16	1431.95
621.51	1423.55
621.85	1415.04
622.20	1406.90
622.55	1398.16
622.89	1389.78
623.24	1381.77
623.59	1373.14
623.93	1364.40
624.28	1356.20
624.62	1347.97
624.97	1339.90
625.32	1332.18
625.66	1324.58
626.01	1317.20
626.35	1309.87
626.70	1302.20
627.04	1294.70
627.39	1286.64
627.73	1279.10
628.08	1272.31
628.43	1264.94
628.77	1257.50
629.12	1250.25
629.46	1243.48
629.81	1236.14
630.15	1228.77
630.50	1221.14
630.84	1214.05
631.19	1206.61
631.53	1199.60
631.88	1191.99
632.22	1184.47
632.57	1177.45
632.91	1169.91
633.26	1162.47
633.60	1155.50
633.95	1148.75
634.29	1141.08
634.64	1134.46
634.98	1127.20
635.32	1120.09
635.67	1113.61
636.01	1106.97
636.36	1100.18
636.70	1093.56
637.05	1087.19
637.39	1081.13
637.73	1074.89
638.08	1068.93
638.42	1063.09
638.77	1056.57
639.11	1050.31
639.45	1044.32
639.80	1037.71
640.14	1031.57
640.49	1025.20
640.83	1018.89
641.17	1012.20
641.52	1006.15
641.86	999.61
642.20	993.40
642.55	986.59
642.89	980.09
643.23	973.68
643.58	967.78
643.92	960.99
644.26	954.68
644.61	948.49
644.95	942.38
645.29	935.98
645.64	929.29
645.98	923.04
646.32	917.26
646.66	910.95
647.01	905.05
647.35	898.95
647.69	892.64
648.04	886.65
648.38	880.80
648.72	874.84
649.06	868.72
649.41	862.60
649.75	856.85
650.09	850.90
650.43	844.94
650.78	838.62
651.12	832.75
651.46	826.99
651.80	821.10
652.14	815.20
652.49	809.24
652.83	803.52
653.17	797.36
653.51	791.27
653.85	785.61
654.20	779.74
654.54	773.93
654.88	768.52
655.22	762.53
655.56	756.51
655.90	750.67
656.25	744.94
656.59	739.46
656.93	734.40
657.27	729.20
657.61	723.65
657.95	718.54
658.29	713.16
658.64	707.81
658.98	702.25
659.32	696.64
659.66	691.50
660.00	686.28
660.34	681.26
660.68	675.93
661.02	670.84
661.36	666.06
661.70	661.27
662.05	656.41
662.39	651.97
662.73	647.70
663.07	643.23
663.41	638.77
663.75	634.12
664.09	629.18
664.43	624.51
664.77	620.18
665.11	615.63
665.45	611.26
665.79	606.84
666.13	602.56
666.47	598.53
666.81	594.32
667.15	590.27
667.49	586.40
667.83	582.55
668.17	578.66
668.51	574.83
668.85	571.27
669.19	567.79
669.53	563.98
669.87	559.84
670.21	555.99
670.55	552.18
670.89	548.76
671.23	545.31
671.57	541.76
671.91	538.34
672.25	534.90
672.58	531.49
672.92	527.95
673.26	524.84
673.60	521.55
673.94	518.07
674.28	514.61
674.62	511.46
674.96	508.31
675.30	505.12
675.64	501.89
675.97	498.48
676.31	495.23
676.65	492.31
676.99	489.67
677.33	486.68
677.67	483.78
678.01	480.65
678.34	477.62
678.68	474.64
679.02	471.56
679.36	468.68
679.70	465.80
680.04	462.92
680.37	459.91
680.71	457.00
681.05	454.49
681.39	451.77
681.73	449.02
682.06	446.38
682.40	443.77
682.74	441.06
683.08	438.46
683.42	435.71
683.75	433.10
684.09	430.42
684.43	427.87
684.77	425.27
685.10	422.88
685.44	420.41
685.78	417.95
686.12	415.65
686.45	413.28
686.79	410.96
687.13	408.82
687.46	406.63
687.80	404.52
688.14	402.04
688.48	400.00
688.81	397.62
689.15	395.49
689.49	393.34
689.82	391.21
690.16	388.92
690.50	386.80
690.83	384.47
691.17	382.28
691.51	380.16
691.84	378.11
692.18	376.06
692.52	374.10
692.85	372.28
693.19	370.38
693.52	368.52
693.86	366.60
694.20	364.78
694.53	362.90
694.87	360.91
695.21	359.08
695.54	357.04
695.88	355.19
696.21	353.26
696.55	351.39
696.88	349.57
697.22	347.90
697.56	346.27
697.89	344.61
698.23	342.98
698.56	341.47
698.90	339.96
699.23	338.36
699.57	336.72
699.90	335.00
700.24	333.25
700.58	331.62
700.91	330.12
701.25	328.72
701.58	327.26
701.92	325.77
702.25	324.39
702.59	323.02
702.92	321.70
703.26	320.36
703.59	319.11
703.93	317.95
704.26	316.75
704.60	315.44
704.93	314.20
705.26	312.83
705.60	311.56
705.93	310.21
706.27	309.00
706.60	307.90
706.94	306.90
707.27	305.73
707.61	304.55
707.94	303.39
708.27	302.06
708.61	300.84
708.94	299.84
709.28	298.68
709.61	297.68
709.94	296.63
710.28	295.54
710.61	294.48
710.95	293.26
711.28	292.31
711.61	291.25
711.95	290.25
712.28	289.26
712.61	288.28
712.95	287.49
713.28	286.46
713.61	285.47
713.95	284.46
714.28	283.66
714.61	282.79
714.95	281.91
715.28	280.92
715.61	279.97
715.95	278.98
716.28	278.06
716.61	277.17
716.95	276.24
717.28	275.46
717.61	274.65
717.94	273.94
718.28	273.00
718.61	272.22
718.94	271.48
719.27	270.80
719.61	270.02
719.94	269.19
720.27	268.46
720.60	267.73
720.94	266.90
721.27	266.23
721.60	265.57
721.93	264.87
722.27	264.36
722.60	263.84
722.93	263.20
723.26	262.68
723.59	261.98
723.93	261.36
724.26	260.77
724.59	260.11
724.92	259.59
725.25	259.06
725.59	258.54
725.92	257.95
726.25	257.40
726.58	256.91
726.91	256.44
727.24	255.97
727.57	255.50
727.91	255.09
728.24	254.55
728.57	254.05
728.90	253.62
729.23	253.06
729.56	252.63
729.89	252.22
730.22	251.67
730.55	251.28
730.89	250.90
731.22	250.44
731.55	250.01
731.88	249.49
732.21	249.07
732.54	248.64
732.87	248.20
733.20	247.72
733.53	247.27
733.86	246.87
734.19	246.36
734.52	246.00
734.85	245.77
735.18	245.40
735.51	245.07
735.84	244.64
736.17	244.44
736.50	243.95
736.83	243.75
737.16	243.47
737.49	243.12
737.82	242.68
738.15	242.32
738.48	242.00
738.81	241.67
739.14	241.22
739.47	240.79
739.80	240.47
740.13	240.15
740.46	239.81
740.79	239.40
741.12	239.04
741.45	238.61
741.78	238.15
742.11	237.88
742.44	237.49
742.77	237.22
743.10	236.75
743.43	236.45
743.75	236.00
744.08	235.92
744.41	235.66
744.74	235.41
745.07	235.11
745.40	234.89
745.73	234.68
746.06	234.40
746.39	234.20
746.71	233.90
747.04	233.57
747.37	233.27
747.70	232.98
748.03	232.76
748.36	232.57
748.68	232.29
749.01	231.96
749.34	231.67
749.67	231.46
750.00	231.35
750.33	231.18
750.65	230.94
750.98	230.56
751.31	230.22
751.64	230.01
751.97	229.82
752.29	229.48
752.62	229.14
752.95	228.93
753.28	228.64
753.60	228.48
753.93	228.41
754.26	228.25
754.59	228.04
754.91	227.85
755.24	227.65
755.57	227.47
755.90	227.25
756.22	227.10
756.55	226.82
756.88	226.53
757.20	226.26
757.53	225.95
757.86	225.66
758.19	225.53
758.51	225.31
758.84	225.01
759.17	224.80
759.49	224.60
759.82	224.51
760.15	224.48
760.47	224.23
760.80	223.91
761.13	223.80
761.45	223.62
761.78	223.47
762.11	223.29
762.43	223.01
762.76	222.84
763.08	222.65
763.41	222.55
763.74	222.36
764.06	222.28
764.39	222.19
764.71	222.00
765.04	221.84
765.37	221.68
765.69	221.59
766.02	221.47
766.34	221.40
766.67	221.19
767.00	220.99
767.32	220.98
767.65	220.97
767.97	220.77
768.30	220.62
768.62	220.47
768.95	220.31
769.27	220.36
769.60	220.25
769.92	220.18
770.25	220.06
770.57	219.94
770.90	219.74
771.22	219.69
771.55	219.68
771.87	219.55
772.20	219.46
772.52	219.52
772.85	219.75
773.17	219.58
773.50	219.53
773.82	219.45
774.15	219.30
774.47	219.25
774.80	219.15
775.12	219.08
775.45	219.05
775.77	219.04
776.09	218.94
776.42	218.96
776.74	218.99
777.07	218.94
777.39	218.98
777.72	218.92
778.04	218.82
778.36	218.69
778.69	218.67
779.01	218.68
779.33	218.40
779.66	218.14
779.98	218.16
780.31	218.07
780.63	218.04
780.95	218.02
781.28	217.86
781.60	217.78
781.92	217.73
782.25	217.72
782.57	217.66
782.89	217.58
783.22	217.47
783.54	217.24
783.86	217.20
784.19	217.11
784.51	217.16
784.83	217.11
785.16	217.15
785.48	217.09
785.80	217.01
786.12	217.03
786.45	216.95
