SpectraSuite Data File
++++++++++++++++++++++++++++++++++++
Date: Mon Feb 25 17:35:43 EST 2013
User: group
Dark Spectrum Present: No
Reference Spectrum Present: No
Number of Sampled Component Spectra: 1
Spectrometers: USB2E7196
Integration Time (usec): 52000 (USB2E7196)
Spectra Averaged: 20 (USB2E7196)
Boxcar Smoothing: 10 (USB2E7196)
Correct for Electrical Dark: No (USB2E7196)
Strobe/Lamp Enabled: No (USB2E7196)
Correct for Detector Non-linearity: No (USB2E7196)
Correct for Stray Light: No (USB2E7196)
Number of Pixels in Processed Spectrum: 2048
>>>>>Begin Processed Spectral Data<<<<<
339.09	0.00
339.48	198.60
339.86	200.40
340.24	202.50
340.63	203.75
341.01	206.50
341.39	206.10
341.78	208.15
342.16	209.45
342.54	210.55
342.93	198.66
343.31	208.68
343.69	209.20
344.07	209.65
344.46	210.05
344.84	210.43
345.22	210.72
345.60	211.06
345.99	211.23
346.37	211.27
346.75	211.30
347.13	211.33
347.52	211.38
347.90	211.45
348.28	211.57
348.66	211.62
349.05	211.56
349.43	211.68
349.81	211.71
350.19	211.76
350.57	211.85
350.96	211.88
351.34	212.00
351.72	212.17
352.10	212.24
352.48	212.32
352.87	212.34
353.25	212.32
353.63	212.30
354.01	212.34
354.39	212.50
354.77	212.64
355.15	212.73
355.54	212.78
355.92	212.70
356.30	212.73
356.68	212.87
357.06	212.90
357.44	212.86
357.82	212.86
358.20	212.88
358.58	212.89
358.97	212.89
359.35	212.93
359.73	212.96
360.11	213.07
360.49	213.11
360.87	213.14
361.25	213.17
361.63	213.26
362.01	213.27
362.39	213.20
362.77	213.19
363.15	213.23
363.53	213.26
363.91	213.37
364.29	213.42
364.67	213.30
365.05	213.35
365.43	213.41
365.81	213.37
366.19	213.45
366.57	213.50
366.95	213.53
367.33	213.52
367.71	213.55
368.09	213.58
368.47	213.57
368.85	213.61
369.23	213.64
369.61	213.55
369.99	213.59
370.37	213.65
370.75	213.77
371.13	213.69
371.51	213.59
371.89	213.56
372.27	213.60
372.65	213.56
373.03	213.56
373.41	213.47
373.78	213.55
374.16	213.42
374.54	213.35
374.92	213.27
375.30	213.20
375.68	213.06
376.06	213.02
376.44	212.90
376.82	212.86
377.19	212.82
377.57	212.78
377.95	212.70
378.33	212.58
378.71	212.37
379.09	212.33
379.47	212.32
379.84	212.27
380.22	212.13
380.60	212.08
380.98	212.03
381.36	211.98
381.73	211.92
382.11	211.93
382.49	211.91
382.87	211.86
383.25	211.80
383.62	211.96
384.00	211.86
384.38	211.90
384.76	211.89
385.13	211.92
385.51	211.86
385.89	211.79
386.27	211.78
386.64	211.78
387.02	211.73
387.40	211.75
387.78	211.72
388.15	211.73
388.53	211.69
388.91	211.63
389.29	211.61
389.66	211.62
390.04	211.49
390.42	211.47
390.79	211.45
391.17	211.50
391.55	211.35
391.92	211.35
392.30	211.38
392.68	211.34
393.05	211.29
393.43	211.28
393.81	211.31
394.18	211.33
394.56	211.29
394.94	211.40
395.31	211.35
395.69	211.43
396.06	211.38
396.44	211.40
396.82	211.38
397.19	211.47
397.57	211.40
397.95	211.50
398.32	211.49
398.70	211.56
399.07	211.55
399.45	211.57
399.82	211.53
400.20	211.42
400.58	211.44
400.95	211.39
401.33	211.54
401.70	211.72
402.08	211.81
402.45	211.92
402.83	211.99
403.20	212.10
403.58	212.13
403.95	212.34
404.33	212.41
404.71	212.57
405.08	212.78
405.46	212.94
405.83	213.06
406.21	213.20
406.58	213.41
406.96	213.63
407.33	213.75
407.70	213.99
408.08	214.44
408.45	214.68
408.83	215.01
409.20	215.20
409.58	215.35
409.95	215.64
410.33	215.93
410.70	216.24
411.08	216.57
411.45	216.97
411.82	217.30
412.20	217.72
412.57	218.23
412.95	218.59
413.32	219.09
413.69	219.64
414.07	220.22
414.44	220.79
414.82	221.42
415.19	222.18
415.56	222.93
415.94	223.60
416.31	224.53
416.68	225.37
417.06	226.35
417.43	227.42
417.81	228.51
418.18	229.62
418.55	230.77
418.93	232.09
419.30	233.42
419.67	234.83
420.04	236.34
420.42	237.85
420.79	239.64
421.16	241.43
421.54	243.25
421.91	245.12
422.28	247.15
422.66	249.20
423.03	251.28
423.40	253.46
423.77	255.73
424.15	257.90
424.52	260.30
424.89	262.96
425.26	265.31
425.64	267.65
426.01	270.31
426.38	273.04
426.75	275.76
427.13	278.59
427.50	281.61
427.87	284.79
428.24	287.82
428.61	290.71
428.99	293.98
429.36	297.48
429.73	300.91
430.10	304.28
430.47	307.88
430.85	311.48
431.22	315.34
431.59	319.52
431.96	323.50
432.33	327.83
432.70	332.03
433.08	337.09
433.45	341.81
433.82	346.49
434.19	351.72
434.56	356.75
434.93	361.61
435.30	366.31
435.68	371.50
436.05	376.90
436.42	382.04
436.79	386.77
437.16	391.94
437.53	397.39
437.90	402.75
438.27	408.04
438.64	413.52
439.01	418.49
439.38	422.85
439.75	427.29
440.13	432.31
440.50	436.83
440.87	440.55
441.24	444.29
441.61	448.59
441.98	451.60
442.35	455.24
442.72	458.82
443.09	462.48
443.46	464.67
443.83	466.02
444.20	467.14
444.57	469.00
444.94	469.77
445.31	470.58
445.68	471.33
446.05	471.35
446.42	470.66
446.79	469.91
447.16	469.12
447.53	468.47
447.90	466.27
448.27	464.14
448.64	461.19
449.01	459.13
449.37	455.36
449.74	451.87
450.11	447.71
450.48	443.25
450.85	438.60
451.22	434.61
451.59	430.80
451.96	427.38
452.33	422.52
452.70	418.16
453.07	412.97
453.43	407.57
453.80	402.63
454.17	397.76
454.54	393.26
454.91	388.36
455.28	383.44
455.65	378.90
456.02	374.56
456.38	370.75
456.75	366.10
457.12	362.23
457.49	358.39
457.86	354.62
458.23	351.31
458.59	347.70
458.96	344.12
459.33	340.96
459.70	337.76
460.07	335.15
460.43	332.18
460.80	329.42
461.17	327.06
461.54	324.62
461.91	322.23
462.27	319.79
462.64	317.78
463.01	315.61
463.38	313.47
463.74	311.26
464.11	309.41
464.48	307.72
464.85	305.87
465.21	304.48
465.58	302.98
465.95	301.21
466.32	299.81
466.68	298.37
467.05	296.94
467.42	295.48
467.78	293.97
468.15	292.62
468.52	291.60
468.88	290.37
469.25	289.22
469.62	288.37
469.98	287.27
470.35	286.34
470.72	285.49
471.08	284.58
471.45	283.83
471.82	283.08
472.18	282.15
472.55	281.61
472.92	280.87
473.28	280.24
473.65	279.72
474.02	279.16
474.38	278.78
474.75	278.38
475.11	277.99
475.48	277.80
475.85	277.64
476.21	277.46
476.58	277.31
476.94	277.22
477.31	277.08
477.67	277.12
478.04	277.11
478.41	277.19
478.77	277.48
479.14	277.61
479.50	277.81
479.87	278.24
480.23	278.60
480.60	279.00
480.96	279.42
481.33	279.97
481.69	280.49
482.06	281.00
482.42	281.58
482.79	282.23
483.15	283.04
483.52	283.93
483.88	284.76
484.25	285.69
484.61	286.65
484.98	287.75
485.34	288.96
485.71	290.32
486.07	291.64
486.44	292.87
486.80	294.30
487.17	295.88
487.53	297.59
487.90	299.31
488.26	301.21
488.62	303.27
488.99	305.29
489.35	307.48
489.72	309.78
490.08	312.20
490.44	314.76
490.81	317.44
491.17	320.20
491.54	323.17
491.90	326.18
492.26	329.51
492.63	332.97
492.99	336.43
493.36	339.99
493.72	343.86
494.08	347.94
494.45	352.31
494.81	356.82
495.17	361.42
495.54	366.33
495.90	371.33
496.26	376.60
496.63	382.15
496.99	388.01
497.35	394.12
497.72	400.48
498.08	407.05
498.44	413.70
498.80	420.95
499.17	428.34
499.53	436.08
499.89	444.03
500.26	452.22
500.62	460.61
500.98	469.65
501.34	478.90
501.71	488.41
502.07	498.03
502.43	508.12
502.79	518.40
503.16	529.16
503.52	540.25
503.88	551.56
504.24	563.32
504.60	575.18
504.97	587.60
505.33	600.08
505.69	613.39
506.05	626.90
506.41	640.36
506.78	654.44
507.14	668.67
507.50	683.27
507.86	698.30
508.22	713.85
508.59	729.27
508.95	745.28
509.31	761.43
509.67	778.33
510.03	795.39
510.39	812.99
510.75	830.76
511.12	848.76
511.48	867.07
511.84	885.68
512.20	904.42
512.56	923.68
512.92	943.33
513.28	963.03
513.64	983.10
514.00	1003.31
514.37	1023.68
514.73	1044.40
515.09	1065.34
515.45	1086.15
515.81	1107.53
516.17	1129.06
516.53	1150.65
516.89	1172.53
517.25	1193.97
517.61	1215.59
517.97	1237.46
518.33	1259.11
518.69	1281.19
519.05	1303.58
519.41	1325.98
519.77	1348.84
520.13	1370.88
520.49	1393.25
520.85	1415.80
521.21	1438.28
521.57	1461.30
521.93	1483.47
522.29	1506.59
522.65	1529.57
523.01	1552.45
523.37	1574.65
523.73	1597.05
524.09	1619.54
524.45	1642.16
524.81	1664.97
525.17	1687.78
525.53	1710.22
525.89	1733.00
526.25	1755.08
526.61	1776.42
526.97	1798.31
527.33	1819.90
527.68	1841.93
528.04	1863.44
528.40	1884.08
528.76	1905.15
529.12	1926.21
529.48	1948.19
529.84	1969.16
530.20	1989.71
530.56	2010.43
530.91	2031.25
531.27	2051.97
531.63	2072.02
531.99	2092.15
532.35	2111.67
532.71	2130.94
533.07	2151.04
533.42	2169.69
533.78	2188.99
534.14	2208.16
534.50	2225.58
534.86	2243.51
535.21	2260.47
535.57	2278.50
535.93	2296.18
536.29	2313.25
536.65	2329.98
537.00	2345.24
537.36	2360.44
537.72	2375.41
538.08	2390.41
538.44	2405.69
538.79	2421.18
539.15	2436.13
539.51	2450.61
539.87	2465.75
540.22	2480.02
540.58	2494.57
540.94	2508.95
541.29	2521.75
541.65	2533.60
542.01	2546.85
542.37	2559.13
542.72	2571.54
543.08	2582.10
543.44	2594.08
543.79	2604.54
544.15	2615.09
544.51	2626.63
544.87	2637.84
545.22	2647.45
545.58	2656.55
545.94	2664.05
546.29	2670.97
546.65	2677.62
547.01	2684.23
547.36	2690.26
547.72	2696.15
548.07	2700.43
548.43	2704.65
548.79	2709.21
549.14	2714.48
549.50	2719.28
549.86	2723.51
550.21	2727.85
550.57	2732.86
550.92	2735.77
551.28	2738.61
551.64	2741.31
551.99	2744.04
552.35	2745.90
552.70	2748.95
553.06	2752.07
553.41	2755.86
553.77	2758.80
554.13	2761.10
554.48	2763.15
554.84	2764.78
555.19	2765.88
555.55	2766.60
555.90	2767.49
556.26	2767.92
556.61	2768.31
556.97	2767.21
557.32	2767.03
557.68	2765.18
558.03	2763.62
558.39	2762.57
558.74	2762.38
559.10	2761.29
559.45	2759.57
559.81	2758.32
560.16	2755.81
560.52	2753.12
560.87	2749.82
561.23	2746.20
561.58	2744.15
561.94	2741.28
562.29	2737.67
562.64	2735.59
563.00	2733.38
563.35	2731.12
563.71	2729.56
564.06	2727.38
564.42	2725.46
564.77	2723.30
565.12	2721.65
565.48	2718.47
565.83	2715.03
566.19	2711.89
566.54	2707.79
566.89	2703.77
567.25	2700.23
567.60	2696.89
567.96	2693.61
568.31	2690.45
568.66	2686.92
569.02	2682.19
569.37	2677.04
569.72	2673.36
570.08	2667.63
570.43	2661.91
570.78	2656.19
571.14	2649.67
571.49	2642.90
571.84	2637.02
572.20	2629.97
572.55	2623.49
572.90	2616.75
573.26	2610.07
573.61	2602.67
573.96	2596.24
574.31	2588.39
574.67	2580.00
575.02	2571.46
575.37	2562.62
575.72	2553.00
576.08	2545.07
576.43	2536.92
576.78	2529.02
577.13	2520.81
577.49	2512.70
577.84	2504.71
578.19	2496.98
578.54	2489.50
578.90	2482.19
579.25	2473.20
579.60	2463.83
579.95	2454.33
580.30	2446.19
580.66	2437.69
581.01	2428.60
581.36	2418.85
581.71	2410.44
582.06	2401.95
582.42	2393.74
582.77	2384.59
583.12	2375.95
583.47	2366.96
583.82	2358.04
584.17	2348.54
584.53	2338.95
584.88	2330.24
585.23	2321.03
585.58	2311.49
585.93	2301.38
586.28	2291.85
586.63	2283.03
586.98	2274.62
587.34	2266.13
587.69	2256.62
588.04	2247.21
588.39	2238.76
588.74	2229.74
589.09	2220.82
589.44	2210.96
589.79	2202.13
590.14	2194.13
590.49	2185.82
590.84	2176.59
591.19	2168.31
591.54	2159.55
591.89	2149.39
592.25	2140.15
592.60	2130.58
592.95	2120.86
593.30	2111.68
593.65	2101.99
594.00	2092.44
594.35	2084.26
594.70	2074.91
595.05	2066.32
595.40	2057.58
595.75	2047.78
596.10	2039.46
596.45	2030.62
596.80	2022.62
597.15	2014.23
597.50	2004.82
597.85	1995.92
598.19	1987.33
598.54	1978.65
598.89	1970.74
599.24	1964.30
599.59	1956.64
599.94	1949.36
600.29	1941.54
600.64	1933.65
600.99	1925.03
601.34	1917.31
601.69	1908.22
602.04	1899.92
602.39	1891.71
602.74	1883.84
603.08	1877.16
603.43	1869.75
603.78	1861.83
604.13	1853.72
604.48	1845.63
604.83	1838.47
605.18	1831.41
605.53	1823.73
605.87	1815.94
606.22	1808.55
606.57	1799.98
606.92	1791.18
607.27	1782.77
607.62	1775.10
607.96	1767.62
608.31	1761.30
608.66	1752.98
609.01	1744.88
609.36	1736.86
609.70	1728.59
610.05	1720.55
610.40	1711.94
610.75	1703.16
611.10	1695.34
611.44	1686.07
611.79	1676.76
612.14	1667.40
612.49	1657.46
612.83	1648.63
613.18	1638.74
613.53	1629.40
613.88	1619.96
614.22	1611.21
614.57	1601.94
614.92	1592.61
615.27	1583.20
615.61	1573.38
615.96	1564.95
616.31	1556.60
616.65	1548.82
617.00	1540.32
617.35	1531.34
617.70	1522.44
618.04	1513.45
618.39	1503.92
618.74	1495.63
619.08	1487.10
619.43	1478.83
619.78	1471.11
620.12	1462.75
620.47	1455.08
620.82	1446.11
621.16	1437.88
621.51	1429.40
621.85	1421.11
622.20	1412.50
622.55	1404.20
622.89	1396.00
623.24	1387.84
623.59	1379.06
623.93	1370.39
624.28	1362.16
624.62	1353.91
624.97	1345.81
625.32	1338.02
625.66	1330.41
626.01	1323.10
626.35	1315.57
626.70	1307.68
627.04	1300.26
627.39	1292.47
627.73	1284.64
628.08	1277.65
628.43	1270.00
628.77	1262.68
629.12	1255.13
629.46	1248.66
629.81	1241.19
630.15	1233.69
630.50	1225.94
630.84	1218.72
631.19	1211.55
631.53	1204.57
631.88	1197.00
632.22	1189.31
632.57	1181.99
632.91	1174.56
633.26	1167.01
633.60	1159.94
633.95	1153.07
634.29	1145.49
634.64	1138.81
634.98	1132.01
635.32	1125.05
635.67	1118.66
636.01	1111.97
636.36	1105.18
636.70	1098.39
637.05	1091.97
637.39	1085.75
637.73	1079.57
638.08	1073.72
638.42	1067.65
638.77	1061.22
639.11	1055.20
639.45	1049.32
639.80	1042.86
640.14	1036.48
640.49	1030.18
640.83	1023.79
641.17	1017.27
641.52	1011.28
641.86	1004.74
642.20	998.34
642.55	991.50
642.89	984.76
643.23	978.20
643.58	972.25
643.92	965.63
644.26	959.30
644.61	953.08
644.95	946.90
645.29	940.46
645.64	933.71
645.98	927.38
646.32	921.31
646.66	914.99
647.01	909.01
647.35	903.14
647.69	896.74
648.04	890.76
648.38	884.95
648.72	878.68
649.06	872.59
649.41	866.38
649.75	860.63
650.09	854.81
650.43	848.84
650.78	842.65
651.12	836.49
651.46	830.47
651.80	824.50
652.14	818.55
652.49	812.67
652.83	806.90
653.17	800.72
653.51	794.65
653.85	788.88
654.20	783.01
654.54	777.07
654.88	771.43
655.22	765.52
655.56	759.47
655.90	753.60
656.25	747.81
656.59	742.26
656.93	736.91
657.27	731.64
657.61	726.13
657.95	720.84
658.29	715.72
658.64	710.59
658.98	705.33
659.32	699.80
659.66	694.42
660.00	689.04
660.34	684.06
660.68	678.90
661.02	673.77
661.36	668.77
661.70	663.79
662.05	659.08
662.39	654.70
662.73	650.45
663.07	646.00
663.41	641.56
663.75	636.91
664.09	632.43
664.43	627.57
664.77	623.32
665.11	618.85
665.45	614.34
665.79	609.92
666.13	605.32
666.47	601.09
666.81	596.90
667.15	592.84
667.49	588.75
667.83	584.81
668.17	580.91
668.51	577.27
668.85	573.63
669.19	569.96
669.53	565.94
669.87	561.79
670.21	557.97
670.55	554.09
670.89	550.63
671.23	547.10
671.57	543.66
671.91	540.03
672.25	536.62
672.58	533.12
672.92	529.60
673.26	526.48
673.60	523.26
673.94	519.88
674.28	516.61
674.62	513.36
674.96	510.25
675.30	507.15
675.64	503.83
675.97	500.67
676.31	497.62
676.65	494.59
676.99	491.90
677.33	489.00
677.67	486.02
678.01	482.92
678.34	479.86
678.68	476.74
679.02	473.64
679.36	470.78
679.70	467.86
680.04	465.05
680.37	462.03
680.71	459.15
681.05	456.44
681.39	453.63
681.73	450.86
682.06	448.27
682.40	445.59
682.74	442.88
683.08	440.20
683.42	437.55
683.75	434.97
684.09	432.20
684.43	429.65
684.77	427.14
685.10	424.63
685.44	421.96
685.78	419.64
686.12	417.44
686.45	414.93
686.79	412.84
687.13	410.54
687.46	408.31
687.80	406.13
688.14	403.87
688.48	401.77
688.81	399.45
689.15	397.02
689.49	394.72
689.82	392.53
690.16	390.15
690.50	387.80
690.83	385.50
691.17	383.37
691.51	381.14
691.84	378.95
692.18	376.83
692.52	374.86
692.85	373.01
693.19	371.10
693.52	369.19
693.86	367.13
694.20	365.27
694.53	363.30
694.87	361.40
695.21	359.54
695.54	357.55
695.88	355.80
696.21	354.10
696.55	352.35
696.88	350.57
697.22	348.90
697.56	347.27
697.89	345.70
698.23	343.98
698.56	342.36
698.90	340.85
699.23	339.23
699.57	337.67
699.90	335.92
700.24	334.12
700.58	332.52
700.91	330.98
701.25	329.53
701.58	328.14
701.92	326.52
702.25	325.01
702.59	323.66
702.92	322.30
703.26	320.93
703.59	319.64
703.93	318.59
704.26	317.35
704.60	316.05
704.93	314.67
705.26	313.37
705.60	312.15
705.93	310.89
706.27	309.76
706.60	308.66
706.94	307.55
707.27	306.45
707.61	305.31
707.94	304.10
708.27	302.73
708.61	301.60
708.94	300.55
709.28	299.38
709.61	298.18
709.94	297.07
710.28	295.91
710.61	294.76
710.95	293.38
711.28	292.40
711.61	291.31
711.95	290.33
712.28	289.25
712.61	288.26
712.95	287.29
713.28	286.38
713.61	285.33
713.95	284.44
714.28	283.55
714.61	282.54
714.95	281.56
715.28	280.74
715.61	279.73
715.95	278.83
716.28	277.98
716.61	277.18
716.95	276.21
717.28	275.40
717.61	274.63
717.94	273.89
718.28	273.05
718.61	272.40
718.94	271.70
719.27	271.04
719.61	270.28
719.94	269.57
720.27	268.73
720.60	268.02
720.94	267.26
721.27	266.55
721.60	266.06
721.93	265.57
722.27	265.02
722.60	264.49
722.93	263.85
723.26	263.28
723.59	262.65
723.93	262.14
724.26	261.59
724.59	261.00
724.92	260.55
725.25	259.94
725.59	259.34
725.92	258.69
726.25	258.15
726.58	257.68
726.91	257.14
727.24	256.66
727.57	256.18
727.91	255.58
728.24	255.05
728.57	254.46
728.90	253.92
729.23	253.40
729.56	253.01
729.89	252.57
730.22	252.10
730.55	251.68
730.89	251.23
731.22	250.74
731.55	250.27
731.88	249.74
732.21	249.26
732.54	248.79
732.87	248.41
733.20	247.97
733.53	247.45
733.86	247.07
734.19	246.54
734.52	246.19
734.85	245.93
735.18	245.55
735.51	245.26
735.84	244.89
736.17	244.45
736.50	243.94
736.83	243.74
737.16	243.40
737.49	243.00
737.82	242.61
738.15	242.25
738.48	241.88
738.81	241.54
739.14	241.22
739.47	240.87
739.80	240.50
740.13	240.18
740.46	239.84
740.79	239.48
741.12	239.25
741.45	238.87
741.78	238.54
742.11	238.22
742.44	237.76
742.77	237.50
743.10	237.17
743.43	236.86
743.75	236.34
744.08	236.22
744.41	235.85
744.74	235.53
745.07	235.21
745.40	234.95
745.73	234.74
746.06	234.51
746.39	234.25
746.71	233.92
747.04	233.63
747.37	233.36
747.70	233.10
748.03	232.78
748.36	232.51
748.68	232.16
749.01	231.94
749.34	231.68
749.67	231.38
750.00	231.21
750.33	231.04
750.65	230.77
750.98	230.24
751.31	230.07
751.64	229.82
751.97	229.63
752.29	229.47
752.62	229.14
752.95	228.83
753.28	228.62
753.60	228.44
753.93	228.25
754.26	228.06
754.59	227.80
754.91	227.56
755.24	227.38
755.57	227.27
755.90	226.99
756.22	226.80
756.55	226.58
756.88	226.32
757.20	226.05
757.53	225.95
757.86	225.87
758.19	225.62
758.51	225.51
758.84	225.29
759.17	225.05
759.49	224.85
759.82	224.72
760.15	224.51
760.47	224.26
760.80	224.06
761.13	223.91
761.45	223.71
761.78	223.63
762.11	223.38
762.43	223.14
762.76	222.98
763.08	222.80
763.41	222.72
763.74	222.52
764.06	222.43
764.39	222.23
764.71	222.03
765.04	221.97
765.37	221.83
765.69	221.65
766.02	221.52
766.34	221.45
766.67	221.38
767.00	221.30
767.32	221.36
767.65	221.36
767.97	221.16
768.30	221.04
768.62	220.88
768.95	220.84
769.27	220.75
769.60	220.74
769.92	220.73
770.25	220.53
770.57	220.40
770.90	220.25
771.22	220.15
771.55	220.09
771.87	219.96
772.20	219.83
772.52	219.91
772.85	220.00
773.17	219.88
773.50	219.69
773.82	219.58
774.15	219.33
774.47	219.13
774.80	219.09
775.12	219.05
775.45	218.98
775.77	218.85
776.09	218.76
776.42	218.67
776.74	218.51
777.07	218.44
777.39	218.47
777.72	218.47
778.04	218.42
778.36	218.31
778.69	218.25
779.01	218.16
779.33	218.00
779.66	217.65
779.98	217.61
780.31	217.55
780.63	217.52
780.95	217.55
781.28	217.48
781.60	217.37
781.92	217.28
782.25	217.20
782.57	217.14
782.89	217.08
783.22	216.94
783.54	216.87
783.86	216.81
784.19	216.67
784.51	216.61
784.83	216.52
785.16	216.44
785.48	216.47
785.80	216.49
786.12	216.39
786.45	216.33
