SpectraSuite Data File
++++++++++++++++++++++++++++++++++++
Date: Mon Feb 25 17:33:07 EST 2013
User: group
Dark Spectrum Present: No
Reference Spectrum Present: No
Number of Sampled Component Spectra: 1
Spectrometers: USB2E7196
Integration Time (usec): 52000 (USB2E7196)
Spectra Averaged: 20 (USB2E7196)
Boxcar Smoothing: 10 (USB2E7196)
Correct for Electrical Dark: No (USB2E7196)
Strobe/Lamp Enabled: No (USB2E7196)
Correct for Detector Non-linearity: No (USB2E7196)
Correct for Stray Light: No (USB2E7196)
Number of Pixels in Processed Spectrum: 2048
>>>>>Begin Processed Spectral Data<<<<<
339.09	0.00
339.48	198.40
339.86	200.00
340.24	201.15
340.63	201.65
341.01	208.20
341.39	206.20
341.78	206.60
342.16	208.35
342.54	208.95
342.93	197.77
343.31	207.77
343.69	208.38
344.07	208.91
344.46	209.32
344.84	209.82
345.22	209.89
345.60	210.11
345.99	210.33
346.37	210.43
346.75	210.53
347.13	210.67
347.52	210.79
347.90	210.96
348.28	210.99
348.66	211.01
349.05	210.97
349.43	211.05
349.81	211.05
350.19	211.15
350.57	211.28
350.96	211.43
351.34	211.48
351.72	211.57
352.10	211.58
352.48	211.66
352.87	211.66
353.25	211.77
353.63	211.87
354.01	212.00
354.39	212.10
354.77	212.23
355.15	212.34
355.54	212.31
355.92	212.30
356.30	212.46
356.68	212.68
357.06	212.77
357.44	212.86
357.82	212.91
358.20	213.03
358.58	213.11
358.97	213.17
359.35	213.34
359.73	213.41
360.11	213.47
360.49	213.55
360.87	213.64
361.25	213.73
361.63	213.84
362.01	213.88
362.39	213.90
362.77	213.93
363.15	214.00
363.53	214.10
363.91	214.20
364.29	214.14
364.67	214.02
365.05	214.06
365.43	214.11
365.81	214.18
366.19	214.23
366.57	214.33
366.95	214.33
367.33	214.38
367.71	214.33
368.09	214.44
368.47	214.47
368.85	214.46
369.23	214.43
369.61	214.26
369.99	214.28
370.37	214.40
370.75	214.54
371.13	214.47
371.51	214.39
371.89	214.40
372.27	214.47
372.65	214.44
373.03	214.38
373.41	214.31
373.78	214.24
374.16	214.06
374.54	213.93
374.92	213.92
375.30	213.81
375.68	213.79
376.06	213.70
376.44	213.67
376.82	213.63
377.19	213.63
377.57	213.62
377.95	213.58
378.33	213.45
378.71	213.30
379.09	213.23
379.47	213.17
379.84	213.05
380.22	212.88
380.60	212.72
380.98	212.69
381.36	212.64
381.73	212.65
382.11	212.70
382.49	212.65
382.87	212.50
383.25	212.43
383.62	212.52
384.00	212.48
384.38	212.39
384.76	212.35
385.13	212.41
385.51	212.40
385.89	212.22
386.27	212.13
386.64	212.09
387.02	212.03
387.40	212.02
387.78	211.93
388.15	211.93
388.53	211.92
388.91	211.87
389.29	211.85
389.66	211.85
390.04	211.78
390.42	211.86
390.79	211.91
391.17	211.85
391.55	211.73
391.92	211.71
392.30	211.68
392.68	211.61
393.05	211.50
393.43	211.45
393.81	211.48
394.18	211.52
394.56	211.45
394.94	211.50
395.31	211.46
395.69	211.51
396.06	211.60
396.44	211.58
396.82	211.57
397.19	211.69
397.57	211.67
397.95	211.76
398.32	211.66
398.70	211.65
399.07	211.72
399.45	211.69
399.82	211.70
400.20	211.72
400.58	211.77
400.95	211.79
401.33	211.97
401.70	212.19
402.08	212.25
402.45	212.30
402.83	212.39
403.20	212.53
403.58	212.66
403.95	212.68
404.33	212.79
404.71	212.89
405.08	213.01
405.46	213.12
405.83	213.22
406.21	213.43
406.58	213.53
406.96	213.70
407.33	213.90
407.70	214.10
408.08	214.46
408.45	214.73
408.83	215.00
409.20	215.15
409.58	215.28
409.95	215.65
410.33	215.99
410.70	216.25
411.08	216.52
411.45	216.84
411.82	217.30
412.20	217.77
412.57	218.37
412.95	218.71
413.32	219.22
413.69	219.73
414.07	220.23
414.44	220.93
414.82	221.63
415.19	222.33
415.56	223.15
415.94	223.81
416.31	224.70
416.68	225.56
417.06	226.63
417.43	227.62
417.81	228.59
418.18	229.74
418.55	231.04
418.93	232.33
419.30	233.65
419.67	235.01
420.04	236.49
420.42	237.91
420.79	239.67
421.16	241.45
421.54	243.27
421.91	245.08
422.28	246.94
422.66	248.94
423.03	251.02
423.40	252.96
423.77	255.24
424.15	257.55
424.52	259.90
424.89	262.38
425.26	264.79
425.64	267.10
426.01	269.73
426.38	272.33
426.75	275.11
427.13	277.88
427.50	280.77
427.87	283.80
428.24	286.84
428.61	289.77
428.99	292.87
429.36	296.38
429.73	299.97
430.10	303.47
430.47	306.98
430.85	310.61
431.22	314.60
431.59	318.76
431.96	322.59
432.33	327.01
432.70	331.19
433.08	336.17
433.45	340.93
433.82	345.47
434.19	350.65
434.56	355.72
434.93	360.45
435.30	365.18
435.68	370.47
436.05	375.66
436.42	380.82
436.79	385.67
437.16	390.71
437.53	395.99
437.90	401.19
438.27	406.32
438.64	411.77
439.01	416.73
439.38	420.99
439.75	425.25
440.13	429.96
440.50	434.48
440.87	438.10
441.24	441.76
441.61	445.95
441.98	448.95
442.35	452.43
442.72	456.12
443.09	459.73
443.46	461.71
443.83	463.24
444.20	464.39
444.57	466.06
444.94	466.75
445.31	467.56
445.68	468.45
446.05	468.61
446.42	467.77
446.79	467.02
447.16	466.20
447.53	465.47
447.90	463.30
448.27	461.11
448.64	458.20
449.01	456.15
449.37	452.57
449.74	449.03
450.11	444.98
450.48	440.55
450.85	435.90
451.22	431.94
451.59	428.06
451.96	424.47
452.33	419.70
452.70	415.42
453.07	410.13
453.43	404.73
453.80	399.85
454.17	395.17
454.54	390.59
454.91	385.75
455.28	381.10
455.65	376.74
456.02	372.51
456.38	368.70
456.75	364.10
457.12	360.20
457.49	356.49
457.86	352.73
458.23	349.43
458.59	345.95
458.96	342.52
459.33	339.34
459.70	336.23
460.07	333.67
460.43	330.76
460.80	328.24
461.17	325.94
461.54	323.50
461.91	321.09
462.27	318.79
462.64	316.86
463.01	314.68
463.38	312.64
463.74	310.42
464.11	308.67
464.48	307.05
464.85	305.30
465.21	303.96
465.58	302.55
465.95	300.89
466.32	299.46
466.68	298.06
467.05	296.72
467.42	295.26
467.78	293.85
468.15	292.54
468.52	291.48
468.88	290.18
469.25	289.03
469.62	288.15
469.98	287.04
470.35	286.12
470.72	285.16
471.08	284.07
471.45	283.25
471.82	282.54
472.18	281.64
472.55	280.98
472.92	280.16
473.28	279.46
473.65	278.90
474.02	278.37
474.38	277.93
474.75	277.57
475.11	277.10
475.48	276.88
475.85	276.75
476.21	276.55
476.58	276.45
476.94	276.40
477.31	276.34
477.67	276.27
478.04	276.26
478.41	276.47
478.77	276.87
479.14	277.05
479.50	277.20
479.87	277.64
480.23	278.08
480.60	278.43
480.96	278.90
481.33	279.55
481.69	280.19
482.06	280.80
482.42	281.34
482.79	282.24
483.15	283.10
483.52	283.93
483.88	284.92
484.25	285.80
484.61	286.93
484.98	288.07
485.34	289.41
485.71	290.78
486.07	292.17
486.44	293.49
486.80	295.13
487.17	296.85
487.53	298.50
487.90	300.38
488.26	302.33
488.62	304.33
488.99	306.33
489.35	308.39
489.72	310.65
490.08	313.14
490.44	315.53
490.81	318.17
491.17	320.90
491.54	323.79
491.90	326.87
492.26	330.07
492.63	333.40
492.99	336.87
493.36	340.55
493.72	344.41
494.08	348.51
494.45	352.68
494.81	357.01
495.17	361.63
495.54	366.37
495.90	371.43
496.26	376.75
496.63	382.19
496.99	388.00
497.35	394.06
497.72	400.26
498.08	406.86
498.44	413.62
498.80	420.75
499.17	428.12
499.53	435.82
499.89	443.67
500.26	451.76
500.62	460.11
500.98	468.86
501.34	477.98
501.71	487.35
502.07	497.01
502.43	507.08
502.79	517.35
503.16	528.01
503.52	539.05
503.88	550.28
504.24	561.76
504.60	573.60
504.97	585.81
505.33	598.45
505.69	611.56
506.05	625.01
506.41	638.64
506.78	652.42
507.14	666.45
507.50	681.05
507.86	696.04
508.22	711.57
508.59	727.02
508.95	743.03
509.31	759.28
509.67	775.93
510.03	793.00
510.39	810.49
510.75	828.38
511.12	846.38
511.48	864.58
511.84	883.23
512.20	902.04
512.56	921.30
512.92	940.69
513.28	960.48
513.64	980.23
514.00	1000.07
514.37	1020.49
514.73	1041.06
515.09	1061.87
515.45	1082.77
515.81	1103.85
516.17	1125.24
516.53	1146.65
516.89	1168.19
517.25	1189.83
517.61	1211.24
517.97	1232.80
518.33	1254.13
518.69	1275.91
519.05	1298.10
519.41	1320.24
519.77	1342.74
520.13	1364.71
520.49	1386.75
520.85	1409.32
521.21	1431.79
521.57	1454.78
521.93	1476.90
522.29	1499.97
522.65	1522.40
523.01	1544.72
523.37	1566.79
523.73	1589.12
524.09	1611.37
524.45	1634.04
524.81	1656.25
525.17	1678.96
525.53	1701.16
525.89	1723.75
526.25	1745.89
526.61	1766.97
526.97	1788.93
527.33	1810.08
527.68	1831.38
528.04	1852.62
528.40	1872.60
528.76	1893.25
529.12	1913.84
529.48	1935.46
529.84	1955.70
530.20	1976.25
530.56	1996.73
530.91	2017.27
531.27	2037.76
531.63	2057.71
531.99	2077.20
532.35	2096.60
532.71	2115.25
533.07	2134.81
533.42	2153.27
533.78	2172.10
534.14	2190.80
534.50	2207.85
534.86	2226.14
535.21	2243.31
535.57	2261.15
535.93	2278.60
536.29	2295.58
536.65	2312.45
537.00	2327.95
537.36	2343.55
537.72	2358.76
538.08	2374.13
538.44	2389.72
538.79	2404.59
539.15	2419.35
539.51	2434.04
539.87	2449.18
540.22	2463.97
540.58	2479.15
540.94	2493.55
541.29	2506.42
541.65	2519.05
542.01	2532.44
542.37	2544.09
542.72	2556.23
543.08	2567.14
543.44	2579.32
543.79	2589.87
544.15	2599.88
544.51	2610.87
544.87	2621.70
545.22	2631.23
545.58	2639.75
545.94	2646.87
546.29	2653.74
546.65	2660.25
547.01	2666.11
547.36	2671.70
547.72	2677.14
548.07	2680.95
548.43	2684.89
548.79	2688.77
549.14	2693.07
549.50	2696.97
549.86	2701.26
550.21	2705.54
550.57	2709.56
550.92	2711.87
551.28	2714.37
551.64	2716.91
551.99	2719.23
552.35	2720.95
552.70	2723.37
553.06	2726.02
553.41	2729.01
553.77	2731.82
554.13	2734.19
554.48	2736.45
554.84	2738.08
555.19	2738.79
555.55	2739.44
555.90	2739.94
556.26	2740.55
556.61	2740.51
556.97	2739.74
557.32	2739.15
557.68	2737.16
558.03	2736.03
558.39	2734.70
558.74	2734.34
559.10	2733.36
559.45	2731.49
559.81	2730.23
560.16	2727.49
560.52	2724.76
560.87	2721.84
561.23	2718.14
561.58	2715.73
561.94	2712.55
562.29	2708.88
562.64	2706.48
563.00	2703.89
563.35	2701.69
563.71	2699.92
564.06	2697.81
564.42	2695.95
564.77	2693.36
565.12	2691.74
565.48	2688.39
565.83	2685.41
566.19	2681.97
566.54	2677.71
566.89	2673.72
567.25	2669.94
567.60	2666.68
567.96	2663.37
568.31	2659.86
568.66	2656.03
569.02	2651.24
569.37	2646.11
569.72	2642.17
570.08	2636.98
570.43	2631.06
570.78	2625.21
571.14	2618.63
571.49	2612.10
571.84	2606.04
572.20	2599.15
572.55	2592.44
572.90	2585.58
573.26	2578.81
573.61	2571.88
573.96	2565.56
574.31	2557.52
574.67	2549.45
575.02	2541.09
575.37	2532.62
575.72	2523.68
576.08	2516.28
576.43	2507.62
576.78	2499.47
577.13	2491.30
577.49	2482.99
577.84	2475.44
578.19	2468.05
578.54	2460.87
578.90	2453.95
579.25	2445.45
579.60	2436.44
579.95	2427.47
580.30	2419.50
580.66	2411.17
581.01	2401.84
581.36	2392.35
581.71	2384.44
582.06	2375.97
582.42	2367.85
582.77	2358.85
583.12	2349.92
583.47	2341.00
583.82	2332.58
584.17	2323.62
584.53	2314.57
584.88	2305.70
585.23	2296.48
585.58	2286.58
585.93	2276.71
586.28	2267.30
586.63	2258.17
586.98	2249.94
587.34	2241.44
587.69	2232.40
588.04	2223.09
588.39	2214.78
588.74	2206.02
589.09	2197.38
589.44	2187.65
589.79	2179.12
590.14	2171.17
590.49	2162.81
590.84	2153.84
591.19	2145.72
591.54	2137.12
591.89	2127.17
592.25	2117.94
592.60	2108.71
592.95	2099.32
593.30	2090.02
593.65	2080.13
594.00	2070.38
594.35	2062.08
594.70	2053.07
595.05	2044.16
595.40	2035.39
595.75	2026.19
596.10	2017.74
596.45	2008.99
596.80	2001.47
597.15	1993.14
597.50	1984.01
597.85	1975.86
598.19	1966.90
598.54	1958.27
598.89	1950.44
599.24	1943.91
599.59	1936.75
599.94	1929.56
600.29	1922.05
600.64	1914.03
600.99	1905.95
601.34	1898.77
601.69	1890.07
602.04	1881.78
602.39	1873.56
602.74	1865.81
603.08	1858.88
603.43	1851.60
603.78	1843.41
604.13	1835.20
604.48	1826.98
604.83	1819.90
605.18	1812.65
605.53	1805.54
605.87	1797.76
606.22	1790.62
606.57	1782.48
606.92	1774.31
607.27	1765.97
607.62	1758.97
607.96	1752.23
608.31	1746.16
608.66	1738.34
609.01	1730.63
609.36	1722.81
609.70	1715.10
610.05	1707.13
610.40	1698.64
610.75	1690.08
611.10	1682.90
611.44	1673.61
611.79	1664.45
612.14	1655.01
612.49	1645.24
612.83	1636.29
613.18	1626.68
613.53	1616.97
613.88	1607.18
614.22	1598.33
614.57	1589.28
614.92	1579.39
615.27	1569.95
615.61	1559.63
615.96	1550.64
616.31	1542.16
616.65	1534.24
617.00	1525.90
617.35	1517.34
617.70	1508.69
618.04	1499.73
618.39	1489.99
618.74	1481.73
619.08	1473.09
619.43	1465.15
619.78	1457.59
620.12	1449.39
620.47	1441.88
620.82	1433.46
621.16	1425.21
621.51	1416.67
621.85	1408.44
622.20	1400.00
622.55	1391.52
622.89	1383.57
623.24	1375.75
623.59	1367.09
623.93	1358.48
624.28	1350.32
624.62	1342.24
624.97	1334.10
625.32	1326.32
625.66	1318.89
626.01	1311.82
626.35	1304.90
626.70	1297.04
627.04	1289.29
627.39	1281.68
627.73	1273.99
628.08	1267.19
628.43	1259.85
628.77	1252.47
629.12	1245.10
629.46	1238.51
629.81	1231.20
630.15	1223.70
630.50	1216.06
630.84	1208.98
631.19	1201.93
631.53	1194.90
631.88	1187.27
632.22	1179.54
632.57	1172.49
632.91	1165.01
633.26	1157.28
633.60	1150.00
633.95	1143.07
634.29	1135.74
634.64	1129.29
634.98	1122.18
635.32	1115.10
635.67	1108.70
636.01	1102.14
636.36	1095.28
636.70	1088.49
637.05	1081.95
637.39	1075.51
637.73	1069.31
638.08	1063.41
638.42	1057.37
638.77	1050.95
639.11	1044.78
639.45	1038.82
639.80	1032.21
640.14	1025.82
640.49	1019.53
640.83	1013.38
641.17	1006.83
641.52	1000.90
641.86	994.20
642.20	988.00
642.55	981.29
642.89	974.76
643.23	968.52
643.58	962.75
643.92	956.53
644.26	950.29
644.61	944.50
644.95	938.45
645.29	932.06
645.64	925.55
645.98	919.28
646.32	913.40
646.66	907.05
647.01	901.30
647.35	895.44
647.69	889.49
648.04	883.33
648.38	877.60
648.72	871.52
649.06	865.58
649.41	859.68
649.75	853.93
650.09	848.06
650.43	841.94
650.78	835.49
651.12	829.26
651.46	823.64
651.80	817.58
652.14	811.48
652.49	805.69
652.83	799.93
653.17	793.99
653.51	788.03
653.85	782.55
654.20	776.49
654.54	770.76
654.88	765.08
655.22	759.37
655.56	753.50
655.90	747.69
656.25	741.87
656.59	736.23
656.93	731.05
657.27	725.94
657.61	720.51
657.95	715.54
658.29	710.63
658.64	705.35
658.98	700.21
659.32	694.99
659.66	689.80
660.00	684.41
660.34	679.21
660.68	674.06
661.02	668.96
661.36	664.26
661.70	659.40
662.05	654.72
662.39	650.27
662.73	645.89
663.07	641.38
663.41	636.90
663.75	632.40
664.09	627.63
664.43	622.79
664.77	618.48
665.11	614.01
665.45	609.53
665.79	605.14
666.13	600.70
666.47	596.50
666.81	592.25
667.15	588.06
667.49	584.28
667.83	580.43
668.17	576.61
668.51	572.73
668.85	568.97
669.19	565.28
669.53	561.23
669.87	557.21
670.21	553.31
670.55	549.57
670.89	546.06
671.23	542.78
671.57	539.38
671.91	535.84
672.25	532.22
672.58	528.75
672.92	525.28
673.26	522.17
673.60	518.82
673.94	515.35
674.28	512.13
674.62	508.92
674.96	505.68
675.30	502.60
675.64	499.54
675.97	496.44
676.31	493.35
676.65	490.43
676.99	487.81
677.33	484.98
677.67	482.02
678.01	478.98
678.34	475.91
678.68	473.00
679.02	469.99
679.36	467.21
679.70	464.33
680.04	461.37
680.37	458.25
680.71	455.48
681.05	453.01
681.39	450.40
681.73	447.60
682.06	445.10
682.40	442.48
682.74	439.72
683.08	437.15
683.42	434.40
683.75	431.92
684.09	429.19
684.43	426.74
684.77	424.28
685.10	421.83
685.44	419.20
685.78	416.74
686.12	414.42
686.45	412.11
686.79	409.90
687.13	407.80
687.46	405.69
687.80	403.55
688.14	401.23
688.48	399.09
688.81	396.90
689.15	394.76
689.49	392.53
689.82	390.46
690.16	388.06
690.50	385.88
690.83	383.63
691.17	381.36
691.51	379.14
691.84	377.04
692.18	374.97
692.52	373.16
692.85	371.28
693.19	369.42
693.52	367.40
693.86	365.35
694.20	363.54
694.53	361.73
694.87	359.82
695.21	357.87
695.54	355.86
695.88	353.96
696.21	352.03
696.55	350.24
696.88	348.51
697.22	346.91
697.56	345.42
697.89	343.74
698.23	342.17
698.56	340.58
698.90	339.08
699.23	337.47
699.57	335.84
699.90	334.10
700.24	332.40
700.58	330.82
700.91	329.28
701.25	327.78
701.58	326.36
701.92	325.00
702.25	323.60
702.59	322.25
702.92	320.89
703.26	319.44
703.59	318.22
703.93	317.05
704.26	315.73
704.60	314.39
704.93	313.15
705.26	311.90
705.60	310.69
705.93	309.38
706.27	308.15
706.60	307.00
706.94	306.02
707.27	304.92
707.61	303.81
707.94	302.71
708.27	301.42
708.61	300.17
708.94	298.93
709.28	297.86
709.61	296.73
709.94	295.67
710.28	294.68
710.61	293.55
710.95	292.37
711.28	291.51
711.61	290.48
711.95	289.47
712.28	288.48
712.61	287.43
712.95	286.54
713.28	285.67
713.61	284.74
713.95	283.80
714.28	282.93
714.61	282.03
714.95	281.08
715.28	280.25
715.61	279.31
715.95	278.50
716.28	277.63
716.61	276.78
716.95	275.91
717.28	275.05
717.61	274.20
717.94	273.37
718.28	272.46
718.61	271.69
718.94	271.01
719.27	270.20
719.61	269.54
719.94	268.86
720.27	268.02
720.60	267.35
720.94	266.52
721.27	265.84
721.60	265.20
721.93	264.61
722.27	263.91
722.60	263.35
722.93	262.70
723.26	262.15
723.59	261.57
723.93	260.93
724.26	260.34
724.59	259.73
724.92	259.18
725.25	258.59
725.59	258.00
725.92	257.48
726.25	256.91
726.58	256.40
726.91	255.81
727.24	255.37
727.57	254.81
727.91	254.32
728.24	253.80
728.57	253.27
728.90	252.76
729.23	252.37
729.56	251.97
729.89	251.48
730.22	250.96
730.55	250.53
730.89	250.13
731.22	249.69
731.55	249.27
731.88	248.79
732.21	248.31
732.54	247.87
732.87	247.43
733.20	247.09
733.53	246.67
733.86	246.22
734.19	245.77
734.52	245.45
734.85	245.20
735.18	244.80
735.51	244.45
735.84	244.00
736.17	243.64
736.50	243.16
736.83	243.00
737.16	242.63
737.49	242.27
737.82	241.82
738.15	241.51
738.48	241.14
738.81	240.79
739.14	240.50
739.47	240.17
739.80	239.73
740.13	239.44
740.46	239.05
740.79	238.65
741.12	238.34
741.45	237.92
741.78	237.55
742.11	237.28
742.44	236.90
742.77	236.70
743.10	236.35
743.43	236.09
743.75	235.60
744.08	235.55
744.41	235.27
744.74	235.03
745.07	234.69
745.40	234.50
745.73	234.32
746.06	234.03
746.39	233.79
746.71	233.57
747.04	233.30
747.37	233.08
747.70	232.90
748.03	232.62
748.36	232.37
748.68	232.12
749.01	231.81
749.34	231.64
749.67	231.45
750.00	231.24
750.33	231.15
750.65	230.93
750.98	230.42
751.31	230.17
751.64	229.96
751.97	229.93
752.29	229.62
752.62	229.32
752.95	229.10
753.28	228.85
753.60	228.60
753.93	228.36
754.26	228.09
754.59	227.87
754.91	227.73
755.24	227.62
755.57	227.38
755.90	227.21
756.22	226.97
756.55	226.74
756.88	226.59
757.20	226.24
757.53	226.06
757.86	225.84
758.19	225.72
758.51	225.60
758.84	225.23
759.17	225.09
759.49	224.96
759.82	224.82
760.15	224.67
760.47	224.45
760.80	224.25
761.13	224.17
761.45	224.10
761.78	223.88
762.11	223.72
762.43	223.54
762.76	223.41
763.08	223.32
763.41	223.09
763.74	222.93
764.06	222.80
764.39	222.64
764.71	222.57
765.04	222.38
765.37	222.24
765.69	222.13
766.02	221.96
766.34	221.82
766.67	221.69
767.00	221.53
767.32	221.50
767.65	221.52
767.97	221.36
768.30	221.12
768.62	221.06
768.95	220.83
769.27	220.76
769.60	220.61
769.92	220.47
770.25	220.41
770.57	220.15
770.90	220.00
771.22	219.80
771.55	219.70
771.87	219.56
772.20	219.34
772.52	219.35
772.85	219.45
773.17	219.29
773.50	219.23
773.82	219.18
774.15	219.05
774.47	218.79
774.80	218.70
775.12	218.63
775.45	218.45
775.77	218.44
776.09	218.40
776.42	218.35
776.74	218.31
777.07	218.22
777.39	218.22
777.72	218.14
778.04	218.19
778.36	218.11
778.69	218.06
779.01	218.07
779.33	217.93
779.66	217.70
779.98	217.63
780.31	217.51
780.63	217.52
780.95	217.55
781.28	217.58
781.60	217.48
781.92	217.51
782.25	217.48
782.57	217.45
782.89	217.29
783.22	217.17
783.54	217.09
783.86	217.06
784.19	216.99
784.51	216.94
784.83	216.73
785.16	216.67
785.48	216.64
785.80	216.53
786.12	216.48
786.45	216.45
