SpectraSuite Data File
++++++++++++++++++++++++++++++++++++
Date: Mon Feb 25 17:36:38 EST 2013
User: group
Dark Spectrum Present: No
Reference Spectrum Present: No
Number of Sampled Component Spectra: 1
Spectrometers: USB2E7196
Integration Time (usec): 52000 (USB2E7196)
Spectra Averaged: 20 (USB2E7196)
Boxcar Smoothing: 10 (USB2E7196)
Correct for Electrical Dark: No (USB2E7196)
Strobe/Lamp Enabled: No (USB2E7196)
Correct for Detector Non-linearity: No (USB2E7196)
Correct for Stray Light: No (USB2E7196)
Number of Pixels in Processed Spectrum: 2048
>>>>>Begin Processed Spectral Data<<<<<
339.09	0.00
339.48	197.90
339.86	198.65
340.24	200.50
340.63	202.20
341.01	206.35
341.39	206.75
341.78	207.40
342.16	207.45
342.54	208.30
342.93	197.92
343.31	207.93
343.69	208.53
344.07	209.05
344.46	209.63
344.84	210.16
345.22	210.47
345.60	210.74
345.99	210.99
346.37	211.30
346.75	211.54
347.13	211.64
347.52	211.83
347.90	212.13
348.28	212.32
348.66	212.48
349.05	212.53
349.43	212.72
349.81	212.81
350.19	212.97
350.57	213.21
350.96	213.36
351.34	213.57
351.72	213.79
352.10	213.95
352.48	214.03
352.87	214.17
353.25	214.27
353.63	214.40
354.01	214.56
354.39	214.58
354.77	214.72
355.15	214.94
355.54	215.02
355.92	215.05
356.30	215.19
356.68	215.43
357.06	215.52
357.44	215.55
357.82	215.66
358.20	215.73
358.58	215.77
358.97	215.83
359.35	215.96
359.73	216.05
360.11	216.18
360.49	216.32
360.87	216.35
361.25	216.45
361.63	216.54
362.01	216.62
362.39	216.75
362.77	216.76
363.15	216.78
363.53	216.79
363.91	216.82
364.29	216.84
364.67	216.68
365.05	216.74
365.43	216.81
365.81	216.85
366.19	216.92
366.57	216.99
366.95	217.05
367.33	217.04
367.71	217.03
368.09	217.14
368.47	217.13
368.85	217.11
369.23	217.18
369.61	217.17
369.99	217.20
370.37	217.19
370.75	217.29
371.13	217.19
371.51	217.18
371.89	217.15
372.27	217.10
372.65	217.09
373.03	217.05
373.41	216.99
373.78	216.93
374.16	216.82
374.54	216.68
374.92	216.61
375.30	216.49
375.68	216.38
376.06	216.35
376.44	216.25
376.82	216.19
377.19	216.06
377.57	216.00
377.95	215.85
378.33	215.78
378.71	215.63
379.09	215.65
379.47	215.60
379.84	215.51
380.22	215.45
380.60	215.35
380.98	215.34
381.36	215.29
381.73	215.25
382.11	215.23
382.49	215.26
382.87	215.21
383.25	215.22
383.62	215.44
384.00	215.36
384.38	215.36
384.76	215.43
385.13	215.48
385.51	215.43
385.89	215.38
386.27	215.35
386.64	215.43
387.02	215.36
387.40	215.32
387.78	215.36
388.15	215.38
388.53	215.40
388.91	215.36
389.29	215.41
389.66	215.44
390.04	215.41
390.42	215.46
390.79	215.48
391.17	215.46
391.55	215.29
391.92	215.24
392.30	215.30
392.68	215.30
393.05	215.26
393.43	215.30
393.81	215.33
394.18	215.32
394.56	215.32
394.94	215.42
395.31	215.45
395.69	215.61
396.06	215.73
396.44	215.83
396.82	215.88
397.19	216.02
397.57	216.09
397.95	216.20
398.32	216.34
398.70	216.59
399.07	216.83
399.45	217.08
399.82	217.36
400.20	217.54
400.58	217.75
400.95	217.95
401.33	218.31
401.70	218.79
402.08	219.18
402.45	219.53
402.83	220.00
403.20	220.46
403.58	220.90
403.95	221.40
404.33	221.94
404.71	222.52
405.08	223.22
405.46	223.96
405.83	224.84
406.21	225.53
406.58	226.32
406.96	227.25
407.33	228.16
407.70	229.26
408.08	230.65
408.45	231.97
408.83	233.45
409.20	234.89
409.58	236.37
409.95	238.10
410.33	239.91
410.70	241.81
411.08	243.90
411.45	246.16
411.82	248.58
412.20	251.17
412.57	254.18
412.95	256.96
413.32	260.08
413.69	263.42
414.07	267.05
414.44	271.01
414.82	275.01
415.19	279.78
415.56	284.54
415.94	289.66
416.31	295.32
416.68	301.09
417.06	307.59
417.43	313.70
417.81	320.83
418.18	328.20
418.55	336.05
418.93	344.48
419.30	353.06
419.67	362.12
420.04	371.76
420.42	381.81
420.79	392.90
421.16	404.64
421.54	416.30
421.91	428.77
422.28	441.78
422.66	455.71
423.03	468.85
423.40	483.07
423.77	498.30
424.15	513.93
424.52	530.06
424.89	547.62
425.26	565.11
425.64	581.59
426.01	599.93
426.38	619.12
426.75	638.32
427.13	658.65
427.50	680.08
427.87	702.56
428.24	725.30
428.61	747.45
428.99	770.70
429.36	796.91
429.73	822.30
430.10	847.84
430.47	873.88
430.85	901.55
431.22	930.21
431.59	960.40
431.96	989.85
432.33	1022.48
432.70	1054.38
433.08	1091.87
433.45	1127.13
433.82	1162.57
434.19	1201.42
434.56	1239.81
434.93	1276.93
435.30	1314.31
435.68	1355.23
436.05	1395.84
436.42	1436.68
436.79	1474.40
437.16	1515.04
437.53	1558.15
437.90	1600.58
438.27	1642.65
438.64	1687.07
439.01	1728.39
439.38	1765.97
439.75	1801.65
440.13	1842.28
440.50	1880.26
440.87	1911.91
441.24	1945.69
441.61	1982.26
441.98	2010.97
442.35	2043.60
442.72	2076.35
443.09	2107.45
443.46	2128.60
443.83	2143.95
444.20	2157.68
444.57	2176.25
444.94	2187.59
445.31	2198.47
445.68	2207.90
446.05	2215.22
446.42	2214.85
446.79	2213.61
447.16	2212.13
447.53	2212.28
447.90	2200.94
448.27	2190.07
448.64	2172.37
449.01	2159.97
449.37	2135.45
449.74	2111.74
450.11	2081.92
450.48	2050.60
450.85	2018.93
451.22	1991.26
451.59	1964.66
451.96	1939.59
452.33	1904.57
452.70	1872.30
453.07	1834.26
453.43	1796.42
453.80	1758.83
454.17	1722.95
454.54	1689.31
454.91	1652.35
455.28	1616.47
455.65	1583.22
456.02	1547.82
456.38	1518.99
456.75	1482.77
457.12	1452.91
457.49	1423.37
457.86	1395.92
458.23	1370.35
458.59	1342.56
458.96	1314.48
459.33	1290.13
459.70	1265.29
460.07	1245.84
460.43	1223.37
460.80	1201.67
461.17	1183.22
461.54	1163.38
461.91	1144.47
462.27	1125.17
462.64	1109.07
463.01	1090.81
463.38	1072.74
463.74	1056.97
464.11	1042.04
464.48	1028.87
464.85	1014.28
465.21	1002.49
465.58	990.20
465.95	975.96
466.32	964.09
466.68	952.38
467.05	940.41
467.42	928.46
467.78	916.26
468.15	904.46
468.52	895.81
468.88	884.48
469.25	874.54
469.62	866.20
469.98	857.39
470.35	849.25
470.72	841.50
471.08	833.65
471.45	826.24
471.82	818.62
472.18	810.69
472.55	805.19
472.92	798.80
473.28	792.85
473.65	787.52
474.02	782.04
474.38	777.42
474.75	773.38
475.11	769.07
475.48	765.61
475.85	762.82
476.21	759.96
476.58	757.54
476.94	755.71
477.31	753.45
477.67	751.41
478.04	749.82
478.41	748.98
478.77	747.98
479.14	747.10
479.50	747.07
479.87	747.69
480.23	748.09
480.60	748.11
480.96	748.35
481.33	749.71
481.69	750.98
482.06	751.99
482.42	752.72
482.79	754.32
483.15	756.87
483.52	760.25
483.88	763.09
484.25	766.14
484.61	769.09
484.98	772.53
485.34	776.73
485.71	781.02
486.07	785.71
486.44	790.87
486.80	796.35
487.17	801.99
487.53	808.44
487.90	815.12
488.26	822.27
488.62	830.08
488.99	837.72
489.35	845.67
489.72	854.90
490.08	864.78
490.44	874.25
490.81	884.00
491.17	893.57
491.54	904.49
491.90	915.06
492.26	926.62
492.63	938.65
492.99	950.97
493.36	963.80
493.72	977.17
494.08	990.68
494.45	1005.34
494.81	1020.48
495.17	1035.76
495.54	1051.57
495.90	1068.47
496.26	1085.45
496.63	1102.75
496.99	1120.64
497.35	1138.19
497.72	1156.60
498.08	1175.63
498.44	1194.80
498.80	1214.91
499.17	1234.90
499.53	1255.73
499.89	1276.98
500.26	1298.24
500.62	1319.24
500.98	1341.53
501.34	1363.85
501.71	1386.70
502.07	1409.20
502.43	1432.25
502.79	1455.10
503.16	1478.14
503.52	1501.09
503.88	1523.90
504.24	1547.01
504.60	1570.39
504.97	1594.77
505.33	1618.68
505.69	1643.82
506.05	1668.56
506.41	1692.80
506.78	1717.32
507.14	1741.93
507.50	1766.94
507.86	1792.10
508.22	1817.78
508.59	1842.30
508.95	1867.40
509.31	1892.85
509.67	1918.54
510.03	1943.85
510.39	1969.38
510.75	1994.46
511.12	2019.15
511.48	2043.88
511.84	2068.55
512.20	2092.73
512.56	2117.22
512.92	2141.75
513.28	2165.67
513.64	2189.43
514.00	2212.89
514.37	2236.45
514.73	2259.90
515.09	2282.20
515.45	2304.70
515.81	2327.18
516.17	2349.85
516.53	2371.30
516.89	2392.23
517.25	2411.81
517.61	2431.58
517.97	2450.87
518.33	2469.96
518.69	2489.30
519.05	2509.37
519.41	2528.98
519.77	2548.85
520.13	2567.27
520.49	2585.15
520.85	2602.58
521.21	2619.71
521.57	2637.91
521.93	2654.15
522.29	2671.40
522.65	2688.42
523.01	2704.70
523.37	2719.91
523.73	2735.09
524.09	2749.90
524.45	2764.66
524.81	2779.41
525.17	2794.42
525.53	2809.26
525.89	2824.59
526.25	2839.60
526.61	2852.14
526.97	2865.73
527.33	2878.75
527.68	2891.86
528.04	2904.89
528.40	2916.96
528.76	2929.88
529.12	2940.73
529.48	2953.16
529.84	2962.65
530.20	2973.99
530.56	2985.06
530.91	2996.93
531.27	3007.71
531.63	3018.73
531.99	3028.92
532.35	3039.48
532.71	3049.53
533.07	3060.80
533.42	3070.37
533.78	3080.48
534.14	3090.43
534.50	3099.02
534.86	3108.13
535.21	3115.72
535.57	3124.95
535.93	3133.19
536.29	3140.05
536.65	3148.94
537.00	3156.31
537.36	3165.17
537.72	3171.80
538.08	3179.12
538.44	3185.92
538.79	3192.77
539.15	3200.07
539.51	3207.74
539.87	3215.33
540.22	3221.91
540.58	3227.73
540.94	3234.34
541.29	3238.97
541.65	3242.44
542.01	3246.93
542.37	3250.91
542.72	3256.48
543.08	3259.48
543.44	3263.79
543.79	3267.36
544.15	3270.00
544.51	3273.90
544.87	3277.35
545.22	3280.03
545.58	3281.56
545.94	3282.66
546.29	3284.05
546.65	3284.70
547.01	3285.29
547.36	3286.23
547.72	3287.05
548.07	3286.68
548.43	3286.59
548.79	3286.16
549.14	3288.02
549.50	3289.11
549.86	3290.15
550.21	3289.31
550.57	3289.89
550.92	3289.19
551.28	3288.60
551.64	3288.03
551.99	3286.99
552.35	3286.05
552.70	3285.83
553.06	3285.56
553.41	3285.59
553.77	3285.60
554.13	3285.54
554.48	3286.02
554.84	3285.27
555.19	3283.85
555.55	3283.68
555.90	3282.76
556.26	3282.36
556.61	3281.23
556.97	3278.52
557.32	3275.12
557.68	3272.67
558.03	3270.05
558.39	3268.04
558.74	3268.20
559.10	3267.84
559.45	3267.19
559.81	3266.41
560.16	3264.90
560.52	3264.25
560.87	3262.46
561.23	3258.60
561.58	3255.41
561.94	3250.47
562.29	3245.90
562.64	3242.74
563.00	3239.26
563.35	3234.95
563.71	3231.40
564.06	3228.72
564.42	3226.43
564.77	3224.18
565.12	3221.91
565.48	3218.87
565.83	3216.00
566.19	3212.85
566.54	3208.53
566.89	3203.19
567.25	3197.65
567.60	3194.18
567.96	3188.60
568.31	3183.55
568.66	3180.26
569.02	3177.00
569.37	3174.09
569.72	3171.26
570.08	3167.45
570.43	3161.92
570.78	3157.97
571.14	3153.90
571.49	3148.46
571.84	3143.86
572.20	3138.03
572.55	3132.82
572.90	3126.92
573.26	3121.00
573.61	3113.20
573.96	3106.07
574.31	3099.10
574.67	3092.84
575.02	3084.56
575.37	3077.27
575.72	3070.35
576.08	3062.86
576.43	3054.22
576.78	3046.47
577.13	3038.55
577.49	3031.04
577.84	3024.26
578.19	3015.95
578.54	3007.58
578.90	2999.62
579.25	2990.59
579.60	2981.64
579.95	2972.87
580.30	2964.71
580.66	2955.98
581.01	2947.00
581.36	2937.60
581.71	2929.32
582.06	2920.59
582.42	2912.82
582.77	2903.59
583.12	2893.84
583.47	2884.84
583.82	2875.98
584.17	2865.78
584.53	2856.56
584.88	2845.68
585.23	2835.19
585.58	2826.18
585.93	2815.95
586.28	2806.65
586.63	2796.55
586.98	2787.61
587.34	2778.30
587.69	2767.85
588.04	2758.18
588.39	2749.16
588.74	2738.83
589.09	2728.75
589.44	2717.16
589.79	2705.88
590.14	2696.17
590.49	2685.30
590.84	2675.22
591.19	2665.31
591.54	2654.88
591.89	2643.24
592.25	2633.09
592.60	2621.55
592.95	2609.68
593.30	2598.63
593.65	2587.30
594.00	2577.11
594.35	2567.12
594.70	2555.68
595.05	2545.40
595.40	2533.30
595.75	2521.37
596.10	2511.03
596.45	2499.88
596.80	2490.27
597.15	2479.66
597.50	2468.44
597.85	2458.55
598.19	2446.38
598.54	2434.78
598.89	2423.93
599.24	2413.49
599.59	2402.81
599.94	2393.64
600.29	2383.88
600.64	2373.52
600.99	2361.88
601.34	2351.32
601.69	2339.85
602.04	2328.99
602.39	2318.51
602.74	2310.09
603.08	2301.43
603.43	2292.85
603.78	2283.05
604.13	2272.87
604.48	2261.85
604.83	2252.36
605.18	2242.42
605.53	2232.96
605.87	2223.13
606.22	2213.69
606.57	2203.94
606.92	2193.18
607.27	2182.35
607.62	2171.87
607.96	2162.20
608.31	2153.31
608.66	2142.55
609.01	2131.96
609.36	2121.44
609.70	2110.42
610.05	2097.78
610.40	2085.52
610.75	2073.10
611.10	2061.79
611.44	2049.69
611.79	2039.07
612.14	2027.37
612.49	2014.94
612.83	2003.35
613.18	1991.40
613.53	1979.51
613.88	1966.81
614.22	1955.12
614.57	1942.73
614.92	1930.38
615.27	1917.89
615.61	1904.61
615.96	1892.70
616.31	1881.42
616.65	1870.39
617.00	1859.38
617.35	1848.98
617.70	1837.30
618.04	1825.28
618.39	1813.25
618.74	1802.16
619.08	1789.98
619.43	1777.80
619.78	1767.22
620.12	1756.67
620.47	1746.06
620.82	1735.00
621.16	1724.58
621.51	1714.11
621.85	1703.49
622.20	1692.47
622.55	1681.07
622.89	1670.66
623.24	1660.28
623.59	1649.06
623.93	1637.90
624.28	1626.58
624.62	1615.57
624.97	1605.16
625.32	1595.35
625.66	1585.60
626.01	1575.37
626.35	1566.62
626.70	1557.55
627.04	1547.38
627.39	1536.61
627.73	1526.42
628.08	1516.72
628.43	1506.99
628.77	1497.96
629.12	1488.28
629.46	1479.28
629.81	1469.90
630.15	1460.18
630.50	1450.32
630.84	1440.83
631.19	1431.25
631.53	1422.02
631.88	1412.57
632.22	1403.74
632.57	1395.06
632.91	1386.17
633.26	1377.47
633.60	1368.10
633.95	1359.29
634.29	1351.11
634.64	1343.18
634.98	1334.11
635.32	1325.81
635.67	1318.03
636.01	1309.37
636.36	1301.49
636.70	1293.15
637.05	1284.91
637.39	1277.11
637.73	1269.18
638.08	1261.90
638.42	1254.58
638.77	1247.01
639.11	1239.24
639.45	1231.36
639.80	1223.00
640.14	1215.08
640.49	1207.06
640.83	1198.62
641.17	1190.42
641.52	1182.20
641.86	1173.91
642.20	1166.41
642.55	1157.44
642.89	1148.19
643.23	1139.76
643.58	1131.88
643.92	1123.55
644.26	1115.55
644.61	1107.43
644.95	1099.22
645.29	1090.81
645.64	1082.08
645.98	1073.97
646.32	1066.31
646.66	1058.75
647.01	1051.17
647.35	1043.46
647.69	1035.60
648.04	1028.35
648.38	1020.55
648.72	1013.15
649.06	1005.68
649.41	998.35
649.75	991.27
650.09	984.69
650.43	977.76
650.78	970.43
651.12	963.41
651.46	956.82
651.80	950.35
652.14	944.19
652.49	937.53
652.83	931.06
653.17	923.98
653.51	917.00
653.85	910.29
654.20	904.04
654.54	897.76
654.88	891.53
655.22	884.89
655.56	878.06
655.90	870.75
656.25	863.89
656.59	857.36
656.93	851.06
657.27	844.50
657.61	837.72
657.95	831.41
658.29	825.33
658.64	819.23
658.98	812.85
659.32	806.26
659.66	800.26
660.00	794.30
660.34	788.66
660.68	782.77
661.02	776.46
661.36	770.33
661.70	764.49
662.05	758.88
662.39	753.57
662.73	748.60
663.07	743.98
663.41	739.19
663.75	734.26
664.09	729.18
664.43	724.05
664.77	719.18
665.11	714.30
665.45	709.62
665.79	704.88
666.13	700.30
666.47	695.83
666.81	691.31
667.15	686.85
667.49	682.44
667.83	678.20
668.17	674.00
668.51	669.67
668.85	665.11
669.19	660.98
669.53	656.53
669.87	652.03
670.21	647.70
670.55	643.35
670.89	638.87
671.23	634.89
671.57	630.80
671.91	626.84
672.25	622.74
672.58	618.51
672.92	614.42
673.26	610.54
673.60	606.58
673.94	602.73
674.28	599.10
674.62	595.33
674.96	591.44
675.30	587.74
675.64	584.05
675.97	580.46
676.31	577.00
676.65	573.71
676.99	570.85
677.33	567.66
677.67	564.24
678.01	560.92
678.34	557.41
678.68	554.01
679.02	550.69
679.36	547.50
679.70	544.19
680.04	540.96
680.37	537.52
680.71	534.29
681.05	531.20
681.39	527.90
681.73	524.81
682.06	521.83
682.40	518.76
682.74	515.80
683.08	512.81
683.42	509.45
683.75	506.37
684.09	502.97
684.43	499.86
684.77	496.84
685.10	493.67
685.44	490.62
685.78	487.68
686.12	484.76
686.45	481.68
686.79	478.82
687.13	476.09
687.46	473.55
687.80	470.85
688.14	467.95
688.48	465.28
688.81	462.45
689.15	459.90
689.49	457.21
689.82	454.35
690.16	451.46
690.50	448.79
690.83	446.06
691.17	443.46
691.51	440.78
691.84	438.29
692.18	436.09
692.52	433.83
692.85	431.55
693.19	429.13
693.52	426.81
693.86	424.41
694.20	421.89
694.53	419.39
694.87	416.87
695.21	414.42
695.54	412.14
695.88	409.91
696.21	407.51
696.55	405.35
696.88	403.39
697.22	401.56
697.56	399.65
697.89	397.70
698.23	395.68
698.56	393.64
698.90	391.65
699.23	389.53
699.57	387.58
699.90	385.45
700.24	383.45
700.58	381.54
700.91	379.68
701.25	377.92
701.58	376.20
701.92	374.51
702.25	372.94
702.59	371.24
702.92	369.48
703.26	367.83
703.59	366.22
703.93	364.63
704.26	362.85
704.60	361.16
704.93	359.49
705.26	357.84
705.60	356.35
705.93	354.89
706.27	353.49
706.60	351.98
706.94	350.57
707.27	348.98
707.61	347.42
707.94	345.90
708.27	344.39
708.61	342.82
708.94	341.41
709.28	340.03
709.61	338.57
709.94	337.10
710.28	335.57
710.61	334.09
710.95	332.51
711.28	331.19
711.61	329.80
711.95	328.35
712.28	327.03
712.61	325.59
712.95	324.29
713.28	323.05
713.61	321.73
713.95	320.48
714.28	319.40
714.61	318.23
714.95	317.04
715.28	315.78
715.61	314.55
715.95	313.26
716.28	312.00
716.61	310.75
716.95	309.54
717.28	308.42
717.61	307.37
717.94	306.23
718.28	305.20
718.61	304.22
718.94	303.25
719.27	302.21
719.61	301.30
719.94	300.31
720.27	299.12
720.60	298.15
720.94	297.25
721.27	296.33
721.60	295.50
721.93	294.64
722.27	293.86
722.60	293.10
722.93	292.27
723.26	291.40
723.59	290.51
723.93	289.74
724.26	289.00
724.59	288.12
724.92	287.50
725.25	286.69
725.59	285.88
725.92	285.17
726.25	284.47
726.58	283.68
726.91	282.89
727.24	282.15
727.57	281.39
727.91	280.50
728.24	279.68
728.57	278.86
728.90	278.19
729.23	277.46
729.56	276.80
729.89	276.07
730.22	275.43
730.55	274.82
730.89	274.17
731.22	273.38
731.55	272.77
731.88	272.05
732.21	271.26
732.54	270.57
732.87	269.95
733.20	269.30
733.53	268.76
733.86	268.15
734.19	267.68
734.52	267.20
734.85	266.91
735.18	266.42
735.51	265.89
735.84	265.29
736.17	264.75
736.50	264.13
736.83	263.91
737.16	263.37
737.49	262.79
737.82	262.23
738.15	261.81
738.48	261.25
738.81	260.74
739.14	260.30
739.47	259.81
739.80	259.20
740.13	258.79
740.46	258.23
740.79	257.66
741.12	257.04
741.45	256.42
741.78	255.81
742.11	255.33
742.44	254.86
742.77	254.44
743.10	253.90
743.43	253.36
743.75	252.61
744.08	252.40
744.41	251.95
744.74	251.50
745.07	250.97
745.40	250.53
745.73	250.12
746.06	249.67
746.39	249.23
746.71	248.76
747.04	248.21
747.37	247.83
747.70	247.56
748.03	247.24
748.36	246.88
748.68	246.57
749.01	246.08
749.34	245.70
749.67	245.25
750.00	244.82
750.33	244.60
750.65	244.30
750.98	243.65
751.31	243.31
751.64	243.00
751.97	242.77
752.29	242.45
752.62	242.00
752.95	241.67
753.28	241.34
753.60	241.05
753.93	240.78
754.26	240.36
754.59	239.84
754.91	239.41
755.24	239.08
755.57	238.62
755.90	238.35
756.22	238.01
756.55	237.75
756.88	237.53
757.20	237.12
757.53	236.80
757.86	236.54
758.19	236.34
758.51	236.01
758.84	235.64
759.17	235.27
759.49	234.99
759.82	234.78
760.15	234.49
760.47	234.27
760.80	233.99
761.13	233.79
761.45	233.62
761.78	233.40
762.11	233.14
762.43	232.90
762.76	232.62
763.08	232.35
763.41	232.07
763.74	231.86
764.06	231.57
764.39	231.24
764.71	231.00
765.04	230.66
765.37	230.43
765.69	230.14
766.02	229.97
766.34	229.76
766.67	229.53
767.00	229.33
767.32	229.17
767.65	229.07
767.97	228.85
768.30	228.65
768.62	228.45
768.95	228.25
769.27	228.08
769.60	227.91
769.92	227.76
770.25	227.53
770.57	227.25
770.90	227.07
771.22	226.90
771.55	226.69
771.87	226.52
772.20	226.31
772.52	226.28
772.85	226.24
773.17	226.12
773.50	225.89
773.82	225.71
774.15	225.46
774.47	225.28
774.80	225.12
775.12	224.98
775.45	224.84
775.77	224.76
776.09	224.67
776.42	224.54
776.74	224.39
777.07	224.28
777.39	224.21
777.72	224.13
778.04	224.02
778.36	223.90
778.69	223.80
779.01	223.71
779.33	223.52
779.66	223.20
779.98	223.05
780.31	223.01
780.63	222.98
780.95	222.86
781.28	222.63
781.60	222.47
781.92	222.35
782.25	222.21
782.57	222.00
782.89	221.83
