SpectraSuite Data File
++++++++++++++++++++++++++++++++++++
Date: Mon Feb 25 17:31:25 EST 2013
User: group
Dark Spectrum Present: No
Reference Spectrum Present: No
Number of Sampled Component Spectra: 1
Spectrometers: USB2E7196
Integration Time (usec): 52000 (USB2E7196)
Spectra Averaged: 20 (USB2E7196)
Boxcar Smoothing: 10 (USB2E7196)
Correct for Electrical Dark: No (USB2E7196)
Strobe/Lamp Enabled: No (USB2E7196)
Correct for Detector Non-linearity: No (USB2E7196)
Correct for Stray Light: No (USB2E7196)
Number of Pixels in Processed Spectrum: 2048
>>>>>Begin Processed Spectral Data<<<<<
339.09	0.00
339.48	198.60
339.86	199.15
340.24	202.45
340.63	201.50
341.01	206.80
341.39	206.40
341.78	206.10
342.16	208.70
342.54	208.05
342.93	197.69
343.31	207.72
343.69	208.22
344.07	208.74
344.46	209.10
344.84	209.55
345.22	209.75
345.60	209.86
345.99	210.08
346.37	210.17
346.75	210.29
347.13	210.37
347.52	210.44
347.90	210.55
348.28	210.57
348.66	210.60
349.05	210.52
349.43	210.61
349.81	210.67
350.19	210.77
350.57	210.86
350.96	210.95
351.34	210.99
351.72	211.08
352.10	211.17
352.48	211.26
352.87	211.30
353.25	211.35
353.63	211.50
354.01	211.60
354.39	211.75
354.77	211.87
355.15	212.02
355.54	212.09
355.92	212.13
356.30	212.22
356.68	212.40
357.06	212.53
357.44	212.58
357.82	212.68
358.20	212.70
358.58	212.80
358.97	212.89
359.35	213.01
359.73	213.17
360.11	213.20
360.49	213.28
360.87	213.41
361.25	213.52
361.63	213.68
362.01	213.67
362.39	213.71
362.77	213.77
363.15	213.85
363.53	213.87
363.91	213.92
364.29	213.93
364.67	213.87
365.05	213.82
365.43	213.85
365.81	213.89
366.19	213.98
366.57	214.04
366.95	214.02
367.33	214.06
367.71	214.07
368.09	214.18
368.47	214.16
368.85	214.20
369.23	214.21
369.61	214.11
369.99	214.27
370.37	214.21
370.75	214.29
371.13	214.26
371.51	214.19
371.89	214.19
372.27	214.18
372.65	214.10
373.03	214.19
373.41	214.13
373.78	214.11
374.16	214.07
374.54	213.99
374.92	214.02
375.30	214.01
375.68	213.95
376.06	213.91
376.44	213.89
376.82	213.81
377.19	213.80
377.57	213.77
377.95	213.66
378.33	213.66
378.71	213.50
379.09	213.44
379.47	213.47
379.84	213.41
380.22	213.36
380.60	213.37
380.98	213.26
381.36	213.14
381.73	213.08
382.11	213.08
382.49	213.10
382.87	212.97
383.25	212.89
383.62	213.05
384.00	212.93
384.38	212.85
384.76	212.80
385.13	212.82
385.51	212.78
385.89	212.68
386.27	212.59
386.64	212.58
387.02	212.50
387.40	212.35
387.78	212.32
388.15	212.34
388.53	212.25
388.91	212.27
389.29	212.34
389.66	212.29
390.04	212.16
390.42	212.11
390.79	212.15
391.17	212.09
391.55	211.89
391.92	211.81
392.30	211.83
392.68	211.81
393.05	211.75
393.43	211.72
393.81	211.71
394.18	211.69
394.56	211.66
394.94	211.69
395.31	211.75
395.69	211.74
396.06	211.71
396.44	211.73
396.82	211.67
397.19	211.73
397.57	211.75
397.95	211.78
398.32	211.74
398.70	211.75
399.07	211.81
399.45	211.79
399.82	211.86
400.20	211.90
400.58	211.96
400.95	211.92
401.33	211.96
401.70	212.12
402.08	212.12
402.45	212.15
402.83	212.20
403.20	212.35
403.58	212.42
403.95	212.57
404.33	212.65
404.71	212.78
405.08	212.93
405.46	213.01
405.83	213.15
406.21	213.23
406.58	213.36
406.96	213.50
407.33	213.67
407.70	213.88
408.08	214.14
408.45	214.31
408.83	214.51
409.20	214.71
409.58	214.87
409.95	215.23
410.33	215.52
410.70	215.83
411.08	216.14
411.45	216.49
411.82	216.76
412.20	217.13
412.57	217.70
412.95	218.10
413.32	218.63
413.69	219.20
414.07	219.82
414.44	220.42
414.82	221.05
415.19	221.79
415.56	222.54
415.94	223.26
416.31	224.17
416.68	225.06
417.06	226.17
417.43	227.20
417.81	228.27
418.18	229.38
418.55	230.56
418.93	231.82
419.30	233.13
419.67	234.57
420.04	236.04
420.42	237.44
420.79	239.18
421.16	240.87
421.54	242.56
421.91	244.41
422.28	246.27
422.66	248.30
423.03	250.39
423.40	252.39
423.77	254.59
424.15	256.75
424.52	259.13
424.89	261.57
425.26	263.92
425.64	266.24
426.01	268.88
426.38	271.53
426.75	274.18
427.13	276.92
427.50	279.83
427.87	282.85
428.24	285.85
428.61	288.68
428.99	291.89
429.36	295.40
429.73	298.80
430.10	302.28
430.47	305.74
430.85	309.30
431.22	313.28
431.59	317.37
431.96	321.25
432.33	325.54
432.70	329.69
433.08	334.55
433.45	339.15
433.82	343.58
434.19	348.59
434.56	353.55
434.93	358.32
435.30	362.99
435.68	368.20
436.05	373.36
436.42	378.42
436.79	383.07
437.16	388.00
437.53	393.27
437.90	398.45
438.27	403.57
438.64	408.86
439.01	413.75
439.38	418.07
439.75	422.28
440.13	427.10
440.50	431.54
440.87	435.08
441.24	438.79
441.61	443.11
441.98	446.13
442.35	449.68
442.72	453.30
443.09	456.74
443.46	458.67
443.83	460.00
444.20	461.20
444.57	462.88
444.94	463.79
445.31	464.53
445.68	465.34
446.05	465.46
446.42	464.62
446.79	463.77
447.16	462.88
447.53	462.21
447.90	459.98
448.27	457.92
448.64	455.19
449.01	453.14
449.37	449.44
449.74	446.05
450.11	442.05
450.48	437.59
450.85	433.12
451.22	429.40
451.59	425.71
451.96	422.20
452.33	417.56
452.70	413.20
453.07	408.10
453.43	402.86
453.80	397.93
454.17	393.33
454.54	388.87
454.91	384.22
455.28	379.64
455.65	375.38
456.02	371.16
456.38	367.45
456.75	362.84
457.12	359.07
457.49	355.32
457.86	351.57
458.23	348.42
458.59	345.00
458.96	341.49
459.33	338.38
459.70	335.24
460.07	332.73
460.43	329.89
460.80	327.23
461.17	324.87
461.54	322.46
461.91	320.24
462.27	317.84
462.64	315.77
463.01	313.51
463.38	311.41
463.74	309.13
464.11	307.25
464.48	305.68
464.85	303.90
465.21	302.53
465.58	301.15
465.95	299.40
466.32	298.04
466.68	296.60
467.05	295.16
467.42	293.90
467.78	292.50
468.15	291.10
468.52	290.26
468.88	288.99
469.25	287.94
469.62	286.93
469.98	285.99
470.35	285.06
470.72	284.22
471.08	283.25
471.45	282.58
471.82	281.83
472.18	280.97
472.55	280.46
472.92	279.67
473.28	278.97
473.65	278.42
474.02	277.85
474.38	277.41
474.75	277.08
475.11	276.59
475.48	276.27
475.85	276.09
476.21	275.79
476.58	275.65
476.94	275.55
477.31	275.54
477.67	275.55
478.04	275.59
478.41	275.73
478.77	276.10
479.14	276.20
479.50	276.56
479.87	276.95
480.23	277.24
480.60	277.76
480.96	278.30
481.33	278.91
481.69	279.51
482.06	280.23
482.42	280.86
482.79	281.65
483.15	282.58
483.52	283.68
483.88	284.70
484.25	285.71
484.61	286.86
484.98	288.00
485.34	289.26
485.71	290.61
486.07	291.95
486.44	293.25
486.80	294.80
487.17	296.30
487.53	298.06
487.90	299.91
488.26	301.85
488.62	303.82
488.99	305.88
489.35	308.06
489.72	310.35
490.08	312.90
490.44	315.25
490.81	317.80
491.17	320.39
491.54	323.25
491.90	326.23
492.26	329.45
492.63	332.77
492.99	336.09
493.36	339.81
493.72	343.78
494.08	347.80
494.45	352.08
494.81	356.60
495.17	361.16
495.54	366.12
495.90	371.01
496.26	376.20
496.63	381.71
496.99	387.34
497.35	393.21
497.72	399.48
498.08	406.08
498.44	412.82
498.80	419.92
499.17	427.28
499.53	434.97
499.89	442.80
500.26	450.95
500.62	459.24
500.98	468.13
501.34	477.09
501.71	486.55
502.07	496.09
502.43	506.07
502.79	516.23
503.16	526.68
503.52	537.59
503.88	548.79
504.24	560.34
504.60	572.14
504.97	584.57
505.33	596.91
505.69	610.02
506.05	623.48
506.41	637.08
506.78	650.85
507.14	665.03
507.50	679.52
507.86	694.28
508.22	709.90
508.59	725.11
508.95	741.00
509.31	757.01
509.67	773.62
510.03	790.47
510.39	807.95
510.75	825.49
511.12	843.42
511.48	861.76
511.84	880.25
512.20	898.72
512.56	917.57
512.92	936.93
513.28	956.19
513.64	975.47
514.00	995.22
514.37	1015.35
514.73	1035.89
515.09	1056.55
515.45	1077.20
515.81	1097.93
516.17	1119.27
516.53	1140.54
516.89	1162.09
517.25	1183.42
517.61	1204.65
517.97	1226.00
518.33	1247.37
518.69	1268.72
519.05	1290.69
519.41	1312.54
519.77	1335.07
520.13	1356.94
520.49	1378.99
520.85	1401.54
521.21	1424.11
521.57	1446.83
521.93	1468.62
522.29	1491.21
522.65	1513.37
523.01	1535.54
523.37	1557.67
523.73	1579.64
524.09	1601.83
524.45	1623.81
524.81	1645.86
525.17	1668.00
525.53	1690.00
525.89	1712.15
526.25	1734.02
526.61	1754.67
526.97	1776.32
527.33	1797.44
527.68	1818.66
528.04	1839.36
528.40	1859.30
528.76	1879.67
529.12	1899.67
529.48	1921.03
529.84	1940.90
530.20	1961.07
530.56	1981.55
530.91	2002.05
531.27	2022.09
531.63	2041.41
531.99	2060.70
532.35	2079.78
532.71	2098.74
533.07	2118.06
533.42	2136.49
533.78	2155.06
534.14	2173.49
534.50	2190.23
534.86	2207.74
535.21	2224.39
535.57	2241.82
535.93	2259.15
536.29	2275.88
536.65	2292.76
537.00	2307.73
537.36	2322.91
537.72	2337.81
538.08	2352.66
538.44	2367.54
538.79	2382.73
539.15	2397.49
539.51	2412.22
539.87	2426.96
540.22	2440.99
540.58	2455.47
540.94	2469.54
541.29	2482.14
541.65	2494.23
542.01	2507.11
542.37	2518.80
542.72	2531.04
543.08	2541.83
543.44	2553.32
543.79	2562.97
544.15	2572.64
544.51	2583.73
544.87	2594.05
545.22	2603.14
545.58	2611.47
545.94	2618.39
546.29	2624.56
546.65	2630.50
547.01	2636.14
547.36	2641.69
547.72	2646.95
548.07	2650.62
548.43	2654.03
548.79	2658.23
549.14	2662.61
549.50	2666.42
549.86	2670.16
550.21	2673.81
550.57	2677.76
550.92	2680.08
551.28	2682.89
551.64	2685.04
551.99	2686.95
552.35	2688.83
552.70	2691.17
553.06	2693.67
553.41	2696.69
553.77	2699.36
554.13	2701.55
554.48	2703.50
554.84	2704.81
555.19	2705.52
555.55	2706.21
555.90	2706.58
556.26	2706.63
556.61	2706.66
556.97	2705.57
557.32	2705.23
557.68	2703.39
558.03	2701.57
558.39	2700.02
558.74	2699.35
559.10	2698.38
559.45	2696.51
559.81	2695.13
560.16	2692.38
560.52	2689.51
560.87	2686.64
561.23	2682.87
561.58	2680.40
561.94	2676.97
562.29	2673.23
562.64	2670.49
563.00	2667.64
563.35	2665.67
563.71	2663.99
564.06	2661.35
564.42	2659.71
564.77	2656.94
565.12	2655.04
565.48	2651.84
565.83	2648.88
566.19	2645.50
566.54	2641.20
566.89	2637.18
567.25	2633.00
567.60	2629.50
567.96	2626.03
568.31	2621.77
568.66	2617.96
569.02	2613.62
569.37	2608.50
569.72	2604.78
570.08	2599.63
570.43	2594.01
570.78	2588.19
571.14	2581.54
571.49	2575.03
571.84	2568.77
572.20	2561.78
572.55	2555.25
572.90	2548.70
573.26	2541.56
573.61	2534.43
573.96	2527.73
574.31	2520.11
574.67	2512.16
575.02	2504.26
575.37	2495.80
575.72	2486.96
576.08	2479.16
576.43	2470.41
576.78	2462.96
577.13	2454.70
577.49	2446.97
577.84	2439.49
578.19	2431.83
578.54	2424.64
578.90	2417.75
579.25	2409.45
579.60	2400.65
579.95	2391.25
580.30	2383.21
580.66	2374.94
581.01	2366.13
581.36	2356.95
581.71	2348.78
582.06	2340.62
582.42	2332.52
582.77	2323.72
583.12	2315.26
583.47	2306.79
583.82	2298.44
584.17	2289.25
584.53	2280.42
584.88	2271.45
585.23	2262.30
585.58	2253.05
585.93	2243.36
586.28	2234.33
586.63	2225.78
586.98	2217.74
587.34	2209.74
587.69	2200.72
588.04	2192.08
588.39	2183.75
588.74	2175.16
589.09	2166.48
589.44	2156.97
589.79	2148.22
590.14	2140.36
590.49	2132.25
590.84	2123.27
591.19	2115.44
591.54	2107.13
591.89	2097.09
592.25	2088.43
592.60	2079.39
592.95	2070.29
593.30	2061.04
593.65	2051.48
594.00	2041.74
594.35	2033.35
594.70	2024.30
595.05	2015.83
595.40	2007.14
595.75	1997.81
596.10	1989.76
596.45	1981.24
596.80	1973.70
597.15	1965.79
597.50	1956.83
597.85	1948.32
598.19	1939.83
598.54	1930.93
598.89	1922.92
599.24	1916.33
599.59	1908.80
599.94	1901.80
600.29	1893.98
600.64	1886.35
600.99	1877.85
601.34	1870.82
601.69	1862.52
602.04	1854.48
602.39	1846.26
602.74	1838.49
603.08	1831.93
603.43	1825.10
603.78	1817.50
604.13	1809.53
604.48	1801.51
604.83	1794.59
605.18	1787.90
605.53	1780.49
605.87	1773.07
606.22	1766.12
606.57	1758.69
606.92	1750.51
607.27	1742.59
607.62	1735.51
607.96	1728.55
608.31	1722.89
608.66	1715.15
609.01	1707.75
609.36	1700.52
609.70	1692.95
610.05	1685.42
610.40	1677.73
610.75	1669.10
611.10	1661.75
611.44	1652.83
611.79	1644.15
612.14	1635.11
612.49	1625.48
612.83	1616.97
613.18	1607.60
613.53	1598.31
613.88	1588.42
614.22	1579.66
614.57	1570.09
614.92	1560.84
615.27	1551.65
615.61	1541.77
615.96	1532.99
616.31	1524.40
616.65	1516.38
617.00	1508.17
617.35	1499.63
617.70	1490.54
618.04	1481.46
618.39	1472.09
618.74	1463.82
619.08	1454.99
619.43	1447.06
619.78	1439.28
620.12	1431.40
620.47	1423.81
620.82	1415.40
621.16	1407.38
621.51	1399.46
621.85	1391.54
622.20	1383.07
622.55	1374.85
622.89	1366.76
623.24	1358.95
623.59	1350.66
623.93	1342.12
624.28	1334.14
624.62	1326.15
624.97	1318.21
625.32	1310.66
625.66	1303.43
626.01	1296.44
626.35	1289.55
626.70	1281.47
627.04	1274.19
627.39	1266.66
627.73	1259.15
628.08	1252.49
628.43	1245.20
628.77	1237.70
629.12	1230.29
629.46	1223.92
629.81	1216.90
630.15	1209.53
630.50	1202.08
630.84	1194.75
631.19	1187.60
631.53	1180.67
631.88	1173.20
632.22	1165.68
632.57	1158.82
632.91	1151.33
633.26	1143.77
633.60	1136.53
633.95	1130.03
634.29	1122.72
634.64	1115.85
634.98	1109.06
635.32	1102.00
635.67	1095.75
636.01	1089.16
636.36	1082.75
636.70	1076.05
637.05	1069.48
637.39	1063.61
637.73	1057.35
638.08	1051.62
638.42	1045.85
638.77	1039.50
639.11	1033.38
639.45	1027.55
639.80	1021.10
640.14	1014.94
640.49	1008.74
640.83	1002.87
641.17	996.62
641.52	990.46
641.86	984.17
642.20	978.02
642.55	971.47
642.89	964.92
643.23	958.63
643.58	952.88
643.92	946.43
644.26	940.28
644.61	933.85
644.95	927.85
645.29	921.70
645.64	915.09
645.98	909.05
646.32	903.14
646.66	896.96
647.01	891.15
647.35	885.35
647.69	879.25
648.04	873.22
648.38	867.27
648.72	861.57
649.06	855.43
649.41	849.60
649.75	843.87
650.09	838.19
650.43	832.46
650.78	826.19
651.12	820.28
651.46	814.69
651.80	809.08
652.14	803.22
652.49	797.35
652.83	791.76
653.17	785.73
653.51	779.99
653.85	774.42
654.20	768.50
654.54	762.75
654.88	757.40
655.22	751.80
655.56	746.07
655.90	740.20
656.25	734.80
656.59	729.25
656.93	724.05
657.27	718.96
657.61	713.63
657.95	708.60
658.29	703.59
658.64	698.48
658.98	693.15
659.32	687.83
659.66	682.67
660.00	677.44
660.34	672.38
660.68	667.29
661.02	662.29
661.36	657.43
661.70	652.76
662.05	648.11
662.39	643.63
662.73	639.28
663.07	635.15
663.41	630.79
663.75	626.16
664.09	621.64
664.43	616.89
664.77	612.63
665.11	608.18
665.45	603.85
665.79	599.60
666.13	595.34
666.47	591.03
666.81	586.93
667.15	582.76
667.49	578.88
667.83	575.01
668.17	571.13
668.51	567.59
668.85	563.78
669.19	560.15
669.53	556.36
669.87	552.40
670.21	548.56
670.55	544.79
670.89	541.54
671.23	537.99
671.57	534.65
671.91	530.96
672.25	527.49
672.58	524.13
672.92	520.68
673.26	517.71
673.60	514.74
673.94	511.49
674.28	508.44
674.62	505.40
674.96	502.30
675.30	499.28
675.64	496.17
675.97	493.02
676.31	489.88
676.65	486.80
676.99	484.14
677.33	481.26
677.67	478.39
678.01	475.22
678.34	472.34
678.68	469.48
679.02	466.65
679.36	463.95
679.70	461.08
680.04	458.21
680.37	455.18
680.71	452.39
681.05	449.78
681.39	447.02
681.73	444.37
682.06	441.75
682.40	439.24
682.74	436.65
683.08	434.12
683.42	431.65
683.75	429.25
684.09	426.63
684.43	424.15
684.77	421.67
685.10	419.35
685.44	416.91
685.78	414.55
686.12	412.27
686.45	409.85
686.79	407.64
687.13	405.55
687.46	403.37
687.80	401.16
688.14	398.82
688.48	396.67
688.81	394.38
689.15	392.25
689.49	390.07
689.82	387.75
690.16	385.40
690.50	382.95
690.83	380.75
691.17	378.70
691.51	376.57
691.84	374.48
692.18	372.41
692.52	370.50
692.85	368.67
693.19	366.90
693.52	364.90
693.86	362.90
694.20	360.94
694.53	359.13
694.87	357.15
695.21	355.34
695.54	353.51
695.88	351.75
696.21	349.98
696.55	348.24
696.88	346.62
697.22	345.07
697.56	343.74
697.89	342.04
698.23	340.37
698.56	338.77
698.90	337.36
699.23	335.82
699.57	334.15
699.90	332.32
700.24	330.53
700.58	329.02
700.91	327.57
701.25	326.22
701.58	324.80
701.92	323.40
702.25	322.02
702.59	320.63
702.92	319.23
703.26	317.82
703.59	316.50
703.93	315.46
704.26	314.13
704.60	312.76
704.93	311.59
705.26	310.32
705.60	309.11
705.93	307.77
706.27	306.49
706.60	305.40
706.94	304.44
707.27	303.34
707.61	302.28
707.94	301.12
708.27	299.82
708.61	298.77
708.94	297.71
709.28	296.52
709.61	295.41
709.94	294.38
710.28	293.30
710.61	292.26
710.95	291.05
711.28	290.18
711.61	289.23
711.95	288.27
712.28	287.35
712.61	286.28
712.95	285.36
713.28	284.51
713.61	283.61
713.95	282.69
714.28	281.80
714.61	280.91
714.95	280.01
715.28	279.12
715.61	278.15
715.95	277.31
716.28	276.50
716.61	275.67
716.95	274.79
717.28	274.03
717.61	273.22
717.94	272.32
718.28	271.45
718.61	270.68
718.94	269.85
719.27	269.02
719.61	268.49
719.94	267.81
720.27	267.08
720.60	266.33
720.94	265.60
721.27	264.94
721.60	264.29
721.93	263.67
722.27	263.15
722.60	262.59
722.93	261.96
723.26	261.40
723.59	260.78
723.93	260.21
724.26	259.65
724.59	259.07
724.92	258.62
725.25	258.16
725.59	257.51
725.92	257.10
726.25	256.58
726.58	255.95
726.91	255.50
727.24	254.89
727.57	254.38
727.91	253.85
728.24	253.41
728.57	252.98
728.90	252.54
729.23	251.97
729.56	251.56
729.89	251.12
730.22	250.64
730.55	250.19
730.89	249.69
731.22	249.27
731.55	248.80
731.88	248.35
732.21	247.83
732.54	247.45
732.87	246.92
733.20	246.54
733.53	246.10
733.86	245.54
734.19	245.17
734.52	244.80
734.85	244.49
735.18	243.98
735.51	243.63
735.84	243.17
736.17	242.78
736.50	242.32
736.83	242.17
737.16	241.77
737.49	241.41
737.82	241.11
738.15	240.67
738.48	240.33
738.81	239.98
739.14	239.57
739.47	239.26
739.80	238.91
740.13	238.60
740.46	238.28
740.79	237.97
741.12	237.62
741.45	237.25
741.78	236.91
742.11	236.66
742.44	236.28
742.77	236.00
743.10	235.74
743.43	235.44
743.75	234.87
744.08	234.85
744.41	234.50
744.74	234.18
745.07	233.88
745.40	233.66
745.73	233.47
746.06	233.30
746.39	233.03
746.71	232.87
747.04	232.54
747.37	232.30
747.70	232.12
748.03	231.92
748.36	231.78
748.68	231.52
749.01	231.25
749.34	231.00
749.67	230.87
750.00	230.60
750.33	230.50
750.65	230.29
750.98	229.90
751.31	229.74
751.64	229.62
751.97	229.49
752.29	229.23
752.62	228.90
752.95	228.62
753.28	228.33
753.60	228.05
753.93	227.88
754.26	227.62
754.59	227.33
754.91	227.07
755.24	226.88
755.57	226.68
755.90	226.51
756.22	226.30
756.55	225.98
756.88	225.84
757.20	225.55
757.53	225.30
757.86	225.07
758.19	224.90
758.51	224.66
758.84	224.42
759.17	224.27
759.49	224.14
759.82	224.11
760.15	223.99
760.47	223.82
760.80	223.66
761.13	223.64
761.45	223.50
761.78	223.40
762.11	223.25
762.43	223.11
762.76	222.92
763.08	222.87
763.41	222.71
763.74	222.56
764.06	222.44
764.39	222.35
764.71	222.21
765.04	222.11
765.37	221.99
765.69	221.94
766.02	221.86
766.34	221.78
766.67	221.54
767.00	221.48
767.32	221.45
767.65	221.45
767.97	221.22
768.30	221.19
768.62	221.14
768.95	220.93
769.27	220.83
769.60	220.84
769.92	220.69
770.25	220.60
770.57	220.51
770.90	220.37
771.22	220.21
771.55	220.12
771.87	219.97
772.20	219.84
772.52	219.83
772.85	219.90
773.17	219.81
773.50	219.72
773.82	219.54
774.15	219.43
774.47	219.30
774.80	219.23
775.12	219.06
775.45	218.94
775.77	218.93
776.09	218.83
776.42	218.65
776.74	218.57
777.07	218.52
777.39	218.44
777.72	218.34
778.04	218.36
778.36	218.28
778.69	218.28
779.01	218.24
779.33	218.01
779.66	217.73
779.98	217.58
780.31	217.55
780.63	217.60
780.95	217.54
781.28	217.40
781.60	217.33
781.92	217.31
782.25	217.30
782.57	217.20
782.89	217.13
783.22	217.13
783.54	217.02
783.86	217.00
784.19	216.91
784.51	216.95
784.83	216.86
785.16	216.75
785.48	216.65
785.80	216.56
786.12	216.56
786.45	216.49
