SpectraSuite Data File
++++++++++++++++++++++++++++++++++++
Date: Mon Feb 25 17:33:25 EST 2013
User: group
Dark Spectrum Present: No
Reference Spectrum Present: No
Number of Sampled Component Spectra: 1
Spectrometers: USB2E7196
Integration Time (usec): 52000 (USB2E7196)
Spectra Averaged: 20 (USB2E7196)
Boxcar Smoothing: 10 (USB2E7196)
Correct for Electrical Dark: No (USB2E7196)
Strobe/Lamp Enabled: No (USB2E7196)
Correct for Detector Non-linearity: No (USB2E7196)
Correct for Stray Light: No (USB2E7196)
Number of Pixels in Processed Spectrum: 2048
>>>>>Begin Processed Spectral Data<<<<<
339.09	0.00
339.48	199.10
339.86	201.60
340.24	202.45
340.63	203.45
341.01	206.30
341.39	207.20
341.78	206.80
342.16	208.75
342.54	208.75
342.93	198.50
343.31	208.51
343.69	209.05
344.07	209.46
344.46	209.82
344.84	210.21
345.22	210.45
345.60	210.68
345.99	210.90
346.37	211.05
346.75	211.19
347.13	211.31
347.52	211.29
347.90	211.36
348.28	211.35
348.66	211.45
349.05	211.40
349.43	211.39
349.81	211.36
350.19	211.43
350.57	211.45
350.96	211.61
351.34	211.72
351.72	211.86
352.10	211.99
352.48	212.13
352.87	212.19
353.25	212.19
353.63	212.23
354.01	212.28
354.39	212.28
354.77	212.31
355.15	212.32
355.54	212.40
355.92	212.43
356.30	212.49
356.68	212.62
357.06	212.68
357.44	212.71
357.82	212.85
358.20	212.96
358.58	212.98
358.97	212.97
359.35	213.09
359.73	213.15
360.11	213.18
360.49	213.23
360.87	213.27
361.25	213.42
361.63	213.50
362.01	213.55
362.39	213.63
362.77	213.66
363.15	213.75
363.53	213.81
363.91	213.85
364.29	213.98
364.67	213.87
365.05	213.88
365.43	214.00
365.81	214.02
366.19	214.07
366.57	214.21
366.95	214.23
367.33	214.15
367.71	214.15
368.09	214.20
368.47	214.22
368.85	214.24
369.23	214.29
369.61	214.25
369.99	214.28
370.37	214.28
370.75	214.39
371.13	214.33
371.51	214.28
371.89	214.21
372.27	214.18
372.65	214.14
373.03	214.13
373.41	214.10
373.78	214.03
374.16	213.93
374.54	213.78
374.92	213.82
375.30	213.81
375.68	213.71
376.06	213.66
376.44	213.60
376.82	213.58
377.19	213.46
377.57	213.43
377.95	213.29
378.33	213.21
378.71	213.07
379.09	213.01
379.47	212.96
379.84	212.96
380.22	212.87
380.60	212.82
380.98	212.76
381.36	212.61
381.73	212.50
382.11	212.51
382.49	212.54
382.87	212.38
383.25	212.39
383.62	212.55
384.00	212.50
384.38	212.42
384.76	212.44
385.13	212.48
385.51	212.44
385.89	212.41
386.27	212.39
386.64	212.35
387.02	212.29
387.40	212.26
387.78	212.21
388.15	212.10
388.53	212.03
388.91	212.01
389.29	212.03
389.66	212.04
390.04	211.97
390.42	211.96
390.79	212.00
391.17	211.90
391.55	211.65
391.92	211.64
392.30	211.61
392.68	211.50
393.05	211.50
393.43	211.50
393.81	211.52
394.18	211.50
394.56	211.48
394.94	211.53
395.31	211.60
395.69	211.67
396.06	211.77
396.44	211.82
396.82	211.77
397.19	211.82
397.57	211.87
397.95	211.94
398.32	211.86
398.70	211.85
399.07	211.92
399.45	211.95
399.82	211.94
400.20	212.00
400.58	212.08
400.95	212.03
401.33	212.06
401.70	212.26
402.08	212.42
402.45	212.46
402.83	212.60
403.20	212.59
403.58	212.61
403.95	212.78
404.33	212.89
404.71	213.06
405.08	213.25
405.46	213.34
405.83	213.45
406.21	213.59
406.58	213.72
406.96	213.89
407.33	214.15
407.70	214.40
408.08	214.76
408.45	214.93
408.83	215.18
409.20	215.43
409.58	215.56
409.95	215.78
410.33	216.21
410.70	216.46
411.08	216.83
411.45	217.26
411.82	217.48
412.20	217.93
412.57	218.52
412.95	218.85
413.32	219.46
413.69	220.02
414.07	220.57
414.44	221.33
414.82	221.95
415.19	222.66
415.56	223.36
415.94	224.07
416.31	224.95
416.68	225.86
417.06	226.85
417.43	227.89
417.81	228.96
418.18	230.10
418.55	231.25
418.93	232.53
419.30	233.77
419.67	235.19
420.04	236.57
420.42	238.00
420.79	239.84
421.16	241.51
421.54	243.38
421.91	245.33
422.28	247.21
422.66	249.26
423.03	251.33
423.40	253.39
423.77	255.54
424.15	257.87
424.52	260.10
424.89	262.71
425.26	265.14
425.64	267.51
426.01	270.01
426.38	272.63
426.75	275.30
427.13	278.14
427.50	281.16
427.87	284.33
428.24	287.37
428.61	290.24
428.99	293.51
429.36	296.86
429.73	300.28
430.10	303.65
430.47	307.17
430.85	310.70
431.22	314.53
431.59	318.75
431.96	322.60
432.33	327.03
432.70	331.15
433.08	336.04
433.45	340.59
433.82	345.23
434.19	350.35
434.56	355.45
434.93	360.28
435.30	364.99
435.68	370.21
436.05	375.49
436.42	380.62
436.79	385.20
437.16	390.25
437.53	395.61
437.90	400.92
438.27	406.08
438.64	411.49
439.01	416.49
439.38	420.75
439.75	424.98
440.13	429.82
440.50	434.36
440.87	438.09
441.24	442.01
441.61	446.23
441.98	449.36
442.35	452.86
442.72	456.53
443.09	460.02
443.46	462.06
443.83	463.28
444.20	464.48
444.57	466.31
444.94	467.12
445.31	467.91
445.68	468.69
446.05	468.98
446.42	468.28
446.79	467.60
447.16	466.85
447.53	466.31
447.90	464.22
448.27	462.10
448.64	459.12
449.01	456.94
449.37	453.37
449.74	449.92
450.11	445.83
450.48	441.26
450.85	436.63
451.22	432.70
451.59	429.10
451.96	425.56
452.33	420.77
452.70	416.34
453.07	411.20
453.43	405.97
453.80	400.93
454.17	396.20
454.54	391.64
454.91	386.80
455.28	381.98
455.65	377.53
456.02	373.25
456.38	369.68
456.75	365.08
457.12	361.16
457.49	357.35
457.86	353.63
458.23	350.56
458.59	347.18
458.96	343.63
459.33	340.46
459.70	337.28
460.07	334.78
460.43	331.99
460.80	329.29
461.17	326.92
461.54	324.56
461.91	322.25
462.27	319.90
462.64	317.87
463.01	315.64
463.38	313.55
463.74	311.31
464.11	309.33
464.48	307.70
464.85	305.93
465.21	304.55
465.58	303.13
465.95	301.27
466.32	299.84
466.68	298.41
467.05	297.01
467.42	295.72
467.78	294.20
468.15	292.95
468.52	291.98
468.88	290.72
469.25	289.51
469.62	288.55
469.98	287.50
470.35	286.55
470.72	285.76
471.08	284.84
471.45	284.07
471.82	283.33
472.18	282.48
472.55	281.79
472.92	281.07
473.28	280.41
473.65	279.87
474.02	279.31
474.38	278.90
474.75	278.50
475.11	278.01
475.48	277.81
475.85	277.55
476.21	277.27
476.58	277.14
476.94	277.07
477.31	277.01
477.67	276.99
478.04	277.07
478.41	277.24
478.77	277.48
479.14	277.65
479.50	277.89
479.87	278.24
480.23	278.67
480.60	279.08
480.96	279.54
481.33	280.21
481.69	280.83
482.06	281.51
482.42	282.17
482.79	282.88
483.15	283.73
483.52	284.69
483.88	285.69
484.25	286.57
484.61	287.59
484.98	288.64
485.34	289.92
485.71	291.17
486.07	292.48
486.44	293.88
486.80	295.44
487.17	297.11
487.53	298.90
487.90	300.70
488.26	302.60
488.62	304.63
488.99	306.59
489.35	308.77
489.72	310.96
490.08	313.40
490.44	315.85
490.81	318.61
491.17	321.23
491.54	324.11
491.90	327.19
492.26	330.41
492.63	333.82
492.99	337.33
493.36	340.99
493.72	344.90
494.08	348.87
494.45	353.08
494.81	357.40
495.17	361.99
495.54	366.84
495.90	371.85
496.26	377.05
496.63	382.52
496.99	388.24
497.35	394.35
497.72	400.55
498.08	407.02
498.44	413.68
498.80	420.83
499.17	428.24
499.53	435.81
499.89	443.73
500.26	451.83
500.62	460.11
500.98	468.98
501.34	478.08
501.71	487.49
502.07	497.18
502.43	507.34
502.79	517.56
503.16	528.31
503.52	539.25
503.88	550.58
504.24	562.11
504.60	573.83
504.97	586.01
505.33	598.45
505.69	611.89
506.05	625.30
506.41	638.94
506.78	652.74
507.14	666.96
507.50	681.52
507.86	696.45
508.22	711.98
508.59	727.66
508.95	743.50
509.31	759.79
509.67	776.38
510.03	793.17
510.39	810.83
510.75	828.64
511.12	846.88
511.48	865.30
511.84	883.98
512.20	902.84
512.56	922.16
512.92	941.85
513.28	961.30
513.64	981.14
514.00	1001.08
514.37	1021.45
514.73	1042.23
515.09	1063.22
515.45	1084.15
515.81	1105.28
516.17	1126.54
516.53	1148.14
516.89	1169.68
517.25	1191.29
517.61	1213.09
517.97	1234.57
518.33	1255.97
518.69	1277.42
519.05	1299.30
519.41	1321.51
519.77	1344.16
520.13	1366.33
520.49	1388.44
520.85	1411.13
521.21	1433.68
521.57	1456.94
521.93	1479.31
522.29	1502.24
522.65	1524.68
523.01	1547.17
523.37	1569.11
523.73	1591.51
524.09	1613.78
524.45	1636.06
524.81	1658.56
525.17	1681.00
525.53	1703.54
525.89	1725.79
526.25	1747.85
526.61	1769.31
526.97	1790.62
527.33	1811.88
527.68	1833.43
528.04	1854.67
528.40	1875.01
528.76	1895.76
529.12	1916.17
529.48	1937.90
529.84	1958.38
530.20	1978.71
530.56	1999.18
530.91	2020.21
531.27	2040.56
531.63	2060.47
531.99	2080.36
532.35	2099.48
532.71	2118.45
533.07	2137.80
533.42	2156.44
533.78	2175.43
534.14	2194.03
534.50	2211.55
534.86	2229.52
535.21	2246.35
535.57	2264.26
535.93	2281.80
536.29	2298.58
536.65	2315.21
537.00	2330.40
537.36	2345.50
537.72	2360.82
538.08	2376.29
538.44	2391.69
538.79	2407.07
539.15	2422.18
539.51	2436.80
539.87	2452.49
540.22	2467.15
540.58	2481.95
540.94	2496.61
541.29	2509.70
541.65	2522.28
542.01	2535.60
542.37	2547.83
542.72	2560.04
543.08	2570.59
543.44	2582.41
543.79	2592.82
544.15	2603.14
544.51	2614.09
544.87	2625.15
545.22	2634.66
545.58	2643.36
545.94	2650.46
546.29	2656.95
546.65	2663.10
547.01	2669.30
547.36	2674.79
547.72	2680.45
548.07	2684.33
548.43	2688.48
548.79	2692.42
549.14	2696.78
549.50	2701.65
549.86	2705.45
550.21	2709.66
550.57	2714.08
550.92	2716.59
551.28	2719.32
551.64	2721.90
551.99	2724.22
552.35	2725.98
552.70	2728.54
553.06	2731.10
553.41	2733.92
553.77	2736.94
554.13	2739.33
554.48	2741.72
554.84	2743.26
555.19	2743.59
555.55	2744.58
555.90	2744.79
556.26	2745.24
556.61	2745.07
556.97	2743.19
557.32	2742.74
557.68	2741.15
558.03	2739.93
558.39	2738.17
558.74	2737.79
559.10	2736.70
559.45	2735.07
559.81	2734.08
560.16	2731.45
560.52	2728.73
560.87	2725.90
561.23	2722.16
561.58	2719.83
561.94	2716.70
562.29	2712.79
562.64	2710.82
563.00	2708.06
563.35	2706.15
563.71	2704.76
564.06	2703.06
564.42	2701.79
564.77	2699.62
565.12	2697.70
565.48	2694.19
565.83	2691.42
566.19	2688.47
566.54	2684.01
566.89	2680.17
567.25	2676.43
567.60	2673.29
567.96	2669.92
568.31	2666.47
568.66	2662.47
569.02	2657.88
569.37	2652.46
569.72	2648.57
570.08	2643.13
570.43	2637.25
570.78	2631.54
571.14	2624.86
571.49	2617.92
571.84	2611.92
572.20	2604.83
572.55	2598.15
572.90	2591.59
573.26	2584.89
573.61	2577.52
573.96	2571.44
574.31	2563.57
574.67	2554.96
575.02	2546.38
575.37	2537.81
575.72	2529.00
576.08	2521.62
576.43	2512.72
576.78	2505.16
577.13	2497.18
577.49	2488.94
577.84	2481.57
578.19	2473.51
578.54	2466.18
578.90	2459.39
579.25	2450.15
579.60	2441.08
579.95	2432.18
580.30	2424.10
580.66	2415.73
581.01	2406.65
581.36	2397.03
581.71	2388.43
582.06	2380.12
582.42	2372.19
582.77	2363.00
583.12	2353.77
583.47	2344.84
583.82	2336.81
584.17	2327.24
584.53	2318.12
584.88	2309.75
585.23	2300.17
585.58	2290.77
585.93	2280.92
586.28	2271.65
586.63	2263.27
586.98	2255.04
587.34	2246.17
587.69	2237.15
588.04	2227.87
588.39	2219.43
588.74	2210.29
589.09	2201.58
589.44	2192.04
589.79	2183.18
590.14	2175.45
590.49	2167.55
590.84	2158.70
591.19	2149.92
591.54	2141.43
591.89	2131.25
592.25	2121.46
592.60	2112.34
592.95	2102.75
593.30	2093.32
593.65	2083.45
594.00	2073.69
594.35	2065.37
594.70	2056.26
595.05	2047.41
595.40	2038.86
595.75	2029.40
596.10	2021.36
596.45	2012.96
596.80	2005.29
597.15	1996.94
597.50	1987.79
597.85	1979.27
598.19	1970.62
598.54	1962.46
598.89	1954.58
599.24	1948.03
599.59	1940.64
599.94	1933.55
600.29	1925.90
600.64	1918.25
600.99	1909.71
601.34	1902.42
601.69	1893.41
602.04	1885.34
602.39	1877.02
602.74	1869.17
603.08	1862.30
603.43	1854.80
603.78	1846.75
604.13	1838.79
604.48	1830.65
604.83	1823.45
605.18	1816.08
605.53	1808.36
605.87	1800.71
606.22	1793.62
606.57	1785.77
606.92	1777.81
607.27	1769.75
607.62	1762.61
607.96	1755.66
608.31	1749.39
608.66	1741.59
609.01	1734.27
609.36	1726.59
609.70	1718.93
610.05	1711.03
610.40	1702.70
610.75	1694.28
611.10	1686.77
611.44	1677.19
611.79	1668.22
612.14	1659.20
612.49	1649.57
612.83	1640.57
613.18	1630.77
613.53	1621.02
613.88	1610.90
614.22	1601.85
614.57	1592.56
614.92	1583.01
615.27	1573.47
615.61	1563.75
615.96	1554.55
616.31	1545.99
616.65	1537.83
617.00	1529.21
617.35	1520.75
617.70	1511.92
618.04	1502.98
618.39	1493.41
618.74	1485.19
619.08	1476.55
619.43	1467.86
619.78	1460.23
620.12	1452.21
620.47	1444.38
620.82	1435.87
621.16	1427.84
621.51	1419.45
621.85	1411.24
622.20	1402.83
622.55	1394.41
622.89	1386.16
623.24	1378.23
623.59	1369.60
623.93	1361.05
624.28	1352.79
624.62	1344.40
624.97	1336.26
625.32	1328.18
625.66	1320.90
626.01	1313.49
626.35	1306.20
626.70	1298.60
627.04	1291.13
627.39	1283.50
627.73	1275.86
628.08	1269.03
628.43	1261.42
628.77	1254.13
629.12	1246.43
629.46	1239.75
629.81	1232.42
630.15	1224.98
630.50	1217.54
630.84	1210.24
631.19	1203.02
631.53	1196.36
631.88	1188.67
632.22	1181.05
632.57	1174.43
632.91	1166.76
633.26	1159.29
633.60	1152.16
633.95	1145.52
634.29	1138.07
634.64	1131.40
634.98	1124.43
635.32	1117.10
635.67	1110.75
636.01	1104.03
636.36	1097.35
636.70	1090.60
637.05	1084.05
637.39	1077.84
637.73	1071.52
638.08	1065.58
638.42	1059.86
638.77	1053.02
639.11	1046.83
639.45	1040.97
639.80	1034.08
640.14	1027.96
640.49	1021.74
640.83	1015.25
641.17	1008.71
641.52	1002.49
641.86	996.05
642.20	989.90
642.55	983.43
642.89	977.02
643.23	970.52
643.58	964.71
643.92	958.13
644.26	951.89
644.61	945.70
644.95	939.62
645.29	933.31
645.64	926.59
645.98	920.50
646.32	914.63
646.66	908.42
647.01	902.62
647.35	896.56
647.69	890.41
648.04	884.54
648.38	878.62
648.72	872.59
649.06	866.44
649.41	860.35
649.75	854.56
650.09	848.72
650.43	842.87
650.78	836.61
651.12	830.48
651.46	824.64
651.80	818.80
652.14	812.84
652.49	806.80
652.83	801.05
653.17	795.02
653.51	789.16
653.85	783.37
654.20	777.50
654.54	771.53
654.88	765.90
655.22	760.03
655.56	754.13
655.90	748.15
656.25	742.57
656.59	737.13
656.93	732.10
657.27	726.76
657.61	721.39
657.95	716.32
658.29	711.34
658.64	706.20
658.98	700.95
659.32	695.47
659.66	690.50
660.00	685.08
660.34	680.03
660.68	674.85
661.02	669.66
661.36	664.95
661.70	660.26
662.05	655.78
662.39	651.59
662.73	647.25
663.07	643.11
663.41	638.68
663.75	634.04
664.09	628.99
664.43	624.32
664.77	620.03
665.11	615.47
665.45	611.20
665.79	606.67
666.13	602.19
666.47	598.14
666.81	593.80
667.15	589.76
667.49	585.80
667.83	581.96
668.17	578.23
668.51	574.35
668.85	570.70
669.19	566.76
669.53	562.66
669.87	558.66
670.21	554.74
670.55	550.78
670.89	547.34
671.23	544.11
671.57	540.55
671.91	536.70
672.25	533.17
672.58	529.59
672.92	526.26
673.26	523.12
673.60	519.92
673.94	516.62
674.28	513.27
674.62	510.14
674.96	506.80
675.30	503.59
675.64	500.39
675.97	497.05
676.31	494.02
676.65	491.14
676.99	488.33
677.33	485.37
677.67	482.45
678.01	479.42
678.34	476.36
678.68	473.48
679.02	470.67
679.36	467.88
679.70	464.97
680.04	462.06
680.37	459.16
680.71	456.28
681.05	453.59
681.39	450.97
681.73	448.20
682.06	445.59
682.40	443.14
682.74	440.53
683.08	438.06
683.42	435.36
683.75	432.72
684.09	430.10
684.43	427.59
684.77	425.03
685.10	422.52
685.44	420.04
685.78	417.57
686.12	415.20
686.45	412.75
686.79	410.55
687.13	408.45
687.46	406.24
687.80	404.01
688.14	401.71
688.48	399.49
688.81	397.16
689.15	394.98
689.49	392.69
689.82	390.50
690.16	388.19
690.50	385.94
690.83	383.70
691.17	381.50
691.51	379.30
691.84	377.23
692.18	375.15
692.52	373.24
692.85	371.35
693.19	369.60
693.52	367.65
693.86	365.57
694.20	363.72
694.53	361.81
694.87	359.82
695.21	357.98
695.54	356.10
695.88	354.27
696.21	352.43
696.55	350.66
696.88	348.92
697.22	347.17
697.56	345.64
697.89	344.00
698.23	342.33
698.56	340.75
698.90	339.26
699.23	337.68
699.57	336.10
699.90	334.54
700.24	332.85
700.58	331.28
700.91	329.82
701.25	328.38
701.58	326.95
701.92	325.53
702.25	324.11
702.59	322.79
702.92	321.43
703.26	320.17
703.59	318.81
703.93	317.58
704.26	316.33
704.60	315.05
704.93	313.76
705.26	312.48
705.60	311.27
705.93	309.96
706.27	308.82
706.60	307.68
706.94	306.57
707.27	305.32
707.61	304.24
707.94	303.14
708.27	301.79
708.61	300.58
708.94	299.35
709.28	298.19
709.61	296.92
709.94	295.85
710.28	294.69
710.61	293.67
710.95	292.42
711.28	291.47
711.61	290.39
711.95	289.43
712.28	288.49
712.61	287.46
712.95	286.58
713.28	285.59
713.61	284.53
713.95	283.58
714.28	282.70
714.61	281.67
714.95	280.71
715.28	279.77
715.61	278.85
715.95	278.08
716.28	277.28
716.61	276.55
716.95	275.67
717.28	274.85
717.61	274.09
717.94	273.45
718.28	272.56
718.61	271.77
718.94	271.03
719.27	270.31
719.61	269.61
719.94	268.95
720.27	268.16
720.60	267.46
720.94	266.61
721.27	265.89
721.60	265.38
721.93	264.72
722.27	264.22
722.60	263.67
722.93	263.07
723.26	262.43
723.59	261.83
723.93	261.20
724.26	260.67
724.59	260.01
724.92	259.45
725.25	258.89
725.59	258.38
725.92	257.89
726.25	257.27
726.58	256.76
726.91	256.14
727.24	255.71
727.57	255.24
727.91	254.79
728.24	254.33
728.57	253.88
728.90	253.54
729.23	252.95
729.56	252.52
729.89	252.00
730.22	251.53
730.55	251.12
730.89	250.79
731.22	250.27
731.55	249.87
731.88	249.38
732.21	248.99
732.54	248.63
732.87	248.09
733.20	247.72
733.53	247.33
733.86	246.85
734.19	246.39
734.52	245.97
734.85	245.73
735.18	245.33
735.51	244.92
735.84	244.43
736.17	244.18
736.50	243.74
736.83	243.65
737.16	243.30
737.49	242.92
737.82	242.46
738.15	242.15
738.48	241.74
738.81	241.35
739.14	240.99
739.47	240.58
739.80	240.25
740.13	239.90
740.46	239.48
740.79	239.12
741.12	238.83
741.45	238.57
741.78	238.22
742.11	237.92
742.44	237.57
742.77	237.30
743.10	236.92
743.43	236.61
743.75	236.06
744.08	235.87
744.41	235.46
744.74	235.24
745.07	234.98
745.40	234.79
745.73	234.60
746.06	234.33
746.39	234.03
746.71	233.75
747.04	233.48
747.37	233.22
747.70	233.03
748.03	232.68
748.36	232.42
748.68	232.00
749.01	231.65
749.34	231.40
749.67	231.10
750.00	230.96
750.33	230.94
750.65	230.65
750.98	230.25
751.31	230.09
751.64	229.79
751.97	229.56
752.29	229.24
752.62	229.04
752.95	228.75
753.28	228.44
753.60	228.24
753.93	228.12
754.26	227.90
754.59	227.60
754.91	227.36
755.24	227.12
755.57	227.01
755.90	226.91
756.22	226.69
756.55	226.50
756.88	226.20
757.20	225.75
757.53	225.58
757.86	225.38
758.19	225.22
758.51	225.07
758.84	224.81
759.17	224.61
759.49	224.33
759.82	224.30
760.15	224.23
760.47	224.00
760.80	223.71
761.13	223.61
761.45	223.54
761.78	223.46
762.11	223.34
762.43	223.20
762.76	223.05
763.08	222.93
763.41	222.82
763.74	222.68
764.06	222.57
764.39	222.41
764.71	222.35
765.04	222.19
765.37	222.04
765.69	221.96
766.02	221.86
766.34	221.74
766.67	221.48
767.00	221.34
767.32	221.44
767.65	221.46
767.97	221.28
768.30	221.10
768.62	220.96
768.95	220.75
769.27	220.64
769.60	220.49
769.92	220.38
770.25	220.26
770.57	220.15
770.90	220.02
771.22	219.94
771.55	219.82
771.87	219.70
772.20	219.56
772.52	219.58
772.85	219.66
773.17	219.56
773.50	219.54
773.82	219.45
774.15	219.22
774.47	219.04
774.80	218.92
775.12	218.79
775.45	218.67
775.77	218.63
776.09	218.49
776.42	218.43
776.74	218.34
777.07	218.25
777.39	218.10
777.72	218.01
778.04	217.91
778.36	217.81
778.69	217.81
779.01	217.74
779.33	217.50
779.66	217.27
779.98	217.18
780.31	217.09
780.63	217.10
780.95	217.11
781.28	217.05
781.60	217.00
781.92	217.05
782.25	217.05
782.57	217.03
782.89	216.92
783.22	216.93
783.54	216.85
783.86	216.79
784.19	216.77
784.51	216.85
784.83	216.88
785.16	216.83
785.48	216.69
785.80	216.75
786.12	216.73
786.45	216.66
