SpectraSuite Data File
++++++++++++++++++++++++++++++++++++
Date: Mon Feb 25 17:29:35 EST 2013
User: group
Dark Spectrum Present: No
Reference Spectrum Present: No
Number of Sampled Component Spectra: 1
Spectrometers: USB2E7196
Integration Time (usec): 52000 (USB2E7196)
Spectra Averaged: 20 (USB2E7196)
Boxcar Smoothing: 10 (USB2E7196)
Correct for Electrical Dark: No (USB2E7196)
Strobe/Lamp Enabled: No (USB2E7196)
Correct for Detector Non-linearity: No (USB2E7196)
Correct for Stray Light: No (USB2E7196)
Number of Pixels in Processed Spectrum: 2048
>>>>>Begin Processed Spectral Data<<<<<
339.09	0.00
339.48	198.75
339.86	201.25
340.24	202.50
340.63	202.70
341.01	206.70
341.39	206.20
341.78	206.55
342.16	210.10
342.54	209.05
342.93	198.08
343.31	208.08
343.69	208.57
344.07	208.93
344.46	209.25
344.84	209.71
345.22	209.91
345.60	210.17
345.99	210.39
346.37	210.42
346.75	210.46
347.13	210.45
347.52	210.55
347.90	210.67
348.28	210.69
348.66	210.70
349.05	210.70
349.43	210.75
349.81	210.83
350.19	210.91
350.57	210.98
350.96	211.11
351.34	211.21
351.72	211.39
352.10	211.52
352.48	211.60
352.87	211.62
353.25	211.69
353.63	211.71
354.01	211.83
354.39	211.89
354.77	211.99
355.15	212.14
355.54	212.11
355.92	212.15
356.30	212.21
356.68	212.47
357.06	212.56
357.44	212.59
357.82	212.60
358.20	212.65
358.58	212.72
358.97	212.83
359.35	212.99
359.73	213.09
360.11	213.20
360.49	213.34
360.87	213.33
361.25	213.41
361.63	213.56
362.01	213.60
362.39	213.71
362.77	213.79
363.15	213.88
363.53	213.95
363.91	213.93
364.29	214.03
364.67	213.86
365.05	213.95
365.43	214.00
365.81	214.05
366.19	214.18
366.57	214.28
366.95	214.31
367.33	214.24
367.71	214.23
368.09	214.27
368.47	214.29
368.85	214.33
369.23	214.33
369.61	214.28
369.99	214.24
370.37	214.23
370.75	214.30
371.13	214.25
371.51	214.23
371.89	214.22
372.27	214.23
372.65	214.21
373.03	214.03
373.41	213.96
373.78	213.97
374.16	213.87
374.54	213.71
374.92	213.61
375.30	213.51
375.68	213.42
376.06	213.32
376.44	213.23
376.82	213.20
377.19	213.15
377.57	213.05
377.95	213.00
378.33	212.87
378.71	212.76
379.09	212.70
379.47	212.73
379.84	212.76
380.22	212.62
380.60	212.46
380.98	212.46
381.36	212.38
381.73	212.28
382.11	212.22
382.49	212.25
382.87	212.19
383.25	212.18
383.62	212.30
384.00	212.25
384.38	212.20
384.76	212.22
385.13	212.26
385.51	212.29
385.89	212.24
386.27	212.18
386.64	212.15
387.02	212.11
387.40	211.98
387.78	211.95
388.15	211.93
388.53	211.95
388.91	211.96
389.29	211.99
389.66	211.99
390.04	211.99
390.42	211.94
390.79	211.84
391.17	211.79
391.55	211.55
391.92	211.59
392.30	211.56
392.68	211.44
393.05	211.35
393.43	211.20
393.81	211.17
394.18	211.19
394.56	211.16
394.94	211.15
395.31	211.19
395.69	211.24
396.06	211.20
396.44	211.26
396.82	211.23
397.19	211.32
397.57	211.30
397.95	211.30
398.32	211.29
398.70	211.34
399.07	211.45
399.45	211.47
399.82	211.49
400.20	211.49
400.58	211.58
400.95	211.59
401.33	211.73
401.70	211.90
402.08	211.99
402.45	211.99
402.83	212.06
403.20	212.18
403.58	212.18
403.95	212.30
404.33	212.34
404.71	212.45
405.08	212.60
405.46	212.73
405.83	212.80
406.21	212.92
406.58	213.09
406.96	213.18
407.33	213.45
407.70	213.59
408.08	213.98
408.45	214.16
408.83	214.34
409.20	214.59
409.58	214.70
409.95	214.89
410.33	215.22
410.70	215.46
411.08	215.72
411.45	216.01
411.82	216.35
412.20	216.75
412.57	217.22
412.95	217.52
413.32	218.04
413.69	218.53
414.07	219.01
414.44	219.54
414.82	220.10
415.19	220.65
415.56	221.29
415.94	221.82
416.31	222.58
416.68	223.36
417.06	224.18
417.43	225.00
417.81	225.98
418.18	226.91
418.55	227.94
418.93	229.00
419.30	230.11
419.67	231.31
420.04	232.52
420.42	233.76
420.79	235.30
421.16	236.70
421.54	238.28
421.91	239.87
422.28	241.53
422.66	243.25
423.03	245.01
423.40	246.79
423.77	248.72
424.15	250.67
424.52	252.70
424.89	254.89
425.26	257.00
425.64	259.09
426.01	261.31
426.38	263.70
426.75	266.16
427.13	268.74
427.50	271.32
427.87	273.99
428.24	276.67
428.61	279.14
428.99	282.02
429.36	285.07
429.73	288.06
430.10	291.05
430.47	294.24
430.85	297.41
431.22	300.72
431.59	304.28
431.96	307.69
432.33	311.47
432.70	315.05
433.08	319.41
433.45	323.36
433.82	327.38
434.19	331.69
434.56	335.99
434.93	339.89
435.30	343.97
435.68	348.56
436.05	353.05
436.42	357.50
436.79	361.60
437.16	365.98
437.53	370.64
437.90	375.30
438.27	379.79
438.64	384.55
439.01	388.96
439.38	392.73
439.75	396.46
440.13	400.76
440.50	404.72
440.87	408.02
441.24	411.45
441.61	415.17
441.98	417.92
442.35	421.07
442.72	424.41
443.09	427.52
443.46	429.35
443.83	430.60
444.20	431.72
444.57	433.30
444.94	433.90
445.31	434.69
445.68	435.48
446.05	435.61
446.42	435.06
446.79	434.45
447.16	433.92
447.53	433.48
447.90	431.64
448.27	429.94
448.64	427.37
449.01	425.55
449.37	422.45
449.74	419.52
450.11	415.99
450.48	412.15
450.85	408.18
451.22	404.85
451.59	401.61
451.96	398.55
452.33	394.50
452.70	390.83
453.07	386.39
453.43	381.74
453.80	377.56
454.17	373.36
454.54	369.50
454.91	365.22
455.28	361.11
455.65	357.37
456.02	353.72
456.38	350.60
456.75	346.70
457.12	343.40
457.49	340.07
457.86	336.80
458.23	334.10
458.59	331.16
458.96	328.07
459.33	325.34
459.70	322.62
460.07	320.37
460.43	317.91
460.80	315.61
461.17	313.66
461.54	311.50
461.91	309.61
462.27	307.53
462.64	305.84
463.01	303.90
463.38	302.03
463.74	300.02
464.11	298.33
464.48	296.89
464.85	295.30
465.21	294.21
465.58	293.08
465.95	291.49
466.32	290.25
466.68	289.15
467.05	288.03
467.42	286.82
467.78	285.61
468.15	284.46
468.52	283.60
468.88	282.37
469.25	281.39
469.62	280.60
469.98	279.74
470.35	279.00
470.72	278.32
471.08	277.53
471.45	276.98
471.82	276.45
472.18	275.68
472.55	275.26
472.92	274.72
473.28	274.24
473.65	273.83
474.02	273.42
474.38	273.08
474.75	272.87
475.11	272.62
475.48	272.33
475.85	272.16
476.21	272.08
476.58	272.10
476.94	272.25
477.31	272.23
477.67	272.35
478.04	272.38
478.41	272.53
478.77	272.93
479.14	273.11
479.50	273.35
479.87	273.77
480.23	274.18
480.60	274.54
480.96	275.00
481.33	275.66
481.69	276.22
482.06	276.79
482.42	277.34
482.79	278.10
483.15	279.06
483.52	280.15
483.88	281.13
484.25	282.11
484.61	283.16
484.98	284.23
485.34	285.46
485.71	286.91
486.07	288.39
486.44	289.62
486.80	291.12
487.17	292.76
487.53	294.45
487.90	296.27
488.26	298.27
488.62	300.29
488.99	302.29
489.35	304.52
489.72	306.82
490.08	309.30
490.44	311.75
490.81	314.44
491.17	317.08
491.54	319.86
491.90	322.80
492.26	325.89
492.63	329.19
492.99	332.65
493.36	336.31
493.72	340.16
494.08	344.29
494.45	348.57
494.81	352.90
495.17	357.40
495.54	362.15
495.90	367.12
496.26	372.14
496.63	377.63
496.99	383.25
497.35	389.26
497.72	395.55
498.08	401.94
498.44	408.54
498.80	415.52
499.17	422.87
499.53	430.45
499.89	438.14
500.26	446.19
500.62	454.31
500.98	462.76
501.34	471.57
501.71	480.65
502.07	489.94
502.43	499.65
502.79	509.54
503.16	519.95
503.52	530.52
503.88	541.51
504.24	552.48
504.60	563.85
504.97	575.49
505.33	587.30
505.69	600.00
506.05	612.66
506.41	625.60
506.78	638.57
507.14	651.88
507.50	665.68
507.86	679.64
508.22	694.24
508.59	709.00
508.95	723.92
509.31	739.25
509.67	755.04
510.03	770.85
510.39	787.27
510.75	804.00
511.12	820.86
511.48	838.09
511.84	855.54
512.20	872.80
512.56	890.80
512.92	908.90
513.28	927.06
513.64	945.56
514.00	964.05
514.37	983.00
514.73	1002.31
515.09	1021.39
515.45	1040.82
515.81	1060.02
516.17	1079.33
516.53	1098.86
516.89	1118.44
517.25	1137.96
517.61	1157.79
517.97	1177.58
518.33	1196.85
518.69	1216.39
519.05	1236.02
519.41	1255.91
519.77	1276.49
520.13	1296.16
520.49	1316.23
520.85	1336.49
521.21	1356.77
521.57	1377.19
521.93	1396.78
522.29	1417.01
522.65	1437.33
523.01	1457.20
523.37	1476.95
523.73	1496.71
524.09	1516.19
524.45	1536.10
524.81	1555.71
525.17	1575.54
525.53	1595.26
525.89	1615.02
526.25	1634.37
526.61	1652.97
526.97	1672.18
527.33	1690.42
527.68	1709.36
528.04	1727.54
528.40	1744.75
528.76	1762.55
529.12	1780.35
529.48	1799.26
529.84	1816.96
530.20	1834.18
530.56	1851.84
530.91	1869.58
531.27	1887.12
531.63	1904.70
531.99	1921.55
532.35	1938.07
532.71	1953.78
533.07	1970.10
533.42	1985.55
533.78	2001.30
534.14	2016.98
534.50	2031.05
534.86	2046.49
535.21	2060.30
535.57	2075.24
535.93	2089.93
536.29	2103.78
536.65	2117.48
537.00	2129.67
537.36	2141.65
537.72	2154.30
538.08	2166.45
538.44	2178.60
538.79	2190.87
539.15	2202.24
539.51	2213.79
539.87	2225.98
540.22	2237.40
540.58	2249.10
540.94	2260.46
541.29	2270.56
541.65	2280.04
542.01	2290.72
542.37	2299.41
542.72	2308.60
543.08	2316.42
543.44	2325.47
543.79	2333.14
544.15	2340.76
544.51	2349.40
544.87	2357.90
545.22	2364.50
545.58	2370.58
545.94	2375.72
546.29	2379.93
546.65	2384.36
547.01	2388.44
547.36	2391.92
547.72	2396.05
548.07	2398.43
548.43	2400.61
548.79	2402.91
549.14	2405.77
549.50	2407.94
549.86	2410.54
550.21	2413.06
550.57	2415.52
550.92	2416.50
551.28	2417.47
551.64	2418.27
551.99	2418.93
552.35	2418.88
552.70	2420.05
553.06	2421.38
553.41	2422.60
553.77	2423.98
554.13	2424.65
554.48	2424.97
554.84	2425.16
555.19	2424.29
555.55	2423.37
555.90	2422.73
556.26	2422.03
556.61	2421.00
556.97	2419.01
557.32	2417.34
557.68	2414.81
558.03	2412.41
558.39	2410.10
558.74	2408.78
559.10	2407.03
559.45	2404.34
559.81	2402.39
560.16	2399.06
560.52	2395.94
560.87	2392.82
561.23	2388.57
561.58	2385.68
561.94	2382.36
562.29	2378.11
562.64	2375.33
563.00	2372.14
563.35	2369.14
563.71	2366.65
564.06	2363.69
564.42	2361.15
564.77	2357.85
565.12	2355.52
565.48	2352.07
565.83	2348.57
566.19	2345.02
566.54	2340.42
566.89	2336.08
567.25	2332.26
567.60	2328.82
567.96	2324.94
568.31	2321.02
568.66	2317.25
569.02	2312.65
569.37	2307.45
569.72	2303.18
570.08	2297.64
570.43	2292.36
570.78	2287.00
571.14	2280.97
571.49	2274.64
571.84	2268.79
572.20	2262.58
572.55	2256.19
572.90	2249.85
573.26	2243.51
573.61	2236.74
573.96	2230.65
574.31	2223.90
574.67	2216.10
575.02	2208.36
575.37	2200.35
575.72	2192.10
576.08	2185.08
576.43	2177.25
576.78	2170.12
577.13	2163.37
577.49	2156.30
577.84	2149.21
578.19	2142.55
578.54	2135.94
578.90	2129.80
579.25	2121.98
579.60	2114.07
579.95	2105.79
580.30	2098.90
580.66	2091.62
581.01	2083.76
581.36	2075.56
581.71	2068.11
582.06	2060.82
582.42	2053.95
582.77	2046.33
583.12	2038.66
583.47	2031.21
583.82	2024.13
584.17	2016.37
584.53	2008.36
584.88	2000.67
585.23	1992.75
585.58	1984.44
585.93	1976.15
586.28	1968.13
586.63	1960.88
586.98	1953.87
587.34	1947.04
587.69	1939.20
588.04	1931.33
588.39	1924.05
588.74	1916.37
589.09	1908.88
589.44	1900.96
589.79	1893.09
590.14	1886.32
590.49	1879.37
590.84	1871.65
591.19	1864.70
591.54	1857.08
591.89	1848.45
592.25	1840.68
592.60	1832.71
592.95	1824.64
593.30	1816.58
593.65	1808.34
594.00	1800.10
594.35	1793.10
594.70	1785.17
595.05	1777.82
595.40	1770.39
595.75	1762.45
596.10	1755.63
596.45	1748.47
596.80	1742.05
597.15	1735.12
597.50	1727.42
597.85	1720.30
598.19	1713.03
598.54	1705.69
598.89	1698.99
599.24	1693.23
599.59	1686.98
599.94	1680.96
600.29	1674.42
600.64	1667.74
600.99	1660.79
601.34	1654.57
601.69	1647.25
602.04	1640.61
602.39	1633.68
602.74	1627.24
603.08	1621.60
603.43	1615.51
603.78	1608.60
604.13	1601.53
604.48	1594.87
604.83	1588.97
605.18	1582.69
605.53	1576.30
605.87	1569.67
606.22	1563.77
606.57	1557.23
606.92	1550.05
607.27	1543.02
607.62	1536.87
607.96	1530.82
608.31	1525.58
608.66	1519.00
609.01	1512.35
609.36	1505.47
609.70	1498.37
610.05	1491.67
610.40	1484.49
610.75	1477.02
611.10	1470.63
611.44	1463.04
611.79	1455.33
612.14	1447.35
612.49	1439.40
612.83	1432.04
613.18	1424.07
613.53	1415.94
613.88	1407.49
614.22	1400.12
614.57	1392.77
614.92	1384.69
615.27	1377.04
615.61	1368.72
615.96	1361.15
616.31	1353.86
616.65	1347.39
617.00	1340.63
617.35	1333.27
617.70	1325.72
618.04	1318.35
618.39	1310.45
618.74	1303.38
619.08	1296.14
619.43	1289.16
619.78	1282.70
620.12	1275.74
620.47	1268.97
620.82	1261.65
621.16	1254.79
621.51	1247.68
621.85	1240.46
622.20	1233.30
622.55	1226.11
622.89	1218.98
623.24	1212.30
623.59	1205.00
623.93	1197.31
624.28	1190.22
624.62	1183.38
624.97	1176.51
625.32	1169.86
625.66	1163.50
626.01	1157.19
626.35	1151.14
626.70	1144.50
627.04	1137.93
627.39	1131.45
627.73	1124.94
628.08	1119.27
628.43	1112.99
628.77	1106.80
629.12	1100.34
629.46	1094.63
629.81	1088.40
630.15	1082.07
630.50	1075.54
630.84	1069.65
631.19	1063.50
631.53	1057.81
631.88	1051.08
632.22	1044.66
632.57	1038.56
632.91	1032.04
633.26	1025.62
633.60	1019.23
633.95	1013.33
634.29	1007.16
634.64	1001.19
634.98	995.27
635.32	989.28
635.67	983.83
636.01	978.11
636.36	972.58
636.70	966.89
637.05	961.37
637.39	956.00
637.73	950.82
638.08	945.65
638.42	940.79
638.77	935.05
639.11	929.81
639.45	924.71
639.80	919.06
640.14	913.73
640.49	908.45
640.83	903.23
641.17	897.62
641.52	892.25
641.86	886.83
642.20	881.47
642.55	875.58
642.89	869.83
643.23	864.25
643.58	859.10
643.92	853.43
644.26	847.95
644.61	842.67
644.95	837.25
645.29	831.73
645.64	826.04
645.98	820.74
646.32	815.73
646.66	810.40
647.01	805.39
647.35	800.33
647.69	795.04
648.04	789.80
648.38	784.76
648.72	779.55
649.06	774.33
649.41	769.05
649.75	764.26
650.09	759.40
650.43	754.31
650.78	748.89
651.12	743.76
651.46	738.84
651.80	733.80
652.14	728.60
652.49	723.37
652.83	718.45
653.17	713.16
653.51	708.12
653.85	703.23
654.20	698.11
654.54	693.08
654.88	688.30
655.22	683.24
655.56	678.24
655.90	673.36
656.25	668.47
656.59	663.83
656.93	659.10
657.27	654.56
657.61	649.85
657.95	645.51
658.29	641.08
658.64	636.58
658.98	632.14
659.32	627.46
659.66	623.21
660.00	618.67
660.34	614.25
660.68	609.70
661.02	605.21
661.36	601.23
661.70	596.98
662.05	592.67
662.39	588.92
662.73	585.21
663.07	581.40
663.41	577.66
663.75	573.68
664.09	569.71
664.43	565.59
664.77	561.81
665.11	557.97
665.45	554.26
665.79	550.44
666.13	546.53
666.47	542.96
666.81	539.28
667.15	535.63
667.49	532.30
667.83	528.93
668.17	525.59
668.51	522.19
668.85	519.02
669.19	515.99
669.53	512.60
669.87	509.09
670.21	505.81
670.55	502.36
670.89	499.32
671.23	496.44
671.57	493.42
671.91	490.46
672.25	487.31
672.58	484.26
672.92	481.35
673.26	478.63
673.60	475.94
673.94	473.05
674.28	470.34
674.62	467.63
674.96	464.92
675.30	462.30
675.64	459.49
675.97	456.74
676.31	454.05
676.65	451.54
676.99	449.33
677.33	446.77
677.67	444.29
678.01	441.61
678.34	438.98
678.68	436.58
679.02	434.00
679.36	431.62
679.70	429.19
680.04	426.70
680.37	424.18
680.71	421.70
681.05	419.51
681.39	417.20
681.73	414.94
682.06	412.71
682.40	410.44
682.74	408.32
683.08	406.24
683.42	403.96
683.75	401.81
684.09	399.53
684.43	397.31
684.77	395.14
685.10	393.13
685.44	390.96
685.78	388.76
686.12	386.84
686.45	384.77
686.79	382.82
687.13	380.96
687.46	379.05
687.80	377.16
688.14	375.22
688.48	373.38
688.81	371.39
689.15	369.48
689.49	367.68
689.82	365.75
690.16	363.71
690.50	361.80
690.83	359.80
691.17	357.86
691.51	355.96
691.84	354.13
692.18	352.34
692.52	350.73
692.85	349.15
693.19	347.48
693.52	345.87
693.86	344.09
694.20	342.36
694.53	340.77
694.87	339.07
695.21	337.47
695.54	335.70
695.88	334.04
696.21	332.43
696.55	330.94
696.88	329.39
697.22	327.92
697.56	326.56
697.89	325.15
698.23	323.70
698.56	322.39
698.90	321.10
699.23	319.70
699.57	318.31
699.90	316.96
700.24	315.53
700.58	314.16
700.91	312.90
701.25	311.73
701.58	310.53
701.92	309.27
702.25	307.93
702.59	306.86
702.92	305.78
703.26	304.56
703.59	303.30
703.93	302.48
704.26	301.40
704.60	300.30
704.93	299.22
705.26	298.16
705.60	297.13
705.93	296.02
706.27	295.00
706.60	293.96
706.94	293.02
707.27	292.01
707.61	291.01
707.94	290.11
708.27	289.01
708.61	287.95
708.94	287.07
709.28	286.20
709.61	285.15
709.94	284.24
710.28	283.42
710.61	282.65
710.95	281.55
711.28	280.76
711.61	279.83
711.95	279.05
712.28	278.22
712.61	277.32
712.95	276.62
713.28	275.87
713.61	275.10
713.95	274.21
714.28	273.41
714.61	272.60
714.95	271.68
715.28	270.95
715.61	270.19
715.95	269.40
716.28	268.57
716.61	267.95
716.95	267.21
717.28	266.49
717.61	265.68
717.94	264.98
718.28	264.26
718.61	263.62
718.94	262.86
719.27	262.21
719.61	261.60
719.94	260.94
720.27	260.32
720.60	259.65
720.94	259.04
721.27	258.45
721.60	257.93
721.93	257.48
722.27	256.99
722.60	256.50
722.93	255.94
723.26	255.51
723.59	254.90
723.93	254.37
724.26	253.90
724.59	253.47
724.92	252.96
725.25	252.56
725.59	251.93
725.92	251.46
726.25	251.03
726.58	250.55
726.91	250.08
727.24	249.63
727.57	249.22
727.91	248.73
728.24	248.36
728.57	247.97
728.90	247.55
729.23	247.04
729.56	246.69
729.89	246.32
730.22	245.85
730.55	245.47
730.89	245.12
731.22	244.62
731.55	244.15
731.88	243.78
732.21	243.30
732.54	243.04
732.87	242.72
733.20	242.31
733.53	241.98
733.86	241.61
734.19	241.24
734.52	240.96
734.85	240.75
735.18	240.40
735.51	240.13
735.84	239.77
736.17	239.52
736.50	239.11
736.83	239.00
737.16	238.61
737.49	238.32
737.82	237.96
738.15	237.75
738.48	237.52
738.81	237.22
739.14	236.78
739.47	236.49
739.80	236.17
740.13	235.86
740.46	235.55
740.79	235.24
741.12	234.90
741.45	234.51
741.78	234.15
742.11	233.92
742.44	233.56
742.77	233.32
743.10	233.11
743.43	232.86
743.75	232.41
744.08	232.44
744.41	232.11
744.74	231.84
745.07	231.55
745.40	231.24
745.73	231.11
746.06	230.94
746.39	230.74
746.71	230.48
747.04	230.28
747.37	230.02
747.70	229.82
748.03	229.63
748.36	229.47
748.68	229.26
749.01	228.96
749.34	228.78
749.67	228.64
750.00	228.38
750.33	228.21
750.65	228.05
750.98	227.62
751.31	227.49
751.64	227.30
751.97	227.17
752.29	227.04
752.62	226.78
752.95	226.56
753.28	226.30
753.60	226.13
753.93	225.99
754.26	225.81
754.59	225.54
754.91	225.28
755.24	225.06
755.57	224.89
755.90	224.74
756.22	224.57
756.55	224.33
756.88	224.10
757.20	223.86
757.53	223.59
757.86	223.43
758.19	223.31
758.51	223.13
758.84	222.93
759.17	222.75
759.49	222.58
759.82	222.62
760.15	222.45
760.47	222.36
760.80	222.25
761.13	222.17
761.45	222.05
761.78	221.95
762.11	221.85
762.43	221.72
762.76	221.59
763.08	221.52
763.41	221.46
763.74	221.39
764.06	221.32
764.39	221.17
764.71	221.05
765.04	220.85
765.37	220.77
765.69	220.69
766.02	220.56
766.34	220.48
766.67	220.31
767.00	220.34
767.32	220.30
767.65	220.19
767.97	220.03
768.30	219.95
768.62	219.88
768.95	219.77
769.27	219.72
769.60	219.62
769.92	219.51
770.25	219.31
770.57	219.15
770.90	219.02
771.22	218.96
771.55	218.94
771.87	218.90
772.20	218.80
772.52	218.81
772.85	218.93
773.17	218.83
773.50	218.75
773.82	218.64
774.15	218.44
774.47	218.26
774.80	218.20
775.12	218.12
775.45	218.11
775.77	218.05
776.09	217.93
776.42	217.86
776.74	217.78
777.07	217.75
777.39	217.77
777.72	217.70
778.04	217.69
778.36	217.58
778.69	217.45
779.01	217.40
779.33	217.19
779.66	216.97
779.98	216.88
780.31	216.76
780.63	216.79
780.95	216.72
781.28	216.63
781.60	216.51
781.92	216.45
782.25	216.34
782.57	216.25
782.89	216.21
783.22	216.15
783.54	216.07
783.86	216.04
784.19	215.91
784.51	215.92
784.83	215.83
785.16	215.73
785.48	215.72
785.80	215.70
786.12	215.70
786.45	215.60
786.77	215.59
787.09	215.62
