SpectraSuite Data File
++++++++++++++++++++++++++++++++++++
Date: Mon Feb 25 17:32:21 EST 2013
User: group
Dark Spectrum Present: No
Reference Spectrum Present: No
Number of Sampled Component Spectra: 1
Spectrometers: USB2E7196
Integration Time (usec): 52000 (USB2E7196)
Spectra Averaged: 20 (USB2E7196)
Boxcar Smoothing: 10 (USB2E7196)
Correct for Electrical Dark: No (USB2E7196)
Strobe/Lamp Enabled: No (USB2E7196)
Correct for Detector Non-linearity: No (USB2E7196)
Correct for Stray Light: No (USB2E7196)
Number of Pixels in Processed Spectrum: 2048
>>>>>Begin Processed Spectral Data<<<<<
339.09	0.00
339.48	198.10
339.86	200.50
340.24	201.75
340.63	204.20
341.01	205.85
341.39	206.05
341.78	208.05
342.16	208.95
342.54	209.10
342.93	198.12
343.31	208.12
343.69	208.70
344.07	209.16
344.46	209.57
344.84	209.95
345.22	210.25
345.60	210.52
345.99	210.65
346.37	210.79
346.75	210.85
347.13	210.92
347.52	211.07
347.90	211.17
348.28	211.17
348.66	211.19
349.05	211.12
349.43	211.25
349.81	211.32
350.19	211.47
350.57	211.53
350.96	211.70
351.34	211.79
351.72	211.90
352.10	211.92
352.48	212.00
352.87	211.94
353.25	212.00
353.63	212.01
354.01	212.12
354.39	212.14
354.77	212.20
355.15	212.35
355.54	212.42
355.92	212.40
356.30	212.57
356.68	212.75
357.06	212.89
357.44	212.88
357.82	212.94
358.20	212.97
358.58	213.01
358.97	213.01
359.35	213.06
359.73	213.15
360.11	213.26
360.49	213.31
360.87	213.43
361.25	213.45
361.63	213.57
362.01	213.59
362.39	213.67
362.77	213.74
363.15	213.65
363.53	213.61
363.91	213.65
364.29	213.62
364.67	213.51
365.05	213.52
365.43	213.59
365.81	213.58
366.19	213.65
366.57	213.67
366.95	213.70
367.33	213.71
367.71	213.68
368.09	213.77
368.47	213.73
368.85	213.70
369.23	213.75
369.61	213.69
369.99	213.72
370.37	213.68
370.75	213.72
371.13	213.73
371.51	213.66
371.89	213.64
372.27	213.60
372.65	213.60
373.03	213.49
373.41	213.37
373.78	213.33
374.16	213.17
374.54	213.13
374.92	213.10
375.30	213.04
375.68	212.95
376.06	212.82
376.44	212.81
376.82	212.80
377.19	212.67
377.57	212.63
377.95	212.54
378.33	212.44
378.71	212.34
379.09	212.31
379.47	212.35
379.84	212.30
380.22	212.19
380.60	212.10
380.98	212.06
381.36	212.06
381.73	211.99
382.11	211.98
382.49	211.94
382.87	211.91
383.25	211.95
383.62	212.12
384.00	212.05
384.38	212.01
384.76	212.00
385.13	212.08
385.51	212.04
385.89	212.03
386.27	212.08
386.64	212.11
387.02	212.07
387.40	211.97
387.78	211.91
388.15	211.93
388.53	211.93
388.91	211.94
389.29	211.91
389.66	211.92
390.04	211.89
390.42	211.80
390.79	211.72
391.17	211.66
391.55	211.48
391.92	211.47
392.30	211.50
392.68	211.46
393.05	211.35
393.43	211.30
393.81	211.23
394.18	211.15
394.56	211.14
394.94	211.16
395.31	211.20
395.69	211.34
396.06	211.34
396.44	211.33
396.82	211.30
397.19	211.40
397.57	211.46
397.95	211.51
398.32	211.59
398.70	211.59
399.07	211.68
399.45	211.72
399.82	211.75
400.20	211.74
400.58	211.74
400.95	211.77
401.33	211.91
401.70	212.11
402.08	212.18
402.45	212.25
402.83	212.41
403.20	212.46
403.58	212.47
403.95	212.63
404.33	212.70
404.71	212.80
405.08	213.00
405.46	213.04
405.83	213.15
406.21	213.25
406.58	213.52
406.96	213.66
407.33	213.78
407.70	213.99
408.08	214.35
408.45	214.53
408.83	214.80
409.20	214.97
409.58	215.10
409.95	215.40
410.33	215.61
410.70	215.79
411.08	216.19
411.45	216.61
411.82	216.96
412.20	217.42
412.57	217.97
412.95	218.36
413.32	218.95
413.69	219.52
414.07	220.13
414.44	220.72
414.82	221.26
415.19	221.98
415.56	222.75
415.94	223.48
416.31	224.45
416.68	225.29
417.06	226.30
417.43	227.37
417.81	228.46
418.18	229.58
418.55	230.72
418.93	231.85
419.30	233.09
419.67	234.41
420.04	235.78
420.42	237.27
420.79	239.01
421.16	240.70
421.54	242.47
421.91	244.22
422.28	246.15
422.66	248.21
423.03	250.25
423.40	252.35
423.77	254.59
424.15	256.79
424.52	259.16
424.89	261.67
425.26	264.11
425.64	266.48
426.01	269.00
426.38	271.77
426.75	274.56
427.13	277.38
427.50	280.45
427.87	283.54
428.24	286.64
428.61	289.43
428.99	292.61
429.36	296.12
429.73	299.69
430.10	303.14
430.47	306.74
430.85	310.39
431.22	314.29
431.59	318.30
431.96	322.30
432.33	326.63
432.70	330.85
433.08	335.69
433.45	340.27
433.82	344.90
434.19	349.94
434.56	354.95
434.93	359.78
435.30	364.37
435.68	369.63
436.05	374.73
436.42	379.89
436.79	384.63
437.16	389.67
437.53	394.94
437.90	400.10
438.27	405.34
438.64	410.58
439.01	415.47
439.38	419.90
439.75	424.06
440.13	428.86
440.50	433.42
440.87	437.15
441.24	440.94
441.61	445.27
441.98	448.32
442.35	451.85
442.72	455.45
443.09	459.08
443.46	461.18
443.83	462.43
444.20	463.49
444.57	465.29
444.94	466.09
445.31	466.85
445.68	467.52
446.05	467.59
446.42	467.03
446.79	466.18
447.16	465.23
447.53	464.50
447.90	462.41
448.27	460.28
448.64	457.29
449.01	455.15
449.37	451.41
449.74	447.90
450.11	443.84
450.48	439.27
450.85	434.63
451.22	430.66
451.59	427.02
451.96	423.63
452.33	418.85
452.70	414.47
453.07	409.47
453.43	404.36
453.80	399.44
454.17	394.68
454.54	390.32
454.91	385.58
455.28	381.03
455.65	376.59
456.02	372.38
456.38	368.77
456.75	364.20
457.12	360.36
457.49	356.62
457.86	352.88
458.23	349.66
458.59	346.10
458.96	342.59
459.33	339.50
459.70	336.26
460.07	333.84
460.43	331.04
460.80	328.29
461.17	325.91
461.54	323.48
461.91	321.08
462.27	318.64
462.64	316.59
463.01	314.35
463.38	312.29
463.74	310.11
464.11	308.13
464.48	306.60
464.85	304.89
465.21	303.65
465.58	302.25
465.95	300.64
466.32	299.28
466.68	297.92
467.05	296.46
467.42	295.11
467.78	293.62
468.15	292.30
468.52	291.37
468.88	290.12
469.25	288.99
469.62	288.16
469.98	287.22
470.35	286.31
470.72	285.46
471.08	284.55
471.45	283.73
471.82	283.01
472.18	282.07
472.55	281.49
472.92	280.65
473.28	280.08
473.65	279.51
474.02	278.97
474.38	278.54
474.75	278.24
475.11	277.90
475.48	277.60
475.85	277.29
476.21	276.97
476.58	276.80
476.94	276.74
477.31	276.61
477.67	276.57
478.04	276.58
478.41	276.67
478.77	276.99
479.14	277.04
479.50	277.35
479.87	277.80
480.23	278.13
480.60	278.50
480.96	278.93
481.33	279.58
481.69	280.21
482.06	280.78
482.42	281.48
482.79	282.21
483.15	283.09
483.52	284.17
483.88	285.17
484.25	286.18
484.61	287.22
484.98	288.41
485.34	289.67
485.71	291.06
486.07	292.50
486.44	293.74
486.80	295.35
487.17	296.86
487.53	298.54
487.90	300.33
488.26	302.37
488.62	304.30
488.99	306.31
489.35	308.38
489.72	310.69
490.08	313.07
490.44	315.64
490.81	318.14
491.17	320.73
491.54	323.60
491.90	326.57
492.26	329.84
492.63	333.14
492.99	336.55
493.36	340.16
493.72	343.97
494.08	347.98
494.45	352.24
494.81	356.89
495.17	361.56
495.54	366.46
495.90	371.50
496.26	376.71
496.63	382.18
496.99	387.96
497.35	393.99
497.72	400.26
498.08	406.70
498.44	413.40
498.80	420.59
499.17	427.86
499.53	435.51
499.89	443.34
500.26	451.44
500.62	459.83
500.98	468.63
501.34	477.69
501.71	487.23
502.07	496.87
502.43	506.74
502.79	516.83
503.16	527.50
503.52	538.41
503.88	549.73
504.24	561.21
504.60	573.17
504.97	585.48
505.33	597.99
505.69	611.22
506.05	624.88
506.41	638.44
506.78	652.32
507.14	666.54
507.50	681.08
507.86	695.96
508.22	711.47
508.59	727.02
508.95	743.20
509.31	759.46
509.67	776.10
510.03	793.09
510.39	810.60
510.75	828.31
511.12	846.27
511.48	864.62
511.84	883.14
512.20	901.69
512.56	920.73
512.92	940.09
513.28	959.47
513.64	979.05
514.00	998.94
514.37	1019.42
514.73	1040.08
515.09	1060.78
515.45	1081.85
515.81	1102.82
516.17	1123.98
516.53	1144.89
516.89	1166.44
517.25	1187.98
517.61	1209.53
517.97	1230.83
518.33	1252.30
518.69	1273.87
519.05	1295.65
519.41	1317.74
519.77	1340.42
520.13	1362.45
520.49	1384.73
520.85	1407.44
521.21	1429.95
521.57	1452.74
521.93	1474.54
522.29	1497.36
522.65	1519.91
523.01	1541.94
523.37	1563.93
523.73	1586.26
524.09	1608.55
524.45	1630.58
524.81	1652.73
525.17	1675.11
525.53	1697.63
525.89	1720.03
526.25	1742.09
526.61	1763.45
526.97	1785.30
527.33	1806.24
527.68	1827.39
528.04	1848.24
528.40	1868.23
528.76	1888.71
529.12	1909.20
529.48	1930.86
529.84	1951.07
530.20	1971.27
530.56	1991.91
530.91	2012.47
531.27	2032.87
531.63	2052.69
531.99	2072.30
532.35	2091.47
532.71	2110.27
533.07	2129.57
533.42	2147.73
533.78	2166.47
534.14	2184.84
534.50	2201.70
534.86	2219.59
535.21	2236.44
535.57	2254.35
535.93	2271.74
536.29	2288.64
536.65	2305.20
537.00	2320.69
537.36	2336.10
537.72	2351.39
538.08	2366.39
538.44	2381.39
538.79	2396.30
539.15	2411.22
539.51	2425.85
539.87	2440.97
540.22	2455.40
540.58	2470.34
540.94	2484.93
541.29	2497.72
541.65	2509.69
542.01	2523.01
542.37	2534.85
542.72	2547.23
543.08	2557.83
543.44	2569.72
543.79	2579.95
544.15	2589.96
544.51	2600.87
544.87	2611.89
545.22	2620.64
545.58	2629.17
545.94	2636.73
546.29	2643.38
546.65	2649.55
547.01	2655.56
547.36	2661.26
547.72	2666.91
548.07	2670.57
548.43	2674.00
548.79	2677.65
549.14	2682.46
549.50	2686.53
549.86	2690.83
550.21	2695.16
550.57	2698.78
550.92	2701.18
551.28	2703.67
551.64	2706.09
551.99	2707.95
552.35	2708.96
552.70	2711.99
553.06	2714.75
553.41	2717.56
553.77	2720.63
554.13	2722.60
554.48	2724.81
554.84	2725.92
555.19	2726.19
555.55	2726.78
555.90	2727.60
556.26	2728.41
556.61	2728.20
556.97	2726.67
557.32	2725.89
557.68	2723.80
558.03	2722.79
558.39	2721.32
558.74	2720.99
559.10	2720.05
559.45	2718.24
559.81	2717.39
560.16	2714.51
560.52	2711.73
560.87	2708.61
561.23	2704.60
561.58	2702.67
561.94	2699.55
562.29	2696.05
562.64	2693.72
563.00	2691.41
563.35	2689.23
563.71	2687.37
564.06	2685.35
564.42	2683.97
564.77	2681.53
565.12	2679.68
565.48	2676.20
565.83	2673.41
566.19	2669.90
566.54	2665.55
566.89	2661.89
567.25	2657.94
567.60	2654.69
567.96	2651.37
568.31	2647.73
568.66	2643.83
569.02	2638.78
569.37	2633.70
569.72	2629.71
570.08	2624.58
570.43	2618.82
570.78	2612.99
571.14	2606.60
571.49	2599.89
571.84	2593.85
572.20	2586.81
572.55	2580.40
572.90	2573.82
573.26	2566.55
573.61	2559.51
573.96	2553.21
574.31	2545.21
574.67	2536.87
575.02	2528.38
575.37	2519.55
575.72	2510.69
576.08	2503.07
576.43	2494.45
576.78	2486.48
577.13	2478.62
577.49	2470.38
577.84	2462.31
578.19	2454.60
578.54	2447.15
578.90	2440.26
579.25	2431.47
579.60	2422.23
579.95	2412.90
580.30	2404.98
580.66	2396.92
581.01	2387.80
581.36	2378.30
581.71	2370.29
582.06	2362.06
582.42	2353.88
582.77	2344.85
583.12	2336.30
583.47	2327.76
583.82	2319.76
584.17	2310.55
584.53	2301.35
584.88	2292.24
585.23	2283.23
585.58	2273.91
585.93	2264.24
586.28	2255.01
586.63	2246.31
586.98	2238.28
587.34	2230.06
587.69	2220.93
588.04	2211.82
588.39	2203.90
588.74	2195.17
589.09	2186.34
589.44	2176.75
589.79	2168.39
590.14	2160.57
590.49	2152.11
590.84	2142.93
591.19	2134.87
591.54	2126.19
591.89	2116.05
592.25	2107.27
592.60	2098.11
592.95	2088.40
593.30	2079.05
593.65	2069.37
594.00	2059.72
594.35	2051.58
594.70	2042.36
595.05	2033.82
595.40	2024.95
595.75	2015.13
596.10	2006.88
596.45	1998.19
596.80	1990.42
597.15	1982.09
597.50	1973.15
597.85	1964.73
598.19	1956.47
598.54	1948.00
598.89	1940.33
599.24	1933.91
599.59	1926.45
599.94	1919.46
600.29	1912.01
600.64	1904.15
600.99	1895.71
601.34	1888.33
601.69	1879.40
602.04	1871.32
602.39	1863.26
602.74	1855.68
603.08	1849.21
603.43	1842.22
603.78	1834.22
604.13	1826.41
604.48	1818.36
604.83	1811.37
605.18	1804.41
605.53	1796.71
605.87	1788.83
606.22	1781.59
606.57	1773.56
606.92	1765.45
607.27	1757.16
607.62	1749.78
607.96	1742.94
608.31	1737.06
608.66	1729.67
609.01	1722.57
609.36	1714.90
609.70	1706.78
610.05	1698.92
610.40	1690.55
610.75	1681.73
611.10	1674.32
611.44	1665.03
611.79	1656.12
612.14	1646.49
612.49	1636.82
612.83	1628.11
613.18	1618.50
613.53	1608.98
613.88	1599.19
614.22	1590.20
614.57	1581.13
614.92	1571.70
615.27	1562.33
615.61	1552.60
615.96	1543.67
616.31	1535.00
616.65	1527.25
617.00	1519.14
617.35	1510.51
617.70	1501.67
618.04	1492.97
618.39	1483.55
618.74	1475.35
619.08	1466.84
619.43	1458.97
619.78	1451.40
620.12	1443.25
620.47	1435.76
620.82	1427.53
621.16	1419.40
621.51	1411.23
621.85	1402.89
622.20	1394.68
622.55	1386.35
622.89	1377.98
623.24	1369.86
623.59	1360.91
623.93	1352.25
624.28	1343.95
624.62	1336.00
624.97	1327.91
625.32	1319.97
625.66	1312.72
626.01	1305.63
626.35	1298.42
626.70	1290.64
627.04	1282.89
627.39	1275.50
627.73	1267.95
628.08	1261.00
628.43	1253.71
628.77	1246.40
629.12	1239.02
629.46	1232.39
629.81	1225.16
630.15	1217.90
630.50	1210.57
630.84	1203.56
631.19	1196.26
631.53	1189.42
631.88	1181.78
632.22	1174.20
632.57	1167.15
632.91	1159.78
633.26	1152.14
633.60	1144.96
633.95	1138.35
634.29	1131.27
634.64	1124.57
634.98	1117.31
635.32	1110.04
635.67	1103.81
636.01	1097.26
636.36	1090.76
636.70	1084.11
637.05	1077.62
637.39	1071.39
637.73	1065.29
638.08	1059.71
638.42	1053.95
638.77	1047.46
639.11	1041.27
639.45	1035.36
639.80	1029.19
640.14	1022.67
640.49	1016.56
640.83	1010.40
641.17	1003.85
641.52	997.71
641.86	991.17
642.20	985.18
642.55	978.65
642.89	971.80
643.23	965.30
643.58	959.45
643.92	952.88
644.26	946.48
644.61	940.42
644.95	934.23
645.29	927.87
645.64	921.16
645.98	915.03
646.32	909.27
646.66	903.16
647.01	897.07
647.35	891.33
647.69	885.11
648.04	879.20
648.38	873.51
648.72	867.41
649.06	861.24
649.41	855.21
649.75	849.47
650.09	843.91
650.43	838.16
650.78	831.94
651.12	826.01
651.46	820.41
651.80	814.29
652.14	808.12
652.49	802.16
652.83	796.42
653.17	790.40
653.51	784.51
653.85	778.80
654.20	772.92
654.54	767.14
654.88	761.62
655.22	755.65
655.56	749.73
655.90	744.07
656.25	738.42
656.59	733.07
656.93	727.89
657.27	722.86
657.61	717.39
657.95	712.11
658.29	707.05
658.64	702.20
658.98	697.10
659.32	691.90
659.66	686.91
660.00	681.62
660.34	676.47
660.68	671.35
661.02	666.46
661.36	661.76
661.70	656.96
662.05	652.35
662.39	648.16
662.73	643.82
663.07	639.45
663.41	635.26
663.75	630.73
664.09	626.00
664.43	621.18
664.77	616.94
665.11	612.58
665.45	608.29
665.79	603.65
666.13	599.46
666.47	595.28
666.81	591.09
667.15	587.05
667.49	583.27
667.83	579.36
668.17	575.41
668.51	571.56
668.85	567.88
669.19	564.16
669.53	560.10
669.87	555.95
670.21	552.18
670.55	548.21
670.89	544.65
671.23	541.28
671.57	537.70
671.91	534.19
672.25	530.64
672.58	527.02
672.92	523.69
673.26	520.35
673.60	517.10
673.94	513.64
674.28	510.48
674.62	507.25
674.96	504.05
675.30	501.05
675.64	497.85
675.97	494.69
676.31	491.60
676.65	488.76
676.99	486.20
677.33	483.29
677.67	480.36
678.01	477.25
678.34	474.36
678.68	471.48
679.02	468.47
679.36	465.75
679.70	462.92
680.04	460.03
680.37	457.13
680.71	454.37
681.05	451.83
681.39	449.05
681.73	446.32
682.06	443.75
682.40	441.16
682.74	438.63
683.08	436.11
683.42	433.35
683.75	430.82
684.09	428.16
684.43	425.59
684.77	423.14
685.10	420.66
685.44	418.11
685.78	415.79
686.12	413.48
686.45	411.06
686.79	408.83
687.13	406.70
687.46	404.55
687.80	402.33
688.14	400.04
688.48	397.92
688.81	395.73
689.15	393.62
689.49	391.29
689.82	389.12
690.16	386.77
690.50	384.75
690.83	382.58
691.17	380.40
691.51	378.22
691.84	376.16
692.18	374.21
692.52	372.34
692.85	370.45
693.19	368.57
693.52	366.56
693.86	364.63
694.20	362.68
694.53	360.77
694.87	358.90
695.21	357.05
695.54	355.22
695.88	353.36
696.21	351.45
696.55	349.83
696.88	348.11
697.22	346.35
697.56	344.73
697.89	343.00
698.23	341.43
698.56	339.88
698.90	338.41
699.23	336.80
699.57	335.15
699.90	333.47
700.24	331.81
700.58	330.36
700.91	328.84
701.25	327.42
701.58	325.93
701.92	324.46
702.25	323.05
702.59	321.70
702.92	320.36
703.26	318.99
703.59	317.70
703.93	316.53
704.26	315.36
704.60	314.07
704.93	312.85
705.26	311.49
705.60	310.33
705.93	309.03
706.27	307.79
706.60	306.65
706.94	305.63
707.27	304.42
707.61	303.20
707.94	301.99
708.27	300.73
708.61	299.63
708.94	298.57
709.28	297.39
709.61	296.32
709.94	295.32
710.28	294.26
710.61	293.11
710.95	291.88
711.28	290.95
711.61	289.92
711.95	288.94
712.28	288.00
712.61	286.98
712.95	286.09
713.28	285.23
713.61	284.25
713.95	283.31
714.28	282.50
714.61	281.67
714.95	280.87
715.28	280.00
715.61	279.09
715.95	278.18
716.28	277.40
716.61	276.51
716.95	275.60
717.28	274.73
717.61	273.88
717.94	273.11
718.28	272.19
718.61	271.45
718.94	270.73
719.27	270.07
719.61	269.39
719.94	268.63
720.27	267.80
720.60	267.12
720.94	266.39
721.27	265.67
721.60	265.00
721.93	264.37
722.27	263.81
722.60	263.29
722.93	262.71
723.26	262.12
723.59	261.47
723.93	260.88
724.26	260.38
724.59	259.80
724.92	259.24
725.25	258.75
725.59	258.20
725.92	257.58
726.25	256.97
726.58	256.45
726.91	255.90
727.24	255.47
727.57	254.96
727.91	254.36
728.24	253.91
728.57	253.39
728.90	252.98
729.23	252.46
729.56	251.98
729.89	251.43
730.22	250.94
730.55	250.49
730.89	250.06
731.22	249.60
731.55	249.20
731.88	248.78
732.21	248.24
732.54	247.78
732.87	247.39
733.20	246.99
733.53	246.53
733.86	246.14
734.19	245.66
734.52	245.26
734.85	245.06
735.18	244.70
735.51	244.35
735.84	243.95
736.17	243.61
736.50	243.18
736.83	243.15
737.16	242.76
737.49	242.42
737.82	242.00
738.15	241.73
738.48	241.40
738.81	241.08
739.14	240.78
739.47	240.45
739.80	240.09
740.13	239.78
740.46	239.40
740.79	238.99
741.12	238.65
741.45	238.25
741.78	237.80
742.11	237.61
742.44	237.28
742.77	236.98
743.10	236.65
743.43	236.37
743.75	235.86
744.08	235.82
744.41	235.52
744.74	235.28
745.07	234.93
745.40	234.67
745.73	234.41
746.06	234.11
746.39	233.85
746.71	233.60
747.04	233.28
747.37	233.09
747.70	232.91
748.03	232.69
748.36	232.55
748.68	232.36
749.01	232.02
749.34	231.89
749.67	231.65
750.00	231.41
750.33	231.27
750.65	231.08
750.98	230.62
751.31	230.38
751.64	230.11
751.97	229.92
752.29	229.62
752.62	229.33
752.95	229.07
753.28	228.77
753.60	228.57
753.93	228.44
754.26	228.22
754.59	227.99
754.91	227.77
755.24	227.55
755.57	227.27
755.90	227.05
756.22	226.76
756.55	226.50
756.88	226.25
757.20	226.02
757.53	225.69
757.86	225.44
758.19	225.27
758.51	225.17
758.84	224.90
759.17	224.80
759.49	224.68
759.82	224.57
760.15	224.45
760.47	224.26
760.80	224.00
761.13	223.85
761.45	223.63
761.78	223.51
762.11	223.40
762.43	223.26
762.76	223.13
763.08	223.05
763.41	222.91
763.74	222.78
764.06	222.56
764.39	222.45
764.71	222.31
765.04	222.19
765.37	222.02
765.69	221.89
766.02	221.69
766.34	221.55
766.67	221.40
767.00	221.31
767.32	221.28
767.65	221.29
767.97	221.16
768.30	221.07
768.62	220.93
768.95	220.82
769.27	220.67
769.60	220.59
769.92	220.40
770.25	220.32
770.57	220.23
770.90	220.09
771.22	219.96
771.55	219.93
771.87	219.84
772.20	219.76
772.52	219.84
772.85	220.04
773.17	219.96
773.50	219.83
773.82	219.68
774.15	219.51
774.47	219.26
774.80	219.12
775.12	219.00
775.45	218.92
775.77	218.76
776.09	218.66
776.42	218.50
776.74	218.49
777.07	218.32
777.39	218.25
777.72	218.19
778.04	218.15
778.36	217.97
778.69	217.82
779.01	217.71
779.33	217.48
779.66	217.15
779.98	217.03
780.31	216.95
780.63	216.92
780.95	216.86
781.28	216.85
781.60	216.80
781.92	216.84
782.25	216.71
782.57	216.72
782.89	216.72
783.22	216.70
783.54	216.57
783.86	216.61
784.19	216.45
784.51	216.47
784.83	216.38
785.16	216.33
785.48	216.32
785.80	216.29
786.12	216.23
786.45	216.14
