SpectraSuite Data File
++++++++++++++++++++++++++++++++++++
Date: Mon Feb 25 17:36:17 EST 2013
User: group
Dark Spectrum Present: No
Reference Spectrum Present: No
Number of Sampled Component Spectra: 1
Spectrometers: USB2E7196
Integration Time (usec): 52000 (USB2E7196)
Spectra Averaged: 20 (USB2E7196)
Boxcar Smoothing: 10 (USB2E7196)
Correct for Electrical Dark: No (USB2E7196)
Strobe/Lamp Enabled: No (USB2E7196)
Correct for Detector Non-linearity: No (USB2E7196)
Correct for Stray Light: No (USB2E7196)
Number of Pixels in Processed Spectrum: 2048
>>>>>Begin Processed Spectral Data<<<<<
339.09	0.00
339.48	199.10
339.86	200.95
340.24	201.75
340.63	203.80
341.01	207.65
341.39	205.60
341.78	207.10
342.16	209.05
342.54	209.05
342.93	198.50
343.31	208.55
343.69	209.11
344.07	209.59
344.46	210.03
344.84	210.51
345.22	210.76
345.60	211.10
345.99	211.34
346.37	211.50
346.75	211.66
347.13	211.82
347.52	211.97
347.90	212.19
348.28	212.32
348.66	212.39
349.05	212.45
349.43	212.60
349.81	212.75
350.19	212.84
350.57	213.05
350.96	213.23
351.34	213.44
351.72	213.62
352.10	213.68
352.48	213.85
352.87	213.84
353.25	213.93
353.63	214.05
354.01	214.16
354.39	214.33
354.77	214.48
355.15	214.55
355.54	214.67
355.92	214.61
356.30	214.66
356.68	214.85
357.06	214.91
357.44	214.87
357.82	214.88
358.20	215.02
358.58	215.06
358.97	215.21
359.35	215.25
359.73	215.29
360.11	215.45
360.49	215.53
360.87	215.66
361.25	215.73
361.63	215.82
362.01	215.85
362.39	215.85
362.77	215.90
363.15	215.96
363.53	215.97
363.91	216.19
364.29	216.24
364.67	216.11
365.05	216.18
365.43	216.24
365.81	216.35
366.19	216.35
366.57	216.38
366.95	216.34
367.33	216.36
367.71	216.37
368.09	216.42
368.47	216.43
368.85	216.37
369.23	216.41
369.61	216.35
369.99	216.45
370.37	216.43
370.75	216.44
371.13	216.38
371.51	216.35
371.89	216.22
372.27	216.24
372.65	216.22
373.03	216.21
373.41	216.22
373.78	216.15
374.16	216.05
374.54	216.01
374.92	215.93
375.30	215.93
375.68	215.94
376.06	215.82
376.44	215.77
376.82	215.76
377.19	215.78
377.57	215.76
377.95	215.65
378.33	215.63
378.71	215.51
379.09	215.43
379.47	215.42
379.84	215.41
380.22	215.31
380.60	215.29
380.98	215.16
381.36	215.10
381.73	215.04
382.11	215.08
382.49	215.10
382.87	215.09
383.25	214.97
383.62	215.12
384.00	215.11
384.38	215.07
384.76	215.05
385.13	215.01
385.51	214.93
385.89	214.92
386.27	214.93
386.64	214.95
387.02	215.04
387.40	215.01
387.78	215.01
388.15	215.01
388.53	215.06
388.91	215.04
389.29	215.09
389.66	215.09
390.04	215.12
390.42	215.15
390.79	215.11
391.17	215.14
391.55	214.95
391.92	214.98
392.30	215.07
392.68	215.15
393.05	215.24
393.43	215.30
393.81	215.40
394.18	215.40
394.56	215.50
394.94	215.51
395.31	215.55
395.69	215.64
396.06	215.78
396.44	215.80
396.82	215.91
397.19	216.11
397.57	216.23
397.95	216.35
398.32	216.39
398.70	216.63
399.07	216.83
399.45	217.04
399.82	217.30
400.20	217.46
400.58	217.55
400.95	217.68
401.33	218.01
401.70	218.35
402.08	218.76
402.45	219.09
402.83	219.51
403.20	219.95
403.58	220.40
403.95	220.91
404.33	221.54
404.71	222.16
405.08	222.87
405.46	223.56
405.83	224.34
406.21	225.13
406.58	226.04
406.96	226.98
407.33	227.90
407.70	228.97
408.08	230.30
408.45	231.69
408.83	233.15
409.20	234.59
409.58	236.15
409.95	237.82
410.33	239.70
410.70	241.72
411.08	243.89
411.45	246.14
411.82	248.56
412.20	251.13
412.57	254.10
412.95	256.87
413.32	260.09
413.69	263.52
414.07	267.24
414.44	271.19
414.82	275.35
415.19	280.11
415.56	284.94
415.94	290.15
416.31	295.90
416.68	301.57
417.06	308.02
417.43	314.01
417.81	321.19
418.18	328.53
418.55	336.43
418.93	344.81
419.30	353.55
419.67	362.77
420.04	372.38
420.42	382.56
420.79	393.79
421.16	405.51
421.54	417.20
421.91	429.65
422.28	442.73
422.66	456.70
423.03	470.06
423.40	484.38
423.77	499.87
424.15	515.52
424.52	531.90
424.89	549.73
425.26	567.45
425.64	584.07
426.01	602.61
426.38	621.92
426.75	641.41
427.13	661.92
427.50	683.60
427.87	706.25
428.24	729.01
428.61	750.97
428.99	774.27
429.36	800.54
429.73	826.13
430.10	851.49
430.47	877.64
430.85	905.58
431.22	934.69
431.59	964.83
431.96	994.49
432.33	1027.39
432.70	1059.32
433.08	1096.51
433.45	1132.04
433.82	1167.10
434.19	1206.02
434.56	1244.31
434.93	1281.65
435.30	1318.74
435.68	1359.96
436.05	1400.81
436.42	1441.95
436.79	1479.83
437.16	1520.30
437.53	1563.55
437.90	1606.49
438.27	1648.38
438.64	1692.41
439.01	1732.89
439.38	1770.29
439.75	1806.05
440.13	1846.14
440.50	1884.32
440.87	1916.28
441.24	1949.73
441.61	1986.29
441.98	2014.54
442.35	2047.08
442.72	2079.07
443.09	2110.00
443.46	2130.55
443.83	2145.80
444.20	2159.41
444.57	2178.05
444.94	2188.99
445.31	2199.57
445.68	2208.59
446.05	2215.66
446.42	2214.91
446.79	2213.51
447.16	2211.63
447.53	2211.13
447.90	2199.76
448.27	2188.36
448.64	2170.30
449.01	2157.77
449.37	2133.48
449.74	2109.82
450.11	2079.84
450.48	2048.74
450.85	2016.86
451.22	1989.30
451.59	1962.29
451.96	1937.08
452.33	1901.79
452.70	1869.95
453.07	1831.45
453.43	1793.49
453.80	1755.74
454.17	1719.88
454.54	1686.20
454.91	1649.37
455.28	1613.66
455.65	1580.09
456.02	1544.21
456.38	1515.35
456.75	1478.97
457.12	1448.87
457.49	1418.94
457.86	1391.11
458.23	1365.19
458.59	1337.45
458.96	1309.36
459.33	1284.86
459.70	1259.66
460.07	1239.79
460.43	1216.95
460.80	1195.34
461.17	1176.64
461.54	1156.84
461.91	1137.96
462.27	1118.94
462.64	1102.78
463.01	1084.49
463.38	1066.57
463.74	1051.01
464.11	1036.33
464.48	1023.17
464.85	1008.47
465.21	997.14
465.58	985.04
465.95	971.20
466.32	959.31
466.68	947.36
467.05	935.12
467.42	923.33
467.78	911.20
468.15	899.65
468.52	891.12
468.88	879.98
469.25	870.15
469.62	861.95
469.98	853.19
470.35	845.01
470.72	837.35
471.08	829.56
471.45	822.50
471.82	814.66
472.18	806.91
472.55	801.48
472.92	795.09
473.28	789.24
473.65	783.86
474.02	778.32
474.38	773.74
474.75	770.12
475.11	765.83
475.48	762.59
475.85	759.69
476.21	756.92
476.58	754.52
476.94	752.80
477.31	750.68
477.67	748.66
478.04	747.13
478.41	746.35
478.77	745.39
479.14	744.45
479.50	744.51
479.87	744.98
480.23	745.52
480.60	745.45
480.96	745.90
481.33	747.05
481.69	748.61
482.06	749.82
482.42	750.69
482.79	752.34
483.15	754.94
483.52	758.40
483.88	761.25
484.25	764.29
484.61	767.46
484.98	770.82
485.34	775.00
485.71	779.45
486.07	784.25
486.44	789.52
486.80	795.17
487.17	801.03
487.53	807.60
487.90	814.42
488.26	821.75
488.62	829.35
488.99	837.00
489.35	844.90
489.72	854.16
490.08	864.09
490.44	873.71
490.81	883.50
491.17	893.06
491.54	904.10
491.90	914.80
492.26	926.45
492.63	938.52
492.99	951.28
493.36	964.29
493.72	977.59
494.08	991.49
494.45	1005.85
494.81	1021.02
495.17	1036.25
495.54	1052.23
495.90	1069.19
496.26	1086.33
496.63	1104.02
496.99	1121.95
497.35	1139.80
497.72	1158.05
498.08	1176.76
498.44	1195.82
498.80	1216.28
499.17	1236.30
499.53	1257.14
499.89	1278.56
500.26	1299.93
500.62	1321.00
500.98	1343.50
501.34	1366.20
501.71	1388.93
502.07	1412.03
502.43	1435.28
502.79	1458.71
503.16	1482.25
503.52	1505.72
503.88	1528.91
504.24	1552.48
504.60	1576.57
504.97	1601.53
505.33	1625.86
505.69	1651.50
506.05	1676.97
506.41	1701.45
506.78	1726.15
507.14	1751.01
507.50	1775.83
507.86	1801.11
508.22	1827.04
508.59	1852.03
508.95	1877.33
509.31	1903.16
509.67	1929.00
510.03	1954.54
510.39	1980.36
510.75	2005.67
511.12	2030.21
511.48	2055.47
511.84	2080.75
512.20	2105.09
512.56	2129.45
512.92	2154.53
513.28	2179.12
513.64	2203.33
514.00	2226.95
514.37	2250.73
514.73	2274.85
515.09	2297.89
515.45	2320.90
515.81	2343.63
516.17	2366.16
516.53	2388.17
516.89	2409.91
517.25	2430.01
517.61	2449.98
517.97	2469.70
518.33	2488.81
518.69	2508.72
519.05	2528.53
519.41	2548.20
519.77	2568.17
520.13	2586.92
520.49	2604.56
520.85	2622.24
521.21	2639.30
521.57	2657.72
521.93	2674.52
522.29	2692.33
522.65	2709.82
523.01	2726.70
523.37	2742.27
523.73	2758.12
524.09	2773.54
524.45	2787.76
524.81	2802.94
525.17	2818.82
525.53	2833.96
525.89	2849.71
526.25	2864.65
526.61	2877.34
526.97	2890.15
527.33	2903.27
527.68	2916.55
528.04	2929.99
528.40	2942.02
528.76	2954.76
529.12	2966.16
529.48	2977.91
529.84	2987.26
530.20	2997.54
530.56	3008.00
530.91	3019.59
531.27	3030.43
531.63	3040.87
531.99	3051.42
532.35	3061.10
532.71	3070.28
533.07	3081.27
533.42	3090.62
533.78	3100.40
534.14	3110.62
534.50	3119.42
534.86	3128.42
535.21	3135.51
535.57	3144.10
535.93	3152.16
536.29	3159.17
536.65	3167.58
537.00	3175.44
537.36	3183.36
537.72	3190.29
538.08	3197.74
538.44	3204.33
538.79	3210.37
539.15	3216.98
539.51	3224.09
539.87	3231.90
540.22	3238.30
540.58	3243.44
540.94	3249.17
541.29	3253.79
541.65	3256.63
542.01	3261.15
542.37	3265.10
542.72	3270.38
543.08	3273.45
543.44	3277.82
543.79	3280.90
544.15	3282.77
544.51	3286.03
544.87	3289.23
545.22	3291.41
545.58	3292.16
545.94	3293.31
546.29	3294.67
546.65	3295.56
547.01	3295.85
547.36	3296.34
547.72	3296.89
548.07	3296.14
548.43	3295.47
548.79	3294.45
549.14	3295.94
549.50	3296.89
549.86	3296.96
550.21	3295.72
550.57	3295.71
550.92	3293.96
551.28	3292.55
551.64	3291.70
551.99	3290.72
552.35	3290.35
552.70	3290.39
553.06	3290.41
553.41	3289.55
553.77	3288.67
554.13	3287.33
554.48	3287.54
554.84	3286.54
555.19	3285.03
555.55	3284.62
555.90	3284.10
556.26	3283.02
556.61	3281.15
556.97	3277.39
557.32	3273.88
557.68	3271.24
558.03	3267.96
558.39	3265.56
558.74	3265.53
559.10	3264.50
559.45	3263.06
559.81	3261.13
560.16	3258.52
560.52	3256.79
560.87	3254.72
561.23	3251.25
561.58	3247.97
561.94	3243.04
562.29	3238.38
562.64	3234.32
563.00	3230.52
563.35	3225.91
563.71	3222.78
564.06	3219.97
564.42	3217.61
564.77	3215.00
565.12	3211.96
565.48	3208.72
565.83	3205.81
566.19	3202.35
566.54	3198.66
566.89	3193.22
567.25	3187.70
567.60	3183.90
567.96	3178.56
568.31	3173.30
568.66	3169.08
569.02	3165.70
569.37	3161.82
569.72	3158.19
570.08	3154.41
570.43	3147.93
570.78	3143.01
571.14	3137.71
571.49	3132.05
571.84	3126.81
572.20	3120.44
572.55	3115.74
572.90	3110.13
573.26	3103.83
573.61	3096.03
573.96	3088.02
574.31	3080.74
574.67	3074.15
575.02	3065.29
575.37	3057.22
575.72	3049.97
576.08	3042.61
576.43	3033.61
576.78	3025.24
577.13	3016.98
577.49	3009.20
577.84	3002.72
578.19	2994.69
578.54	2986.57
578.90	2978.27
579.25	2968.86
579.60	2959.95
579.95	2950.00
580.30	2941.17
580.66	2931.64
581.01	2922.59
581.36	2912.80
581.71	2904.14
582.06	2895.30
582.42	2887.85
582.77	2878.30
583.12	2868.78
583.47	2859.47
583.82	2850.41
584.17	2840.53
584.53	2830.90
584.88	2820.52
585.23	2809.82
585.58	2800.42
585.93	2790.19
586.28	2780.88
586.63	2771.87
586.98	2763.10
587.34	2754.48
587.69	2744.23
588.04	2735.22
588.39	2726.07
588.74	2716.16
589.09	2706.70
589.44	2695.63
589.79	2684.74
590.14	2675.65
590.49	2664.51
590.84	2654.28
591.19	2645.00
591.54	2634.93
591.89	2624.05
592.25	2613.55
592.60	2602.40
592.95	2591.06
593.30	2580.76
593.65	2570.06
594.00	2559.93
594.35	2550.62
594.70	2539.29
595.05	2529.37
595.40	2518.19
595.75	2506.64
596.10	2496.33
596.45	2485.18
596.80	2475.20
597.15	2464.95
597.50	2454.02
597.85	2444.70
598.19	2433.13
598.54	2421.25
598.89	2410.51
599.24	2400.42
599.59	2389.93
599.94	2380.97
600.29	2371.11
600.64	2360.17
600.99	2348.32
601.34	2337.41
601.69	2325.19
602.04	2314.30
602.39	2303.71
602.74	2294.47
603.08	2285.77
603.43	2277.42
603.78	2267.67
604.13	2257.17
604.48	2246.50
604.83	2237.48
605.18	2227.46
605.53	2218.06
605.87	2208.58
606.22	2199.41
606.57	2188.88
606.92	2178.02
607.27	2166.96
607.62	2156.60
607.96	2146.83
608.31	2138.35
608.66	2127.75
609.01	2117.72
609.36	2107.81
609.70	2096.94
610.05	2084.95
610.40	2073.04
610.75	2060.68
611.10	2049.66
611.44	2038.11
611.79	2027.23
612.14	2015.40
612.49	2003.18
612.83	1991.81
613.18	1980.01
613.53	1968.41
613.88	1956.47
614.22	1945.00
614.57	1933.45
614.92	1921.64
615.27	1910.41
615.61	1897.88
615.96	1886.69
616.31	1875.55
616.65	1864.47
617.00	1854.20
617.35	1843.77
617.70	1832.18
618.04	1820.89
618.39	1809.29
618.74	1798.44
619.08	1786.53
619.43	1774.89
619.78	1764.63
620.12	1754.53
620.47	1744.28
620.82	1733.36
621.16	1723.36
621.51	1713.51
621.85	1703.11
622.20	1692.41
622.55	1680.59
622.89	1670.21
623.24	1659.70
623.59	1648.79
623.93	1638.23
624.28	1626.99
624.62	1616.10
624.97	1606.11
625.32	1596.62
625.66	1587.31
626.01	1577.96
626.35	1569.66
626.70	1560.64
627.04	1550.84
627.39	1540.49
627.73	1530.87
628.08	1521.54
628.43	1512.25
628.77	1503.25
629.12	1494.14
629.46	1485.36
629.81	1476.30
630.15	1466.35
630.50	1456.63
630.84	1447.21
631.19	1437.46
631.53	1428.37
631.88	1419.18
632.22	1410.66
632.57	1401.87
632.91	1392.74
633.26	1383.62
633.60	1374.02
633.95	1365.29
634.29	1356.91
634.64	1348.83
634.98	1339.66
635.32	1331.11
635.67	1322.91
636.01	1314.25
636.36	1305.26
636.70	1296.53
637.05	1288.86
637.39	1281.31
637.73	1273.23
638.08	1266.16
638.42	1258.95
638.77	1251.43
639.11	1243.85
639.45	1235.46
639.80	1227.24
640.14	1219.34
640.49	1211.61
640.83	1203.49
641.17	1195.38
641.52	1187.50
641.86	1179.36
642.20	1171.70
642.55	1162.98
642.89	1154.30
643.23	1145.98
643.58	1138.53
643.92	1130.68
644.26	1122.35
644.61	1114.29
644.95	1106.50
645.29	1098.26
645.64	1090.11
645.98	1082.00
646.32	1074.50
646.66	1067.15
647.01	1059.71
647.35	1052.11
647.69	1044.12
648.04	1036.88
648.38	1029.34
648.72	1021.85
649.06	1014.45
649.41	1007.07
649.75	999.86
650.09	992.94
650.43	986.18
650.78	979.12
651.12	971.95
651.46	965.40
651.80	958.92
652.14	952.73
652.49	945.76
652.83	938.85
653.17	931.72
653.51	924.82
653.85	918.32
654.20	911.70
654.54	905.10
654.88	898.59
655.22	891.82
655.56	884.71
655.90	877.50
656.25	870.30
656.59	863.76
656.93	857.79
657.27	851.42
657.61	844.52
657.95	838.28
658.29	832.32
658.64	826.30
658.98	820.20
659.32	813.77
659.66	808.00
660.00	802.11
660.34	796.91
660.68	791.03
661.02	784.73
661.36	779.01
661.70	773.42
662.05	768.35
662.39	763.18
662.73	758.44
663.07	753.68
663.41	749.30
663.75	744.50
664.09	739.30
664.43	734.18
664.77	729.35
665.11	724.40
665.45	719.53
665.79	714.73
666.13	709.79
666.47	705.30
666.81	700.72
667.15	696.06
667.49	691.34
667.83	686.90
668.17	682.81
668.51	678.35
668.85	673.84
669.19	669.31
669.53	664.77
669.87	660.00
670.21	655.61
670.55	650.86
670.89	646.60
671.23	642.53
671.57	638.24
671.91	634.10
672.25	629.96
672.58	625.76
672.92	621.56
673.26	617.69
673.60	613.59
673.94	609.73
674.28	606.33
674.62	602.49
674.96	598.63
675.30	594.76
675.64	591.16
675.97	587.74
676.31	584.35
676.65	581.06
676.99	578.06
677.33	574.73
677.67	571.50
678.01	568.03
678.34	564.56
678.68	561.33
679.02	558.09
679.36	554.84
679.70	551.43
680.04	548.23
680.37	544.79
680.71	541.47
681.05	538.28
681.39	534.76
681.73	531.56
682.06	528.51
682.40	525.47
682.74	522.11
683.08	518.88
683.42	515.69
683.75	512.55
684.09	509.17
684.43	505.90
684.77	502.80
685.10	499.60
685.44	496.42
685.78	493.33
686.12	490.22
686.45	487.20
686.79	484.54
687.13	481.74
687.46	479.16
687.80	476.30
688.14	473.24
688.48	470.64
688.81	467.84
689.15	465.16
689.49	462.34
689.82	459.55
690.16	456.50
690.50	453.62
690.83	450.87
691.17	448.17
691.51	445.68
691.84	442.96
692.18	440.46
692.52	438.15
692.85	435.78
693.19	433.45
693.52	430.95
693.86	428.25
694.20	425.69
694.53	423.12
694.87	420.64
695.21	418.18
695.54	415.56
695.88	413.31
696.21	410.95
696.55	408.78
696.88	406.72
697.22	404.90
697.56	402.99
697.89	400.89
698.23	399.02
698.56	396.95
698.90	395.09
699.23	393.08
699.57	390.99
699.90	388.85
700.24	386.82
700.58	384.89
700.91	383.06
701.25	381.26
701.58	379.50
701.92	377.82
702.25	376.25
702.59	374.65
702.92	372.88
703.26	371.06
703.59	369.42
703.93	367.86
704.26	366.10
704.60	364.31
704.93	362.58
705.26	360.79
705.60	359.16
705.93	357.50
706.27	355.94
706.60	354.52
706.94	353.13
707.27	351.48
707.61	349.90
707.94	348.39
708.27	346.69
708.61	345.23
708.94	343.84
709.28	342.35
709.61	340.80
709.94	339.29
710.28	337.98
710.61	336.45
710.95	334.76
711.28	333.37
711.61	331.85
711.95	330.46
712.28	329.06
712.61	327.79
712.95	326.50
713.28	325.23
713.61	323.92
713.95	322.56
714.28	321.42
714.61	320.25
714.95	319.05
715.28	317.81
715.61	316.52
715.95	315.20
716.28	313.94
716.61	312.68
716.95	311.50
717.28	310.19
717.61	308.99
717.94	308.00
718.28	306.75
718.61	305.61
718.94	304.57
719.27	303.46
719.61	302.30
719.94	301.39
720.27	300.25
720.60	299.10
720.94	298.14
721.27	297.31
721.60	296.37
721.93	295.64
722.27	294.89
722.60	293.95
722.93	293.04
723.26	292.22
723.59	291.49
723.93	290.67
724.26	289.92
724.59	289.08
724.92	288.24
725.25	287.56
725.59	286.82
725.92	286.10
726.25	285.48
726.58	284.89
726.91	283.94
727.24	283.17
727.57	282.49
727.91	281.65
728.24	280.84
728.57	280.01
728.90	279.13
729.23	278.37
729.56	277.81
729.89	277.10
730.22	276.32
730.55	275.56
730.89	274.92
731.22	274.23
731.55	273.52
731.88	272.85
732.21	272.12
732.54	271.48
732.87	270.79
733.20	270.11
733.53	269.43
733.86	268.93
734.19	268.38
734.52	267.87
734.85	267.57
735.18	266.92
735.51	266.42
735.84	265.86
736.17	265.32
736.50	264.71
736.83	264.37
737.16	263.84
737.49	263.30
737.82	262.64
738.15	262.09
738.48	261.57
738.81	261.03
739.14	260.54
739.47	260.05
739.80	259.54
740.13	259.04
740.46	258.46
740.79	257.93
741.12	257.44
741.45	256.83
741.78	256.12
742.11	255.65
742.44	255.20
742.77	254.76
743.10	254.19
743.43	253.61
743.75	253.02
744.08	252.76
744.41	252.26
744.74	251.80
745.07	251.30
745.40	250.86
745.73	250.50
746.06	250.01
746.39	249.53
746.71	249.06
747.04	248.62
747.37	248.17
747.70	247.76
748.03	247.29
748.36	246.98
748.68	246.62
749.01	246.19
749.34	245.73
749.67	245.29
750.00	244.98
750.33	244.71
750.65	244.30
750.98	243.74
751.31	243.41
751.64	243.08
751.97	242.84
752.29	242.55
752.62	242.03
752.95	241.70
753.28	241.43
753.60	241.12
753.93	240.83
754.26	240.51
754.59	240.17
754.91	239.83
755.24	239.41
755.57	239.07
755.90	238.76
756.22	238.55
756.55	238.28
756.88	237.96
757.20	237.57
757.53	237.25
757.86	236.94
758.19	236.64
758.51	236.32
758.84	235.86
759.17	235.52
759.49	235.34
759.82	235.16
760.15	234.88
760.47	234.62
760.80	234.27
761.13	233.99
761.45	233.72
761.78	233.51
762.11	233.29
762.43	233.08
762.76	232.85
763.08	232.50
763.41	232.21
763.74	231.92
764.06	231.65
764.39	231.34
764.71	231.10
765.04	230.86
765.37	230.55
765.69	230.35
766.02	230.18
766.34	229.95
766.67	229.68
767.00	229.50
767.32	229.28
767.65	229.16
767.97	229.00
768.30	228.81
768.62	228.63
768.95	228.43
769.27	228.20
769.60	228.00
769.92	227.74
770.25	227.51
770.57	227.34
770.90	227.16
771.22	226.93
771.55	226.69
771.87	226.42
772.20	226.27
772.52	226.29
772.85	226.27
773.17	226.07
773.50	225.86
773.82	225.60
774.15	225.40
774.47	225.16
774.80	224.96
775.12	224.74
775.45	224.53
775.77	224.36
776.09	224.25
776.42	224.07
776.74	223.99
777.07	223.87
777.39	223.72
777.72	223.59
778.04	223.58
778.36	223.48
778.69	223.43
779.01	223.34
779.33	223.00
779.66	222.68
779.98	222.55
780.31	222.48
780.63	222.48
780.95	222.38
781.28	222.24
781.60	222.13
781.92	222.03
782.25	221.89
782.57	221.79
782.89	221.60
