SpectraSuite Data File
++++++++++++++++++++++++++++++++++++
Date: Mon Feb 25 17:30:54 EST 2013
User: group
Dark Spectrum Present: No
Reference Spectrum Present: No
Number of Sampled Component Spectra: 1
Spectrometers: USB2E7196
Integration Time (usec): 52000 (USB2E7196)
Spectra Averaged: 20 (USB2E7196)
Boxcar Smoothing: 10 (USB2E7196)
Correct for Electrical Dark: No (USB2E7196)
Strobe/Lamp Enabled: No (USB2E7196)
Correct for Detector Non-linearity: No (USB2E7196)
Correct for Stray Light: No (USB2E7196)
Number of Pixels in Processed Spectrum: 2048
>>>>>Begin Processed Spectral Data<<<<<
339.09	0.00
339.48	198.00
339.86	200.10
340.24	201.05
340.63	203.00
341.01	206.15
341.39	206.50
341.78	206.95
342.16	209.05
342.54	209.90
342.93	198.64
343.31	208.66
343.69	209.32
344.07	209.83
344.46	210.36
344.84	210.80
345.22	211.12
345.60	211.38
345.99	211.66
346.37	211.80
346.75	211.91
347.13	211.96
347.52	212.04
347.90	212.11
348.28	212.03
348.66	212.00
349.05	211.95
349.43	212.01
349.81	212.10
350.19	212.08
350.57	212.10
350.96	212.16
351.34	212.37
351.72	212.40
352.10	212.45
352.48	212.54
352.87	212.64
353.25	212.65
353.63	212.75
354.01	212.76
354.39	212.79
354.77	212.86
355.15	212.98
355.54	213.09
355.92	213.07
356.30	213.16
356.68	213.37
357.06	213.40
357.44	213.44
357.82	213.48
358.20	213.61
358.58	213.65
358.97	213.72
359.35	213.69
359.73	213.80
360.11	213.88
360.49	213.87
360.87	213.85
361.25	213.92
361.63	213.96
362.01	214.02
362.39	214.06
362.77	214.11
363.15	214.10
363.53	214.13
363.91	214.15
364.29	214.19
364.67	214.13
365.05	214.08
365.43	214.03
365.81	214.02
366.19	214.04
366.57	214.13
366.95	214.07
367.33	214.04
367.71	214.02
368.09	213.97
368.47	213.89
368.85	213.86
369.23	213.79
369.61	213.70
369.99	213.75
370.37	213.75
370.75	213.70
371.13	213.68
371.51	213.55
371.89	213.56
372.27	213.55
372.65	213.42
373.03	213.39
373.41	213.34
373.78	213.32
374.16	213.26
374.54	213.08
374.92	212.97
375.30	212.90
375.68	212.75
376.06	212.71
376.44	212.68
376.82	212.64
377.19	212.60
377.57	212.51
377.95	212.33
378.33	212.18
378.71	212.05
379.09	211.98
379.47	211.96
379.84	211.85
380.22	211.72
380.60	211.68
380.98	211.70
381.36	211.72
381.73	211.64
382.11	211.60
382.49	211.59
382.87	211.60
383.25	211.56
383.62	211.78
384.00	211.75
384.38	211.80
384.76	211.76
385.13	211.86
385.51	211.87
385.89	211.90
386.27	211.92
386.64	211.93
387.02	211.92
387.40	211.90
387.78	211.89
388.15	211.85
388.53	211.76
388.91	211.70
389.29	211.58
389.66	211.65
390.04	211.60
390.42	211.65
390.79	211.67
391.17	211.66
391.55	211.50
391.92	211.52
392.30	211.55
392.68	211.50
393.05	211.49
393.43	211.53
393.81	211.45
394.18	211.47
394.56	211.50
394.94	211.55
395.31	211.54
395.69	211.60
396.06	211.70
396.44	211.83
396.82	211.81
397.19	211.93
397.57	211.85
397.95	211.87
398.32	211.83
398.70	211.84
399.07	211.96
399.45	211.92
399.82	211.87
400.20	211.90
400.58	212.00
400.95	211.93
401.33	211.96
401.70	212.23
402.08	212.28
402.45	212.32
402.83	212.47
403.20	212.56
403.58	212.59
403.95	212.72
404.33	212.82
404.71	213.05
405.08	213.29
405.46	213.40
405.83	213.53
406.21	213.64
406.58	213.73
406.96	213.78
407.33	213.96
407.70	214.20
408.08	214.47
408.45	214.64
408.83	214.86
409.20	215.04
409.58	215.10
409.95	215.40
410.33	215.71
410.70	215.87
411.08	216.27
411.45	216.65
411.82	216.93
412.20	217.35
412.57	217.87
412.95	218.10
413.32	218.67
413.69	219.15
414.07	219.70
414.44	220.38
414.82	221.02
415.19	221.75
415.56	222.41
415.94	223.10
416.31	224.00
416.68	224.89
417.06	225.87
417.43	226.84
417.81	227.92
418.18	229.03
418.55	230.19
418.93	231.35
419.30	232.67
419.67	234.07
420.04	235.48
420.42	236.84
420.79	238.73
421.16	240.33
421.54	242.22
421.91	244.09
422.28	245.97
422.66	248.02
423.03	250.05
423.40	252.18
423.77	254.39
424.15	256.50
424.52	258.79
424.89	261.22
425.26	263.66
425.64	265.93
426.01	268.45
426.38	271.11
426.75	273.79
427.13	276.53
427.50	279.45
427.87	282.44
428.24	285.45
428.61	288.24
428.99	291.53
429.36	294.97
429.73	298.35
430.10	301.76
430.47	305.25
430.85	308.80
431.22	312.61
431.59	316.69
431.96	320.63
432.33	324.91
432.70	329.09
433.08	334.02
433.45	338.56
433.82	343.17
434.19	348.11
434.56	353.04
434.93	357.74
435.30	362.40
435.68	367.66
436.05	372.69
436.42	377.77
436.79	382.39
437.16	387.25
437.53	392.44
437.90	397.49
438.27	402.47
438.64	407.74
439.01	412.60
439.38	416.72
439.75	420.89
440.13	425.63
440.50	430.16
440.87	433.58
441.24	437.34
441.61	441.36
441.98	444.38
442.35	447.90
442.72	451.48
443.09	454.89
443.46	456.88
443.83	458.29
444.20	459.31
444.57	460.99
444.94	461.80
445.31	462.70
445.68	463.42
446.05	463.66
446.42	462.92
446.79	462.18
447.16	461.37
447.53	460.79
447.90	458.69
448.27	456.59
448.64	453.84
449.01	451.78
449.37	448.24
449.74	444.94
450.11	440.89
450.48	436.49
450.85	432.04
451.22	428.09
451.59	424.47
451.96	421.07
452.33	416.42
452.70	412.14
453.07	407.02
453.43	401.95
453.80	397.06
454.17	392.47
454.54	388.04
454.91	383.45
455.28	378.74
455.65	374.38
456.02	370.17
456.38	366.54
456.75	362.00
457.12	358.20
457.49	354.35
457.86	350.67
458.23	347.52
458.59	344.10
458.96	340.69
459.33	337.54
459.70	334.43
460.07	331.95
460.43	329.08
460.80	326.40
461.17	324.17
461.54	321.79
461.91	319.48
462.27	317.13
462.64	315.03
463.01	312.89
463.38	310.91
463.74	308.77
464.11	306.95
464.48	305.40
464.85	303.74
465.21	302.55
465.58	301.18
465.95	299.49
466.32	298.11
466.68	296.66
467.05	295.32
467.42	293.96
467.78	292.52
468.15	291.31
468.52	290.32
468.88	289.01
469.25	287.82
469.62	286.97
469.98	286.04
470.35	285.12
470.72	284.27
471.08	283.32
471.45	282.48
471.82	281.64
472.18	280.74
472.55	280.04
472.92	279.21
473.28	278.75
473.65	278.09
474.02	277.55
474.38	277.14
474.75	276.72
475.11	276.30
475.48	276.09
475.85	275.92
476.21	275.79
476.58	275.67
476.94	275.74
477.31	275.68
477.67	275.68
478.04	275.78
478.41	275.88
478.77	276.23
479.14	276.40
479.50	276.72
479.87	277.08
480.23	277.63
480.60	278.02
480.96	278.25
481.33	278.99
481.69	279.60
482.06	280.34
482.42	281.09
482.79	281.89
483.15	282.77
483.52	283.63
483.88	284.62
484.25	285.54
484.61	286.53
484.98	287.60
485.34	288.84
485.71	290.21
486.07	291.70
486.44	292.98
486.80	294.52
487.17	296.20
487.53	297.91
487.90	299.61
488.26	301.54
488.62	303.62
488.99	305.63
489.35	307.68
489.72	309.82
490.08	312.22
490.44	314.65
490.81	317.20
491.17	319.99
491.54	322.80
491.90	325.92
492.26	329.19
492.63	332.48
492.99	335.96
493.36	339.61
493.72	343.32
494.08	347.29
494.45	351.58
494.81	355.97
495.17	360.61
495.54	365.47
495.90	370.69
496.26	375.95
496.63	381.48
496.99	387.34
497.35	393.41
497.72	399.65
498.08	406.11
498.44	412.83
498.80	419.81
499.17	427.08
499.53	434.70
499.89	442.52
500.26	450.58
500.62	458.94
500.98	467.71
501.34	476.85
501.71	486.22
502.07	495.84
502.43	505.88
502.79	516.07
503.16	526.67
503.52	537.40
503.88	548.49
504.24	559.93
504.60	571.63
504.97	583.81
505.33	596.14
505.69	609.50
506.05	622.80
506.41	636.37
506.78	649.95
507.14	663.84
507.50	678.38
507.86	693.24
508.22	708.55
508.59	723.88
508.95	739.62
509.31	755.73
509.67	772.12
510.03	788.73
510.39	806.10
510.75	823.75
511.12	841.48
511.48	859.62
511.84	877.94
512.20	896.60
512.56	915.66
512.92	934.96
513.28	953.87
513.64	973.34
514.00	992.90
514.37	1013.00
514.73	1033.63
515.09	1054.16
515.45	1074.77
515.81	1095.51
516.17	1116.60
516.53	1137.49
516.89	1158.79
517.25	1180.10
517.61	1201.61
517.97	1222.74
518.33	1243.77
518.69	1265.44
519.05	1287.19
519.41	1309.26
519.77	1331.42
520.13	1353.20
520.49	1375.05
520.85	1397.55
521.21	1419.86
521.57	1442.58
521.93	1464.30
522.29	1486.98
522.65	1509.34
523.01	1531.62
523.37	1553.43
523.73	1575.28
524.09	1597.34
524.45	1619.38
524.81	1641.35
525.17	1663.43
525.53	1685.59
525.89	1707.60
526.25	1729.13
526.61	1750.03
526.97	1771.24
527.33	1791.97
527.68	1812.98
528.04	1834.00
528.40	1853.68
528.76	1874.00
529.12	1893.95
529.48	1915.43
529.84	1935.29
530.20	1954.98
530.56	1974.84
530.91	1995.44
531.27	2015.42
531.63	2035.04
531.99	2054.25
532.35	2073.05
532.71	2091.49
533.07	2110.45
533.42	2128.62
533.78	2147.16
534.14	2165.35
534.50	2182.22
534.86	2199.74
535.21	2216.12
535.57	2233.37
535.93	2250.58
536.29	2267.07
536.65	2283.66
537.00	2298.53
537.36	2313.23
537.72	2328.07
538.08	2342.94
538.44	2357.66
538.79	2372.59
539.15	2386.88
539.51	2401.16
539.87	2416.05
540.22	2429.87
540.58	2444.41
540.94	2458.55
541.29	2471.20
541.65	2483.16
542.01	2495.84
542.37	2507.39
542.72	2519.00
543.08	2529.14
543.44	2540.66
543.79	2550.22
544.15	2559.98
544.51	2570.46
544.87	2581.11
545.22	2589.86
545.58	2598.05
545.94	2604.53
546.29	2610.37
546.65	2616.41
547.01	2622.16
547.36	2627.16
547.72	2632.40
548.07	2636.08
548.43	2639.47
548.79	2642.75
549.14	2646.99
549.50	2650.81
549.86	2654.42
550.21	2658.42
550.57	2662.72
550.92	2665.01
551.28	2667.77
551.64	2669.85
551.99	2672.12
552.35	2673.19
552.70	2675.61
553.06	2678.00
553.41	2680.89
553.77	2683.61
554.13	2685.66
554.48	2687.67
554.84	2689.23
555.19	2689.71
555.55	2689.79
555.90	2689.95
556.26	2690.30
556.61	2690.09
556.97	2688.58
557.32	2688.17
557.68	2686.11
558.03	2684.18
558.39	2682.45
558.74	2681.88
559.10	2680.54
559.45	2678.52
559.81	2677.40
560.16	2674.73
560.52	2672.06
560.87	2669.27
561.23	2665.59
561.58	2663.00
561.94	2659.35
562.29	2655.79
562.64	2653.46
563.00	2650.94
563.35	2648.63
563.71	2646.71
564.06	2644.13
564.42	2642.42
564.77	2639.42
565.12	2637.72
565.48	2634.44
565.83	2631.03
566.19	2627.61
566.54	2623.43
566.89	2619.43
567.25	2615.47
567.60	2612.34
567.96	2608.62
568.31	2604.73
568.66	2601.05
569.02	2596.43
569.37	2591.59
569.72	2587.35
570.08	2582.16
570.43	2576.24
570.78	2570.76
571.14	2564.46
571.49	2557.94
571.84	2552.00
572.20	2545.56
572.55	2538.96
572.90	2532.16
573.26	2525.53
573.61	2518.40
573.96	2512.06
574.31	2504.51
574.67	2496.22
575.02	2487.78
575.37	2479.51
575.72	2470.35
576.08	2462.69
576.43	2454.34
576.78	2446.67
577.13	2438.83
577.49	2431.04
577.84	2423.55
578.19	2416.07
578.54	2408.67
578.90	2401.88
579.25	2393.03
579.60	2383.80
579.95	2374.78
580.30	2367.19
580.66	2359.28
581.01	2350.43
581.36	2341.22
581.71	2332.68
582.06	2324.59
582.42	2316.49
582.77	2307.63
583.12	2299.44
583.47	2291.01
583.82	2283.01
584.17	2273.90
584.53	2265.04
584.88	2256.05
585.23	2246.94
585.58	2237.66
585.93	2228.17
586.28	2219.15
586.63	2210.93
586.98	2203.50
587.34	2195.32
587.69	2186.34
588.04	2177.19
588.39	2168.79
588.74	2160.11
589.09	2151.96
589.44	2142.62
589.79	2134.24
590.14	2126.45
590.49	2118.15
590.84	2109.09
591.19	2101.09
591.54	2092.81
591.89	2083.07
592.25	2074.29
592.60	2065.66
592.95	2056.65
593.30	2047.45
593.65	2038.07
594.00	2028.65
594.35	2020.17
594.70	2011.43
595.05	2002.85
595.40	1994.45
595.75	1985.41
596.10	1977.32
596.45	1969.10
596.80	1961.72
597.15	1953.54
597.50	1944.46
597.85	1936.32
598.19	1928.05
598.54	1919.62
598.89	1912.01
599.24	1905.09
599.59	1897.83
599.94	1890.64
600.29	1882.73
600.64	1875.45
600.99	1867.21
601.34	1859.89
601.69	1851.51
602.04	1843.48
602.39	1835.64
602.74	1828.03
603.08	1821.57
603.43	1814.55
603.78	1806.48
604.13	1798.50
604.48	1790.79
604.83	1784.24
605.18	1777.16
605.53	1770.04
605.87	1762.35
606.22	1755.08
606.57	1747.64
606.92	1739.61
607.27	1731.72
607.62	1724.69
607.96	1717.69
608.31	1711.79
608.66	1704.34
609.01	1696.86
609.36	1689.30
609.70	1681.62
610.05	1674.02
610.40	1665.95
610.75	1657.55
611.10	1650.22
611.44	1641.55
611.79	1632.82
612.14	1623.74
612.49	1614.52
612.83	1605.89
613.18	1596.76
613.53	1587.52
613.88	1578.05
614.22	1569.37
614.57	1560.46
614.92	1551.28
615.27	1542.27
615.61	1532.65
615.96	1523.98
616.31	1515.86
616.65	1508.16
617.00	1499.91
617.35	1491.59
617.70	1482.97
618.04	1474.16
618.39	1465.07
618.74	1456.77
619.08	1448.35
619.43	1440.12
619.78	1432.60
620.12	1424.51
620.47	1416.82
620.82	1408.65
621.16	1400.60
621.51	1392.33
621.85	1384.16
622.20	1375.98
622.55	1367.67
622.89	1359.76
623.24	1351.94
623.59	1343.21
623.93	1334.48
624.28	1326.38
624.62	1318.50
624.97	1310.30
625.32	1302.95
625.66	1295.70
626.01	1288.46
626.35	1281.38
626.70	1273.96
627.04	1266.46
627.39	1258.90
627.73	1251.38
628.08	1244.63
628.43	1237.63
628.77	1230.54
629.12	1223.31
629.46	1216.75
629.81	1209.66
630.15	1202.39
630.50	1195.12
630.84	1188.28
631.19	1181.55
631.53	1174.74
631.88	1167.24
632.22	1159.94
632.57	1153.14
632.91	1145.76
633.26	1138.63
633.60	1131.48
633.95	1124.80
634.29	1117.77
634.64	1111.35
634.98	1104.43
635.32	1097.45
635.67	1090.88
636.01	1084.23
636.36	1077.55
636.70	1070.97
637.05	1064.62
637.39	1058.53
637.73	1052.44
638.08	1046.48
638.42	1040.68
638.77	1034.40
639.11	1028.17
639.45	1022.35
639.80	1015.72
640.14	1009.49
640.49	1003.49
640.83	997.39
641.17	991.20
641.52	985.10
641.86	978.67
642.20	972.78
642.55	966.21
642.89	959.93
643.23	953.73
643.58	947.89
643.92	941.45
644.26	935.17
644.61	929.18
644.95	923.03
645.29	916.94
645.64	910.44
645.98	904.53
646.32	898.76
646.66	892.74
647.01	886.95
647.35	881.27
647.69	874.92
648.04	869.17
648.38	863.21
648.72	857.43
649.06	851.56
649.41	845.54
649.75	839.92
650.09	834.15
650.43	828.20
650.78	822.21
651.12	816.39
651.46	810.70
651.80	804.83
652.14	799.10
652.49	793.33
652.83	787.64
653.17	781.48
653.51	775.64
653.85	769.92
654.20	764.10
654.54	758.36
654.88	752.98
655.22	747.25
655.56	741.47
655.90	735.66
656.25	730.06
656.59	724.84
656.93	719.93
657.27	714.81
657.61	709.64
657.95	704.71
658.29	699.62
658.64	694.76
658.98	689.74
659.32	684.39
659.66	679.27
660.00	674.14
660.34	669.11
660.68	664.07
661.02	659.25
661.36	654.63
661.70	649.93
662.05	645.42
662.39	641.15
662.73	637.11
663.07	632.98
663.41	628.76
663.75	624.12
664.09	619.45
664.43	614.82
664.77	610.64
665.11	605.98
665.45	601.74
665.79	597.32
666.13	593.07
666.47	589.14
666.81	585.07
667.15	581.05
667.49	577.49
667.83	573.70
668.17	569.80
668.51	566.17
668.85	562.50
669.19	558.85
669.53	554.81
669.87	550.77
670.21	546.98
670.55	543.10
670.89	539.70
671.23	536.25
671.57	532.89
671.91	529.37
672.25	526.08
672.58	522.78
672.92	519.38
673.26	516.15
673.60	512.96
673.94	509.74
674.28	506.50
674.62	503.30
674.96	500.24
675.30	497.27
675.64	494.06
675.97	490.79
676.31	487.70
676.65	484.99
676.99	482.26
677.33	479.41
677.67	476.62
678.01	473.62
678.34	470.70
678.68	467.79
679.02	464.83
679.36	462.08
679.70	459.22
680.04	456.34
680.37	453.40
680.71	450.55
681.05	447.93
681.39	445.30
681.73	442.59
682.06	439.96
682.40	437.41
682.74	434.89
683.08	432.43
683.42	429.89
683.75	427.30
684.09	424.72
684.43	422.27
684.77	419.77
685.10	417.30
685.44	414.81
685.78	412.51
686.12	410.34
686.45	407.99
686.79	405.85
687.13	403.83
687.46	401.72
687.80	399.53
688.14	397.20
688.48	395.05
688.81	392.82
689.15	390.74
689.49	388.47
689.82	386.24
690.16	384.02
690.50	381.88
690.83	379.70
691.17	377.48
691.51	375.19
691.84	373.15
692.18	371.24
692.52	369.29
692.85	367.35
693.19	365.49
693.52	363.73
693.86	361.81
694.20	359.97
694.53	358.02
694.87	356.23
695.21	354.43
695.54	352.67
695.88	350.92
696.21	349.03
696.55	347.41
696.88	345.77
697.22	344.12
697.56	342.56
697.89	340.98
698.23	339.49
698.56	338.00
698.90	336.50
699.23	335.00
699.57	333.47
699.90	331.79
700.24	330.13
700.58	328.49
700.91	326.94
701.25	325.50
701.58	324.22
701.92	322.79
702.25	321.45
702.59	319.99
702.92	318.59
703.26	317.31
703.59	316.10
703.93	315.00
704.26	313.76
704.60	312.51
704.93	311.24
705.26	310.04
705.60	308.79
705.93	307.52
706.27	306.24
706.60	305.17
706.94	304.21
707.27	303.07
707.61	302.03
707.94	300.85
708.27	299.67
708.61	298.48
708.94	297.28
709.28	296.07
709.61	294.96
709.94	293.99
710.28	293.01
710.61	291.91
710.95	290.62
711.28	289.74
711.61	288.69
711.95	287.82
712.28	286.81
712.61	285.90
712.95	285.10
713.28	284.21
713.61	283.20
713.95	282.23
714.28	281.35
714.61	280.37
714.95	279.51
715.28	278.58
715.61	277.67
715.95	276.85
716.28	276.04
716.61	275.25
716.95	274.37
717.28	273.55
717.61	272.79
717.94	272.06
718.28	271.18
718.61	270.45
718.94	269.66
719.27	269.02
719.61	268.31
719.94	267.52
720.27	266.86
720.60	266.14
720.94	265.44
721.27	264.75
721.60	264.12
721.93	263.54
722.27	262.95
722.60	262.38
722.93	261.82
723.26	261.27
723.59	260.72
723.93	260.20
724.26	259.58
724.59	258.94
724.92	258.41
725.25	257.93
725.59	257.48
725.92	256.95
726.25	256.38
726.58	255.86
726.91	255.39
727.24	254.90
727.57	254.40
727.91	253.91
728.24	253.46
728.57	253.07
728.90	252.60
729.23	252.05
729.56	251.69
729.89	251.16
730.22	250.72
730.55	250.26
730.89	249.80
731.22	249.34
731.55	248.96
731.88	248.55
732.21	248.03
732.54	247.49
732.87	247.06
733.20	246.62
733.53	246.21
733.86	245.81
734.19	245.31
734.52	245.00
734.85	244.70
735.18	244.28
735.51	243.94
735.84	243.57
736.17	243.26
736.50	242.84
736.83	242.80
737.16	242.48
737.49	242.09
737.82	241.71
738.15	241.41
738.48	241.09
738.81	240.69
739.14	240.34
739.47	240.01
739.80	239.61
740.13	239.32
740.46	238.97
740.79	238.60
741.12	238.24
741.45	237.90
741.78	237.52
742.11	237.21
742.44	236.84
742.77	236.57
743.10	236.33
743.43	235.98
743.75	235.39
744.08	235.24
744.41	234.98
744.74	234.68
745.07	234.37
745.40	234.11
745.73	233.91
746.06	233.62
746.39	233.36
746.71	233.05
747.04	232.75
747.37	232.52
747.70	232.29
748.03	232.05
748.36	231.86
748.68	231.63
749.01	231.33
749.34	231.07
749.67	230.84
750.00	230.53
750.33	230.49
750.65	230.23
750.98	229.78
751.31	229.53
751.64	229.25
751.97	229.15
752.29	228.81
752.62	228.53
752.95	228.35
753.28	228.13
753.60	227.98
753.93	227.84
754.26	227.58
754.59	227.28
754.91	227.00
755.24	226.75
755.57	226.58
755.90	226.57
756.22	226.40
756.55	226.22
756.88	226.08
757.20	225.74
757.53	225.66
757.86	225.53
758.19	225.41
758.51	225.33
758.84	225.02
759.17	224.88
759.49	224.70
759.82	224.60
760.15	224.41
760.47	224.26
760.80	223.98
761.13	223.81
761.45	223.76
761.78	223.73
762.11	223.57
762.43	223.36
762.76	223.13
763.08	223.03
763.41	222.88
763.74	222.75
764.06	222.65
764.39	222.50
764.71	222.34
765.04	222.18
765.37	222.06
765.69	221.99
766.02	221.80
766.34	221.69
766.67	221.47
767.00	221.43
767.32	221.40
767.65	221.44
767.97	221.38
768.30	221.22
768.62	221.06
768.95	220.95
769.27	220.80
769.60	220.71
769.92	220.56
770.25	220.43
770.57	220.22
770.90	220.07
771.22	219.89
771.55	219.75
771.87	219.67
772.20	219.54
772.52	219.53
772.85	219.68
773.17	219.65
773.50	219.56
773.82	219.45
774.15	219.29
774.47	219.05
774.80	218.91
775.12	218.81
775.45	218.70
775.77	218.58
776.09	218.53
776.42	218.40
776.74	218.31
777.07	218.14
777.39	218.07
777.72	217.94
778.04	217.85
778.36	217.81
778.69	217.70
779.01	217.62
779.33	217.40
779.66	217.13
779.98	217.05
780.31	217.03
780.63	217.00
780.95	216.95
781.28	216.94
781.60	216.89
781.92	216.83
782.25	216.80
782.57	216.76
782.89	216.63
783.22	216.60
783.54	216.48
783.86	216.50
784.19	216.44
784.51	216.50
784.83	216.52
785.16	216.44
785.48	216.40
785.80	216.37
786.12	216.39
786.45	216.38
