SpectraSuite Data File
++++++++++++++++++++++++++++++++++++
Date: Mon Feb 25 17:31:19 EST 2013
User: group
Dark Spectrum Present: No
Reference Spectrum Present: No
Number of Sampled Component Spectra: 1
Spectrometers: USB2E7196
Integration Time (usec): 52000 (USB2E7196)
Spectra Averaged: 20 (USB2E7196)
Boxcar Smoothing: 10 (USB2E7196)
Correct for Electrical Dark: No (USB2E7196)
Strobe/Lamp Enabled: No (USB2E7196)
Correct for Detector Non-linearity: No (USB2E7196)
Correct for Stray Light: No (USB2E7196)
Number of Pixels in Processed Spectrum: 2048
>>>>>Begin Processed Spectral Data<<<<<
339.09	0.00
339.48	199.60
339.86	200.25
340.24	202.20
340.63	202.95
341.01	207.85
341.39	206.65
341.78	207.85
342.16	209.95
342.54	210.70
342.93	198.60
343.31	208.62
343.69	209.13
344.07	209.66
344.46	210.09
344.84	210.43
345.22	210.59
345.60	210.85
345.99	211.00
346.37	211.16
346.75	211.22
347.13	211.30
347.52	211.39
347.90	211.45
348.28	211.47
348.66	211.50
349.05	211.45
349.43	211.49
349.81	211.51
350.19	211.55
350.57	211.60
350.96	211.65
351.34	211.70
351.72	211.74
352.10	211.68
352.48	211.76
352.87	211.90
353.25	211.96
353.63	211.99
354.01	212.03
354.39	211.97
354.77	212.00
355.15	212.13
355.54	212.18
355.92	212.24
356.30	212.27
356.68	212.40
357.06	212.48
357.44	212.53
357.82	212.60
358.20	212.65
358.58	212.74
358.97	212.83
359.35	213.00
359.73	213.12
360.11	213.28
360.49	213.27
360.87	213.33
361.25	213.38
361.63	213.42
362.01	213.46
362.39	213.50
362.77	213.51
363.15	213.51
363.53	213.59
363.91	213.56
364.29	213.60
364.67	213.49
365.05	213.50
365.43	213.49
365.81	213.44
366.19	213.51
366.57	213.59
366.95	213.63
367.33	213.57
367.71	213.58
368.09	213.56
368.47	213.57
368.85	213.51
369.23	213.64
369.61	213.60
369.99	213.71
370.37	213.74
370.75	213.85
371.13	213.83
371.51	213.72
371.89	213.79
372.27	213.85
372.65	213.87
373.03	213.82
373.41	213.77
373.78	213.86
374.16	213.78
374.54	213.71
374.92	213.64
375.30	213.58
375.68	213.57
376.06	213.50
376.44	213.42
376.82	213.47
377.19	213.33
377.57	213.27
377.95	213.16
378.33	213.14
378.71	212.95
379.09	212.81
379.47	212.79
379.84	212.69
380.22	212.56
380.60	212.48
380.98	212.46
381.36	212.40
381.73	212.29
382.11	212.29
382.49	212.15
382.87	212.09
383.25	212.02
383.62	212.07
384.00	212.03
384.38	212.09
384.76	212.03
385.13	211.99
385.51	211.95
385.89	211.90
386.27	211.84
386.64	211.90
387.02	211.92
387.40	211.88
387.78	211.87
388.15	211.90
388.53	211.80
388.91	211.78
389.29	211.81
389.66	211.79
390.04	211.77
390.42	211.84
390.79	211.81
391.17	211.75
391.55	211.61
391.92	211.62
392.30	211.60
392.68	211.51
393.05	211.48
393.43	211.50
393.81	211.50
394.18	211.47
394.56	211.40
394.94	211.39
395.31	211.44
395.69	211.50
396.06	211.50
396.44	211.61
396.82	211.57
397.19	211.58
397.57	211.59
397.95	211.61
398.32	211.64
398.70	211.71
399.07	211.82
399.45	211.84
399.82	211.92
400.20	211.91
400.58	211.97
400.95	212.05
401.33	212.10
401.70	212.28
402.08	212.40
402.45	212.41
402.83	212.56
403.20	212.68
403.58	212.70
403.95	212.81
404.33	212.92
404.71	213.07
405.08	213.32
405.46	213.48
405.83	213.58
406.21	213.58
406.58	213.71
406.96	213.87
407.33	214.09
407.70	214.29
408.08	214.69
408.45	214.89
408.83	215.11
409.20	215.32
409.58	215.45
409.95	215.67
410.33	216.13
410.70	216.32
411.08	216.63
411.45	217.02
411.82	217.36
412.20	217.74
412.57	218.26
412.95	218.60
413.32	219.07
413.69	219.59
414.07	220.19
414.44	220.73
414.82	221.37
415.19	222.05
415.56	222.76
415.94	223.40
416.31	224.33
416.68	225.23
417.06	226.24
417.43	227.16
417.81	228.25
418.18	229.29
418.55	230.50
418.93	231.68
419.30	232.98
419.67	234.33
420.04	235.75
420.42	237.26
420.79	239.04
421.16	240.72
421.54	242.51
421.91	244.40
422.28	246.30
422.66	248.31
423.03	250.33
423.40	252.43
423.77	254.58
424.15	256.77
424.52	259.07
424.89	261.60
425.26	264.02
425.64	266.33
426.01	268.82
426.38	271.55
426.75	274.26
427.13	276.94
427.50	279.93
427.87	282.94
428.24	285.84
428.61	288.62
428.99	291.80
429.36	295.22
429.73	298.53
430.10	301.94
430.47	305.52
430.85	309.17
431.22	312.90
431.59	316.99
431.96	320.75
432.33	325.01
432.70	329.02
433.08	333.95
433.45	338.48
433.82	343.13
434.19	348.02
434.56	352.96
434.93	357.81
435.30	362.54
435.68	367.67
436.05	372.79
436.42	377.76
436.79	382.49
437.16	387.49
437.53	392.90
437.90	398.09
438.27	403.08
438.64	408.25
439.01	413.19
439.38	417.50
439.75	421.68
440.13	426.44
440.50	430.99
440.87	434.58
441.24	438.53
441.61	442.66
441.98	445.72
442.35	449.28
442.72	452.81
443.09	456.16
443.46	458.27
443.83	459.70
444.20	460.97
444.57	462.60
444.94	463.33
445.31	463.95
445.68	464.72
446.05	464.88
446.42	464.28
446.79	463.46
447.16	462.55
447.53	462.08
447.90	459.97
448.27	457.97
448.64	455.21
449.01	453.04
449.37	449.42
449.74	445.95
450.11	441.86
450.48	437.46
450.85	432.93
451.22	428.98
451.59	425.22
451.96	421.70
452.33	417.07
452.70	412.86
453.07	407.81
453.43	402.69
453.80	397.90
454.17	393.16
454.54	388.76
454.91	384.13
455.28	379.45
455.65	375.10
456.02	370.79
456.38	367.04
456.75	362.45
457.12	358.69
457.49	355.01
457.86	351.33
458.23	348.16
458.59	344.79
458.96	341.42
459.33	338.36
459.70	335.26
460.07	332.75
460.43	329.95
460.80	327.34
461.17	324.97
461.54	322.54
461.91	320.23
462.27	317.88
462.64	315.88
463.01	313.76
463.38	311.74
463.74	309.61
464.11	307.74
464.48	306.11
464.85	304.36
465.21	303.02
465.58	301.63
465.95	299.85
466.32	298.43
466.68	297.05
467.05	295.66
467.42	294.32
467.78	292.87
468.15	291.52
468.52	290.59
468.88	289.31
469.25	288.06
469.62	287.27
469.98	286.27
470.35	285.34
470.72	284.37
471.08	283.43
471.45	282.64
471.82	281.83
472.18	280.97
472.55	280.47
472.92	279.74
473.28	279.00
473.65	278.51
474.02	277.90
474.38	277.43
474.75	277.11
475.11	276.72
475.48	276.52
475.85	276.35
476.21	276.20
476.58	276.07
476.94	276.05
477.31	275.85
477.67	275.81
478.04	275.90
478.41	276.02
478.77	276.33
479.14	276.42
479.50	276.79
479.87	277.12
480.23	277.51
480.60	277.91
480.96	278.47
481.33	279.03
481.69	279.67
482.06	280.30
482.42	280.92
482.79	281.73
483.15	282.54
483.52	283.50
483.88	284.29
484.25	285.22
484.61	286.30
484.98	287.40
485.34	288.82
485.71	290.19
486.07	291.65
486.44	292.96
486.80	294.54
487.17	296.10
487.53	297.88
487.90	299.67
488.26	301.69
488.62	303.71
488.99	305.76
489.35	307.90
489.72	310.24
490.08	312.64
490.44	315.04
490.81	317.67
491.17	320.24
491.54	323.14
491.90	326.27
492.26	329.47
492.63	332.85
492.99	336.17
493.36	339.81
493.72	343.59
494.08	347.61
494.45	351.99
494.81	356.42
495.17	361.09
495.54	365.91
495.90	371.01
496.26	376.25
496.63	381.73
496.99	387.50
497.35	393.46
497.72	399.65
498.08	406.18
498.44	412.88
498.80	420.09
499.17	427.42
499.53	435.01
499.89	442.92
500.26	450.91
500.62	459.21
500.98	467.91
501.34	476.98
501.71	486.30
502.07	495.79
502.43	505.77
502.79	515.72
503.16	526.17
503.52	536.94
503.88	548.13
504.24	559.70
504.60	571.46
504.97	583.76
505.33	596.21
505.69	609.36
506.05	622.74
506.41	636.15
506.78	649.86
507.14	663.84
507.50	678.40
507.86	693.34
508.22	708.71
508.59	724.17
508.95	740.13
509.31	756.27
509.67	772.83
510.03	789.45
510.39	806.92
510.75	824.71
511.12	842.56
511.48	860.70
511.84	879.14
512.20	897.80
512.56	916.71
512.92	935.93
513.28	955.23
513.64	974.81
514.00	994.66
514.37	1014.90
514.73	1035.60
515.09	1056.01
515.45	1076.84
515.81	1097.80
516.17	1119.01
516.53	1139.82
516.89	1161.15
517.25	1182.56
517.61	1204.19
517.97	1225.77
518.33	1246.85
518.69	1268.36
519.05	1290.37
519.41	1312.33
519.77	1334.70
520.13	1356.57
520.49	1378.58
520.85	1400.79
521.21	1423.38
521.57	1446.09
521.93	1467.82
522.29	1490.17
522.65	1512.72
523.01	1534.69
523.37	1556.43
523.73	1578.25
524.09	1600.52
524.45	1622.59
524.81	1644.77
525.17	1666.78
525.53	1688.80
525.89	1711.13
526.25	1733.05
526.61	1753.90
526.97	1775.45
527.33	1796.18
527.68	1817.27
528.04	1838.37
528.40	1858.61
528.76	1878.80
529.12	1899.11
529.48	1920.53
529.84	1941.02
530.20	1961.01
530.56	1981.28
530.91	2001.67
531.27	2021.92
531.63	2041.44
531.99	2061.21
532.35	2080.19
532.71	2099.17
533.07	2118.06
533.42	2135.99
533.78	2154.88
534.14	2173.37
534.50	2190.14
534.86	2208.03
535.21	2224.70
535.57	2242.10
535.93	2259.13
536.29	2275.66
536.65	2292.05
537.00	2306.90
537.36	2321.72
537.72	2336.55
538.08	2351.61
538.44	2366.63
538.79	2381.67
539.15	2396.28
539.51	2410.38
539.87	2425.12
540.22	2438.84
540.58	2453.82
540.94	2468.33
541.29	2480.61
541.65	2492.28
542.01	2505.10
542.37	2516.76
542.72	2529.11
543.08	2539.90
543.44	2551.63
543.79	2561.50
544.15	2571.55
544.51	2582.60
544.87	2593.35
545.22	2602.29
545.58	2610.48
545.94	2617.36
546.29	2623.28
546.65	2629.40
547.01	2635.21
547.36	2640.25
547.72	2645.54
548.07	2648.80
548.43	2652.10
548.79	2655.43
549.14	2659.83
549.50	2663.89
549.86	2667.42
550.21	2670.69
550.57	2674.53
550.92	2676.83
551.28	2679.50
551.64	2681.52
551.99	2683.71
552.35	2684.82
552.70	2687.25
553.06	2689.97
553.41	2692.60
553.77	2695.37
554.13	2697.42
554.48	2699.42
554.84	2701.01
555.19	2701.56
555.55	2702.20
555.90	2702.45
556.26	2703.07
556.61	2702.69
556.97	2701.53
557.32	2700.91
557.68	2699.37
558.03	2697.18
558.39	2695.51
558.74	2694.63
559.10	2693.38
559.45	2691.15
559.81	2689.99
560.16	2687.59
560.52	2684.84
560.87	2682.05
561.23	2678.22
561.58	2675.94
561.94	2672.39
562.29	2668.57
562.64	2666.58
563.00	2663.81
563.35	2661.61
563.71	2659.55
564.06	2657.47
564.42	2655.15
564.77	2652.78
565.12	2650.75
565.48	2647.80
565.83	2644.97
566.19	2641.81
566.54	2637.36
566.89	2633.54
567.25	2629.62
567.60	2626.33
567.96	2622.55
568.31	2619.04
568.66	2615.16
569.02	2610.32
569.37	2605.59
569.72	2601.64
570.08	2595.83
570.43	2590.19
570.78	2584.83
571.14	2578.54
571.49	2571.80
571.84	2565.93
572.20	2559.13
572.55	2552.70
572.90	2545.68
573.26	2538.62
573.61	2531.63
573.96	2525.35
574.31	2517.78
574.67	2509.74
575.02	2501.03
575.37	2492.69
575.72	2483.54
576.08	2476.18
576.43	2467.69
576.78	2459.81
577.13	2452.00
577.49	2444.48
577.84	2437.00
578.19	2429.31
578.54	2422.08
578.90	2415.50
579.25	2407.19
579.60	2398.20
579.95	2388.89
580.30	2381.39
580.66	2373.31
581.01	2364.20
581.36	2355.03
581.71	2346.79
582.06	2338.50
582.42	2330.57
582.77	2321.76
583.12	2313.31
583.47	2304.43
583.82	2296.33
584.17	2287.06
584.53	2277.89
584.88	2269.05
585.23	2260.07
585.58	2250.79
585.93	2240.88
586.28	2231.62
586.63	2222.73
586.98	2214.80
587.34	2206.85
587.69	2197.62
588.04	2188.71
588.39	2180.58
588.74	2171.81
589.09	2163.03
589.44	2153.73
589.79	2145.35
590.14	2137.40
590.49	2129.05
590.84	2120.39
591.19	2112.40
591.54	2104.12
591.89	2094.35
592.25	2085.42
592.60	2076.19
592.95	2066.89
593.30	2057.90
593.65	2048.56
594.00	2039.20
594.35	2030.92
594.70	2021.87
595.05	2013.59
595.40	2004.78
595.75	1995.63
596.10	1987.63
596.45	1979.33
596.80	1971.40
597.15	1963.03
597.50	1953.63
597.85	1945.58
598.19	1937.16
598.54	1928.47
598.89	1920.45
599.24	1913.90
599.59	1906.38
599.94	1899.36
600.29	1892.02
600.64	1884.42
600.99	1875.87
601.34	1868.90
601.69	1860.25
602.04	1852.32
602.39	1844.17
602.74	1836.51
603.08	1829.96
603.43	1822.82
603.78	1814.89
604.13	1807.15
604.48	1799.45
604.83	1792.97
605.18	1786.07
605.53	1778.75
605.87	1771.16
606.22	1764.48
606.57	1756.77
606.92	1748.87
607.27	1741.05
607.62	1733.85
607.96	1726.76
608.31	1720.91
608.66	1713.30
609.01	1705.77
609.36	1697.90
609.70	1690.07
610.05	1682.47
610.40	1674.11
610.75	1665.80
611.10	1658.41
611.44	1649.37
611.79	1640.40
612.14	1631.28
612.49	1621.73
612.83	1612.88
613.18	1603.38
613.53	1593.80
613.88	1584.51
614.22	1575.57
614.57	1566.25
614.92	1556.75
615.27	1547.83
615.61	1538.15
615.96	1529.12
616.31	1520.86
616.65	1513.26
617.00	1505.35
617.35	1496.84
617.70	1488.41
618.04	1479.56
618.39	1470.34
618.74	1462.52
619.08	1454.26
619.43	1446.11
619.78	1438.47
620.12	1430.64
620.47	1423.34
620.82	1415.18
621.16	1406.74
621.51	1398.68
621.85	1390.43
622.20	1382.06
622.55	1373.89
622.89	1365.90
623.24	1358.28
623.59	1349.81
623.93	1341.17
624.28	1332.99
624.62	1324.87
624.97	1316.53
625.32	1308.70
625.66	1301.43
626.01	1294.07
626.35	1286.98
626.70	1279.56
627.04	1272.22
627.39	1264.86
627.73	1257.25
628.08	1250.47
628.43	1243.26
628.77	1236.05
629.12	1228.85
629.46	1222.36
629.81	1215.16
630.15	1207.97
630.50	1200.48
630.84	1193.44
631.19	1186.50
631.53	1179.79
631.88	1172.33
632.22	1164.93
632.57	1158.22
632.91	1151.00
633.26	1143.64
633.60	1136.36
633.95	1129.59
634.29	1122.22
634.64	1115.42
634.98	1108.68
635.32	1101.81
635.67	1095.64
636.01	1089.14
636.36	1082.78
636.70	1076.39
637.05	1070.08
637.39	1063.76
637.73	1057.51
638.08	1051.68
638.42	1045.80
638.77	1039.34
639.11	1033.26
639.45	1027.45
639.80	1020.95
640.14	1014.55
640.49	1008.38
640.83	1002.20
641.17	995.97
641.52	990.03
641.86	983.91
642.20	977.63
642.55	970.83
642.89	964.10
643.23	957.76
643.58	951.71
643.92	945.11
644.26	938.88
644.61	932.90
644.95	926.91
645.29	920.71
645.64	914.27
645.98	908.20
646.32	902.35
646.66	896.29
647.01	890.36
647.35	884.68
647.69	878.55
648.04	872.80
648.38	866.77
648.72	860.82
649.06	854.72
649.41	848.88
649.75	843.39
650.09	837.80
650.43	832.05
650.78	825.95
651.12	819.97
651.46	814.11
651.80	808.20
652.14	802.57
652.49	796.77
652.83	791.10
653.17	785.08
653.51	779.32
653.85	773.68
654.20	768.05
654.54	762.21
654.88	756.80
655.22	751.02
655.56	745.25
655.90	739.49
656.25	733.96
656.59	728.54
656.93	723.30
657.27	718.22
657.61	712.73
657.95	707.65
658.29	702.59
658.64	697.66
658.98	692.57
659.32	687.28
659.66	682.14
660.00	676.73
660.34	671.62
660.68	666.49
661.02	661.55
661.36	656.95
661.70	652.28
662.05	647.53
662.39	643.06
662.73	638.90
663.07	634.69
663.41	630.21
663.75	625.71
664.09	621.02
664.43	616.28
664.77	612.04
665.11	607.77
665.45	603.54
665.79	599.25
666.13	594.95
666.47	590.73
666.81	586.68
667.15	583.03
667.49	579.35
667.83	575.54
668.17	571.65
668.51	567.80
668.85	564.09
669.19	560.57
669.53	556.83
669.87	552.82
670.21	549.00
670.55	545.07
670.89	541.74
671.23	538.54
671.57	535.24
671.91	531.64
672.25	528.04
672.58	524.63
672.92	521.18
673.26	517.99
673.60	514.76
673.94	511.43
674.28	508.04
674.62	504.76
674.96	501.68
675.30	498.70
675.64	495.50
675.97	492.31
676.31	489.27
676.65	486.35
676.99	483.79
677.33	480.97
677.67	478.31
678.01	475.17
678.34	472.11
678.68	469.22
679.02	466.50
679.36	463.74
679.70	460.94
680.04	458.11
680.37	455.21
680.71	452.51
681.05	449.87
681.39	447.13
681.73	444.50
682.06	442.04
682.40	439.40
682.74	436.94
683.08	434.51
683.42	431.87
683.75	429.36
684.09	426.64
684.43	424.07
684.77	421.46
685.10	419.06
685.44	416.67
685.78	414.26
686.12	411.92
686.45	409.70
686.79	407.28
687.13	405.18
687.46	402.93
687.80	400.59
688.14	398.24
688.48	396.19
688.81	393.93
689.15	391.54
689.49	389.39
689.82	387.10
690.16	384.71
690.50	382.58
690.83	380.21
691.17	378.12
691.51	375.96
691.84	373.92
692.18	371.81
692.52	369.85
692.85	367.99
693.19	366.19
693.52	364.16
693.86	362.37
694.20	360.45
694.53	358.65
694.87	356.73
695.21	354.87
695.54	352.96
695.88	351.08
696.21	349.39
696.55	347.72
696.88	346.02
697.22	344.42
697.56	342.80
697.89	341.35
698.23	339.77
698.56	338.28
698.90	336.78
699.23	335.08
699.57	333.50
699.90	331.80
700.24	330.11
700.58	328.56
700.91	327.00
701.25	325.57
701.58	324.19
701.92	322.86
702.25	321.56
702.59	320.13
702.92	318.91
703.26	317.53
703.59	316.19
703.93	315.04
704.26	313.76
704.60	312.44
704.93	311.19
705.26	309.89
705.60	308.67
705.93	307.46
706.27	306.43
706.60	305.33
706.94	304.32
707.27	303.14
707.61	302.04
707.94	300.97
708.27	299.74
708.61	298.55
708.94	297.51
709.28	296.30
709.61	295.33
709.94	294.23
710.28	293.15
710.61	292.09
710.95	290.88
711.28	289.96
711.61	288.97
711.95	288.04
712.28	287.01
712.61	285.98
712.95	285.06
713.28	284.15
713.61	283.20
713.95	282.25
714.28	281.52
714.61	280.65
714.95	279.74
715.28	278.94
715.61	278.06
715.95	277.09
716.28	276.30
716.61	275.42
716.95	274.63
717.28	273.85
717.61	273.07
717.94	272.40
718.28	271.55
718.61	270.92
718.94	270.16
719.27	269.55
719.61	268.91
719.94	268.21
720.27	267.44
720.60	266.73
720.94	266.01
721.27	265.24
721.60	264.63
721.93	264.03
722.27	263.44
722.60	262.91
722.93	262.38
723.26	261.82
723.59	261.14
723.93	260.56
724.26	260.04
724.59	259.43
724.92	258.85
725.25	258.35
725.59	257.76
725.92	257.21
726.25	256.70
726.58	256.21
726.91	255.65
727.24	255.21
727.57	254.80
727.91	254.33
728.24	253.79
728.57	253.22
728.90	252.79
729.23	252.18
729.56	251.74
729.89	251.22
730.22	250.75
730.55	250.35
730.89	249.90
731.22	249.45
731.55	248.99
731.88	248.50
732.21	248.00
732.54	247.52
732.87	247.03
733.20	246.50
733.53	246.02
733.86	245.66
734.19	245.19
734.52	244.66
734.85	244.32
735.18	243.94
735.51	243.64
735.84	243.15
736.17	242.86
736.50	242.49
736.83	242.28
737.16	241.92
737.49	241.63
737.82	241.26
738.15	240.86
738.48	240.56
738.81	240.23
739.14	239.92
739.47	239.55
739.80	239.18
740.13	238.83
740.46	238.46
740.79	238.06
741.12	237.77
741.45	237.48
741.78	237.08
742.11	236.85
742.44	236.54
742.77	236.39
743.10	236.10
743.43	235.71
743.75	235.25
744.08	235.18
744.41	234.86
744.74	234.56
745.07	234.25
745.40	234.05
745.73	233.84
746.06	233.56
746.39	233.33
746.71	233.14
747.04	232.96
747.37	232.68
747.70	232.48
748.03	232.24
748.36	232.05
748.68	231.80
749.01	231.51
749.34	231.22
749.67	230.96
750.00	230.73
750.33	230.68
750.65	230.47
750.98	229.99
751.31	229.76
751.64	229.57
751.97	229.45
752.29	229.18
752.62	228.85
752.95	228.62
753.28	228.32
753.60	228.09
753.93	227.92
754.26	227.72
754.59	227.50
754.91	227.33
755.24	227.09
755.57	226.93
755.90	226.74
756.22	226.56
756.55	226.35
756.88	226.13
757.20	225.76
757.53	225.56
757.86	225.40
758.19	225.25
758.51	225.01
758.84	224.85
759.17	224.68
759.49	224.57
759.82	224.53
760.15	224.43
760.47	224.20
760.80	223.90
761.13	223.82
761.45	223.67
761.78	223.48
762.11	223.37
762.43	223.19
762.76	223.01
763.08	222.96
763.41	222.80
763.74	222.62
764.06	222.45
764.39	222.38
764.71	222.26
765.04	222.15
765.37	222.04
765.69	221.83
766.02	221.67
766.34	221.51
766.67	221.26
767.00	221.15
767.32	221.19
767.65	221.27
767.97	221.10
768.30	220.94
768.62	220.72
768.95	220.55
769.27	220.49
769.60	220.41
769.92	220.22
770.25	220.06
770.57	219.95
770.90	219.91
771.22	219.71
771.55	219.61
771.87	219.46
772.20	219.35
772.52	219.40
772.85	219.54
773.17	219.48
773.50	219.43
773.82	219.33
774.15	219.19
774.47	218.92
774.80	218.80
775.12	218.76
775.45	218.79
775.77	218.71
776.09	218.56
776.42	218.47
776.74	218.44
777.07	218.44
777.39	218.38
777.72	218.28
778.04	218.24
778.36	218.16
778.69	218.12
779.01	218.12
779.33	217.93
779.66	217.66
779.98	217.65
780.31	217.56
780.63	217.50
780.95	217.42
781.28	217.34
781.60	217.30
781.92	217.27
782.25	217.21
782.57	217.18
782.89	217.11
783.22	217.01
783.54	216.91
783.86	216.77
784.19	216.74
784.51	216.71
784.83	216.67
785.16	216.59
785.48	216.48
785.80	216.35
786.12	216.27
786.45	216.21
