SpectraSuite Data File
++++++++++++++++++++++++++++++++++++
Date: Mon Feb 25 17:31:26 EST 2013
User: group
Dark Spectrum Present: No
Reference Spectrum Present: No
Number of Sampled Component Spectra: 1
Spectrometers: USB2E7196
Integration Time (usec): 52000 (USB2E7196)
Spectra Averaged: 20 (USB2E7196)
Boxcar Smoothing: 10 (USB2E7196)
Correct for Electrical Dark: No (USB2E7196)
Strobe/Lamp Enabled: No (USB2E7196)
Correct for Detector Non-linearity: No (USB2E7196)
Correct for Stray Light: No (USB2E7196)
Number of Pixels in Processed Spectrum: 2048
>>>>>Begin Processed Spectral Data<<<<<
339.09	0.00
339.48	199.70
339.86	199.05
340.24	201.25
340.63	202.85
341.01	207.20
341.39	205.65
341.78	208.55
342.16	208.55
342.54	208.25
342.93	198.02
343.31	208.01
343.69	208.46
344.07	208.99
344.46	209.42
344.84	209.79
345.22	209.98
345.60	210.25
345.99	210.32
346.37	210.48
346.75	210.62
347.13	210.65
347.52	210.75
347.90	210.86
348.28	210.90
348.66	210.97
349.05	210.95
349.43	211.02
349.81	211.05
350.19	211.19
350.57	211.23
350.96	211.26
351.34	211.40
351.72	211.46
352.10	211.54
352.48	211.62
352.87	211.71
353.25	211.81
353.63	211.88
354.01	212.02
354.39	212.00
354.77	212.10
355.15	212.24
355.54	212.22
355.92	212.24
356.30	212.36
356.68	212.46
357.06	212.61
357.44	212.56
357.82	212.68
358.20	212.75
358.58	212.85
358.97	212.96
359.35	213.08
359.73	213.29
360.11	213.41
360.49	213.49
360.87	213.55
361.25	213.63
361.63	213.73
362.01	213.75
362.39	213.84
362.77	213.87
363.15	213.91
363.53	213.98
363.91	214.03
364.29	214.04
364.67	213.98
365.05	213.96
365.43	213.99
365.81	213.97
366.19	214.08
366.57	214.10
366.95	214.24
367.33	214.19
367.71	214.15
368.09	214.16
368.47	214.13
368.85	214.14
369.23	214.13
369.61	214.06
369.99	214.17
370.37	214.16
370.75	214.23
371.13	214.17
371.51	214.10
371.89	214.13
372.27	214.08
372.65	214.07
373.03	214.05
373.41	214.08
373.78	214.00
374.16	213.87
374.54	213.80
374.92	213.67
375.30	213.61
375.68	213.54
376.06	213.48
376.44	213.47
376.82	213.43
377.19	213.32
377.57	213.30
377.95	213.18
378.33	213.18
378.71	212.99
379.09	212.94
379.47	212.94
379.84	212.90
380.22	212.88
380.60	212.80
380.98	212.72
381.36	212.70
381.73	212.72
382.11	212.67
382.49	212.60
382.87	212.54
383.25	212.53
383.62	212.75
384.00	212.65
384.38	212.60
384.76	212.57
385.13	212.65
385.51	212.58
385.89	212.58
386.27	212.51
386.64	212.48
387.02	212.42
387.40	212.39
387.78	212.33
388.15	212.34
388.53	212.23
388.91	212.25
389.29	212.17
389.66	212.21
390.04	212.18
390.42	212.17
390.79	212.17
391.17	212.11
391.55	211.86
391.92	211.92
392.30	211.90
392.68	211.81
393.05	211.69
393.43	211.68
393.81	211.60
394.18	211.64
394.56	211.68
394.94	211.71
395.31	211.63
395.69	211.66
396.06	211.65
396.44	211.74
396.82	211.72
397.19	211.85
397.57	211.78
397.95	211.85
398.32	211.85
398.70	211.88
399.07	212.01
399.45	211.97
399.82	211.95
400.20	211.97
400.58	212.08
400.95	212.10
401.33	212.13
401.70	212.30
402.08	212.31
402.45	212.35
402.83	212.50
403.20	212.61
403.58	212.63
403.95	212.77
404.33	212.88
404.71	213.01
405.08	213.23
405.46	213.39
405.83	213.42
406.21	213.58
406.58	213.74
406.96	213.82
407.33	214.00
407.70	214.20
408.08	214.52
408.45	214.80
408.83	215.10
409.20	215.46
409.58	215.61
409.95	215.92
410.33	216.28
410.70	216.53
411.08	216.86
411.45	217.28
411.82	217.60
412.20	218.06
412.57	218.61
412.95	218.87
413.32	219.46
413.69	220.04
414.07	220.60
414.44	221.23
414.82	221.88
415.19	222.63
415.56	223.41
415.94	224.09
416.31	224.90
416.68	225.77
417.06	226.71
417.43	227.78
417.81	228.83
418.18	229.90
418.55	231.15
418.93	232.50
419.30	233.75
419.67	235.05
420.04	236.42
420.42	237.91
420.79	239.70
421.16	241.29
421.54	243.10
421.91	244.94
422.28	246.76
422.66	248.73
423.03	250.80
423.40	252.77
423.77	255.06
424.15	257.22
424.52	259.48
424.89	261.97
425.26	264.33
425.64	266.70
426.01	269.23
426.38	271.72
426.75	274.37
427.13	277.19
427.50	280.19
427.87	283.19
428.24	286.03
428.61	288.90
428.99	292.06
429.36	295.43
429.73	298.77
430.10	302.25
430.47	305.81
430.85	309.31
431.22	313.25
431.59	317.24
431.96	321.12
432.33	325.47
432.70	329.54
433.08	334.36
433.45	338.90
433.82	343.41
434.19	348.55
434.56	353.48
434.93	358.21
435.30	362.90
435.68	368.07
436.05	373.34
436.42	378.31
436.79	382.98
437.16	388.04
437.53	393.29
437.90	398.48
438.27	403.50
438.64	408.81
439.01	413.64
439.38	417.86
439.75	422.09
440.13	426.87
440.50	431.35
440.87	435.03
441.24	438.72
441.61	442.80
441.98	445.85
442.35	449.36
442.72	452.95
443.09	456.40
443.46	458.33
443.83	459.74
444.20	461.02
444.57	462.82
444.94	463.47
445.31	464.31
445.68	465.13
446.05	465.34
446.42	464.77
446.79	464.02
447.16	463.27
447.53	462.62
447.90	460.42
448.27	458.28
448.64	455.46
449.01	453.35
449.37	449.88
449.74	446.36
450.11	442.34
450.48	437.85
450.85	433.21
451.22	429.45
451.59	425.62
451.96	422.04
452.33	417.19
452.70	412.98
453.07	407.87
453.43	402.60
453.80	397.73
454.17	392.91
454.54	388.46
454.91	383.75
455.28	379.04
455.65	374.76
456.02	370.59
456.38	366.93
456.75	362.41
457.12	358.61
457.49	354.88
457.86	351.17
458.23	348.02
458.59	344.67
458.96	341.30
459.33	338.24
459.70	335.07
460.07	332.59
460.43	329.84
460.80	327.19
461.17	324.97
461.54	322.60
461.91	320.41
462.27	318.11
462.64	316.07
463.01	314.01
463.38	311.99
463.74	309.86
464.11	307.88
464.48	306.33
464.85	304.66
465.21	303.36
465.58	302.06
465.95	300.43
466.32	299.02
466.68	297.57
467.05	296.20
467.42	294.89
467.78	293.60
468.15	292.20
468.52	291.24
468.88	289.80
469.25	288.48
469.62	287.44
469.98	286.48
470.35	285.63
470.72	284.74
471.08	283.70
471.45	282.85
471.82	282.18
472.18	281.26
472.55	280.59
472.92	279.91
473.28	279.25
473.65	278.64
474.02	278.11
474.38	277.76
474.75	277.38
475.11	277.04
475.48	276.81
475.85	276.60
476.21	276.42
476.58	276.43
476.94	276.53
477.31	276.54
477.67	276.37
478.04	276.40
478.41	276.47
478.77	276.86
479.14	277.00
479.50	277.24
479.87	277.69
480.23	278.14
480.60	278.41
480.96	278.81
481.33	279.45
481.69	280.15
482.06	280.71
482.42	281.40
482.79	282.10
483.15	282.95
483.52	283.94
483.88	284.90
484.25	285.86
484.61	286.80
484.98	287.86
485.34	289.24
485.71	290.58
486.07	291.99
486.44	293.29
486.80	294.80
487.17	296.41
487.53	298.11
487.90	299.93
488.26	301.88
488.62	303.86
488.99	305.89
489.35	307.95
489.72	310.25
490.08	312.58
490.44	315.05
490.81	317.70
491.17	320.35
491.54	323.22
491.90	326.17
492.26	329.50
492.63	332.78
492.99	336.18
493.36	339.73
493.72	343.56
494.08	347.61
494.45	351.95
494.81	356.45
495.17	361.05
495.54	365.90
495.90	371.04
496.26	376.47
496.63	381.87
496.99	387.70
497.35	393.56
497.72	399.84
498.08	406.27
498.44	412.94
498.80	420.08
499.17	427.41
499.53	435.05
499.89	442.93
500.26	451.12
500.62	459.35
500.98	468.11
501.34	477.25
501.71	486.61
502.07	496.16
502.43	506.05
502.79	516.15
503.16	526.83
503.52	537.59
503.88	548.51
504.24	560.01
504.60	571.81
504.97	584.10
505.33	596.51
505.69	609.89
506.05	623.26
506.41	636.83
506.78	650.54
507.14	664.65
507.50	679.18
507.86	694.09
508.22	709.48
508.59	724.93
508.95	740.91
509.31	757.00
509.67	773.61
510.03	790.46
510.39	808.04
510.75	825.70
511.12	843.46
511.48	861.75
511.84	880.46
512.20	899.08
512.56	918.15
512.92	937.75
513.28	957.09
513.64	976.57
514.00	996.26
514.37	1016.27
514.73	1036.74
515.09	1057.12
515.45	1077.92
515.81	1098.86
516.17	1119.94
516.53	1140.74
516.89	1162.09
517.25	1183.43
517.61	1204.94
517.97	1226.00
518.33	1247.11
518.69	1268.68
519.05	1290.73
519.41	1312.62
519.77	1335.13
520.13	1356.90
520.49	1378.65
520.85	1401.13
521.21	1423.67
521.57	1446.41
521.93	1468.39
522.29	1491.22
522.65	1513.60
523.01	1535.84
523.37	1557.68
523.73	1579.85
524.09	1601.95
524.45	1624.08
524.81	1646.36
525.17	1668.53
525.53	1690.79
525.89	1713.05
526.25	1734.97
526.61	1755.92
526.97	1777.30
527.33	1797.81
527.68	1819.26
528.04	1840.18
528.40	1860.28
528.76	1880.63
529.12	1901.15
529.48	1922.48
529.84	1942.33
530.20	1962.34
530.56	1982.47
530.91	2003.09
531.27	2023.30
531.63	2043.36
531.99	2062.99
532.35	2081.80
532.71	2100.78
533.07	2119.93
533.42	2138.14
533.78	2156.73
534.14	2175.20
534.50	2192.20
534.86	2210.12
535.21	2226.56
535.57	2243.93
535.93	2260.69
536.29	2277.35
536.65	2293.75
537.00	2309.16
537.36	2324.17
537.72	2339.46
538.08	2354.18
538.44	2369.04
538.79	2384.04
539.15	2398.25
539.51	2412.53
539.87	2427.47
540.22	2441.47
540.58	2455.83
540.94	2469.82
541.29	2482.77
541.65	2494.57
542.01	2507.52
542.37	2519.07
542.72	2531.25
543.08	2542.28
543.44	2553.87
543.79	2563.67
544.15	2573.55
544.51	2584.25
544.87	2595.12
545.22	2603.74
545.58	2612.37
545.94	2619.26
546.29	2625.52
546.65	2631.82
547.01	2637.92
547.36	2643.11
547.72	2648.20
548.07	2652.43
548.43	2655.83
548.79	2659.07
549.14	2663.60
549.50	2667.92
549.86	2671.83
550.21	2675.66
550.57	2679.35
550.92	2681.83
551.28	2684.45
551.64	2686.36
551.99	2688.30
552.35	2689.92
552.70	2692.94
553.06	2695.23
553.41	2698.03
553.77	2700.54
554.13	2702.42
554.48	2704.36
554.84	2705.82
555.19	2706.55
555.55	2706.78
555.90	2707.65
556.26	2708.28
556.61	2708.11
556.97	2706.26
557.32	2705.64
557.68	2703.75
558.03	2701.88
558.39	2700.17
558.74	2699.74
559.10	2698.58
559.45	2696.53
559.81	2694.97
560.16	2692.19
560.52	2689.86
560.87	2687.23
561.23	2683.56
561.58	2681.54
561.94	2677.85
562.29	2673.97
562.64	2671.53
563.00	2669.21
563.35	2666.80
563.71	2664.71
564.06	2662.28
564.42	2660.50
564.77	2658.01
565.12	2655.88
565.48	2652.94
565.83	2649.61
566.19	2645.91
566.54	2642.02
566.89	2638.43
567.25	2634.42
567.60	2631.07
567.96	2627.22
568.31	2623.46
568.66	2619.70
569.02	2614.92
569.37	2610.11
569.72	2606.58
570.08	2601.20
570.43	2595.14
570.78	2589.44
571.14	2582.99
571.49	2576.15
571.84	2570.18
572.20	2563.26
572.55	2556.84
572.90	2550.00
573.26	2543.23
573.61	2536.14
573.96	2529.47
574.31	2521.52
574.67	2513.59
575.02	2504.89
575.37	2496.30
575.72	2487.26
576.08	2479.71
576.43	2471.19
576.78	2463.32
577.13	2454.94
577.49	2447.02
577.84	2439.60
578.19	2431.86
578.54	2424.68
578.90	2418.00
579.25	2409.11
579.60	2400.35
579.95	2391.39
580.30	2383.22
580.66	2375.69
581.01	2367.00
581.36	2358.00
581.71	2349.78
582.06	2341.31
582.42	2333.35
582.77	2324.51
583.12	2315.82
583.47	2307.08
583.82	2298.52
584.17	2289.41
584.53	2280.46
584.88	2271.66
585.23	2262.57
585.58	2253.23
585.93	2243.59
586.28	2234.33
586.63	2225.96
586.98	2217.85
587.34	2209.37
587.69	2200.76
588.04	2191.53
588.39	2183.22
588.74	2174.15
589.09	2165.60
589.44	2156.35
589.79	2148.07
590.14	2140.43
590.49	2132.12
590.84	2123.49
591.19	2115.78
591.54	2107.26
591.89	2097.45
592.25	2088.40
592.60	2079.22
592.95	2069.98
593.30	2060.94
593.65	2051.60
594.00	2041.79
594.35	2033.42
594.70	2024.49
595.05	2015.97
595.40	2007.07
595.75	1997.72
596.10	1989.89
596.45	1981.36
596.80	1973.72
597.15	1965.35
597.50	1956.29
597.85	1947.83
598.19	1939.21
598.54	1930.67
598.89	1923.15
599.24	1916.84
599.59	1909.51
599.94	1902.49
600.29	1895.26
600.64	1887.48
600.99	1879.28
601.34	1872.61
601.69	1864.18
602.04	1856.10
602.39	1848.09
602.74	1840.75
603.08	1834.24
603.43	1827.11
603.78	1819.26
604.13	1811.09
604.48	1803.17
604.83	1796.07
605.18	1789.55
605.53	1781.99
605.87	1774.55
606.22	1767.19
606.57	1759.11
606.92	1751.14
607.27	1743.24
607.62	1736.05
607.96	1729.25
608.31	1723.21
608.66	1715.53
609.01	1708.08
609.36	1700.71
609.70	1692.53
610.05	1684.89
610.40	1676.71
610.75	1668.08
611.10	1660.77
611.44	1652.10
611.79	1643.13
612.14	1634.25
612.49	1624.64
612.83	1616.24
613.18	1606.43
613.53	1597.35
613.88	1587.63
614.22	1578.89
614.57	1569.71
614.92	1560.22
615.27	1551.16
615.61	1541.46
615.96	1532.30
616.31	1523.75
616.65	1515.72
617.00	1507.95
617.35	1499.04
617.70	1490.33
618.04	1481.51
618.39	1472.23
618.74	1464.10
619.08	1455.77
619.43	1447.61
619.78	1440.10
620.12	1432.10
620.47	1424.70
620.82	1415.96
621.16	1408.10
621.51	1399.74
621.85	1391.70
622.20	1383.47
622.55	1374.97
622.89	1366.83
623.24	1359.50
623.59	1351.04
623.93	1342.59
624.28	1334.10
624.62	1326.38
624.97	1318.42
625.32	1310.75
625.66	1303.63
626.01	1296.33
626.35	1289.32
626.70	1281.58
627.04	1273.95
627.39	1266.48
627.73	1258.97
628.08	1252.50
628.43	1245.30
628.77	1238.19
629.12	1230.66
629.46	1223.89
629.81	1216.92
630.15	1209.76
630.50	1202.09
630.84	1195.00
631.19	1187.91
631.53	1181.33
631.88	1173.80
632.22	1166.14
632.57	1159.32
632.91	1151.74
633.26	1144.18
633.60	1136.90
633.95	1130.48
634.29	1123.34
634.64	1116.41
634.98	1109.47
635.32	1102.50
635.67	1096.14
636.01	1089.26
636.36	1082.69
636.70	1076.13
637.05	1069.54
637.39	1063.07
637.73	1056.84
638.08	1051.17
638.42	1045.37
638.77	1038.87
639.11	1032.82
639.45	1027.20
639.80	1020.80
640.14	1014.44
640.49	1008.58
640.83	1002.61
641.17	995.98
641.52	990.13
641.86	983.65
642.20	977.54
642.55	970.86
642.89	964.44
643.23	958.45
643.58	952.61
643.92	946.24
644.26	940.13
644.61	934.44
644.95	928.47
645.29	922.10
645.64	915.54
645.98	909.48
646.32	903.72
646.66	897.60
647.01	891.74
647.35	886.08
647.69	879.76
648.04	873.88
648.38	868.14
648.72	862.07
649.06	856.25
649.41	850.40
649.75	844.70
650.09	839.00
650.43	833.26
650.78	827.09
651.12	821.29
651.46	815.53
651.80	809.47
652.14	803.57
652.49	797.75
652.83	792.12
653.17	786.00
653.51	780.06
653.85	774.53
654.20	768.68
654.54	763.02
654.88	757.86
655.22	752.07
655.56	746.42
655.90	740.56
656.25	734.98
656.59	729.54
656.93	724.34
657.27	718.98
657.61	713.32
657.95	708.34
658.29	703.24
658.64	698.35
658.98	693.15
659.32	687.91
659.66	682.89
660.00	677.75
660.34	672.81
660.68	667.65
661.02	662.42
661.36	657.81
661.70	652.87
662.05	647.99
662.39	643.56
662.73	639.08
663.07	634.90
663.41	630.42
663.75	625.92
664.09	621.34
664.43	616.88
664.77	612.73
665.11	608.35
665.45	604.06
665.79	599.59
666.13	595.41
666.47	591.24
666.81	587.09
667.15	583.12
667.49	579.27
667.83	575.57
668.17	571.82
668.51	568.04
668.85	564.50
669.19	560.98
669.53	557.13
669.87	553.23
670.21	549.39
670.55	545.72
670.89	542.22
671.23	538.79
671.57	535.32
671.91	531.72
672.25	528.17
672.58	524.61
672.92	521.21
673.26	518.02
673.60	514.85
673.94	511.45
674.28	508.13
674.62	505.04
674.96	501.85
675.30	498.74
675.64	495.63
675.97	492.40
676.31	489.29
676.65	486.32
676.99	483.64
677.33	480.84
677.67	477.93
678.01	474.93
678.34	472.02
678.68	469.20
679.02	466.49
679.36	463.57
679.70	460.89
680.04	458.06
680.37	455.05
680.71	452.33
681.05	449.77
681.39	447.08
681.73	444.35
682.06	441.85
682.40	439.41
682.74	436.86
683.08	434.57
683.42	432.05
683.75	429.67
684.09	427.11
684.43	424.75
684.77	422.30
685.10	419.82
685.44	417.38
685.78	414.91
686.12	412.54
686.45	410.41
686.79	408.11
687.13	405.88
687.46	403.80
687.80	401.61
688.14	399.22
688.48	397.20
688.81	395.03
689.15	392.72
689.49	390.46
689.82	388.22
690.16	385.87
690.50	383.59
690.83	381.30
691.17	379.12
691.51	376.79
691.84	374.81
692.18	372.85
692.52	370.87
692.85	369.05
693.19	367.14
693.52	365.20
693.86	363.20
694.20	361.39
694.53	359.58
694.87	357.69
695.21	355.99
695.54	353.93
695.88	352.02
696.21	350.29
696.55	348.57
696.88	346.85
697.22	345.08
697.56	343.47
697.89	341.90
698.23	340.27
698.56	338.82
698.90	337.32
699.23	335.64
699.57	334.10
699.90	332.43
700.24	330.83
700.58	329.24
700.91	327.79
701.25	326.38
701.58	324.93
701.92	323.35
702.25	321.94
702.59	320.68
702.92	319.48
703.26	318.10
703.59	316.75
703.93	315.57
704.26	314.32
704.60	313.12
704.93	311.80
705.26	310.60
705.60	309.30
705.93	307.97
706.27	306.91
706.60	305.82
706.94	304.78
707.27	303.60
707.61	302.51
707.94	301.36
708.27	300.12
708.61	299.00
708.94	298.02
709.28	296.84
709.61	295.74
709.94	294.59
710.28	293.49
710.61	292.42
710.95	291.18
711.28	290.26
711.61	289.15
711.95	288.20
712.28	287.17
712.61	286.13
712.95	285.20
713.28	284.26
713.61	283.26
713.95	282.30
714.28	281.47
714.61	280.52
714.95	279.71
715.28	278.77
715.61	277.77
715.95	276.87
716.28	276.05
716.61	275.22
716.95	274.40
717.28	273.57
717.61	272.77
717.94	272.10
718.28	271.34
718.61	270.60
718.94	269.91
719.27	269.12
719.61	268.43
719.94	267.68
720.27	266.81
720.60	266.03
720.94	265.36
721.27	264.70
721.60	264.10
721.93	263.46
722.27	262.91
722.60	262.45
722.93	261.77
723.26	261.19
723.59	260.57
723.93	259.99
724.26	259.42
724.59	258.80
724.92	258.20
725.25	257.61
725.59	257.15
725.92	256.59
726.25	256.20
726.58	255.74
726.91	255.24
727.24	254.82
727.57	254.40
727.91	253.83
728.24	253.32
728.57	252.80
728.90	252.43
729.23	251.92
729.56	251.38
729.89	251.01
730.22	250.60
730.55	250.19
730.89	249.79
731.22	249.30
731.55	248.86
731.88	248.47
732.21	248.03
732.54	247.50
732.87	247.04
733.20	246.57
733.53	246.14
733.86	245.74
734.19	245.25
734.52	244.85
734.85	244.62
735.18	244.22
735.51	243.94
735.84	243.43
736.17	243.11
736.50	242.78
736.83	242.59
737.16	242.20
737.49	241.90
737.82	241.52
738.15	241.32
738.48	241.02
738.81	240.63
739.14	240.32
739.47	240.00
739.80	239.68
740.13	239.30
740.46	238.90
740.79	238.59
741.12	238.35
741.45	238.12
741.78	237.70
742.11	237.40
742.44	236.94
742.77	236.73
743.10	236.40
743.43	236.08
743.75	235.70
744.08	235.62
744.41	235.27
744.74	234.99
745.07	234.60
745.40	234.38
745.73	234.20
746.06	233.81
746.39	233.57
746.71	233.30
747.04	233.16
747.37	232.97
747.70	232.74
748.03	232.53
748.36	232.22
748.68	231.97
749.01	231.70
749.34	231.59
749.67	231.42
750.00	231.20
750.33	231.05
750.65	230.77
750.98	230.36
751.31	230.14
751.64	229.92
751.97	229.84
752.29	229.58
752.62	229.34
752.95	229.10
753.28	228.87
753.60	228.63
753.93	228.38
754.26	228.17
754.59	227.95
754.91	227.65
755.24	227.47
755.57	227.22
755.90	227.03
756.22	226.80
756.55	226.52
756.88	226.27
757.20	225.98
757.53	225.69
757.86	225.51
758.19	225.38
758.51	225.20
758.84	224.92
759.17	224.74
759.49	224.48
759.82	224.46
760.15	224.39
760.47	224.25
760.80	224.05
761.13	223.87
761.45	223.70
761.78	223.63
762.11	223.50
762.43	223.46
762.76	223.38
763.08	223.15
763.41	223.04
763.74	223.01
764.06	222.84
764.39	222.76
764.71	222.60
765.04	222.42
765.37	222.25
765.69	222.22
766.02	222.06
766.34	221.98
766.67	221.76
767.00	221.63
767.32	221.61
767.65	221.59
767.97	221.46
768.30	221.34
768.62	221.23
768.95	221.08
769.27	220.90
769.60	220.76
769.92	220.67
770.25	220.49
770.57	220.24
770.90	220.12
771.22	220.00
771.55	219.84
771.87	219.72
772.20	219.64
772.52	219.56
772.85	219.69
773.17	219.55
773.50	219.48
773.82	219.27
774.15	219.02
774.47	218.85
774.80	218.81
775.12	218.73
775.45	218.53
775.77	218.47
776.09	218.37
776.42	218.26
776.74	218.22
777.07	218.15
777.39	218.10
777.72	218.01
778.04	217.98
778.36	217.90
778.69	217.81
779.01	217.68
779.33	217.45
779.66	217.10
779.98	217.00
780.31	216.90
780.63	216.90
780.95	216.85
781.28	216.71
781.60	216.54
781.92	216.46
782.25	216.44
782.57	216.30
782.89	216.22
783.22	216.13
783.54	216.15
783.86	216.08
784.19	216.04
784.51	216.08
784.83	215.92
785.16	215.86
785.48	215.86
785.80	215.83
786.12	215.77
786.45	215.77
