SpectraSuite Data File
++++++++++++++++++++++++++++++++++++
Date: Mon Feb 25 17:34:19 EST 2013
User: group
Dark Spectrum Present: No
Reference Spectrum Present: No
Number of Sampled Component Spectra: 1
Spectrometers: USB2E7196
Integration Time (usec): 52000 (USB2E7196)
Spectra Averaged: 20 (USB2E7196)
Boxcar Smoothing: 10 (USB2E7196)
Correct for Electrical Dark: No (USB2E7196)
Strobe/Lamp Enabled: No (USB2E7196)
Correct for Detector Non-linearity: No (USB2E7196)
Correct for Stray Light: No (USB2E7196)
Number of Pixels in Processed Spectrum: 2048
>>>>>Begin Processed Spectral Data<<<<<
339.09	0.00
339.48	197.55
339.86	199.45
340.24	201.65
340.63	202.85
341.01	206.75
341.39	206.10
341.78	207.20
342.16	207.60
342.54	208.05
342.93	197.96
343.31	207.93
343.69	208.56
344.07	209.10
344.46	209.52
344.84	209.95
345.22	210.18
345.60	210.41
345.99	210.57
346.37	210.71
346.75	210.85
347.13	210.94
347.52	210.95
347.90	211.06
348.28	211.10
348.66	211.17
349.05	211.17
349.43	211.20
349.81	211.25
350.19	211.32
350.57	211.37
350.96	211.39
351.34	211.56
351.72	211.60
352.10	211.60
352.48	211.71
352.87	211.79
353.25	211.79
353.63	211.87
354.01	212.02
354.39	212.05
354.77	212.14
355.15	212.27
355.54	212.28
355.92	212.29
356.30	212.35
356.68	212.55
357.06	212.67
357.44	212.68
357.82	212.76
358.20	212.87
358.58	212.98
358.97	213.12
359.35	213.20
359.73	213.27
360.11	213.37
360.49	213.39
360.87	213.38
361.25	213.48
361.63	213.62
362.01	213.63
362.39	213.75
362.77	213.79
363.15	213.78
363.53	213.89
363.91	213.93
364.29	213.92
364.67	213.82
365.05	213.80
365.43	213.89
365.81	213.91
366.19	214.02
366.57	214.10
366.95	214.07
367.33	214.05
367.71	214.10
368.09	214.19
368.47	214.23
368.85	214.26
369.23	214.30
369.61	214.17
369.99	214.25
370.37	214.29
370.75	214.34
371.13	214.26
371.51	214.18
371.89	214.21
372.27	214.22
372.65	214.25
373.03	214.26
373.41	214.18
373.78	214.17
374.16	213.97
374.54	213.87
374.92	213.80
375.30	213.78
375.68	213.71
376.06	213.69
376.44	213.61
376.82	213.56
377.19	213.46
377.57	213.41
377.95	213.24
378.33	213.12
378.71	212.99
379.09	213.06
379.47	213.08
379.84	212.88
380.22	212.83
380.60	212.65
380.98	212.57
381.36	212.49
381.73	212.41
382.11	212.37
382.49	212.28
382.87	212.21
383.25	212.14
383.62	212.33
384.00	212.18
384.38	212.18
384.76	212.14
385.13	212.25
385.51	212.24
385.89	212.23
386.27	212.18
386.64	212.21
387.02	212.19
387.40	212.15
387.78	212.19
388.15	212.16
388.53	212.10
388.91	212.10
389.29	212.06
389.66	212.07
390.04	212.04
390.42	212.06
390.79	212.08
391.17	212.01
391.55	211.75
391.92	211.73
392.30	211.68
392.68	211.71
393.05	211.65
393.43	211.63
393.81	211.62
394.18	211.67
394.56	211.62
394.94	211.59
395.31	211.56
395.69	211.65
396.06	211.64
396.44	211.67
396.82	211.70
397.19	211.77
397.57	211.78
397.95	211.86
398.32	211.80
398.70	211.81
399.07	211.97
399.45	212.02
399.82	212.06
400.20	212.13
400.58	212.09
400.95	212.09
401.33	212.17
401.70	212.31
402.08	212.35
402.45	212.42
402.83	212.50
403.20	212.56
403.58	212.58
403.95	212.74
404.33	212.88
404.71	213.02
405.08	213.23
405.46	213.34
405.83	213.44
406.21	213.57
406.58	213.73
406.96	213.80
407.33	214.00
407.70	214.24
408.08	214.56
408.45	214.81
408.83	215.05
409.20	215.25
409.58	215.43
409.95	215.70
410.33	216.03
410.70	216.30
411.08	216.68
411.45	217.10
411.82	217.30
412.20	217.76
412.57	218.23
412.95	218.57
413.32	219.08
413.69	219.65
414.07	220.35
414.44	221.00
414.82	221.64
415.19	222.33
415.56	223.08
415.94	223.73
416.31	224.55
416.68	225.48
417.06	226.51
417.43	227.44
417.81	228.55
418.18	229.67
418.55	230.86
418.93	232.11
419.30	233.44
419.67	235.03
420.04	236.47
420.42	237.95
420.79	239.75
421.16	241.45
421.54	243.33
421.91	245.17
422.28	247.11
422.66	249.19
423.03	251.26
423.40	253.40
423.77	255.69
424.15	257.90
424.52	260.17
424.89	262.77
425.26	265.30
425.64	267.74
426.01	270.24
426.38	272.95
426.75	275.66
427.13	278.47
427.50	281.37
427.87	284.42
428.24	287.59
428.61	290.53
428.99	293.82
429.36	297.27
429.73	300.73
430.10	304.22
430.47	307.75
430.85	311.46
431.22	315.38
431.59	319.50
431.96	323.64
432.33	328.08
432.70	332.29
433.08	337.31
433.45	341.88
433.82	346.49
434.19	351.70
434.56	356.85
434.93	361.57
435.30	366.40
435.68	371.52
436.05	376.65
436.42	381.82
436.79	386.49
437.16	391.58
437.53	396.91
437.90	402.10
438.27	407.26
438.64	412.55
439.01	417.46
439.38	421.85
439.75	426.09
440.13	430.95
440.50	435.56
440.87	439.16
441.24	443.09
441.61	447.30
441.98	450.33
442.35	453.84
442.72	457.55
443.09	461.01
443.46	463.27
443.83	464.70
444.20	465.90
444.57	467.76
444.94	468.43
445.31	469.18
445.68	470.09
446.05	470.31
446.42	469.68
446.79	468.86
447.16	468.05
447.53	467.25
447.90	465.08
448.27	462.93
448.64	459.96
449.01	457.74
449.37	454.28
449.74	450.76
450.11	446.67
450.48	442.14
450.85	437.57
451.22	433.54
451.59	429.71
451.96	426.07
452.33	421.27
452.70	416.95
453.07	411.81
453.43	406.40
453.80	401.37
454.17	396.62
454.54	392.15
454.91	387.33
455.28	382.61
455.65	378.15
456.02	373.72
456.38	370.01
456.75	365.37
457.12	361.44
457.49	357.53
457.86	353.59
458.23	350.40
458.59	346.85
458.96	343.33
459.33	340.11
459.70	336.85
460.07	334.38
460.43	331.55
460.80	328.79
461.17	326.49
461.54	324.11
461.91	321.69
462.27	319.27
462.64	317.20
463.01	315.03
463.38	312.94
463.74	310.70
464.11	308.83
464.48	307.24
464.85	305.44
465.21	304.08
465.58	302.86
465.95	301.06
466.32	299.67
466.68	298.19
467.05	296.89
467.42	295.60
467.78	293.96
468.15	292.53
468.52	291.60
468.88	290.24
469.25	288.96
469.62	288.04
469.98	287.11
470.35	286.18
470.72	285.34
471.08	284.36
471.45	283.60
471.82	282.82
472.18	281.88
472.55	281.32
472.92	280.59
473.28	279.85
473.65	279.33
474.02	278.79
474.38	278.46
474.75	278.06
475.11	277.59
475.48	277.43
475.85	277.23
476.21	276.96
476.58	276.87
476.94	276.91
477.31	276.83
477.67	276.69
478.04	276.70
478.41	276.80
478.77	277.11
479.14	277.25
479.50	277.49
479.87	277.89
480.23	278.27
480.60	278.76
480.96	279.26
481.33	279.93
481.69	280.53
482.06	281.09
482.42	281.64
482.79	282.41
483.15	283.28
483.52	284.41
483.88	285.39
484.25	286.35
484.61	287.40
484.98	288.54
485.34	289.87
485.71	291.22
486.07	292.54
486.44	293.88
486.80	295.45
487.17	297.12
487.53	298.80
487.90	300.66
488.26	302.50
488.62	304.60
488.99	306.58
489.35	308.69
489.72	311.10
490.08	313.67
490.44	316.23
490.81	318.90
491.17	321.41
491.54	324.41
491.90	327.43
492.26	330.60
492.63	333.95
492.99	337.34
493.36	341.07
493.72	344.98
494.08	348.93
494.45	353.18
494.81	357.65
495.17	362.32
495.54	367.21
495.90	372.34
496.26	377.45
496.63	383.07
496.99	388.83
497.35	394.78
497.72	401.01
498.08	407.44
498.44	414.20
498.80	421.55
499.17	428.81
499.53	436.43
499.89	444.52
500.26	452.60
500.62	460.99
500.98	469.75
501.34	478.90
501.71	488.45
502.07	498.22
502.43	508.14
502.79	518.45
503.16	529.10
503.52	540.05
503.88	551.33
504.24	562.77
504.60	574.61
504.97	586.91
505.33	599.53
505.69	613.02
506.05	626.58
506.41	640.02
506.78	653.84
507.14	668.30
507.50	682.82
507.86	697.83
508.22	713.31
508.59	728.92
508.95	744.94
509.31	761.28
509.67	778.03
510.03	795.10
510.39	812.65
510.75	830.46
511.12	848.56
511.48	866.98
511.84	885.73
512.20	904.59
512.56	923.94
512.92	943.50
513.28	962.82
513.64	982.64
514.00	1002.60
514.37	1023.31
514.73	1043.89
515.09	1064.85
515.45	1085.99
515.81	1106.90
516.17	1128.27
516.53	1149.53
516.89	1171.14
517.25	1192.66
517.61	1214.66
517.97	1236.24
518.33	1257.71
518.69	1279.48
519.05	1301.77
519.41	1323.91
519.77	1346.59
520.13	1368.74
520.49	1390.73
520.85	1413.35
521.21	1435.63
521.57	1458.97
521.93	1480.94
522.29	1503.92
522.65	1526.53
523.01	1548.93
523.37	1571.45
523.73	1594.12
524.09	1616.51
524.45	1638.72
524.81	1661.35
525.17	1683.63
525.53	1706.10
525.89	1728.62
526.25	1750.72
526.61	1771.99
526.97	1793.77
527.33	1815.08
527.68	1836.75
528.04	1858.07
528.40	1878.80
528.76	1899.84
529.12	1920.37
529.48	1942.28
529.84	1962.73
530.20	1983.15
530.56	2003.83
530.91	2024.69
531.27	2044.89
531.63	2064.82
531.99	2084.97
532.35	2104.24
532.71	2123.43
533.07	2142.88
533.42	2161.61
533.78	2180.65
534.14	2199.18
534.50	2216.95
534.86	2235.36
535.21	2252.34
535.57	2270.25
535.93	2287.67
536.29	2304.64
536.65	2321.38
537.00	2336.85
537.36	2352.40
537.72	2367.65
538.08	2382.99
538.44	2398.42
538.79	2414.07
539.15	2429.43
539.51	2444.02
539.87	2459.62
540.22	2473.99
540.58	2489.27
540.94	2503.86
541.29	2517.03
541.65	2529.74
542.01	2543.12
542.37	2554.90
542.72	2567.34
543.08	2578.36
543.44	2590.50
543.79	2600.62
544.15	2611.00
544.51	2621.96
544.87	2632.89
545.22	2642.36
545.58	2650.78
545.94	2657.83
546.29	2664.31
546.65	2670.61
547.01	2676.99
547.36	2682.63
547.72	2688.42
548.07	2692.32
548.43	2696.00
548.79	2699.62
549.14	2704.51
549.50	2708.42
549.86	2712.76
550.21	2716.81
550.57	2721.36
550.92	2723.98
551.28	2726.97
551.64	2729.61
551.99	2732.40
552.35	2734.60
552.70	2737.48
553.06	2740.74
553.41	2744.17
553.77	2746.89
554.13	2749.33
554.48	2751.51
554.84	2753.01
555.19	2753.81
555.55	2754.63
555.90	2755.52
556.26	2756.53
556.61	2756.33
556.97	2755.41
557.32	2754.86
557.68	2752.96
558.03	2751.48
558.39	2750.08
558.74	2749.84
559.10	2748.56
559.45	2746.57
559.81	2744.76
560.16	2742.19
560.52	2739.50
560.87	2736.61
561.23	2733.51
561.58	2731.26
561.94	2728.10
562.29	2724.54
562.64	2722.55
563.00	2720.10
563.35	2717.77
563.71	2716.14
564.06	2714.38
564.42	2712.54
564.77	2710.33
565.12	2708.76
565.48	2705.56
565.83	2702.46
566.19	2699.10
566.54	2694.92
566.89	2691.15
567.25	2687.66
567.60	2684.41
567.96	2681.17
568.31	2677.88
568.66	2673.92
569.02	2669.45
569.37	2664.49
569.72	2660.52
570.08	2654.98
570.43	2649.57
570.78	2644.06
571.14	2637.50
571.49	2630.46
571.84	2624.49
572.20	2617.52
572.55	2610.72
572.90	2603.80
573.26	2596.78
573.61	2589.71
573.96	2583.45
574.31	2575.54
574.67	2567.29
575.02	2558.48
575.37	2549.96
575.72	2540.76
576.08	2532.99
576.43	2524.06
576.78	2516.16
577.13	2508.00
577.49	2499.89
577.84	2491.81
578.19	2483.99
578.54	2476.51
578.90	2469.55
579.25	2460.74
579.60	2451.32
579.95	2442.19
580.30	2434.09
580.66	2425.94
581.01	2416.91
581.36	2407.54
581.71	2399.20
582.06	2390.77
582.42	2383.18
582.77	2373.65
583.12	2364.45
583.47	2355.80
583.82	2347.46
584.17	2338.07
584.53	2328.74
584.88	2319.64
585.23	2310.29
585.58	2300.49
585.93	2290.74
586.28	2281.72
586.63	2272.80
586.98	2264.94
587.34	2256.69
587.69	2247.82
588.04	2238.45
588.39	2229.88
588.74	2220.94
589.09	2212.10
589.44	2202.27
589.79	2192.91
590.14	2184.96
590.49	2176.93
590.84	2167.61
591.19	2159.40
591.54	2150.37
591.89	2140.43
592.25	2131.18
592.60	2121.69
592.95	2112.24
593.30	2102.66
593.65	2092.19
594.00	2082.65
594.35	2074.26
594.70	2064.58
595.05	2055.45
595.40	2046.87
595.75	2037.25
596.10	2028.80
596.45	2020.17
596.80	2012.47
597.15	2004.56
597.50	1995.32
597.85	1986.74
598.19	1978.20
598.54	1969.54
598.89	1962.01
599.24	1955.16
599.59	1947.61
599.94	1940.58
600.29	1932.97
600.64	1925.04
600.99	1917.10
601.34	1909.80
601.69	1900.80
602.04	1893.03
602.39	1885.01
602.74	1876.79
603.08	1870.37
603.43	1863.02
603.78	1855.02
604.13	1847.04
604.48	1838.80
604.83	1831.78
605.18	1824.58
605.53	1816.70
605.87	1809.05
606.22	1801.78
606.57	1793.73
606.92	1785.70
607.27	1777.42
607.62	1770.14
607.96	1763.20
608.31	1756.99
608.66	1749.09
609.01	1741.47
609.36	1733.58
609.70	1725.73
610.05	1718.26
610.40	1709.64
610.75	1701.04
611.10	1693.10
611.44	1683.74
611.79	1674.54
612.14	1665.21
612.49	1655.54
612.83	1646.75
613.18	1636.61
613.53	1627.14
613.88	1617.39
614.22	1608.32
614.57	1598.97
614.92	1589.38
615.27	1580.02
615.61	1569.66
615.96	1560.61
616.31	1551.70
616.65	1543.63
617.00	1534.97
617.35	1526.22
617.70	1517.31
618.04	1508.22
618.39	1498.85
618.74	1490.54
619.08	1481.94
619.43	1473.66
619.78	1465.77
620.12	1457.73
620.47	1450.38
620.82	1441.80
621.16	1433.54
621.51	1425.18
621.85	1417.06
622.20	1408.69
622.55	1400.12
622.89	1392.14
623.24	1384.10
623.59	1375.57
623.93	1366.80
624.28	1358.61
624.62	1350.29
624.97	1342.20
625.32	1334.42
625.66	1326.99
626.01	1319.64
626.35	1312.30
626.70	1304.41
627.04	1296.80
627.39	1289.00
627.73	1281.41
628.08	1274.36
628.43	1266.95
628.77	1259.47
629.12	1251.77
629.46	1244.91
629.81	1237.70
630.15	1230.34
630.50	1222.83
630.84	1215.46
631.19	1208.45
631.53	1201.28
631.88	1193.43
632.22	1185.61
632.57	1178.50
632.91	1171.16
633.26	1163.76
633.60	1156.70
633.95	1149.86
634.29	1142.56
634.64	1135.85
634.98	1128.65
635.32	1121.46
635.67	1114.97
636.01	1108.39
636.36	1101.60
636.70	1094.96
637.05	1088.24
637.39	1081.81
637.73	1075.32
638.08	1069.83
638.42	1063.80
638.77	1057.39
639.11	1051.20
639.45	1045.35
639.80	1038.82
640.14	1032.18
640.49	1025.75
640.83	1019.32
641.17	1012.89
641.52	1006.64
641.86	1000.12
642.20	993.65
642.55	987.06
642.89	980.56
643.23	973.99
643.58	968.26
643.92	961.71
644.26	955.51
644.61	949.32
644.95	943.42
645.29	936.70
645.64	929.91
645.98	923.74
646.32	917.78
646.66	911.37
647.01	905.37
647.35	899.56
647.69	893.20
648.04	887.15
648.38	881.30
648.72	875.22
649.06	868.97
649.41	863.08
649.75	857.04
650.09	851.16
650.43	845.10
650.78	838.72
651.12	832.57
651.46	826.80
651.80	820.82
652.14	814.66
652.49	808.79
652.83	803.02
653.17	796.78
653.51	791.05
653.85	785.54
654.20	779.79
654.54	773.84
654.88	768.43
655.22	762.70
655.56	756.58
655.90	750.66
656.25	745.08
656.59	739.44
656.93	734.40
657.27	729.10
657.61	723.82
657.95	718.76
658.29	713.67
658.64	708.37
658.98	703.13
659.32	697.69
659.66	692.49
660.00	687.30
660.34	682.20
660.68	676.91
661.02	671.65
661.36	666.67
661.70	661.84
662.05	656.74
662.39	652.18
662.73	647.90
663.07	643.68
663.41	639.42
663.75	634.90
664.09	630.03
664.43	625.30
664.77	620.86
665.11	616.27
665.45	611.87
665.79	607.46
666.13	603.07
666.47	598.92
666.81	594.72
667.15	590.45
667.49	586.66
667.83	582.84
668.17	578.99
668.51	575.24
668.85	571.51
669.19	568.07
669.53	564.12
669.87	560.08
670.21	556.12
670.55	552.12
670.89	548.62
671.23	545.35
671.57	541.89
671.91	538.35
672.25	534.83
672.58	531.40
672.92	527.93
673.26	524.76
673.60	521.58
673.94	518.26
674.28	515.07
674.62	511.86
674.96	508.63
675.30	505.52
675.64	502.33
675.97	499.12
676.31	496.11
676.65	493.15
676.99	490.47
677.33	487.51
677.67	484.54
678.01	481.38
678.34	478.34
678.68	475.44
679.02	472.48
679.36	469.65
679.70	466.72
680.04	463.96
680.37	461.00
680.71	458.10
681.05	455.48
681.39	452.78
681.73	450.07
682.06	447.50
682.40	444.98
682.74	442.33
683.08	439.80
683.42	437.00
683.75	434.50
684.09	431.85
684.43	429.41
684.77	426.86
685.10	424.35
685.44	421.71
685.78	419.23
686.12	416.98
686.45	414.56
686.79	412.31
687.13	410.05
687.46	407.87
687.80	405.66
688.14	403.19
688.48	401.04
688.81	398.74
689.15	396.39
689.49	394.00
689.82	391.73
690.16	389.41
690.50	387.19
690.83	384.96
691.17	382.75
691.51	380.48
691.84	378.32
692.18	376.33
692.52	374.45
692.85	372.58
693.19	370.65
693.52	368.64
693.86	366.57
694.20	364.73
694.53	362.73
694.87	360.72
695.21	358.78
695.54	356.81
695.88	354.99
696.21	353.14
696.55	351.38
696.88	349.69
697.22	347.99
697.56	346.50
697.89	344.89
698.23	343.13
698.56	341.57
698.90	340.03
699.23	338.39
699.57	336.79
699.90	335.13
700.24	333.33
700.58	331.83
700.91	330.43
701.25	328.97
701.58	327.56
701.92	326.16
702.25	324.80
702.59	323.37
702.92	321.94
703.26	320.65
703.59	319.35
703.93	318.11
704.26	316.85
704.60	315.46
704.93	314.07
705.26	312.86
705.60	311.63
705.93	310.36
706.27	309.21
706.60	308.04
706.94	306.90
707.27	305.80
707.61	304.58
707.94	303.39
708.27	302.07
708.61	300.88
708.94	299.76
709.28	298.58
709.61	297.54
709.94	296.45
710.28	295.32
710.61	294.26
710.95	292.94
711.28	292.02
711.61	290.95
711.95	289.96
712.28	288.95
712.61	287.86
712.95	287.01
713.28	286.13
713.61	285.08
713.95	284.04
714.28	283.14
714.61	282.18
714.95	281.25
715.28	280.35
715.61	279.35
715.95	278.44
716.28	277.66
716.61	276.75
716.95	275.90
717.28	275.11
717.61	274.35
717.94	273.70
718.28	272.80
718.61	272.08
718.94	271.36
719.27	270.68
719.61	270.04
719.94	269.33
720.27	268.48
720.60	267.75
720.94	267.12
721.27	266.45
721.60	265.90
721.93	265.24
722.27	264.70
722.60	264.16
722.93	263.53
723.26	262.91
723.59	262.35
723.93	261.73
724.26	261.13
724.59	260.47
724.92	259.99
725.25	259.49
725.59	258.97
725.92	258.46
726.25	257.74
726.58	257.20
726.91	256.62
727.24	256.10
727.57	255.67
727.91	255.10
728.24	254.67
728.57	254.22
728.90	253.78
729.23	253.20
729.56	252.90
729.89	252.48
730.22	251.99
730.55	251.55
730.89	251.11
731.22	250.57
731.55	250.15
731.88	249.60
732.21	249.16
732.54	248.56
732.87	248.16
733.20	247.84
733.53	247.37
733.86	246.93
734.19	246.57
734.52	246.22
734.85	245.99
735.18	245.54
735.51	245.15
735.84	244.82
736.17	244.56
736.50	244.02
736.83	243.84
737.16	243.50
737.49	243.17
737.82	242.79
738.15	242.49
738.48	242.15
738.81	241.78
739.14	241.41
739.47	241.15
739.80	240.65
740.13	240.35
740.46	240.03
740.79	239.65
741.12	239.29
741.45	238.89
741.78	238.47
742.11	238.15
742.44	237.70
742.77	237.33
743.10	236.97
743.43	236.72
743.75	236.30
744.08	236.26
744.41	235.97
744.74	235.62
745.07	235.33
745.40	235.12
745.73	234.92
746.06	234.59
746.39	234.36
746.71	234.07
747.04	233.79
747.37	233.48
747.70	233.31
748.03	233.06
748.36	232.82
748.68	232.54
749.01	232.22
749.34	232.03
749.67	231.74
750.00	231.47
750.33	231.21
750.65	230.85
750.98	230.31
751.31	229.98
751.64	229.86
751.97	229.77
752.29	229.49
752.62	229.12
752.95	228.87
753.28	228.57
753.60	228.38
753.93	228.19
754.26	228.00
754.59	227.74
754.91	227.55
755.24	227.32
755.57	227.10
755.90	226.94
756.22	226.69
756.55	226.48
756.88	226.31
757.20	226.10
757.53	225.95
757.86	225.76
758.19	225.62
758.51	225.36
758.84	224.98
759.17	224.81
759.49	224.70
759.82	224.60
760.15	224.45
760.47	224.25
760.80	223.95
761.13	223.85
761.45	223.71
761.78	223.50
762.11	223.36
762.43	223.24
762.76	223.13
763.08	223.05
763.41	222.90
763.74	222.63
764.06	222.51
764.39	222.30
764.71	222.11
765.04	221.96
765.37	221.86
765.69	221.77
766.02	221.54
766.34	221.49
766.67	221.31
767.00	221.19
767.32	221.23
767.65	221.32
767.97	221.15
768.30	220.97
768.62	220.95
768.95	220.83
769.27	220.64
769.60	220.54
769.92	220.41
770.25	220.30
770.57	220.25
770.90	220.08
771.22	219.98
771.55	219.99
771.87	219.89
772.20	219.76
772.52	219.81
772.85	219.96
773.17	219.79
773.50	219.73
773.82	219.59
774.15	219.40
774.47	219.19
774.80	219.12
775.12	219.07
775.45	218.93
775.77	218.84
776.09	218.86
776.42	218.76
776.74	218.70
777.07	218.62
777.39	218.55
777.72	218.44
778.04	218.39
778.36	218.29
778.69	218.21
779.01	218.21
779.33	217.99
779.66	217.72
779.98	217.64
780.31	217.53
780.63	217.61
780.95	217.57
781.28	217.48
781.60	217.31
781.92	217.28
782.25	217.14
782.57	217.08
782.89	217.08
783.22	216.95
783.54	216.88
783.86	216.84
784.19	216.81
784.51	216.86
784.83	216.71
785.16	216.59
785.48	216.55
785.80	216.50
786.12	216.49
786.45	216.45
