SpectraSuite Data File
++++++++++++++++++++++++++++++++++++
Date: Mon Feb 25 17:34:42 EST 2013
User: group
Dark Spectrum Present: No
Reference Spectrum Present: No
Number of Sampled Component Spectra: 1
Spectrometers: USB2E7196
Integration Time (usec): 52000 (USB2E7196)
Spectra Averaged: 20 (USB2E7196)
Boxcar Smoothing: 10 (USB2E7196)
Correct for Electrical Dark: No (USB2E7196)
Strobe/Lamp Enabled: No (USB2E7196)
Correct for Detector Non-linearity: No (USB2E7196)
Correct for Stray Light: No (USB2E7196)
Number of Pixels in Processed Spectrum: 2048
>>>>>Begin Processed Spectral Data<<<<<
339.09	0.00
339.48	199.05
339.86	202.45
340.24	202.25
340.63	203.05
341.01	208.80
341.39	206.75
341.78	207.70
342.16	210.30
342.54	211.40
342.93	198.90
343.31	208.96
343.69	209.51
344.07	209.87
344.46	210.31
344.84	210.74
345.22	210.87
345.60	211.10
345.99	211.29
346.37	211.37
346.75	211.40
347.13	211.49
347.52	211.59
347.90	211.63
348.28	211.62
348.66	211.62
349.05	211.63
349.43	211.66
349.81	211.73
350.19	211.83
350.57	211.86
350.96	211.95
351.34	211.97
351.72	212.00
352.10	212.10
352.48	212.13
352.87	212.14
353.25	212.24
353.63	212.30
354.01	212.36
354.39	212.41
354.77	212.43
355.15	212.48
355.54	212.46
355.92	212.46
356.30	212.56
356.68	212.79
357.06	212.84
357.44	212.84
357.82	212.85
358.20	212.91
358.58	212.95
358.97	213.00
359.35	213.08
359.73	213.25
360.11	213.33
360.49	213.35
360.87	213.39
361.25	213.32
361.63	213.37
362.01	213.39
362.39	213.45
362.77	213.52
363.15	213.55
363.53	213.57
363.91	213.64
364.29	213.66
364.67	213.47
365.05	213.42
365.43	213.44
365.81	213.54
366.19	213.54
366.57	213.59
366.95	213.57
367.33	213.57
367.71	213.49
368.09	213.51
368.47	213.50
368.85	213.43
369.23	213.58
369.61	213.50
369.99	213.58
370.37	213.57
370.75	213.58
371.13	213.43
371.51	213.49
371.89	213.42
372.27	213.34
372.65	213.39
373.03	213.40
373.41	213.40
373.78	213.34
374.16	213.27
374.54	213.22
374.92	213.17
375.30	213.07
375.68	213.07
376.06	213.06
376.44	213.00
376.82	213.00
377.19	212.90
377.57	212.85
377.95	212.70
378.33	212.57
378.71	212.42
379.09	212.50
379.47	212.46
379.84	212.46
380.22	212.48
380.60	212.31
380.98	212.26
381.36	212.18
381.73	212.08
382.11	212.11
382.49	212.05
382.87	211.94
383.25	211.95
383.62	212.10
384.00	211.99
384.38	212.08
384.76	212.16
385.13	212.17
385.51	212.24
385.89	212.22
386.27	212.23
386.64	212.25
387.02	212.19
387.40	212.09
387.78	212.02
388.15	211.91
388.53	211.94
388.91	211.90
389.29	211.85
389.66	211.84
390.04	211.77
390.42	211.79
390.79	211.88
391.17	211.90
391.55	211.65
391.92	211.65
392.30	211.56
392.68	211.47
393.05	211.49
393.43	211.40
393.81	211.37
394.18	211.39
394.56	211.38
394.94	211.38
395.31	211.36
395.69	211.45
396.06	211.54
396.44	211.61
396.82	211.59
397.19	211.76
397.57	211.80
397.95	211.83
398.32	211.79
398.70	211.78
399.07	211.83
399.45	211.90
399.82	211.90
400.20	211.97
400.58	212.06
400.95	212.02
401.33	212.09
401.70	212.21
402.08	212.26
402.45	212.34
402.83	212.50
403.20	212.66
403.58	212.71
403.95	212.82
404.33	212.89
404.71	212.93
405.08	213.16
405.46	213.21
405.83	213.35
406.21	213.45
406.58	213.61
406.96	213.70
407.33	213.80
407.70	214.03
408.08	214.40
408.45	214.60
408.83	214.81
409.20	215.07
409.58	215.29
409.95	215.67
410.33	215.94
410.70	216.19
411.08	216.52
411.45	216.89
411.82	217.18
412.20	217.58
412.57	218.27
412.95	218.52
413.32	219.15
413.69	219.72
414.07	220.39
414.44	221.07
414.82	221.74
415.19	222.55
415.56	223.38
415.94	224.00
416.31	224.89
416.68	225.82
417.06	226.78
417.43	227.82
417.81	228.85
418.18	230.02
418.55	231.26
418.93	232.45
419.30	233.79
419.67	235.21
420.04	236.66
420.42	237.96
420.79	239.79
421.16	241.43
421.54	243.19
421.91	245.04
422.28	246.89
422.66	248.95
423.03	250.96
423.40	252.99
423.77	255.19
424.15	257.44
424.52	259.81
424.89	262.44
425.26	264.85
425.64	267.19
426.01	269.74
426.38	272.46
426.75	275.20
427.13	278.00
427.50	280.98
427.87	284.11
428.24	287.26
428.61	290.10
428.99	293.37
429.36	296.88
429.73	300.30
430.10	303.94
430.47	307.54
430.85	311.16
431.22	315.10
431.59	319.36
431.96	323.34
432.33	327.72
432.70	331.92
433.08	336.88
433.45	341.53
433.82	346.20
434.19	351.18
434.56	356.37
434.93	361.26
435.30	366.06
435.68	371.28
436.05	376.67
436.42	381.96
436.79	386.71
437.16	391.92
437.53	397.37
437.90	402.62
438.27	407.81
438.64	413.21
439.01	418.14
439.38	422.48
439.75	426.92
440.13	431.73
440.50	436.28
440.87	440.05
441.24	443.85
441.61	448.05
441.98	451.33
442.35	454.88
442.72	458.44
443.09	462.09
443.46	464.26
443.83	465.51
444.20	466.72
444.57	468.45
444.94	469.11
445.31	469.85
445.68	470.61
446.05	470.75
446.42	470.16
446.79	469.38
447.16	468.42
447.53	467.59
447.90	465.56
448.27	463.40
448.64	460.41
449.01	458.40
449.37	454.83
449.74	451.27
450.11	447.18
450.48	442.58
450.85	437.84
451.22	433.83
451.59	430.08
451.96	426.30
452.33	421.59
452.70	417.20
453.07	412.05
453.43	406.74
453.80	401.84
454.17	397.00
454.54	392.49
454.91	387.70
455.28	382.89
455.65	378.43
456.02	374.09
456.38	370.33
456.75	365.61
457.12	361.69
457.49	357.83
457.86	353.93
458.23	350.85
458.59	347.37
458.96	343.79
459.33	340.61
459.70	337.56
460.07	334.97
460.43	332.12
460.80	329.44
461.17	327.06
461.54	324.52
461.91	322.15
462.27	319.70
462.64	317.69
463.01	315.53
463.38	313.35
463.74	311.17
464.11	309.33
464.48	307.75
464.85	306.06
465.21	304.70
465.58	303.26
465.95	301.53
466.32	300.06
466.68	298.70
467.05	297.35
467.42	296.03
467.78	294.67
468.15	293.26
468.52	292.21
468.88	290.92
469.25	289.75
469.62	288.85
469.98	287.94
470.35	287.01
470.72	286.08
471.08	285.04
471.45	284.27
471.82	283.51
472.18	282.60
472.55	281.91
472.92	281.12
473.28	280.52
473.65	279.92
474.02	279.42
474.38	278.93
474.75	278.52
475.11	278.09
475.48	277.73
475.85	277.59
476.21	277.44
476.58	277.25
476.94	277.19
477.31	277.09
477.67	276.99
478.04	277.05
478.41	277.26
478.77	277.64
479.14	277.77
479.50	278.00
479.87	278.38
480.23	278.76
480.60	279.18
480.96	279.63
481.33	280.27
481.69	280.86
482.06	281.49
482.42	282.09
482.79	282.77
483.15	283.63
483.52	284.57
483.88	285.49
484.25	286.50
484.61	287.64
484.98	288.84
485.34	290.20
485.71	291.55
486.07	292.90
486.44	294.20
486.80	295.67
487.17	297.29
487.53	299.02
487.90	300.90
488.26	302.84
488.62	304.94
488.99	306.91
489.35	309.04
489.72	311.34
490.08	313.74
490.44	316.29
490.81	318.91
491.17	321.60
491.54	324.49
491.90	327.46
492.26	330.60
492.63	333.86
492.99	337.31
493.36	340.84
493.72	344.69
494.08	348.75
494.45	353.08
494.81	357.57
495.17	362.16
495.54	366.99
495.90	372.01
496.26	377.14
496.63	382.68
496.99	388.49
497.35	394.49
497.72	400.84
498.08	407.23
498.44	414.00
498.80	421.21
499.17	428.61
499.53	436.31
499.89	444.37
500.26	452.60
500.62	460.95
500.98	469.95
501.34	479.01
501.71	488.50
502.07	498.09
502.43	508.09
502.79	518.39
503.16	528.95
503.52	539.79
503.88	550.99
504.24	562.67
504.60	574.44
504.97	586.74
505.33	599.38
505.69	612.83
506.05	626.43
506.41	639.96
506.78	653.73
507.14	668.11
507.50	682.65
507.86	697.60
508.22	713.02
508.59	728.58
508.95	744.64
509.31	760.90
509.67	777.67
510.03	794.61
510.39	812.02
510.75	829.92
511.12	848.21
511.48	866.89
511.84	885.43
512.20	904.25
512.56	923.51
512.92	942.87
513.28	962.21
513.64	981.93
514.00	1002.06
514.37	1022.58
514.73	1043.40
515.09	1064.37
515.45	1085.25
515.81	1106.54
516.17	1127.94
516.53	1149.37
516.89	1171.04
517.25	1192.67
517.61	1214.47
517.97	1236.17
518.33	1257.85
518.69	1279.50
519.05	1301.54
519.41	1323.94
519.77	1346.66
520.13	1368.82
520.49	1391.12
520.85	1414.24
521.21	1436.90
521.57	1459.95
521.93	1481.95
522.29	1504.83
522.65	1527.45
523.01	1550.28
523.37	1572.35
523.73	1594.73
524.09	1617.50
524.45	1640.00
524.81	1662.55
525.17	1685.17
525.53	1707.93
525.89	1730.37
526.25	1752.64
526.61	1773.94
526.97	1795.78
527.33	1817.29
527.68	1839.00
528.04	1860.51
528.40	1880.81
528.76	1901.52
529.12	1922.16
529.48	1944.11
529.84	1964.65
530.20	1985.13
530.56	2005.81
530.91	2026.95
531.27	2047.45
531.63	2067.40
531.99	2087.34
532.35	2106.68
532.71	2125.85
533.07	2145.48
533.42	2164.26
533.78	2183.19
534.14	2201.92
534.50	2219.14
534.86	2237.64
535.21	2254.47
535.57	2272.39
535.93	2289.86
536.29	2307.08
536.65	2324.05
537.00	2339.56
537.36	2355.19
537.72	2370.61
538.08	2385.97
538.44	2401.29
538.79	2416.98
539.15	2431.90
539.51	2446.54
539.87	2462.24
540.22	2476.70
540.58	2491.34
540.94	2505.86
541.29	2519.20
541.65	2531.56
542.01	2544.91
542.37	2556.50
542.72	2569.32
543.08	2580.56
543.44	2592.73
543.79	2603.19
544.15	2613.41
544.51	2624.87
544.87	2635.92
545.22	2645.37
545.58	2653.53
545.94	2660.87
546.29	2667.25
546.65	2673.67
547.01	2680.05
547.36	2685.46
547.72	2691.28
548.07	2695.52
548.43	2699.55
548.79	2703.62
549.14	2708.57
549.50	2713.21
549.86	2717.38
550.21	2721.33
550.57	2725.19
550.92	2727.60
551.28	2730.62
551.64	2733.22
551.99	2735.60
552.35	2737.22
552.70	2740.17
553.06	2743.54
553.41	2746.56
553.77	2749.72
554.13	2752.31
554.48	2754.50
554.84	2756.38
555.19	2757.18
555.55	2758.16
555.90	2758.84
556.26	2759.43
556.61	2759.63
556.97	2758.53
557.32	2758.22
557.68	2756.73
558.03	2755.45
558.39	2754.17
558.74	2753.81
559.10	2752.93
559.45	2751.05
559.81	2750.01
560.16	2747.31
560.52	2744.54
560.87	2742.04
561.23	2738.58
561.58	2736.45
561.94	2733.37
562.29	2729.42
562.64	2727.36
563.00	2725.03
563.35	2722.67
563.71	2721.01
564.06	2718.84
564.42	2716.96
564.77	2714.93
565.12	2713.19
565.48	2710.01
565.83	2707.10
566.19	2703.70
566.54	2699.36
566.89	2695.70
567.25	2691.93
567.60	2688.61
567.96	2685.49
568.31	2681.95
568.66	2677.79
569.02	2673.05
569.37	2668.15
569.72	2664.30
570.08	2658.93
570.43	2653.03
570.78	2647.71
571.14	2641.42
571.49	2634.79
571.84	2629.03
572.20	2621.99
572.55	2615.27
572.90	2608.62
573.26	2601.61
573.61	2594.46
573.96	2588.01
574.31	2580.13
574.67	2571.99
575.02	2563.78
575.37	2554.55
575.72	2545.30
576.08	2537.89
576.43	2528.75
576.78	2520.75
577.13	2512.70
577.49	2504.24
577.84	2496.56
578.19	2488.79
578.54	2481.09
578.90	2473.96
579.25	2464.98
579.60	2455.43
579.95	2446.02
580.30	2437.96
580.66	2429.90
581.01	2420.91
581.36	2411.52
581.71	2402.88
582.06	2394.03
582.42	2385.26
582.77	2376.31
583.12	2367.42
583.47	2358.33
583.82	2350.36
584.17	2341.05
584.53	2331.96
584.88	2323.06
585.23	2313.45
585.58	2303.50
585.93	2293.68
586.28	2284.67
586.63	2275.69
586.98	2267.68
587.34	2259.67
587.69	2250.41
588.04	2241.05
588.39	2232.50
588.74	2223.50
589.09	2215.01
589.44	2205.75
589.79	2197.32
590.14	2189.15
590.49	2180.85
590.84	2171.80
591.19	2163.54
591.54	2154.69
591.89	2144.71
592.25	2135.59
592.60	2126.20
592.95	2116.81
593.30	2107.49
593.65	2097.56
594.00	2087.69
594.35	2079.09
594.70	2069.45
595.05	2060.53
595.40	2051.68
595.75	2042.06
596.10	2033.84
596.45	2024.98
596.80	2016.85
597.15	2008.30
597.50	1999.57
597.85	1990.80
598.19	1982.20
598.54	1973.30
598.89	1965.47
599.24	1958.60
599.59	1951.19
599.94	1943.95
600.29	1936.21
600.64	1928.28
600.99	1919.49
601.34	1912.44
601.69	1903.66
602.04	1895.48
602.39	1887.06
602.74	1879.23
603.08	1872.20
603.43	1864.81
603.78	1856.68
604.13	1848.59
604.48	1840.58
604.83	1833.34
605.18	1826.40
605.53	1818.61
605.87	1811.01
606.22	1803.85
606.57	1795.66
606.92	1787.11
607.27	1778.90
607.62	1771.49
607.96	1764.41
608.31	1758.37
608.66	1750.30
609.01	1742.80
609.36	1734.91
609.70	1727.28
610.05	1719.38
610.40	1711.15
610.75	1702.63
611.10	1695.07
611.44	1685.95
611.79	1676.93
612.14	1667.33
612.49	1657.39
612.83	1648.44
613.18	1638.52
613.53	1628.66
613.88	1619.04
614.22	1610.22
614.57	1600.65
614.92	1591.19
615.27	1581.86
615.61	1571.78
615.96	1562.87
616.31	1554.10
616.65	1546.19
617.00	1537.70
617.35	1528.88
617.70	1520.14
618.04	1510.99
618.39	1501.14
618.74	1492.68
619.08	1484.05
619.43	1476.04
619.78	1468.36
620.12	1460.53
620.47	1452.81
620.82	1444.32
621.16	1436.00
621.51	1427.26
621.85	1419.46
622.20	1410.84
622.55	1402.00
622.89	1393.83
623.24	1385.83
623.59	1377.15
623.93	1368.45
624.28	1359.98
624.62	1351.65
624.97	1343.22
625.32	1335.34
625.66	1328.07
626.01	1320.73
626.35	1313.28
626.70	1305.30
627.04	1297.87
627.39	1290.19
627.73	1282.29
628.08	1275.36
628.43	1267.93
628.77	1260.68
629.12	1253.09
629.46	1246.65
629.81	1239.55
630.15	1232.11
630.50	1224.36
630.84	1217.08
631.19	1210.01
631.53	1203.06
631.88	1195.48
632.22	1187.74
632.57	1180.77
632.91	1173.53
633.26	1165.70
633.60	1158.52
633.95	1151.89
634.29	1144.15
634.64	1137.16
634.98	1130.31
635.32	1123.10
635.67	1116.52
636.01	1109.96
636.36	1103.13
636.70	1096.13
637.05	1089.65
637.39	1083.18
637.73	1076.98
638.08	1071.13
638.42	1064.95
638.77	1058.43
639.11	1052.10
639.45	1046.12
639.80	1039.49
640.14	1032.77
640.49	1026.69
640.83	1020.42
641.17	1013.94
641.52	1007.96
641.86	1001.30
642.20	995.13
642.55	988.26
642.89	981.79
643.23	975.39
643.58	969.49
643.92	962.89
644.26	956.57
644.61	950.59
644.95	944.56
645.29	938.13
645.64	931.44
645.98	925.16
646.32	919.35
646.66	913.16
647.01	906.87
647.35	901.05
647.69	894.70
648.04	888.67
648.38	882.53
648.72	876.30
649.06	870.30
649.41	864.25
649.75	858.59
650.09	852.62
650.43	846.47
650.78	840.13
651.12	834.13
651.46	828.13
651.80	822.06
652.14	815.97
652.49	809.92
652.83	804.05
653.17	798.00
653.51	791.85
653.85	786.11
654.20	780.45
654.54	774.63
654.88	769.20
655.22	763.15
655.56	757.25
655.90	751.46
656.25	745.75
656.59	740.16
656.93	734.86
657.27	729.52
657.61	724.09
657.95	719.07
658.29	714.01
658.64	708.89
658.98	703.63
659.32	698.17
659.66	692.94
660.00	687.61
660.34	682.44
660.68	677.39
661.02	672.27
661.36	667.55
661.70	662.52
662.05	657.59
662.39	653.24
662.73	648.86
663.07	644.44
663.41	640.07
663.75	635.44
664.09	630.71
664.43	626.11
664.77	621.73
665.11	617.07
665.45	612.59
665.79	608.05
666.13	603.51
666.47	599.26
666.81	595.11
667.15	591.12
667.49	587.27
667.83	583.32
668.17	579.50
668.51	575.49
668.85	571.79
669.19	568.22
669.53	564.15
669.87	560.08
670.21	556.32
670.55	552.41
670.89	548.82
671.23	545.53
671.57	542.03
671.91	538.40
672.25	534.81
672.58	531.22
672.92	527.80
673.26	524.70
673.60	521.58
673.94	518.28
674.28	514.99
674.62	511.85
674.96	508.68
675.30	505.49
675.64	502.31
675.97	499.23
676.31	496.08
676.65	493.20
676.99	490.53
677.33	487.48
677.67	484.55
678.01	481.50
678.34	478.38
678.68	475.40
679.02	472.43
679.36	469.73
679.70	466.88
680.04	464.01
680.37	461.07
680.71	458.13
681.05	455.38
681.39	452.55
681.73	449.68
682.06	447.10
682.40	444.46
682.74	441.87
683.08	439.27
683.42	436.68
683.75	434.13
684.09	431.43
684.43	428.99
684.77	426.37
685.10	423.85
685.44	421.25
685.78	418.69
686.12	416.42
686.45	413.98
686.79	411.72
687.13	409.57
687.46	407.33
687.80	405.07
688.14	402.82
688.48	400.74
688.81	398.45
689.15	396.13
689.49	393.95
689.82	391.61
690.16	389.29
690.50	386.91
690.83	384.63
691.17	382.38
691.51	380.06
691.84	377.96
692.18	375.92
692.52	373.97
692.85	372.13
693.19	370.26
693.52	368.23
693.86	366.23
694.20	364.28
694.53	362.39
694.87	360.34
695.21	358.33
695.54	356.41
695.88	354.56
696.21	352.74
696.55	351.02
696.88	349.28
697.22	347.59
697.56	346.08
697.89	344.46
698.23	342.87
698.56	341.33
698.90	339.86
699.23	338.15
699.57	336.50
699.90	334.84
700.24	333.08
700.58	331.50
700.91	329.95
701.25	328.60
701.58	327.17
701.92	325.90
702.25	324.58
702.59	323.11
702.92	321.71
703.26	320.39
703.59	319.08
703.93	317.87
704.26	316.60
704.60	315.24
704.93	314.04
705.26	312.77
705.60	311.53
705.93	310.24
706.27	309.10
706.60	308.15
706.94	307.05
707.27	305.83
707.61	304.69
707.94	303.59
708.27	302.20
708.61	301.03
708.94	299.88
709.28	298.70
709.61	297.63
709.94	296.65
710.28	295.61
710.61	294.51
710.95	293.40
711.28	292.39
711.61	291.31
711.95	290.31
712.28	289.33
712.61	288.38
712.95	287.55
713.28	286.68
713.61	285.64
713.95	284.70
714.28	283.81
714.61	282.88
714.95	281.97
715.28	281.07
715.61	280.08
715.95	279.11
716.28	278.34
716.61	277.53
716.95	276.56
717.28	275.64
717.61	274.80
717.94	273.96
718.28	273.03
718.61	272.26
718.94	271.39
719.27	270.59
719.61	269.84
719.94	268.98
720.27	268.17
720.60	267.41
720.94	266.68
721.27	266.07
721.60	265.51
721.93	264.90
722.27	264.34
722.60	263.75
722.93	263.22
723.26	262.56
723.59	261.93
723.93	261.40
724.26	260.92
724.59	260.34
724.92	259.84
725.25	259.41
725.59	258.91
725.92	258.37
726.25	257.90
726.58	257.35
726.91	256.84
727.24	256.37
727.57	255.86
727.91	255.36
728.24	254.89
728.57	254.34
728.90	253.82
729.23	253.29
729.56	252.89
729.89	252.39
730.22	251.91
730.55	251.47
730.89	251.00
731.22	250.50
731.55	250.04
731.88	249.60
732.21	249.10
732.54	248.63
732.87	248.23
733.20	247.81
733.53	247.28
733.86	246.86
734.19	246.40
734.52	246.00
734.85	245.67
735.18	245.27
735.51	244.90
735.84	244.54
736.17	244.12
736.50	243.71
736.83	243.58
737.16	243.23
737.49	242.82
737.82	242.44
738.15	242.11
738.48	241.82
738.81	241.42
739.14	241.08
739.47	240.69
739.80	240.32
740.13	239.93
740.46	239.65
740.79	239.23
741.12	238.92
741.45	238.60
741.78	238.23
742.11	237.94
742.44	237.56
742.77	237.30
743.10	237.10
743.43	236.73
743.75	236.20
744.08	236.07
744.41	235.75
744.74	235.45
745.07	235.07
745.40	234.74
745.73	234.51
746.06	234.17
746.39	234.08
746.71	233.82
747.04	233.55
747.37	233.32
747.70	233.12
748.03	232.92
748.36	232.64
748.68	232.38
749.01	232.11
749.34	231.93
749.67	231.59
750.00	231.29
750.33	231.17
750.65	230.93
750.98	230.50
751.31	230.33
751.64	230.10
751.97	229.96
752.29	229.70
752.62	229.43
752.95	229.18
753.28	228.83
753.60	228.65
753.93	228.47
754.26	228.27
754.59	228.03
754.91	227.71
755.24	227.51
755.57	227.24
755.90	227.04
756.22	226.81
756.55	226.67
756.88	226.45
757.20	226.17
757.53	225.91
757.86	225.68
758.19	225.45
758.51	225.34
758.84	225.05
759.17	224.94
759.49	224.79
759.82	224.73
760.15	224.53
760.47	224.39
760.80	224.16
761.13	224.07
761.45	223.91
761.78	223.69
762.11	223.54
762.43	223.39
762.76	223.15
763.08	223.04
763.41	222.82
763.74	222.70
764.06	222.60
764.39	222.57
764.71	222.47
765.04	222.35
765.37	222.18
765.69	222.05
766.02	221.86
766.34	221.70
766.67	221.54
767.00	221.50
767.32	221.42
767.65	221.38
767.97	221.22
768.30	221.06
768.62	221.01
768.95	220.91
769.27	220.88
769.60	220.84
769.92	220.61
770.25	220.47
770.57	220.28
770.90	220.10
771.22	219.90
771.55	219.76
771.87	219.68
772.20	219.59
772.52	219.74
772.85	219.84
773.17	219.76
773.50	219.69
773.82	219.57
774.15	219.32
774.47	219.15
774.80	219.00
775.12	218.95
775.45	218.89
775.77	218.80
776.09	218.65
776.42	218.58
776.74	218.65
777.07	218.64
777.39	218.60
777.72	218.56
778.04	218.53
778.36	218.50
778.69	218.43
779.01	218.29
779.33	218.14
779.66	217.86
779.98	217.75
780.31	217.64
780.63	217.67
780.95	217.63
781.28	217.53
781.60	217.50
781.92	217.37
782.25	217.31
782.57	217.26
782.89	217.19
783.22	217.09
783.54	216.91
783.86	216.81
784.19	216.73
784.51	216.68
784.83	216.56
785.16	216.46
785.48	216.35
785.80	216.34
786.12	216.20
786.45	216.19
