SpectraSuite Data File
++++++++++++++++++++++++++++++++++++
Date: Mon Feb 25 17:30:43 EST 2013
User: group
Dark Spectrum Present: No
Reference Spectrum Present: No
Number of Sampled Component Spectra: 1
Spectrometers: USB2E7196
Integration Time (usec): 52000 (USB2E7196)
Spectra Averaged: 20 (USB2E7196)
Boxcar Smoothing: 10 (USB2E7196)
Correct for Electrical Dark: No (USB2E7196)
Strobe/Lamp Enabled: No (USB2E7196)
Correct for Detector Non-linearity: No (USB2E7196)
Correct for Stray Light: No (USB2E7196)
Number of Pixels in Processed Spectrum: 2048
>>>>>Begin Processed Spectral Data<<<<<
339.09	0.00
339.48	198.70
339.86	200.50
340.24	201.65
340.63	203.75
341.01	207.35
341.39	206.00
341.78	208.00
342.16	208.80
342.54	209.95
342.93	198.31
343.31	208.35
343.69	208.90
344.07	209.37
344.46	209.77
344.84	210.14
345.22	210.31
345.60	210.62
345.99	210.76
346.37	210.99
346.75	211.02
347.13	211.05
347.52	211.09
347.90	211.29
348.28	211.33
348.66	211.45
349.05	211.41
349.43	211.48
349.81	211.47
350.19	211.57
350.57	211.65
350.96	211.78
351.34	211.83
351.72	211.93
352.10	212.05
352.48	212.10
352.87	212.14
353.25	212.22
353.63	212.14
354.01	212.23
354.39	212.21
354.77	212.27
355.15	212.32
355.54	212.38
355.92	212.33
356.30	212.30
356.68	212.43
357.06	212.50
357.44	212.46
357.82	212.58
358.20	212.68
358.58	212.72
358.97	212.76
359.35	212.89
359.73	213.03
360.11	213.05
360.49	213.17
360.87	213.22
361.25	213.31
361.63	213.48
362.01	213.54
362.39	213.53
362.77	213.63
363.15	213.71
363.53	213.73
363.91	213.70
364.29	213.80
364.67	213.70
365.05	213.77
365.43	213.93
365.81	213.88
366.19	213.89
366.57	213.98
366.95	213.89
367.33	213.79
367.71	213.75
368.09	213.78
368.47	213.77
368.85	213.79
369.23	213.82
369.61	213.75
369.99	213.74
370.37	213.75
370.75	213.81
371.13	213.70
371.51	213.72
371.89	213.75
372.27	213.67
372.65	213.62
373.03	213.57
373.41	213.40
373.78	213.45
374.16	213.35
374.54	213.24
374.92	213.28
375.30	213.32
375.68	213.17
376.06	213.16
376.44	213.08
376.82	213.00
377.19	212.87
377.57	212.80
377.95	212.76
378.33	212.68
378.71	212.58
379.09	212.63
379.47	212.63
379.84	212.54
380.22	212.57
380.60	212.54
380.98	212.47
381.36	212.38
381.73	212.28
382.11	212.25
382.49	212.26
382.87	212.13
383.25	212.06
383.62	212.29
384.00	212.19
384.38	212.15
384.76	212.17
385.13	212.23
385.51	212.23
385.89	212.16
386.27	212.14
386.64	212.09
387.02	212.03
387.40	212.00
387.78	212.03
388.15	211.99
388.53	211.87
388.91	211.87
389.29	211.97
389.66	212.03
390.04	211.98
390.42	211.94
390.79	211.95
391.17	211.91
391.55	211.66
391.92	211.61
392.30	211.65
392.68	211.56
393.05	211.52
393.43	211.46
393.81	211.46
394.18	211.44
394.56	211.42
394.94	211.44
395.31	211.33
395.69	211.38
396.06	211.36
396.44	211.39
396.82	211.34
397.19	211.38
397.57	211.34
397.95	211.43
398.32	211.43
398.70	211.50
399.07	211.61
399.45	211.64
399.82	211.69
400.20	211.70
400.58	211.77
400.95	211.77
401.33	211.94
401.70	212.11
402.08	212.25
402.45	212.30
402.83	212.34
403.20	212.43
403.58	212.47
403.95	212.66
404.33	212.81
404.71	212.95
405.08	213.08
405.46	213.20
405.83	213.28
406.21	213.41
406.58	213.53
406.96	213.64
407.33	213.84
407.70	214.03
408.08	214.34
408.45	214.53
408.83	214.76
409.20	214.94
409.58	215.09
409.95	215.30
410.33	215.58
410.70	215.93
411.08	216.29
411.45	216.64
411.82	216.98
412.20	217.38
412.57	217.87
412.95	218.16
413.32	218.65
413.69	219.15
414.07	219.70
414.44	220.27
414.82	220.83
415.19	221.61
415.56	222.31
415.94	223.11
416.31	224.05
416.68	224.87
417.06	225.81
417.43	226.78
417.81	227.87
418.18	228.93
418.55	230.13
418.93	231.41
419.30	232.73
419.67	234.12
420.04	235.55
420.42	236.97
420.79	238.85
421.16	240.52
421.54	242.37
421.91	244.15
422.28	246.02
422.66	248.08
423.03	250.05
423.40	252.10
423.77	254.23
424.15	256.36
424.52	258.68
424.89	261.19
425.26	263.52
425.64	265.92
426.01	268.54
426.38	271.09
426.75	273.83
427.13	276.52
427.50	279.42
427.87	282.43
428.24	285.58
428.61	288.29
428.99	291.45
429.36	294.83
429.73	298.25
430.10	301.74
430.47	305.20
430.85	308.70
431.22	312.57
431.59	316.66
431.96	320.50
432.33	324.72
432.70	328.89
433.08	333.73
433.45	338.14
433.82	342.62
434.19	347.67
434.56	352.59
434.93	357.28
435.30	361.83
435.68	366.86
436.05	371.84
436.42	376.97
436.79	381.55
437.16	386.53
437.53	391.66
437.90	396.69
438.27	401.69
438.64	406.92
439.01	411.75
439.38	415.95
439.75	420.10
440.13	424.80
440.50	429.15
440.87	432.70
441.24	436.43
441.61	440.60
441.98	443.58
442.35	447.08
442.72	450.65
443.09	454.05
443.46	456.08
443.83	457.50
444.20	458.58
444.57	460.34
444.94	461.02
445.31	461.80
445.68	462.65
446.05	462.89
446.42	462.31
446.79	461.46
447.16	460.58
447.53	460.03
447.90	458.09
448.27	456.09
448.64	453.42
449.01	451.39
449.37	447.75
449.74	444.30
450.11	440.18
450.48	435.76
450.85	431.33
451.22	427.45
451.59	423.73
451.96	420.24
452.33	415.60
452.70	411.42
453.07	406.38
453.43	401.27
453.80	396.40
454.17	391.73
454.54	387.37
454.91	382.68
455.28	377.95
455.65	373.61
456.02	369.43
456.38	365.76
456.75	361.24
457.12	357.47
457.49	353.78
457.86	350.03
458.23	346.99
458.59	343.60
458.96	340.24
459.33	337.02
459.70	334.00
460.07	331.55
460.43	328.69
460.80	326.10
461.17	323.66
461.54	321.25
461.91	318.94
462.27	316.60
462.64	314.65
463.01	312.58
463.38	310.49
463.74	308.17
464.11	306.24
464.48	304.65
464.85	302.92
465.21	301.61
465.58	300.30
465.95	298.52
466.32	297.10
466.68	295.83
467.05	294.57
467.42	293.15
467.78	291.74
468.15	290.47
468.52	289.53
468.88	288.36
469.25	287.17
469.62	286.32
469.98	285.35
470.35	284.46
470.72	283.62
471.08	282.66
471.45	281.99
471.82	281.29
472.18	280.44
472.55	279.94
472.92	279.23
473.28	278.63
473.65	278.10
474.02	277.58
474.38	277.08
474.75	276.82
475.11	276.46
475.48	276.25
475.85	275.98
476.21	275.71
476.58	275.58
476.94	275.62
477.31	275.56
477.67	275.46
478.04	275.49
478.41	275.56
478.77	275.95
479.14	276.12
479.50	276.44
479.87	276.78
480.23	277.06
480.60	277.48
480.96	278.00
481.33	278.61
481.69	279.22
482.06	279.77
482.42	280.33
482.79	281.08
483.15	281.89
483.52	282.92
483.88	283.92
484.25	284.91
484.61	286.02
484.98	287.10
485.34	288.50
485.71	289.86
486.07	291.27
486.44	292.58
486.80	294.17
487.17	295.73
487.53	297.57
487.90	299.49
488.26	301.33
488.62	303.29
488.99	305.40
489.35	307.64
489.72	310.02
490.08	312.52
490.44	314.95
490.81	317.55
491.17	320.23
491.54	323.15
491.90	326.09
492.26	329.30
492.63	332.66
492.99	336.17
493.36	339.77
493.72	343.63
494.08	347.55
494.45	351.65
494.81	356.01
495.17	360.46
495.54	365.22
495.90	370.24
496.26	375.51
496.63	380.89
496.99	386.50
497.35	392.46
497.72	398.72
498.08	405.23
498.44	411.94
498.80	419.09
499.17	426.45
499.53	434.11
499.89	441.94
500.26	449.99
500.62	458.11
500.98	466.78
501.34	475.95
501.71	485.45
502.07	495.04
502.43	505.17
502.79	515.36
503.16	525.95
503.52	536.83
503.88	547.89
504.24	559.34
504.60	571.20
504.97	583.33
505.33	595.53
505.69	608.65
506.05	621.90
506.41	635.32
506.78	648.98
507.14	663.01
507.50	677.45
507.86	692.25
508.22	707.56
508.59	722.99
508.95	738.61
509.31	754.63
509.67	771.25
510.03	787.93
510.39	805.14
510.75	822.81
511.12	840.70
511.48	858.91
511.84	877.45
512.20	895.81
512.56	914.95
512.92	934.22
513.28	953.39
513.64	972.95
514.00	992.56
514.37	1012.62
514.73	1033.08
515.09	1053.65
515.45	1074.15
515.81	1095.27
516.17	1116.03
516.53	1136.98
516.89	1158.30
517.25	1179.41
517.61	1200.63
517.97	1222.15
518.33	1243.10
518.69	1264.52
519.05	1286.15
519.41	1307.92
519.77	1330.25
520.13	1351.85
520.49	1373.60
520.85	1395.80
521.21	1417.83
521.57	1440.55
521.93	1462.04
522.29	1484.55
522.65	1506.63
523.01	1528.93
523.37	1550.45
523.73	1572.65
524.09	1594.62
524.45	1616.48
524.81	1638.47
525.17	1660.56
525.53	1682.31
525.89	1704.30
526.25	1726.04
526.61	1746.97
526.97	1768.08
527.33	1788.76
527.68	1810.21
528.04	1831.31
528.40	1851.26
528.76	1871.99
529.12	1892.20
529.48	1913.77
529.84	1933.51
530.20	1953.54
530.56	1973.29
530.91	1993.47
531.27	2013.21
531.63	2032.92
531.99	2052.35
532.35	2071.11
532.71	2089.31
533.07	2108.25
533.42	2126.34
533.78	2144.58
534.14	2162.69
534.50	2179.66
534.86	2197.29
535.21	2213.31
535.57	2230.45
535.93	2247.48
536.29	2263.70
536.65	2279.45
537.00	2294.24
537.36	2309.00
537.72	2323.63
538.08	2338.34
538.44	2352.83
538.79	2367.53
539.15	2381.48
539.51	2395.52
539.87	2410.22
540.22	2424.20
540.58	2438.51
540.94	2452.37
541.29	2464.75
541.65	2476.53
542.01	2489.20
542.37	2500.90
542.72	2512.58
543.08	2522.83
543.44	2534.07
543.79	2543.50
544.15	2553.53
544.51	2563.95
544.87	2574.72
545.22	2583.42
545.58	2591.61
545.94	2598.44
546.29	2604.53
546.65	2610.62
547.01	2616.18
547.36	2621.43
547.72	2626.92
548.07	2630.52
548.43	2633.90
548.79	2637.18
549.14	2641.36
549.50	2645.24
549.86	2648.64
550.21	2652.25
550.57	2656.18
550.92	2658.45
551.28	2661.00
551.64	2663.10
551.99	2665.41
552.35	2666.49
552.70	2669.12
553.06	2671.76
553.41	2674.87
553.77	2677.63
554.13	2679.65
554.48	2681.32
554.84	2682.53
555.19	2682.76
555.55	2683.06
555.90	2683.51
556.26	2684.00
556.61	2683.54
556.97	2682.18
557.32	2681.25
557.68	2679.57
558.03	2677.80
558.39	2676.24
558.74	2675.50
559.10	2674.05
559.45	2671.94
559.81	2670.53
560.16	2667.55
560.52	2664.65
560.87	2661.27
561.23	2657.33
561.58	2655.06
561.94	2651.79
562.29	2648.07
562.64	2645.63
563.00	2642.65
563.35	2640.32
563.71	2638.59
564.06	2636.34
564.42	2634.30
564.77	2631.75
565.12	2629.50
565.48	2626.21
565.83	2623.20
566.19	2619.95
566.54	2615.78
566.89	2611.77
567.25	2607.84
567.60	2604.72
567.96	2600.92
568.31	2597.41
568.66	2593.84
569.02	2589.14
569.37	2584.15
569.72	2580.13
570.08	2574.75
570.43	2569.53
570.78	2563.74
571.14	2557.32
571.49	2550.96
571.84	2545.07
572.20	2538.50
572.55	2532.24
572.90	2525.63
573.26	2518.38
573.61	2511.32
573.96	2504.82
574.31	2497.02
574.67	2488.97
575.02	2480.18
575.37	2471.75
575.72	2462.83
576.08	2455.14
576.43	2446.45
576.78	2438.64
577.13	2430.80
577.49	2423.00
577.84	2415.50
578.19	2408.06
578.54	2400.62
578.90	2393.77
579.25	2385.16
579.60	2376.20
579.95	2367.09
580.30	2358.97
580.66	2351.39
581.01	2342.32
581.36	2333.19
581.71	2325.10
582.06	2316.96
582.42	2309.29
582.77	2300.30
583.12	2291.68
583.47	2283.23
583.82	2275.28
584.17	2266.25
584.53	2257.50
584.88	2248.88
585.23	2239.90
585.58	2230.47
585.93	2221.07
586.28	2212.15
586.63	2203.73
586.98	2195.97
587.34	2187.75
587.69	2178.91
588.04	2169.72
588.39	2161.75
588.74	2153.24
589.09	2144.78
589.44	2135.48
589.79	2127.20
590.14	2119.95
590.49	2111.99
590.84	2103.19
591.19	2095.03
591.54	2087.11
591.89	2076.92
592.25	2068.16
592.60	2058.96
592.95	2050.13
593.30	2041.01
593.65	2031.22
594.00	2021.54
594.35	2013.23
594.70	2004.46
595.05	1996.33
595.40	1988.30
595.75	1978.95
596.10	1971.03
596.45	1962.72
596.80	1955.26
597.15	1947.07
597.50	1938.10
597.85	1929.73
598.19	1921.12
598.54	1912.93
598.89	1905.00
599.24	1898.70
599.59	1891.23
599.94	1884.28
600.29	1876.54
600.64	1868.83
600.99	1861.10
601.34	1854.34
601.69	1845.80
602.04	1838.01
602.39	1829.99
602.74	1821.97
603.08	1815.77
603.43	1808.46
603.78	1800.66
604.13	1792.70
604.48	1784.83
604.83	1777.92
605.18	1771.13
605.53	1763.92
605.87	1756.46
606.22	1749.70
606.57	1741.96
606.92	1734.19
607.27	1726.33
607.62	1719.26
607.96	1712.58
608.31	1706.72
608.66	1698.90
609.01	1691.58
609.36	1683.91
609.70	1676.40
610.05	1669.09
610.40	1661.10
610.75	1653.07
611.10	1645.60
611.44	1636.97
611.79	1628.37
612.14	1619.21
612.49	1609.84
612.83	1601.36
613.18	1591.87
613.53	1582.56
613.88	1573.19
614.22	1564.42
614.57	1555.15
614.92	1546.09
615.27	1537.02
615.61	1527.23
615.96	1518.54
616.31	1510.43
616.65	1502.91
617.00	1494.77
617.35	1486.19
617.70	1477.25
618.04	1468.34
618.39	1459.52
618.74	1451.30
619.08	1442.75
619.43	1434.88
619.78	1427.36
620.12	1419.43
620.47	1412.01
620.82	1403.52
621.16	1395.52
621.51	1387.40
621.85	1379.73
622.20	1371.43
622.55	1363.37
622.89	1355.13
623.24	1347.56
623.59	1338.99
623.93	1330.20
624.28	1322.03
624.62	1313.83
624.97	1306.17
625.32	1298.54
625.66	1291.15
626.01	1284.28
626.35	1277.34
626.70	1269.96
627.04	1262.66
627.39	1255.45
627.73	1247.87
628.08	1241.40
628.43	1234.31
628.77	1227.37
629.12	1220.23
629.46	1213.99
629.81	1206.82
630.15	1199.78
630.50	1192.50
630.84	1185.52
631.19	1178.67
631.53	1172.04
631.88	1165.04
632.22	1157.45
632.57	1150.58
632.91	1143.13
633.26	1135.68
633.60	1128.49
633.95	1121.95
634.29	1114.70
634.64	1107.91
634.98	1101.19
635.32	1094.27
635.67	1088.05
636.01	1081.47
636.36	1074.79
636.70	1068.08
637.05	1061.86
637.39	1055.60
637.73	1049.32
638.08	1043.55
638.42	1037.87
638.77	1031.37
639.11	1025.23
639.45	1019.41
639.80	1013.22
640.14	1007.15
640.49	1001.01
640.83	995.04
641.17	988.64
641.52	982.76
641.86	976.59
642.20	970.50
642.55	963.93
642.89	957.31
643.23	951.10
643.58	945.35
643.92	938.91
644.26	932.56
644.61	926.74
644.95	920.84
645.29	914.60
645.64	908.13
645.98	902.02
646.32	896.13
646.66	890.04
647.01	884.20
647.35	878.54
647.69	872.45
648.04	866.58
648.38	860.79
648.72	854.94
649.06	848.93
649.41	843.08
649.75	837.41
650.09	831.80
650.43	825.97
650.78	819.99
651.12	814.17
651.46	808.70
651.80	802.82
652.14	797.10
652.49	791.38
652.83	785.72
653.17	779.91
653.51	774.14
653.85	768.75
654.20	763.01
654.54	757.24
654.88	751.90
655.22	746.37
655.56	740.69
655.90	734.97
656.25	729.31
656.59	723.87
656.93	718.76
657.27	713.52
657.61	707.88
657.95	702.82
658.29	697.87
658.64	692.69
658.98	687.57
659.32	682.18
659.66	677.10
660.00	671.87
660.34	666.74
660.68	661.62
661.02	656.66
661.36	652.08
661.70	647.19
662.05	642.46
662.39	638.00
662.73	633.72
663.07	629.61
663.41	625.59
663.75	621.28
664.09	616.69
664.43	612.25
664.77	608.32
665.11	603.88
665.45	599.58
665.79	595.42
666.13	591.26
666.47	587.17
666.81	582.94
667.15	578.91
667.49	575.21
667.83	571.47
668.17	567.64
668.51	563.84
668.85	560.43
669.19	556.98
669.53	553.07
669.87	549.09
670.21	545.22
670.55	541.37
670.89	537.90
671.23	534.63
671.57	531.25
671.91	527.78
672.25	524.34
672.58	521.02
672.92	517.60
673.26	514.44
673.60	511.25
673.94	508.16
674.28	505.00
674.62	501.85
674.96	498.82
675.30	495.87
675.64	492.75
675.97	489.57
676.31	486.62
676.65	483.89
676.99	481.37
677.33	478.57
677.67	475.83
678.01	472.76
678.34	469.90
678.68	467.03
679.02	464.05
679.36	461.31
679.70	458.55
680.04	455.81
680.37	452.83
680.71	450.29
681.05	447.66
681.39	445.26
681.73	442.56
682.06	439.97
682.40	437.41
682.74	434.90
683.08	432.41
683.42	429.64
683.75	427.23
684.09	424.56
684.43	422.16
684.77	419.53
685.10	417.17
685.44	414.59
685.78	412.18
686.12	410.00
686.45	407.75
686.79	405.47
687.13	403.35
687.46	401.35
687.80	399.16
688.14	397.01
688.48	394.83
688.81	392.85
689.15	390.75
689.49	388.54
689.82	386.37
690.16	384.17
690.50	382.11
690.83	379.91
691.17	377.74
691.51	375.49
691.84	373.51
692.18	371.57
692.52	369.69
692.85	367.88
693.19	365.95
693.52	364.04
693.86	362.15
694.20	360.32
694.53	358.49
694.87	356.55
695.21	354.67
695.54	352.79
695.88	350.80
696.21	348.97
696.55	347.24
696.88	345.49
697.22	343.72
697.56	342.18
697.89	340.53
698.23	339.01
698.56	337.52
698.90	336.05
699.23	334.35
699.57	332.77
699.90	331.10
700.24	329.58
700.58	328.03
700.91	326.46
701.25	325.02
701.58	323.60
701.92	322.18
702.25	320.75
702.59	319.46
702.92	318.21
703.26	316.91
703.59	315.58
703.93	314.57
704.26	313.42
704.60	312.09
704.93	310.82
705.26	309.55
705.60	308.40
705.93	307.08
706.27	305.95
706.60	304.92
706.94	303.91
707.27	302.85
707.61	301.71
707.94	300.65
708.27	299.42
708.61	298.24
708.94	297.15
709.28	296.03
709.61	294.89
709.94	293.82
710.28	292.81
710.61	291.84
710.95	290.63
711.28	289.65
711.61	288.72
711.95	287.86
712.28	286.96
712.61	285.95
712.95	285.15
713.28	284.30
713.61	283.24
713.95	282.33
714.28	281.40
714.61	280.49
714.95	279.60
715.28	278.69
715.61	277.78
715.95	276.90
716.28	276.19
716.61	275.31
716.95	274.49
717.28	273.70
717.61	272.90
717.94	272.21
718.28	271.40
718.61	270.60
718.94	269.79
719.27	269.00
719.61	268.31
719.94	267.54
720.27	266.80
720.60	266.11
720.94	265.37
721.27	264.65
721.60	264.13
721.93	263.59
722.27	263.09
722.60	262.52
722.93	261.96
723.26	261.33
723.59	260.72
723.93	260.20
724.26	259.61
724.59	259.11
724.92	258.54
725.25	258.07
725.59	257.54
725.92	256.95
726.25	256.44
726.58	255.94
726.91	255.40
727.24	254.94
727.57	254.50
727.91	254.08
728.24	253.67
728.57	253.22
728.90	252.68
729.23	252.15
729.56	251.76
729.89	251.29
730.22	250.82
730.55	250.43
730.89	250.00
731.22	249.48
731.55	248.99
731.88	248.48
732.21	247.95
732.54	247.52
732.87	247.10
733.20	246.61
733.53	246.17
733.86	245.79
734.19	245.28
734.52	244.90
734.85	244.58
735.18	244.08
735.51	243.57
735.84	243.20
736.17	242.85
736.50	242.38
736.83	242.19
737.16	241.78
737.49	241.47
737.82	241.00
738.15	240.77
738.48	240.37
738.81	240.04
739.14	239.67
739.47	239.29
739.80	238.97
740.13	238.69
740.46	238.30
740.79	237.95
741.12	237.70
741.45	237.38
741.78	237.05
742.11	236.85
742.44	236.50
742.77	236.28
743.10	235.91
743.43	235.63
743.75	235.17
744.08	235.09
744.41	234.67
744.74	234.39
745.07	234.03
745.40	233.78
745.73	233.55
746.06	233.34
746.39	233.09
746.71	232.82
747.04	232.54
747.37	232.31
747.70	232.09
748.03	231.83
748.36	231.56
748.68	231.22
749.01	230.96
749.34	230.81
749.67	230.50
750.00	230.34
750.33	230.23
750.65	229.94
750.98	229.45
751.31	229.31
751.64	229.07
751.97	228.98
752.29	228.82
752.62	228.60
752.95	228.35
753.28	228.13
753.60	227.87
753.93	227.76
754.26	227.56
754.59	227.27
754.91	227.08
755.24	226.89
755.57	226.71
755.90	226.48
756.22	226.25
756.55	226.09
756.88	225.85
757.20	225.55
757.53	225.36
757.86	225.26
758.19	225.11
758.51	225.06
758.84	224.76
759.17	224.57
759.49	224.37
759.82	224.37
760.15	224.20
760.47	224.13
760.80	223.81
761.13	223.63
761.45	223.52
761.78	223.29
762.11	223.14
762.43	223.03
762.76	222.88
763.08	222.77
763.41	222.59
763.74	222.47
764.06	222.37
764.39	222.25
764.71	222.09
765.04	221.93
765.37	221.76
765.69	221.60
766.02	221.50
766.34	221.35
766.67	221.07
767.00	220.98
767.32	220.91
767.65	220.96
767.97	220.84
768.30	220.77
768.62	220.75
768.95	220.62
769.27	220.41
769.60	220.33
769.92	220.24
770.25	220.11
770.57	219.95
770.90	219.81
771.22	219.76
771.55	219.70
771.87	219.61
772.20	219.42
772.52	219.43
772.85	219.53
773.17	219.47
773.50	219.42
773.82	219.31
774.15	219.12
774.47	218.90
774.80	218.80
775.12	218.64
775.45	218.54
775.77	218.48
776.09	218.44
776.42	218.38
776.74	218.31
777.07	218.21
777.39	218.09
777.72	218.00
778.04	217.89
778.36	217.83
778.69	217.78
779.01	217.80
779.33	217.65
779.66	217.38
779.98	217.24
780.31	217.18
780.63	217.15
780.95	217.16
781.28	217.09
781.60	217.04
781.92	216.99
782.25	216.87
782.57	216.77
782.89	216.73
783.22	216.66
783.54	216.56
783.86	216.55
784.19	216.53
784.51	216.57
784.83	216.52
785.16	216.42
785.48	216.35
785.80	216.33
786.12	216.28
786.45	216.23
