SpectraSuite Data File
++++++++++++++++++++++++++++++++++++
Date: Mon Feb 25 17:34:58 EST 2013
User: group
Dark Spectrum Present: No
Reference Spectrum Present: No
Number of Sampled Component Spectra: 1
Spectrometers: USB2E7196
Integration Time (usec): 52000 (USB2E7196)
Spectra Averaged: 20 (USB2E7196)
Boxcar Smoothing: 10 (USB2E7196)
Correct for Electrical Dark: No (USB2E7196)
Strobe/Lamp Enabled: No (USB2E7196)
Correct for Detector Non-linearity: No (USB2E7196)
Correct for Stray Light: No (USB2E7196)
Number of Pixels in Processed Spectrum: 2048
>>>>>Begin Processed Spectral Data<<<<<
339.09	0.00
339.48	199.25
339.86	198.75
340.24	200.50
340.63	203.60
341.01	205.95
341.39	204.95
341.78	206.15
342.16	209.25
342.54	208.75
342.93	197.26
343.31	207.27
343.69	207.75
344.07	208.25
344.46	208.77
344.84	209.08
345.22	209.26
345.60	209.50
345.99	209.70
346.37	209.85
346.75	209.98
347.13	210.11
347.52	210.21
347.90	210.37
348.28	210.45
348.66	210.52
349.05	210.56
349.43	210.64
349.81	210.71
350.19	210.80
350.57	211.00
350.96	211.10
351.34	211.17
351.72	211.29
352.10	211.47
352.48	211.49
352.87	211.61
353.25	211.75
353.63	211.84
354.01	211.93
354.39	211.94
354.77	212.01
355.15	212.17
355.54	212.23
355.92	212.25
356.30	212.36
356.68	212.66
357.06	212.73
357.44	212.73
357.82	212.82
358.20	212.91
358.58	212.96
358.97	213.05
359.35	213.21
359.73	213.34
360.11	213.35
360.49	213.40
360.87	213.44
361.25	213.52
361.63	213.62
362.01	213.71
362.39	213.75
362.77	213.78
363.15	213.78
363.53	213.88
363.91	213.95
364.29	213.95
364.67	213.76
365.05	213.83
365.43	213.91
365.81	213.93
366.19	214.08
366.57	214.16
366.95	214.14
367.33	214.17
367.71	214.16
368.09	214.20
368.47	214.24
368.85	214.27
369.23	214.36
369.61	214.30
369.99	214.34
370.37	214.35
370.75	214.45
371.13	214.40
371.51	214.30
371.89	214.28
372.27	214.25
372.65	214.27
373.03	214.23
373.41	214.13
373.78	214.11
374.16	213.94
374.54	213.80
374.92	213.74
375.30	213.58
375.68	213.49
376.06	213.44
376.44	213.43
376.82	213.36
377.19	213.25
377.57	213.25
377.95	213.14
378.33	213.09
378.71	212.90
379.09	212.87
379.47	212.83
379.84	212.80
380.22	212.76
380.60	212.60
380.98	212.49
381.36	212.49
381.73	212.44
382.11	212.39
382.49	212.44
382.87	212.45
383.25	212.43
383.62	212.60
384.00	212.53
384.38	212.51
384.76	212.52
385.13	212.50
385.51	212.45
385.89	212.37
386.27	212.37
386.64	212.37
387.02	212.37
387.40	212.29
387.78	212.18
388.15	212.16
388.53	212.18
388.91	212.16
389.29	212.13
389.66	212.10
390.04	212.10
390.42	212.01
390.79	211.96
391.17	211.92
391.55	211.63
391.92	211.64
392.30	211.60
392.68	211.46
393.05	211.41
393.43	211.45
393.81	211.50
394.18	211.43
394.56	211.45
394.94	211.51
395.31	211.56
395.69	211.72
396.06	211.68
396.44	211.71
396.82	211.78
397.19	211.88
397.57	211.91
397.95	211.91
398.32	211.94
398.70	211.99
399.07	212.09
399.45	212.17
399.82	212.14
400.20	212.17
400.58	212.30
400.95	212.32
401.33	212.35
401.70	212.52
402.08	212.62
402.45	212.70
402.83	212.70
403.20	212.77
403.58	212.78
403.95	212.89
404.33	212.98
404.71	213.05
405.08	213.24
405.46	213.31
405.83	213.45
406.21	213.52
406.58	213.68
406.96	213.87
407.33	214.02
407.70	214.26
408.08	214.56
408.45	214.80
408.83	215.05
409.20	215.31
409.58	215.47
409.95	215.69
410.33	216.00
410.70	216.34
411.08	216.63
411.45	217.03
411.82	217.40
412.20	217.91
412.57	218.46
412.95	218.80
413.32	219.43
413.69	219.99
414.07	220.57
414.44	221.20
414.82	221.77
415.19	222.55
415.56	223.31
415.94	224.01
416.31	224.87
416.68	225.70
417.06	226.68
417.43	227.67
417.81	228.86
418.18	230.01
418.55	231.21
418.93	232.54
419.30	233.80
419.67	235.24
420.04	236.59
420.42	238.07
420.79	239.96
421.16	241.56
421.54	243.33
421.91	245.32
422.28	247.23
422.66	249.26
423.03	251.42
423.40	253.49
423.77	255.81
424.15	258.10
424.52	260.61
424.89	263.14
425.26	265.57
425.64	267.86
426.01	270.35
426.38	273.04
426.75	275.76
427.13	278.71
427.50	281.64
427.87	284.75
428.24	287.88
428.61	290.74
428.99	294.02
429.36	297.59
429.73	301.06
430.10	304.61
430.47	308.20
430.85	311.76
431.22	315.72
431.59	319.80
431.96	323.68
432.33	328.04
432.70	332.29
433.08	337.24
433.45	341.94
433.82	346.57
434.19	351.80
434.56	356.76
434.93	361.53
435.30	366.30
435.68	371.60
436.05	376.71
436.42	381.84
436.79	386.69
437.16	391.87
437.53	397.18
437.90	402.42
438.27	407.67
438.64	413.08
439.01	418.10
439.38	422.50
439.75	426.80
440.13	431.68
440.50	436.25
440.87	440.04
441.24	443.96
441.61	448.20
441.98	451.30
442.35	455.10
442.72	458.71
443.09	462.27
443.46	464.43
443.83	465.93
444.20	467.10
444.57	468.70
444.94	469.41
445.31	470.16
445.68	470.90
446.05	471.05
446.42	470.44
446.79	469.66
447.16	468.82
447.53	468.15
447.90	465.90
448.27	463.76
448.64	460.86
449.01	458.69
449.37	455.10
449.74	451.62
450.11	447.40
450.48	442.94
450.85	438.21
451.22	434.15
451.59	430.36
451.96	426.81
452.33	422.14
452.70	417.74
453.07	412.69
453.43	407.44
453.80	402.49
454.17	397.67
454.54	393.02
454.91	388.09
455.28	383.38
455.65	378.89
456.02	374.49
456.38	370.74
456.75	365.99
457.12	362.16
457.49	358.22
457.86	354.51
458.23	351.28
458.59	347.88
458.96	344.47
459.33	341.28
459.70	338.00
460.07	335.44
460.43	332.55
460.80	329.72
461.17	327.31
461.54	324.75
461.91	322.30
462.27	319.97
462.64	317.93
463.01	315.73
463.38	313.72
463.74	311.53
464.11	309.51
464.48	308.05
464.85	306.21
465.21	304.80
465.58	303.30
465.95	301.54
466.32	300.10
466.68	298.60
467.05	297.18
467.42	295.86
467.78	294.37
468.15	293.04
468.52	292.07
468.88	290.81
469.25	289.68
469.62	288.78
469.98	287.72
470.35	286.88
470.72	286.00
471.08	284.95
471.45	284.16
471.82	283.43
472.18	282.48
472.55	281.89
472.92	281.08
473.28	280.43
473.65	279.78
474.02	279.25
474.38	278.78
474.75	278.37
475.11	277.93
475.48	277.72
475.85	277.46
476.21	277.27
476.58	277.16
476.94	277.06
477.31	277.01
477.67	277.02
478.04	277.03
478.41	277.14
478.77	277.46
479.14	277.61
479.50	277.84
479.87	278.19
480.23	278.55
480.60	278.98
480.96	279.42
481.33	280.12
481.69	280.71
482.06	281.36
482.42	282.03
482.79	282.79
483.15	283.60
483.52	284.54
483.88	285.42
484.25	286.34
484.61	287.49
484.98	288.61
485.34	289.87
485.71	291.15
486.07	292.61
486.44	293.85
486.80	295.41
487.17	296.97
487.53	298.74
487.90	300.48
488.26	302.46
488.62	304.53
488.99	306.43
489.35	308.63
489.72	310.88
490.08	313.31
490.44	315.80
490.81	318.38
491.17	321.10
491.54	324.01
491.90	327.00
492.26	330.26
492.63	333.60
492.99	337.04
493.36	340.74
493.72	344.62
494.08	348.74
494.45	352.98
494.81	357.55
495.17	362.16
495.54	366.97
495.90	372.01
496.26	377.23
496.63	382.85
496.99	388.61
497.35	394.68
497.72	401.02
498.08	407.59
498.44	414.23
498.80	421.38
499.17	428.85
499.53	436.49
499.89	444.50
500.26	452.61
500.62	461.00
500.98	469.74
501.34	478.65
501.71	488.22
502.07	497.90
502.43	508.05
502.79	518.30
503.16	529.14
503.52	539.98
503.88	551.22
504.24	562.85
504.60	574.82
504.97	587.18
505.33	599.67
505.69	612.84
506.05	626.55
506.41	640.14
506.78	653.90
507.14	668.12
507.50	682.62
507.86	697.66
508.22	713.14
508.59	728.67
508.95	744.90
509.31	761.12
509.67	777.85
510.03	794.66
510.39	812.27
510.75	829.98
511.12	848.30
511.48	866.82
511.84	885.54
512.20	904.23
512.56	923.45
512.92	943.08
513.28	962.61
513.64	982.40
514.00	1002.30
514.37	1022.73
514.73	1043.82
515.09	1064.74
515.45	1085.80
515.81	1106.98
516.17	1128.54
516.53	1149.83
516.89	1171.72
517.25	1193.34
517.61	1215.10
517.97	1236.61
518.33	1258.09
518.69	1279.67
519.05	1301.81
519.41	1324.21
519.77	1346.98
520.13	1369.33
520.49	1391.61
520.85	1414.51
521.21	1437.11
521.57	1460.19
521.93	1482.67
522.29	1505.25
522.65	1527.76
523.01	1550.47
523.37	1572.68
523.73	1595.08
524.09	1617.49
524.45	1640.02
524.81	1662.67
525.17	1685.56
525.53	1708.12
525.89	1730.87
526.25	1753.14
526.61	1774.55
526.97	1796.20
527.33	1817.55
527.68	1839.08
528.04	1860.43
528.40	1880.75
528.76	1901.85
529.12	1922.66
529.48	1944.46
529.84	1965.00
530.20	1985.52
530.56	2006.02
530.91	2027.16
531.27	2048.01
531.63	2068.20
531.99	2088.11
532.35	2107.39
532.71	2126.29
533.07	2146.08
533.42	2164.79
533.78	2183.97
534.14	2202.68
534.50	2220.11
534.86	2238.46
535.21	2255.52
535.57	2273.70
535.93	2291.68
536.29	2308.55
536.65	2325.52
537.00	2340.72
537.36	2356.42
537.72	2372.13
538.08	2387.79
538.44	2402.93
538.79	2418.00
539.15	2433.26
539.51	2447.84
539.87	2463.50
540.22	2478.13
540.58	2493.20
540.94	2507.77
541.29	2521.00
541.65	2533.42
542.01	2546.76
542.37	2558.94
542.72	2571.40
543.08	2582.41
543.44	2594.39
543.79	2605.08
544.15	2615.59
544.51	2626.99
544.87	2638.51
545.22	2647.53
545.58	2655.90
545.94	2663.33
546.29	2670.05
546.65	2676.23
547.01	2682.49
547.36	2688.05
547.72	2694.05
548.07	2697.90
548.43	2702.10
548.79	2705.84
549.14	2710.47
549.50	2714.93
549.86	2719.05
550.21	2723.52
550.57	2727.71
550.92	2730.20
551.28	2732.87
551.64	2735.50
551.99	2738.05
552.35	2739.49
552.70	2742.53
553.06	2745.54
553.41	2748.77
553.77	2751.85
554.13	2754.32
554.48	2756.70
554.84	2758.10
555.19	2758.46
555.55	2759.39
555.90	2760.04
556.26	2761.16
556.61	2761.53
556.97	2760.39
557.32	2759.75
557.68	2758.00
558.03	2756.64
558.39	2755.46
558.74	2754.86
559.10	2753.79
559.45	2751.88
559.81	2750.58
560.16	2748.26
560.52	2745.95
560.87	2742.98
561.23	2739.48
561.58	2737.26
561.94	2733.72
562.29	2730.43
562.64	2728.74
563.00	2726.32
563.35	2723.88
563.71	2721.90
564.06	2719.91
564.42	2718.58
564.77	2716.57
565.12	2714.49
565.48	2711.20
565.83	2708.23
566.19	2705.19
566.54	2701.11
566.89	2697.48
567.25	2693.95
567.60	2690.60
567.96	2687.09
568.31	2683.79
568.66	2680.10
569.02	2675.68
569.37	2671.20
569.72	2667.53
570.08	2662.03
570.43	2656.37
570.78	2650.94
571.14	2644.70
571.49	2637.52
571.84	2631.26
572.20	2624.04
572.55	2617.54
572.90	2610.68
573.26	2603.62
573.61	2596.86
573.96	2590.10
574.31	2582.47
574.67	2574.13
575.02	2565.80
575.37	2556.94
575.72	2547.89
576.08	2540.01
576.43	2531.11
576.78	2522.93
577.13	2514.54
577.49	2505.96
577.84	2498.13
578.19	2490.32
578.54	2482.98
578.90	2476.39
579.25	2467.58
579.60	2458.75
579.95	2449.53
580.30	2441.52
580.66	2433.05
581.01	2423.54
581.36	2413.99
581.71	2405.10
582.06	2396.79
582.42	2388.39
582.77	2379.09
583.12	2370.16
583.47	2361.38
583.82	2353.02
584.17	2343.57
584.53	2334.26
584.88	2325.34
585.23	2315.91
585.58	2306.24
585.93	2296.28
586.28	2287.06
586.63	2278.11
586.98	2269.55
587.34	2260.98
587.69	2251.56
588.04	2242.59
588.39	2234.31
588.74	2225.80
589.09	2217.11
589.44	2207.25
589.79	2198.60
590.14	2190.71
590.49	2182.12
590.84	2173.16
591.19	2165.26
591.54	2156.66
591.89	2146.36
592.25	2137.45
592.60	2127.83
592.95	2118.44
593.30	2108.83
593.65	2098.53
594.00	2088.73
594.35	2080.11
594.70	2070.68
595.05	2062.14
595.40	2052.95
595.75	2042.90
596.10	2034.28
596.45	2025.62
596.80	2017.87
597.15	2009.25
597.50	1999.93
597.85	1991.66
598.19	1982.90
598.54	1973.73
598.89	1965.65
599.24	1959.11
599.59	1951.30
599.94	1944.57
600.29	1936.67
600.64	1928.76
600.99	1920.51
601.34	1913.10
601.69	1904.37
602.04	1896.29
602.39	1887.82
602.74	1880.17
603.08	1873.67
603.43	1866.10
603.78	1857.86
604.13	1849.68
604.48	1841.64
604.83	1834.83
605.18	1827.63
605.53	1820.08
605.87	1812.50
606.22	1805.49
606.57	1797.50
606.92	1789.45
607.27	1780.98
607.62	1773.58
607.96	1766.64
608.31	1760.54
608.66	1752.81
609.01	1745.29
609.36	1737.70
609.70	1729.72
610.05	1721.81
610.40	1713.48
610.75	1705.16
611.10	1697.64
611.44	1688.33
611.79	1679.12
612.14	1669.50
612.49	1659.72
612.83	1650.62
613.18	1640.71
613.53	1631.00
613.88	1621.07
614.22	1612.04
614.57	1602.79
614.92	1593.35
615.27	1583.72
615.61	1573.64
615.96	1564.71
616.31	1555.97
616.65	1547.86
617.00	1539.54
617.35	1530.72
617.70	1521.76
618.04	1512.41
618.39	1502.73
618.74	1494.40
619.08	1485.81
619.43	1477.55
619.78	1469.69
620.12	1461.37
620.47	1453.58
620.82	1444.85
621.16	1436.70
621.51	1428.08
621.85	1419.67
622.20	1410.91
622.55	1402.35
622.89	1393.95
623.24	1385.67
623.59	1376.83
623.93	1368.15
624.28	1359.73
624.62	1351.44
624.97	1342.86
625.32	1335.25
625.66	1327.90
626.01	1320.41
626.35	1313.12
626.70	1305.16
627.04	1297.63
627.39	1290.15
627.73	1282.87
628.08	1276.00
628.43	1268.37
628.77	1261.11
629.12	1253.80
629.46	1247.05
629.81	1239.69
630.15	1232.54
630.50	1224.90
630.84	1217.76
631.19	1210.65
631.53	1203.82
631.88	1196.30
632.22	1189.07
632.57	1182.14
632.91	1174.59
633.26	1167.18
633.60	1159.89
633.95	1153.34
634.29	1145.95
634.64	1139.09
634.98	1131.74
635.32	1124.67
635.67	1118.48
636.01	1111.60
636.36	1104.58
636.70	1098.07
637.05	1091.62
637.39	1085.03
637.73	1078.79
638.08	1072.73
638.42	1066.65
638.77	1060.13
639.11	1053.83
639.45	1047.58
639.80	1040.84
640.14	1034.47
640.49	1028.02
640.83	1021.79
641.17	1015.20
641.52	1008.97
641.86	1002.37
642.20	996.03
642.55	989.21
642.89	982.19
643.23	975.70
643.58	969.85
643.92	963.17
644.26	956.69
644.61	950.54
644.95	944.37
645.29	938.02
645.64	931.19
645.98	924.81
646.32	918.70
646.66	912.32
647.01	906.27
647.35	900.37
647.69	894.17
648.04	888.12
648.38	881.99
648.72	875.88
649.06	869.80
649.41	863.66
649.75	857.83
650.09	852.11
650.43	846.24
650.78	839.95
651.12	833.97
651.46	828.40
651.80	822.28
652.14	816.36
652.49	810.52
652.83	804.75
653.17	798.66
653.51	792.80
653.85	787.28
654.20	781.31
654.54	775.36
654.88	769.87
655.22	764.00
655.56	758.18
655.90	752.25
656.25	746.54
656.59	741.00
656.93	735.71
657.27	730.55
657.61	725.21
657.95	719.88
658.29	714.71
658.64	709.50
658.98	704.30
659.32	698.92
659.66	693.69
660.00	688.28
660.34	683.24
660.68	678.15
661.02	673.12
661.36	668.45
661.70	663.79
662.05	658.99
662.39	654.48
662.73	650.03
663.07	645.84
663.41	641.41
663.75	636.84
664.09	632.13
664.43	627.42
664.77	622.89
665.11	618.52
665.45	614.01
665.79	609.50
666.13	605.13
666.47	600.78
666.81	596.57
667.15	592.50
667.49	588.52
667.83	584.46
668.17	580.51
668.51	576.44
668.85	572.61
669.19	568.97
669.53	564.89
669.87	560.77
670.21	556.72
670.55	552.70
670.89	549.31
671.23	545.92
671.57	542.30
671.91	538.82
672.25	535.13
672.58	531.70
672.92	528.18
673.26	525.06
673.60	521.93
673.94	518.49
674.28	515.05
674.62	511.75
674.96	508.58
675.30	505.58
675.64	502.35
675.97	499.03
676.31	495.88
676.65	493.01
676.99	490.33
677.33	487.24
677.67	484.45
678.01	481.33
678.34	478.26
678.68	475.43
679.02	472.43
679.36	469.65
679.70	466.79
680.04	464.00
680.37	460.90
680.71	458.13
681.05	455.41
681.39	452.78
681.73	450.08
682.06	447.46
682.40	444.68
682.74	442.12
683.08	439.62
683.42	436.88
683.75	434.35
684.09	431.75
684.43	429.47
684.77	426.82
685.10	424.25
685.44	421.76
685.78	419.14
686.12	416.75
686.45	414.44
686.79	412.09
687.13	409.84
687.46	407.75
687.80	405.45
688.14	403.27
688.48	401.15
688.81	398.87
689.15	396.59
689.49	394.41
689.82	392.19
690.16	389.75
690.50	387.38
690.83	385.05
691.17	382.90
691.51	380.58
691.84	378.41
692.18	376.38
692.52	374.44
692.85	372.62
693.19	370.73
693.52	368.75
693.86	366.80
694.20	364.92
694.53	362.95
694.87	360.87
695.21	358.90
695.54	357.02
695.88	355.04
696.21	353.22
696.55	351.46
696.88	349.71
697.22	348.06
697.56	346.62
697.89	344.95
698.23	343.20
698.56	341.60
698.90	340.19
699.23	338.56
699.57	336.88
699.90	335.12
700.24	333.49
700.58	331.83
700.91	330.20
701.25	328.78
701.58	327.42
701.92	326.04
702.25	324.71
702.59	323.30
702.92	322.01
703.26	320.75
703.59	319.40
703.93	318.28
704.26	317.02
704.60	315.65
704.93	314.37
705.26	313.15
705.60	311.94
705.93	310.62
706.27	309.52
706.60	308.46
706.94	307.46
707.27	306.20
707.61	305.07
707.94	303.90
708.27	302.54
708.61	301.22
708.94	300.12
709.28	298.91
709.61	297.77
709.94	296.76
710.28	295.66
710.61	294.55
710.95	293.40
711.28	292.41
711.61	291.43
711.95	290.44
712.28	289.41
712.61	288.41
712.95	287.54
713.28	286.51
713.61	285.46
713.95	284.44
714.28	283.68
714.61	282.70
714.95	281.86
715.28	280.98
715.61	280.11
715.95	279.18
716.28	278.24
716.61	277.36
716.95	276.46
717.28	275.61
717.61	274.82
717.94	273.95
718.28	273.20
718.61	272.35
718.94	271.60
719.27	270.95
719.61	270.23
719.94	269.47
720.27	268.73
720.60	268.05
720.94	267.43
721.27	266.65
721.60	266.07
721.93	265.50
722.27	264.89
722.60	264.30
722.93	263.76
723.26	263.25
723.59	262.68
723.93	262.13
724.26	261.58
724.59	260.98
724.92	260.39
725.25	259.83
725.59	259.29
725.92	258.82
726.25	258.18
726.58	257.58
726.91	257.04
727.24	256.57
727.57	256.01
727.91	255.46
728.24	255.03
728.57	254.53
728.90	254.00
729.23	253.52
729.56	253.14
729.89	252.57
730.22	252.13
730.55	251.63
730.89	251.11
731.22	250.62
731.55	250.14
731.88	249.75
732.21	249.21
732.54	248.75
732.87	248.23
733.20	247.94
733.53	247.55
733.86	247.09
734.19	246.55
734.52	246.17
734.85	245.87
735.18	245.45
735.51	245.17
735.84	244.79
736.17	244.46
736.50	243.95
736.83	243.79
737.16	243.37
737.49	243.12
737.82	242.77
738.15	242.39
738.48	242.10
738.81	241.72
739.14	241.35
739.47	241.02
739.80	240.69
740.13	240.19
740.46	239.79
740.79	239.51
741.12	239.25
741.45	238.98
741.78	238.51
742.11	238.23
742.44	237.79
742.77	237.49
743.10	237.12
743.43	236.84
743.75	236.39
744.08	236.35
744.41	235.99
744.74	235.68
745.07	235.37
745.40	235.01
745.73	234.79
746.06	234.61
746.39	234.36
746.71	234.08
747.04	233.78
747.37	233.59
747.70	233.29
748.03	233.07
748.36	232.77
748.68	232.52
749.01	232.17
749.34	231.96
749.67	231.69
750.00	231.52
750.33	231.39
750.65	231.16
750.98	230.65
751.31	230.39
751.64	230.16
751.97	230.10
752.29	229.85
752.62	229.57
752.95	229.30
753.28	229.02
753.60	228.75
753.93	228.65
754.26	228.40
754.59	228.20
754.91	227.96
755.24	227.69
755.57	227.51
755.90	227.30
756.22	227.16
756.55	226.93
756.88	226.69
757.20	226.36
757.53	225.99
757.86	225.80
758.19	225.56
758.51	225.37
758.84	225.02
759.17	224.95
759.49	224.74
759.82	224.65
760.15	224.50
760.47	224.39
760.80	224.20
761.13	224.06
761.45	223.88
761.78	223.64
762.11	223.60
762.43	223.44
762.76	223.32
763.08	223.15
763.41	223.05
763.74	222.83
764.06	222.71
764.39	222.70
764.71	222.58
765.04	222.49
765.37	222.29
765.69	222.16
766.02	221.90
766.34	221.81
766.67	221.63
767.00	221.53
767.32	221.48
767.65	221.38
767.97	221.25
768.30	221.11
768.62	221.04
768.95	220.80
769.27	220.70
769.60	220.71
769.92	220.55
770.25	220.37
770.57	220.29
770.90	220.15
771.22	219.97
771.55	219.82
771.87	219.69
772.20	219.58
772.52	219.58
772.85	219.70
773.17	219.52
773.50	219.37
773.82	219.27
774.15	219.12
774.47	218.96
774.80	218.79
775.12	218.66
775.45	218.58
775.77	218.53
776.09	218.45
776.42	218.22
776.74	218.15
777.07	218.05
777.39	218.02
777.72	217.95
778.04	217.95
778.36	217.82
778.69	217.75
779.01	217.79
779.33	217.60
779.66	217.35
779.98	217.34
780.31	217.31
780.63	217.29
780.95	217.20
781.28	217.15
781.60	217.08
781.92	217.07
782.25	216.93
782.57	216.90
782.89	216.79
783.22	216.71
783.54	216.59
783.86	216.59
784.19	216.48
784.51	216.48
784.83	216.41
785.16	216.41
785.48	216.43
785.80	216.30
786.12	216.26
786.45	216.18
