SpectraSuite Data File
++++++++++++++++++++++++++++++++++++
Date: Mon Feb 25 17:31:10 EST 2013
User: group
Dark Spectrum Present: No
Reference Spectrum Present: No
Number of Sampled Component Spectra: 1
Spectrometers: USB2E7196
Integration Time (usec): 52000 (USB2E7196)
Spectra Averaged: 20 (USB2E7196)
Boxcar Smoothing: 10 (USB2E7196)
Correct for Electrical Dark: No (USB2E7196)
Strobe/Lamp Enabled: No (USB2E7196)
Correct for Detector Non-linearity: No (USB2E7196)
Correct for Stray Light: No (USB2E7196)
Number of Pixels in Processed Spectrum: 2048
>>>>>Begin Processed Spectral Data<<<<<
339.09	0.00
339.48	200.00
339.86	200.15
340.24	202.40
340.63	203.50
341.01	206.85
341.39	206.80
341.78	209.55
342.16	209.10
342.54	208.45
342.93	198.46
343.31	208.50
343.69	209.00
344.07	209.48
344.46	209.89
344.84	210.21
345.22	210.43
345.60	210.62
345.99	210.72
346.37	210.85
346.75	211.02
347.13	211.06
347.52	211.15
347.90	211.23
348.28	211.25
348.66	211.30
349.05	211.29
349.43	211.35
349.81	211.45
350.19	211.49
350.57	211.59
350.96	211.64
351.34	211.70
351.72	211.75
352.10	211.82
352.48	211.91
352.87	212.06
353.25	212.10
353.63	212.17
354.01	212.13
354.39	212.20
354.77	212.27
355.15	212.32
355.54	212.34
355.92	212.31
356.30	212.37
356.68	212.58
357.06	212.63
357.44	212.59
357.82	212.63
358.20	212.66
358.58	212.73
358.97	212.85
359.35	212.94
359.73	212.99
360.11	213.03
360.49	213.03
360.87	213.00
361.25	213.04
361.63	213.16
362.01	213.34
362.39	213.38
362.77	213.40
363.15	213.38
363.53	213.40
363.91	213.45
364.29	213.50
364.67	213.33
365.05	213.38
365.43	213.47
365.81	213.47
366.19	213.61
366.57	213.62
366.95	213.62
367.33	213.60
367.71	213.68
368.09	213.73
368.47	213.78
368.85	213.83
369.23	213.84
369.61	213.72
369.99	213.67
370.37	213.65
370.75	213.71
371.13	213.71
371.51	213.73
371.89	213.73
372.27	213.72
372.65	213.74
373.03	213.66
373.41	213.62
373.78	213.58
374.16	213.44
374.54	213.39
374.92	213.29
375.30	213.18
375.68	213.09
376.06	213.01
376.44	212.90
376.82	212.83
377.19	212.83
377.57	212.71
377.95	212.63
378.33	212.57
378.71	212.39
379.09	212.32
379.47	212.26
379.84	212.23
380.22	212.16
380.60	212.08
380.98	212.02
381.36	211.95
381.73	211.87
382.11	211.87
382.49	211.79
382.87	211.75
383.25	211.70
383.62	211.89
384.00	211.91
384.38	211.93
384.76	211.96
385.13	211.95
385.51	212.08
385.89	212.03
386.27	211.99
386.64	212.03
387.02	212.02
387.40	212.00
387.78	211.96
388.15	211.96
388.53	211.98
388.91	211.94
389.29	211.94
389.66	211.98
390.04	211.93
390.42	211.94
390.79	211.91
391.17	212.00
391.55	211.74
391.92	211.67
392.30	211.66
392.68	211.54
393.05	211.48
393.43	211.44
393.81	211.45
394.18	211.43
394.56	211.42
394.94	211.53
395.31	211.54
395.69	211.52
396.06	211.50
396.44	211.49
396.82	211.52
397.19	211.62
397.57	211.63
397.95	211.68
398.32	211.70
398.70	211.78
399.07	211.76
399.45	211.83
399.82	211.85
400.20	211.84
400.58	211.90
400.95	211.88
401.33	212.00
401.70	212.16
402.08	212.26
402.45	212.33
402.83	212.38
403.20	212.49
403.58	212.55
403.95	212.73
404.33	212.85
404.71	212.94
405.08	213.12
405.46	213.23
405.83	213.36
406.21	213.51
406.58	213.66
406.96	213.83
407.33	213.92
407.70	214.16
408.08	214.52
408.45	214.78
408.83	215.04
409.20	215.22
409.58	215.37
409.95	215.62
410.33	215.95
410.70	216.17
411.08	216.50
411.45	216.86
411.82	217.17
412.20	217.60
412.57	218.12
412.95	218.47
413.32	218.96
413.69	219.51
414.07	220.00
414.44	220.60
414.82	221.22
415.19	222.01
415.56	222.74
415.94	223.49
416.31	224.30
416.68	225.16
417.06	226.11
417.43	227.14
417.81	228.20
418.18	229.23
418.55	230.44
418.93	231.63
419.30	232.95
419.67	234.31
420.04	235.66
420.42	237.05
420.79	238.75
421.16	240.44
421.54	242.20
421.91	244.09
422.28	245.98
422.66	247.99
423.03	250.00
423.40	252.05
423.77	254.18
424.15	256.49
424.52	258.77
424.89	261.36
425.26	263.73
425.64	266.01
426.01	268.58
426.38	271.21
426.75	273.95
427.13	276.73
427.50	279.60
427.87	282.62
428.24	285.68
428.61	288.51
428.99	291.78
429.36	295.17
429.73	298.61
430.10	302.02
430.47	305.51
430.85	309.07
431.22	313.02
431.59	317.08
431.96	320.83
432.33	325.24
432.70	329.38
433.08	334.26
433.45	338.76
433.82	343.30
434.19	348.37
434.56	353.28
434.93	358.03
435.30	362.77
435.68	367.94
436.05	373.12
436.42	378.17
436.79	382.87
437.16	387.80
437.53	392.93
437.90	398.08
438.27	403.28
438.64	408.59
439.01	413.35
439.38	417.57
439.75	421.73
440.13	426.50
440.50	430.84
440.87	434.37
441.24	438.27
441.61	442.43
441.98	445.53
442.35	449.10
442.72	452.62
443.09	456.06
443.46	458.19
443.83	459.50
444.20	460.63
444.57	462.20
444.94	463.00
445.31	463.73
445.68	464.44
446.05	464.56
446.42	463.94
446.79	463.13
447.16	462.46
447.53	461.87
447.90	459.78
448.27	457.75
448.64	454.98
449.01	452.85
449.37	449.24
449.74	445.74
450.11	441.64
450.48	437.13
450.85	432.60
451.22	428.79
451.59	425.16
451.96	421.76
452.33	417.12
452.70	412.84
453.07	407.89
453.43	402.86
453.80	398.01
454.17	393.32
454.54	388.81
454.91	383.95
455.28	379.41
455.65	374.99
456.02	370.69
456.38	367.02
456.75	362.46
457.12	358.70
457.49	354.85
457.86	351.16
458.23	348.20
458.59	344.76
458.96	341.19
459.33	338.09
459.70	334.98
460.07	332.39
460.43	329.65
460.80	327.03
461.17	324.73
461.54	322.20
461.91	319.79
462.27	317.55
462.64	315.65
463.01	313.44
463.38	311.45
463.74	309.37
464.11	307.50
464.48	305.91
464.85	304.20
465.21	302.89
465.58	301.62
465.95	299.86
466.32	298.52
466.68	297.16
467.05	295.75
467.42	294.37
467.78	293.01
468.15	291.64
468.52	290.62
468.88	289.27
469.25	288.18
469.62	287.30
469.98	286.28
470.35	285.27
470.72	284.37
471.08	283.35
471.45	282.52
471.82	281.68
472.18	280.87
472.55	280.21
472.92	279.54
473.28	278.87
473.65	278.28
474.02	277.68
474.38	277.23
474.75	276.85
475.11	276.43
475.48	276.27
475.85	276.13
476.21	275.99
476.58	275.85
476.94	275.85
477.31	275.74
477.67	275.77
478.04	275.87
478.41	276.12
478.77	276.42
479.14	276.57
479.50	276.97
479.87	277.22
480.23	277.69
480.60	278.18
480.96	278.58
481.33	279.31
481.69	280.00
482.06	280.52
482.42	281.18
482.79	281.95
483.15	282.79
483.52	283.64
483.88	284.60
484.25	285.60
484.61	286.65
484.98	287.74
485.34	289.10
485.71	290.42
486.07	291.72
486.44	293.05
486.80	294.66
487.17	296.18
487.53	298.08
487.90	299.82
488.26	301.59
488.62	303.61
488.99	305.48
489.35	307.56
489.72	309.89
490.08	312.33
490.44	314.82
490.81	317.47
491.17	320.24
491.54	323.10
491.90	326.11
492.26	329.26
492.63	332.75
492.99	336.05
493.36	339.78
493.72	343.68
494.08	347.79
494.45	352.00
494.81	356.60
495.17	361.21
495.54	366.01
495.90	371.15
496.26	376.46
496.63	382.05
496.99	387.71
497.35	393.69
497.72	399.97
498.08	406.51
498.44	413.18
498.80	420.36
499.17	427.65
499.53	435.35
499.89	443.33
500.26	451.33
500.62	459.68
500.98	468.42
501.34	477.50
501.71	486.93
502.07	496.49
502.43	506.40
502.79	516.44
503.16	527.10
503.52	538.01
503.88	549.13
504.24	560.61
504.60	572.47
504.97	584.71
505.33	597.20
505.69	610.33
506.05	623.79
506.41	637.18
506.78	651.00
507.14	665.04
507.50	679.48
507.86	694.31
508.22	709.56
508.59	724.86
508.95	740.74
509.31	756.59
509.67	773.08
510.03	789.82
510.39	807.20
510.75	824.81
511.12	842.51
511.48	860.58
511.84	879.11
512.20	897.43
512.56	916.48
512.92	935.82
513.28	955.21
513.64	974.65
514.00	994.55
514.37	1014.45
514.73	1034.96
515.09	1055.60
515.45	1076.32
515.81	1097.17
516.17	1118.40
516.53	1139.48
516.89	1160.86
517.25	1182.24
517.61	1203.62
517.97	1224.97
518.33	1246.24
518.69	1268.07
519.05	1289.79
519.41	1311.75
519.77	1334.42
520.13	1355.99
520.49	1377.59
520.85	1399.77
521.21	1422.06
521.57	1444.36
521.93	1466.42
522.29	1489.06
522.65	1511.31
523.01	1533.45
523.37	1555.01
523.73	1577.01
524.09	1598.96
524.45	1621.09
524.81	1643.39
525.17	1665.55
525.53	1687.91
525.89	1710.10
526.25	1731.49
526.61	1752.92
526.97	1774.22
527.33	1794.97
527.68	1816.16
528.04	1837.21
528.40	1857.10
528.76	1877.34
529.12	1897.60
529.48	1919.10
529.84	1938.90
530.20	1958.69
530.56	1978.71
530.91	1999.33
531.27	2019.15
531.63	2038.77
531.99	2058.10
532.35	2076.80
532.71	2095.44
533.07	2114.14
533.42	2132.11
533.78	2150.55
534.14	2168.41
534.50	2185.30
534.86	2203.15
535.21	2220.19
535.57	2237.65
535.93	2254.84
536.29	2271.42
536.65	2288.18
537.00	2303.11
537.36	2318.05
537.72	2332.94
538.08	2348.00
538.44	2362.84
538.79	2378.00
539.15	2392.59
539.51	2406.96
539.87	2421.55
540.22	2435.63
540.58	2450.08
540.94	2464.22
541.29	2477.44
541.65	2489.54
542.01	2502.52
542.37	2513.97
542.72	2525.61
543.08	2535.98
543.44	2547.25
543.79	2557.16
544.15	2566.68
544.51	2577.48
544.87	2588.19
545.22	2597.28
545.58	2605.45
545.94	2612.70
546.29	2618.94
546.65	2624.70
547.01	2630.33
547.36	2635.80
547.72	2640.90
548.07	2644.61
548.43	2648.16
548.79	2651.48
549.14	2655.66
549.50	2659.36
549.86	2663.03
550.21	2666.83
550.57	2670.85
550.92	2673.45
551.28	2675.78
551.64	2678.39
551.99	2680.34
552.35	2681.84
552.70	2684.48
553.06	2686.85
553.41	2689.42
553.77	2691.87
554.13	2693.94
554.48	2696.10
554.84	2697.30
555.19	2698.01
555.55	2698.15
555.90	2698.60
556.26	2699.07
556.61	2699.00
556.97	2697.83
557.32	2697.26
557.68	2695.52
558.03	2693.65
558.39	2691.99
558.74	2691.16
559.10	2689.82
559.45	2687.54
559.81	2686.12
560.16	2683.03
560.52	2680.61
560.87	2677.80
561.23	2673.88
561.58	2671.72
561.94	2668.34
562.29	2664.61
562.64	2662.08
563.00	2659.82
563.35	2657.26
563.71	2654.90
564.06	2652.45
564.42	2650.29
564.77	2647.86
565.12	2645.99
565.48	2642.66
565.83	2639.64
566.19	2636.53
566.54	2632.03
566.89	2628.21
567.25	2624.52
567.60	2621.45
567.96	2617.80
568.31	2614.14
568.66	2610.47
569.02	2605.59
569.37	2600.44
569.72	2596.69
570.08	2591.44
570.43	2585.96
570.78	2580.27
571.14	2574.06
571.49	2567.69
571.84	2561.72
572.20	2554.66
572.55	2547.82
572.90	2541.67
573.26	2534.70
573.61	2527.59
573.96	2521.42
574.31	2513.66
574.67	2505.48
575.02	2496.88
575.37	2488.53
575.72	2479.69
576.08	2472.06
576.43	2463.77
576.78	2456.13
577.13	2448.14
577.49	2440.08
577.84	2432.36
578.19	2425.14
578.54	2418.00
578.90	2410.78
579.25	2402.43
579.60	2393.90
579.95	2384.65
580.30	2376.54
580.66	2368.49
581.01	2359.66
581.36	2350.16
581.71	2341.95
582.06	2333.49
582.42	2325.85
582.77	2316.68
583.12	2308.03
583.47	2299.34
583.82	2290.97
584.17	2281.87
584.53	2272.82
584.88	2264.12
585.23	2255.28
585.58	2245.73
585.93	2236.11
586.28	2227.48
586.63	2218.72
586.98	2210.74
587.34	2202.95
587.69	2193.94
588.04	2185.08
588.39	2176.91
588.74	2168.26
589.09	2159.85
589.44	2150.47
589.79	2141.70
590.14	2134.07
590.49	2125.93
590.84	2117.30
591.19	2109.35
591.54	2100.90
591.89	2091.26
592.25	2082.52
592.60	2072.96
592.95	2063.92
593.30	2054.66
593.65	2044.85
594.00	2035.61
594.35	2027.12
594.70	2018.05
595.05	2009.69
595.40	2001.11
595.75	1992.04
596.10	1984.13
596.45	1975.74
596.80	1968.35
597.15	1960.25
597.50	1951.21
597.85	1942.56
598.19	1934.07
598.54	1925.57
598.89	1918.07
599.24	1911.51
599.59	1904.06
599.94	1897.20
600.29	1889.49
600.64	1881.78
600.99	1873.76
601.34	1866.76
601.69	1857.94
602.04	1849.96
602.39	1841.66
602.74	1833.87
603.08	1827.19
603.43	1820.21
603.78	1812.35
604.13	1804.45
604.48	1796.74
604.83	1789.95
605.18	1783.18
605.53	1775.91
605.87	1768.54
606.22	1761.60
606.57	1753.86
606.92	1745.89
607.27	1738.19
607.62	1731.06
607.96	1724.55
608.31	1718.48
608.66	1710.72
609.01	1703.45
609.36	1695.96
609.70	1688.37
610.05	1680.89
610.40	1672.97
610.75	1664.27
611.10	1656.70
611.44	1647.59
611.79	1638.57
612.14	1629.43
612.49	1620.07
612.83	1611.29
613.18	1601.60
613.53	1592.10
613.88	1582.32
614.22	1573.79
614.57	1564.57
614.92	1555.23
615.27	1545.82
615.61	1535.99
615.96	1527.30
616.31	1519.15
616.65	1511.33
617.00	1503.25
617.35	1494.60
617.70	1485.77
618.04	1477.19
618.39	1468.13
618.74	1459.99
619.08	1451.65
619.43	1443.75
619.78	1436.19
620.12	1428.39
620.47	1420.93
620.82	1412.69
621.16	1404.69
621.51	1396.20
621.85	1388.18
622.20	1379.97
622.55	1371.81
622.89	1363.93
623.24	1355.83
623.59	1347.26
623.93	1338.58
624.28	1330.34
624.62	1322.50
624.97	1314.56
625.32	1306.91
625.66	1299.77
626.01	1292.78
626.35	1285.86
626.70	1278.23
627.04	1270.86
627.39	1263.26
627.73	1255.79
628.08	1248.94
628.43	1241.91
628.77	1234.76
629.12	1227.32
629.46	1220.80
629.81	1213.71
630.15	1206.62
630.50	1199.46
630.84	1192.38
631.19	1185.52
631.53	1178.94
631.88	1171.41
632.22	1163.68
632.57	1156.65
632.91	1149.35
633.26	1141.78
633.60	1134.52
633.95	1127.80
634.29	1120.70
634.64	1114.27
634.98	1107.52
635.32	1100.65
635.67	1094.24
636.01	1087.63
636.36	1081.09
636.70	1074.71
637.05	1068.19
637.39	1061.88
637.73	1055.57
638.08	1049.79
638.42	1043.85
638.77	1037.28
639.11	1031.13
639.45	1025.42
639.80	1019.22
640.14	1012.77
640.49	1006.72
640.83	1000.61
641.17	994.35
641.52	988.07
641.86	981.58
642.20	975.40
642.55	968.80
642.89	962.33
643.23	956.14
643.58	950.41
643.92	943.89
644.26	937.82
644.61	931.79
644.95	925.89
645.29	919.65
645.64	913.49
645.98	907.48
646.32	901.63
646.66	895.45
647.01	889.46
647.35	883.76
647.69	877.72
648.04	872.00
648.38	866.15
648.72	860.36
649.06	854.53
649.41	848.67
649.75	842.78
650.09	837.09
650.43	831.32
650.78	825.23
651.12	819.24
651.46	813.57
651.80	807.60
652.14	801.66
652.49	795.86
652.83	789.83
653.17	783.79
653.51	778.16
653.85	772.57
654.20	766.71
654.54	761.05
654.88	755.78
655.22	749.87
655.56	743.98
655.90	738.31
656.25	732.70
656.59	727.23
656.93	722.28
657.27	717.20
657.61	711.82
657.95	706.64
658.29	701.71
658.64	696.59
658.98	691.59
659.32	686.17
659.66	681.06
660.00	675.83
660.34	670.72
660.68	665.52
661.02	660.55
661.36	656.04
661.70	651.21
662.05	646.30
662.39	641.97
662.73	637.65
663.07	633.45
663.41	629.07
663.75	624.65
664.09	619.81
664.43	615.13
664.77	610.89
665.11	606.53
665.45	602.09
665.79	597.69
666.13	593.38
666.47	589.48
666.81	585.48
667.15	581.72
667.49	578.03
667.83	574.24
668.17	570.47
668.51	566.61
668.85	562.99
669.19	559.48
669.53	555.55
669.87	551.66
670.21	547.73
670.55	543.90
670.89	540.43
671.23	537.30
671.57	533.96
671.91	530.41
672.25	526.82
672.58	523.52
672.92	520.10
673.26	516.93
673.60	513.73
673.94	510.31
674.28	506.99
674.62	503.92
674.96	500.89
675.30	497.82
675.64	494.75
675.97	491.59
676.31	488.59
676.65	485.79
676.99	483.27
677.33	480.34
677.67	477.52
678.01	474.41
678.34	471.37
678.68	468.47
679.02	465.60
679.36	462.98
679.70	460.07
680.04	457.34
680.37	454.41
680.71	451.56
681.05	448.95
681.39	446.23
681.73	443.52
682.06	440.97
682.40	438.42
682.74	435.71
683.08	433.29
683.42	430.59
683.75	428.06
684.09	425.41
684.43	423.15
684.77	420.60
685.10	418.20
685.44	415.74
685.78	413.25
686.12	410.91
686.45	408.51
686.79	406.27
687.13	404.18
687.46	402.10
687.80	400.01
688.14	397.82
688.48	395.72
688.81	393.51
689.15	391.27
689.49	389.17
689.82	387.10
690.16	384.71
690.50	382.50
690.83	380.23
691.17	378.01
691.51	375.72
691.84	373.65
692.18	371.67
692.52	369.77
692.85	368.00
693.19	366.18
693.52	364.39
693.86	362.52
694.20	360.64
694.53	358.74
694.87	356.82
695.21	354.97
695.54	353.18
695.88	351.35
696.21	349.51
696.55	347.79
696.88	346.05
697.22	344.44
697.56	342.94
697.89	341.42
698.23	339.80
698.56	338.25
698.90	336.81
699.23	335.27
699.57	333.68
699.90	331.98
700.24	330.36
700.58	328.72
700.91	327.28
701.25	325.89
701.58	324.44
701.92	323.01
702.25	321.61
702.59	320.25
702.92	318.86
703.26	317.54
703.59	316.27
703.93	315.23
704.26	314.03
704.60	312.78
704.93	311.59
705.26	310.34
705.60	309.15
705.93	307.89
706.27	306.75
706.60	305.72
706.94	304.70
707.27	303.62
707.61	302.53
707.94	301.42
708.27	300.19
708.61	299.07
708.94	297.95
709.28	296.90
709.61	295.80
709.94	294.80
710.28	293.71
710.61	292.60
710.95	291.37
711.28	290.45
711.61	289.43
711.95	288.46
712.28	287.58
712.61	286.63
712.95	285.75
713.28	284.83
713.61	283.73
713.95	282.72
714.28	281.82
714.61	280.90
714.95	279.98
715.28	279.06
715.61	278.18
715.95	277.35
716.28	276.45
716.61	275.60
716.95	274.73
717.28	273.92
717.61	273.13
717.94	272.39
718.28	271.53
718.61	270.79
718.94	269.95
719.27	269.16
719.61	268.44
719.94	267.70
720.27	266.86
720.60	266.26
720.94	265.61
721.27	264.98
721.60	264.43
721.93	263.80
722.27	263.23
722.60	262.69
722.93	262.13
723.26	261.54
723.59	260.95
723.93	260.43
724.26	259.94
724.59	259.35
724.92	258.74
725.25	258.13
725.59	257.56
725.92	257.13
726.25	256.64
726.58	256.07
726.91	255.62
727.24	255.21
727.57	254.70
727.91	254.19
728.24	253.68
728.57	253.12
728.90	252.68
729.23	252.14
729.56	251.71
729.89	251.19
730.22	250.75
730.55	250.23
730.89	249.78
731.22	249.29
731.55	248.91
731.88	248.50
732.21	248.07
732.54	247.55
732.87	247.06
733.20	246.65
733.53	246.26
733.86	245.78
734.19	245.38
734.52	245.01
734.85	244.77
735.18	244.40
735.51	244.10
735.84	243.70
736.17	243.42
736.50	242.96
736.83	242.80
737.16	242.41
737.49	242.10
737.82	241.77
738.15	241.40
738.48	241.01
738.81	240.68
739.14	240.31
739.47	240.10
739.80	239.81
740.13	239.45
740.46	239.06
740.79	238.77
741.12	238.36
741.45	238.03
741.78	237.55
742.11	237.20
742.44	236.86
742.77	236.64
743.10	236.26
743.43	235.98
743.75	235.50
744.08	235.45
744.41	235.25
744.74	234.93
745.07	234.68
745.40	234.41
745.73	234.21
746.06	234.02
746.39	233.72
746.71	233.39
747.04	233.12
747.37	232.92
747.70	232.69
748.03	232.49
748.36	232.27
748.68	232.06
749.01	231.81
749.34	231.51
749.67	231.20
750.00	231.00
750.33	230.85
750.65	230.59
750.98	230.10
751.31	229.85
751.64	229.62
751.97	229.50
752.29	229.30
752.62	229.01
752.95	228.70
753.28	228.51
753.60	228.38
753.93	228.20
754.26	228.03
754.59	227.81
754.91	227.61
755.24	227.41
755.57	227.19
755.90	227.01
756.22	226.83
756.55	226.63
756.88	226.43
757.20	226.17
757.53	226.03
757.86	225.90
758.19	225.72
758.51	225.57
758.84	225.31
759.17	225.10
759.49	224.95
759.82	224.90
760.15	224.68
760.47	224.45
760.80	224.26
761.13	224.09
761.45	223.85
761.78	223.73
762.11	223.56
762.43	223.45
762.76	223.25
763.08	223.20
763.41	223.02
763.74	222.94
764.06	222.72
764.39	222.59
764.71	222.35
765.04	222.21
765.37	222.00
765.69	221.80
766.02	221.73
766.34	221.55
766.67	221.36
767.00	221.26
767.32	221.26
767.65	221.24
767.97	221.09
768.30	221.00
768.62	220.85
768.95	220.75
769.27	220.62
769.60	220.60
769.92	220.41
770.25	220.34
770.57	220.11
770.90	220.02
771.22	219.89
771.55	219.83
771.87	219.65
772.20	219.58
772.52	219.65
772.85	219.76
773.17	219.68
773.50	219.53
773.82	219.37
774.15	219.11
774.47	218.94
774.80	218.82
775.12	218.75
775.45	218.62
775.77	218.52
776.09	218.45
776.42	218.28
776.74	218.29
777.07	218.11
777.39	218.07
777.72	218.02
778.04	218.00
778.36	217.90
778.69	217.92
779.01	217.87
779.33	217.69
779.66	217.40
779.98	217.31
780.31	217.26
780.63	217.30
780.95	217.30
781.28	217.18
781.60	217.08
781.92	216.96
782.25	216.97
782.57	216.87
782.89	216.82
783.22	216.76
783.54	216.63
783.86	216.70
784.19	216.63
784.51	216.60
784.83	216.51
785.16	216.51
785.48	216.40
785.80	216.34
786.12	216.29
786.45	216.21
