SpectraSuite Data File
++++++++++++++++++++++++++++++++++++
Date: Mon Feb 25 17:36:21 EST 2013
User: group
Dark Spectrum Present: No
Reference Spectrum Present: No
Number of Sampled Component Spectra: 1
Spectrometers: USB2E7196
Integration Time (usec): 52000 (USB2E7196)
Spectra Averaged: 20 (USB2E7196)
Boxcar Smoothing: 10 (USB2E7196)
Correct for Electrical Dark: No (USB2E7196)
Strobe/Lamp Enabled: No (USB2E7196)
Correct for Detector Non-linearity: No (USB2E7196)
Correct for Stray Light: No (USB2E7196)
Number of Pixels in Processed Spectrum: 2048
>>>>>Begin Processed Spectral Data<<<<<
339.09	0.00
339.48	198.90
339.86	200.45
340.24	200.95
340.63	203.20
341.01	206.65
341.39	205.55
341.78	206.95
342.16	208.05
342.54	209.85
342.93	198.20
343.31	208.21
343.69	208.75
344.07	209.24
344.46	209.71
344.84	210.22
345.22	210.52
345.60	210.85
345.99	211.15
346.37	211.39
346.75	211.54
347.13	211.64
347.52	211.83
347.90	212.05
348.28	212.23
348.66	212.31
349.05	212.36
349.43	212.55
349.81	212.71
350.19	212.87
350.57	213.04
350.96	213.25
351.34	213.42
351.72	213.62
352.10	213.83
352.48	214.06
352.87	214.13
353.25	214.30
353.63	214.41
354.01	214.47
354.39	214.59
354.77	214.66
355.15	214.76
355.54	214.79
355.92	214.86
356.30	214.97
356.68	215.15
357.06	215.31
357.44	215.33
357.82	215.38
358.20	215.52
358.58	215.65
358.97	215.70
359.35	215.85
359.73	215.99
360.11	216.05
360.49	216.04
360.87	216.02
361.25	216.06
361.63	216.22
362.01	216.35
362.39	216.32
362.77	216.44
363.15	216.50
363.53	216.55
363.91	216.53
364.29	216.52
364.67	216.38
365.05	216.37
365.43	216.40
365.81	216.44
366.19	216.44
366.57	216.42
366.95	216.46
367.33	216.32
367.71	216.29
368.09	216.24
368.47	216.29
368.85	216.31
369.23	216.31
369.61	216.20
369.99	216.20
370.37	216.29
370.75	216.32
371.13	216.29
371.51	216.20
371.89	216.21
372.27	216.20
372.65	216.20
373.03	216.13
373.41	216.09
373.78	216.03
374.16	215.89
374.54	215.83
374.92	215.79
375.30	215.86
375.68	215.81
376.06	215.84
376.44	215.76
376.82	215.75
377.19	215.67
377.57	215.61
377.95	215.49
378.33	215.44
378.71	215.38
379.09	215.37
379.47	215.45
379.84	215.42
380.22	215.40
380.60	215.31
380.98	215.23
381.36	215.21
381.73	215.19
382.11	215.26
382.49	215.18
382.87	215.15
383.25	215.07
383.62	215.26
384.00	215.15
384.38	215.13
384.76	215.19
385.13	215.26
385.51	215.23
385.89	215.23
386.27	215.17
386.64	215.04
387.02	215.01
387.40	214.97
387.78	214.98
388.15	214.90
388.53	214.91
388.91	214.97
389.29	214.92
389.66	214.97
390.04	215.03
390.42	215.08
390.79	215.05
391.17	215.09
391.55	214.85
391.92	214.90
392.30	214.93
392.68	214.91
393.05	214.89
393.43	214.96
393.81	215.06
394.18	215.06
394.56	215.14
394.94	215.25
395.31	215.27
395.69	215.37
396.06	215.58
396.44	215.69
396.82	215.73
397.19	215.96
397.57	216.02
397.95	216.07
398.32	216.20
398.70	216.44
399.07	216.67
399.45	216.98
399.82	217.16
400.20	217.44
400.58	217.62
400.95	217.91
401.33	218.24
401.70	218.58
402.08	219.02
402.45	219.39
402.83	219.83
403.20	220.28
403.58	220.77
403.95	221.22
404.33	221.81
404.71	222.47
405.08	223.16
405.46	223.82
405.83	224.57
406.21	225.39
406.58	226.21
406.96	227.13
407.33	227.97
407.70	229.18
408.08	230.47
408.45	231.78
408.83	233.23
409.20	234.57
409.58	236.10
409.95	237.84
410.33	239.81
410.70	241.65
411.08	243.78
411.45	246.00
411.82	248.36
412.20	250.93
412.57	253.93
412.95	256.76
413.32	259.97
413.69	263.36
414.07	266.89
414.44	270.84
414.82	274.87
415.19	279.54
415.56	284.34
415.94	289.56
416.31	295.30
416.68	300.96
417.06	307.49
417.43	313.50
417.81	320.51
418.18	327.66
418.55	335.58
418.93	343.96
419.30	352.63
419.67	361.80
420.04	371.33
420.42	381.28
420.79	392.35
421.16	403.98
421.54	415.69
421.91	428.29
422.28	441.37
422.66	455.15
423.03	468.32
423.40	482.50
423.77	497.59
424.15	512.95
424.52	529.04
424.89	546.64
425.26	564.15
425.64	580.66
426.01	599.10
426.38	618.26
426.75	637.48
427.13	657.59
427.50	678.93
427.87	701.39
428.24	723.94
428.61	746.00
428.99	769.30
429.36	795.20
429.73	820.48
430.10	845.69
430.47	871.74
430.85	899.55
431.22	928.26
431.59	958.24
431.96	987.98
432.33	1020.75
432.70	1052.60
433.08	1089.70
433.45	1124.75
433.82	1159.74
434.19	1198.47
434.56	1236.59
434.93	1274.19
435.30	1311.18
435.68	1351.88
436.05	1392.63
436.42	1433.17
436.79	1470.54
437.16	1511.15
437.53	1553.86
437.90	1596.40
438.27	1638.22
438.64	1681.76
439.01	1722.35
439.38	1759.70
439.75	1794.98
440.13	1834.89
440.50	1872.58
440.87	1904.47
441.24	1937.98
441.61	1974.29
441.98	2002.74
442.35	2035.22
442.72	2066.89
443.09	2097.97
443.46	2118.99
443.83	2134.02
444.20	2147.82
444.57	2166.15
444.94	2176.58
445.31	2187.10
445.68	2195.91
446.05	2202.85
446.42	2202.97
446.79	2201.54
447.16	2199.73
447.53	2199.35
447.90	2187.99
448.27	2176.65
448.64	2158.60
449.01	2146.18
449.37	2121.76
449.74	2097.57
450.11	2067.66
450.48	2036.41
450.85	2004.50
451.22	1976.79
451.59	1950.05
451.96	1924.92
452.33	1890.16
452.70	1858.65
453.07	1820.75
453.43	1783.20
453.80	1745.67
454.17	1709.35
454.54	1675.76
454.91	1638.98
455.28	1603.40
455.65	1570.05
456.02	1534.52
456.38	1505.72
456.75	1469.49
457.12	1439.82
457.49	1410.46
457.86	1382.84
458.23	1357.53
458.59	1329.96
458.96	1302.08
459.33	1277.75
459.70	1252.53
460.07	1232.78
460.43	1210.37
460.80	1188.84
461.17	1170.02
461.54	1150.28
461.91	1131.65
462.27	1112.76
462.64	1096.78
463.01	1078.72
463.38	1061.00
463.74	1045.40
464.11	1030.69
464.48	1017.65
464.85	1003.25
465.21	991.77
465.58	979.57
465.95	965.65
466.32	953.98
466.68	942.13
467.05	930.21
467.42	918.65
467.78	906.70
468.15	894.98
468.52	886.47
468.88	875.64
469.25	865.89
469.62	857.67
469.98	848.94
470.35	840.87
470.72	833.30
471.08	825.47
471.45	818.67
471.82	811.05
472.18	803.30
472.55	797.66
472.92	791.22
473.28	785.50
473.65	779.96
474.02	774.33
474.38	769.60
474.75	765.73
475.11	761.64
475.48	758.20
475.85	755.43
476.21	752.42
476.58	750.08
476.94	748.45
477.31	746.41
477.67	744.41
478.04	742.83
478.41	742.01
478.77	741.27
479.14	740.19
479.50	740.05
479.87	740.43
480.23	740.91
480.60	741.02
480.96	741.40
481.33	742.77
481.69	744.35
482.06	745.67
482.42	746.50
482.79	747.84
483.15	750.50
483.52	753.94
483.88	757.12
484.25	760.12
484.61	763.10
484.98	766.41
485.34	770.59
485.71	775.06
486.07	779.90
486.44	784.95
486.80	790.52
487.17	796.34
487.53	802.91
487.90	809.61
488.26	816.86
488.62	824.55
488.99	832.14
489.35	839.93
489.72	849.03
490.08	858.83
490.44	868.59
490.81	878.13
491.17	887.37
491.54	898.06
491.90	908.69
492.26	920.28
492.63	932.32
492.99	944.63
493.36	957.33
493.72	970.52
494.08	984.29
494.45	998.75
494.81	1013.82
495.17	1029.08
495.54	1044.65
495.90	1061.43
496.26	1078.32
496.63	1095.69
496.99	1113.54
497.35	1131.02
497.72	1149.10
498.08	1167.53
498.44	1186.65
498.80	1207.01
499.17	1227.17
499.53	1247.87
499.89	1269.02
500.26	1290.12
500.62	1311.15
500.98	1333.45
501.34	1355.68
501.71	1378.20
502.07	1400.85
502.43	1423.75
502.79	1446.91
503.16	1470.43
503.52	1493.47
503.88	1516.49
504.24	1539.62
504.60	1563.09
504.97	1587.75
505.33	1611.98
505.69	1637.32
506.05	1661.95
506.41	1686.56
506.78	1711.07
507.14	1735.95
507.50	1760.85
507.86	1785.87
508.22	1811.46
508.59	1836.18
508.95	1861.55
509.31	1887.04
509.67	1912.59
510.03	1938.16
510.39	1963.42
510.75	1988.61
511.12	2013.10
511.48	2037.74
511.84	2062.65
512.20	2087.11
512.56	2111.89
512.92	2136.42
513.28	2160.83
513.64	2185.39
514.00	2208.81
514.37	2232.07
514.73	2255.33
515.09	2277.56
515.45	2300.22
515.81	2322.96
516.17	2345.90
516.53	2367.43
516.89	2388.83
517.25	2408.78
517.61	2428.64
517.97	2448.18
518.33	2467.17
518.69	2487.34
519.05	2507.47
519.41	2527.24
519.77	2546.86
520.13	2565.10
520.49	2583.00
520.85	2600.35
521.21	2617.40
521.57	2635.35
521.93	2652.05
522.29	2669.80
522.65	2687.40
523.01	2704.20
523.37	2719.73
523.73	2735.12
524.09	2750.57
524.45	2765.10
524.81	2780.22
525.17	2795.50
525.53	2810.76
525.89	2826.30
526.25	2840.66
526.61	2853.16
526.97	2866.61
527.33	2879.62
527.68	2893.00
528.04	2906.41
528.40	2918.59
528.76	2931.19
529.12	2942.17
529.48	2954.47
529.84	2963.56
530.20	2974.16
530.56	2984.72
530.91	2996.25
531.27	3006.60
531.63	3017.32
531.99	3027.75
532.35	3038.05
532.71	3047.99
533.07	3058.75
533.42	3067.75
533.78	3077.95
534.14	3088.25
534.50	3096.66
534.86	3106.11
535.21	3113.28
535.57	3122.13
535.93	3130.40
536.29	3137.28
536.65	3146.31
537.00	3153.59
537.36	3162.48
537.72	3169.18
538.08	3176.57
538.44	3182.85
538.79	3189.12
539.15	3195.45
539.51	3202.46
539.87	3209.97
540.22	3216.13
540.58	3221.95
540.94	3228.22
541.29	3232.93
541.65	3235.59
542.01	3239.56
542.37	3242.86
542.72	3248.12
543.08	3251.36
543.44	3255.29
543.79	3258.47
544.15	3260.72
544.51	3264.26
544.87	3267.41
545.22	3269.85
545.58	3271.18
545.94	3272.41
546.29	3274.26
546.65	3275.10
547.01	3275.42
547.36	3276.22
547.72	3276.99
548.07	3275.95
548.43	3275.68
548.79	3274.80
549.14	3276.57
549.50	3277.65
549.86	3278.76
550.21	3277.56
550.57	3277.17
550.92	3275.69
551.28	3274.61
551.64	3273.37
551.99	3272.11
552.35	3271.45
552.70	3271.07
553.06	3270.64
553.41	3270.57
553.77	3270.09
554.13	3269.49
554.48	3269.64
554.84	3268.20
555.19	3266.33
555.55	3266.39
555.90	3265.08
556.26	3264.17
556.61	3262.72
556.97	3259.70
557.32	3255.97
557.68	3253.88
558.03	3250.92
558.39	3248.61
558.74	3248.80
559.10	3247.79
559.45	3246.69
559.81	3244.51
560.16	3242.94
560.52	3241.65
560.87	3239.57
561.23	3235.68
561.58	3232.17
561.94	3227.40
562.29	3222.95
562.64	3219.29
563.00	3215.10
563.35	3211.43
563.71	3207.88
564.06	3204.81
564.42	3201.99
564.77	3199.36
565.12	3196.44
565.48	3192.80
565.83	3190.11
566.19	3186.09
566.54	3182.63
566.89	3177.55
567.25	3172.35
567.60	3168.10
567.96	3162.72
568.31	3157.43
568.66	3153.58
569.02	3149.90
569.37	3146.18
569.72	3142.34
570.08	3138.31
570.43	3132.32
570.78	3127.05
571.14	3121.97
571.49	3116.03
571.84	3111.33
572.20	3104.93
572.55	3099.53
572.90	3093.81
573.26	3087.20
573.61	3079.59
573.96	3071.52
574.31	3063.64
574.67	3056.94
575.02	3048.81
575.37	3040.79
575.72	3033.45
576.08	3025.88
576.43	3017.08
576.78	3009.04
577.13	3001.04
577.49	2993.46
577.84	2986.60
578.19	2978.66
578.54	2970.35
578.90	2962.42
579.25	2952.69
579.60	2943.73
579.95	2934.07
580.30	2925.78
580.66	2916.67
581.01	2907.39
581.36	2897.67
581.71	2889.33
582.06	2880.34
582.42	2872.54
582.77	2863.66
583.12	2853.67
583.47	2844.58
583.82	2835.76
584.17	2825.43
584.53	2815.95
584.88	2805.60
585.23	2795.11
585.58	2785.71
585.93	2775.40
586.28	2766.07
586.63	2757.08
586.98	2748.38
587.34	2739.28
587.69	2729.08
588.04	2719.92
588.39	2711.29
588.74	2701.30
589.09	2691.65
589.44	2680.74
589.79	2669.13
590.14	2659.44
590.49	2648.54
590.84	2638.12
591.19	2628.46
591.54	2618.78
591.89	2607.19
592.25	2596.72
592.60	2585.48
592.95	2574.27
593.30	2564.00
593.65	2553.27
594.00	2543.01
594.35	2533.38
594.70	2522.57
595.05	2511.94
595.40	2500.81
595.75	2489.03
596.10	2478.89
596.45	2467.80
596.80	2458.15
597.15	2447.86
597.50	2436.61
597.85	2427.41
598.19	2415.83
598.54	2404.11
598.89	2393.19
599.24	2383.36
599.59	2372.88
599.94	2364.18
600.29	2354.33
600.64	2343.61
600.99	2331.36
601.34	2320.86
601.69	2308.97
602.04	2297.64
602.39	2287.58
602.74	2278.20
603.08	2269.50
603.43	2261.16
603.78	2251.47
604.13	2241.19
604.48	2230.93
604.83	2222.04
605.18	2212.32
605.53	2202.89
605.87	2193.37
606.22	2183.90
606.57	2173.98
606.92	2163.04
607.27	2151.68
607.62	2141.12
607.96	2131.59
608.31	2123.33
608.66	2112.51
609.01	2102.10
609.36	2092.14
609.70	2081.41
610.05	2069.52
610.40	2057.53
610.75	2045.15
611.10	2034.22
611.44	2022.27
611.79	2011.47
612.14	1999.47
612.49	1987.04
612.83	1975.57
613.18	1963.40
613.53	1952.02
613.88	1939.98
614.22	1928.72
614.57	1917.08
614.92	1905.25
615.27	1893.59
615.61	1881.21
615.96	1869.83
616.31	1859.26
616.65	1848.26
617.00	1837.55
617.35	1827.10
617.70	1815.54
618.04	1804.19
618.39	1792.54
618.74	1781.82
619.08	1769.95
619.43	1758.40
619.78	1747.88
620.12	1737.78
620.47	1728.16
620.82	1717.32
621.16	1707.12
621.51	1696.98
621.85	1686.74
622.20	1676.11
622.55	1664.78
622.89	1654.51
623.24	1644.26
623.59	1633.33
623.93	1622.93
624.28	1612.16
624.62	1601.61
624.97	1591.66
625.32	1581.86
625.66	1572.72
626.01	1563.23
626.35	1554.84
626.70	1545.94
627.04	1536.45
627.39	1526.27
627.73	1516.69
628.08	1507.55
628.43	1498.21
628.77	1489.14
629.12	1479.70
629.46	1470.51
629.81	1461.00
630.15	1451.31
630.50	1441.40
630.84	1431.84
631.19	1422.15
631.53	1412.59
631.88	1403.14
632.22	1394.61
632.57	1386.20
632.91	1377.21
633.26	1368.39
633.60	1359.05
633.95	1350.30
634.29	1341.95
634.64	1333.55
634.98	1324.07
635.32	1315.71
635.67	1307.89
636.01	1299.43
636.36	1291.25
636.70	1283.08
637.05	1275.50
637.39	1267.72
637.73	1260.08
638.08	1253.14
638.42	1246.16
638.77	1238.95
639.11	1231.71
639.45	1223.55
639.80	1215.28
640.14	1207.29
640.49	1199.42
640.83	1191.20
641.17	1183.33
641.52	1175.34
641.86	1167.52
642.20	1160.05
642.55	1151.11
642.89	1142.13
643.23	1133.90
643.58	1126.32
643.92	1118.35
644.26	1110.28
644.61	1102.29
644.95	1094.51
645.29	1086.28
645.64	1077.95
645.98	1070.08
646.32	1062.39
646.66	1055.20
647.01	1047.46
647.35	1039.92
647.69	1032.20
648.04	1025.18
648.38	1017.61
648.72	1010.20
649.06	1002.73
649.41	995.37
649.75	988.12
650.09	981.57
650.43	974.67
650.78	967.32
651.12	960.40
651.46	954.05
651.80	947.46
652.14	941.14
652.49	934.32
652.83	927.65
653.17	920.56
653.51	913.69
653.85	907.19
654.20	901.15
654.54	894.76
654.88	888.37
655.22	881.52
655.56	874.56
655.90	867.45
656.25	860.50
656.59	854.29
656.93	848.31
657.27	841.79
657.61	835.34
657.95	829.52
658.29	823.38
658.64	817.18
658.98	811.33
659.32	804.93
659.66	799.07
660.00	793.40
660.34	788.13
660.68	782.44
661.02	776.10
661.36	770.40
661.70	764.46
662.05	759.06
662.39	754.00
662.73	749.16
663.07	744.67
663.41	740.15
663.75	735.10
664.09	730.05
664.43	725.00
664.77	720.18
665.11	715.02
665.45	710.43
665.79	705.75
666.13	701.14
666.47	696.70
666.81	692.23
667.15	687.54
667.49	683.13
667.83	678.93
668.17	674.93
668.51	670.50
668.85	666.44
669.19	662.21
669.53	657.70
669.87	653.25
670.21	648.89
670.55	644.29
670.89	640.19
671.23	636.15
671.57	632.02
671.91	627.83
672.25	623.71
672.58	619.54
672.92	615.33
673.26	611.29
673.60	607.39
673.94	603.56
674.28	600.02
674.62	596.09
674.96	592.16
675.30	588.45
675.64	584.65
675.97	581.26
676.31	577.87
676.65	574.51
676.99	571.44
677.33	568.16
677.67	565.02
678.01	561.48
678.34	558.17
678.68	554.95
679.02	551.66
679.36	548.41
679.70	545.01
680.04	541.76
680.37	538.36
680.71	535.13
681.05	532.05
681.39	528.86
681.73	525.70
682.06	522.59
682.40	519.48
682.74	516.48
683.08	513.06
683.42	509.87
683.75	506.94
684.09	503.56
684.43	500.31
684.77	497.13
685.10	494.07
685.44	490.82
685.78	487.72
686.12	484.89
686.45	482.07
686.79	479.53
687.13	476.95
687.46	474.32
687.80	471.47
688.14	468.56
688.48	465.80
688.81	463.07
689.15	460.43
689.49	457.58
689.82	454.71
690.16	451.81
690.50	448.99
690.83	446.07
691.17	443.44
691.51	440.92
691.84	438.51
692.18	436.03
692.52	433.82
692.85	431.56
693.19	429.17
693.52	426.74
693.86	424.21
694.20	421.67
694.53	419.18
694.87	416.62
695.21	414.10
695.54	411.59
695.88	409.30
696.21	407.04
696.55	404.94
696.88	403.04
697.22	401.11
697.56	399.15
697.89	397.27
698.23	395.43
698.56	393.55
698.90	391.67
699.23	389.70
699.57	387.65
699.90	385.65
700.24	383.65
700.58	381.74
700.91	379.90
701.25	378.26
701.58	376.61
701.92	375.06
702.25	373.56
702.59	371.94
702.92	370.10
703.26	368.48
703.59	366.89
703.93	365.31
704.26	363.78
704.60	362.09
704.93	360.30
705.26	358.56
705.60	356.90
705.93	355.29
706.27	354.02
706.60	352.60
706.94	351.20
707.27	349.58
707.61	348.03
707.94	346.47
708.27	344.81
708.61	343.20
708.94	341.75
709.28	340.19
709.61	338.74
709.94	337.43
710.28	335.81
710.61	334.31
710.95	332.64
711.28	331.22
711.61	329.83
711.95	328.55
712.28	327.24
712.61	325.86
712.95	324.64
713.28	323.23
713.61	322.06
713.95	320.75
714.28	319.70
714.61	318.54
714.95	317.49
715.28	316.20
715.61	314.90
715.95	313.75
716.28	312.57
716.61	311.39
716.95	310.26
717.28	309.18
717.61	308.03
717.94	307.03
718.28	305.88
718.61	304.78
718.94	303.68
719.27	302.64
719.61	301.61
719.94	300.63
720.27	299.54
720.60	298.50
720.94	297.56
721.27	296.67
721.60	295.77
721.93	294.81
722.27	294.12
722.60	293.39
722.93	292.35
723.26	291.50
723.59	290.62
723.93	289.75
724.26	288.94
724.59	288.17
724.92	287.38
725.25	286.63
725.59	285.91
725.92	285.27
726.25	284.48
726.58	283.76
726.91	282.86
727.24	282.11
727.57	281.20
727.91	280.36
728.24	279.57
728.57	278.78
728.90	278.02
729.23	277.22
729.56	276.57
729.89	275.97
730.22	275.15
730.55	274.43
730.89	273.77
731.22	273.11
731.55	272.46
731.88	271.77
732.21	271.13
732.54	270.40
732.87	269.69
733.20	269.08
733.53	268.45
733.86	267.86
734.19	267.27
734.52	266.83
734.85	266.47
735.18	265.92
735.51	265.50
735.84	264.94
736.17	264.37
736.50	263.63
736.83	263.27
737.16	262.86
737.49	262.40
737.82	261.85
738.15	261.28
738.48	260.71
738.81	260.18
739.14	259.59
739.47	259.13
739.80	258.59
740.13	258.09
740.46	257.53
740.79	256.98
741.12	256.48
741.45	255.96
741.78	255.31
742.11	254.82
742.44	254.15
742.77	253.62
743.10	253.07
743.43	252.63
743.75	251.96
744.08	251.71
744.41	251.10
744.74	250.60
745.07	250.12
745.40	249.64
745.73	249.28
746.06	248.90
746.39	248.40
746.71	248.02
747.04	247.54
747.37	247.17
747.70	246.84
748.03	246.46
748.36	246.05
748.68	245.72
749.01	245.27
749.34	244.97
749.67	244.57
750.00	244.22
750.33	243.92
750.65	243.56
750.98	243.05
751.31	242.74
751.64	242.39
751.97	242.07
752.29	241.78
752.62	241.27
752.95	240.97
753.28	240.60
753.60	240.24
753.93	239.87
754.26	239.52
754.59	239.13
754.91	238.75
755.24	238.43
755.57	238.03
755.90	237.72
756.22	237.45
756.55	237.13
756.88	236.86
757.20	236.48
757.53	236.20
757.86	235.86
758.19	235.61
758.51	235.39
758.84	235.03
759.17	234.80
759.49	234.66
759.82	234.42
760.15	234.21
760.47	234.02
760.80	233.78
761.13	233.59
761.45	233.29
761.78	232.96
762.11	232.67
762.43	232.44
762.76	232.17
763.08	231.81
763.41	231.63
763.74	231.34
764.06	231.17
764.39	230.86
764.71	230.62
765.04	230.41
765.37	230.13
765.69	229.99
766.02	229.70
766.34	229.45
766.67	229.10
767.00	228.96
767.32	228.88
767.65	228.76
767.97	228.53
768.30	228.37
768.62	228.33
768.95	228.12
769.27	227.96
769.60	227.81
769.92	227.62
770.25	227.44
770.57	227.23
770.90	226.99
771.22	226.79
771.55	226.55
771.87	226.39
772.20	226.19
772.52	226.05
772.85	226.16
773.17	225.94
773.50	225.85
773.82	225.65
774.15	225.25
774.47	225.03
774.80	224.81
775.12	224.66
775.45	224.43
775.77	224.29
776.09	224.05
776.42	223.89
776.74	223.81
777.07	223.65
777.39	223.55
777.72	223.42
778.04	223.35
778.36	223.28
778.69	223.16
779.01	223.05
779.33	222.91
779.66	222.53
779.98	222.40
780.31	222.19
780.63	222.18
780.95	222.19
781.28	222.03
781.60	221.97
781.92	221.87
782.25	221.75
782.57	221.64
782.89	221.62
