SpectraSuite Data File
++++++++++++++++++++++++++++++++++++
Date: Mon Feb 25 17:30:39 EST 2013
User: group
Dark Spectrum Present: No
Reference Spectrum Present: No
Number of Sampled Component Spectra: 1
Spectrometers: USB2E7196
Integration Time (usec): 52000 (USB2E7196)
Spectra Averaged: 20 (USB2E7196)
Boxcar Smoothing: 10 (USB2E7196)
Correct for Electrical Dark: No (USB2E7196)
Strobe/Lamp Enabled: No (USB2E7196)
Correct for Detector Non-linearity: No (USB2E7196)
Correct for Stray Light: No (USB2E7196)
Number of Pixels in Processed Spectrum: 2048
>>>>>Begin Processed Spectral Data<<<<<
339.09	0.00
339.48	198.25
339.86	198.50
340.24	201.40
340.63	201.85
341.01	206.00
341.39	204.85
341.78	207.05
342.16	207.55
342.54	207.95
342.93	197.45
343.31	207.45
343.69	207.98
344.07	208.50
344.46	208.87
344.84	209.31
345.22	209.57
345.60	209.85
345.99	210.00
346.37	210.20
346.75	210.40
347.13	210.51
347.52	210.57
347.90	210.69
348.28	210.74
348.66	210.81
349.05	210.79
349.43	210.84
349.81	210.99
350.19	211.05
350.57	211.24
350.96	211.35
351.34	211.44
351.72	211.60
352.10	211.77
352.48	211.87
352.87	211.95
353.25	211.98
353.63	212.10
354.01	212.21
354.39	212.29
354.77	212.31
355.15	212.45
355.54	212.51
355.92	212.50
356.30	212.65
356.68	212.85
357.06	212.98
357.44	213.03
357.82	213.12
358.20	213.24
358.58	213.24
358.97	213.36
359.35	213.42
359.73	213.49
360.11	213.56
360.49	213.70
360.87	213.71
361.25	213.90
361.63	214.02
362.01	214.13
362.39	214.22
362.77	214.31
363.15	214.34
363.53	214.38
363.91	214.50
364.29	214.55
364.67	214.43
365.05	214.45
365.43	214.53
365.81	214.57
366.19	214.61
366.57	214.76
366.95	214.74
367.33	214.81
367.71	214.81
368.09	214.85
368.47	214.85
368.85	214.85
369.23	214.82
369.61	214.75
369.99	214.77
370.37	214.77
370.75	214.89
371.13	214.81
371.51	214.75
371.89	214.75
372.27	214.63
372.65	214.59
373.03	214.56
373.41	214.49
373.78	214.43
374.16	214.37
374.54	214.23
374.92	214.14
375.30	214.07
375.68	214.00
376.06	213.92
376.44	213.88
376.82	213.87
377.19	213.79
377.57	213.74
377.95	213.62
378.33	213.48
378.71	213.28
379.09	213.27
379.47	213.27
379.84	213.13
380.22	213.07
380.60	213.05
380.98	212.92
381.36	212.88
381.73	212.70
382.11	212.64
382.49	212.67
382.87	212.66
383.25	212.57
383.62	212.75
384.00	212.61
384.38	212.54
384.76	212.56
385.13	212.54
385.51	212.42
385.89	212.36
386.27	212.35
386.64	212.33
387.02	212.23
387.40	212.15
387.78	212.10
388.15	212.08
388.53	211.96
388.91	211.93
389.29	211.81
389.66	211.88
390.04	211.83
390.42	211.79
390.79	211.69
391.17	211.70
391.55	211.42
391.92	211.44
392.30	211.43
392.68	211.29
393.05	211.28
393.43	211.31
393.81	211.37
394.18	211.34
394.56	211.28
394.94	211.35
395.31	211.35
395.69	211.45
396.06	211.49
396.44	211.56
396.82	211.61
397.19	211.81
397.57	211.77
397.95	211.84
398.32	211.80
398.70	211.87
399.07	211.95
399.45	212.01
399.82	212.07
400.20	212.10
400.58	212.16
400.95	212.11
401.33	212.20
401.70	212.30
402.08	212.35
402.45	212.45
402.83	212.53
403.20	212.57
403.58	212.56
403.95	212.70
404.33	212.80
404.71	212.90
405.08	213.07
405.46	213.17
405.83	213.20
406.21	213.32
406.58	213.45
406.96	213.60
407.33	213.77
407.70	213.95
408.08	214.30
408.45	214.56
408.83	214.89
409.20	215.07
409.58	215.25
409.95	215.57
410.33	215.86
410.70	216.08
411.08	216.48
411.45	216.86
411.82	217.18
412.20	217.56
412.57	218.15
412.95	218.46
413.32	219.03
413.69	219.52
414.07	220.08
414.44	220.74
414.82	221.34
415.19	222.08
415.56	222.75
415.94	223.36
416.31	224.09
416.68	224.82
417.06	225.81
417.43	226.75
417.81	227.80
418.18	228.89
418.55	230.09
418.93	231.32
419.30	232.64
419.67	233.95
420.04	235.40
420.42	236.75
420.79	238.50
421.16	240.13
421.54	242.04
421.91	243.84
422.28	245.66
422.66	247.63
423.03	249.60
423.40	251.65
423.77	253.83
424.15	256.10
424.52	258.42
424.89	260.93
425.26	263.37
425.64	265.65
426.01	268.16
426.38	270.84
426.75	273.52
427.13	276.28
427.50	279.10
427.87	282.10
428.24	285.12
428.61	287.92
428.99	291.09
429.36	294.40
429.73	297.81
430.10	301.06
430.47	304.52
430.85	308.12
431.22	311.95
431.59	316.01
431.96	319.93
432.33	324.16
432.70	328.18
433.08	333.04
433.45	337.45
433.82	341.91
434.19	346.80
434.56	351.62
434.93	356.23
435.30	360.91
435.68	366.01
436.05	371.05
436.42	376.10
436.79	380.71
437.16	385.60
437.53	390.82
437.90	396.09
438.27	401.11
438.64	406.28
439.01	411.12
439.38	415.35
439.75	419.40
440.13	424.21
440.50	428.61
440.87	432.09
441.24	435.99
441.61	440.23
441.98	443.26
442.35	446.77
442.72	450.38
443.09	453.86
443.46	455.95
443.83	457.32
444.20	458.46
444.57	460.14
444.94	460.91
445.31	461.67
445.68	462.42
446.05	462.58
446.42	461.86
446.79	461.06
447.16	460.30
447.53	459.74
447.90	457.59
448.27	455.65
448.64	452.75
449.01	450.70
449.37	447.11
449.74	443.69
450.11	439.79
450.48	435.34
450.85	430.78
451.22	426.97
451.59	423.35
451.96	419.83
452.33	415.20
452.70	411.05
453.07	406.01
453.43	400.90
453.80	396.06
454.17	391.48
454.54	387.12
454.91	382.40
455.28	377.82
455.65	373.58
456.02	369.33
456.38	365.82
456.75	361.27
457.12	357.46
457.49	353.88
457.86	350.10
458.23	346.95
458.59	343.66
458.96	340.20
459.33	337.12
459.70	334.01
460.07	331.58
460.43	328.73
460.80	326.10
461.17	323.86
461.54	321.54
461.91	319.33
462.27	316.99
462.64	315.02
463.01	312.81
463.38	310.74
463.74	308.56
464.11	306.76
464.48	305.16
464.85	303.39
465.21	302.03
465.58	300.67
465.95	299.02
466.32	297.64
466.68	296.30
467.05	294.92
467.42	293.61
467.78	292.25
468.15	290.97
468.52	290.03
468.88	288.61
469.25	287.42
469.62	286.54
469.98	285.53
470.35	284.68
470.72	283.95
471.08	283.00
471.45	282.24
471.82	281.47
472.18	280.60
472.55	280.08
472.92	279.32
473.28	278.73
473.65	278.19
474.02	277.66
474.38	277.19
474.75	276.90
475.11	276.60
475.48	276.35
475.85	276.24
476.21	276.02
476.58	276.07
476.94	276.14
477.31	276.01
477.67	276.08
478.04	276.08
478.41	276.19
478.77	276.50
479.14	276.72
479.50	277.02
479.87	277.48
480.23	277.84
480.60	278.24
480.96	278.69
481.33	279.34
481.69	279.93
482.06	280.57
482.42	281.14
482.79	281.87
483.15	282.75
483.52	283.70
483.88	284.63
484.25	285.58
484.61	286.52
484.98	287.61
485.34	288.91
485.71	290.27
486.07	291.60
486.44	292.91
486.80	294.39
487.17	295.90
487.53	297.54
487.90	299.44
488.26	301.40
488.62	303.47
488.99	305.47
489.35	307.56
489.72	309.84
490.08	312.27
490.44	314.72
490.81	317.30
491.17	319.99
491.54	322.95
491.90	326.00
492.26	329.27
492.63	332.72
492.99	336.06
493.36	339.65
493.72	343.45
494.08	347.45
494.45	351.79
494.81	356.20
495.17	360.78
495.54	365.60
495.90	370.55
496.26	375.73
496.63	381.26
496.99	387.07
497.35	393.05
497.72	399.30
498.08	405.75
498.44	412.41
498.80	419.45
499.17	426.76
499.53	434.32
499.89	442.25
500.26	450.36
500.62	458.74
500.98	467.52
501.34	476.58
501.71	485.89
502.07	495.36
502.43	505.34
502.79	515.53
503.16	526.08
503.52	536.92
503.88	548.05
504.24	559.51
504.60	571.20
504.97	583.48
505.33	595.91
505.69	609.06
506.05	622.30
506.41	635.84
506.78	649.57
507.14	663.48
507.50	677.79
507.86	692.68
508.22	707.83
508.59	723.17
508.95	739.23
509.31	755.35
509.67	771.90
510.03	788.68
510.39	806.03
510.75	823.51
511.12	841.34
511.48	859.46
511.84	877.96
512.20	896.44
512.56	915.41
512.92	934.51
513.28	953.69
513.64	973.31
514.00	992.81
514.37	1012.81
514.73	1033.45
515.09	1053.90
515.45	1074.28
515.81	1095.11
516.17	1115.92
516.53	1136.68
516.89	1158.10
517.25	1179.57
517.61	1200.92
517.97	1222.25
518.33	1243.40
518.69	1265.10
519.05	1286.96
519.41	1308.64
519.77	1331.01
520.13	1352.64
520.49	1374.44
520.85	1396.56
521.21	1418.70
521.57	1441.32
521.93	1463.08
522.29	1485.53
522.65	1507.72
523.01	1529.89
523.37	1551.70
523.73	1573.79
524.09	1595.53
524.45	1617.38
524.81	1639.19
525.17	1661.31
525.53	1683.26
525.89	1705.14
526.25	1726.47
526.61	1747.18
526.97	1768.53
527.33	1789.08
527.68	1809.83
528.04	1830.60
528.40	1850.52
528.76	1870.75
529.12	1890.80
529.48	1912.15
529.84	1931.89
530.20	1951.54
530.56	1971.16
530.91	1991.06
531.27	2010.73
531.63	2030.22
531.99	2049.48
532.35	2067.91
532.71	2086.07
533.07	2104.80
533.42	2123.04
533.78	2141.51
534.14	2159.60
534.50	2176.06
534.86	2193.98
535.21	2210.66
535.57	2227.78
535.93	2244.67
536.29	2260.76
536.65	2276.83
537.00	2291.57
537.36	2306.48
537.72	2321.26
538.08	2336.01
538.44	2350.78
538.79	2365.44
539.15	2379.51
539.51	2393.60
539.87	2408.32
540.22	2422.36
540.58	2436.72
540.94	2450.29
541.29	2462.92
541.65	2474.66
542.01	2487.67
542.37	2498.80
542.72	2510.41
543.08	2520.74
543.44	2531.83
543.79	2541.59
544.15	2551.52
544.51	2561.84
544.87	2572.36
545.22	2581.29
545.58	2589.42
545.94	2596.27
546.29	2602.64
546.65	2608.88
547.01	2614.39
547.36	2619.66
547.72	2624.46
548.07	2628.07
548.43	2631.85
548.79	2634.93
549.14	2638.93
549.50	2642.54
549.86	2646.04
550.21	2649.74
550.57	2653.61
550.92	2656.17
551.28	2658.80
551.64	2660.87
551.99	2663.07
552.35	2664.04
552.70	2666.36
553.06	2668.80
553.41	2671.92
553.77	2674.54
554.13	2676.44
554.48	2678.17
554.84	2679.23
555.19	2679.77
555.55	2680.04
555.90	2680.51
556.26	2680.98
556.61	2680.74
556.97	2679.62
557.32	2678.85
557.68	2676.80
558.03	2675.06
558.39	2673.38
558.74	2672.88
559.10	2671.25
559.45	2669.04
559.81	2667.67
560.16	2664.96
560.52	2662.41
560.87	2659.05
561.23	2654.86
561.58	2652.29
561.94	2648.87
562.29	2645.13
562.64	2642.80
563.00	2640.03
563.35	2637.33
563.71	2635.11
564.06	2632.80
564.42	2630.70
564.77	2628.07
565.12	2626.20
565.48	2622.81
565.83	2619.64
566.19	2616.27
566.54	2612.31
566.89	2608.34
567.25	2604.68
567.60	2601.35
567.96	2597.62
568.31	2594.00
568.66	2590.31
569.02	2585.54
569.37	2580.87
569.72	2576.93
570.08	2571.70
570.43	2565.98
570.78	2560.61
571.14	2554.20
571.49	2547.60
571.84	2541.47
572.20	2534.90
572.55	2528.13
572.90	2521.53
573.26	2514.81
573.61	2507.32
573.96	2500.90
574.31	2493.16
574.67	2484.84
575.02	2476.59
575.37	2468.13
575.72	2459.34
576.08	2452.16
576.43	2444.08
576.78	2435.92
577.13	2428.03
577.49	2420.35
577.84	2412.82
578.19	2404.97
578.54	2398.07
578.90	2391.08
579.25	2382.53
579.60	2373.53
579.95	2364.84
580.30	2357.08
580.66	2349.02
581.01	2340.58
581.36	2331.06
581.71	2323.01
582.06	2314.70
582.42	2306.78
582.77	2297.94
583.12	2289.16
583.47	2280.44
583.82	2272.10
584.17	2263.21
584.53	2254.58
584.88	2245.77
585.23	2236.92
585.58	2227.62
585.93	2218.16
586.28	2209.53
586.63	2201.15
586.98	2193.60
587.34	2185.63
587.69	2176.72
588.04	2167.59
588.39	2159.51
588.74	2151.28
589.09	2142.82
589.44	2133.80
589.79	2125.13
590.14	2117.31
590.49	2109.20
590.84	2100.45
591.19	2092.74
591.54	2084.92
591.89	2074.94
592.25	2065.74
592.60	2056.53
592.95	2047.36
593.30	2038.25
593.65	2028.53
594.00	2019.10
594.35	2010.79
594.70	2001.86
595.05	1993.45
595.40	1985.06
595.75	1975.76
596.10	1967.63
596.45	1959.40
596.80	1951.77
597.15	1944.00
597.50	1935.49
597.85	1927.39
598.19	1918.87
598.54	1910.32
598.89	1902.31
599.24	1895.85
599.59	1889.23
599.94	1882.30
600.29	1875.15
600.64	1867.22
600.99	1859.35
601.34	1852.52
601.69	1843.98
602.04	1835.92
602.39	1828.08
602.74	1820.65
603.08	1814.14
603.43	1807.34
603.78	1799.62
604.13	1791.90
604.48	1783.93
604.83	1776.92
605.18	1770.12
605.53	1763.09
605.87	1755.99
606.22	1749.23
606.57	1741.64
606.92	1733.67
607.27	1726.19
607.62	1718.98
607.96	1712.43
608.31	1706.44
608.66	1698.60
609.01	1691.27
609.36	1683.88
609.70	1676.13
610.05	1668.42
610.40	1660.31
610.75	1652.01
611.10	1644.65
611.44	1635.82
611.79	1627.35
612.14	1618.32
612.49	1609.01
612.83	1600.37
613.18	1590.89
613.53	1581.53
613.88	1572.03
614.22	1563.24
614.57	1554.09
614.92	1544.93
615.27	1535.92
615.61	1526.38
615.96	1517.76
616.31	1509.57
616.65	1501.75
617.00	1493.75
617.35	1485.39
617.70	1476.98
618.04	1468.19
618.39	1459.03
618.74	1450.85
619.08	1442.29
619.43	1434.40
619.78	1426.77
620.12	1418.88
620.47	1411.30
620.82	1403.04
621.16	1395.16
621.51	1387.12
621.85	1379.34
622.20	1371.15
622.55	1362.90
622.89	1354.89
623.24	1347.08
623.59	1338.62
623.93	1330.30
624.28	1322.29
624.62	1314.64
624.97	1306.50
625.32	1298.92
625.66	1291.80
626.01	1284.83
626.35	1277.94
626.70	1270.56
627.04	1263.38
627.39	1256.08
627.73	1248.69
628.08	1242.05
628.43	1234.84
628.77	1227.51
629.12	1220.07
629.46	1213.46
629.81	1206.60
630.15	1199.59
630.50	1192.40
630.84	1185.18
631.19	1178.13
631.53	1171.35
631.88	1163.76
632.22	1156.35
632.57	1149.50
632.91	1142.33
633.26	1134.92
633.60	1127.76
633.95	1121.09
634.29	1113.96
634.64	1107.19
634.98	1100.51
635.32	1093.50
635.67	1087.31
636.01	1080.75
636.36	1074.15
636.70	1067.71
637.05	1061.31
637.39	1054.92
637.73	1048.75
638.08	1043.11
638.42	1037.28
638.77	1030.98
639.11	1024.82
639.45	1018.98
639.80	1012.61
640.14	1006.27
640.49	1000.28
640.83	994.16
641.17	987.89
641.52	981.98
641.86	975.83
642.20	969.60
642.55	963.10
642.89	956.55
643.23	950.28
643.58	944.51
643.92	938.34
644.26	932.00
644.61	926.19
644.95	920.40
645.29	914.30
645.64	907.94
645.98	902.00
646.32	896.25
646.66	890.25
647.01	884.45
647.35	878.68
647.69	872.51
648.04	866.77
648.38	860.85
648.72	854.91
649.06	848.89
649.41	842.97
649.75	837.31
650.09	831.64
650.43	825.87
650.78	819.82
651.12	813.78
651.46	808.23
651.80	802.56
652.14	796.59
652.49	790.65
652.83	785.14
653.17	779.04
653.51	773.36
653.85	767.96
654.20	762.10
654.54	756.32
654.88	751.08
655.22	745.41
655.56	739.79
655.90	733.99
656.25	728.41
656.59	722.99
656.93	717.77
657.27	712.59
657.61	707.39
657.95	702.46
658.29	697.36
658.64	692.40
658.98	687.01
659.32	681.77
659.66	676.89
660.00	671.55
660.34	666.54
660.68	661.56
661.02	656.43
661.36	651.90
661.70	647.25
662.05	642.58
662.39	638.15
662.73	633.85
663.07	629.66
663.41	625.49
663.75	621.12
664.09	616.60
664.43	612.15
664.77	607.85
665.11	603.50
665.45	599.31
665.79	594.91
666.13	590.83
666.47	586.75
666.81	582.58
667.15	578.70
667.49	575.11
667.83	571.25
668.17	567.56
668.51	563.90
668.85	560.31
669.19	556.75
669.53	552.88
669.87	549.06
670.21	545.38
670.55	541.51
670.89	538.14
671.23	534.92
671.57	531.41
671.91	527.82
672.25	524.20
672.58	520.76
672.92	517.45
673.26	514.29
673.60	511.10
673.94	507.87
674.28	504.58
674.62	501.41
674.96	498.33
675.30	495.22
675.64	492.05
675.97	488.94
676.31	485.91
676.65	483.10
676.99	480.38
677.33	477.46
677.67	474.60
678.01	471.64
678.34	468.68
678.68	465.83
679.02	463.00
679.36	460.38
679.70	457.70
680.04	454.83
680.37	451.90
680.71	449.18
681.05	446.69
681.39	444.17
681.73	441.39
682.06	438.94
682.40	436.62
682.74	434.08
683.08	431.58
683.42	428.90
683.75	426.48
684.09	423.93
684.43	421.49
684.77	419.10
685.10	416.70
685.44	414.35
685.78	412.02
686.12	409.83
686.45	407.53
686.79	405.31
687.13	403.30
687.46	401.28
687.80	399.19
688.14	396.78
688.48	394.71
688.81	392.62
689.15	390.34
689.49	388.04
689.82	386.01
690.16	383.70
690.50	381.59
690.83	379.33
691.17	377.14
691.51	374.97
691.84	372.88
692.18	370.91
692.52	368.93
692.85	367.19
693.19	365.42
693.52	363.45
693.86	361.48
694.20	359.57
694.53	357.62
694.87	355.62
695.21	353.86
695.54	351.94
695.88	350.07
696.21	348.29
696.55	346.59
696.88	344.78
697.22	343.15
697.56	341.67
697.89	340.11
698.23	338.48
698.56	337.01
698.90	335.58
699.23	333.84
699.57	332.26
699.90	330.50
700.24	328.80
700.58	327.30
700.91	325.86
701.25	324.48
701.58	323.10
701.92	321.88
702.25	320.54
702.59	319.16
702.92	317.94
703.26	316.60
703.59	315.30
703.93	314.23
704.26	313.03
704.60	311.69
704.93	310.47
705.26	309.30
705.60	308.05
705.93	306.78
706.27	305.76
706.60	304.68
706.94	303.71
707.27	302.57
707.61	301.51
707.94	300.41
708.27	299.17
708.61	298.02
708.94	296.89
709.28	295.80
709.61	294.80
709.94	293.78
710.28	292.81
710.61	291.77
710.95	290.56
711.28	289.68
711.61	288.67
711.95	287.77
712.28	286.88
712.61	285.95
712.95	285.07
713.28	284.21
713.61	283.20
713.95	282.29
714.28	281.42
714.61	280.37
714.95	279.45
715.28	278.64
715.61	277.84
715.95	277.01
716.28	276.16
716.61	275.26
716.95	274.42
717.28	273.62
717.61	272.91
717.94	272.18
718.28	271.25
718.61	270.61
718.94	269.85
719.27	269.12
719.61	268.49
719.94	267.77
720.27	267.04
720.60	266.41
720.94	265.79
721.27	265.19
721.60	264.78
721.93	264.19
722.27	263.68
722.60	263.02
722.93	262.42
723.26	261.90
723.59	261.37
723.93	260.81
724.26	260.24
724.59	259.63
724.92	259.05
725.25	258.57
725.59	257.92
725.92	257.32
726.25	256.77
726.58	256.29
726.91	255.83
727.24	255.28
727.57	254.82
727.91	254.22
728.24	253.72
728.57	253.13
728.90	252.66
729.23	252.12
729.56	251.79
729.89	251.31
730.22	250.82
730.55	250.32
730.89	249.91
731.22	249.39
731.55	248.97
731.88	248.56
732.21	248.04
732.54	247.68
732.87	247.32
733.20	246.86
733.53	246.37
733.86	245.91
734.19	245.50
734.52	245.10
734.85	244.84
735.18	244.45
735.51	244.17
735.84	243.77
736.17	243.37
736.50	242.93
736.83	242.78
737.16	242.39
737.49	242.09
737.82	241.70
738.15	241.38
738.48	241.00
738.81	240.64
739.14	240.36
739.47	239.98
739.80	239.68
740.13	239.37
740.46	238.98
740.79	238.72
741.12	238.46
741.45	238.21
741.78	237.87
742.11	237.58
742.44	237.21
742.77	236.96
743.10	236.65
743.43	236.37
743.75	235.87
744.08	235.86
744.41	235.47
744.74	235.20
745.07	234.89
745.40	234.64
745.73	234.40
746.06	234.10
746.39	233.85
746.71	233.58
747.04	233.36
747.37	233.14
747.70	232.83
748.03	232.53
748.36	232.23
748.68	231.95
749.01	231.68
749.34	231.48
749.67	231.26
750.00	231.03
750.33	230.79
750.65	230.55
750.98	230.03
751.31	229.82
751.64	229.53
751.97	229.40
752.29	229.15
752.62	228.89
752.95	228.73
753.28	228.51
753.60	228.24
753.93	228.01
754.26	227.84
754.59	227.51
754.91	227.27
755.24	227.03
755.57	226.76
755.90	226.52
756.22	226.24
756.55	225.93
756.88	225.67
757.20	225.45
757.53	225.25
757.86	225.03
758.19	224.93
758.51	224.74
758.84	224.53
759.17	224.31
759.49	224.17
759.82	224.08
760.15	223.90
760.47	223.74
760.80	223.54
761.13	223.36
761.45	223.29
761.78	223.19
762.11	222.98
762.43	222.91
762.76	222.77
763.08	222.66
763.41	222.54
763.74	222.41
764.06	222.19
764.39	222.04
764.71	221.91
765.04	221.78
765.37	221.65
765.69	221.45
766.02	221.45
766.34	221.32
766.67	221.10
767.00	220.95
767.32	220.95
767.65	220.96
767.97	220.81
768.30	220.72
768.62	220.60
768.95	220.55
769.27	220.49
769.60	220.45
769.92	220.38
770.25	220.27
770.57	220.25
770.90	220.29
771.22	220.13
771.55	220.10
771.87	220.01
772.20	219.90
772.52	220.02
772.85	220.05
773.17	219.92
773.50	219.78
773.82	219.70
774.15	219.49
774.47	219.25
774.80	219.15
775.12	219.08
775.45	219.00
775.77	218.88
776.09	218.64
776.42	218.52
776.74	218.46
777.07	218.36
777.39	218.16
777.72	218.01
778.04	218.02
778.36	217.87
778.69	217.71
779.01	217.76
779.33	217.51
779.66	217.17
779.98	217.20
780.31	217.16
780.63	217.20
780.95	217.16
781.28	217.11
781.60	217.04
781.92	217.00
782.25	216.90
782.57	216.82
782.89	216.85
783.22	216.81
783.54	216.68
783.86	216.66
784.19	216.60
784.51	216.57
784.83	216.42
785.16	216.38
785.48	216.34
785.80	216.25
786.12	216.16
786.45	216.21
