SpectraSuite Data File
++++++++++++++++++++++++++++++++++++
Date: Mon Feb 25 17:29:48 EST 2013
User: group
Dark Spectrum Present: No
Reference Spectrum Present: No
Number of Sampled Component Spectra: 1
Spectrometers: USB2E7196
Integration Time (usec): 52000 (USB2E7196)
Spectra Averaged: 20 (USB2E7196)
Boxcar Smoothing: 10 (USB2E7196)
Correct for Electrical Dark: No (USB2E7196)
Strobe/Lamp Enabled: No (USB2E7196)
Correct for Detector Non-linearity: No (USB2E7196)
Correct for Stray Light: No (USB2E7196)
Number of Pixels in Processed Spectrum: 2048
>>>>>Begin Processed Spectral Data<<<<<
339.09	0.00
339.48	197.40
339.86	201.10
340.24	201.45
340.63	201.85
341.01	206.90
341.39	205.70
341.78	206.95
342.16	208.75
342.54	209.80
342.93	198.17
343.31	208.14
343.69	208.78
344.07	209.18
344.46	209.61
344.84	210.09
345.22	210.29
345.60	210.51
345.99	210.70
346.37	210.78
346.75	210.86
347.13	210.92
347.52	210.93
347.90	211.06
348.28	211.19
348.66	211.33
349.05	211.33
349.43	211.36
349.81	211.40
350.19	211.38
350.57	211.42
350.96	211.55
351.34	211.75
351.72	211.82
352.10	211.92
352.48	212.01
352.87	212.09
353.25	212.16
353.63	212.26
354.01	212.33
354.39	212.41
354.77	212.48
355.15	212.58
355.54	212.62
355.92	212.64
356.30	212.65
356.68	212.75
357.06	212.83
357.44	212.92
357.82	212.99
358.20	213.06
358.58	213.12
358.97	213.22
359.35	213.29
359.73	213.38
360.11	213.47
360.49	213.55
360.87	213.55
361.25	213.62
361.63	213.79
362.01	213.85
362.39	213.84
362.77	213.92
363.15	213.93
363.53	213.93
363.91	213.95
364.29	213.92
364.67	213.80
365.05	213.78
365.43	213.77
365.81	213.73
366.19	213.93
366.57	214.00
366.95	213.97
367.33	213.85
367.71	213.77
368.09	213.77
368.47	213.75
368.85	213.74
369.23	213.69
369.61	213.61
369.99	213.66
370.37	213.75
370.75	213.78
371.13	213.71
371.51	213.68
371.89	213.67
372.27	213.72
372.65	213.65
373.03	213.60
373.41	213.56
373.78	213.58
374.16	213.34
374.54	213.30
374.92	213.25
375.30	213.31
375.68	213.28
376.06	213.23
376.44	213.17
376.82	213.18
377.19	213.12
377.57	213.03
377.95	212.87
378.33	212.82
378.71	212.65
379.09	212.74
379.47	212.73
379.84	212.62
380.22	212.54
380.60	212.54
380.98	212.52
381.36	212.46
381.73	212.42
382.11	212.51
382.49	212.42
382.87	212.25
383.25	212.16
383.62	212.37
384.00	212.33
384.38	212.28
384.76	212.17
385.13	212.25
385.51	212.21
385.89	212.19
386.27	212.20
386.64	212.23
387.02	212.10
387.40	212.05
387.78	212.12
388.15	212.04
388.53	212.05
388.91	212.04
389.29	212.03
389.66	212.03
390.04	211.98
390.42	212.01
390.79	212.06
391.17	211.95
391.55	211.77
391.92	211.79
392.30	211.79
392.68	211.75
393.05	211.76
393.43	211.71
393.81	211.79
394.18	211.69
394.56	211.62
394.94	211.70
395.31	211.67
395.69	211.71
396.06	211.75
396.44	211.66
396.82	211.61
397.19	211.68
397.57	211.73
397.95	211.72
398.32	211.68
398.70	211.75
399.07	211.88
399.45	211.90
399.82	211.86
400.20	211.93
400.58	212.01
400.95	211.91
401.33	211.96
401.70	212.05
402.08	212.09
402.45	212.19
402.83	212.26
403.20	212.32
403.58	212.35
403.95	212.51
404.33	212.65
404.71	212.79
405.08	212.94
405.46	213.00
405.83	213.06
406.21	213.22
406.58	213.37
406.96	213.51
407.33	213.66
407.70	213.82
408.08	214.14
408.45	214.36
408.83	214.64
409.20	214.76
409.58	214.88
409.95	215.16
410.33	215.47
410.70	215.64
411.08	216.00
411.45	216.22
411.82	216.50
412.20	216.89
412.57	217.34
412.95	217.67
413.32	218.13
413.69	218.65
414.07	219.12
414.44	219.64
414.82	220.15
415.19	220.74
415.56	221.37
415.94	221.87
416.31	222.61
416.68	223.38
417.06	224.35
417.43	225.19
417.81	226.13
418.18	227.08
418.55	228.18
418.93	229.25
419.30	230.42
419.67	231.66
420.04	232.95
420.42	234.10
420.79	235.60
421.16	237.06
421.54	238.62
421.91	240.19
422.28	241.75
422.66	243.54
423.03	245.31
423.40	247.18
423.77	249.15
424.15	251.05
424.52	253.06
424.89	255.29
425.26	257.44
425.64	259.43
426.01	261.73
426.38	263.96
426.75	266.38
427.13	268.83
427.50	271.33
427.87	273.84
428.24	276.58
428.61	279.00
428.99	281.73
429.36	284.70
429.73	287.67
430.10	290.74
430.47	293.76
430.85	296.92
431.22	300.36
431.59	304.00
431.96	307.46
432.33	311.16
432.70	314.81
433.08	319.15
433.45	323.13
433.82	326.96
434.19	331.47
434.56	335.82
434.93	339.94
435.30	344.10
435.68	348.79
436.05	353.30
436.42	357.80
436.79	362.12
437.16	366.58
437.53	371.29
437.90	375.84
438.27	380.42
438.64	385.08
439.01	389.36
439.38	393.10
439.75	396.73
440.13	400.93
440.50	404.88
440.87	408.06
441.24	411.49
441.61	415.32
441.98	418.03
442.35	421.17
442.72	424.28
443.09	427.41
443.46	429.23
443.83	430.48
444.20	431.61
444.57	432.99
444.94	433.61
445.31	434.35
445.68	435.20
446.05	435.53
446.42	434.94
446.79	434.39
447.16	433.74
447.53	433.29
447.90	431.66
448.27	429.83
448.64	427.35
449.01	425.59
449.37	422.49
449.74	419.45
450.11	415.90
450.48	412.20
450.85	408.13
451.22	404.68
451.59	401.46
451.96	398.51
452.33	394.55
452.70	390.98
453.07	386.52
453.43	381.93
453.80	377.56
454.17	373.52
454.54	369.58
454.91	365.34
455.28	361.36
455.65	357.47
456.02	353.83
456.38	350.65
456.75	346.66
457.12	343.37
457.49	340.17
457.86	336.93
458.23	334.20
458.59	331.17
458.96	328.18
459.33	325.46
459.70	322.71
460.07	320.48
460.43	317.98
460.80	315.61
461.17	313.60
461.54	311.38
461.91	309.40
462.27	307.25
462.64	305.57
463.01	303.64
463.38	301.90
463.74	299.97
464.11	298.37
464.48	296.97
464.85	295.42
465.21	294.29
465.58	293.14
465.95	291.68
466.32	290.55
466.68	289.44
467.05	288.30
467.42	287.14
467.78	285.84
468.15	284.72
468.52	283.91
468.88	282.78
469.25	281.94
469.62	281.13
469.98	280.30
470.35	279.51
470.72	278.77
471.08	277.85
471.45	277.26
471.82	276.69
472.18	275.88
472.55	275.30
472.92	274.66
473.28	274.16
473.65	273.70
474.02	273.21
474.38	272.84
474.75	272.56
475.11	272.23
475.48	272.20
475.85	272.01
476.21	271.90
476.58	271.95
476.94	271.91
477.31	271.87
477.67	271.94
478.04	272.10
478.41	272.32
478.77	272.80
479.14	273.00
479.50	273.23
479.87	273.77
480.23	274.31
480.60	274.73
480.96	275.26
481.33	275.91
481.69	276.65
482.06	277.26
482.42	277.95
482.79	278.71
483.15	279.54
483.52	280.63
483.88	281.68
484.25	282.64
484.61	283.79
484.98	284.92
485.34	286.26
485.71	287.59
486.07	289.00
486.44	290.18
486.80	291.69
487.17	293.32
487.53	295.06
487.90	296.83
488.26	298.84
488.62	300.74
488.99	302.76
489.35	304.89
489.72	307.25
490.08	309.74
490.44	312.25
490.81	314.82
491.17	317.38
491.54	320.33
491.90	323.35
492.26	326.50
492.63	329.88
492.99	333.35
493.36	337.06
493.72	340.89
494.08	345.00
494.45	349.27
494.81	353.77
495.17	358.21
495.54	363.02
495.90	367.89
496.26	373.02
496.63	378.40
496.99	384.04
497.35	389.86
497.72	395.92
498.08	402.18
498.44	408.85
498.80	415.78
499.17	422.90
499.53	430.33
499.89	438.09
500.26	446.12
500.62	454.15
500.98	462.56
501.34	471.34
501.71	480.50
502.07	489.81
502.43	499.38
502.79	509.34
503.16	519.60
503.52	530.14
503.88	541.02
504.24	552.09
504.60	563.65
504.97	575.57
505.33	587.53
505.69	600.15
506.05	613.13
506.41	626.11
506.78	639.16
507.14	652.57
507.50	666.34
507.86	680.48
508.22	695.06
508.59	709.78
508.95	724.77
509.31	740.09
509.67	755.78
510.03	771.66
510.39	788.12
510.75	804.75
511.12	821.69
511.48	838.96
511.84	856.44
512.20	873.77
512.56	891.29
512.92	909.39
513.28	927.33
513.64	945.47
514.00	963.99
514.37	982.80
514.73	1002.00
515.09	1021.09
515.45	1040.28
515.81	1059.87
516.17	1079.54
516.53	1098.90
516.89	1118.56
517.25	1138.16
517.61	1157.98
517.97	1177.40
518.33	1196.86
518.69	1216.40
519.05	1236.13
519.41	1255.97
519.77	1276.44
520.13	1296.61
520.49	1316.64
520.85	1337.22
521.21	1357.38
521.57	1377.92
521.93	1397.63
522.29	1418.04
522.65	1438.15
523.01	1458.16
523.37	1477.63
523.73	1497.33
524.09	1517.12
524.45	1536.58
524.81	1556.26
525.17	1575.91
525.53	1595.65
525.89	1615.53
526.25	1635.10
526.61	1653.67
526.97	1672.61
527.33	1691.06
527.68	1709.57
528.04	1727.96
528.40	1745.31
528.76	1763.05
529.12	1780.78
529.48	1799.48
529.84	1816.98
530.20	1834.59
530.56	1852.00
530.91	1869.93
531.27	1887.16
531.63	1904.36
531.99	1921.49
532.35	1937.73
532.71	1953.84
533.07	1970.63
533.42	1986.21
533.78	2002.07
534.14	2017.85
534.50	2032.12
534.86	2046.89
535.21	2060.72
535.57	2075.30
535.93	2089.93
536.29	2103.96
536.65	2117.70
537.00	2130.29
537.36	2142.65
537.72	2154.99
538.08	2167.41
538.44	2179.76
538.79	2192.35
539.15	2204.45
539.51	2216.17
539.87	2228.92
540.22	2240.27
540.58	2252.01
540.94	2263.49
541.29	2273.74
541.65	2283.06
542.01	2293.57
542.37	2302.93
542.72	2312.70
543.08	2321.41
543.44	2330.30
543.79	2338.06
544.15	2345.85
544.51	2354.30
544.87	2362.77
545.22	2369.28
545.58	2375.44
545.94	2380.23
546.29	2384.38
546.65	2388.45
547.01	2392.57
547.36	2395.73
547.72	2399.47
548.07	2401.67
548.43	2403.82
548.79	2405.72
549.14	2408.84
549.50	2411.22
549.86	2413.29
550.21	2415.35
550.57	2417.17
550.92	2418.12
551.28	2419.09
551.64	2419.71
551.99	2420.47
552.35	2420.48
552.70	2421.80
553.06	2422.54
553.41	2424.15
553.77	2425.34
554.13	2426.14
554.48	2426.69
554.84	2426.82
555.19	2425.87
555.55	2424.84
555.90	2423.93
556.26	2423.21
556.61	2421.45
556.97	2419.30
557.32	2418.07
557.68	2415.92
558.03	2413.60
558.39	2411.45
558.74	2410.05
559.10	2407.98
559.45	2405.05
559.81	2402.98
560.16	2399.63
560.52	2396.89
560.87	2393.17
561.23	2389.08
561.58	2385.87
561.94	2381.97
562.29	2377.80
562.64	2375.05
563.00	2371.97
563.35	2369.08
563.71	2366.78
564.06	2364.39
564.42	2362.00
564.77	2358.70
565.12	2356.16
565.48	2352.99
565.83	2349.85
566.19	2346.22
566.54	2341.90
566.89	2337.86
567.25	2333.55
567.60	2330.26
567.96	2326.36
568.31	2322.50
568.66	2318.51
569.02	2313.78
569.37	2308.61
569.72	2304.52
570.08	2299.40
570.43	2293.93
570.78	2288.28
571.14	2282.11
571.49	2275.70
571.84	2269.67
572.20	2263.19
572.55	2257.16
572.90	2250.65
573.26	2243.81
573.61	2237.35
573.96	2231.23
574.31	2224.23
574.67	2217.09
575.02	2209.12
575.37	2201.31
575.72	2193.15
576.08	2186.24
576.43	2178.84
576.78	2171.64
577.13	2164.65
577.49	2157.52
577.84	2150.62
578.19	2143.98
578.54	2137.33
578.90	2131.19
579.25	2123.66
579.60	2115.80
579.95	2107.44
580.30	2100.40
580.66	2093.41
581.01	2085.42
581.36	2077.28
581.71	2069.94
582.06	2062.44
582.42	2055.46
582.77	2047.53
583.12	2039.91
583.47	2032.29
583.82	2024.76
584.17	2017.20
584.53	2009.42
584.88	2001.73
585.23	1993.95
585.58	1985.57
585.93	1976.98
586.28	1969.20
586.63	1961.87
586.98	1955.15
587.34	1947.88
587.69	1940.06
588.04	1932.19
588.39	1924.88
588.74	1917.19
589.09	1909.66
589.44	1901.43
589.79	1893.84
590.14	1887.39
590.49	1880.45
590.84	1872.95
591.19	1866.18
591.54	1858.68
591.89	1850.04
592.25	1842.30
592.60	1834.21
592.95	1826.46
593.30	1818.66
593.65	1810.39
594.00	1802.00
594.35	1794.82
594.70	1787.12
595.05	1779.50
595.40	1772.10
595.75	1764.17
596.10	1757.14
596.45	1750.19
596.80	1743.74
597.15	1736.89
597.50	1728.95
597.85	1721.93
598.19	1714.54
598.54	1707.09
598.89	1700.60
599.24	1694.69
599.59	1688.32
599.94	1682.45
600.29	1675.86
600.64	1669.22
600.99	1662.04
601.34	1656.15
601.69	1648.60
602.04	1641.63
602.39	1634.94
602.74	1628.47
603.08	1622.72
603.43	1616.94
603.78	1610.15
604.13	1603.43
604.48	1596.58
604.83	1590.82
605.18	1584.61
605.53	1578.37
605.87	1572.15
606.22	1566.05
606.57	1559.34
606.92	1552.43
607.27	1545.71
607.62	1539.50
607.96	1533.85
608.31	1528.88
608.66	1522.01
609.01	1515.71
609.36	1509.38
609.70	1502.56
610.05	1495.82
610.40	1489.02
610.75	1481.68
611.10	1475.07
611.44	1467.19
611.79	1459.64
612.14	1451.55
612.49	1443.49
612.83	1436.07
613.18	1427.80
613.53	1419.72
613.88	1411.60
614.22	1404.15
614.57	1395.85
614.92	1387.76
615.27	1379.43
615.61	1370.84
615.96	1363.53
616.31	1356.10
616.65	1349.10
617.00	1342.24
617.35	1334.90
617.70	1327.23
618.04	1319.59
618.39	1311.46
618.74	1304.40
619.08	1296.85
619.43	1289.88
619.78	1283.16
620.12	1276.19
620.47	1269.53
620.82	1262.31
621.16	1255.37
621.51	1248.00
621.85	1241.22
622.20	1234.15
622.55	1227.20
622.89	1220.09
623.24	1213.20
623.59	1205.86
623.93	1198.65
624.28	1191.31
624.62	1184.42
624.97	1177.36
625.32	1170.61
625.66	1164.57
626.01	1158.42
626.35	1152.48
626.70	1145.85
627.04	1139.41
627.39	1132.97
627.73	1126.44
628.08	1120.62
628.43	1114.30
628.77	1108.13
629.12	1101.83
629.46	1096.23
629.81	1089.86
630.15	1083.81
630.50	1077.40
630.84	1071.29
631.19	1065.07
631.53	1059.24
631.88	1052.59
632.22	1046.13
632.57	1040.14
632.91	1033.52
633.26	1027.22
633.60	1020.92
633.95	1015.15
634.29	1008.72
634.64	1002.86
634.98	996.94
635.32	990.50
635.67	985.03
636.01	979.21
636.36	973.24
636.70	967.43
637.05	962.06
637.39	956.50
637.73	950.96
638.08	945.70
638.42	940.49
638.77	934.92
639.11	929.43
639.45	924.37
639.80	918.92
640.14	913.65
640.49	907.99
640.83	902.65
641.17	897.29
641.52	892.18
641.86	886.64
642.20	881.41
642.55	875.85
642.89	870.15
643.23	864.70
643.58	859.67
643.92	853.92
644.26	848.43
644.61	843.12
644.95	838.00
645.29	832.88
645.64	827.50
645.98	822.15
646.32	817.06
646.66	811.78
647.01	806.51
647.35	801.49
647.69	796.19
648.04	791.03
648.38	785.72
648.72	780.58
649.06	775.20
649.41	769.81
649.75	764.89
650.09	759.94
650.43	754.92
650.78	749.58
651.12	744.38
651.46	739.40
651.80	734.25
652.14	729.03
652.49	723.57
652.83	718.48
653.17	713.38
653.51	708.46
653.85	703.55
654.20	698.73
654.54	693.59
654.88	688.94
655.22	683.96
655.56	678.83
655.90	673.80
656.25	668.96
656.59	664.28
656.93	659.80
657.27	655.27
657.61	650.47
657.95	645.96
658.29	641.47
658.64	637.05
658.98	632.65
659.32	628.08
659.66	623.83
660.00	619.14
660.34	614.60
660.68	610.03
661.02	605.50
661.36	601.35
661.70	597.15
662.05	593.02
662.39	589.21
662.73	585.55
663.07	581.73
663.41	577.98
663.75	574.08
664.09	570.02
664.43	565.79
664.77	561.97
665.11	558.20
665.45	554.57
665.79	550.65
666.13	546.88
666.47	543.34
666.81	539.75
667.15	536.42
667.49	533.10
667.83	529.86
668.17	526.70
668.51	523.23
668.85	520.01
669.19	516.82
669.53	513.38
669.87	509.89
670.21	506.69
670.55	503.36
670.89	500.27
671.23	497.25
671.57	494.41
671.91	491.51
672.25	488.41
672.58	485.40
672.92	482.36
673.26	479.49
673.60	476.55
673.94	473.51
674.28	470.55
674.62	467.75
674.96	464.97
675.30	462.23
675.64	459.50
675.97	456.69
676.31	454.09
676.65	451.50
676.99	449.17
677.33	446.57
677.67	444.00
678.01	441.36
678.34	438.84
678.68	436.33
679.02	433.74
679.36	431.38
679.70	428.92
680.04	426.67
680.37	424.04
680.71	421.73
681.05	419.60
681.39	417.37
681.73	415.06
682.06	412.77
682.40	410.58
682.74	408.33
683.08	406.20
683.42	403.95
683.75	401.78
684.09	399.51
684.43	397.30
684.77	395.04
685.10	392.89
685.44	390.67
685.78	388.53
686.12	386.55
686.45	384.56
686.79	382.68
687.13	380.83
687.46	379.12
687.80	377.11
688.14	375.05
688.48	373.12
688.81	371.17
689.15	369.42
689.49	367.52
689.82	365.61
690.16	363.56
690.50	361.60
690.83	359.61
691.17	357.70
691.51	355.85
691.84	354.22
692.18	352.48
692.52	350.83
692.85	349.20
693.19	347.63
693.52	345.90
693.86	344.04
694.20	342.32
694.53	340.63
694.87	338.96
695.21	337.40
695.54	335.72
695.88	334.02
696.21	332.27
696.55	330.72
696.88	329.23
697.22	327.79
697.56	326.44
697.89	325.06
698.23	323.70
698.56	322.36
698.90	321.01
699.23	319.61
699.57	318.25
699.90	316.91
700.24	315.34
700.58	313.92
700.91	312.76
701.25	311.43
701.58	310.22
701.92	309.07
702.25	307.85
702.59	306.77
702.92	305.67
703.26	304.53
703.59	303.39
703.93	302.43
704.26	301.47
704.60	300.35
704.93	299.28
705.26	298.11
705.60	297.07
705.93	295.99
706.27	295.00
706.60	294.09
706.94	293.15
707.27	292.27
707.61	291.41
707.94	290.33
708.27	289.27
708.61	288.25
708.94	287.34
709.28	286.38
709.61	285.38
709.94	284.55
710.28	283.62
710.61	282.71
710.95	281.65
711.28	280.79
711.61	279.87
711.95	279.04
712.28	278.17
712.61	277.34
712.95	276.61
713.28	275.87
713.61	274.94
713.95	274.04
714.28	273.20
714.61	272.37
714.95	271.60
715.28	270.87
715.61	270.06
715.95	269.23
716.28	268.51
716.61	267.78
716.95	267.03
717.28	266.35
717.61	265.58
717.94	264.88
718.28	264.06
718.61	263.39
718.94	262.72
719.27	262.21
719.61	261.59
719.94	260.88
720.27	260.10
720.60	259.50
720.94	258.91
721.27	258.42
721.60	257.84
721.93	257.49
722.27	256.96
722.60	256.43
722.93	255.95
723.26	255.42
723.59	254.90
723.93	254.35
724.26	253.79
724.59	253.39
724.92	253.01
725.25	252.52
725.59	252.03
725.92	251.66
726.25	251.09
726.58	250.59
726.91	250.17
727.24	249.86
727.57	249.39
727.91	248.89
728.24	248.49
728.57	248.11
728.90	247.55
729.23	247.12
729.56	246.82
729.89	246.34
730.22	245.93
730.55	245.50
730.89	245.11
731.22	244.79
731.55	244.35
731.88	243.91
732.21	243.55
732.54	243.20
732.87	242.69
733.20	242.39
733.53	242.06
733.86	241.64
734.19	241.19
734.52	240.90
734.85	240.78
735.18	240.32
735.51	239.97
735.84	239.56
736.17	239.21
736.50	238.79
736.83	238.72
737.16	238.35
737.49	238.06
737.82	237.72
738.15	237.36
738.48	237.04
738.81	236.71
739.14	236.46
739.47	236.14
739.80	235.90
740.13	235.63
740.46	235.29
740.79	234.95
741.12	234.66
741.45	234.39
741.78	233.94
742.11	233.79
742.44	233.60
742.77	233.46
743.10	233.26
743.43	233.06
743.75	232.56
744.08	232.60
744.41	232.37
744.74	232.14
745.07	231.96
745.40	231.78
745.73	231.61
746.06	231.31
746.39	231.09
746.71	230.85
747.04	230.52
747.37	230.33
747.70	230.21
748.03	230.04
748.36	229.81
748.68	229.61
749.01	229.29
749.34	228.97
749.67	228.73
750.00	228.56
750.33	228.40
750.65	228.25
750.98	227.78
751.31	227.56
751.64	227.38
751.97	227.25
752.29	227.05
752.62	226.78
752.95	226.68
753.28	226.44
753.60	226.29
753.93	226.23
754.26	226.04
754.59	225.68
754.91	225.47
755.24	225.24
755.57	225.15
755.90	224.98
756.22	224.79
756.55	224.62
756.88	224.38
757.20	224.12
757.53	223.88
757.86	223.78
758.19	223.64
758.51	223.48
758.84	223.19
759.17	223.05
759.49	222.85
759.82	222.68
760.15	222.53
760.47	222.35
760.80	222.14
761.13	222.02
761.45	221.97
761.78	221.84
762.11	221.69
762.43	221.48
762.76	221.40
763.08	221.24
763.41	221.09
763.74	220.96
764.06	220.83
764.39	220.75
764.71	220.57
765.04	220.44
765.37	220.28
765.69	220.18
766.02	220.01
766.34	219.95
766.67	219.83
767.00	219.82
767.32	219.86
767.65	219.83
767.97	219.75
768.30	219.65
768.62	219.54
768.95	219.45
769.27	219.34
769.60	219.27
769.92	219.18
770.25	219.04
770.57	218.93
770.90	218.78
771.22	218.67
771.55	218.60
771.87	218.50
772.20	218.44
772.52	218.53
772.85	218.59
773.17	218.53
773.50	218.39
773.82	218.27
774.15	218.05
774.47	217.81
774.80	217.68
775.12	217.63
775.45	217.49
775.77	217.44
776.09	217.35
776.42	217.20
776.74	217.17
777.07	217.12
777.39	217.03
777.72	217.05
778.04	216.96
778.36	216.86
778.69	216.80
779.01	216.73
779.33	216.46
779.66	216.29
779.98	216.18
780.31	216.11
780.63	216.16
780.95	216.11
781.28	216.15
781.60	216.07
781.92	216.06
782.25	216.01
782.57	215.99
782.89	215.95
783.22	215.95
783.54	215.91
783.86	215.92
784.19	215.88
784.51	215.81
784.83	215.77
785.16	215.69
785.48	215.63
785.80	215.57
786.12	215.61
786.45	215.53
786.77	215.48
787.09	215.49
