SpectraSuite Data File
++++++++++++++++++++++++++++++++++++
Date: Mon Feb 25 17:29:50 EST 2013
User: group
Dark Spectrum Present: No
Reference Spectrum Present: No
Number of Sampled Component Spectra: 1
Spectrometers: USB2E7196
Integration Time (usec): 52000 (USB2E7196)
Spectra Averaged: 20 (USB2E7196)
Boxcar Smoothing: 10 (USB2E7196)
Correct for Electrical Dark: No (USB2E7196)
Strobe/Lamp Enabled: No (USB2E7196)
Correct for Detector Non-linearity: No (USB2E7196)
Correct for Stray Light: No (USB2E7196)
Number of Pixels in Processed Spectrum: 2048
>>>>>Begin Processed Spectral Data<<<<<
339.09	0.00
339.48	199.85
339.86	200.65
340.24	201.30
340.63	202.45
341.01	209.35
341.39	206.05
341.78	207.50
342.16	207.60
342.54	209.65
342.93	198.26
343.31	208.33
343.69	208.80
344.07	209.21
344.46	209.68
344.84	210.14
345.22	210.21
345.60	210.47
345.99	210.70
346.37	210.90
346.75	210.99
347.13	211.05
347.52	211.27
347.90	211.40
348.28	211.39
348.66	211.45
349.05	211.45
349.43	211.56
349.81	211.63
350.19	211.65
350.57	211.77
350.96	211.92
351.34	211.97
351.72	212.11
352.10	212.26
352.48	212.27
352.87	212.31
353.25	212.42
353.63	212.47
354.01	212.48
354.39	212.55
354.77	212.62
355.15	212.77
355.54	212.73
355.92	212.70
356.30	212.80
356.68	212.96
357.06	213.05
357.44	213.06
357.82	213.10
358.20	213.17
358.58	213.16
358.97	213.24
359.35	213.35
359.73	213.38
360.11	213.40
360.49	213.50
360.87	213.51
361.25	213.53
361.63	213.62
362.01	213.67
362.39	213.70
362.77	213.76
363.15	213.76
363.53	213.79
363.91	213.76
364.29	213.82
364.67	213.70
365.05	213.68
365.43	213.72
365.81	213.75
366.19	213.89
366.57	213.95
366.95	213.83
367.33	213.78
367.71	213.83
368.09	213.85
368.47	213.87
368.85	213.82
369.23	213.82
369.61	213.80
369.99	213.83
370.37	213.83
370.75	213.90
371.13	213.86
371.51	213.79
371.89	213.71
372.27	213.61
372.65	213.63
373.03	213.55
373.41	213.54
373.78	213.50
374.16	213.31
374.54	213.22
374.92	213.26
375.30	213.23
375.68	213.14
376.06	213.07
376.44	212.95
376.82	212.92
377.19	212.87
377.57	212.80
377.95	212.69
378.33	212.56
378.71	212.36
379.09	212.31
379.47	212.26
379.84	212.27
380.22	212.25
380.60	212.16
380.98	212.12
381.36	212.07
381.73	212.02
382.11	212.02
382.49	211.94
382.87	211.84
383.25	211.73
383.62	211.86
384.00	211.87
384.38	211.84
384.76	211.89
385.13	211.91
385.51	211.87
385.89	211.83
386.27	211.87
386.64	211.88
387.02	211.83
387.40	211.83
387.78	211.83
388.15	211.76
388.53	211.66
388.91	211.62
389.29	211.58
389.66	211.56
390.04	211.52
390.42	211.52
390.79	211.57
391.17	211.60
391.55	211.41
391.92	211.25
392.30	211.29
392.68	211.20
393.05	211.19
393.43	211.22
393.81	211.22
394.18	211.16
394.56	211.10
394.94	211.15
395.31	211.12
395.69	211.17
396.06	211.22
396.44	211.28
396.82	211.32
397.19	211.45
397.57	211.42
397.95	211.49
398.32	211.51
398.70	211.46
399.07	211.46
399.45	211.48
399.82	211.56
400.20	211.61
400.58	211.67
400.95	211.58
401.33	211.65
401.70	211.83
402.08	211.93
402.45	212.10
402.83	212.19
403.20	212.28
403.58	212.33
403.95	212.46
404.33	212.57
404.71	212.71
405.08	212.86
405.46	213.00
405.83	213.10
406.21	213.34
406.58	213.57
406.96	213.78
407.33	213.99
407.70	214.18
408.08	214.45
408.45	214.64
408.83	214.94
409.20	215.14
409.58	215.25
409.95	215.49
410.33	215.64
410.70	215.86
411.08	216.16
411.45	216.45
411.82	216.74
412.20	217.16
412.57	217.56
412.95	217.81
413.32	218.28
413.69	218.71
414.07	219.12
414.44	219.61
414.82	220.14
415.19	220.75
415.56	221.42
415.94	221.97
416.31	222.75
416.68	223.47
417.06	224.29
417.43	225.12
417.81	226.04
418.18	227.10
418.55	228.13
418.93	229.25
419.30	230.38
419.67	231.55
420.04	232.66
420.42	233.93
420.79	235.54
421.16	236.96
421.54	238.54
421.91	240.15
422.28	241.74
422.66	243.42
423.03	245.21
423.40	247.07
423.77	249.09
424.15	250.99
424.52	253.07
424.89	255.26
425.26	257.38
425.64	259.43
426.01	261.57
426.38	263.90
426.75	266.25
427.13	268.68
427.50	271.13
427.87	273.87
428.24	276.57
428.61	278.93
428.99	281.85
429.36	284.80
429.73	287.76
430.10	290.82
430.47	293.95
430.85	297.09
431.22	300.38
431.59	303.97
431.96	307.40
432.33	311.21
432.70	314.86
433.08	319.17
433.45	323.25
433.82	327.34
434.19	331.86
434.56	336.22
434.93	340.37
435.30	344.71
435.68	349.27
436.05	353.75
436.42	358.27
436.79	362.35
437.16	366.84
437.53	371.40
437.90	375.97
438.27	380.54
438.64	385.08
439.01	389.47
439.38	393.28
439.75	397.06
440.13	401.24
440.50	405.18
440.87	408.39
441.24	411.74
441.61	415.37
441.98	418.06
442.35	421.14
442.72	424.46
443.09	427.55
443.46	429.46
443.83	430.70
444.20	431.66
444.57	433.21
444.94	433.76
445.31	434.62
445.68	435.36
446.05	435.55
446.42	435.06
446.79	434.43
447.16	433.63
447.53	433.16
447.90	431.49
448.27	429.75
448.64	427.33
449.01	425.50
449.37	422.44
449.74	419.50
450.11	416.11
450.48	412.17
450.85	408.18
451.22	404.84
451.59	401.68
451.96	398.70
452.33	394.65
452.70	390.96
453.07	386.60
453.43	382.09
453.80	377.67
454.17	373.61
454.54	369.68
454.91	365.62
455.28	361.42
455.65	357.55
456.02	353.86
456.38	350.61
456.75	346.61
457.12	343.25
457.49	339.90
457.86	336.56
458.23	333.76
458.59	330.74
458.96	327.65
459.33	324.96
459.70	322.25
460.07	320.07
460.43	317.72
460.80	315.30
461.17	313.31
461.54	311.34
461.91	309.38
462.27	307.35
462.64	305.62
463.01	303.83
463.38	301.95
463.74	300.03
464.11	298.45
464.48	297.09
464.85	295.61
465.21	294.48
465.58	293.31
465.95	291.87
466.32	290.65
466.68	289.42
467.05	288.20
467.42	287.07
467.78	285.76
468.15	284.52
468.52	283.70
468.88	282.58
469.25	281.57
469.62	280.76
469.98	279.89
470.35	279.10
470.72	278.30
471.08	277.59
471.45	276.99
471.82	276.33
472.18	275.61
472.55	275.12
472.92	274.49
473.28	274.02
473.65	273.57
474.02	273.10
474.38	272.70
474.75	272.48
475.11	272.15
475.48	272.07
475.85	272.05
476.21	271.94
476.58	271.90
476.94	272.00
477.31	272.04
477.67	272.17
478.04	272.26
478.41	272.42
478.77	272.81
479.14	272.96
479.50	273.31
479.87	273.68
480.23	274.17
480.60	274.59
480.96	275.14
481.33	275.85
481.69	276.64
482.06	277.42
482.42	278.10
482.79	278.92
483.15	279.83
483.52	280.83
483.88	281.82
484.25	282.77
484.61	283.78
484.98	284.93
485.34	286.26
485.71	287.61
486.07	289.06
486.44	290.28
486.80	291.84
487.17	293.54
487.53	295.33
487.90	297.19
488.26	299.04
488.62	301.03
488.99	303.09
489.35	305.19
489.72	307.51
490.08	309.90
490.44	312.53
490.81	315.07
491.17	317.68
491.54	320.57
491.90	323.68
492.26	326.96
492.63	330.26
492.99	333.67
493.36	337.26
493.72	341.17
494.08	345.19
494.45	349.43
494.81	353.80
495.17	358.32
495.54	363.08
495.90	368.03
496.26	373.20
496.63	378.58
496.99	384.20
497.35	390.07
497.72	396.19
498.08	402.33
498.44	408.99
498.80	416.05
499.17	423.36
499.53	430.74
499.89	438.33
500.26	446.13
500.62	454.11
500.98	462.76
501.34	471.49
501.71	480.68
502.07	490.00
502.43	499.63
502.79	509.60
503.16	519.95
503.52	530.66
503.88	541.36
504.24	552.57
504.60	563.99
504.97	575.65
505.33	587.53
505.69	600.32
506.05	613.15
506.41	625.91
506.78	638.85
507.14	652.42
507.50	666.40
507.86	680.69
508.22	695.41
508.59	710.09
508.95	725.07
509.31	740.36
509.67	756.18
510.03	771.97
510.39	788.45
510.75	804.89
511.12	821.63
511.48	838.73
511.84	855.96
512.20	873.30
512.56	891.41
512.92	909.66
513.28	927.65
513.64	945.87
514.00	964.25
514.37	983.06
514.73	1002.13
515.09	1021.28
515.45	1040.41
515.81	1060.00
516.17	1079.52
516.53	1098.97
516.89	1118.78
517.25	1138.26
517.61	1157.88
517.97	1177.26
518.33	1196.92
518.69	1216.60
519.05	1236.67
519.41	1256.65
519.77	1277.38
520.13	1296.99
520.49	1316.89
520.85	1337.18
521.21	1357.22
521.57	1377.88
521.93	1397.53
522.29	1418.02
522.65	1437.99
523.01	1458.00
523.37	1477.24
523.73	1496.98
524.09	1516.79
524.45	1536.68
524.81	1556.72
525.17	1576.58
525.53	1596.33
525.89	1616.00
526.25	1635.40
526.61	1653.92
526.97	1672.72
527.33	1690.94
527.68	1709.80
528.04	1728.32
528.40	1745.95
528.76	1764.13
529.12	1782.08
529.48	1800.86
529.84	1818.38
530.20	1835.63
530.56	1852.96
530.91	1871.00
531.27	1888.48
531.63	1905.60
531.99	1921.95
532.35	1938.02
532.71	1953.83
533.07	1970.36
533.42	1985.87
533.78	2001.81
534.14	2017.41
534.50	2032.19
534.86	2047.19
535.21	2060.84
535.57	2075.38
535.93	2089.30
536.29	2102.99
536.65	2116.74
537.00	2129.23
537.36	2141.51
537.72	2154.58
538.08	2167.00
538.44	2179.23
538.79	2191.36
539.15	2203.38
539.51	2215.40
539.87	2227.73
540.22	2239.56
540.58	2251.35
540.94	2262.78
541.29	2272.82
541.65	2282.89
542.01	2293.28
542.37	2302.70
542.72	2312.34
543.08	2320.77
543.44	2330.49
543.79	2338.30
544.15	2345.87
544.51	2354.59
544.87	2362.94
545.22	2369.26
545.58	2375.68
545.94	2380.62
546.29	2384.78
546.65	2388.99
547.01	2392.98
547.36	2396.36
547.72	2400.04
548.07	2402.29
548.43	2404.23
548.79	2406.32
549.14	2408.52
549.50	2410.58
549.86	2412.60
550.21	2414.94
550.57	2417.43
550.92	2418.22
551.28	2419.27
551.64	2419.94
551.99	2420.22
552.35	2420.12
552.70	2421.30
553.06	2422.43
553.41	2423.90
553.77	2425.38
554.13	2425.89
554.48	2426.44
554.84	2426.63
555.19	2425.70
555.55	2424.75
555.90	2423.82
556.26	2423.30
556.61	2422.19
556.97	2419.80
557.32	2418.50
557.68	2415.86
558.03	2412.95
558.39	2410.40
558.74	2408.89
559.10	2407.15
559.45	2404.47
559.81	2402.79
560.16	2399.38
560.52	2396.07
560.87	2392.41
561.23	2388.28
561.58	2385.45
561.94	2381.63
562.29	2377.43
562.64	2374.60
563.00	2371.77
563.35	2369.37
563.71	2366.55
564.06	2363.95
564.42	2361.46
564.77	2358.25
565.12	2356.01
565.48	2352.90
565.83	2349.72
566.19	2346.12
566.54	2341.38
566.89	2337.41
567.25	2332.91
567.60	2329.23
567.96	2325.41
568.31	2321.68
568.66	2317.77
569.02	2312.87
569.37	2307.82
569.72	2304.00
570.08	2298.80
570.43	2293.08
570.78	2287.33
571.14	2281.46
571.49	2275.10
571.84	2269.75
572.20	2263.48
572.55	2256.90
572.90	2250.37
573.26	2243.74
573.61	2237.06
573.96	2231.06
574.31	2224.16
574.67	2216.78
575.02	2209.48
575.37	2201.82
575.72	2193.60
576.08	2186.63
576.43	2179.17
576.78	2172.30
577.13	2164.95
577.49	2157.96
577.84	2151.19
578.19	2144.67
578.54	2137.85
578.90	2131.83
579.25	2124.18
579.60	2115.86
579.95	2108.12
580.30	2101.28
580.66	2094.29
581.01	2086.43
581.36	2078.35
581.71	2070.80
582.06	2063.51
582.42	2056.35
582.77	2048.57
583.12	2041.09
583.47	2033.44
583.82	2026.17
584.17	2017.76
584.53	2009.90
584.88	2001.84
585.23	1994.04
585.58	1985.53
585.93	1977.54
586.28	1969.34
586.63	1961.70
586.98	1954.88
587.34	1947.35
587.69	1939.32
588.04	1931.58
588.39	1924.41
588.74	1916.70
589.09	1909.23
589.44	1901.10
589.79	1893.45
590.14	1886.66
590.49	1879.59
590.84	1872.15
591.19	1865.38
591.54	1858.42
591.89	1849.86
592.25	1842.19
592.60	1833.91
592.95	1826.05
593.30	1817.73
593.65	1809.50
594.00	1801.21
594.35	1794.23
594.70	1786.67
595.05	1779.30
595.40	1771.46
595.75	1763.65
596.10	1756.79
596.45	1749.84
596.80	1743.29
597.15	1736.07
597.50	1727.95
597.85	1720.83
598.19	1713.30
598.54	1705.88
598.89	1699.25
599.24	1693.68
599.59	1687.50
599.94	1681.83
600.29	1675.43
600.64	1668.80
600.99	1661.86
601.34	1655.66
601.69	1647.95
602.04	1641.06
602.39	1634.37
602.74	1628.22
603.08	1622.67
603.43	1616.64
603.78	1609.78
604.13	1602.72
604.48	1596.44
604.83	1590.78
605.18	1584.86
605.53	1578.53
605.87	1572.00
606.22	1566.06
606.57	1559.50
606.92	1552.70
607.27	1545.77
607.62	1539.62
607.96	1533.96
608.31	1528.46
608.66	1522.10
609.01	1515.90
609.36	1509.53
609.70	1502.57
610.05	1495.60
610.40	1488.24
610.75	1481.00
611.10	1474.58
611.44	1467.15
611.79	1459.36
612.14	1451.36
612.49	1443.05
612.83	1435.81
613.18	1427.57
613.53	1419.15
613.88	1410.50
614.22	1402.80
614.57	1394.66
614.92	1386.62
615.27	1378.77
615.61	1370.54
615.96	1362.94
616.31	1355.52
616.65	1348.75
617.00	1341.55
617.35	1334.48
617.70	1326.97
618.04	1319.44
618.39	1311.39
618.74	1304.30
619.08	1296.96
619.43	1290.21
619.78	1283.62
620.12	1276.58
620.47	1270.05
620.82	1262.95
621.16	1255.81
621.51	1248.63
621.85	1241.88
622.20	1234.63
622.55	1227.40
622.89	1220.31
623.24	1213.57
623.59	1206.22
623.93	1198.77
624.28	1191.72
624.62	1184.59
624.97	1177.46
625.32	1170.61
625.66	1164.31
626.01	1158.10
626.35	1151.96
626.70	1145.20
627.04	1138.72
627.39	1132.13
627.73	1125.60
628.08	1119.74
628.43	1113.73
628.77	1107.68
629.12	1101.12
629.46	1095.44
629.81	1089.08
630.15	1082.91
630.50	1076.36
630.84	1070.28
631.19	1064.21
631.53	1058.55
631.88	1052.07
632.22	1045.82
632.57	1039.85
632.91	1033.41
633.26	1026.93
633.60	1020.65
633.95	1014.84
634.29	1008.46
634.64	1002.78
634.98	996.77
635.32	990.68
635.67	985.12
636.01	979.25
636.36	973.39
636.70	967.58
637.05	962.00
637.39	956.44
637.73	951.06
638.08	945.91
638.42	940.67
638.77	935.08
639.11	929.80
639.45	924.69
639.80	919.17
640.14	913.71
640.49	908.48
640.83	903.41
641.17	897.98
641.52	892.94
641.86	887.41
642.20	882.08
642.55	876.30
642.89	870.79
643.23	865.44
643.58	860.41
643.92	854.85
644.26	849.40
644.61	844.20
644.95	838.99
645.29	833.68
645.64	828.02
645.98	822.67
646.32	817.50
646.66	812.21
647.01	807.11
647.35	802.10
647.69	796.58
648.04	791.25
648.38	785.99
648.72	780.67
649.06	775.38
649.41	770.24
649.75	765.19
650.09	760.14
650.43	754.94
650.78	749.65
651.12	744.37
651.46	739.54
651.80	734.50
652.14	729.36
652.49	724.28
652.83	719.38
653.17	714.14
653.51	709.15
653.85	704.15
654.20	698.99
654.54	693.83
654.88	689.15
655.22	684.27
655.56	679.26
655.90	674.21
656.25	669.20
656.59	664.54
656.93	660.10
657.27	655.45
657.61	650.77
657.95	646.44
658.29	642.04
658.64	637.56
658.98	633.01
659.32	628.38
659.66	623.72
660.00	619.03
660.34	614.44
660.68	609.87
661.02	605.54
661.36	601.32
661.70	597.20
662.05	593.17
662.39	589.15
662.73	585.41
663.07	581.70
663.41	577.94
663.75	573.92
664.09	569.78
664.43	565.70
664.77	562.04
665.11	558.13
665.45	554.33
665.79	550.53
666.13	546.74
666.47	543.02
666.81	539.61
667.15	536.19
667.49	532.98
667.83	529.70
668.17	526.38
668.51	523.20
668.85	519.94
669.19	516.71
669.53	513.35
669.87	509.88
670.21	506.54
670.55	503.15
670.89	500.14
671.23	497.27
671.57	494.43
671.91	491.16
672.25	488.14
672.58	485.13
672.92	482.27
673.26	479.52
673.60	476.75
673.94	473.85
674.28	471.00
674.62	468.17
674.96	465.51
675.30	462.79
675.64	459.96
675.97	457.21
676.31	454.51
676.65	451.96
676.99	449.61
677.33	447.10
677.67	444.57
678.01	441.93
678.34	439.34
678.68	436.85
679.02	434.26
679.36	431.81
679.70	429.54
680.04	426.89
680.37	424.28
680.71	421.88
681.05	419.61
681.39	417.27
681.73	414.95
682.06	412.74
682.40	410.58
682.74	408.40
683.08	406.38
683.42	404.12
683.75	401.88
684.09	399.60
684.43	397.45
684.77	395.42
685.10	393.18
685.44	391.04
685.78	388.83
686.12	387.00
686.45	385.02
686.79	382.93
687.13	381.15
687.46	379.31
687.80	377.52
688.14	375.43
688.48	373.68
688.81	371.77
689.15	369.81
689.49	367.81
689.82	365.96
690.16	363.83
690.50	361.89
690.83	360.03
691.17	358.19
691.51	356.35
691.84	354.57
692.18	352.81
692.52	351.09
692.85	349.60
693.19	347.91
693.52	346.18
693.86	344.45
694.20	342.69
694.53	341.02
694.87	339.34
695.21	337.65
695.54	335.87
695.88	334.27
696.21	332.58
696.55	331.03
696.88	329.48
697.22	328.02
697.56	326.70
697.89	325.21
698.23	323.79
698.56	322.38
698.90	321.00
699.23	319.70
699.57	318.36
699.90	316.88
700.24	315.43
700.58	314.02
700.91	312.74
701.25	311.66
701.58	310.54
701.92	309.17
702.25	307.97
702.59	306.83
702.92	305.70
703.26	304.58
703.59	303.47
703.93	302.56
704.26	301.50
704.60	300.31
704.93	299.17
705.26	298.06
705.60	297.04
705.93	295.99
706.27	294.95
706.60	293.96
706.94	293.07
707.27	292.11
707.61	291.18
707.94	290.28
708.27	289.14
708.61	288.08
708.94	287.22
709.28	286.33
709.61	285.40
709.94	284.49
710.28	283.59
710.61	282.71
710.95	281.58
711.28	280.80
711.61	279.92
711.95	279.17
712.28	278.33
712.61	277.45
712.95	276.67
713.28	275.87
713.61	275.00
713.95	274.14
714.28	273.39
714.61	272.61
714.95	271.88
715.28	271.14
715.61	270.29
715.95	269.50
716.28	268.65
716.61	267.95
716.95	267.09
717.28	266.39
717.61	265.69
717.94	265.03
718.28	264.26
718.61	263.61
718.94	262.87
719.27	262.18
719.61	261.61
719.94	260.92
720.27	260.27
720.60	259.60
720.94	258.91
721.27	258.34
721.60	257.77
721.93	257.09
722.27	256.57
722.60	256.09
722.93	255.54
723.26	255.16
723.59	254.62
723.93	254.21
724.26	253.71
724.59	253.24
724.92	252.71
725.25	252.22
725.59	251.74
725.92	251.33
726.25	250.96
726.58	250.39
726.91	249.97
727.24	249.49
727.57	249.11
727.91	248.67
728.24	248.24
728.57	247.73
728.90	247.35
729.23	246.96
729.56	246.63
729.89	246.24
730.22	245.75
730.55	245.29
730.89	244.94
731.22	244.56
731.55	244.11
731.88	243.79
732.21	243.38
732.54	242.93
732.87	242.50
733.20	242.14
733.53	241.79
733.86	241.42
734.19	241.10
734.52	240.82
734.85	240.66
735.18	240.23
735.51	240.01
735.84	239.65
736.17	239.26
736.50	238.85
736.83	238.72
737.16	238.45
737.49	238.21
737.82	237.82
738.15	237.47
738.48	237.17
738.81	236.83
739.14	236.55
739.47	236.32
739.80	236.04
740.13	235.74
740.46	235.41
740.79	235.21
741.12	234.95
741.45	234.61
741.78	234.23
742.11	234.07
742.44	233.80
742.77	233.56
743.10	233.30
743.43	232.99
743.75	232.61
744.08	232.56
744.41	232.28
744.74	232.00
745.07	231.75
745.40	231.53
745.73	231.36
746.06	231.12
746.39	230.89
746.71	230.71
747.04	230.40
747.37	230.25
747.70	229.90
748.03	229.63
748.36	229.49
748.68	229.19
749.01	228.90
749.34	228.67
749.67	228.47
750.00	228.34
750.33	228.30
750.65	228.04
750.98	227.57
751.31	227.36
751.64	227.22
751.97	227.14
752.29	227.00
752.62	226.75
752.95	226.56
753.28	226.36
753.60	226.10
753.93	226.05
754.26	225.80
754.59	225.60
754.91	225.38
755.24	225.12
755.57	225.00
755.90	224.82
756.22	224.57
756.55	224.41
756.88	224.25
757.20	224.03
757.53	223.86
757.86	223.75
758.19	223.63
758.51	223.53
758.84	223.20
759.17	222.96
759.49	222.83
759.82	222.77
760.15	222.63
760.47	222.52
760.80	222.28
761.13	222.16
761.45	222.07
761.78	221.93
762.11	221.85
762.43	221.68
762.76	221.58
763.08	221.55
763.41	221.43
763.74	221.20
764.06	221.00
764.39	220.89
764.71	220.75
765.04	220.59
765.37	220.37
765.69	220.30
766.02	220.26
766.34	220.08
766.67	219.86
767.00	219.80
767.32	219.74
767.65	219.80
767.97	219.69
768.30	219.62
768.62	219.56
768.95	219.40
769.27	219.33
769.60	219.24
769.92	219.06
770.25	218.90
770.57	218.85
770.90	218.71
771.22	218.50
771.55	218.53
771.87	218.49
772.20	218.41
772.52	218.49
772.85	218.59
773.17	218.60
773.50	218.59
773.82	218.54
774.15	218.39
774.47	218.15
774.80	218.03
775.12	217.97
775.45	217.87
775.77	217.82
776.09	217.73
776.42	217.70
776.74	217.75
777.07	217.72
777.39	217.72
777.72	217.71
778.04	217.77
778.36	217.56
778.69	217.46
779.01	217.48
779.33	217.28
779.66	216.96
779.98	216.81
780.31	216.70
780.63	216.62
780.95	216.55
781.28	216.50
781.60	216.46
781.92	216.40
782.25	216.35
782.57	216.32
782.89	216.32
783.22	216.22
783.54	216.15
783.86	216.12
784.19	216.03
784.51	216.02
784.83	215.94
785.16	215.85
785.48	215.83
785.80	215.72
786.12	215.65
786.45	215.63
786.77	215.62
787.09	215.63
