SpectraSuite Data File
++++++++++++++++++++++++++++++++++++
Date: Mon Feb 25 17:29:54 EST 2013
User: group
Dark Spectrum Present: No
Reference Spectrum Present: No
Number of Sampled Component Spectra: 1
Spectrometers: USB2E7196
Integration Time (usec): 52000 (USB2E7196)
Spectra Averaged: 20 (USB2E7196)
Boxcar Smoothing: 10 (USB2E7196)
Correct for Electrical Dark: No (USB2E7196)
Strobe/Lamp Enabled: No (USB2E7196)
Correct for Detector Non-linearity: No (USB2E7196)
Correct for Stray Light: No (USB2E7196)
Number of Pixels in Processed Spectrum: 2048
>>>>>Begin Processed Spectral Data<<<<<
339.09	0.00
339.48	199.05
339.86	201.60
340.24	202.10
340.63	202.55
341.01	206.85
341.39	206.25
341.78	207.65
342.16	209.90
342.54	209.70
342.93	198.40
343.31	208.41
343.69	208.94
344.07	209.35
344.46	209.74
344.84	210.19
345.22	210.41
345.60	210.62
345.99	210.82
346.37	210.88
346.75	210.97
347.13	211.10
347.52	211.20
347.90	211.26
348.28	211.22
348.66	211.27
349.05	211.30
349.43	211.32
349.81	211.39
350.19	211.48
350.57	211.51
350.96	211.50
351.34	211.59
351.72	211.66
352.10	211.79
352.48	211.87
352.87	211.90
353.25	211.94
353.63	211.98
354.01	211.98
354.39	212.00
354.77	212.01
355.15	212.06
355.54	212.07
355.92	212.16
356.30	212.23
356.68	212.35
357.06	212.39
357.44	212.48
357.82	212.52
358.20	212.65
358.58	212.69
358.97	212.83
359.35	212.95
359.73	213.12
360.11	213.12
360.49	213.17
360.87	213.22
361.25	213.25
361.63	213.35
362.01	213.41
362.39	213.48
362.77	213.53
363.15	213.54
363.53	213.56
363.91	213.55
364.29	213.57
364.67	213.44
365.05	213.56
365.43	213.64
365.81	213.62
366.19	213.60
366.57	213.71
366.95	213.75
367.33	213.66
367.71	213.61
368.09	213.72
368.47	213.70
368.85	213.69
369.23	213.76
369.61	213.68
369.99	213.70
370.37	213.75
370.75	213.87
371.13	213.82
371.51	213.80
371.89	213.68
372.27	213.68
372.65	213.70
373.03	213.60
373.41	213.50
373.78	213.53
374.16	213.41
374.54	213.30
374.92	213.22
375.30	213.26
375.68	213.22
376.06	213.13
376.44	213.11
376.82	213.10
377.19	213.08
377.57	213.11
377.95	213.04
378.33	212.97
378.71	212.73
379.09	212.74
379.47	212.78
379.84	212.75
380.22	212.73
380.60	212.65
380.98	212.62
381.36	212.49
381.73	212.37
382.11	212.49
382.49	212.39
382.87	212.33
383.25	212.23
383.62	212.28
384.00	212.17
384.38	212.11
384.76	212.12
385.13	212.13
385.51	212.15
385.89	212.10
386.27	212.07
386.64	212.10
387.02	212.11
387.40	212.01
387.78	212.06
388.15	211.99
388.53	211.97
388.91	211.89
389.29	211.91
389.66	211.95
390.04	211.84
390.42	211.89
390.79	211.89
391.17	211.91
391.55	211.73
391.92	211.72
392.30	211.77
392.68	211.60
393.05	211.53
393.43	211.45
393.81	211.44
394.18	211.45
394.56	211.41
394.94	211.39
395.31	211.40
395.69	211.41
396.06	211.49
396.44	211.56
396.82	211.59
397.19	211.74
397.57	211.73
397.95	211.78
398.32	211.80
398.70	211.78
399.07	211.82
399.45	211.88
399.82	211.93
400.20	211.89
400.58	212.00
400.95	211.96
401.33	212.04
401.70	212.27
402.08	212.21
402.45	212.29
402.83	212.30
403.20	212.38
403.58	212.39
403.95	212.39
404.33	212.42
404.71	212.53
405.08	212.70
405.46	212.77
405.83	212.87
406.21	212.88
406.58	213.01
406.96	213.11
407.33	213.27
407.70	213.44
408.08	213.80
408.45	213.97
408.83	214.26
409.20	214.38
409.58	214.47
409.95	214.81
410.33	215.09
410.70	215.38
411.08	215.67
411.45	216.00
411.82	216.30
412.20	216.72
412.57	217.18
412.95	217.37
413.32	217.76
413.69	218.15
414.07	218.74
414.44	219.23
414.82	219.77
415.19	220.43
415.56	221.01
415.94	221.54
416.31	222.30
416.68	223.06
417.06	223.97
417.43	224.80
417.81	225.73
418.18	226.71
418.55	227.81
418.93	228.93
419.30	230.09
419.67	231.31
420.04	232.53
420.42	233.78
420.79	235.44
421.16	237.05
421.54	238.65
421.91	240.09
422.28	241.82
422.66	243.62
423.03	245.42
423.40	247.25
423.77	249.18
424.15	251.08
424.52	253.06
424.89	255.25
425.26	257.41
425.64	259.50
426.01	261.72
426.38	263.98
426.75	266.35
427.13	268.78
427.50	271.40
427.87	274.03
428.24	276.66
428.61	279.12
428.99	281.84
429.36	284.83
429.73	287.93
430.10	290.95
430.47	294.03
430.85	297.05
431.22	300.39
431.59	304.08
431.96	307.54
432.33	311.30
432.70	314.94
433.08	319.21
433.45	323.23
433.82	327.29
434.19	331.74
434.56	336.04
434.93	340.19
435.30	344.33
435.68	348.85
436.05	353.46
436.42	357.85
436.79	361.96
437.16	366.32
437.53	371.00
437.90	375.51
438.27	379.94
438.64	384.55
439.01	388.97
439.38	392.65
439.75	396.28
440.13	400.55
440.50	404.59
440.87	407.80
441.24	411.19
441.61	414.76
441.98	417.51
442.35	420.73
442.72	423.86
443.09	426.94
443.46	428.86
443.83	430.01
444.20	431.09
444.57	432.69
444.94	433.50
445.31	434.26
445.68	435.09
446.05	435.51
446.42	435.10
446.79	434.53
447.16	433.88
447.53	433.43
447.90	431.61
448.27	429.80
448.64	427.33
449.01	425.47
449.37	422.51
449.74	419.51
450.11	416.03
450.48	412.21
450.85	408.31
451.22	404.89
451.59	401.73
451.96	398.75
452.33	394.64
452.70	390.98
453.07	386.53
453.43	381.96
453.80	377.55
454.17	373.38
454.54	369.40
454.91	365.32
455.28	361.33
455.65	357.54
456.02	353.92
456.38	350.74
456.75	346.81
457.12	343.53
457.49	340.30
457.86	336.94
458.23	334.16
458.59	331.11
458.96	328.08
459.33	325.36
459.70	322.57
460.07	320.43
460.43	317.89
460.80	315.55
461.17	313.58
461.54	311.53
461.91	309.56
462.27	307.51
462.64	305.80
463.01	303.87
463.38	302.15
463.74	300.17
464.11	298.49
464.48	297.02
464.85	295.49
465.21	294.35
465.58	293.29
465.95	291.91
466.32	290.71
466.68	289.57
467.05	288.45
467.42	287.35
467.78	286.14
468.15	285.03
468.52	284.28
468.88	283.05
469.25	282.00
469.62	281.20
469.98	280.41
470.35	279.53
470.72	278.77
471.08	277.91
471.45	277.28
471.82	276.62
472.18	276.02
472.55	275.46
472.92	274.77
473.28	274.24
473.65	273.67
474.02	273.26
474.38	272.88
474.75	272.63
475.11	272.30
475.48	272.15
475.85	272.01
476.21	271.86
476.58	271.87
476.94	271.93
477.31	271.95
477.67	272.03
478.04	272.16
478.41	272.41
478.77	272.70
479.14	272.89
479.50	273.30
479.87	273.55
480.23	274.01
480.60	274.43
480.96	274.84
481.33	275.67
481.69	276.28
482.06	277.01
482.42	277.67
482.79	278.47
483.15	279.31
483.52	280.34
483.88	281.32
484.25	282.41
484.61	283.44
484.98	284.64
485.34	285.91
485.71	287.27
486.07	288.64
486.44	290.07
486.80	291.64
487.17	293.21
487.53	295.08
487.90	296.87
488.26	298.78
488.62	300.85
488.99	302.72
489.35	304.85
489.72	307.06
490.08	309.39
490.44	311.88
490.81	314.57
491.17	317.25
491.54	320.10
491.90	323.13
492.26	326.32
492.63	329.63
492.99	333.07
493.36	336.74
493.72	340.59
494.08	344.59
494.45	348.75
494.81	353.23
495.17	357.76
495.54	362.54
495.90	367.60
496.26	372.64
496.63	378.12
496.99	383.81
497.35	389.85
497.72	396.09
498.08	402.46
498.44	409.09
498.80	416.03
499.17	423.34
499.53	430.75
499.89	438.59
500.26	446.57
500.62	454.59
500.98	463.12
501.34	472.05
501.71	481.19
502.07	490.62
502.43	500.24
502.79	510.09
503.16	520.37
503.52	530.99
503.88	541.88
504.24	552.93
504.60	564.31
504.97	576.01
505.33	588.00
505.69	600.78
506.05	613.44
506.41	626.47
506.78	639.51
507.14	652.90
507.50	666.52
507.86	680.55
508.22	695.20
508.59	709.75
508.95	724.81
509.31	740.18
509.67	755.72
510.03	771.63
510.39	788.09
510.75	804.62
511.12	821.36
511.48	838.69
511.84	856.09
512.20	873.62
512.56	891.40
512.92	909.37
513.28	927.35
513.64	945.61
514.00	963.96
514.37	982.51
514.73	1001.80
515.09	1021.23
515.45	1040.38
515.81	1059.65
516.17	1079.31
516.53	1098.79
516.89	1118.29
517.25	1137.99
517.61	1157.70
517.97	1176.97
518.33	1196.82
518.69	1216.58
519.05	1236.49
519.41	1256.47
519.77	1276.81
520.13	1296.68
520.49	1316.58
520.85	1336.91
521.21	1357.10
521.57	1377.74
521.93	1397.51
522.29	1417.53
522.65	1437.44
523.01	1457.40
523.37	1477.14
523.73	1497.13
524.09	1516.60
524.45	1536.49
524.81	1556.05
525.17	1576.09
525.53	1596.30
525.89	1615.71
526.25	1635.05
526.61	1653.46
526.97	1672.39
527.33	1691.01
527.68	1709.54
528.04	1728.21
528.40	1745.80
528.76	1763.73
529.12	1781.40
529.48	1800.35
529.84	1817.98
530.20	1835.45
530.56	1853.31
530.91	1871.24
531.27	1888.47
531.63	1905.66
531.99	1922.35
532.35	1938.69
532.71	1954.23
533.07	1970.64
533.42	1986.39
533.78	2002.33
534.14	2018.06
534.50	2032.47
534.86	2047.39
535.21	2061.41
535.57	2075.95
535.93	2090.13
536.29	2104.00
536.65	2117.70
537.00	2130.31
537.36	2142.85
537.72	2155.24
538.08	2167.12
538.44	2179.20
538.79	2191.30
539.15	2203.05
539.51	2214.60
539.87	2226.65
540.22	2238.40
540.58	2249.94
540.94	2261.18
541.29	2271.00
541.65	2280.32
542.01	2290.75
542.37	2299.69
542.72	2309.24
543.08	2317.47
543.44	2326.76
543.79	2334.34
544.15	2341.79
544.51	2349.99
544.87	2358.38
545.22	2365.40
545.58	2371.82
545.94	2376.80
546.29	2380.98
546.65	2385.20
547.01	2389.53
547.36	2392.97
547.72	2396.49
548.07	2398.56
548.43	2400.69
548.79	2403.00
549.14	2405.69
549.50	2407.98
549.86	2410.54
550.21	2412.83
550.57	2415.22
550.92	2416.02
551.28	2417.30
551.64	2418.25
551.99	2419.11
552.35	2418.96
552.70	2419.66
553.06	2420.77
553.41	2422.27
553.77	2424.22
554.13	2425.12
554.48	2425.56
554.84	2425.90
555.19	2425.07
555.55	2424.57
555.90	2423.87
556.26	2423.09
556.61	2421.78
556.97	2419.54
557.32	2417.77
557.68	2415.09
558.03	2412.60
558.39	2410.46
558.74	2408.79
559.10	2406.69
559.45	2403.65
559.81	2401.79
560.16	2398.50
560.52	2395.25
560.87	2391.56
561.23	2387.05
561.58	2384.09
561.94	2380.42
562.29	2376.25
562.64	2373.67
563.00	2370.52
563.35	2367.52
563.71	2365.17
564.06	2362.83
564.42	2360.41
564.77	2357.46
565.12	2355.46
565.48	2351.86
565.83	2348.26
566.19	2344.84
566.54	2340.44
566.89	2336.88
567.25	2332.65
567.60	2329.37
567.96	2325.61
568.31	2321.91
568.66	2318.06
569.02	2312.99
569.37	2308.14
569.72	2304.34
570.08	2298.90
570.43	2293.33
570.78	2287.81
571.14	2281.65
571.49	2275.09
571.84	2269.50
572.20	2263.00
572.55	2256.44
572.90	2250.32
573.26	2244.05
573.61	2237.30
573.96	2231.36
574.31	2223.96
574.67	2216.74
575.02	2209.05
575.37	2201.25
575.72	2193.14
576.08	2186.17
576.43	2179.01
576.78	2171.85
577.13	2164.58
577.49	2157.36
577.84	2150.66
578.19	2143.90
578.54	2137.42
578.90	2131.08
579.25	2123.24
579.60	2115.18
579.95	2107.49
580.30	2100.18
580.66	2092.74
581.01	2084.95
581.36	2076.88
581.71	2069.84
582.06	2062.40
582.42	2055.31
582.77	2047.57
583.12	2040.15
583.47	2032.58
583.82	2024.97
584.17	2016.64
584.53	2008.77
584.88	2001.21
585.23	1993.43
585.58	1985.54
585.93	1976.80
586.28	1969.34
586.63	1962.22
586.98	1955.29
587.34	1947.99
587.69	1940.22
588.04	1932.71
588.39	1925.49
588.74	1917.70
589.09	1909.92
589.44	1901.56
589.79	1894.10
590.14	1887.42
590.49	1880.16
590.84	1872.16
591.19	1865.68
591.54	1858.69
591.89	1850.18
592.25	1842.46
592.60	1834.25
592.95	1826.07
593.30	1818.27
593.65	1809.76
594.00	1801.31
594.35	1794.39
594.70	1786.52
595.05	1779.33
595.40	1771.78
595.75	1763.95
596.10	1757.22
596.45	1750.20
596.80	1743.62
597.15	1736.69
597.50	1728.83
597.85	1721.65
598.19	1714.59
598.54	1706.99
598.89	1700.20
599.24	1694.54
599.59	1688.28
599.94	1682.09
600.29	1675.70
600.64	1669.13
600.99	1662.22
601.34	1656.34
601.69	1648.87
602.04	1641.89
602.39	1634.91
602.74	1628.33
603.08	1622.65
603.43	1616.54
603.78	1609.65
604.13	1603.20
604.48	1596.25
604.83	1590.43
605.18	1584.60
605.53	1578.17
605.87	1571.56
606.22	1565.70
606.57	1558.98
606.92	1551.77
607.27	1544.91
607.62	1538.52
607.96	1532.52
608.31	1526.93
608.66	1519.97
609.01	1513.52
609.36	1506.98
609.70	1500.23
610.05	1493.69
610.40	1486.67
610.75	1479.14
611.10	1472.58
611.44	1464.62
611.79	1456.82
612.14	1449.00
612.49	1440.67
612.83	1433.24
613.18	1424.97
613.53	1416.59
613.88	1408.29
614.22	1401.08
614.57	1393.33
614.92	1385.43
615.27	1377.68
615.61	1369.50
615.96	1361.98
616.31	1354.83
616.65	1348.07
617.00	1341.09
617.35	1333.61
617.70	1326.15
618.04	1318.80
618.39	1311.00
618.74	1303.71
619.08	1296.48
619.43	1289.27
619.78	1282.72
620.12	1275.92
620.47	1269.53
620.82	1262.50
621.16	1255.52
621.51	1248.18
621.85	1241.13
622.20	1233.95
622.55	1226.60
622.89	1219.58
623.24	1212.78
623.59	1205.25
623.93	1197.69
624.28	1190.58
624.62	1183.56
624.97	1176.30
625.32	1169.32
625.66	1162.94
626.01	1157.00
626.35	1150.95
626.70	1144.19
627.04	1137.60
627.39	1131.01
627.73	1124.63
628.08	1118.63
628.43	1112.29
628.77	1106.02
629.12	1099.64
629.46	1094.08
629.81	1088.01
630.15	1081.83
630.50	1075.32
630.84	1069.15
631.19	1063.15
631.53	1057.07
631.88	1050.57
632.22	1044.35
632.57	1038.67
632.91	1032.26
633.26	1025.85
633.60	1019.57
633.95	1014.06
634.29	1007.90
634.64	1002.14
634.98	995.92
635.32	989.97
635.67	984.58
636.01	979.04
636.36	973.30
636.70	967.33
637.05	961.62
637.39	956.17
637.73	950.79
638.08	945.82
638.42	940.77
638.77	935.34
639.11	930.02
639.45	924.88
639.80	919.20
640.14	913.72
640.49	908.24
640.83	903.05
641.17	897.46
641.52	892.09
641.86	886.47
642.20	881.31
642.55	875.45
642.89	869.77
643.23	864.08
643.58	859.09
643.92	853.71
644.26	848.45
644.61	843.18
644.95	837.93
645.29	832.42
645.64	826.84
645.98	821.48
646.32	816.56
646.66	811.17
647.01	805.87
647.35	800.88
647.69	795.51
648.04	790.26
648.38	785.19
648.72	780.06
649.06	774.87
649.41	769.69
649.75	764.75
650.09	759.68
650.43	754.63
650.78	749.27
651.12	743.71
651.46	738.72
651.80	733.73
652.14	728.63
652.49	723.49
652.83	718.54
653.17	713.28
653.51	708.10
653.85	703.10
654.20	698.21
654.54	693.05
654.88	688.44
655.22	683.45
655.56	678.30
655.90	673.28
656.25	668.37
656.59	663.58
656.93	659.24
657.27	654.83
657.61	650.23
657.95	645.83
658.29	641.58
658.64	637.15
658.98	632.67
659.32	628.20
659.66	623.87
660.00	619.12
660.34	614.62
660.68	610.06
661.02	605.59
661.36	601.58
661.70	597.50
662.05	593.35
662.39	589.58
662.73	585.91
663.07	582.27
663.41	578.44
663.75	574.59
664.09	570.41
664.43	566.32
664.77	562.54
665.11	558.46
665.45	554.61
665.79	550.71
666.13	546.89
666.47	543.08
666.81	539.35
667.15	536.03
667.49	532.96
667.83	529.65
668.17	526.45
668.51	523.01
668.85	519.75
669.19	516.74
669.53	513.35
669.87	509.65
670.21	506.28
670.55	502.94
670.89	499.89
671.23	497.04
671.57	494.02
671.91	490.99
672.25	488.03
672.58	485.06
672.92	482.19
673.26	479.43
673.60	476.66
673.94	473.69
674.28	470.71
674.62	467.84
674.96	464.94
675.30	462.27
675.64	459.48
675.97	456.65
676.31	454.04
676.65	451.44
676.99	449.28
677.33	446.78
677.67	444.26
678.01	441.51
678.34	438.93
678.68	436.54
679.02	433.90
679.36	431.54
679.70	429.10
680.04	426.62
680.37	424.03
680.71	421.67
681.05	419.58
681.39	417.31
681.73	415.01
682.06	412.99
682.40	410.73
682.74	408.40
683.08	406.39
683.42	403.88
683.75	401.68
684.09	399.34
684.43	397.24
684.77	395.12
685.10	393.05
685.44	390.71
685.78	388.52
686.12	386.60
686.45	384.58
686.79	382.69
687.13	380.77
687.46	378.87
687.80	377.02
688.14	374.95
688.48	373.11
688.81	371.15
689.15	369.27
689.49	367.36
689.82	365.60
690.16	363.46
690.50	361.56
690.83	359.58
691.17	357.68
691.51	355.78
691.84	353.99
692.18	352.22
692.52	350.64
692.85	349.04
693.19	347.45
693.52	345.86
693.86	344.14
694.20	342.46
694.53	340.85
694.87	339.09
695.21	337.47
695.54	335.90
695.88	334.25
696.21	332.53
696.55	331.01
696.88	329.52
697.22	328.09
697.56	326.74
697.89	325.36
698.23	324.02
698.56	322.55
698.90	321.27
699.23	319.98
699.57	318.65
699.90	317.25
700.24	315.77
700.58	314.44
700.91	313.12
701.25	311.93
701.58	310.74
701.92	309.59
702.25	308.39
702.59	307.13
702.92	306.05
703.26	304.94
703.59	303.77
703.93	302.84
704.26	301.75
704.60	300.65
704.93	299.56
705.26	298.43
705.60	297.41
705.93	296.27
706.27	295.11
706.60	294.04
706.94	293.15
707.27	292.12
707.61	291.05
707.94	290.12
708.27	289.05
708.61	287.95
708.94	286.97
709.28	286.07
709.61	285.06
709.94	284.12
710.28	283.19
710.61	282.34
710.95	281.16
711.28	280.43
711.61	279.51
711.95	278.70
712.28	277.89
712.61	277.05
712.95	276.30
713.28	275.59
713.61	274.72
713.95	273.80
714.28	273.05
714.61	272.25
714.95	271.43
715.28	270.61
715.61	269.87
715.95	269.06
716.28	268.31
716.61	267.70
716.95	266.92
717.28	266.18
717.61	265.47
717.94	264.87
718.28	264.10
718.61	263.49
718.94	262.84
719.27	262.18
719.61	261.60
719.94	260.92
720.27	260.21
720.60	259.64
720.94	259.08
721.27	258.50
721.60	257.94
721.93	257.39
722.27	256.92
722.60	256.40
722.93	255.88
723.26	255.33
723.59	254.80
723.93	254.33
724.26	253.92
724.59	253.45
724.92	253.03
725.25	252.61
725.59	252.22
725.92	251.75
726.25	251.29
726.58	250.78
726.91	250.35
727.24	249.99
727.57	249.60
727.91	249.17
728.24	248.75
728.57	248.38
728.90	248.09
729.23	247.61
729.56	247.30
729.89	246.94
730.22	246.49
730.55	246.04
730.89	245.67
731.22	245.22
731.55	244.85
731.88	244.46
732.21	244.10
732.54	243.60
732.87	243.24
733.20	242.89
733.53	242.56
733.86	242.20
734.19	241.75
734.52	241.48
734.85	241.29
735.18	240.89
735.51	240.55
735.84	240.12
736.17	239.85
736.50	239.46
736.83	239.41
737.16	239.17
737.49	238.89
737.82	238.54
738.15	238.31
738.48	238.02
738.81	237.68
739.14	237.36
739.47	237.05
739.80	236.69
740.13	236.38
740.46	236.08
740.79	235.81
741.12	235.60
741.45	235.25
741.78	234.82
742.11	234.65
742.44	234.36
742.77	234.15
743.10	233.88
743.43	233.57
743.75	233.00
744.08	232.95
744.41	232.72
744.74	232.42
745.07	232.13
745.40	231.89
745.73	231.64
746.06	231.31
746.39	231.12
746.71	230.90
747.04	230.65
747.37	230.34
747.70	230.10
748.03	229.90
748.36	229.74
748.68	229.52
749.01	229.22
749.34	229.04
749.67	228.83
750.00	228.67
750.33	228.59
750.65	228.50
750.98	228.10
751.31	227.85
751.64	227.69
751.97	227.61
752.29	227.46
752.62	227.28
752.95	227.13
753.28	226.93
753.60	226.79
753.93	226.71
754.26	226.62
754.59	226.43
754.91	226.24
755.24	226.00
755.57	225.85
755.90	225.70
756.22	225.49
756.55	225.31
756.88	225.00
757.20	224.76
757.53	224.50
757.86	224.33
758.19	224.24
758.51	224.11
758.84	223.91
759.17	223.76
759.49	223.55
759.82	223.42
760.15	223.30
760.47	223.15
760.80	222.88
761.13	222.66
761.45	222.50
761.78	222.40
762.11	222.30
762.43	222.15
762.76	222.05
763.08	221.95
763.41	221.73
763.74	221.68
764.06	221.47
764.39	221.41
764.71	221.26
765.04	221.05
765.37	220.90
765.69	220.75
766.02	220.52
766.34	220.40
766.67	220.25
767.00	220.24
767.32	220.20
767.65	220.32
767.97	220.26
768.30	220.16
768.62	220.02
768.95	219.87
769.27	219.67
769.60	219.62
769.92	219.56
770.25	219.46
770.57	219.32
770.90	219.22
771.22	219.07
771.55	218.96
771.87	218.94
772.20	218.87
772.52	218.83
772.85	219.03
773.17	219.03
773.50	219.01
773.82	218.88
774.15	218.65
774.47	218.38
774.80	218.27
775.12	218.11
775.45	218.04
775.77	217.99
776.09	217.99
776.42	217.91
776.74	217.82
777.07	217.77
777.39	217.73
777.72	217.71
778.04	217.72
778.36	217.65
778.69	217.59
779.01	217.50
779.33	217.36
779.66	217.07
779.98	216.93
780.31	216.81
780.63	216.71
780.95	216.69
781.28	216.64
781.60	216.55
781.92	216.59
782.25	216.51
782.57	216.44
782.89	216.34
783.22	216.25
783.54	216.11
783.86	216.10
784.19	216.08
784.51	216.10
784.83	215.97
785.16	215.90
785.48	215.80
785.80	215.69
786.12	215.61
786.45	215.47
786.77	215.51
787.09	215.50
