SpectraSuite Data File
++++++++++++++++++++++++++++++++++++
Date: Mon Feb 25 17:33:32 EST 2013
User: group
Dark Spectrum Present: No
Reference Spectrum Present: No
Number of Sampled Component Spectra: 1
Spectrometers: USB2E7196
Integration Time (usec): 52000 (USB2E7196)
Spectra Averaged: 20 (USB2E7196)
Boxcar Smoothing: 10 (USB2E7196)
Correct for Electrical Dark: No (USB2E7196)
Strobe/Lamp Enabled: No (USB2E7196)
Correct for Detector Non-linearity: No (USB2E7196)
Correct for Stray Light: No (USB2E7196)
Number of Pixels in Processed Spectrum: 2048
>>>>>Begin Processed Spectral Data<<<<<
339.09	0.00
339.48	198.75
339.86	200.45
340.24	201.75
340.63	203.15
341.01	206.90
341.39	206.15
341.78	206.55
342.16	208.60
342.54	208.25
342.93	198.15
343.31	208.13
343.69	208.68
344.07	209.20
344.46	209.64
344.84	210.06
345.22	210.27
345.60	210.58
345.99	210.80
346.37	210.91
346.75	211.09
347.13	211.15
347.52	211.23
347.90	211.39
348.28	211.40
348.66	211.46
349.05	211.33
349.43	211.29
349.81	211.39
350.19	211.50
350.57	211.51
350.96	211.60
351.34	211.69
351.72	211.83
352.10	211.88
352.48	211.98
352.87	211.99
353.25	212.07
353.63	212.03
354.01	212.14
354.39	212.24
354.77	212.33
355.15	212.49
355.54	212.54
355.92	212.50
356.30	212.55
356.68	212.74
357.06	212.89
357.44	213.06
357.82	213.12
358.20	213.22
358.58	213.32
358.97	213.37
359.35	213.50
359.73	213.55
360.11	213.63
360.49	213.67
360.87	213.74
361.25	213.84
361.63	213.95
362.01	213.99
362.39	214.00
362.77	214.04
363.15	214.11
363.53	214.20
363.91	214.21
364.29	214.32
364.67	214.18
365.05	214.20
365.43	214.12
365.81	214.10
366.19	214.22
366.57	214.35
366.95	214.36
367.33	214.32
367.71	214.35
368.09	214.40
368.47	214.33
368.85	214.33
369.23	214.31
369.61	214.29
369.99	214.35
370.37	214.40
370.75	214.44
371.13	214.30
371.51	214.18
371.89	214.22
372.27	214.20
372.65	214.17
373.03	214.12
373.41	214.09
373.78	214.15
374.16	213.96
374.54	213.89
374.92	213.80
375.30	213.73
375.68	213.65
376.06	213.55
376.44	213.58
376.82	213.52
377.19	213.41
377.57	213.37
377.95	213.20
378.33	213.20
378.71	213.08
379.09	213.05
379.47	213.14
379.84	213.03
380.22	212.92
380.60	212.89
380.98	212.86
381.36	212.92
381.73	212.82
382.11	212.81
382.49	212.71
382.87	212.67
383.25	212.66
383.62	212.77
384.00	212.62
384.38	212.57
384.76	212.64
385.13	212.70
385.51	212.69
385.89	212.65
386.27	212.57
386.64	212.46
387.02	212.46
387.40	212.29
387.78	212.32
388.15	212.27
388.53	212.16
388.91	212.11
389.29	211.99
389.66	211.93
390.04	211.85
390.42	211.89
390.79	211.89
391.17	211.83
391.55	211.68
391.92	211.70
392.30	211.71
392.68	211.63
393.05	211.64
393.43	211.60
393.81	211.62
394.18	211.59
394.56	211.65
394.94	211.66
395.31	211.66
395.69	211.58
396.06	211.60
396.44	211.67
396.82	211.74
397.19	211.94
397.57	212.00
397.95	212.10
398.32	212.09
398.70	212.11
399.07	212.19
399.45	212.20
399.82	212.25
400.20	212.15
400.58	212.19
400.95	212.17
401.33	212.17
401.70	212.30
402.08	212.36
402.45	212.45
402.83	212.61
403.20	212.68
403.58	212.85
403.95	212.89
404.33	213.02
404.71	213.06
405.08	213.14
405.46	213.22
405.83	213.30
406.21	213.37
406.58	213.60
406.96	213.73
407.33	213.90
407.70	214.19
408.08	214.61
408.45	214.81
408.83	215.08
409.20	215.41
409.58	215.53
409.95	215.75
410.33	216.06
410.70	216.25
411.08	216.59
411.45	216.97
411.82	217.42
412.20	217.81
412.57	218.36
412.95	218.66
413.32	219.22
413.69	219.73
414.07	220.25
414.44	220.80
414.82	221.48
415.19	222.20
415.56	222.94
415.94	223.62
416.31	224.50
416.68	225.36
417.06	226.36
417.43	227.40
417.81	228.51
418.18	229.60
418.55	230.78
418.93	232.11
419.30	233.35
419.67	234.70
420.04	236.16
420.42	237.65
420.79	239.52
421.16	241.20
421.54	243.12
421.91	245.03
422.28	246.94
422.66	249.00
423.03	251.03
423.40	253.01
423.77	255.28
424.15	257.48
424.52	259.71
424.89	262.18
425.26	264.60
425.64	267.03
426.01	269.61
426.38	272.30
426.75	274.95
427.13	277.85
427.50	280.78
427.87	283.83
428.24	286.88
428.61	289.75
428.99	293.07
429.36	296.48
429.73	300.02
430.10	303.51
430.47	307.05
430.85	310.76
431.22	314.66
431.59	318.88
431.96	322.86
432.33	327.24
432.70	331.47
433.08	336.44
433.45	341.02
433.82	345.62
434.19	350.72
434.56	355.77
434.93	360.55
435.30	365.43
435.68	370.80
436.05	376.07
436.42	381.34
436.79	385.95
437.16	391.01
437.53	396.33
437.90	401.54
438.27	406.78
438.64	412.10
439.01	417.01
439.38	421.36
439.75	425.50
440.13	430.46
440.50	435.09
440.87	438.72
441.24	442.55
441.61	446.91
441.98	450.03
442.35	453.49
442.72	457.09
443.09	460.51
443.46	462.40
443.83	463.75
444.20	464.83
444.57	466.68
444.94	467.55
445.31	468.25
445.68	469.00
446.05	469.09
446.42	468.50
446.79	467.81
447.16	466.92
447.53	466.30
447.90	464.12
448.27	461.90
448.64	459.10
449.01	456.97
449.37	453.25
449.74	449.68
450.11	445.70
450.48	441.26
450.85	436.73
451.22	432.86
451.59	429.10
451.96	425.49
452.33	420.63
452.70	416.29
453.07	411.24
453.43	406.00
453.80	401.04
454.17	396.25
454.54	391.65
454.91	386.64
455.28	381.92
455.65	377.46
456.02	373.16
456.38	369.39
456.75	364.69
457.12	360.82
457.49	357.05
457.86	353.32
458.23	350.09
458.59	346.54
458.96	342.97
459.33	339.78
459.70	336.64
460.07	334.18
460.43	331.23
460.80	328.49
461.17	326.16
461.54	323.73
461.91	321.23
462.27	318.95
462.64	317.06
463.01	314.94
463.38	312.90
463.74	310.70
464.11	308.88
464.48	307.35
464.85	305.57
465.21	304.15
465.58	302.74
465.95	301.05
466.32	299.69
466.68	298.27
467.05	296.89
467.42	295.57
467.78	294.05
468.15	292.73
468.52	291.75
468.88	290.48
469.25	289.25
469.62	288.47
469.98	287.52
470.35	286.65
470.72	285.73
471.08	284.70
471.45	283.94
471.82	283.13
472.18	282.26
472.55	281.64
472.92	281.01
473.28	280.37
473.65	279.66
474.02	279.09
474.38	278.70
474.75	278.35
475.11	277.97
475.48	277.70
475.85	277.45
476.21	277.23
476.58	277.05
476.94	277.13
477.31	277.02
477.67	276.94
478.04	276.94
478.41	277.09
478.77	277.47
479.14	277.62
479.50	277.93
479.87	278.28
480.23	278.72
480.60	279.09
480.96	279.56
481.33	280.26
481.69	280.84
482.06	281.44
482.42	282.03
482.79	282.73
483.15	283.65
483.52	284.63
483.88	285.62
484.25	286.71
484.61	287.62
484.98	288.71
485.34	290.04
485.71	291.40
486.07	292.78
486.44	294.07
486.80	295.71
487.17	297.25
487.53	298.97
487.90	300.80
488.26	302.67
488.62	304.74
488.99	306.72
489.35	308.95
489.72	311.26
490.08	313.61
490.44	315.97
490.81	318.57
491.17	321.20
491.54	324.02
491.90	327.01
492.26	330.30
492.63	333.67
492.99	337.05
493.36	340.76
493.72	344.59
494.08	348.63
494.45	352.74
494.81	357.14
495.17	361.78
495.54	366.63
495.90	371.79
496.26	376.93
496.63	382.49
496.99	388.24
497.35	394.19
497.72	400.53
498.08	407.15
498.44	413.94
498.80	421.19
499.17	428.67
499.53	436.21
499.89	443.99
500.26	452.01
500.62	460.25
500.98	468.93
501.34	478.11
501.71	487.69
502.07	497.39
502.43	507.50
502.79	517.76
503.16	528.38
503.52	539.33
503.88	550.55
504.24	562.12
504.60	573.92
504.97	586.30
505.33	598.93
505.69	612.04
506.05	625.52
506.41	639.10
506.78	652.80
507.14	667.04
507.50	681.65
507.86	696.85
508.22	712.47
508.59	728.12
508.95	744.05
509.31	760.15
509.67	776.92
510.03	793.70
510.39	811.20
510.75	828.89
511.12	846.96
511.48	865.30
511.84	883.77
512.20	902.58
512.56	921.65
512.92	941.23
513.28	960.84
513.64	980.50
514.00	1000.50
514.37	1021.09
514.73	1041.92
515.09	1062.80
515.45	1083.53
515.81	1104.62
516.17	1125.95
516.53	1147.36
516.89	1169.05
517.25	1190.53
517.61	1212.28
517.97	1233.63
518.33	1255.09
518.69	1276.77
519.05	1299.08
519.41	1321.65
519.77	1344.34
520.13	1366.57
520.49	1388.54
520.85	1411.31
521.21	1434.31
521.57	1457.15
521.93	1479.09
522.29	1501.77
522.65	1524.50
523.01	1547.10
523.37	1569.16
523.73	1591.63
524.09	1613.92
524.45	1636.37
524.81	1659.03
525.17	1681.80
525.53	1704.46
525.89	1727.11
526.25	1749.19
526.61	1770.38
526.97	1791.64
527.33	1812.96
527.68	1834.59
528.04	1855.76
528.40	1876.12
528.76	1896.50
529.12	1917.21
529.48	1939.21
529.84	1959.82
530.20	1980.21
530.56	2000.67
530.91	2021.52
531.27	2041.91
531.63	2061.85
531.99	2081.48
532.35	2100.84
532.71	2119.64
533.07	2139.14
533.42	2157.66
533.78	2176.70
534.14	2195.32
534.50	2212.70
534.86	2230.75
535.21	2247.65
535.57	2265.98
535.93	2283.39
536.29	2300.59
536.65	2317.28
537.00	2332.38
537.36	2347.72
537.72	2362.97
538.08	2378.49
538.44	2394.30
538.79	2409.67
539.15	2424.63
539.51	2439.55
539.87	2454.38
540.22	2469.32
540.58	2484.30
540.94	2498.94
541.29	2511.92
541.65	2524.26
542.01	2537.87
542.37	2549.68
542.72	2562.18
543.08	2572.95
543.44	2585.16
543.79	2595.10
544.15	2605.60
544.51	2617.06
544.87	2627.97
545.22	2637.01
545.58	2644.90
545.94	2651.75
546.29	2658.25
546.65	2664.69
547.01	2670.72
547.36	2676.73
547.72	2682.00
548.07	2685.92
548.43	2689.55
548.79	2693.40
549.14	2698.13
549.50	2702.13
549.86	2706.32
550.21	2710.23
550.57	2714.52
550.92	2716.72
551.28	2719.48
551.64	2722.07
551.99	2724.65
552.35	2726.48
552.70	2729.70
553.06	2733.12
553.41	2736.21
553.77	2738.87
554.13	2741.22
554.48	2743.30
554.84	2744.63
555.19	2745.32
555.55	2746.01
555.90	2746.64
556.26	2747.18
556.61	2747.02
556.97	2745.97
557.32	2745.67
557.68	2744.11
558.03	2742.51
558.39	2741.29
558.74	2741.08
559.10	2739.83
559.45	2737.30
559.81	2736.04
560.16	2733.46
560.52	2730.76
560.87	2727.49
561.23	2724.22
561.58	2722.09
561.94	2718.87
562.29	2715.37
562.64	2713.02
563.00	2710.43
563.35	2708.45
563.71	2706.86
564.06	2704.88
564.42	2703.08
564.77	2700.57
565.12	2698.45
565.48	2695.35
565.83	2692.19
566.19	2688.68
566.54	2684.28
566.89	2680.56
567.25	2676.65
567.60	2673.10
567.96	2669.55
568.31	2666.39
568.66	2662.65
569.02	2657.86
569.37	2652.83
569.72	2649.05
570.08	2643.73
570.43	2638.23
570.78	2632.44
571.14	2626.12
571.49	2619.45
571.84	2613.72
572.20	2606.84
572.55	2600.44
572.90	2593.55
573.26	2586.71
573.61	2579.54
573.96	2573.39
574.31	2565.41
574.67	2557.38
575.02	2548.99
575.37	2540.53
575.72	2531.51
576.08	2523.85
576.43	2515.20
576.78	2507.26
577.13	2499.05
577.49	2491.03
577.84	2483.43
578.19	2475.56
578.54	2468.09
578.90	2461.22
579.25	2452.13
579.60	2442.91
579.95	2433.76
580.30	2425.77
580.66	2417.34
581.01	2408.45
581.36	2398.89
581.71	2390.70
582.06	2381.91
582.42	2373.63
582.77	2364.53
583.12	2355.55
583.47	2346.58
583.82	2337.92
584.17	2328.90
584.53	2319.48
584.88	2310.49
585.23	2301.12
585.58	2291.64
585.93	2282.00
586.28	2272.72
586.63	2264.25
586.98	2255.92
587.34	2247.48
587.69	2238.45
588.04	2229.38
588.39	2221.16
588.74	2212.32
589.09	2203.63
589.44	2194.01
589.79	2185.40
590.14	2177.24
590.49	2168.81
590.84	2159.84
591.19	2151.71
591.54	2142.75
591.89	2132.71
592.25	2123.55
592.60	2113.95
592.95	2104.51
593.30	2094.81
593.65	2084.69
594.00	2074.64
594.35	2066.28
594.70	2057.00
595.05	2048.17
595.40	2039.35
595.75	2029.63
596.10	2021.25
596.45	2012.85
596.80	2005.39
597.15	1996.96
597.50	1987.76
597.85	1979.42
598.19	1970.65
598.54	1961.91
598.89	1954.45
599.24	1947.72
599.59	1940.22
599.94	1933.16
600.29	1925.23
600.64	1917.28
600.99	1908.99
601.34	1901.97
601.69	1892.97
602.04	1884.67
602.39	1876.30
602.74	1868.24
603.08	1861.54
603.43	1854.32
603.78	1846.05
604.13	1838.04
604.48	1830.01
604.83	1823.30
605.18	1815.97
605.53	1808.34
605.87	1800.90
606.22	1793.62
606.57	1785.85
606.92	1777.85
607.27	1769.63
607.62	1762.70
607.96	1755.83
608.31	1749.84
608.66	1741.88
609.01	1734.51
609.36	1726.99
609.70	1719.28
610.05	1711.73
610.40	1703.40
610.75	1694.85
611.10	1687.34
611.44	1678.07
611.79	1669.04
612.14	1659.52
612.49	1650.17
612.83	1641.13
613.18	1631.30
613.53	1621.46
613.88	1611.57
614.22	1602.52
614.57	1593.27
614.92	1583.64
615.27	1574.47
615.61	1564.28
615.96	1555.42
616.31	1547.09
616.65	1539.07
617.00	1530.48
617.35	1521.87
617.70	1513.10
618.04	1503.78
618.39	1494.17
618.74	1485.74
619.08	1477.22
619.43	1468.94
619.78	1460.86
620.12	1453.19
620.47	1445.81
620.82	1437.42
621.16	1429.30
621.51	1420.87
621.85	1412.76
622.20	1404.39
622.55	1395.64
622.89	1387.66
623.24	1379.67
623.59	1370.75
623.93	1362.19
624.28	1353.90
624.62	1345.48
624.97	1337.11
625.32	1329.39
625.66	1322.08
626.01	1314.85
626.35	1307.58
626.70	1299.96
627.04	1292.56
627.39	1284.71
627.73	1276.76
628.08	1269.85
628.43	1262.41
628.77	1255.02
629.12	1247.41
629.46	1240.79
629.81	1233.40
630.15	1225.85
630.50	1218.15
630.84	1210.85
631.19	1203.48
631.53	1196.56
631.88	1188.90
632.22	1181.39
632.57	1174.55
632.91	1166.92
633.26	1159.34
633.60	1152.14
633.95	1145.45
634.29	1138.06
634.64	1131.31
634.98	1124.38
635.32	1117.38
635.67	1110.95
636.01	1104.18
636.36	1097.43
636.70	1090.69
637.05	1084.33
637.39	1078.13
637.73	1071.93
638.08	1066.15
638.42	1060.19
638.77	1053.61
639.11	1047.43
639.45	1041.46
639.80	1034.69
640.14	1028.65
640.49	1022.59
640.83	1016.35
641.17	1009.72
641.52	1003.67
641.86	997.08
642.20	990.78
642.55	984.02
642.89	977.45
643.23	970.93
643.58	964.97
643.92	958.30
644.26	952.16
644.61	946.08
644.95	940.05
645.29	933.78
645.64	927.23
645.98	921.10
646.32	915.38
646.66	909.25
647.01	903.48
647.35	897.42
647.69	890.87
648.04	884.82
648.38	878.98
648.72	872.84
649.06	866.74
649.41	860.87
649.75	855.21
650.09	849.34
650.43	843.68
650.78	837.44
651.12	831.35
651.46	825.44
651.80	819.50
652.14	813.51
652.49	807.39
652.83	801.49
653.17	795.53
653.51	789.48
653.85	783.70
654.20	777.74
654.54	771.84
654.88	766.50
655.22	760.82
655.56	754.70
655.90	748.81
656.25	743.35
656.59	737.70
656.93	732.36
657.27	727.15
657.61	721.62
657.95	716.45
658.29	711.52
658.64	706.34
658.98	701.12
659.32	695.60
659.66	690.55
660.00	685.36
660.34	680.08
660.68	674.89
661.02	669.77
661.36	665.06
661.70	660.33
662.05	655.64
662.39	651.00
662.73	646.74
663.07	642.69
663.41	638.14
663.75	633.63
664.09	628.92
664.43	624.28
664.77	619.96
665.11	615.63
665.45	610.99
665.79	606.55
666.13	602.03
666.47	597.88
666.81	593.71
667.15	589.67
667.49	585.80
667.83	582.01
668.17	578.13
668.51	574.22
668.85	570.51
669.19	566.70
669.53	562.65
669.87	558.63
670.21	554.51
670.55	550.66
670.89	547.22
671.23	543.79
671.57	540.34
671.91	536.76
672.25	533.20
672.58	529.79
672.92	526.32
673.26	523.08
673.60	519.86
673.94	516.41
674.28	513.02
674.62	509.88
674.96	506.64
675.30	503.70
675.64	500.41
675.97	497.14
676.31	494.10
676.65	491.30
676.99	488.71
677.33	485.78
677.67	482.83
678.01	479.58
678.34	476.47
678.68	473.34
679.02	470.26
679.36	467.42
679.70	464.66
680.04	461.88
680.37	458.98
680.71	456.13
681.05	453.58
681.39	450.85
681.73	448.08
682.06	445.59
682.40	442.81
682.74	440.39
683.08	437.82
683.42	435.21
683.75	432.64
684.09	429.95
684.43	427.53
684.77	425.06
685.10	422.61
685.44	420.07
685.78	417.63
686.12	415.46
686.45	413.12
686.79	410.74
687.13	408.55
687.46	406.51
687.80	404.36
688.14	401.99
688.48	399.91
688.81	397.59
689.15	395.41
689.49	393.24
689.82	391.01
690.16	388.66
690.50	386.45
690.83	384.18
691.17	381.86
691.51	379.66
691.84	377.57
692.18	375.55
692.52	373.72
692.85	371.91
693.19	369.87
693.52	367.92
693.86	366.05
694.20	364.12
694.53	362.16
694.87	360.13
695.21	358.25
695.54	356.20
695.88	354.47
696.21	352.60
696.55	350.77
696.88	348.86
697.22	347.16
697.56	345.47
697.89	343.78
698.23	342.23
698.56	340.60
698.90	339.10
699.23	337.49
699.57	335.87
699.90	334.22
700.24	332.65
700.58	331.07
700.91	329.44
701.25	328.01
701.58	326.53
701.92	325.17
702.25	323.83
702.59	322.53
702.92	321.16
703.26	319.78
703.59	318.51
703.93	317.42
704.26	316.21
704.60	315.02
704.93	313.80
705.26	312.51
705.60	311.31
705.93	309.96
706.27	308.78
706.60	307.72
706.94	306.59
707.27	305.35
707.61	304.19
707.94	303.04
708.27	301.77
708.61	300.62
708.94	299.51
709.28	298.33
709.61	297.25
709.94	296.17
710.28	295.03
710.61	293.93
710.95	292.72
711.28	291.75
711.61	290.62
711.95	289.65
712.28	288.61
712.61	287.59
712.95	286.72
713.28	285.81
713.61	284.73
713.95	283.81
714.28	282.95
714.61	281.95
714.95	281.13
715.28	280.25
715.61	279.31
715.95	278.37
716.28	277.56
716.61	276.72
716.95	275.76
717.28	274.93
717.61	274.16
717.94	273.37
718.28	272.50
718.61	271.77
718.94	270.99
719.27	270.34
719.61	269.64
719.94	268.91
720.27	268.10
720.60	267.34
720.94	266.56
721.27	265.94
721.60	265.39
721.93	264.69
722.27	264.15
722.60	263.49
722.93	262.84
723.26	262.20
723.59	261.60
723.93	261.13
724.26	260.66
724.59	260.05
724.92	259.57
725.25	259.05
725.59	258.37
725.92	257.92
726.25	257.30
726.58	256.82
726.91	256.29
727.24	255.79
727.57	255.39
727.91	254.87
728.24	254.35
728.57	253.84
728.90	253.49
729.23	252.93
729.56	252.60
729.89	252.15
730.22	251.68
730.55	251.19
730.89	250.68
731.22	250.18
731.55	249.82
731.88	249.35
732.21	248.78
732.54	248.51
732.87	248.03
733.20	247.60
733.53	247.12
733.86	246.75
734.19	246.33
734.52	245.88
734.85	245.61
735.18	245.19
735.51	244.89
735.84	244.35
736.17	243.97
736.50	243.48
736.83	243.35
737.16	242.93
737.49	242.52
737.82	242.17
738.15	241.78
738.48	241.41
738.81	241.03
739.14	240.73
739.47	240.28
739.80	239.90
740.13	239.65
740.46	239.30
740.79	238.86
741.12	238.52
741.45	238.19
741.78	237.85
742.11	237.52
742.44	237.10
742.77	236.84
743.10	236.51
743.43	236.21
743.75	235.68
744.08	235.62
744.41	235.30
744.74	235.03
745.07	234.79
745.40	234.44
745.73	234.19
746.06	233.88
746.39	233.59
746.71	233.31
747.04	232.94
747.37	232.73
747.70	232.47
748.03	232.18
748.36	231.95
748.68	231.67
749.01	231.36
749.34	231.11
749.67	230.93
750.00	230.75
750.33	230.63
750.65	230.50
750.98	230.08
751.31	229.87
751.64	229.66
751.97	229.45
752.29	229.23
752.62	228.96
752.95	228.74
753.28	228.53
753.60	228.32
753.93	228.16
754.26	227.87
754.59	227.69
754.91	227.55
755.24	227.31
755.57	227.02
755.90	226.90
756.22	226.65
756.55	226.43
756.88	226.19
757.20	225.87
757.53	225.52
757.86	225.33
758.19	225.18
758.51	224.93
758.84	224.68
759.17	224.60
759.49	224.45
759.82	224.45
760.15	224.36
760.47	224.15
760.80	223.94
761.13	223.86
761.45	223.66
761.78	223.49
762.11	223.38
762.43	223.24
762.76	223.02
763.08	223.00
763.41	222.81
763.74	222.68
764.06	222.54
764.39	222.41
764.71	222.23
765.04	222.05
765.37	221.89
765.69	221.80
766.02	221.58
766.34	221.47
766.67	221.26
767.00	221.13
767.32	221.17
767.65	221.21
767.97	221.06
768.30	220.95
768.62	220.86
768.95	220.67
769.27	220.63
769.60	220.64
769.92	220.49
770.25	220.40
770.57	220.34
770.90	220.22
771.22	220.14
771.55	220.00
771.87	219.92
772.20	219.89
772.52	219.80
772.85	219.91
773.17	219.83
773.50	219.67
773.82	219.59
774.15	219.39
774.47	219.12
774.80	218.97
775.12	218.92
775.45	218.79
775.77	218.82
776.09	218.73
776.42	218.57
776.74	218.48
777.07	218.37
777.39	218.26
777.72	218.17
778.04	218.12
778.36	218.10
778.69	218.04
779.01	217.98
779.33	217.87
779.66	217.60
779.98	217.44
780.31	217.36
780.63	217.33
780.95	217.28
781.28	217.19
781.60	217.19
781.92	217.08
782.25	217.01
782.57	216.85
782.89	216.71
783.22	216.63
783.54	216.64
783.86	216.61
784.19	216.51
784.51	216.51
784.83	216.38
785.16	216.32
785.48	216.27
785.80	216.16
786.12	216.16
786.45	216.08
