SpectraSuite Data File
++++++++++++++++++++++++++++++++++++
Date: Mon Feb 25 17:36:40 EST 2013
User: group
Dark Spectrum Present: No
Reference Spectrum Present: No
Number of Sampled Component Spectra: 1
Spectrometers: USB2E7196
Integration Time (usec): 52000 (USB2E7196)
Spectra Averaged: 20 (USB2E7196)
Boxcar Smoothing: 10 (USB2E7196)
Correct for Electrical Dark: No (USB2E7196)
Strobe/Lamp Enabled: No (USB2E7196)
Correct for Detector Non-linearity: No (USB2E7196)
Correct for Stray Light: No (USB2E7196)
Number of Pixels in Processed Spectrum: 2048
>>>>>Begin Processed Spectral Data<<<<<
339.09	0.00
339.48	198.40
339.86	201.35
340.24	202.65
340.63	203.80
341.01	207.35
341.39	207.15
341.78	208.40
342.16	208.25
342.54	210.30
342.93	198.69
343.31	208.64
343.69	209.20
344.07	209.69
344.46	210.06
344.84	210.52
345.22	210.81
345.60	211.10
345.99	211.26
346.37	211.49
346.75	211.61
347.13	211.79
347.52	211.85
347.90	211.95
348.28	212.04
348.66	212.14
349.05	212.11
349.43	212.28
349.81	212.49
350.19	212.55
350.57	212.83
350.96	212.92
351.34	213.15
351.72	213.33
352.10	213.50
352.48	213.68
352.87	213.67
353.25	213.66
353.63	213.63
354.01	213.71
354.39	213.79
354.77	213.76
355.15	213.85
355.54	213.89
355.92	213.85
356.30	213.91
356.68	214.09
357.06	214.24
357.44	214.22
357.82	214.24
358.20	214.36
358.58	214.36
358.97	214.43
359.35	214.50
359.73	214.53
360.11	214.44
360.49	214.51
360.87	214.57
361.25	214.70
361.63	214.90
362.01	214.96
362.39	214.95
362.77	215.16
363.15	215.14
363.53	215.24
363.91	215.33
364.29	215.37
364.67	215.31
365.05	215.30
365.43	215.43
365.81	215.46
366.19	215.53
366.57	215.62
366.95	215.64
367.33	215.61
367.71	215.74
368.09	215.83
368.47	215.83
368.85	215.87
369.23	215.93
369.61	215.86
369.99	215.94
370.37	216.00
370.75	216.09
371.13	216.10
371.51	216.05
371.89	216.01
372.27	216.08
372.65	216.04
373.03	216.04
373.41	215.94
373.78	215.97
374.16	215.89
374.54	215.80
374.92	215.73
375.30	215.80
375.68	215.67
376.06	215.71
376.44	215.75
376.82	215.77
377.19	215.72
377.57	215.72
377.95	215.60
378.33	215.55
378.71	215.40
379.09	215.36
379.47	215.43
379.84	215.41
380.22	215.35
380.60	215.29
380.98	215.33
381.36	215.35
381.73	215.30
382.11	215.30
382.49	215.29
382.87	215.25
383.25	215.15
383.62	215.47
384.00	215.41
384.38	215.34
384.76	215.32
385.13	215.38
385.51	215.30
385.89	215.36
386.27	215.36
386.64	215.35
387.02	215.35
387.40	215.31
387.78	215.37
388.15	215.35
388.53	215.35
388.91	215.25
389.29	215.19
389.66	215.22
390.04	215.21
390.42	215.27
390.79	215.37
391.17	215.46
391.55	215.19
391.92	215.20
392.30	215.21
392.68	215.21
393.05	215.20
393.43	215.26
393.81	215.32
394.18	215.33
394.56	215.45
394.94	215.59
395.31	215.66
395.69	215.71
396.06	215.81
396.44	215.87
396.82	216.04
397.19	216.22
397.57	216.21
397.95	216.36
398.32	216.46
398.70	216.55
399.07	216.69
399.45	216.82
399.82	217.05
400.20	217.32
400.58	217.54
400.95	217.75
401.33	218.09
401.70	218.42
402.08	218.77
402.45	219.08
402.83	219.57
403.20	220.01
403.58	220.45
403.95	220.97
404.33	221.59
404.71	222.13
405.08	222.91
405.46	223.72
405.83	224.47
406.21	225.22
406.58	226.11
406.96	227.06
407.33	228.16
407.70	229.23
408.08	230.54
408.45	231.93
408.83	233.38
409.20	234.93
409.58	236.38
409.95	238.11
410.33	239.93
410.70	241.75
411.08	243.87
411.45	246.23
411.82	248.55
412.20	251.08
412.57	253.99
412.95	256.77
413.32	259.93
413.69	263.36
414.07	266.94
414.44	270.91
414.82	274.85
415.19	279.42
415.56	284.16
415.94	289.31
416.31	294.90
416.68	300.59
417.06	306.90
417.43	313.05
417.81	320.17
418.18	327.50
418.55	335.40
418.93	343.69
419.30	352.33
419.67	361.55
420.04	371.22
420.42	381.34
420.79	392.49
421.16	404.17
421.54	415.88
421.91	428.57
422.28	441.71
422.66	455.72
423.03	468.98
423.40	483.30
423.77	498.57
424.15	514.24
424.52	530.50
424.89	548.17
425.26	565.62
425.64	582.13
426.01	600.52
426.38	619.60
426.75	638.99
427.13	659.14
427.50	680.75
427.87	703.30
428.24	725.95
428.61	747.89
428.99	771.31
429.36	797.60
429.73	822.70
430.10	848.16
430.47	874.42
430.85	902.26
431.22	931.06
431.59	961.28
431.96	990.92
432.33	1023.68
432.70	1055.40
433.08	1092.83
433.45	1128.28
433.82	1163.51
434.19	1202.67
434.56	1240.84
434.93	1277.98
435.30	1314.90
435.68	1355.93
436.05	1396.81
436.42	1437.75
436.79	1475.53
437.16	1516.14
437.53	1559.60
437.90	1602.12
438.27	1644.10
438.64	1688.17
439.01	1729.37
439.38	1766.99
439.75	1802.85
440.13	1843.40
440.50	1882.28
440.87	1913.91
441.24	1947.41
441.61	1984.12
441.98	2012.82
442.35	2045.69
442.72	2078.41
443.09	2109.79
443.46	2130.87
443.83	2146.23
444.20	2160.16
444.57	2178.98
444.94	2189.81
445.31	2200.74
445.68	2210.08
446.05	2217.29
446.42	2217.20
446.79	2215.95
447.16	2214.12
447.53	2213.77
447.90	2202.41
448.27	2190.78
448.64	2173.24
449.01	2160.98
449.37	2136.28
449.74	2112.46
450.11	2082.66
450.48	2051.74
450.85	2019.99
451.22	1992.37
451.59	1965.95
451.96	1940.63
452.33	1905.50
452.70	1874.06
453.07	1836.05
453.43	1798.15
453.80	1760.53
454.17	1724.19
454.54	1690.40
454.91	1653.64
455.28	1617.86
455.65	1584.57
456.02	1549.17
456.38	1520.39
456.75	1484.20
457.12	1454.76
457.49	1424.98
457.86	1397.47
458.23	1371.71
458.59	1343.97
458.96	1316.03
459.33	1291.28
459.70	1266.49
460.07	1246.74
460.43	1223.98
460.80	1202.05
461.17	1183.49
461.54	1163.81
461.91	1145.22
462.27	1126.14
462.64	1110.19
463.01	1091.98
463.38	1073.93
463.74	1058.05
464.11	1043.30
464.48	1030.03
464.85	1015.39
465.21	1003.91
465.58	991.38
465.95	977.23
466.32	965.31
466.68	953.40
467.05	941.40
467.42	929.61
467.78	917.36
468.15	905.57
468.52	896.92
468.88	885.88
469.25	875.92
469.62	867.70
469.98	858.91
470.35	850.55
470.72	843.12
471.08	835.21
471.45	828.18
471.82	820.35
472.18	812.51
472.55	806.80
472.92	800.31
473.28	794.60
473.65	789.18
474.02	783.43
474.38	778.60
474.75	774.66
475.11	770.33
475.48	766.87
475.85	763.93
476.21	760.95
476.58	758.46
476.94	756.65
477.31	754.58
477.67	752.36
478.04	750.76
478.41	749.53
478.77	748.60
479.14	747.64
479.50	747.50
479.87	747.98
480.23	748.64
480.60	748.61
480.96	748.83
481.33	749.98
481.69	751.71
482.06	752.81
482.42	753.50
482.79	754.87
483.15	757.57
483.52	760.75
483.88	763.71
484.25	766.50
484.61	769.58
484.98	772.71
485.34	776.96
485.71	781.63
486.07	786.59
486.44	791.73
486.80	797.13
487.17	802.92
487.53	809.33
487.90	815.82
488.26	823.15
488.62	831.04
488.99	838.74
489.35	846.48
489.72	855.70
490.08	865.56
490.44	875.31
490.81	884.88
491.17	894.70
491.54	905.67
491.90	916.55
492.26	928.08
492.63	940.03
492.99	952.56
493.36	965.05
493.72	978.31
494.08	991.75
494.45	1006.13
494.81	1021.22
495.17	1036.68
495.54	1052.63
495.90	1069.28
496.26	1086.17
496.63	1103.82
496.99	1121.60
497.35	1139.29
497.72	1157.61
498.08	1176.24
498.44	1195.30
498.80	1215.14
499.17	1234.89
499.53	1255.52
499.89	1276.70
500.26	1298.15
500.62	1318.90
500.98	1341.23
501.34	1363.57
501.71	1386.50
502.07	1409.59
502.43	1432.67
502.79	1455.62
503.16	1478.73
503.52	1501.87
503.88	1524.73
504.24	1547.74
504.60	1571.34
504.97	1595.82
505.33	1620.03
505.69	1645.49
506.05	1670.35
506.41	1694.83
506.78	1719.49
507.14	1744.30
507.50	1769.04
507.86	1794.03
508.22	1819.59
508.59	1844.25
508.95	1869.57
509.31	1894.71
509.67	1920.25
510.03	1945.40
510.39	1971.17
510.75	1996.51
511.12	2020.89
511.48	2045.55
511.84	2070.18
512.20	2094.28
512.56	2118.72
512.92	2143.02
513.28	2166.72
513.64	2190.98
514.00	2214.20
514.37	2237.37
514.73	2260.87
515.09	2283.44
515.45	2305.75
515.81	2328.42
516.17	2350.81
516.53	2372.27
516.89	2393.59
517.25	2413.10
517.61	2433.09
517.97	2452.19
518.33	2470.89
518.69	2490.90
519.05	2510.93
519.41	2530.38
519.77	2550.38
520.13	2568.86
520.49	2586.65
520.85	2604.28
521.21	2620.75
521.57	2639.17
521.93	2655.62
522.29	2672.50
522.65	2689.39
523.01	2705.96
523.37	2720.98
523.73	2736.71
524.09	2751.74
524.45	2766.69
524.81	2781.63
525.17	2796.82
525.53	2811.21
525.89	2826.50
526.25	2840.71
526.61	2853.19
526.97	2866.71
527.33	2879.34
527.68	2892.61
528.04	2906.06
528.40	2918.08
528.76	2930.90
529.12	2941.76
529.48	2954.52
529.84	2964.36
530.20	2975.86
530.56	2986.98
530.91	2998.88
531.27	3009.43
531.63	3020.10
531.99	3030.10
532.35	3040.41
532.71	3050.27
533.07	3061.74
533.42	3070.96
533.78	3081.24
534.14	3091.26
534.50	3099.95
534.86	3109.31
535.21	3116.38
535.57	3124.96
535.93	3133.24
536.29	3140.29
536.65	3149.17
537.00	3155.95
537.36	3164.63
537.72	3171.25
538.08	3178.35
538.44	3185.35
538.79	3192.34
539.15	3199.64
539.51	3207.09
539.87	3214.25
540.22	3220.94
540.58	3227.12
540.94	3233.82
541.29	3238.86
541.65	3242.32
542.01	3246.63
542.37	3251.10
542.72	3256.96
543.08	3260.52
543.44	3264.77
543.79	3268.36
544.15	3270.90
544.51	3275.33
544.87	3278.89
545.22	3281.54
545.58	3283.42
545.94	3285.13
546.29	3286.61
546.65	3287.00
547.01	3287.66
547.36	3289.21
547.72	3290.02
548.07	3289.33
548.43	3288.92
548.79	3288.36
549.14	3290.35
549.50	3291.68
549.86	3292.40
550.21	3291.56
550.57	3291.72
550.92	3290.94
551.28	3290.12
551.64	3289.47
551.99	3288.54
552.35	3288.03
552.70	3287.68
553.06	3287.15
553.41	3286.46
553.77	3285.98
554.13	3285.67
554.48	3286.45
554.84	3285.75
555.19	3284.21
555.55	3283.94
555.90	3283.70
556.26	3283.44
556.61	3282.05
556.97	3279.66
557.32	3276.51
557.68	3274.09
558.03	3271.70
558.39	3269.76
558.74	3270.21
559.10	3269.77
559.45	3268.66
559.81	3267.06
560.16	3265.53
560.52	3264.78
560.87	3263.29
561.23	3259.82
561.58	3257.15
561.94	3252.26
562.29	3247.46
562.64	3244.32
563.00	3240.45
563.35	3236.05
563.71	3232.33
564.06	3230.07
564.42	3226.98
564.77	3224.56
565.12	3222.20
565.48	3218.76
565.83	3215.84
566.19	3212.60
566.54	3208.62
566.89	3203.70
567.25	3198.25
567.60	3194.12
567.96	3188.94
568.31	3184.16
568.66	3180.42
569.02	3177.02
569.37	3174.15
569.72	3171.74
570.08	3167.87
570.43	3162.86
570.78	3158.80
571.14	3154.39
571.49	3148.72
571.84	3144.35
572.20	3138.28
572.55	3133.10
572.90	3127.56
573.26	3121.61
573.61	3113.80
573.96	3106.63
574.31	3099.53
574.67	3093.29
575.02	3085.91
575.37	3078.32
575.72	3070.55
576.08	3063.61
576.43	3054.90
576.78	3046.88
577.13	3038.52
577.49	3030.90
577.84	3024.36
578.19	3016.52
578.54	3008.28
578.90	3000.44
579.25	2991.52
579.60	2982.72
579.95	2973.87
580.30	2965.76
580.66	2956.91
581.01	2948.35
581.36	2939.01
581.71	2930.95
582.06	2922.36
582.42	2914.21
582.77	2904.88
583.12	2895.46
583.47	2885.81
583.82	2876.91
584.17	2866.67
584.53	2857.33
584.88	2846.79
585.23	2836.30
585.58	2827.03
585.93	2817.33
586.28	2807.67
586.63	2798.29
586.98	2789.41
587.34	2779.81
587.69	2769.76
588.04	2760.72
588.39	2751.60
588.74	2740.99
589.09	2730.75
589.44	2719.41
589.79	2708.28
590.14	2698.58
590.49	2687.98
590.84	2678.49
591.19	2668.95
591.54	2658.87
591.89	2647.28
592.25	2637.27
592.60	2625.93
592.95	2613.94
593.30	2602.62
593.65	2591.64
594.00	2580.76
594.35	2570.59
594.70	2559.22
595.05	2548.30
595.40	2535.91
595.75	2523.90
596.10	2513.96
596.45	2502.93
596.80	2493.51
597.15	2482.85
597.50	2471.96
597.85	2462.33
598.19	2449.64
598.54	2437.57
598.89	2426.21
599.24	2415.77
599.59	2404.85
599.94	2395.37
600.29	2385.66
600.64	2375.38
600.99	2363.64
601.34	2353.20
601.69	2341.25
602.04	2330.69
602.39	2320.45
602.74	2311.87
603.08	2303.21
603.43	2294.53
603.78	2284.74
604.13	2274.23
604.48	2263.71
604.83	2254.01
605.18	2243.78
605.53	2234.56
605.87	2224.94
606.22	2215.85
606.57	2205.97
606.92	2195.35
607.27	2184.46
607.62	2174.07
607.96	2164.04
608.31	2155.00
608.66	2144.19
609.01	2133.98
609.36	2123.38
609.70	2112.39
610.05	2099.73
610.40	2087.74
610.75	2075.20
611.10	2063.89
611.44	2052.07
611.79	2041.34
612.14	2029.82
612.49	2017.40
612.83	2006.08
613.18	1993.93
613.53	1982.09
613.88	1969.51
614.22	1957.42
614.57	1945.21
614.92	1932.68
615.27	1920.46
615.61	1907.52
615.96	1895.71
616.31	1884.44
616.65	1873.51
617.00	1862.60
617.35	1852.23
617.70	1840.15
618.04	1828.56
618.39	1816.82
618.74	1805.33
619.08	1792.90
619.43	1780.59
619.78	1769.45
620.12	1758.62
620.47	1748.31
620.82	1736.92
621.16	1726.58
621.51	1716.10
621.85	1705.30
622.20	1694.45
622.55	1682.87
622.89	1672.48
623.24	1661.87
623.59	1650.62
623.93	1639.56
624.28	1628.27
624.62	1617.22
624.97	1607.30
625.32	1596.93
625.66	1586.80
626.01	1576.85
626.35	1568.15
626.70	1559.21
627.04	1549.74
627.39	1539.02
627.73	1529.05
628.08	1519.45
628.43	1509.77
628.77	1500.65
629.12	1491.10
629.46	1481.66
629.81	1472.31
630.15	1462.43
630.50	1452.80
630.84	1443.16
631.19	1433.17
631.53	1423.66
631.88	1414.31
632.22	1404.99
632.57	1396.54
632.91	1387.60
633.26	1378.83
633.60	1369.20
633.95	1360.35
634.29	1351.79
634.64	1343.71
634.98	1334.27
635.32	1325.82
635.67	1317.74
636.01	1309.41
636.36	1301.30
636.70	1293.29
637.05	1285.10
637.39	1277.15
637.73	1268.89
638.08	1261.93
638.42	1255.10
638.77	1247.73
639.11	1240.12
639.45	1232.24
639.80	1223.80
640.14	1215.87
640.49	1207.72
640.83	1199.48
641.17	1191.22
641.52	1183.03
641.86	1174.88
642.20	1167.36
642.55	1158.81
642.89	1150.15
643.23	1141.68
643.58	1133.89
643.92	1125.62
644.26	1117.58
644.61	1109.65
644.95	1101.62
645.29	1093.17
645.64	1084.35
645.98	1076.17
646.32	1068.36
646.66	1060.66
647.01	1052.97
647.35	1045.20
647.69	1037.30
648.04	1030.21
648.38	1022.54
648.72	1015.18
649.06	1007.61
649.41	1000.07
649.75	992.54
650.09	985.47
650.43	978.30
650.78	970.86
651.12	963.91
651.46	957.35
651.80	950.69
652.14	944.38
652.49	937.62
652.83	931.01
653.17	923.94
653.51	916.72
653.85	910.17
654.20	904.08
654.54	897.59
654.88	891.38
655.22	884.42
655.56	877.45
655.90	870.18
656.25	863.35
656.59	856.77
656.93	850.55
657.27	844.17
657.61	837.52
657.95	831.36
658.29	825.05
658.64	818.80
658.98	812.59
659.32	806.18
659.66	800.15
660.00	794.12
660.34	788.51
660.68	782.98
661.02	776.78
661.36	770.70
661.70	764.98
662.05	759.36
662.39	754.18
662.73	749.41
663.07	744.76
663.41	740.02
663.75	735.33
664.09	730.13
664.43	724.99
664.77	720.10
665.11	715.10
665.45	710.45
665.79	705.76
666.13	701.04
666.47	696.57
666.81	692.22
667.15	687.70
667.49	683.20
667.83	678.85
668.17	674.61
668.51	670.24
668.85	665.91
669.19	661.72
669.53	657.19
669.87	652.37
670.21	647.86
670.55	643.41
670.89	639.00
671.23	635.24
671.57	631.02
671.91	627.11
672.25	623.15
672.58	619.08
672.92	614.88
673.26	610.86
673.60	607.00
673.94	602.97
674.28	599.33
674.62	595.41
674.96	591.29
675.30	587.59
675.64	583.81
675.97	580.11
676.31	576.78
676.65	573.62
676.99	570.84
677.33	567.60
677.67	564.30
678.01	560.83
678.34	557.27
678.68	554.01
679.02	550.51
679.36	547.05
679.70	543.58
680.04	540.52
680.37	537.43
680.71	533.96
681.05	530.90
681.39	527.71
681.73	524.70
682.06	521.88
682.40	518.72
682.74	515.73
683.08	512.62
683.42	509.26
683.75	505.98
684.09	502.73
684.43	499.76
684.77	496.64
685.10	493.65
685.44	490.59
685.78	487.79
686.12	484.90
686.45	482.00
686.79	479.23
687.13	476.41
687.46	473.66
687.80	471.15
688.14	468.21
688.48	465.58
688.81	462.80
689.15	460.32
689.49	457.66
689.82	454.76
690.16	451.91
690.50	449.15
690.83	446.50
691.17	443.76
691.51	441.00
691.84	438.59
692.18	436.10
692.52	433.75
692.85	431.35
693.19	428.91
693.52	426.63
693.86	424.20
694.20	421.78
694.53	419.24
694.87	416.64
695.21	414.25
695.54	411.81
695.88	409.59
696.21	407.21
696.55	405.02
696.88	403.06
697.22	401.17
697.56	399.27
697.89	397.25
698.23	395.33
698.56	393.36
698.90	391.35
699.23	389.47
699.57	387.57
699.90	385.45
700.24	383.61
700.58	381.62
700.91	379.87
701.25	378.14
701.58	376.38
701.92	374.76
702.25	373.25
702.59	371.63
702.92	369.82
703.26	368.10
703.59	366.50
703.93	364.97
704.26	363.31
704.60	361.60
704.93	359.83
705.26	358.01
705.60	356.62
705.93	355.19
706.27	353.54
706.60	352.15
706.94	350.69
707.27	349.11
707.61	347.51
707.94	345.92
708.27	344.24
708.61	342.84
708.94	341.42
709.28	339.85
709.61	338.46
709.94	337.05
710.28	335.46
710.61	333.91
710.95	332.25
711.28	330.86
711.61	329.43
711.95	328.20
712.28	326.94
712.61	325.54
712.95	324.29
713.28	323.19
713.61	321.77
713.95	320.49
714.28	319.32
714.61	318.11
714.95	316.92
715.28	315.63
715.61	314.27
715.95	313.00
716.28	311.73
716.61	310.40
716.95	309.13
717.28	308.08
717.61	306.95
717.94	305.95
718.28	304.82
718.61	303.76
718.94	302.77
719.27	301.80
719.61	300.73
719.94	299.62
720.27	298.42
720.60	297.45
720.94	296.48
721.27	295.59
721.60	294.84
721.93	294.00
722.27	293.23
722.60	292.50
722.93	291.59
723.26	290.93
723.59	290.15
723.93	289.45
724.26	288.63
724.59	287.84
724.92	287.07
725.25	286.41
725.59	285.62
725.92	284.85
726.25	284.07
726.58	283.43
726.91	282.71
727.24	282.00
727.57	281.18
727.91	280.40
728.24	279.60
728.57	278.88
728.90	278.21
729.23	277.46
729.56	276.83
729.89	276.23
730.22	275.45
730.55	274.78
730.89	274.09
731.22	273.39
731.55	272.77
731.88	272.07
732.21	271.32
732.54	270.70
732.87	270.04
733.20	269.52
733.53	268.80
733.86	268.22
734.19	267.71
734.52	267.25
734.85	266.93
735.18	266.31
735.51	265.74
735.84	265.22
736.17	264.72
736.50	263.95
736.83	263.52
737.16	263.04
737.49	262.48
737.82	261.92
738.15	261.50
738.48	261.00
738.81	260.54
739.14	260.04
739.47	259.55
739.80	259.09
740.13	258.59
740.46	258.15
740.79	257.59
741.12	257.07
741.45	256.47
741.78	255.85
742.11	255.44
742.44	254.92
742.77	254.43
743.10	253.90
743.43	253.48
743.75	252.89
744.08	252.63
744.41	252.22
744.74	251.76
745.07	251.25
745.40	250.87
745.73	250.46
746.06	250.03
746.39	249.52
746.71	249.03
747.04	248.48
747.37	248.02
747.70	247.64
748.03	247.15
748.36	246.87
748.68	246.47
749.01	246.04
749.34	245.63
749.67	245.18
750.00	244.81
750.33	244.53
750.65	244.06
750.98	243.48
751.31	243.07
751.64	242.65
751.97	242.31
752.29	241.90
752.62	241.40
752.95	241.09
753.28	240.74
753.60	240.45
753.93	240.10
754.26	239.77
754.59	239.42
754.91	239.07
755.24	238.61
755.57	238.23
755.90	237.85
756.22	237.42
756.55	237.09
756.88	236.76
757.20	236.41
757.53	236.11
757.86	235.85
758.19	235.58
758.51	235.34
758.84	235.04
759.17	234.73
759.49	234.58
759.82	234.30
760.15	234.10
760.47	233.83
760.80	233.49
761.13	233.21
761.45	232.93
761.78	232.68
762.11	232.41
762.43	232.16
762.76	231.95
763.08	231.79
763.41	231.46
763.74	231.22
764.06	230.93
764.39	230.70
764.71	230.42
765.04	230.21
765.37	229.95
765.69	229.72
766.02	229.54
766.34	229.29
766.67	229.09
767.00	228.90
767.32	228.74
767.65	228.78
767.97	228.52
768.30	228.35
768.62	228.27
768.95	228.11
769.27	228.00
769.60	227.79
769.92	227.62
770.25	227.53
770.57	227.35
770.90	227.20
771.22	227.08
771.55	226.92
771.87	226.77
772.20	226.57
772.52	226.54
772.85	226.64
773.17	226.46
773.50	226.26
773.82	226.11
774.15	225.87
774.47	225.52
774.80	225.43
775.12	225.30
775.45	225.05
775.77	224.92
776.09	224.75
776.42	224.71
776.74	224.62
777.07	224.47
777.39	224.33
777.72	224.23
778.04	224.09
778.36	223.92
778.69	223.82
779.01	223.79
779.33	223.52
779.66	223.13
779.98	223.02
780.31	222.92
780.63	222.83
780.95	222.76
781.28	222.66
781.60	222.49
781.92	222.32
782.25	222.27
782.57	222.14
782.89	222.00
