SpectraSuite Data File
++++++++++++++++++++++++++++++++++++
Date: Mon Feb 25 17:35:04 EST 2013
User: group
Dark Spectrum Present: No
Reference Spectrum Present: No
Number of Sampled Component Spectra: 1
Spectrometers: USB2E7196
Integration Time (usec): 52000 (USB2E7196)
Spectra Averaged: 20 (USB2E7196)
Boxcar Smoothing: 10 (USB2E7196)
Correct for Electrical Dark: No (USB2E7196)
Strobe/Lamp Enabled: No (USB2E7196)
Correct for Detector Non-linearity: No (USB2E7196)
Correct for Stray Light: No (USB2E7196)
Number of Pixels in Processed Spectrum: 2048
>>>>>Begin Processed Spectral Data<<<<<
339.09	0.00
339.48	199.45
339.86	201.70
340.24	200.85
340.63	202.25
341.01	207.50
341.39	206.35
341.78	207.15
342.16	209.10
342.54	209.25
342.93	198.31
343.31	208.37
343.69	208.91
344.07	209.35
344.46	209.81
344.84	210.27
345.22	210.47
345.60	210.76
345.99	210.93
346.37	211.03
346.75	211.15
347.13	211.25
347.52	211.25
347.90	211.32
348.28	211.37
348.66	211.40
349.05	211.38
349.43	211.47
349.81	211.55
350.19	211.60
350.57	211.74
350.96	211.82
351.34	211.90
351.72	212.00
352.10	212.08
352.48	212.12
352.87	212.11
353.25	212.10
353.63	212.06
354.01	212.15
354.39	212.21
354.77	212.28
355.15	212.34
355.54	212.37
355.92	212.33
356.30	212.39
356.68	212.63
357.06	212.65
357.44	212.63
357.82	212.65
358.20	212.76
358.58	212.83
358.97	212.92
359.35	212.89
359.73	212.91
360.11	212.96
360.49	213.03
360.87	213.09
361.25	213.21
361.63	213.34
362.01	213.34
362.39	213.42
362.77	213.42
363.15	213.45
363.53	213.48
363.91	213.50
364.29	213.50
364.67	213.27
365.05	213.30
365.43	213.32
365.81	213.37
366.19	213.34
366.57	213.31
366.95	213.31
367.33	213.35
367.71	213.40
368.09	213.44
368.47	213.49
368.85	213.49
369.23	213.45
369.61	213.35
369.99	213.47
370.37	213.45
370.75	213.58
371.13	213.52
371.51	213.45
371.89	213.48
372.27	213.53
372.65	213.51
373.03	213.48
373.41	213.44
373.78	213.38
374.16	213.34
374.54	213.29
374.92	213.29
375.30	213.23
375.68	213.10
376.06	212.98
376.44	212.94
376.82	212.92
377.19	212.82
377.57	212.76
377.95	212.61
378.33	212.47
378.71	212.27
379.09	212.29
379.47	212.35
379.84	212.27
380.22	212.18
380.60	212.18
380.98	212.11
381.36	212.15
381.73	212.08
382.11	212.07
382.49	211.99
382.87	211.86
383.25	211.86
383.62	212.05
384.00	212.04
384.38	211.98
384.76	211.94
385.13	212.02
385.51	212.06
385.89	212.01
386.27	212.04
386.64	212.02
387.02	211.97
387.40	211.87
387.78	211.88
388.15	211.83
388.53	211.77
388.91	211.81
389.29	211.70
389.66	211.72
390.04	211.64
390.42	211.66
390.79	211.68
391.17	211.69
391.55	211.53
391.92	211.53
392.30	211.55
392.68	211.49
393.05	211.44
393.43	211.40
393.81	211.41
394.18	211.42
394.56	211.44
394.94	211.52
395.31	211.49
395.69	211.48
396.06	211.48
396.44	211.45
396.82	211.46
397.19	211.69
397.57	211.73
397.95	211.81
398.32	211.79
398.70	211.81
399.07	211.85
399.45	211.81
399.82	211.83
400.20	211.83
400.58	211.96
400.95	212.01
401.33	212.18
401.70	212.36
402.08	212.43
402.45	212.51
402.83	212.50
403.20	212.64
403.58	212.75
403.95	212.93
404.33	213.08
404.71	213.12
405.08	213.20
405.46	213.27
405.83	213.36
406.21	213.58
406.58	213.67
406.96	213.79
407.33	213.95
407.70	214.18
408.08	214.52
408.45	214.77
408.83	215.03
409.20	215.18
409.58	215.30
409.95	215.54
410.33	215.90
410.70	216.21
411.08	216.55
411.45	216.96
411.82	217.32
412.20	217.78
412.57	218.36
412.95	218.75
413.32	219.25
413.69	219.80
414.07	220.33
414.44	221.01
414.82	221.70
415.19	222.49
415.56	223.27
415.94	223.95
416.31	224.73
416.68	225.57
417.06	226.66
417.43	227.68
417.81	228.75
418.18	229.80
418.55	231.03
418.93	232.30
419.30	233.52
419.67	234.86
420.04	236.30
420.42	237.81
420.79	239.60
421.16	241.39
421.54	243.24
421.91	245.12
422.28	247.01
422.66	249.07
423.03	251.08
423.40	253.12
423.77	255.39
424.15	257.75
424.52	260.07
424.89	262.59
425.26	265.12
425.64	267.56
426.01	270.14
426.38	272.83
426.75	275.68
427.13	278.57
427.50	281.54
427.87	284.57
428.24	287.68
428.61	290.64
428.99	294.00
429.36	297.50
429.73	301.04
430.10	304.54
430.47	308.00
430.85	311.73
431.22	315.73
431.59	319.90
431.96	323.73
432.33	328.19
432.70	332.39
433.08	337.40
433.45	342.16
433.82	346.93
434.19	352.13
434.56	357.10
434.93	361.92
435.30	366.78
435.68	372.08
436.05	377.24
436.42	382.37
436.79	387.05
437.16	392.20
437.53	397.54
437.90	402.83
438.27	408.13
438.64	413.45
439.01	418.40
439.38	422.81
439.75	427.16
440.13	432.05
440.50	436.61
440.87	440.33
441.24	444.15
441.61	448.32
441.98	451.35
442.35	454.95
442.72	458.59
443.09	462.22
443.46	464.43
443.83	465.87
444.20	467.10
444.57	468.80
444.94	469.55
445.31	470.32
445.68	471.13
446.05	471.41
446.42	470.82
446.79	470.10
447.16	469.28
447.53	468.65
447.90	466.40
448.27	464.38
448.64	461.39
449.01	459.14
449.37	455.54
449.74	452.08
450.11	447.96
450.48	443.42
450.85	438.72
451.22	434.56
451.59	430.72
451.96	427.09
452.33	422.35
452.70	417.96
453.07	412.76
453.43	407.48
453.80	402.37
454.17	397.53
454.54	392.84
454.91	387.88
455.28	383.11
455.65	378.79
456.02	374.39
456.38	370.67
456.75	366.09
457.12	362.13
457.49	358.14
457.86	354.32
458.23	351.15
458.59	347.58
458.96	344.11
459.33	340.90
459.70	337.65
460.07	335.03
460.43	332.11
460.80	329.41
461.17	327.04
461.54	324.48
461.91	322.13
462.27	319.80
462.64	317.79
463.01	315.57
463.38	313.39
463.74	311.15
464.11	309.16
464.48	307.48
464.85	305.72
465.21	304.47
465.58	303.07
465.95	301.33
466.32	299.95
466.68	298.46
467.05	297.10
467.42	295.67
467.78	294.29
468.15	292.98
468.52	291.94
468.88	290.56
469.25	289.44
469.62	288.44
469.98	287.44
470.35	286.46
470.72	285.60
471.08	284.70
471.45	283.93
471.82	283.17
472.18	282.25
472.55	281.67
472.92	280.83
473.28	280.20
473.65	279.58
474.02	278.95
474.38	278.59
474.75	278.21
475.11	277.88
475.48	277.62
475.85	277.44
476.21	277.32
476.58	277.25
476.94	277.19
477.31	277.21
477.67	277.15
478.04	277.28
478.41	277.44
478.77	277.64
479.14	277.70
479.50	277.95
479.87	278.39
480.23	278.77
480.60	279.22
480.96	279.64
481.33	280.24
481.69	280.92
482.06	281.50
482.42	282.13
482.79	282.85
483.15	283.79
483.52	284.75
483.88	285.58
484.25	286.61
484.61	287.67
484.98	288.73
485.34	290.02
485.71	291.35
486.07	292.75
486.44	294.05
486.80	295.74
487.17	297.34
487.53	299.08
487.90	300.84
488.26	302.80
488.62	304.85
488.99	306.86
489.35	309.12
489.72	311.47
490.08	313.97
490.44	316.49
490.81	318.97
491.17	321.60
491.54	324.61
491.90	327.53
492.26	330.76
492.63	334.15
492.99	337.65
493.36	341.34
493.72	345.16
494.08	349.30
494.45	353.37
494.81	357.89
495.17	362.43
495.54	367.27
495.90	372.35
496.26	377.50
496.63	383.15
496.99	388.85
497.35	394.83
497.72	400.90
498.08	407.35
498.44	414.09
498.80	421.25
499.17	428.63
499.53	436.35
499.89	444.42
500.26	452.43
500.62	460.78
500.98	469.50
501.34	478.56
501.71	487.92
502.07	497.80
502.43	507.75
502.79	518.02
503.16	528.68
503.52	539.57
503.88	550.78
504.24	562.41
504.60	574.19
504.97	586.53
505.33	599.14
505.69	612.66
506.05	626.25
506.41	639.92
506.78	653.59
507.14	667.61
507.50	682.27
507.86	697.34
508.22	712.74
508.59	728.48
508.95	744.50
509.31	760.82
509.67	777.41
510.03	794.45
510.39	812.20
510.75	829.93
511.12	847.98
511.48	866.56
511.84	885.24
512.20	904.12
512.56	923.48
512.92	943.24
513.28	962.51
513.64	982.08
514.00	1001.90
514.37	1022.50
514.73	1043.52
515.09	1064.30
515.45	1085.41
515.81	1106.63
516.17	1128.03
516.53	1149.40
516.89	1171.23
517.25	1192.96
517.61	1214.69
517.97	1236.16
518.33	1257.73
518.69	1279.61
519.05	1302.12
519.41	1324.17
519.77	1346.78
520.13	1368.83
520.49	1390.93
520.85	1413.73
521.21	1436.60
521.57	1459.89
521.93	1482.21
522.29	1505.38
522.65	1528.10
523.01	1550.66
523.37	1573.04
523.73	1595.40
524.09	1617.95
524.45	1640.13
524.81	1662.61
525.17	1685.01
525.53	1707.79
525.89	1730.68
526.25	1752.85
526.61	1773.88
526.97	1795.89
527.33	1817.35
527.68	1839.38
528.04	1860.87
528.40	1881.58
528.76	1902.57
529.12	1923.13
529.48	1944.78
529.84	1964.89
530.20	1985.46
530.56	2006.13
530.91	2027.11
531.27	2047.76
531.63	2067.91
531.99	2088.14
532.35	2107.77
532.71	2127.26
533.07	2146.68
533.42	2165.31
533.78	2184.50
534.14	2203.51
534.50	2221.21
534.86	2239.40
535.21	2256.26
535.57	2274.09
535.93	2291.37
536.29	2308.22
536.65	2325.12
537.00	2340.77
537.36	2356.31
537.72	2371.82
538.08	2387.14
538.44	2402.02
538.79	2417.46
539.15	2432.71
539.51	2447.40
539.87	2462.73
540.22	2477.55
540.58	2492.67
540.94	2507.34
541.29	2520.50
541.65	2532.64
542.01	2546.10
542.37	2558.26
542.72	2570.45
543.08	2581.81
543.44	2594.06
543.79	2604.64
544.15	2615.01
544.51	2625.83
544.87	2637.23
545.22	2646.51
545.58	2655.64
545.94	2663.65
546.29	2670.32
546.65	2676.87
547.01	2683.16
547.36	2689.02
547.72	2694.60
548.07	2698.74
548.43	2702.94
548.79	2706.95
549.14	2712.09
549.50	2716.53
549.86	2720.69
550.21	2725.24
550.57	2729.42
550.92	2732.45
551.28	2735.47
551.64	2738.33
551.99	2741.44
552.35	2743.26
552.70	2746.38
553.06	2748.97
553.41	2752.22
553.77	2755.67
554.13	2757.77
554.48	2760.37
554.84	2761.84
555.19	2762.59
555.55	2763.19
555.90	2763.32
556.26	2763.95
556.61	2763.52
556.97	2762.05
557.32	2761.56
557.68	2759.94
558.03	2758.46
558.39	2756.75
558.74	2756.75
559.10	2755.75
559.45	2753.65
559.81	2752.38
560.16	2749.67
560.52	2746.87
560.87	2743.59
561.23	2739.70
561.58	2737.69
561.94	2734.31
562.29	2730.76
562.64	2728.62
563.00	2726.38
563.35	2724.84
563.71	2723.28
564.06	2721.54
564.42	2720.00
564.77	2718.01
565.12	2716.20
565.48	2713.15
565.83	2710.23
566.19	2706.50
566.54	2701.87
566.89	2698.15
567.25	2694.42
567.60	2691.23
567.96	2688.20
568.31	2684.69
568.66	2680.51
569.02	2675.96
569.37	2671.17
569.72	2667.04
570.08	2661.83
570.43	2656.34
570.78	2650.22
571.14	2644.00
571.49	2637.34
571.84	2631.12
572.20	2623.86
572.55	2617.13
572.90	2610.24
573.26	2603.36
573.61	2596.34
573.96	2590.18
574.31	2582.67
574.67	2574.82
575.02	2566.15
575.37	2557.55
575.72	2548.82
576.08	2541.48
576.43	2532.38
576.78	2524.36
577.13	2516.27
577.49	2507.62
577.84	2499.63
578.19	2492.08
578.54	2484.57
578.90	2477.39
579.25	2468.56
579.60	2459.60
579.95	2450.13
580.30	2442.04
580.66	2433.56
581.01	2424.46
581.36	2415.05
581.71	2406.37
582.06	2397.75
582.42	2389.50
582.77	2380.37
583.12	2371.17
583.47	2362.39
583.82	2354.30
584.17	2344.77
584.53	2335.46
584.88	2326.80
585.23	2317.33
585.58	2307.61
585.93	2297.56
586.28	2288.40
586.63	2279.67
586.98	2271.35
587.34	2262.78
587.69	2253.72
588.04	2244.69
588.39	2236.21
588.74	2227.32
589.09	2218.21
589.44	2208.23
589.79	2199.78
590.14	2191.75
590.49	2183.39
590.84	2174.11
591.19	2165.60
591.54	2156.83
591.89	2146.96
592.25	2137.85
592.60	2128.44
592.95	2119.14
593.30	2109.65
593.65	2099.44
594.00	2089.49
594.35	2080.89
594.70	2071.69
595.05	2062.78
595.40	2053.54
595.75	2043.76
596.10	2035.09
596.45	2026.58
596.80	2018.50
597.15	2009.70
597.50	2000.20
597.85	1991.62
598.19	1982.90
598.54	1974.44
598.89	1966.59
599.24	1959.55
599.59	1951.74
599.94	1944.42
600.29	1936.31
600.64	1928.27
600.99	1920.08
601.34	1912.60
601.69	1903.44
602.04	1895.44
602.39	1887.26
602.74	1879.73
603.08	1873.17
603.43	1865.96
603.78	1857.92
604.13	1849.82
604.48	1841.96
604.83	1834.94
605.18	1827.75
605.53	1819.96
605.87	1812.06
606.22	1804.63
606.57	1796.74
606.92	1788.48
607.27	1780.30
607.62	1772.99
607.96	1766.03
608.31	1759.76
608.66	1752.22
609.01	1744.99
609.36	1737.23
609.70	1729.01
610.05	1721.01
610.40	1712.49
610.75	1704.05
611.10	1696.48
611.44	1687.62
611.79	1678.22
612.14	1668.53
612.49	1659.11
612.83	1650.47
613.18	1640.70
613.53	1631.12
613.88	1621.27
614.22	1612.60
614.57	1603.25
614.92	1593.61
615.27	1584.31
615.61	1574.48
615.96	1565.40
616.31	1556.81
616.65	1548.96
617.00	1540.74
617.35	1531.88
617.70	1522.70
618.04	1513.56
618.39	1503.80
618.74	1495.28
619.08	1486.78
619.43	1478.64
619.78	1470.67
620.12	1462.28
620.47	1454.40
620.82	1445.85
621.16	1437.55
621.51	1428.65
621.85	1420.34
622.20	1411.94
622.55	1403.29
622.89	1394.84
623.24	1386.76
623.59	1377.94
623.93	1368.84
624.28	1360.48
624.62	1352.36
624.97	1344.04
625.32	1335.98
625.66	1328.59
626.01	1320.92
626.35	1313.56
626.70	1305.87
627.04	1298.21
627.39	1290.75
627.73	1283.10
628.08	1276.13
628.43	1268.41
628.77	1261.32
629.12	1253.86
629.46	1247.18
629.81	1239.75
630.15	1232.21
630.50	1224.50
630.84	1217.24
631.19	1210.19
631.53	1203.27
631.88	1195.48
632.22	1188.10
632.57	1181.14
632.91	1173.81
633.26	1166.35
633.60	1159.07
633.95	1152.11
634.29	1144.63
634.64	1137.72
634.98	1130.53
635.32	1123.48
635.67	1117.30
636.01	1110.47
636.36	1103.53
636.70	1096.53
637.05	1090.15
637.39	1084.10
637.73	1077.94
638.08	1071.84
638.42	1065.77
638.77	1059.19
639.11	1052.92
639.45	1046.72
639.80	1040.10
640.14	1033.51
640.49	1027.23
640.83	1020.85
641.17	1014.44
641.52	1008.48
641.86	1001.71
642.20	995.47
642.55	988.58
642.89	982.00
643.23	975.45
643.58	969.61
643.92	963.19
644.26	956.61
644.61	950.30
644.95	944.05
645.29	937.63
645.64	931.15
645.98	924.54
646.32	918.63
646.66	912.45
647.01	906.55
647.35	900.41
647.69	894.30
648.04	888.37
648.38	882.22
648.72	876.09
649.06	870.09
649.41	864.06
649.75	858.25
650.09	852.29
650.43	846.45
650.78	840.20
651.12	834.23
651.46	828.42
651.80	822.44
652.14	816.38
652.49	810.50
652.83	804.47
653.17	798.49
653.51	792.58
653.85	786.98
654.20	780.96
654.54	775.37
654.88	769.91
655.22	764.07
655.56	758.30
655.90	752.10
656.25	746.32
656.59	740.90
656.93	735.73
657.27	730.60
657.61	725.06
657.95	719.98
658.29	714.65
658.64	709.54
658.98	704.26
659.32	698.92
659.66	693.70
660.00	688.39
660.34	683.21
660.68	678.07
661.02	672.93
661.36	668.31
661.70	663.39
662.05	658.37
662.39	653.92
662.73	649.50
663.07	645.43
663.41	641.12
663.75	636.42
664.09	631.63
664.43	626.92
664.77	622.53
665.11	617.94
665.45	613.61
665.79	609.23
666.13	604.86
666.47	600.68
666.81	596.56
667.15	592.55
667.49	588.56
667.83	584.61
668.17	580.69
668.51	576.84
668.85	573.08
669.19	569.55
669.53	565.42
669.87	561.46
670.21	557.45
670.55	553.55
670.89	550.07
671.23	546.69
671.57	543.13
671.91	539.52
672.25	535.90
672.58	532.45
672.92	528.91
673.26	525.74
673.60	522.41
673.94	519.03
674.28	515.73
674.62	512.65
674.96	509.39
675.30	506.19
675.64	502.77
675.97	499.48
676.31	496.37
676.65	493.69
676.99	490.91
677.33	487.96
677.67	485.10
678.01	481.92
678.34	478.79
678.68	475.86
679.02	472.95
679.36	470.17
679.70	467.21
680.04	464.30
680.37	461.19
680.71	458.53
681.05	455.76
681.39	452.98
681.73	450.43
682.06	447.84
682.40	445.26
682.74	442.67
683.08	440.26
683.42	437.55
683.75	434.79
684.09	432.09
684.43	429.61
684.77	426.91
685.10	424.39
685.44	421.96
685.78	419.48
686.12	417.04
686.45	414.65
686.79	412.32
687.13	410.25
687.46	408.19
687.80	405.79
688.14	403.45
688.48	401.19
688.81	398.76
689.15	396.47
689.49	394.10
689.82	391.80
690.16	389.26
690.50	387.05
690.83	384.81
691.17	382.66
691.51	380.32
691.84	378.27
692.18	376.37
692.52	374.37
692.85	372.41
693.19	370.53
693.52	368.59
693.86	366.58
694.20	364.57
694.53	362.54
694.87	360.55
695.21	358.69
695.54	356.83
695.88	354.89
696.21	353.09
696.55	351.46
696.88	349.72
697.22	348.07
697.56	346.46
697.89	344.73
698.23	343.02
698.56	341.47
698.90	339.93
699.23	338.17
699.57	336.55
699.90	334.90
700.24	333.19
700.58	331.61
700.91	330.14
701.25	328.60
701.58	327.09
701.92	325.65
702.25	324.17
702.59	322.87
702.92	321.60
703.26	320.27
703.59	318.93
703.93	317.82
704.26	316.58
704.60	315.26
704.93	314.09
705.26	312.88
705.60	311.76
705.93	310.45
706.27	309.29
706.60	308.21
706.94	307.10
707.27	305.95
707.61	304.75
707.94	303.64
708.27	302.45
708.61	301.35
708.94	300.28
709.28	299.20
709.61	297.94
709.94	296.79
710.28	295.72
710.61	294.64
710.95	293.42
711.28	292.48
711.61	291.39
711.95	290.36
712.28	289.29
712.61	288.27
712.95	287.34
713.28	286.50
713.61	285.53
713.95	284.58
714.28	283.72
714.61	282.80
714.95	281.89
715.28	280.94
715.61	280.00
715.95	279.09
716.28	278.24
716.61	277.45
716.95	276.63
717.28	275.75
717.61	274.95
717.94	274.15
718.28	273.22
718.61	272.49
718.94	271.69
719.27	270.92
719.61	270.11
719.94	269.36
720.27	268.52
720.60	267.63
720.94	266.94
721.27	266.25
721.60	265.70
721.93	265.08
722.27	264.53
722.60	263.93
722.93	263.31
723.26	262.68
723.59	262.07
723.93	261.41
724.26	260.75
724.59	260.19
724.92	259.70
725.25	259.22
725.59	258.60
725.92	258.11
726.25	257.62
726.58	257.09
726.91	256.61
727.24	256.17
727.57	255.78
727.91	255.15
728.24	254.68
728.57	254.17
728.90	253.65
729.23	253.07
729.56	252.69
729.89	252.16
730.22	251.69
730.55	251.20
730.89	250.83
731.22	250.44
731.55	249.87
731.88	249.36
732.21	248.86
732.54	248.40
732.87	247.97
733.20	247.53
733.53	247.13
733.86	246.64
734.19	246.11
734.52	245.72
734.85	245.49
735.18	244.95
735.51	244.56
735.84	244.17
736.17	243.90
736.50	243.47
736.83	243.37
737.16	243.03
737.49	242.74
737.82	242.36
738.15	241.98
738.48	241.74
738.81	241.44
739.14	241.08
739.47	240.76
739.80	240.37
740.13	239.95
740.46	239.60
740.79	239.26
741.12	238.90
741.45	238.55
741.78	238.22
742.11	238.04
742.44	237.67
742.77	237.42
743.10	237.06
743.43	236.71
743.75	236.16
744.08	236.07
744.41	235.74
744.74	235.44
745.07	235.15
745.40	234.89
745.73	234.68
746.06	234.39
746.39	234.12
746.71	233.81
747.04	233.61
747.37	233.33
747.70	233.03
748.03	232.82
748.36	232.58
748.68	232.22
749.01	231.90
749.34	231.60
749.67	231.37
750.00	231.13
750.33	231.01
750.65	230.82
750.98	230.26
751.31	230.06
751.64	229.82
751.97	229.68
752.29	229.37
752.62	229.03
752.95	228.80
753.28	228.58
753.60	228.37
753.93	228.16
754.26	227.95
754.59	227.76
754.91	227.61
755.24	227.44
755.57	227.31
755.90	227.12
756.22	226.93
756.55	226.67
756.88	226.41
757.20	226.14
757.53	225.90
757.86	225.78
758.19	225.54
758.51	225.40
758.84	225.15
759.17	224.97
759.49	224.85
759.82	224.72
760.15	224.56
760.47	224.45
760.80	224.25
761.13	224.17
761.45	224.04
761.78	223.82
762.11	223.57
762.43	223.45
762.76	223.21
763.08	223.13
763.41	222.95
763.74	222.84
764.06	222.58
764.39	222.47
764.71	222.36
765.04	222.21
765.37	222.07
765.69	221.96
766.02	221.82
766.34	221.67
766.67	221.55
767.00	221.40
767.32	221.29
767.65	221.22
767.97	221.12
768.30	220.98
768.62	220.89
768.95	220.79
769.27	220.58
769.60	220.52
769.92	220.37
770.25	220.26
770.57	220.19
770.90	220.13
771.22	220.03
771.55	219.85
771.87	219.74
772.20	219.55
772.52	219.57
772.85	219.75
773.17	219.63
773.50	219.52
773.82	219.45
774.15	219.27
774.47	219.11
774.80	218.85
775.12	218.75
775.45	218.62
775.77	218.51
776.09	218.43
776.42	218.33
776.74	218.31
777.07	218.22
777.39	218.11
777.72	218.05
778.04	218.00
778.36	217.97
778.69	217.90
779.01	217.84
779.33	217.60
779.66	217.26
779.98	217.12
780.31	217.05
780.63	217.02
780.95	217.04
781.28	216.94
781.60	216.93
781.92	216.88
782.25	216.83
782.57	216.83
782.89	216.78
783.22	216.74
783.54	216.59
783.86	216.59
784.19	216.49
784.51	216.54
784.83	216.45
785.16	216.35
785.48	216.29
785.80	216.33
786.12	216.33
786.45	216.30
