SpectraSuite Data File
++++++++++++++++++++++++++++++++++++
Date: Mon Feb 25 17:30:49 EST 2013
User: group
Dark Spectrum Present: No
Reference Spectrum Present: No
Number of Sampled Component Spectra: 1
Spectrometers: USB2E7196
Integration Time (usec): 52000 (USB2E7196)
Spectra Averaged: 20 (USB2E7196)
Boxcar Smoothing: 10 (USB2E7196)
Correct for Electrical Dark: No (USB2E7196)
Strobe/Lamp Enabled: No (USB2E7196)
Correct for Detector Non-linearity: No (USB2E7196)
Correct for Stray Light: No (USB2E7196)
Number of Pixels in Processed Spectrum: 2048
>>>>>Begin Processed Spectral Data<<<<<
339.09	0.00
339.48	197.75
339.86	200.15
340.24	202.50
340.63	202.70
341.01	206.90
341.39	205.45
341.78	207.50
342.16	208.05
342.54	207.80
342.93	197.98
343.31	207.99
343.69	208.61
344.07	209.15
344.46	209.56
344.84	209.95
345.22	210.26
345.60	210.55
345.99	210.75
346.37	210.96
346.75	211.14
347.13	211.26
347.52	211.42
347.90	211.65
348.28	211.71
348.66	211.79
349.05	211.78
349.43	211.79
349.81	211.87
350.19	211.93
350.57	212.01
350.96	212.12
351.34	212.26
351.72	212.30
352.10	212.38
352.48	212.41
352.87	212.51
353.25	212.46
353.63	212.57
354.01	212.69
354.39	212.75
354.77	212.78
355.15	212.92
355.54	212.92
355.92	212.84
356.30	212.90
356.68	213.04
357.06	213.08
357.44	213.22
357.82	213.28
358.20	213.36
358.58	213.40
358.97	213.45
359.35	213.53
359.73	213.71
360.11	213.77
360.49	213.88
360.87	213.91
361.25	214.00
361.63	214.02
362.01	214.02
362.39	214.04
362.77	214.15
363.15	214.11
363.53	214.10
363.91	214.15
364.29	214.14
364.67	214.06
365.05	214.10
365.43	214.08
365.81	214.11
366.19	214.21
366.57	214.26
366.95	214.26
367.33	214.18
367.71	214.13
368.09	214.12
368.47	214.03
368.85	213.95
369.23	213.96
369.61	213.88
369.99	213.89
370.37	213.88
370.75	213.83
371.13	213.74
371.51	213.74
371.89	213.71
372.27	213.67
372.65	213.60
373.03	213.48
373.41	213.45
373.78	213.41
374.16	213.26
374.54	213.17
374.92	213.07
375.30	213.02
375.68	212.89
376.06	212.84
376.44	212.82
376.82	212.85
377.19	212.72
377.57	212.65
377.95	212.52
378.33	212.46
378.71	212.38
379.09	212.46
379.47	212.52
379.84	212.45
380.22	212.41
380.60	212.34
380.98	212.30
381.36	212.22
381.73	212.14
382.11	212.10
382.49	212.05
382.87	212.01
383.25	212.01
383.62	212.19
384.00	212.09
384.38	212.08
384.76	212.06
385.13	212.18
385.51	212.19
385.89	212.14
386.27	212.08
386.64	212.03
387.02	211.95
387.40	211.81
387.78	211.80
388.15	211.77
388.53	211.73
388.91	211.77
389.29	211.76
389.66	211.83
390.04	211.82
390.42	211.85
390.79	211.83
391.17	211.79
391.55	211.58
391.92	211.64
392.30	211.62
392.68	211.60
393.05	211.50
393.43	211.47
393.81	211.53
394.18	211.53
394.56	211.63
394.94	211.69
395.31	211.71
395.69	211.73
396.06	211.83
396.44	211.94
396.82	211.92
397.19	212.01
397.57	211.96
397.95	212.06
398.32	212.06
398.70	212.14
399.07	212.16
399.45	212.16
399.82	212.14
400.20	212.12
400.58	212.08
400.95	212.13
401.33	212.25
401.70	212.37
402.08	212.49
402.45	212.49
402.83	212.55
403.20	212.60
403.58	212.64
403.95	212.65
404.33	212.71
404.71	212.75
405.08	212.96
405.46	213.10
405.83	213.24
406.21	213.37
406.58	213.52
406.96	213.75
407.33	213.94
407.70	214.18
408.08	214.56
408.45	214.87
408.83	215.14
409.20	215.34
409.58	215.57
409.95	215.78
410.33	216.10
410.70	216.37
411.08	216.73
411.45	217.12
411.82	217.50
412.20	217.87
412.57	218.40
412.95	218.64
413.32	219.13
413.69	219.55
414.07	220.09
414.44	220.64
414.82	221.19
415.19	222.03
415.56	222.79
415.94	223.50
416.31	224.41
416.68	225.29
417.06	226.30
417.43	227.17
417.81	228.28
418.18	229.32
418.55	230.47
418.93	231.67
419.30	233.02
419.67	234.41
420.04	235.81
420.42	237.32
420.79	239.11
421.16	240.84
421.54	242.64
421.91	244.40
422.28	246.35
422.66	248.41
423.03	250.36
423.40	252.30
423.77	254.52
424.15	256.62
424.52	258.85
424.89	261.25
425.26	263.68
425.64	265.92
426.01	268.47
426.38	271.20
426.75	273.90
427.13	276.59
427.50	279.43
427.87	282.41
428.24	285.40
428.61	288.24
428.99	291.35
429.36	294.72
429.73	298.21
430.10	301.45
430.47	304.93
430.85	308.45
431.22	312.26
431.59	316.18
431.96	320.11
432.33	324.37
432.70	328.53
433.08	333.40
433.45	337.94
433.82	342.56
434.19	347.44
434.56	352.31
434.93	356.88
435.30	361.62
435.68	366.83
436.05	371.88
436.42	376.92
436.79	381.56
437.16	386.47
437.53	391.68
437.90	396.83
438.27	401.81
438.64	407.09
439.01	412.01
439.38	416.29
439.75	420.35
440.13	425.02
440.50	429.46
440.87	432.97
441.24	436.83
441.61	440.85
441.98	443.94
442.35	447.54
442.72	451.23
443.09	454.54
443.46	456.63
443.83	458.01
444.20	459.19
444.57	460.96
444.94	461.86
445.31	462.56
445.68	463.36
446.05	463.60
446.42	462.96
446.79	462.12
447.16	461.35
447.53	460.78
447.90	458.64
448.27	456.62
448.64	453.80
449.01	451.73
449.37	448.21
449.74	444.75
450.11	440.70
450.48	436.36
450.85	431.83
451.22	427.86
451.59	424.21
451.96	420.77
452.33	416.12
452.70	411.81
453.07	406.75
453.43	401.60
453.80	396.76
454.17	391.98
454.54	387.55
454.91	382.88
455.28	378.26
455.65	374.13
456.02	369.91
456.38	366.37
456.75	361.82
457.12	358.04
457.49	354.22
457.86	350.49
458.23	347.25
458.59	343.99
458.96	340.61
459.33	337.49
459.70	334.34
460.07	331.73
460.43	328.93
460.80	326.37
461.17	324.17
461.54	321.73
461.91	319.56
462.27	317.35
462.64	315.20
463.01	312.95
463.38	310.84
463.74	308.68
464.11	306.78
464.48	305.12
464.85	303.30
465.21	302.05
465.58	300.68
465.95	298.97
466.32	297.50
466.68	296.15
467.05	294.76
467.42	293.40
467.78	291.97
468.15	290.71
468.52	289.63
468.88	288.26
469.25	287.10
469.62	286.19
469.98	285.13
470.35	284.31
470.72	283.57
471.08	282.67
471.45	281.89
471.82	281.06
472.18	280.25
472.55	279.80
472.92	279.05
473.28	278.41
473.65	277.93
474.02	277.47
474.38	276.94
474.75	276.66
475.11	276.29
475.48	276.08
475.85	275.84
476.21	275.71
476.58	275.63
476.94	275.59
477.31	275.41
477.67	275.44
478.04	275.50
478.41	275.56
478.77	275.89
479.14	276.02
479.50	276.31
479.87	276.66
480.23	277.08
480.60	277.53
480.96	278.03
481.33	278.73
481.69	279.23
482.06	279.87
482.42	280.44
482.79	281.18
483.15	282.09
483.52	283.00
483.88	283.93
484.25	284.95
484.61	286.01
484.98	287.22
485.34	288.58
485.71	289.94
486.07	291.37
486.44	292.58
486.80	294.10
487.17	295.70
487.53	297.49
487.90	299.29
488.26	301.17
488.62	303.17
488.99	305.16
489.35	307.32
489.72	309.61
490.08	312.11
490.44	314.58
490.81	317.22
491.17	319.94
491.54	322.85
491.90	325.84
492.26	328.91
492.63	332.21
492.99	335.43
493.36	339.07
493.72	342.89
494.08	346.91
494.45	351.23
494.81	355.83
495.17	360.35
495.54	365.07
495.90	370.13
496.26	375.36
496.63	380.81
496.99	386.57
497.35	392.67
497.72	398.77
498.08	405.16
498.44	411.83
498.80	418.92
499.17	426.31
499.53	433.81
499.89	441.98
500.26	450.09
500.62	458.62
500.98	467.29
501.34	476.46
501.71	485.91
502.07	495.38
502.43	505.18
502.79	515.29
503.16	525.98
503.52	536.79
503.88	547.91
504.24	559.40
504.60	571.17
504.97	583.43
505.33	596.11
505.69	609.44
506.05	622.68
506.41	636.26
506.78	649.86
507.14	663.91
507.50	678.28
507.86	693.17
508.22	708.42
508.59	723.87
508.95	739.60
509.31	755.70
509.67	772.24
510.03	789.17
510.39	806.36
510.75	823.96
511.12	841.99
511.48	860.14
511.84	878.52
512.20	896.93
512.56	915.65
512.92	934.62
513.28	953.69
513.64	973.34
514.00	992.89
514.37	1012.98
514.73	1033.54
515.09	1054.04
515.45	1074.51
515.81	1095.28
516.17	1116.17
516.53	1137.16
516.89	1158.45
517.25	1179.69
517.61	1200.80
517.97	1222.22
518.33	1243.35
518.69	1264.75
519.05	1286.70
519.41	1308.61
519.77	1331.05
520.13	1353.01
520.49	1375.06
520.85	1397.63
521.21	1419.83
521.57	1442.67
521.93	1464.45
522.29	1486.79
522.65	1509.05
523.01	1531.27
523.37	1553.07
523.73	1575.20
524.09	1597.20
524.45	1618.87
524.81	1640.92
525.17	1662.91
525.53	1685.00
525.89	1707.11
526.25	1728.62
526.61	1749.19
526.97	1770.42
527.33	1791.13
527.68	1812.10
528.04	1832.89
528.40	1852.53
528.76	1872.61
529.12	1892.50
529.48	1913.79
529.84	1933.62
530.20	1953.42
530.56	1973.22
530.91	1993.59
531.27	2013.58
531.63	2033.09
531.99	2052.75
532.35	2071.38
532.71	2090.11
533.07	2109.05
533.42	2126.83
533.78	2145.55
534.14	2163.67
534.50	2180.30
534.86	2197.85
535.21	2214.13
535.57	2231.14
535.93	2248.21
536.29	2264.66
536.65	2280.72
537.00	2295.53
537.36	2310.55
537.72	2325.12
538.08	2340.05
538.44	2354.58
538.79	2369.44
539.15	2383.63
539.51	2397.67
539.87	2412.22
540.22	2425.96
540.58	2440.09
540.94	2454.04
541.29	2466.28
541.65	2478.21
542.01	2491.11
542.37	2502.63
542.72	2514.24
543.08	2524.61
543.44	2535.78
543.79	2545.69
544.15	2555.75
544.51	2566.52
544.87	2577.09
545.22	2586.19
545.58	2594.60
545.94	2601.42
546.29	2607.45
546.65	2613.67
547.01	2619.31
547.36	2624.79
547.72	2630.11
548.07	2634.05
548.43	2637.63
548.79	2641.19
549.14	2645.37
549.50	2649.50
549.86	2653.57
550.21	2657.74
550.57	2662.04
550.92	2664.37
551.28	2666.96
551.64	2669.11
551.99	2671.19
552.35	2672.46
552.70	2674.66
553.06	2676.76
553.41	2679.57
553.77	2682.09
554.13	2684.06
554.48	2685.96
554.84	2687.36
555.19	2687.71
555.55	2687.83
555.90	2688.45
556.26	2688.81
556.61	2688.41
556.97	2686.68
557.32	2685.71
557.68	2683.63
558.03	2681.60
558.39	2680.10
558.74	2679.45
559.10	2678.03
559.45	2675.86
559.81	2674.60
560.16	2672.17
560.52	2669.55
560.87	2666.47
561.23	2662.44
561.58	2659.95
561.94	2656.75
562.29	2652.62
562.64	2650.35
563.00	2647.93
563.35	2645.21
563.71	2643.17
564.06	2640.98
564.42	2639.24
564.77	2636.46
565.12	2634.53
565.48	2631.22
565.83	2628.05
566.19	2624.54
566.54	2620.39
566.89	2616.58
567.25	2612.51
567.60	2609.26
567.96	2605.59
568.31	2601.91
568.66	2598.50
569.02	2593.76
569.37	2588.75
569.72	2585.09
570.08	2579.84
570.43	2573.61
570.78	2567.76
571.14	2561.28
571.49	2554.75
571.84	2548.50
572.20	2541.85
572.55	2535.60
572.90	2529.06
573.26	2522.15
573.61	2514.73
573.96	2508.26
574.31	2500.44
574.67	2492.57
575.02	2484.00
575.37	2475.62
575.72	2466.96
576.08	2459.16
576.43	2450.82
576.78	2442.94
577.13	2435.24
577.49	2427.21
577.84	2419.94
578.19	2412.47
578.54	2405.26
578.90	2398.47
579.25	2390.25
579.60	2381.39
579.95	2372.20
580.30	2364.32
580.66	2356.31
581.01	2348.08
581.36	2338.90
581.71	2330.66
582.06	2322.39
582.42	2314.22
582.77	2305.31
583.12	2296.76
583.47	2288.32
583.82	2280.01
584.17	2270.88
584.53	2261.82
584.88	2253.11
585.23	2244.15
585.58	2234.95
585.93	2225.77
586.28	2216.59
586.63	2208.08
586.98	2200.21
587.34	2192.05
587.69	2183.35
588.04	2174.42
588.39	2166.01
588.74	2157.55
589.09	2149.30
589.44	2139.80
589.79	2131.61
590.14	2124.10
590.49	2116.06
590.84	2107.10
591.19	2099.43
591.54	2090.99
591.89	2080.93
592.25	2072.03
592.60	2063.13
592.95	2054.28
593.30	2044.76
593.65	2035.35
594.00	2025.82
594.35	2017.71
594.70	2008.75
595.05	2000.26
595.40	1991.80
595.75	1982.67
596.10	1974.56
596.45	1966.26
596.80	1958.95
597.15	1950.82
597.50	1941.84
597.85	1933.15
598.19	1924.77
598.54	1916.10
598.89	1908.54
599.24	1902.15
599.59	1894.85
599.94	1887.99
600.29	1880.45
600.64	1872.84
600.99	1864.79
601.34	1858.03
601.69	1849.40
602.04	1841.63
602.39	1833.61
602.74	1825.90
603.08	1819.32
603.43	1812.38
603.78	1804.50
604.13	1796.39
604.48	1788.69
604.83	1781.85
605.18	1775.28
605.53	1768.05
605.87	1760.72
606.22	1753.96
606.57	1746.31
606.92	1738.53
607.27	1730.54
607.62	1723.30
607.96	1716.55
608.31	1710.67
608.66	1703.10
609.01	1695.73
609.36	1688.05
609.70	1680.28
610.05	1672.99
610.40	1664.92
610.75	1656.36
611.10	1648.96
611.44	1640.27
611.79	1631.72
612.14	1622.80
612.49	1613.42
612.83	1605.04
613.18	1595.37
613.53	1586.00
613.88	1576.49
614.22	1567.81
614.57	1558.73
614.92	1549.78
615.27	1540.95
615.61	1531.28
615.96	1522.38
616.31	1514.09
616.65	1506.31
617.00	1498.24
617.35	1489.74
617.70	1481.12
618.04	1472.34
618.39	1463.17
618.74	1455.03
619.08	1446.15
619.43	1438.20
619.78	1430.56
620.12	1422.57
620.47	1415.45
620.82	1407.14
621.16	1399.10
621.51	1390.81
621.85	1382.83
622.20	1374.25
622.55	1366.03
622.89	1357.97
623.24	1350.15
623.59	1341.61
623.93	1333.15
624.28	1324.96
624.62	1317.05
624.97	1309.12
625.32	1301.56
625.66	1294.35
626.01	1287.26
626.35	1280.27
626.70	1272.45
627.04	1265.00
627.39	1257.61
627.73	1250.01
628.08	1243.37
628.43	1236.18
628.77	1229.13
629.12	1221.93
629.46	1215.71
629.81	1208.44
630.15	1201.66
630.50	1194.35
630.84	1187.17
631.19	1180.25
631.53	1173.63
631.88	1166.06
632.22	1158.54
632.57	1151.75
632.91	1144.42
633.26	1137.07
633.60	1130.19
633.95	1123.70
634.29	1116.74
634.64	1110.19
634.98	1103.40
635.32	1096.46
635.67	1090.22
636.01	1083.89
636.36	1077.23
636.70	1070.69
637.05	1064.45
637.39	1057.91
637.73	1051.89
638.08	1046.36
638.42	1040.43
638.77	1034.18
639.11	1028.13
639.45	1022.53
639.80	1016.15
640.14	1009.97
640.49	1003.85
640.83	997.76
641.17	991.47
641.52	985.40
641.86	978.95
642.20	972.77
642.55	966.12
642.89	959.68
643.23	953.22
643.58	947.45
643.92	940.91
644.26	934.58
644.61	928.57
644.95	922.49
645.29	916.24
645.64	909.97
645.98	903.78
646.32	897.96
646.66	891.89
647.01	886.10
647.35	880.38
647.69	874.45
648.04	868.52
648.38	862.45
648.72	856.44
649.06	850.61
649.41	844.60
649.75	839.03
650.09	833.33
650.43	827.53
650.78	821.54
651.12	815.54
651.46	810.04
651.80	804.24
652.14	798.08
652.49	792.35
652.83	786.63
653.17	780.64
653.51	775.01
653.85	769.24
654.20	763.37
654.54	757.56
654.88	752.15
655.22	746.52
655.56	741.02
655.90	735.53
656.25	729.85
656.59	724.53
656.93	719.28
657.27	714.32
657.61	708.91
657.95	703.87
658.29	699.06
658.64	694.01
658.98	688.94
659.32	683.92
659.66	678.84
660.00	673.61
660.34	668.63
660.68	663.38
661.02	658.38
661.36	653.74
661.70	648.97
662.05	644.10
662.39	639.77
662.73	635.44
663.07	631.12
663.41	626.90
663.75	622.61
664.09	618.10
664.43	613.41
664.77	609.22
665.11	604.80
665.45	600.46
665.79	596.17
666.13	591.90
666.47	587.75
666.81	583.64
667.15	579.55
667.49	575.83
667.83	571.93
668.17	568.27
668.51	564.61
668.85	561.00
669.19	557.58
669.53	553.65
669.87	549.69
670.21	545.83
670.55	542.05
670.89	538.50
671.23	535.27
671.57	531.85
671.91	528.35
672.25	524.85
672.58	521.39
672.92	517.99
673.26	514.90
673.60	511.81
673.94	508.52
674.28	505.32
674.62	502.13
674.96	499.15
675.30	496.06
675.64	492.87
675.97	489.69
676.31	486.60
676.65	483.73
676.99	481.10
677.33	478.22
677.67	475.20
678.01	472.28
678.34	469.34
678.68	466.60
679.02	463.68
679.36	460.96
679.70	458.26
680.04	455.39
680.37	452.43
680.71	449.65
681.05	447.02
681.39	444.52
681.73	441.90
682.06	439.33
682.40	436.94
682.74	434.39
683.08	431.99
683.42	429.49
683.75	427.00
684.09	424.41
684.43	422.10
684.77	419.72
685.10	417.22
685.44	414.78
685.78	412.29
686.12	410.19
686.45	407.86
686.79	405.64
687.13	403.55
687.46	401.50
687.80	399.28
688.14	396.99
688.48	394.94
688.81	392.73
689.15	390.60
689.49	388.31
689.82	386.16
690.16	383.79
690.50	381.59
690.83	379.40
691.17	377.17
691.51	374.99
691.84	373.04
692.18	371.10
692.52	369.03
692.85	367.19
693.19	365.26
693.52	363.38
693.86	361.43
694.20	359.52
694.53	357.71
694.87	355.80
695.21	353.97
695.54	352.12
695.88	350.39
696.21	348.55
696.55	346.84
696.88	345.15
697.22	343.48
697.56	341.87
697.89	340.24
698.23	338.75
698.56	337.18
698.90	335.67
699.23	334.02
699.57	332.48
699.90	330.80
700.24	329.17
700.58	327.68
700.91	326.14
701.25	324.81
701.58	323.30
701.92	321.97
702.25	320.70
702.59	319.24
702.92	317.86
703.26	316.55
703.59	315.24
703.93	314.07
704.26	312.89
704.60	311.65
704.93	310.43
705.26	309.20
705.60	308.08
705.93	306.72
706.27	305.54
706.60	304.53
706.94	303.61
707.27	302.43
707.61	301.35
707.94	300.32
708.27	299.02
708.61	297.95
708.94	296.75
709.28	295.58
709.61	294.57
709.94	293.55
710.28	292.57
710.61	291.60
710.95	290.49
711.28	289.58
711.61	288.55
711.95	287.63
712.28	286.68
712.61	285.66
712.95	284.85
713.28	284.04
713.61	283.05
713.95	281.97
714.28	281.21
714.61	280.25
714.95	279.34
715.28	278.46
715.61	277.54
715.95	276.67
716.28	275.85
716.61	275.00
716.95	274.09
717.28	273.25
717.61	272.47
717.94	271.82
718.28	271.03
718.61	270.30
718.94	269.55
719.27	268.84
719.61	268.11
719.94	267.35
720.27	266.48
720.60	265.81
720.94	265.20
721.27	264.47
721.60	263.83
721.93	263.23
722.27	262.66
722.60	262.04
722.93	261.53
723.26	260.98
723.59	260.42
723.93	259.86
724.26	259.32
724.59	258.69
724.92	258.07
725.25	257.54
725.59	257.01
725.92	256.50
726.25	256.00
726.58	255.53
726.91	255.08
727.24	254.69
727.57	254.24
727.91	253.63
728.24	253.18
728.57	252.71
728.90	252.21
729.23	251.78
729.56	251.44
729.89	250.91
730.22	250.46
730.55	249.92
730.89	249.59
731.22	249.10
731.55	248.72
731.88	248.29
732.21	247.85
732.54	247.47
732.87	247.02
733.20	246.52
733.53	246.04
733.86	245.56
734.19	245.18
734.52	244.78
734.85	244.60
735.18	244.23
735.51	243.85
735.84	243.62
736.17	243.27
736.50	242.82
736.83	242.75
737.16	242.39
737.49	242.15
737.82	241.66
738.15	241.32
738.48	240.98
738.81	240.60
739.14	240.25
739.47	239.85
739.80	239.56
740.13	239.23
740.46	238.88
740.79	238.58
741.12	238.24
741.45	237.86
741.78	237.44
742.11	237.12
742.44	236.80
742.77	236.37
743.10	235.99
743.43	235.70
743.75	235.22
744.08	235.13
744.41	234.70
744.74	234.45
745.07	234.14
745.40	233.85
745.73	233.67
746.06	233.35
746.39	233.11
746.71	232.77
747.04	232.55
747.37	232.28
747.70	232.03
748.03	231.73
748.36	231.58
748.68	231.30
749.01	231.01
749.34	230.76
749.67	230.60
750.00	230.47
750.33	230.31
750.65	230.09
750.98	229.65
751.31	229.47
751.64	229.35
751.97	229.20
752.29	229.01
752.62	228.76
752.95	228.57
753.28	228.35
753.60	228.19
753.93	228.05
754.26	227.85
754.59	227.62
754.91	227.40
755.24	227.16
755.57	227.00
755.90	226.84
756.22	226.67
756.55	226.48
756.88	226.28
757.20	226.06
757.53	225.81
757.86	225.62
758.19	225.53
758.51	225.26
758.84	225.06
759.17	224.86
759.49	224.61
759.82	224.48
760.15	224.37
760.47	224.15
760.80	223.89
761.13	223.80
761.45	223.67
761.78	223.55
762.11	223.41
762.43	223.30
762.76	223.07
763.08	222.94
763.41	222.81
763.74	222.62
764.06	222.39
764.39	222.27
764.71	222.14
765.04	221.94
765.37	221.85
765.69	221.72
766.02	221.61
766.34	221.49
766.67	221.36
767.00	221.18
767.32	221.20
767.65	221.15
767.97	221.08
768.30	220.90
768.62	220.81
768.95	220.70
769.27	220.56
769.60	220.54
769.92	220.47
770.25	220.28
770.57	220.14
770.90	220.11
771.22	219.95
771.55	219.85
771.87	219.77
772.20	219.60
772.52	219.64
772.85	219.73
773.17	219.60
773.50	219.45
773.82	219.37
774.15	219.18
774.47	219.00
774.80	218.88
775.12	218.86
775.45	218.73
775.77	218.65
776.09	218.50
776.42	218.44
776.74	218.29
777.07	218.19
777.39	218.12
777.72	217.99
778.04	217.98
778.36	217.86
778.69	217.77
779.01	217.74
779.33	217.48
779.66	217.19
779.98	217.10
780.31	217.13
780.63	217.10
780.95	217.06
781.28	217.04
781.60	216.93
781.92	216.80
782.25	216.76
782.57	216.66
782.89	216.60
783.22	216.54
783.54	216.44
783.86	216.41
784.19	216.39
784.51	216.37
784.83	216.27
785.16	216.26
785.48	216.21
785.80	216.14
786.12	216.13
786.45	216.10
