SpectraSuite Data File
++++++++++++++++++++++++++++++++++++
Date: Tue Jan 29 18:12:51 EST 2013
User: group
Dark Spectrum Present: No
Reference Spectrum Present: No
Number of Sampled Component Spectra: 1
Spectrometers: USB2E7196
Integration Time (usec): 155000 (USB2E7196)
Spectra Averaged: 15 (USB2E7196)
Boxcar Smoothing: 10 (USB2E7196)
Correct for Electrical Dark: No (USB2E7196)
Strobe/Lamp Enabled: No (USB2E7196)
Correct for Detector Non-linearity: No (USB2E7196)
Correct for Stray Light: No (USB2E7196)
Number of Pixels in Processed Spectrum: 2048
>>>>>Begin Processed Spectral Data<<<<<
339.09	0.00
339.48	199.07
339.86	200.47
340.24	201.93
340.63	201.53
341.01	212.53
341.39	205.20
341.78	209.60
342.16	208.53
342.54	209.13
342.93	198.80
343.31	208.88
343.69	209.38
344.07	209.86
344.46	210.38
344.84	210.88
345.22	210.75
345.60	211.10
345.99	211.16
346.37	211.26
346.75	211.29
347.13	211.29
347.52	211.39
347.90	211.58
348.28	211.57
348.66	211.67
349.05	211.46
349.43	211.47
349.81	211.47
350.19	211.35
350.57	211.42
350.96	211.43
351.34	211.48
351.72	211.59
352.10	211.59
352.48	211.54
352.87	211.58
353.25	211.65
353.63	211.61
354.01	211.70
354.39	211.83
354.77	211.94
355.15	212.22
355.54	212.24
355.92	212.19
356.30	212.29
356.68	212.66
357.06	212.72
357.44	212.71
357.82	212.77
358.20	212.92
358.58	212.86
358.97	213.03
359.35	213.15
359.73	213.18
360.11	213.25
360.49	213.34
360.87	213.34
361.25	213.42
361.63	213.63
362.01	213.68
362.39	213.66
362.77	213.67
363.15	213.61
363.53	213.67
363.91	213.75
364.29	213.71
364.67	213.26
365.05	213.33
365.43	213.40
365.81	213.51
366.19	213.67
366.57	213.92
366.95	213.88
367.33	213.75
367.71	213.86
368.09	213.97
368.47	213.98
368.85	214.02
369.23	214.11
369.61	213.86
369.99	214.04
370.37	214.08
370.75	214.39
371.13	214.31
371.51	214.20
371.89	214.23
372.27	214.28
372.65	214.28
373.03	214.26
373.41	214.14
373.78	213.98
374.16	213.82
374.54	213.59
374.92	213.54
375.30	213.53
375.68	213.39
376.06	213.41
376.44	213.33
376.82	213.33
377.19	213.28
377.57	213.37
377.95	213.08
378.33	212.99
378.71	212.65
379.09	212.67
379.47	212.70
379.84	212.53
380.22	212.40
380.60	212.29
380.98	212.20
381.36	212.15
381.73	212.07
382.11	212.13
382.49	212.17
382.87	212.06
383.25	211.96
383.62	212.46
384.00	212.25
384.38	212.23
384.76	212.27
385.13	212.37
385.51	212.23
385.89	212.20
386.27	212.16
386.64	212.17
387.02	212.03
387.40	211.94
387.78	211.92
388.15	211.98
388.53	211.92
388.91	211.97
389.29	211.97
389.66	212.06
390.04	211.88
390.42	211.95
390.79	211.98
391.17	211.97
391.55	211.36
391.92	211.30
392.30	211.33
392.68	211.15
393.05	211.08
393.43	211.08
393.81	211.06
394.18	210.98
394.56	210.94
394.94	211.05
395.31	210.98
395.69	211.14
396.06	211.16
396.44	211.14
396.82	211.08
397.19	211.30
397.57	211.16
397.95	211.21
398.32	210.99
398.70	210.96
399.07	211.03
399.45	210.98
399.82	210.96
400.20	210.79
400.58	210.72
400.95	210.53
401.33	210.57
401.70	210.96
402.08	210.93
402.45	210.93
402.83	210.96
403.20	210.92
403.58	210.75
403.95	210.71
404.33	210.78
404.71	210.70
405.08	210.91
405.46	210.90
405.83	210.87
406.21	210.88
406.58	210.82
406.96	210.81
407.33	210.87
407.70	210.90
408.08	211.34
408.45	211.35
408.83	211.46
409.20	211.37
409.58	210.95
409.95	210.94
410.33	210.83
410.70	210.72
411.08	210.82
411.45	210.81
411.82	210.77
412.20	210.85
412.57	211.10
412.95	210.66
413.32	210.74
413.69	210.74
414.07	210.78
414.44	210.78
414.82	210.78
415.19	210.80
415.56	210.85
415.94	210.43
416.31	210.48
416.68	210.38
417.06	210.46
417.43	210.67
417.81	210.70
418.18	210.80
418.55	210.63
418.93	210.62
419.30	210.66
419.67	210.68
420.04	210.60
420.42	210.43
420.79	210.90
421.16	210.82
421.54	211.05
421.91	210.97
422.28	210.96
422.66	210.94
423.03	211.39
423.40	211.38
423.77	211.48
424.15	211.50
424.52	211.55
424.89	211.70
425.26	211.57
425.64	211.62
426.01	211.57
426.38	211.71
426.75	211.79
427.13	211.80
427.50	211.70
427.87	211.60
428.24	211.52
428.61	211.12
428.99	211.37
429.36	211.05
429.73	211.10
430.10	211.13
430.47	211.26
430.85	210.69
431.22	210.69
431.59	211.09
431.96	210.95
432.33	210.95
432.70	210.88
433.08	210.83
433.45	210.83
433.82	210.77
434.19	210.87
434.56	210.96
434.93	210.78
435.30	210.88
435.68	210.95
436.05	210.97
436.42	210.86
436.79	210.88
437.16	210.92
437.53	210.90
437.90	210.90
438.27	210.87
438.64	210.85
439.01	210.83
439.38	210.38
439.75	210.48
440.13	210.48
440.50	210.41
440.87	210.37
441.24	210.29
441.61	210.32
441.98	210.23
442.35	210.10
442.72	210.30
443.09	210.58
443.46	210.59
443.83	210.61
444.20	210.70
444.57	210.62
444.94	210.64
445.31	210.74
445.68	211.50
446.05	211.45
446.42	211.52
446.79	211.80
447.16	211.87
447.53	211.94
447.90	211.95
448.27	211.95
448.64	212.09
449.01	212.17
449.37	212.32
449.74	212.34
450.11	212.97
450.48	212.86
450.85	212.60
451.22	212.59
451.59	212.73
451.96	212.78
452.33	212.74
452.70	212.75
453.07	212.71
453.43	212.03
453.80	212.06
454.17	212.07
454.54	211.89
454.91	211.90
455.28	211.86
455.65	211.79
456.02	212.79
456.38	212.70
456.75	212.68
457.12	212.55
457.49	212.56
457.86	211.95
458.23	212.20
458.59	212.25
458.96	212.27
459.33	212.18
459.70	212.15
460.07	212.17
460.43	212.21
460.80	212.26
461.17	212.53
461.54	212.57
461.91	212.60
462.27	212.54
462.64	212.43
463.01	212.47
463.38	212.70
463.74	211.65
464.11	211.58
464.48	211.63
464.85	211.70
465.21	211.85
465.58	211.93
465.95	211.73
466.32	211.77
466.68	211.77
467.05	211.74
467.42	211.79
467.78	211.77
468.15	211.76
468.52	211.93
468.88	211.56
469.25	211.50
469.62	211.56
469.98	211.65
470.35	211.70
470.72	211.66
471.08	211.43
471.45	211.59
471.82	211.92
472.18	211.94
472.55	211.89
472.92	211.70
473.28	211.58
473.65	211.57
474.02	211.55
474.38	211.51
474.75	211.54
475.11	211.41
475.48	211.39
475.85	211.30
476.21	211.10
476.58	211.21
476.94	211.06
477.31	211.05
477.67	211.01
478.04	210.97
478.41	210.96
478.77	211.55
479.14	211.43
479.50	211.30
479.87	211.25
480.23	211.16
480.60	211.19
480.96	211.25
481.33	211.46
481.69	211.46
482.06	211.49
482.42	211.59
482.79	211.64
483.15	211.51
483.52	211.57
483.88	211.57
484.25	211.59
484.61	211.65
484.98	211.57
485.34	211.57
485.71	211.61
486.07	211.51
486.44	210.95
486.80	210.90
487.17	210.75
487.53	210.86
487.90	210.95
488.26	211.18
488.62	211.28
488.99	211.10
489.35	211.10
489.72	211.07
490.08	210.91
490.44	210.90
490.81	211.04
491.17	210.99
491.54	211.00
491.90	211.05
492.26	211.05
492.63	211.11
492.99	211.01
493.36	211.03
493.72	211.11
494.08	211.14
494.45	211.22
494.81	211.31
495.17	211.14
495.54	211.20
495.90	210.91
496.26	210.87
496.63	210.81
496.99	210.73
497.35	210.75
497.72	210.82
498.08	210.90
498.44	210.88
498.80	210.97
499.17	210.95
499.53	210.79
499.89	210.86
500.26	210.88
500.62	211.03
500.98	211.05
501.34	211.08
501.71	211.16
502.07	211.17
502.43	211.16
502.79	211.19
503.16	211.14
503.52	211.20
503.88	211.00
504.24	211.05
504.60	211.12
504.97	211.13
505.33	211.14
505.69	211.17
506.05	211.19
506.41	211.22
506.78	211.23
507.14	211.23
507.50	211.16
507.86	211.19
508.22	211.16
508.59	211.11
508.95	211.09
509.31	211.25
509.67	211.20
510.03	211.21
510.39	211.22
510.75	211.25
511.12	211.31
511.48	211.41
511.84	211.39
512.20	211.37
512.56	211.31
512.92	211.23
513.28	211.16
513.64	211.01
514.00	210.96
514.37	210.99
514.73	210.97
515.09	211.10
515.45	211.01
515.81	210.99
516.17	210.98
516.53	210.97
516.89	210.73
517.25	210.75
517.61	210.80
517.97	210.79
518.33	210.86
518.69	210.97
519.05	211.12
519.41	211.17
519.77	211.54
520.13	211.59
520.49	211.65
520.85	211.64
521.21	211.97
521.57	211.95
521.93	211.92
522.29	211.97
522.65	211.80
523.01	211.86
523.37	211.77
523.73	211.85
524.09	211.97
524.45	211.95
524.81	211.96
525.17	212.04
525.53	212.17
525.89	212.05
526.25	211.93
526.61	211.77
526.97	211.72
527.33	211.43
527.68	211.87
528.04	211.89
528.40	211.91
528.76	211.83
529.12	211.91
529.48	211.93
529.84	211.87
530.20	211.99
530.56	212.00
530.91	212.27
531.27	212.13
531.63	212.02
531.99	212.01
532.35	211.97
532.71	211.83
533.07	211.76
533.42	212.40
533.78	212.34
534.14	212.31
534.50	212.28
534.86	212.44
535.21	212.06
535.57	212.10
535.93	212.14
536.29	212.35
536.65	212.36
537.00	212.37
537.36	212.51
537.72	212.57
538.08	212.65
538.44	212.37
538.79	212.58
539.15	212.57
539.51	212.63
539.87	212.70
540.22	212.72
540.58	212.65
540.94	212.09
541.29	212.13
541.65	212.17
542.01	212.34
542.37	212.23
542.72	212.12
543.08	212.11
543.44	212.08
543.79	211.64
544.15	211.66
544.51	211.72
544.87	211.65
545.22	211.57
545.58	211.53
545.94	211.59
546.29	211.59
546.65	211.63
547.01	211.49
547.36	211.47
547.72	211.43
548.07	211.50
548.43	211.48
548.79	211.50
549.14	211.51
549.50	211.50
549.86	211.34
550.21	211.39
550.57	211.34
550.92	211.29
551.28	211.57
551.64	211.54
551.99	211.50
552.35	211.50
552.70	211.42
553.06	211.39
553.41	211.39
553.77	211.61
554.13	211.60
554.48	211.82
554.84	211.90
555.19	211.97
555.55	212.46
555.90	212.44
556.26	212.45
556.61	212.43
556.97	212.29
557.32	212.31
557.68	212.38
558.03	212.33
558.39	212.32
558.74	212.13
559.10	211.97
559.45	211.91
559.81	211.79
560.16	211.88
560.52	211.90
560.87	211.86
561.23	211.57
561.58	211.85
561.94	211.64
562.29	211.61
562.64	211.63
563.00	211.08
563.35	211.12
563.71	211.08
564.06	211.07
564.42	211.05
564.77	211.08
565.12	211.07
565.48	211.49
565.83	211.57
566.19	211.56
566.54	211.72
566.89	211.75
567.25	212.03
567.60	212.20
567.96	212.64
568.31	213.01
568.66	213.30
569.02	212.90
569.37	212.94
569.72	212.90
570.08	212.94
570.43	212.98
570.78	212.94
571.14	212.93
571.49	212.98
571.84	212.94
572.20	212.97
572.55	212.86
572.90	212.49
573.26	212.46
573.61	212.46
573.96	212.38
574.31	212.44
574.67	212.23
575.02	212.03
575.37	211.53
575.72	211.21
576.08	210.92
576.43	211.03
576.78	211.07
577.13	211.12
577.49	211.00
577.84	211.05
578.19	211.04
578.54	211.08
578.90	210.98
579.25	211.08
579.60	211.07
579.95	211.09
580.30	211.19
580.66	211.17
581.01	211.25
581.36	211.20
581.71	211.16
582.06	211.48
582.42	211.61
582.77	211.59
583.12	211.68
583.47	211.67
583.82	211.66
584.17	211.68
584.53	211.78
584.88	211.83
585.23	212.06
585.58	211.97
585.93	211.92
586.28	212.05
586.63	212.09
586.98	212.11
587.34	212.30
587.69	212.30
588.04	212.30
588.39	212.29
588.74	212.24
589.09	212.30
589.44	212.01
589.79	211.92
590.14	212.00
590.49	211.90
590.84	211.90
591.19	211.96
591.54	212.01
591.89	211.78
592.25	212.14
592.60	211.94
592.95	212.10
593.30	212.24
593.65	212.19
594.00	212.07
594.35	213.45
594.70	213.26
595.05	213.21
595.40	213.23
595.75	213.17
596.10	213.32
596.45	213.33
596.80	213.38
597.15	213.30
597.50	213.20
597.85	213.44
598.19	213.45
598.54	213.46
598.89	213.32
599.24	213.50
599.59	213.10
599.94	213.11
600.29	213.05
600.64	212.95
600.99	213.18
601.34	213.30
601.69	211.96
602.04	212.04
602.39	212.00
602.74	212.11
603.08	212.10
603.43	212.27
603.78	212.25
604.13	212.15
604.48	212.25
604.83	212.43
605.18	212.28
605.53	212.38
605.87	212.29
606.22	212.37
606.57	212.23
606.92	212.15
607.27	212.16
607.62	212.11
607.96	212.14
608.31	211.88
608.66	211.87
609.01	211.83
609.36	211.72
609.70	211.77
610.05	211.68
610.40	211.80
610.75	211.55
611.10	211.52
611.44	211.69
611.79	211.73
612.14	211.70
612.49	211.65
612.83	211.56
613.18	211.63
613.53	211.71
613.88	211.81
614.22	211.83
614.57	211.76
614.92	211.76
615.27	211.79
615.61	211.80
615.96	211.73
616.31	211.73
616.65	211.92
617.00	211.86
617.35	211.83
617.70	211.69
618.04	211.77
618.39	211.74
618.74	211.73
619.08	211.70
619.43	211.65
619.78	211.60
620.12	211.56
620.47	211.62
620.82	211.55
621.16	211.52
621.51	211.88
621.85	211.86
622.20	211.96
622.55	211.77
622.89	211.83
623.24	211.93
623.59	211.84
623.93	211.85
624.28	211.99
624.62	212.59
624.97	212.90
625.32	212.81
625.66	212.91
626.01	212.80
626.35	212.83
626.70	212.79
627.04	213.13
627.39	213.13
627.73	213.26
628.08	213.24
628.43	213.18
628.77	212.97
629.12	212.88
629.46	212.92
629.81	213.04
630.15	212.97
630.50	212.93
630.84	212.98
631.19	212.93
631.53	212.84
631.88	212.21
632.22	211.93
632.57	212.10
632.91	212.00
633.26	212.11
633.60	212.12
633.95	212.05
634.29	211.72
634.64	211.76
634.98	211.53
635.32	211.61
635.67	211.64
636.01	211.57
636.36	211.71
636.70	211.67
637.05	211.68
637.39	211.67
637.73	211.71
638.08	211.82
638.42	211.76
638.77	211.79
639.11	211.80
639.45	211.81
639.80	211.65
640.14	211.61
640.49	211.58
640.83	211.49
641.17	211.62
641.52	211.61
641.86	211.71
642.20	211.95
642.55	211.85
642.89	211.90
643.23	211.96
643.58	212.14
643.92	212.09
644.26	212.17
644.61	212.32
644.95	212.30
645.29	212.19
645.64	212.36
645.98	212.27
646.32	212.44
646.66	212.42
647.01	212.44
647.35	212.57
647.69	212.70
648.04	212.76
648.38	212.76
648.72	212.83
649.06	212.65
649.41	212.39
649.75	212.43
650.09	212.43
650.43	212.40
650.78	212.14
651.12	212.12
651.46	212.02
651.80	211.96
652.14	211.81
652.49	211.96
652.83	211.79
653.17	211.79
653.51	211.63
653.85	211.70
654.20	211.77
654.54	211.67
654.88	211.45
655.22	211.36
655.56	211.24
655.90	211.20
656.25	211.32
656.59	211.42
656.93	211.42
657.27	211.57
657.61	211.50
657.95	211.72
658.29	211.70
658.64	211.82
658.98	211.75
659.32	211.82
659.66	211.69
660.00	211.80
660.34	211.82
660.68	211.86
661.02	211.84
661.36	211.77
661.70	211.77
662.05	211.78
662.39	212.01
662.73	212.31
663.07	212.67
663.41	212.67
663.75	212.59
664.09	212.63
664.43	212.44
664.77	212.55
665.11	212.37
665.45	212.34
665.79	212.52
666.13	212.52
666.47	212.43
666.81	212.43
667.15	212.29
667.49	212.37
667.83	212.55
668.17	212.47
668.51	212.42
668.85	212.52
669.19	212.74
669.53	212.52
669.87	212.32
670.21	212.01
670.55	211.98
670.89	212.28
671.23	212.21
671.57	212.27
671.91	212.21
672.25	212.27
672.58	212.56
672.92	212.27
673.26	212.33
673.60	212.43
673.94	212.40
674.28	212.47
674.62	212.48
674.96	212.30
675.30	212.38
675.64	212.41
675.97	212.33
676.31	212.23
676.65	212.23
676.99	212.37
677.33	212.24
677.67	212.23
678.01	211.95
678.34	212.02
678.68	212.11
679.02	212.01
679.36	211.96
679.70	211.76
680.04	211.77
680.37	211.77
680.71	211.66
681.05	211.83
681.39	211.84
681.73	211.79
682.06	211.78
682.40	211.73
682.74	211.90
683.08	212.12
683.42	212.04
683.75	212.07
684.09	211.92
684.43	212.13
684.77	212.08
685.10	212.11
685.44	212.12
685.78	212.07
686.12	212.15
686.45	212.21
686.79	212.18
687.13	212.28
687.46	212.24
687.80	212.40
688.14	212.28
688.48	212.30
688.81	212.33
689.15	212.46
689.49	212.43
689.82	212.39
690.16	212.16
690.50	212.10
690.83	212.14
691.17	212.12
691.51	212.02
691.84	212.15
692.18	212.07
692.52	211.99
692.85	211.94
693.19	212.07
693.52	211.98
693.86	211.97
694.20	211.99
694.53	212.04
694.87	211.94
695.21	211.87
695.54	211.80
695.88	211.68
696.21	211.49
696.55	211.52
696.88	211.46
697.22	211.49
697.56	211.66
697.89	211.63
698.23	211.77
698.56	211.72
698.90	211.66
699.23	211.64
699.57	211.63
699.90	211.57
700.24	211.40
700.58	211.50
700.91	211.61
701.25	211.96
701.58	212.07
701.92	212.26
702.25	212.28
702.59	212.22
702.92	212.36
703.26	212.42
703.59	212.47
703.93	212.80
704.26	212.78
704.60	212.79
704.93	212.72
705.26	212.62
705.60	212.81
705.93	212.71
706.27	212.90
706.60	213.02
706.94	213.27
707.27	213.19
707.61	213.14
707.94	213.01
708.27	212.62
708.61	212.47
708.94	212.29
709.28	212.36
709.61	212.37
709.94	212.32
710.28	212.30
710.61	212.22
710.95	211.77
711.28	212.09
711.61	211.99
711.95	212.07
712.28	212.01
712.61	211.88
712.95	212.20
713.28	212.35
713.61	212.23
713.95	212.00
714.28	212.10
714.61	211.99
714.95	212.07
715.28	211.89
715.61	211.88
715.95	212.07
716.28	211.96
716.61	212.13
716.95	212.07
717.28	212.08
717.61	212.09
717.94	212.09
718.28	211.69
718.61	211.67
718.94	211.62
719.27	211.64
719.61	211.57
719.94	211.39
720.27	211.06
720.60	211.07
720.94	211.11
721.27	211.10
721.60	211.28
721.93	211.21
722.27	211.51
722.60	211.55
722.93	211.41
723.26	211.42
723.59	211.29
723.93	211.41
724.26	211.48
724.59	211.51
724.92	211.58
725.25	211.78
725.59	211.77
725.92	211.82
726.25	211.77
726.58	211.89
726.91	211.85
727.24	211.97
727.57	211.93
727.91	211.82
728.24	211.92
728.57	211.82
728.90	211.81
729.23	211.57
729.56	211.82
729.89	211.87
730.22	211.89
730.55	211.84
730.89	211.75
731.22	211.61
731.55	211.59
731.88	211.63
732.21	211.58
732.54	211.57
732.87	211.50
733.20	211.47
733.53	211.40
733.86	211.53
734.19	211.46
734.52	211.50
734.85	211.84
735.18	211.75
735.51	211.87
735.84	211.93
736.17	212.14
736.50	211.80
736.83	212.30
737.16	212.26
737.49	212.33
737.82	212.32
738.15	212.50
738.48	212.45
738.81	212.40
739.14	212.29
739.47	212.22
739.80	212.30
740.13	212.46
740.46	212.40
740.79	212.30
741.12	212.33
741.45	212.37
741.78	212.09
742.11	212.21
742.44	212.08
742.77	212.05
743.10	211.90
743.43	211.96
743.75	211.41
744.08	212.10
744.41	211.96
744.74	211.99
745.07	211.86
745.40	211.96
745.73	212.17
746.06	212.17
746.39	212.29
746.71	212.16
747.04	212.03
747.37	212.04
747.70	212.09
748.03	212.09
748.36	212.17
748.68	212.21
749.01	212.10
749.34	212.19
749.67	212.28
750.00	212.42
750.33	212.76
750.65	212.83
750.98	212.12
751.31	212.23
751.64	212.27
751.97	212.56
752.29	212.47
752.62	212.20
752.95	212.13
753.28	212.04
753.60	212.03
753.93	212.28
754.26	212.32
754.59	212.14
754.91	212.01
755.24	211.94
755.57	211.96
755.90	211.91
756.22	211.84
756.55	211.83
756.88	211.69
757.20	211.35
757.53	211.22
757.86	211.32
758.19	211.33
758.51	211.35
758.84	211.07
759.17	211.09
759.49	211.14
759.82	211.47
760.15	211.59
760.47	211.62
760.80	211.37
761.13	211.46
761.45	211.47
761.78	211.51
762.11	211.54
762.43	211.49
762.76	211.49
763.08	211.56
763.41	211.56
763.74	211.63
764.06	211.61
764.39	211.69
764.71	211.67
765.04	211.66
765.37	211.63
765.69	211.71
766.02	211.80
766.34	211.82
766.67	211.62
767.00	211.68
767.32	211.95
767.65	212.35
767.97	212.30
768.30	212.28
768.62	212.37
768.95	212.26
769.27	212.22
769.60	212.33
769.92	212.27
770.25	212.14
770.57	211.94
770.90	211.94
771.22	211.86
771.55	211.91
771.87	211.97
772.20	211.95
772.52	212.35
772.85	212.90
773.17	212.85
773.50	212.84
773.82	212.80
774.15	212.54
774.47	212.15
774.80	212.12
775.12	212.12
775.45	212.10
775.77	212.14
776.09	212.27
776.42	212.22
776.74	212.36
777.07	212.43
777.39	212.55
777.72	212.48
778.04	212.62
778.36	212.51
778.69	212.49
779.01	212.48
779.33	212.06
779.66	211.48
779.98	211.55
780.31	211.61
780.63	211.80
780.95	211.85
781.28	211.92
781.60	211.85
781.92	211.94
782.25	211.95
782.57	211.99
782.89	211.91
783.22	211.95
783.54	211.86
783.86	211.87
784.19	211.86
784.51	212.01
784.83	211.94
785.16	211.96
785.48	211.98
785.80	211.91
786.12	211.99
786.45	211.98
786.77	211.99
787.09	211.92
787.42	211.66
787.74	211.81
788.06	211.77
788.38	211.71
788.71	211.67
789.03	211.70
789.35	211.75
789.67	211.72
789.99	211.73
790.32	211.59
790.64	211.65
790.96	212.07
791.28	211.89
791.61	211.80
791.93	211.88
792.25	211.84
792.57	212.34
792.89	212.16
793.21	212.19
793.54	212.11
793.86	212.04
794.18	212.11
