SpectraSuite Data File
++++++++++++++++++++++++++++++++++++
Date: Fri Feb 01 14:37:03 EST 2013
User: group
Dark Spectrum Present: No
Reference Spectrum Present: No
Number of Sampled Component Spectra: 1
Spectrometers: USB2E7196
Integration Time (usec): 70000 (USB2E7196)
Spectra Averaged: 10 (USB2E7196)
Boxcar Smoothing: 10 (USB2E7196)
Correct for Electrical Dark: No (USB2E7196)
Strobe/Lamp Enabled: No (USB2E7196)
Correct for Detector Non-linearity: No (USB2E7196)
Correct for Stray Light: No (USB2E7196)
Number of Pixels in Processed Spectrum: 2048
>>>>>Begin Processed Spectral Data<<<<<
339.09	0.00
339.48	215.50
339.86	216.30
340.24	219.60
340.63	218.40
341.01	225.30
341.39	222.60
341.78	223.20
342.16	226.20
342.54	225.40
342.93	214.21
343.31	225.04
343.69	225.65
344.07	226.12
344.46	226.57
344.84	226.89
345.22	227.08
345.60	227.36
345.99	227.59
346.37	227.70
346.75	227.87
347.13	228.07
347.52	228.07
347.90	228.18
348.28	228.31
348.66	228.40
349.05	228.33
349.43	228.46
349.81	228.47
350.19	228.40
350.57	228.48
350.96	228.55
351.34	228.58
351.72	228.63
352.10	228.80
352.48	228.76
352.87	229.02
353.25	229.05
353.63	229.09
354.01	229.23
354.39	229.30
354.77	229.39
355.15	229.51
355.54	229.64
355.92	229.65
356.30	229.59
356.68	229.75
357.06	229.95
357.44	229.96
357.82	230.01
358.20	230.18
358.58	230.23
358.97	230.34
359.35	230.42
359.73	230.47
360.11	230.49
360.49	230.55
360.87	230.55
361.25	230.57
361.63	230.68
362.01	230.69
362.39	230.77
362.77	230.72
363.15	230.72
363.53	230.70
363.91	230.68
364.29	230.76
364.67	230.58
365.05	230.43
365.43	230.37
365.81	230.50
366.19	230.52
366.57	230.54
366.95	230.50
367.33	230.56
367.71	230.57
368.09	230.60
368.47	230.69
368.85	230.57
369.23	230.56
369.61	230.48
369.99	230.47
370.37	230.40
370.75	230.47
371.13	230.31
371.51	230.20
371.89	230.15
372.27	230.15
372.65	230.11
373.03	230.19
373.41	230.12
373.78	229.95
374.16	229.73
374.54	229.57
374.92	229.52
375.30	229.32
375.68	229.11
376.06	228.94
376.44	228.71
376.82	228.65
377.19	228.59
377.57	228.45
377.95	228.36
378.33	228.13
378.71	227.80
379.09	227.73
379.47	227.70
379.84	227.54
380.22	227.43
380.60	227.31
380.98	227.16
381.36	227.09
381.73	227.01
382.11	227.10
382.49	227.01
382.87	226.87
383.25	226.87
383.62	227.00
384.00	226.93
384.38	226.90
384.76	226.90
385.13	226.92
385.51	226.84
385.89	226.70
386.27	226.78
386.64	226.84
387.02	226.84
387.40	226.72
387.78	226.70
388.15	226.61
388.53	226.60
388.91	226.52
389.29	226.46
389.66	226.49
390.04	226.39
390.42	226.47
390.79	226.43
391.17	226.37
391.55	226.27
391.92	226.32
392.30	226.33
392.68	226.33
393.05	226.30
393.43	226.37
393.81	226.47
394.18	226.47
394.56	226.53
394.94	226.55
395.31	226.60
395.69	226.74
396.06	226.84
396.44	226.94
396.82	227.08
397.19	227.28
397.57	227.31
397.95	227.36
398.32	227.40
398.70	227.50
399.07	227.59
399.45	227.68
399.82	227.79
400.20	227.94
400.58	228.08
400.95	228.10
401.33	228.25
401.70	228.39
402.08	228.60
402.45	228.79
402.83	229.00
403.20	229.29
403.58	229.50
403.95	229.66
404.33	229.78
404.71	229.91
405.08	230.20
405.46	230.40
405.83	230.66
406.21	230.86
406.58	231.13
406.96	231.43
407.33	231.74
407.70	232.06
408.08	232.44
408.45	232.73
408.83	233.03
409.20	233.34
409.58	233.65
409.95	233.96
410.33	234.39
410.70	234.81
411.08	235.31
411.45	235.73
411.82	236.18
412.20	236.76
412.57	237.51
412.95	237.97
413.32	238.65
413.69	239.27
414.07	240.06
414.44	240.80
414.82	241.61
415.19	242.46
415.56	243.39
415.94	244.31
416.31	245.42
416.68	246.51
417.06	247.84
417.43	249.13
417.81	250.50
418.18	251.93
418.55	253.31
418.93	254.89
419.30	256.52
419.67	258.20
420.04	260.06
420.42	261.70
420.79	263.87
421.16	265.97
421.54	268.29
421.91	270.56
422.28	272.96
422.66	275.45
423.03	277.97
423.40	280.51
423.77	283.16
424.15	285.81
424.52	288.65
424.89	291.71
425.26	294.68
425.64	297.61
426.01	300.66
426.38	304.07
426.75	307.24
427.13	310.61
427.50	314.28
427.87	317.87
428.24	321.78
428.61	325.33
428.99	329.24
429.36	333.45
429.73	337.68
430.10	341.78
430.47	346.21
430.85	350.56
431.22	355.19
431.59	360.29
431.96	364.96
432.33	370.22
432.70	375.18
433.08	380.98
433.45	386.38
433.82	391.92
434.19	397.97
434.56	404.10
434.93	409.85
435.30	415.48
435.68	421.71
436.05	427.82
436.42	433.97
436.79	439.68
437.16	445.74
437.53	451.96
437.90	458.08
438.27	464.05
438.64	470.52
439.01	476.38
439.38	481.70
439.75	486.96
440.13	492.86
440.50	498.60
440.87	503.19
441.24	508.05
441.61	513.26
441.98	517.31
442.35	521.80
442.72	526.43
443.09	531.06
443.46	534.00
443.83	536.03
444.20	538.00
444.57	540.44
444.94	541.94
445.31	543.49
445.68	545.17
446.05	546.31
446.42	546.29
446.79	546.12
447.16	545.87
447.53	546.11
447.90	544.60
448.27	542.81
448.64	540.21
449.01	538.58
449.37	535.03
449.74	531.57
450.11	527.26
450.48	522.70
450.85	518.03
451.22	514.25
451.59	510.47
451.96	507.00
452.33	501.96
452.70	497.25
453.07	491.75
453.43	486.13
453.80	480.63
454.17	475.27
454.54	470.41
454.91	464.86
455.28	459.32
455.65	454.08
456.02	449.03
456.38	444.71
456.75	439.09
457.12	434.50
457.49	429.87
457.86	425.48
458.23	421.63
458.59	417.28
458.96	412.86
459.33	409.03
459.70	404.86
460.07	401.74
460.43	398.05
460.80	394.40
461.17	391.23
461.54	388.00
461.91	384.82
462.27	381.61
462.64	378.90
463.01	375.85
463.38	373.06
463.74	370.16
464.11	367.59
464.48	365.46
464.85	363.06
465.21	360.97
465.58	358.97
465.95	356.51
466.32	354.54
466.68	352.44
467.05	350.42
467.42	348.53
467.78	346.54
468.15	344.59
468.52	343.20
468.88	341.43
469.25	339.65
469.62	338.36
469.98	336.80
470.35	335.23
470.72	333.96
471.08	332.51
471.45	331.14
471.82	329.85
472.18	328.35
472.55	327.37
472.92	326.19
473.28	325.06
473.65	323.98
474.02	322.79
474.38	321.81
474.75	320.92
475.11	319.78
475.48	319.00
475.85	318.30
476.21	317.52
476.58	316.73
476.94	316.19
477.31	315.50
477.67	314.97
478.04	314.53
478.41	314.01
478.77	313.68
479.14	313.29
479.50	312.91
479.87	312.64
480.23	312.27
480.60	311.96
480.96	311.70
481.33	311.66
481.69	311.58
482.06	311.55
482.42	311.41
482.79	311.40
483.15	311.25
483.52	311.27
483.88	311.32
484.25	311.45
484.61	311.53
484.98	311.68
485.34	311.95
485.71	312.27
486.07	312.54
486.44	312.71
486.80	312.96
487.17	313.32
487.53	313.83
487.90	314.44
488.26	315.23
488.62	315.91
488.99	316.31
489.35	316.98
489.72	317.50
490.08	318.24
490.44	319.00
490.81	319.90
491.17	320.78
491.54	321.51
491.90	322.31
492.26	323.02
492.63	323.90
492.99	324.60
493.36	325.55
493.72	326.58
494.08	327.44
494.45	328.47
494.81	329.49
495.17	330.43
495.54	331.36
495.90	332.24
496.26	333.26
496.63	334.36
496.99	335.50
497.35	336.70
497.72	337.70
498.08	338.78
498.44	339.75
498.80	340.83
499.17	342.03
499.53	343.13
499.89	344.28
500.26	345.22
500.62	346.30
500.98	347.25
501.34	348.12
501.71	349.19
502.07	350.20
502.43	351.04
502.79	352.00
503.16	352.80
503.52	353.61
503.88	354.26
504.24	355.00
504.60	355.73
504.97	356.46
505.33	357.28
505.69	358.09
506.05	358.81
506.41	359.37
506.78	359.80
507.14	360.29
507.50	360.83
507.86	361.31
508.22	361.70
508.59	362.07
508.95	362.45
509.31	362.80
509.67	363.06
510.03	363.35
510.39	363.62
510.75	363.92
511.12	364.15
511.48	364.18
511.84	364.35
512.20	364.35
512.56	364.46
512.92	364.46
513.28	364.42
513.64	364.32
514.00	364.33
514.37	364.41
514.73	364.34
515.09	364.25
515.45	364.23
515.81	364.19
516.17	364.20
516.53	364.19
516.89	364.07
517.25	364.00
517.61	364.05
517.97	363.97
518.33	364.10
518.69	364.21
519.05	364.50
519.41	364.72
519.77	364.90
520.13	364.93
520.49	365.12
520.85	365.25
521.21	365.58
521.57	365.87
521.93	366.21
522.29	366.76
522.65	367.17
523.01	367.72
523.37	368.27
523.73	368.96
524.09	369.62
524.45	370.29
524.81	371.14
525.17	371.94
525.53	372.90
525.89	373.70
526.25	374.59
526.61	375.59
526.97	376.62
527.33	377.75
527.68	379.25
528.04	380.62
528.40	381.85
528.76	383.43
529.12	384.94
529.48	386.37
529.84	387.95
530.20	389.81
530.56	391.67
530.91	393.69
531.27	395.64
531.63	397.55
531.99	399.75
532.35	401.97
532.71	404.33
533.07	406.71
533.42	409.36
533.78	411.92
534.14	414.55
534.50	417.19
534.86	420.00
535.21	422.56
535.57	425.45
535.93	428.70
536.29	431.72
536.65	434.92
537.00	438.21
537.36	441.33
537.72	444.47
538.08	447.85
538.44	451.10
538.79	454.45
539.15	458.13
539.51	461.76
539.87	465.40
540.22	469.04
540.58	472.77
540.94	476.39
541.29	480.29
541.65	484.15
542.01	488.17
542.37	491.96
542.72	496.02
543.08	499.84
543.44	503.92
543.79	507.79
544.15	511.77
544.51	516.01
544.87	520.32
545.22	524.71
545.58	528.77
545.94	532.90
546.29	537.16
546.65	541.40
547.01	545.79
547.36	550.10
547.72	554.34
548.07	558.86
548.43	563.22
548.79	567.45
549.14	571.68
549.50	576.10
549.86	580.58
550.21	584.98
550.57	589.54
550.92	593.90
551.28	598.48
551.64	602.90
551.99	607.48
552.35	611.87
552.70	616.33
553.06	620.88
553.41	625.47
553.77	630.07
554.13	634.56
554.48	638.86
554.84	643.36
555.19	647.95
555.55	652.42
555.90	656.65
556.26	661.01
556.61	665.72
556.97	669.98
557.32	674.33
557.68	678.68
558.03	683.16
558.39	687.56
558.74	692.04
559.10	696.58
559.45	700.78
559.81	705.43
560.16	709.51
560.52	713.69
560.87	718.19
561.23	722.33
561.58	726.79
561.94	731.06
562.29	734.98
562.64	738.89
563.00	742.63
563.35	746.95
563.71	751.17
564.06	755.25
564.42	759.15
564.77	763.05
565.12	767.07
565.48	771.02
565.83	774.82
566.19	778.51
566.54	782.19
566.89	785.70
567.25	789.11
567.60	792.91
567.96	796.64
568.31	800.00
568.66	803.41
569.02	806.63
569.37	809.94
569.72	813.17
570.08	816.23
570.43	819.30
570.78	822.22
571.14	825.05
571.49	827.53
571.84	830.70
572.20	833.50
572.55	835.85
572.90	838.18
573.26	840.66
573.61	843.07
573.96	845.44
574.31	847.47
574.67	849.36
575.02	851.29
575.37	853.04
575.72	854.48
576.08	856.26
576.43	857.65
576.78	859.06
577.13	860.87
577.49	862.72
577.84	864.40
578.19	865.58
578.54	867.20
578.90	868.54
579.25	869.41
579.60	870.57
579.95	871.90
580.30	872.86
580.66	873.60
581.01	874.38
581.36	874.92
581.71	875.97
582.06	876.70
582.42	877.42
582.77	878.15
583.12	878.89
583.47	879.46
583.82	880.13
584.17	880.62
584.53	881.17
584.88	881.34
585.23	881.63
585.58	882.10
585.93	882.29
586.28	882.71
586.63	882.97
586.98	883.33
587.34	883.63
587.69	884.05
588.04	884.10
588.39	884.34
588.74	884.27
589.09	884.12
589.44	883.97
589.79	883.90
590.14	883.94
590.49	883.85
590.84	883.40
591.19	882.97
591.54	882.37
591.89	881.39
592.25	881.23
592.60	880.26
592.95	879.45
593.30	878.22
593.65	877.47
594.00	876.42
594.35	875.91
594.70	874.32
595.05	873.22
595.40	872.10
595.75	870.70
596.10	869.73
596.45	868.88
596.80	868.19
597.15	867.04
597.50	865.54
597.85	864.53
598.19	863.58
598.54	862.73
598.89	861.78
599.24	861.05
599.59	859.46
599.94	858.58
600.29	857.39
600.64	856.56
600.99	854.88
601.34	853.77
601.69	851.66
602.04	850.53
602.39	848.97
602.74	847.81
603.08	846.45
603.43	845.37
603.78	843.75
604.13	842.03
604.48	840.28
604.83	839.02
605.18	837.37
605.53	835.40
605.87	833.62
606.22	832.12
606.57	830.13
606.92	828.80
607.27	827.09
607.62	825.45
607.96	823.48
608.31	822.16
608.66	820.36
609.01	818.45
609.36	816.29
609.70	813.77
610.05	811.58
610.40	809.28
610.75	806.81
611.10	804.50
611.44	801.84
611.79	799.66
612.14	796.92
612.49	794.17
612.83	791.86
613.18	789.29
613.53	786.65
613.88	784.01
614.22	781.03
614.57	778.20
614.92	775.68
615.27	773.10
615.61	770.09
615.96	767.62
616.31	765.17
616.65	763.15
617.00	761.21
617.35	758.71
617.70	756.47
618.04	753.72
618.39	751.20
618.74	748.82
619.08	746.06
619.43	743.88
619.78	741.61
620.12	739.10
620.47	736.45
620.82	733.72
621.16	731.09
621.51	728.79
621.85	726.40
622.20	723.61
622.55	721.11
622.89	718.72
623.24	715.96
623.59	713.62
623.93	710.90
624.28	708.20
624.62	705.80
624.97	703.37
625.32	701.08
625.66	698.74
626.01	696.44
626.35	693.97
626.70	691.34
627.04	689.07
627.39	686.64
627.73	684.31
628.08	682.27
628.43	679.77
628.77	677.23
629.12	674.60
629.46	671.99
629.81	669.25
630.15	666.46
630.50	663.98
630.84	661.12
631.19	658.35
631.53	655.90
631.88	653.08
632.22	650.14
632.57	647.64
632.91	644.98
633.26	642.26
633.60	639.59
633.95	637.01
634.29	634.25
634.64	631.89
634.98	629.10
635.32	626.40
635.67	624.33
636.01	621.82
636.36	619.22
636.70	616.97
637.05	614.53
637.39	612.31
637.73	609.76
638.08	607.54
638.42	605.45
638.77	602.99
639.11	600.60
639.45	598.41
639.80	595.90
640.14	593.51
640.49	591.10
640.83	588.70
641.17	586.34
641.52	583.89
641.86	581.21
642.20	578.87
642.55	576.32
642.89	573.64
643.23	571.07
643.58	568.85
643.92	566.38
644.26	564.07
644.61	561.67
644.95	559.40
645.29	556.69
645.64	553.89
645.98	551.31
646.32	549.12
646.66	546.42
647.01	543.92
647.35	541.58
647.69	539.30
648.04	537.30
648.38	534.75
648.72	532.35
649.06	529.83
649.41	527.47
649.75	525.02
650.09	522.48
650.43	520.03
650.78	517.44
651.12	515.10
651.46	512.83
651.80	510.42
652.14	508.06
652.49	505.88
652.83	503.75
653.17	501.42
653.51	498.90
653.85	496.60
654.20	494.24
654.54	491.67
654.88	489.09
655.22	486.34
655.56	483.84
655.90	481.50
656.25	479.38
656.59	477.13
656.93	474.91
657.27	472.90
657.61	470.64
657.95	468.70
658.29	466.37
658.64	464.23
658.98	462.07
659.32	459.78
659.66	457.57
660.00	455.43
660.34	453.34
660.68	451.22
661.02	449.11
661.36	447.24
661.70	445.35
662.05	443.58
662.39	441.96
662.73	440.28
663.07	438.60
663.41	436.63
663.75	434.76
664.09	432.88
664.43	430.96
664.77	429.34
665.11	427.49
665.45	425.80
665.79	424.00
666.13	422.21
666.47	420.41
666.81	418.61
667.15	416.88
667.49	415.12
667.83	413.41
668.17	411.87
668.51	410.00
668.85	408.30
669.19	406.55
669.53	404.87
669.87	403.09
670.21	401.39
670.55	399.91
670.89	398.57
671.23	397.14
671.57	395.72
671.91	394.19
672.25	392.68
672.58	391.30
672.92	389.70
673.26	388.28
673.60	387.02
673.94	385.66
674.28	384.33
674.62	383.09
674.96	381.89
675.30	380.77
675.64	379.53
675.97	378.21
676.31	377.02
676.65	375.70
676.99	374.62
677.33	373.26
677.67	371.98
678.01	370.48
678.34	369.13
678.68	367.90
679.02	366.57
679.36	365.30
679.70	363.94
680.04	362.75
680.37	361.57
680.71	360.27
681.05	359.09
681.39	357.80
681.73	356.74
682.06	355.49
682.40	354.07
682.74	352.91
683.08	351.82
683.42	350.46
683.75	349.30
684.09	348.14
684.43	347.00
684.77	345.74
685.10	344.57
685.44	343.29
685.78	341.96
686.12	340.91
686.45	339.63
686.79	338.50
687.13	337.41
687.46	336.13
687.80	335.04
688.14	334.00
688.48	332.97
688.81	331.63
689.15	330.54
689.49	329.54
689.82	328.52
690.16	327.50
690.50	326.53
690.83	325.47
691.17	324.41
691.51	323.41
691.84	322.53
692.18	321.49
692.52	320.63
692.85	319.64
693.19	318.60
693.52	317.76
693.86	316.81
694.20	315.80
694.53	314.94
694.87	313.97
695.21	312.92
695.54	311.97
695.88	311.01
696.21	310.04
696.55	309.01
696.88	308.10
697.22	307.13
697.56	306.20
697.89	305.25
698.23	304.32
698.56	303.46
698.90	302.47
699.23	301.64
699.57	300.76
699.90	299.99
700.24	299.11
700.58	298.24
700.91	297.42
701.25	296.72
701.58	296.00
701.92	295.20
702.25	294.56
702.59	293.89
702.92	293.20
703.26	292.50
703.59	291.85
703.93	291.28
704.26	290.60
704.60	289.99
704.93	289.48
705.26	288.92
705.60	288.30
705.93	287.76
706.27	287.32
706.60	286.83
706.94	286.28
707.27	285.73
707.61	285.20
707.94	284.68
708.27	284.02
708.61	283.34
708.94	282.82
709.28	282.20
709.61	281.59
709.94	281.15
710.28	280.72
710.61	280.21
710.95	279.55
711.28	279.08
711.61	278.55
711.95	277.99
712.28	277.28
712.61	276.63
712.95	276.13
713.28	275.60
713.61	275.03
713.95	274.52
714.28	274.04
714.61	273.45
714.95	273.03
715.28	272.53
715.61	272.06
715.95	271.65
716.28	271.23
716.61	270.77
716.95	270.30
717.28	269.80
717.61	269.39
717.94	268.98
718.28	268.51
718.61	268.19
718.94	267.73
719.27	267.40
719.61	267.09
719.94	266.76
720.27	266.33
720.60	265.87
720.94	265.59
721.27	265.21
721.60	265.04
721.93	264.65
722.27	264.38
722.60	264.15
722.93	263.71
723.26	263.31
723.59	262.92
723.93	262.68
724.26	262.25
724.59	261.90
724.92	261.59
725.25	261.30
725.59	260.95
725.92	260.73
726.25	260.43
726.58	260.18
726.91	259.72
727.24	259.47
727.57	259.22
727.91	258.70
728.24	258.41
728.57	258.06
728.90	257.74
729.23	257.50
729.56	257.18
729.89	256.96
730.22	256.70
730.55	256.41
730.89	256.01
731.22	255.75
731.55	255.50
731.88	255.27
732.21	254.91
732.54	254.49
732.87	254.13
733.20	253.85
733.53	253.53
733.86	253.41
734.19	253.01
734.52	252.80
734.85	252.78
735.18	252.58
735.51	252.30
735.84	252.00
736.17	251.62
736.50	251.33
736.83	251.21
737.16	250.94
737.49	250.80
737.82	250.50
738.15	250.28
738.48	249.90
738.81	249.50
739.14	249.18
739.47	248.94
739.80	248.69
740.13	248.44
740.46	248.13
740.79	247.75
741.12	247.47
741.45	247.19
741.78	246.77
742.11	246.49
742.44	246.25
742.77	245.98
743.10	245.73
743.43	245.40
743.75	245.02
744.08	245.02
744.41	244.65
744.74	244.41
745.07	244.22
745.40	244.19
745.73	244.17
746.06	244.06
746.39	243.85
746.71	243.63
747.04	243.52
747.37	243.26
747.70	243.20
748.03	243.15
748.36	242.94
748.68	242.82
749.01	242.73
749.34	242.57
749.67	242.53
750.00	242.46
750.33	242.50
750.65	242.37
750.98	241.98
751.31	241.91
751.64	241.86
751.97	241.87
752.29	241.66
752.62	241.40
752.95	241.30
753.28	241.23
753.60	241.14
753.93	241.03
754.26	241.00
754.59	240.73
754.91	240.51
755.24	240.47
755.57	240.39
755.90	240.11
756.22	239.92
756.55	239.71
756.88	239.58
757.20	239.37
757.53	239.21
757.86	239.08
758.19	239.05
758.51	239.01
758.84	238.79
759.17	238.73
759.49	238.70
759.82	238.66
760.15	238.70
760.47	238.64
760.80	238.55
761.13	238.58
761.45	238.60
761.78	238.56
762.11	238.51
762.43	238.46
762.76	238.43
763.08	238.50
763.41	238.51
763.74	238.53
764.06	238.42
764.39	238.30
764.71	238.42
765.04	238.32
765.37	238.12
765.69	238.10
766.02	237.87
766.34	237.78
766.67	237.56
767.00	237.49
767.32	237.50
767.65	237.61
767.97	237.42
768.30	237.47
768.62	237.32
768.95	237.23
769.27	237.10
769.60	236.98
769.92	236.89
770.25	236.73
770.57	236.55
770.90	236.55
771.22	236.46
771.55	236.24
771.87	236.17
772.20	236.10
772.52	236.12
772.85	236.39
773.17	236.26
773.50	236.22
773.82	236.07
774.15	235.84
774.47	235.51
774.80	235.40
775.12	235.11
775.45	235.06
775.77	234.94
776.09	234.90
776.42	234.81
776.74	234.67
777.07	234.62
777.39	234.42
777.72	234.31
778.04	234.24
778.36	234.12
778.69	234.10
779.01	234.10
779.33	233.95
779.66	233.57
779.98	233.50
780.31	233.45
780.63	233.39
780.95	233.46
781.28	233.28
781.60	233.33
781.92	233.25
782.25	233.20
782.57	233.03
782.89	232.81
783.22	232.75
783.54	232.64
783.86	232.61
784.19	232.60
784.51	232.58
784.83	232.48
785.16	232.37
785.48	232.17
785.80	232.10
786.12	231.86
786.45	231.88
786.77	231.83
787.09	231.72
787.42	231.62
787.74	231.44
788.06	231.49
788.38	231.30
788.71	231.29
789.03	231.21
789.35	231.31
789.67	231.30
789.99	231.32
790.32	231.33
790.64	231.30
790.96	231.40
791.28	231.32
791.61	231.34
791.93	231.46
792.25	231.39
792.57	231.46
792.89	231.53
793.21	231.48
793.54	231.48
793.86	231.47
794.18	231.56
