SpectraSuite Data File
++++++++++++++++++++++++++++++++++++
Date: Fri Feb 01 14:35:21 EST 2013
User: group
Dark Spectrum Present: No
Reference Spectrum Present: No
Number of Sampled Component Spectra: 1
Spectrometers: USB2E7196
Integration Time (usec): 70000 (USB2E7196)
Spectra Averaged: 10 (USB2E7196)
Boxcar Smoothing: 10 (USB2E7196)
Correct for Electrical Dark: No (USB2E7196)
Strobe/Lamp Enabled: No (USB2E7196)
Correct for Detector Non-linearity: No (USB2E7196)
Correct for Stray Light: No (USB2E7196)
Number of Pixels in Processed Spectrum: 2048
>>>>>Begin Processed Spectral Data<<<<<
339.09	0.00
339.48	216.40
339.86	218.40
340.24	217.80
340.63	220.50
341.01	224.40
341.39	223.80
341.78	224.50
342.16	227.20
342.54	226.50
342.93	214.72
343.31	225.54
343.69	226.11
344.07	226.57
344.46	227.07
344.84	227.46
345.22	227.75
345.60	228.01
345.99	228.21
346.37	228.31
346.75	228.42
347.13	228.43
347.52	228.49
347.90	228.70
348.28	228.75
348.66	228.80
349.05	228.75
349.43	228.90
349.81	229.01
350.19	229.08
350.57	229.17
350.96	229.25
351.34	229.40
351.72	229.40
352.10	229.46
352.48	229.54
352.87	229.60
353.25	229.50
353.63	229.45
354.01	229.48
354.39	229.45
354.77	229.52
355.15	229.66
355.54	229.61
355.92	229.46
356.30	229.42
356.68	229.56
357.06	229.61
357.44	229.66
357.82	229.70
358.20	229.70
358.58	229.68
358.97	229.82
359.35	229.82
359.73	229.99
360.11	230.02
360.49	230.03
360.87	230.00
361.25	230.13
361.63	230.25
362.01	230.33
362.39	230.43
362.77	230.50
363.15	230.48
363.53	230.52
363.91	230.54
364.29	230.51
364.67	230.31
365.05	230.22
365.43	230.11
365.81	230.14
366.19	230.23
366.57	230.23
366.95	230.13
367.33	230.08
367.71	229.97
368.09	230.03
368.47	230.02
368.85	230.01
369.23	229.90
369.61	229.79
369.99	229.70
370.37	229.53
370.75	229.52
371.13	229.42
371.51	229.38
371.89	229.42
372.27	229.44
372.65	229.45
373.03	229.43
373.41	229.27
373.78	229.07
374.16	228.89
374.54	228.84
374.92	228.70
375.30	228.59
375.68	228.51
376.06	228.30
376.44	228.13
376.82	227.99
377.19	227.96
377.57	227.86
377.95	227.74
378.33	227.64
378.71	227.43
379.09	227.44
379.47	227.31
379.84	227.22
380.22	227.16
380.60	226.94
380.98	226.86
381.36	226.87
381.73	226.84
382.11	226.83
382.49	226.79
382.87	226.75
383.25	226.76
383.62	226.92
384.00	226.84
384.38	226.78
384.76	226.84
385.13	226.80
385.51	226.79
385.89	226.74
386.27	226.84
386.64	226.80
387.02	226.70
387.40	226.73
387.78	226.65
388.15	226.61
388.53	226.65
388.91	226.70
389.29	226.68
389.66	226.72
390.04	226.59
390.42	226.72
390.79	226.61
391.17	226.58
391.55	226.41
391.92	226.47
392.30	226.55
392.68	226.52
393.05	226.58
393.43	226.57
393.81	226.72
394.18	226.72
394.56	226.77
394.94	226.92
395.31	227.06
395.69	227.24
396.06	227.33
396.44	227.48
396.82	227.57
397.19	227.78
397.57	227.84
397.95	228.04
398.32	227.97
398.70	228.19
399.07	228.34
399.45	228.44
399.82	228.56
400.20	228.65
400.58	228.79
400.95	228.84
401.33	229.05
401.70	229.19
402.08	229.33
402.45	229.51
402.83	229.73
403.20	229.97
403.58	230.15
403.95	230.45
404.33	230.72
404.71	230.93
405.08	231.27
405.46	231.50
405.83	231.77
406.21	232.13
406.58	232.50
406.96	232.81
407.33	233.09
407.70	233.54
408.08	234.11
408.45	234.65
408.83	235.26
409.20	235.80
409.58	236.30
409.95	236.92
410.33	237.55
410.70	238.14
411.08	238.75
411.45	239.47
411.82	240.21
412.20	240.94
412.57	241.89
412.95	242.63
413.32	243.60
413.69	244.68
414.07	245.73
414.44	246.93
414.82	248.20
415.19	249.64
415.56	251.10
415.94	252.57
416.31	254.20
416.68	255.73
417.06	257.52
417.43	259.37
417.81	261.42
418.18	263.59
418.55	265.79
418.93	267.98
419.30	270.35
419.67	272.86
420.04	275.52
420.42	278.39
420.79	281.48
421.16	284.72
421.54	287.91
421.91	291.37
422.28	294.73
422.66	298.37
423.03	301.95
423.40	305.70
423.77	309.90
424.15	314.03
424.52	318.39
424.89	323.14
425.26	327.61
425.64	331.92
426.01	336.42
426.38	341.23
426.75	346.37
427.13	351.45
427.50	356.77
427.87	362.51
428.24	367.99
428.61	373.43
428.99	379.28
429.36	385.65
429.73	391.78
430.10	398.05
430.47	404.35
430.85	411.01
431.22	417.97
431.59	425.17
431.96	431.96
432.33	439.67
432.70	447.11
433.08	455.88
433.45	463.93
433.82	472.29
434.19	481.40
434.56	490.21
434.93	498.86
435.30	507.40
435.68	516.45
436.05	525.52
436.42	534.74
436.79	543.02
437.16	551.97
437.53	561.49
437.90	571.14
438.27	580.57
438.64	590.18
439.01	599.09
439.38	607.12
439.75	614.93
440.13	623.76
440.50	632.19
440.87	639.22
441.24	646.64
441.61	654.78
441.98	660.80
442.35	667.86
442.72	674.79
443.09	681.70
443.46	686.66
443.83	690.09
444.20	692.95
444.57	697.21
444.94	699.82
445.31	702.41
445.68	704.50
446.05	706.18
446.42	706.37
446.79	706.23
447.16	706.01
447.53	706.40
447.90	704.14
448.27	701.73
448.64	697.77
449.01	695.47
449.37	690.20
449.74	685.38
450.11	679.12
450.48	672.25
450.85	665.11
451.22	658.97
451.59	653.28
451.96	648.13
452.33	640.48
452.70	633.63
453.07	625.28
453.43	616.80
453.80	608.34
454.17	600.22
454.54	592.67
454.91	584.43
455.28	576.26
455.65	568.53
456.02	560.71
456.38	554.21
456.75	545.71
457.12	538.63
457.49	531.51
457.86	524.74
458.23	519.12
458.59	512.80
458.96	506.15
459.33	500.25
459.70	494.24
460.07	489.48
460.43	483.92
460.80	478.57
461.17	474.02
461.54	469.47
461.91	465.02
462.27	460.53
462.64	456.42
463.01	452.15
463.38	448.00
463.74	443.88
464.11	440.20
464.48	437.06
464.85	433.49
465.21	430.79
465.58	428.11
465.95	424.55
466.32	421.70
466.68	418.80
467.05	416.05
467.42	413.26
467.78	410.16
468.15	407.16
468.52	405.12
468.88	402.38
469.25	399.66
469.62	397.52
469.98	395.20
470.35	393.28
470.72	391.22
471.08	388.96
471.45	387.12
471.82	385.03
472.18	382.93
472.55	381.50
472.92	379.69
473.28	377.89
473.65	376.33
474.02	374.66
474.38	373.30
474.75	372.12
475.11	370.80
475.48	369.94
475.85	369.20
476.21	368.02
476.58	367.31
476.94	366.93
477.31	366.24
477.67	365.50
478.04	364.93
478.41	364.52
478.77	364.36
479.14	363.73
479.50	363.60
479.87	363.52
480.23	363.40
480.60	363.24
480.96	363.12
481.33	363.27
481.69	363.42
482.06	363.42
482.42	363.37
482.79	363.52
483.15	363.76
483.52	364.19
483.88	364.80
484.25	365.06
484.61	365.18
484.98	365.65
485.34	366.40
485.71	366.96
486.07	367.65
486.44	368.32
486.80	369.35
487.17	370.31
487.53	371.32
487.90	372.59
488.26	373.76
488.62	375.13
488.99	376.34
489.35	377.61
489.72	379.09
490.08	380.68
490.44	382.21
490.81	383.98
491.17	385.72
491.54	387.54
491.90	389.46
492.26	391.63
492.63	393.77
492.99	395.75
493.36	397.94
493.72	400.07
494.08	402.28
494.45	404.64
494.81	407.01
495.17	409.40
495.54	411.72
495.90	414.34
496.26	416.90
496.63	419.63
496.99	422.46
497.35	425.28
497.72	428.12
498.08	430.92
498.44	433.60
498.80	436.49
499.17	439.28
499.53	442.10
499.89	444.91
500.26	447.70
500.62	450.72
500.98	453.82
501.34	456.97
501.71	460.01
502.07	462.83
502.43	465.71
502.79	468.74
503.16	471.62
503.52	474.59
503.88	477.38
504.24	480.33
504.60	483.17
504.97	486.04
505.33	488.77
505.69	491.81
506.05	494.68
506.41	496.97
506.78	499.63
507.14	502.39
507.50	505.09
507.86	507.74
508.22	510.30
508.59	512.63
508.95	514.92
509.31	517.30
509.67	519.98
510.03	522.18
510.39	524.39
510.75	526.64
511.12	528.66
511.48	530.82
511.84	532.88
512.20	534.88
512.56	536.87
512.92	538.98
513.28	540.63
513.64	542.50
514.00	544.44
514.37	546.32
514.73	548.11
515.09	549.60
515.45	551.10
515.81	552.57
516.17	554.02
516.53	555.38
516.89	556.89
517.25	558.11
517.61	559.58
517.97	560.77
518.33	561.85
518.69	563.10
519.05	564.54
519.41	565.73
519.77	567.22
520.13	568.49
520.49	569.26
520.85	570.40
521.21	571.52
521.57	572.72
521.93	573.65
522.29	574.51
522.65	575.47
523.01	576.67
523.37	577.37
523.73	578.22
524.09	579.39
524.45	580.29
524.81	581.27
525.17	582.45
525.53	583.64
525.89	584.88
526.25	585.98
526.61	586.68
526.97	587.72
527.33	588.62
527.68	589.71
528.04	591.21
528.40	592.39
528.76	593.72
529.12	595.15
529.48	596.60
529.84	597.78
530.20	599.29
530.56	600.89
530.91	602.89
531.27	604.75
531.63	606.38
531.99	608.20
532.35	609.70
532.71	611.25
533.07	613.12
533.42	615.20
533.78	617.29
534.14	619.39
534.50	621.31
534.86	623.50
535.21	625.32
535.57	627.39
535.93	629.61
536.29	631.75
536.65	633.99
537.00	636.23
537.36	639.07
537.72	641.53
538.08	643.65
538.44	645.85
538.79	648.31
539.15	650.74
539.51	653.19
539.87	656.23
540.22	659.15
540.58	661.96
540.94	664.66
541.29	667.42
541.65	670.37
542.01	673.50
542.37	676.34
542.72	679.67
543.08	682.62
543.44	685.65
543.79	688.40
544.15	691.21
544.51	694.47
544.87	697.50
545.22	700.64
545.58	703.92
545.94	707.07
546.29	710.28
546.65	713.48
547.01	716.84
547.36	720.04
547.72	723.13
548.07	726.22
548.43	729.44
548.79	732.52
549.14	735.40
549.50	738.41
549.86	741.51
550.21	744.70
550.57	748.00
550.92	751.11
551.28	754.37
551.64	757.66
551.99	760.75
552.35	763.68
552.70	766.98
553.06	770.29
553.41	773.76
553.77	777.19
554.13	780.58
554.48	784.06
554.84	787.26
555.19	790.55
555.55	793.87
555.90	796.95
556.26	800.26
556.61	803.80
556.97	807.05
557.32	810.37
557.68	813.58
558.03	816.48
558.39	819.70
558.74	823.05
559.10	826.28
559.45	829.67
559.81	833.18
560.16	836.29
560.52	839.40
560.87	842.72
561.23	845.49
561.58	848.54
561.94	851.22
562.29	854.09
562.64	856.80
563.00	859.83
563.35	863.00
563.71	866.27
564.06	869.33
564.42	872.28
564.77	875.02
565.12	877.97
565.48	881.23
565.83	883.95
566.19	887.00
566.54	889.71
566.89	892.20
567.25	894.87
567.60	897.73
567.96	900.36
568.31	902.65
568.66	905.38
569.02	907.87
569.37	909.98
569.72	912.27
570.08	914.71
570.43	916.54
570.78	918.21
571.14	919.65
571.49	921.45
571.84	923.45
572.20	925.29
572.55	926.74
572.90	927.87
573.26	929.57
573.61	930.66
573.96	932.10
574.31	933.06
574.67	933.76
575.02	934.40
575.37	935.08
575.72	935.65
576.08	936.25
576.43	936.85
576.78	937.69
577.13	938.52
577.49	939.19
577.84	939.77
578.19	940.71
578.54	941.47
578.90	941.52
579.25	941.17
579.60	941.39
579.95	941.28
580.30	941.40
580.66	941.20
581.01	941.20
581.36	941.19
581.71	941.20
582.06	941.42
582.42	941.20
582.77	941.12
583.12	940.77
583.47	940.53
583.82	940.58
584.17	939.90
584.53	939.42
584.88	938.77
585.23	938.57
585.58	937.77
585.93	936.90
586.28	936.80
586.63	936.58
586.98	935.95
587.34	935.61
587.69	935.46
588.04	934.84
588.39	934.19
588.74	932.79
589.09	931.98
589.44	930.80
589.79	930.11
590.14	929.50
590.49	928.77
590.84	927.41
591.19	926.27
591.54	925.08
591.89	923.39
592.25	922.30
592.60	920.67
592.95	919.12
593.30	917.74
593.65	915.96
594.00	914.52
594.35	913.35
594.70	911.40
595.05	909.40
595.40	907.71
595.75	905.58
596.10	904.26
596.45	902.91
596.80	901.28
597.15	899.66
597.50	897.40
597.85	895.89
598.19	894.69
598.54	892.70
598.89	891.10
599.24	889.72
599.59	887.69
599.94	885.97
600.29	884.20
600.64	882.40
600.99	880.06
601.34	877.70
601.69	875.21
602.04	873.35
602.39	871.48
602.74	869.73
603.08	868.06
603.43	866.23
603.78	863.90
604.13	861.90
604.48	859.67
604.83	857.98
605.18	855.78
605.53	853.13
605.87	850.76
606.22	848.76
606.57	846.36
606.92	844.10
607.27	841.94
607.62	839.85
607.96	837.84
608.31	836.05
608.66	834.00
609.01	831.47
609.36	828.92
609.70	825.95
610.05	823.07
610.40	820.45
610.75	817.61
611.10	814.64
611.44	811.66
611.79	808.71
612.14	805.57
612.49	802.29
612.83	799.38
613.18	796.40
613.53	793.42
613.88	790.31
614.22	787.52
614.57	784.29
614.92	781.14
615.27	778.07
615.61	774.84
615.96	771.72
616.31	769.10
616.65	766.78
617.00	764.20
617.35	761.37
617.70	758.60
618.04	755.61
618.39	752.83
618.74	750.03
619.08	747.30
619.43	744.36
619.78	741.80
620.12	739.23
620.47	736.34
620.82	733.30
621.16	730.41
621.51	727.68
621.85	724.88
622.20	721.95
622.55	719.08
622.89	716.47
623.24	714.00
623.59	711.13
623.93	708.16
624.28	705.28
624.62	702.90
624.97	700.10
625.32	697.64
625.66	695.19
626.01	692.53
626.35	689.68
626.70	687.08
627.04	684.38
627.39	681.46
627.73	678.99
628.08	676.62
628.43	674.04
628.77	671.28
629.12	668.43
629.46	665.77
629.81	662.89
630.15	659.97
630.50	656.96
630.84	653.96
631.19	650.91
631.53	648.17
631.88	644.74
632.22	641.65
632.57	638.75
632.91	635.79
633.26	632.86
633.60	629.90
633.95	627.19
634.29	624.45
634.64	621.84
634.98	618.89
635.32	616.17
635.67	613.68
636.01	610.88
636.36	608.58
636.70	606.09
637.05	603.74
637.39	601.22
637.73	598.80
638.08	596.67
638.42	594.32
638.77	591.94
639.11	589.71
639.45	587.39
639.80	584.70
640.14	582.20
640.49	579.85
640.83	577.56
641.17	575.20
641.52	572.68
641.86	570.22
642.20	567.83
642.55	565.19
642.89	562.90
643.23	560.66
643.58	558.20
643.92	555.71
644.26	553.00
644.61	550.65
644.95	548.45
645.29	545.66
645.64	543.07
645.98	540.69
646.32	538.43
646.66	535.95
647.01	533.98
647.35	531.69
647.69	529.40
648.04	527.41
648.38	524.90
648.72	522.50
649.06	520.21
649.41	518.02
649.75	515.59
650.09	513.02
650.43	510.42
650.78	507.71
651.12	505.33
651.46	503.13
651.80	500.95
652.14	498.55
652.49	496.53
652.83	494.33
653.17	491.84
653.51	489.34
653.85	487.13
654.20	484.49
654.54	482.11
654.88	479.65
655.22	477.07
655.56	474.90
655.90	472.68
656.25	470.47
656.59	468.26
656.93	466.41
657.27	464.28
657.61	462.17
657.95	460.27
658.29	458.21
658.64	456.13
658.98	454.00
659.32	451.61
659.66	449.38
660.00	447.29
660.34	445.30
660.68	443.34
661.02	441.29
661.36	439.41
661.70	437.58
662.05	435.94
662.39	434.30
662.73	432.20
663.07	430.52
663.41	428.68
663.75	426.82
664.09	424.88
664.43	423.03
664.77	421.44
665.11	419.80
665.45	418.01
665.79	416.16
666.13	414.20
666.47	412.77
666.81	411.19
667.15	409.40
667.49	407.70
667.83	406.10
668.17	404.55
668.51	402.90
668.85	401.28
669.19	399.60
669.53	397.88
669.87	396.30
670.21	394.71
670.55	393.10
670.89	391.77
671.23	390.42
671.57	389.12
671.91	387.63
672.25	386.01
672.58	384.65
672.92	383.26
673.26	382.05
673.60	380.49
673.94	379.09
674.28	377.81
674.62	376.56
674.96	375.01
675.30	373.80
675.64	372.54
675.97	371.10
676.31	369.91
676.65	368.71
676.99	367.60
677.33	366.19
677.67	364.91
678.01	363.53
678.34	362.10
678.68	360.74
679.02	359.51
679.36	358.31
679.70	357.10
680.04	355.93
680.37	354.69
680.71	353.55
681.05	352.46
681.39	351.41
681.73	350.34
682.06	349.42
682.40	348.21
682.74	347.14
683.08	346.17
683.42	344.92
683.75	343.68
684.09	342.65
684.43	341.56
684.77	340.50
685.10	339.30
685.44	338.25
685.78	337.25
686.12	336.13
686.45	335.01
686.79	333.85
687.13	332.86
687.46	331.91
687.80	330.83
688.14	329.65
688.48	328.60
688.81	327.49
689.15	326.44
689.49	325.40
689.82	324.39
690.16	323.33
690.50	322.43
690.83	321.50
691.17	320.45
691.51	319.45
691.84	318.62
692.18	317.72
692.52	316.78
692.85	315.84
693.19	314.98
693.52	314.30
693.86	313.43
694.20	312.53
694.53	311.62
694.87	310.77
695.21	309.90
695.54	308.96
695.88	308.10
696.21	307.34
696.55	306.52
696.88	305.77
697.22	304.91
697.56	304.01
697.89	303.09
698.23	302.26
698.56	301.59
698.90	300.68
699.23	299.80
699.57	298.96
699.90	298.18
700.24	297.26
700.58	296.33
700.91	295.69
701.25	295.12
701.58	294.38
701.92	293.70
702.25	292.93
702.59	292.26
702.92	291.45
703.26	290.78
703.59	290.03
703.93	289.48
704.26	288.92
704.60	288.36
704.93	287.73
705.26	287.18
705.60	286.50
705.93	285.88
706.27	285.42
706.60	284.94
706.94	284.37
707.27	283.72
707.61	283.21
707.94	282.59
708.27	281.81
708.61	281.15
708.94	280.59
709.28	280.09
709.61	279.61
709.94	279.29
710.28	278.61
710.61	278.11
710.95	277.36
711.28	276.85
711.61	276.29
711.95	275.85
712.28	275.33
712.61	274.75
712.95	274.29
713.28	273.81
713.61	273.25
713.95	272.63
714.28	272.26
714.61	271.83
714.95	271.25
715.28	270.77
715.61	270.34
715.95	269.88
716.28	269.48
716.61	269.00
716.95	268.43
717.28	267.99
717.61	267.58
717.94	267.24
718.28	266.69
718.61	266.38
718.94	265.96
719.27	265.49
719.61	265.14
719.94	264.76
720.27	264.25
720.60	263.89
720.94	263.67
721.27	263.39
721.60	263.06
721.93	262.79
722.27	262.35
722.60	262.03
722.93	261.66
723.26	261.35
723.59	261.06
723.93	260.80
724.26	260.52
724.59	260.12
724.92	259.83
725.25	259.59
725.59	259.20
725.92	258.93
726.25	258.65
726.58	258.32
726.91	258.03
727.24	257.83
727.57	257.57
727.91	257.19
728.24	256.77
728.57	256.41
728.90	256.14
729.23	255.94
729.56	255.78
729.89	255.49
730.22	255.12
730.55	254.82
730.89	254.49
731.22	254.26
731.55	254.00
731.88	253.69
732.21	253.34
732.54	253.10
732.87	252.90
733.20	252.65
733.53	252.30
733.86	252.08
734.19	251.86
734.52	251.71
734.85	251.65
735.18	251.44
735.51	251.24
735.84	251.00
736.17	250.87
736.50	250.47
736.83	250.43
737.16	250.15
737.49	250.01
737.82	249.72
738.15	249.54
738.48	249.37
738.81	249.16
739.14	249.08
739.47	248.88
739.80	248.66
740.13	248.48
740.46	248.51
740.79	248.20
741.12	247.83
741.45	247.50
741.78	247.11
742.11	247.00
742.44	246.77
742.77	246.56
743.10	246.27
743.43	246.08
743.75	245.70
744.08	245.83
744.41	245.59
744.74	245.51
745.07	245.21
745.40	245.13
745.73	244.81
746.06	244.56
746.39	244.37
746.71	244.10
747.04	243.89
747.37	243.57
747.70	243.51
748.03	243.40
748.36	243.20
748.68	243.03
749.01	242.79
749.34	242.64
749.67	242.50
750.00	242.45
750.33	242.44
750.65	242.36
750.98	242.00
751.31	241.73
751.64	241.57
751.97	241.61
752.29	241.38
752.62	241.23
752.95	241.11
753.28	240.96
753.60	240.84
753.93	240.73
754.26	240.58
754.59	240.37
754.91	240.26
755.24	240.13
755.57	240.08
755.90	239.92
756.22	239.70
756.55	239.53
756.88	239.20
757.20	238.95
757.53	238.81
757.86	238.72
758.19	238.68
758.51	238.56
758.84	238.34
759.17	238.24
759.49	238.23
759.82	238.15
760.15	238.03
760.47	237.94
760.80	237.87
761.13	237.79
761.45	237.70
761.78	237.57
762.11	237.57
762.43	237.44
762.76	237.48
763.08	237.43
763.41	237.34
763.74	237.38
764.06	237.29
764.39	237.22
764.71	237.18
765.04	237.07
765.37	237.01
765.69	236.98
766.02	236.94
766.34	236.80
766.67	236.66
767.00	236.60
767.32	236.56
767.65	236.58
767.97	236.53
768.30	236.48
768.62	236.46
768.95	236.29
769.27	236.17
769.60	236.05
769.92	235.97
770.25	235.99
770.57	235.87
770.90	235.84
771.22	235.60
771.55	235.48
771.87	235.41
772.20	235.33
772.52	235.41
772.85	235.55
773.17	235.60
773.50	235.56
773.82	235.52
774.15	235.41
774.47	235.25
774.80	235.20
775.12	235.01
775.45	234.91
775.77	234.87
776.09	234.87
776.42	234.79
776.74	234.88
777.07	234.79
777.39	234.70
777.72	234.54
778.04	234.63
778.36	234.47
778.69	234.44
779.01	234.41
779.33	234.20
779.66	233.86
779.98	233.69
780.31	233.69
780.63	233.63
780.95	233.63
781.28	233.57
781.60	233.51
781.92	233.60
782.25	233.58
782.57	233.54
782.89	233.50
783.22	233.37
783.54	233.14
783.86	233.08
784.19	233.07
784.51	233.14
784.83	233.03
785.16	232.97
785.48	232.99
785.80	232.94
786.12	232.95
786.45	232.86
786.77	232.80
787.09	232.73
787.42	232.64
787.74	232.52
788.06	232.47
788.38	232.39
788.71	232.23
789.03	232.23
789.35	232.19
789.67	232.07
789.99	232.10
790.32	232.17
790.64	232.10
790.96	232.16
791.28	232.08
791.61	232.00
791.93	232.00
792.25	231.95
792.57	232.09
792.89	231.90
793.21	231.94
793.54	231.97
793.86	231.80
794.18	231.83
