SpectraSuite Data File
++++++++++++++++++++++++++++++++++++
Date: Fri Feb 01 14:37:05 EST 2013
User: group
Dark Spectrum Present: No
Reference Spectrum Present: No
Number of Sampled Component Spectra: 1
Spectrometers: USB2E7196
Integration Time (usec): 70000 (USB2E7196)
Spectra Averaged: 10 (USB2E7196)
Boxcar Smoothing: 10 (USB2E7196)
Correct for Electrical Dark: No (USB2E7196)
Strobe/Lamp Enabled: No (USB2E7196)
Correct for Detector Non-linearity: No (USB2E7196)
Correct for Stray Light: No (USB2E7196)
Number of Pixels in Processed Spectrum: 2048
>>>>>Begin Processed Spectral Data<<<<<
339.09	0.00
339.48	216.60
339.86	218.00
340.24	220.00
340.63	221.70
341.01	224.00
341.39	222.50
341.78	224.80
342.16	225.30
342.54	226.90
342.93	215.02
343.31	225.93
343.69	226.50
344.07	226.95
344.46	227.31
344.84	227.68
345.22	227.83
345.60	228.16
345.99	228.19
346.37	228.38
346.75	228.41
347.13	228.52
347.52	228.52
347.90	228.62
348.28	228.62
348.66	228.76
349.05	228.73
349.43	228.70
349.81	228.62
350.19	228.56
350.57	228.54
350.96	228.61
351.34	228.60
351.72	228.51
352.10	228.67
352.48	228.69
352.87	228.72
353.25	228.75
353.63	228.68
354.01	228.90
354.39	228.83
354.77	228.93
355.15	228.98
355.54	229.04
355.92	228.96
356.30	229.10
356.68	229.10
357.06	229.01
357.44	229.02
357.82	229.18
358.20	229.20
358.58	229.18
358.97	229.22
359.35	229.33
359.73	229.52
360.11	229.48
360.49	229.56
360.87	229.59
361.25	229.72
361.63	229.82
362.01	229.84
362.39	229.84
362.77	229.87
363.15	229.98
363.53	229.90
363.91	229.90
364.29	229.79
364.67	229.73
365.05	229.89
365.43	229.91
365.81	229.93
366.19	230.08
366.57	230.05
366.95	229.94
367.33	229.77
367.71	229.69
368.09	229.65
368.47	229.55
368.85	229.54
369.23	229.50
369.61	229.45
369.99	229.38
370.37	229.50
370.75	229.48
371.13	229.30
371.51	229.26
371.89	229.34
372.27	229.41
372.65	229.34
373.03	229.28
373.41	229.12
373.78	229.12
374.16	228.96
374.54	229.00
374.92	228.92
375.30	228.96
375.68	228.87
376.06	228.75
376.44	228.71
376.82	228.64
377.19	228.61
377.57	228.42
377.95	228.32
378.33	228.26
378.71	228.08
379.09	228.07
379.47	228.05
379.84	227.87
380.22	227.70
380.60	227.57
380.98	227.51
381.36	227.55
381.73	227.37
382.11	227.30
382.49	227.29
382.87	227.35
383.25	227.20
383.62	227.44
384.00	227.45
384.38	227.36
384.76	227.42
385.13	227.38
385.51	227.51
385.89	227.43
386.27	227.28
386.64	227.30
387.02	227.21
387.40	227.21
387.78	227.18
388.15	227.17
388.53	227.17
388.91	227.05
389.29	227.00
389.66	226.95
390.04	226.85
390.42	226.79
390.79	226.70
391.17	226.71
391.55	226.55
391.92	226.52
392.30	226.66
392.68	226.56
393.05	226.68
393.43	226.67
393.81	226.70
394.18	226.78
394.56	226.83
394.94	226.92
395.31	226.95
395.69	227.00
396.06	227.12
396.44	227.21
396.82	227.23
397.19	227.42
397.57	227.48
397.95	227.61
398.32	227.64
398.70	227.70
399.07	227.90
399.45	227.86
399.82	227.96
400.20	228.02
400.58	228.14
400.95	228.13
401.33	228.25
401.70	228.50
402.08	228.56
402.45	228.65
402.83	228.80
403.20	228.95
403.58	229.13
403.95	229.26
404.33	229.44
404.71	229.70
405.08	229.93
405.46	230.21
405.83	230.48
406.21	230.74
406.58	231.12
406.96	231.33
407.33	231.62
407.70	231.90
408.08	232.37
408.45	232.59
408.83	232.85
409.20	233.13
409.58	233.50
409.95	233.94
410.33	234.39
410.70	234.85
411.08	235.22
411.45	235.75
411.82	236.27
412.20	236.83
412.57	237.50
412.95	237.87
413.32	238.50
413.69	239.22
414.07	240.06
414.44	240.70
414.82	241.48
415.19	242.44
415.56	243.42
415.94	244.29
416.31	245.49
416.68	246.69
417.06	247.90
417.43	249.14
417.81	250.53
418.18	251.86
418.55	253.25
418.93	254.89
419.30	256.48
419.67	258.15
420.04	259.89
420.42	261.62
420.79	263.82
421.16	265.99
421.54	268.20
421.91	270.41
422.28	272.89
422.66	275.38
423.03	277.86
423.40	280.50
423.77	283.20
424.15	285.90
424.52	288.62
424.89	291.86
425.26	294.84
425.64	297.64
426.01	300.85
426.38	304.12
426.75	307.49
427.13	310.90
427.50	314.34
427.87	318.08
428.24	322.03
428.61	325.63
428.99	329.52
429.36	333.71
429.73	337.79
430.10	341.90
430.47	346.14
430.85	350.46
431.22	354.99
431.59	359.93
431.96	364.68
432.33	369.91
432.70	374.69
433.08	380.45
433.45	385.98
433.82	391.48
434.19	397.51
434.56	403.38
434.93	409.01
435.30	414.91
435.68	421.21
436.05	427.12
436.42	433.26
436.79	438.87
437.16	444.65
437.53	450.85
437.90	457.06
438.27	463.22
438.64	469.49
439.01	475.38
439.38	480.50
439.75	485.40
440.13	491.09
440.50	496.63
440.87	501.07
441.24	505.71
441.61	510.89
441.98	514.83
442.35	519.35
442.72	524.13
443.09	528.45
443.46	531.35
443.83	533.54
444.20	535.31
444.57	537.87
444.94	539.49
445.31	541.17
445.68	542.75
446.05	543.78
446.42	543.81
446.79	543.63
447.16	543.44
447.53	543.80
447.90	542.17
448.27	540.70
448.64	538.24
449.01	536.62
449.37	533.12
449.74	529.67
450.11	525.45
450.48	520.77
450.85	516.02
451.22	511.97
451.59	508.19
451.96	504.39
452.33	499.36
452.70	494.82
453.07	489.27
453.43	483.38
453.80	477.77
454.17	472.42
454.54	467.52
454.91	462.04
455.28	456.46
455.65	451.36
456.02	446.17
456.38	441.77
456.75	436.14
457.12	431.49
457.49	426.89
457.86	422.52
458.23	418.68
458.59	414.52
458.96	410.13
459.33	406.13
459.70	402.46
460.07	399.20
460.43	395.53
460.80	391.94
461.17	389.05
461.54	385.89
461.91	382.81
462.27	379.43
462.64	376.91
463.01	374.05
463.38	371.37
463.74	368.54
464.11	366.06
464.48	363.99
464.85	361.62
465.21	359.98
465.58	357.94
465.95	355.58
466.32	353.57
466.68	351.54
467.05	349.61
467.42	347.60
467.78	345.54
468.15	343.58
468.52	342.06
468.88	340.18
469.25	338.40
469.62	337.10
469.98	335.77
470.35	334.25
470.72	332.79
471.08	331.34
471.45	330.05
471.82	328.75
472.18	327.18
472.55	326.09
472.92	324.72
473.28	323.77
473.65	322.57
474.02	321.54
474.38	320.59
474.75	319.82
475.11	319.00
475.48	318.24
475.85	317.54
476.21	316.91
476.58	316.19
476.94	315.76
477.31	315.09
477.67	314.50
478.04	313.92
478.41	313.57
478.77	313.43
479.14	312.94
479.50	312.53
479.87	312.49
480.23	312.31
480.60	311.96
480.96	311.57
481.33	311.62
481.69	311.53
482.06	311.52
482.42	311.24
482.79	311.13
483.15	311.31
483.52	311.45
483.88	311.56
484.25	311.52
484.61	311.55
484.98	311.69
485.34	311.98
485.71	312.28
486.07	312.49
486.44	312.48
486.80	312.78
487.17	313.32
487.53	313.86
487.90	314.18
488.26	314.80
488.62	315.40
488.99	315.80
489.35	316.32
489.72	316.83
490.08	317.55
490.44	318.04
490.81	318.71
491.17	319.29
491.54	320.00
491.90	320.86
492.26	321.74
492.63	322.64
492.99	323.42
493.36	324.19
493.72	325.14
494.08	326.16
494.45	327.10
494.81	327.96
495.17	328.76
495.54	329.82
495.90	330.82
496.26	331.80
496.63	332.86
496.99	333.82
497.35	334.96
497.72	336.05
498.08	337.14
498.44	338.03
498.80	339.18
499.17	340.20
499.53	341.19
499.89	342.14
500.26	343.01
500.62	343.89
500.98	344.98
501.34	345.73
501.71	346.62
502.07	347.61
502.43	348.49
502.79	349.43
503.16	350.25
503.52	350.98
503.88	351.63
504.24	352.46
504.60	353.26
504.97	354.02
505.33	354.66
505.69	355.43
506.05	356.16
506.41	356.71
506.78	357.37
507.14	357.90
507.50	358.38
507.86	359.02
508.22	359.58
508.59	359.95
508.95	360.45
509.31	360.93
509.67	361.33
510.03	361.66
510.39	361.99
510.75	362.31
511.12	362.50
511.48	362.90
511.84	363.03
512.20	363.21
512.56	363.35
512.92	363.57
513.28	363.50
513.64	363.64
514.00	363.71
514.37	363.80
514.73	363.86
515.09	363.90
515.45	363.94
515.81	363.87
516.17	363.99
516.53	363.92
516.89	363.84
517.25	363.76
517.61	363.85
517.97	363.66
518.33	363.62
518.69	363.81
519.05	363.85
519.41	363.98
519.77	364.24
520.13	364.41
520.49	364.60
520.85	364.95
521.21	365.20
521.57	365.49
521.93	365.70
522.29	366.43
522.65	366.86
523.01	367.16
523.37	367.65
523.73	368.04
524.09	368.69
524.45	369.50
524.81	370.38
525.17	371.19
525.53	372.36
525.89	373.35
526.25	374.41
526.61	375.35
526.97	376.43
527.33	377.48
527.68	378.82
528.04	380.03
528.40	381.54
528.76	382.93
529.12	384.60
529.48	386.42
529.84	387.73
530.20	389.68
530.56	391.66
530.91	393.82
531.27	396.08
531.63	398.24
531.99	400.25
532.35	402.43
532.71	404.69
533.07	407.00
533.42	409.65
533.78	412.11
534.14	414.83
534.50	417.39
534.86	420.17
535.21	422.71
535.57	425.72
535.93	428.58
536.29	431.60
536.65	434.71
537.00	437.65
537.36	441.13
537.72	444.28
538.08	447.70
538.44	451.00
538.79	454.40
539.15	457.94
539.51	461.65
539.87	465.50
540.22	469.19
540.58	473.00
540.94	476.75
541.29	480.62
541.65	484.35
542.01	488.51
542.37	492.60
542.72	496.77
543.08	500.93
543.44	505.24
543.79	509.17
544.15	513.25
544.51	517.79
544.87	522.07
545.22	526.36
545.58	530.65
545.94	534.85
546.29	539.10
546.65	543.53
547.01	547.76
547.36	551.84
547.72	556.11
548.07	560.53
548.43	564.70
548.79	569.09
549.14	573.63
549.50	577.97
549.86	582.20
550.21	586.69
550.57	591.23
550.92	595.42
551.28	599.92
551.64	604.38
551.99	608.80
552.35	613.16
552.70	617.69
553.06	622.14
553.41	626.72
553.77	631.37
554.13	635.88
554.48	640.55
554.84	644.99
555.19	649.66
555.55	654.11
555.90	658.68
556.26	663.26
556.61	667.65
556.97	671.93
557.32	676.43
557.68	680.87
558.03	685.08
558.39	689.53
558.74	694.30
559.10	698.56
559.45	702.59
559.81	706.98
560.16	711.10
560.52	715.25
560.87	719.54
561.23	723.54
561.58	727.73
561.94	731.71
562.29	736.06
562.64	739.93
563.00	743.72
563.35	747.90
563.71	751.86
564.06	755.88
564.42	760.00
564.77	763.83
565.12	767.72
565.48	771.80
565.83	775.57
566.19	779.48
566.54	783.31
566.89	787.10
567.25	790.73
567.60	794.47
567.96	798.06
568.31	801.34
568.66	804.74
569.02	807.96
569.37	811.11
569.72	814.37
570.08	817.52
570.43	820.82
570.78	823.80
571.14	826.56
571.49	829.34
571.84	832.38
572.20	835.08
572.55	837.82
572.90	839.81
573.26	842.26
573.61	844.32
573.96	846.94
574.31	848.90
574.67	850.39
575.02	851.99
575.37	853.97
575.72	855.69
576.08	857.55
576.43	859.24
576.78	860.98
577.13	862.69
577.49	864.55
577.84	866.11
578.19	867.23
578.54	868.75
578.90	869.99
579.25	870.80
579.60	872.02
579.95	872.73
580.30	873.91
580.66	874.74
581.01	875.28
581.36	875.67
581.71	876.73
582.06	878.36
582.42	879.18
582.77	879.85
583.12	880.52
583.47	881.14
583.82	881.55
584.17	882.06
584.53	882.27
584.88	882.50
585.23	882.81
585.58	883.37
585.93	883.65
586.28	884.21
586.63	884.60
586.98	884.82
587.34	885.09
587.69	885.31
588.04	885.58
588.39	885.90
588.74	885.62
589.09	885.37
589.44	884.51
589.79	884.48
590.14	884.51
590.49	884.41
590.84	884.05
591.19	883.92
591.54	883.26
591.89	882.18
592.25	881.51
592.60	880.40
592.95	879.30
593.30	878.16
593.65	877.11
594.00	876.24
594.35	875.62
594.70	874.49
595.05	873.62
595.40	872.29
595.75	871.29
596.10	870.55
596.45	869.72
596.80	869.23
597.15	868.28
597.50	866.82
597.85	865.80
598.19	864.81
598.54	863.74
598.89	862.79
599.24	862.20
599.59	861.21
599.94	860.58
600.29	859.51
600.64	858.53
600.99	857.01
601.34	855.64
601.69	853.84
602.04	852.50
602.39	850.98
602.74	849.86
603.08	848.57
603.43	847.48
603.78	845.93
604.13	844.13
604.48	842.64
604.83	841.44
605.18	839.88
605.53	838.00
605.87	835.76
606.22	833.96
606.57	831.95
606.92	830.04
607.27	828.04
607.62	826.56
607.96	824.94
608.31	823.30
608.66	821.51
609.01	819.53
609.36	817.63
609.70	815.30
610.05	813.14
610.40	810.93
610.75	808.35
611.10	805.78
611.44	803.47
611.79	800.99
612.14	798.39
612.49	795.60
612.83	793.03
613.18	790.90
613.53	788.41
613.88	785.97
614.22	783.45
614.57	780.95
614.92	778.07
615.27	775.25
615.61	772.60
615.96	769.83
616.31	767.40
616.65	765.30
617.00	763.10
617.35	760.81
617.70	758.12
618.04	755.45
618.39	753.03
618.74	750.56
619.08	747.97
619.43	745.37
619.78	743.27
620.12	740.83
620.47	738.21
620.82	735.66
621.16	733.15
621.51	730.90
621.85	728.37
622.20	725.79
622.55	723.45
622.89	720.99
623.24	718.50
623.59	716.14
623.93	713.41
624.28	710.85
624.62	708.20
624.97	705.99
625.32	703.82
625.66	701.65
626.01	699.11
626.35	696.53
626.70	694.10
627.04	691.57
627.39	688.90
627.73	686.39
628.08	683.97
628.43	681.58
628.77	678.99
629.12	676.32
629.46	674.05
629.81	671.07
630.15	668.26
630.50	665.63
630.84	662.79
631.19	659.95
631.53	657.16
631.88	654.20
632.22	651.09
632.57	648.24
632.91	645.10
633.26	642.25
633.60	639.58
633.95	636.70
634.29	633.98
634.64	631.61
634.98	629.05
635.32	626.44
635.67	623.72
636.01	620.98
636.36	618.35
636.70	615.74
637.05	613.68
637.39	611.35
637.73	609.00
638.08	606.69
638.42	604.56
638.77	602.27
639.11	599.89
639.45	597.55
639.80	595.06
640.14	592.92
640.49	590.64
640.83	588.22
641.17	586.08
641.52	583.86
641.86	581.51
642.20	579.13
642.55	576.79
642.89	574.42
643.23	572.04
643.58	570.05
643.92	567.48
644.26	564.85
644.61	562.73
644.95	560.33
645.29	557.71
645.64	554.79
645.98	552.35
646.32	550.15
646.66	547.88
647.01	545.48
647.35	543.25
647.69	541.17
648.04	539.05
648.38	536.61
648.72	533.85
649.06	531.27
649.41	528.84
649.75	526.22
650.09	523.81
650.43	521.30
650.78	518.48
651.12	516.31
651.46	514.06
651.80	511.52
652.14	509.15
652.49	507.03
652.83	505.06
653.17	502.78
653.51	500.29
653.85	497.96
654.20	495.79
654.54	493.19
654.88	490.62
655.22	488.16
655.56	485.72
655.90	483.68
656.25	481.48
656.59	479.40
656.93	477.42
657.27	475.28
657.61	473.00
657.95	470.99
658.29	468.62
658.64	466.38
658.98	464.21
659.32	462.00
659.66	459.80
660.00	457.60
660.34	455.31
660.68	453.42
661.02	451.19
661.36	449.07
661.70	447.26
662.05	445.39
662.39	443.57
662.73	441.59
663.07	439.84
663.41	437.91
663.75	435.90
664.09	433.94
664.43	432.10
664.77	430.36
665.11	428.41
665.45	426.74
665.79	425.03
666.13	423.37
666.47	421.55
666.81	419.83
667.15	417.95
667.49	416.31
667.83	414.53
668.17	412.88
668.51	411.12
668.85	409.40
669.19	407.68
669.53	406.06
669.87	404.47
670.21	402.45
670.55	400.83
670.89	399.41
671.23	397.83
671.57	396.28
671.91	394.74
672.25	393.39
672.58	391.93
672.92	390.40
673.26	388.84
673.60	387.56
673.94	385.99
674.28	384.66
674.62	383.30
674.96	382.04
675.30	380.85
675.64	379.52
675.97	378.16
676.31	376.80
676.65	375.23
676.99	373.89
677.33	372.61
677.67	371.35
678.01	369.71
678.34	368.40
678.68	367.16
679.02	365.79
679.36	364.43
679.70	363.08
680.04	361.58
680.37	360.35
680.71	358.98
681.05	357.86
681.39	356.65
681.73	355.43
682.06	354.16
682.40	352.82
682.74	351.58
683.08	350.37
683.42	349.09
683.75	348.06
684.09	346.85
684.43	345.87
684.77	344.70
685.10	343.70
685.44	342.58
685.78	341.48
686.12	340.50
686.45	339.37
686.79	338.21
687.13	337.32
687.46	336.25
687.80	335.26
688.14	334.13
688.48	333.08
688.81	331.99
689.15	330.91
689.49	329.93
689.82	329.02
690.16	328.02
690.50	327.20
690.83	326.13
691.17	325.27
691.51	324.20
691.84	323.35
692.18	322.38
692.52	321.36
692.85	320.30
693.19	319.24
693.52	318.19
693.86	317.20
694.20	316.25
694.53	315.26
694.87	314.29
695.21	313.30
695.54	312.34
695.88	311.45
696.21	310.58
696.55	309.65
696.88	308.78
697.22	307.86
697.56	306.94
697.89	306.24
698.23	305.22
698.56	304.38
698.90	303.41
699.23	302.55
699.57	301.80
699.90	300.90
700.24	300.13
700.58	299.50
700.91	298.83
701.25	298.19
701.58	297.50
701.92	296.68
702.25	296.07
702.59	295.36
702.92	294.55
703.26	293.77
703.59	293.09
703.93	292.54
704.26	291.87
704.60	291.16
704.93	290.43
705.26	289.88
705.60	289.22
705.93	288.62
706.27	288.15
706.60	287.58
706.94	287.10
707.27	286.33
707.61	285.60
707.94	284.90
708.27	284.20
708.61	283.54
708.94	282.94
709.28	282.32
709.61	281.81
709.94	281.39
710.28	280.84
710.61	280.16
710.95	279.47
711.28	279.03
711.61	278.50
711.95	277.85
712.28	277.24
712.61	276.71
712.95	276.26
713.28	275.72
713.61	275.09
713.95	274.47
714.28	274.11
714.61	273.64
714.95	273.28
715.28	272.78
715.61	272.23
715.95	271.82
716.28	271.30
716.61	270.75
716.95	270.21
717.28	269.87
717.61	269.50
717.94	269.01
718.28	268.44
718.61	268.00
718.94	267.72
719.27	267.28
719.61	266.92
719.94	266.48
720.27	265.96
720.60	265.48
720.94	265.20
721.27	264.78
721.60	264.57
721.93	264.18
722.27	263.83
722.60	263.60
722.93	263.29
723.26	263.00
723.59	262.67
723.93	262.31
724.26	261.90
724.59	261.50
724.92	261.16
725.25	260.88
725.59	260.52
725.92	260.09
726.25	259.80
726.58	259.48
726.91	259.17
727.24	258.81
727.57	258.75
727.91	258.42
728.24	258.20
728.57	257.80
728.90	257.44
729.23	257.09
729.56	256.83
729.89	256.44
730.22	256.11
730.55	255.82
730.89	255.54
731.22	255.30
731.55	255.06
731.88	254.89
732.21	254.57
732.54	254.30
732.87	254.04
733.20	253.90
733.53	253.53
733.86	253.29
734.19	253.16
734.52	252.80
734.85	252.73
735.18	252.38
735.51	252.16
735.84	251.97
736.17	251.79
736.50	251.55
736.83	251.58
737.16	251.37
737.49	251.15
737.82	250.91
738.15	250.61
738.48	250.36
738.81	249.91
739.14	249.70
739.47	249.42
739.80	249.18
740.13	248.90
740.46	248.68
740.79	248.50
741.12	248.26
741.45	247.95
741.78	247.51
742.11	247.34
742.44	247.09
742.77	246.97
743.10	246.81
743.43	246.47
743.75	246.10
744.08	246.10
744.41	245.85
744.74	245.69
745.07	245.46
745.40	245.34
745.73	245.40
746.06	245.19
746.39	245.10
746.71	244.99
747.04	244.73
747.37	244.56
747.70	244.44
748.03	244.19
748.36	244.09
748.68	243.94
749.01	243.80
749.34	243.63
749.67	243.39
750.00	243.18
750.33	243.20
750.65	243.08
750.98	242.72
751.31	242.58
751.64	242.44
751.97	242.35
752.29	242.17
752.62	241.86
752.95	241.76
753.28	241.50
753.60	241.21
753.93	241.08
754.26	240.90
754.59	240.59
754.91	240.48
755.24	240.35
755.57	240.07
755.90	239.88
756.22	239.78
756.55	239.52
756.88	239.29
757.20	239.03
757.53	238.80
757.86	238.71
758.19	238.67
758.51	238.62
758.84	238.43
759.17	238.33
759.49	238.28
759.82	238.30
760.15	238.20
760.47	238.15
760.80	237.99
761.13	237.99
761.45	237.93
761.78	237.89
762.11	237.80
762.43	237.86
762.76	237.80
763.08	237.69
763.41	237.57
763.74	237.58
764.06	237.40
764.39	237.30
764.71	237.16
765.04	236.95
765.37	236.81
765.69	236.74
766.02	236.61
766.34	236.50
766.67	236.28
767.00	236.31
767.32	236.36
767.65	236.48
767.97	236.35
768.30	236.20
768.62	236.19
768.95	236.03
769.27	236.03
769.60	235.98
769.92	235.89
770.25	235.90
770.57	235.65
770.90	235.59
771.22	235.55
771.55	235.41
771.87	235.42
772.20	235.32
772.52	235.43
772.85	235.63
773.17	235.60
773.50	235.47
773.82	235.31
774.15	235.14
774.47	234.92
774.80	234.91
775.12	234.87
775.45	234.75
775.77	234.69
776.09	234.58
776.42	234.48
776.74	234.42
777.07	234.35
777.39	234.32
777.72	234.34
778.04	234.22
778.36	234.09
778.69	234.04
779.01	233.90
779.33	233.62
779.66	233.34
779.98	233.21
780.31	233.18
780.63	233.24
780.95	233.18
781.28	233.10
781.60	233.00
781.92	233.00
782.25	232.85
782.57	232.88
782.89	232.79
783.22	232.73
783.54	232.60
783.86	232.52
784.19	232.53
784.51	232.45
784.83	232.40
785.16	232.40
785.48	232.32
785.80	232.32
786.12	232.23
786.45	232.17
786.77	232.12
787.09	232.12
787.42	232.07
787.74	232.01
788.06	232.07
788.38	231.98
788.71	231.91
789.03	231.93
789.35	231.92
789.67	231.87
789.99	231.87
790.32	231.84
790.64	231.87
790.96	232.01
791.28	231.95
791.61	231.97
791.93	232.06
792.25	232.00
792.57	232.17
792.89	232.19
793.21	232.10
793.54	232.00
793.86	231.85
794.18	231.66
