SpectraSuite Data File
++++++++++++++++++++++++++++++++++++
Date: Fri Feb 01 14:40:31 EST 2013
User: group
Dark Spectrum Present: No
Reference Spectrum Present: No
Number of Sampled Component Spectra: 1
Spectrometers: USB2E7196
Integration Time (usec): 70000 (USB2E7196)
Spectra Averaged: 10 (USB2E7196)
Boxcar Smoothing: 10 (USB2E7196)
Correct for Electrical Dark: No (USB2E7196)
Strobe/Lamp Enabled: No (USB2E7196)
Correct for Detector Non-linearity: No (USB2E7196)
Correct for Stray Light: No (USB2E7196)
Number of Pixels in Processed Spectrum: 2048
>>>>>Begin Processed Spectral Data<<<<<
339.09	0.00
339.48	216.90
339.86	216.70
340.24	220.20
340.63	220.70
341.01	224.20
341.39	223.50
341.78	224.90
342.16	227.60
342.54	227.00
342.93	214.87
343.31	225.76
343.69	226.34
344.07	226.88
344.46	227.27
344.84	227.68
345.22	227.88
345.60	228.14
345.99	228.39
346.37	228.34
346.75	228.45
347.13	228.64
347.52	228.66
347.90	228.81
348.28	228.82
348.66	228.76
349.05	228.72
349.43	228.73
349.81	228.71
350.19	228.80
350.57	228.85
350.96	228.90
351.34	228.92
351.72	228.82
352.10	228.89
352.48	228.90
352.87	228.89
353.25	228.99
353.63	228.97
354.01	228.94
354.39	229.07
354.77	229.13
355.15	229.15
355.54	229.25
355.92	229.22
356.30	229.30
356.68	229.64
357.06	229.70
357.44	229.63
357.82	229.74
358.20	229.78
358.58	229.82
358.97	229.87
359.35	229.96
359.73	230.10
360.11	230.29
360.49	230.28
360.87	230.23
361.25	230.30
361.63	230.39
362.01	230.38
362.39	230.40
362.77	230.35
363.15	230.39
363.53	230.33
363.91	230.30
364.29	230.36
364.67	230.10
365.05	230.14
365.43	230.23
365.81	230.33
366.19	230.40
366.57	230.41
366.95	230.41
367.33	230.26
367.71	230.32
368.09	230.19
368.47	230.28
368.85	230.42
369.23	230.34
369.61	230.36
369.99	230.46
370.37	230.53
370.75	230.64
371.13	230.54
371.51	230.49
371.89	230.57
372.27	230.46
372.65	230.45
373.03	230.36
373.41	230.39
373.78	230.26
374.16	230.09
374.54	229.99
374.92	229.87
375.30	229.90
375.68	229.82
376.06	229.72
376.44	229.64
376.82	229.50
377.19	229.43
377.57	229.29
377.95	229.10
378.33	229.00
378.71	228.78
379.09	228.80
379.47	228.83
379.84	228.71
380.22	228.71
380.60	228.63
380.98	228.57
381.36	228.37
381.73	228.28
382.11	228.19
382.49	228.13
382.87	228.08
383.25	228.02
383.62	228.16
384.00	228.12
384.38	228.04
384.76	228.02
385.13	228.09
385.51	228.07
385.89	228.05
386.27	227.99
386.64	228.01
387.02	228.00
387.40	227.87
387.78	227.74
388.15	227.66
388.53	227.54
388.91	227.58
389.29	227.67
389.66	227.69
390.04	227.75
390.42	227.74
390.79	227.86
391.17	227.88
391.55	227.64
391.92	227.55
392.30	227.54
392.68	227.54
393.05	227.50
393.43	227.47
393.81	227.47
394.18	227.44
394.56	227.43
394.94	227.46
395.31	227.46
395.69	227.63
396.06	227.69
396.44	227.84
396.82	227.89
397.19	227.99
397.57	228.00
397.95	228.07
398.32	228.13
398.70	228.14
399.07	228.22
399.45	228.32
399.82	228.42
400.20	228.48
400.58	228.55
400.95	228.57
401.33	228.67
401.70	228.87
402.08	228.89
402.45	228.94
402.83	229.08
403.20	229.18
403.58	229.27
403.95	229.34
404.33	229.46
404.71	229.62
405.08	229.81
405.46	229.93
405.83	230.10
406.21	230.37
406.58	230.48
406.96	230.66
407.33	230.87
407.70	231.07
408.08	231.43
408.45	231.69
408.83	231.88
409.20	232.16
409.58	232.45
409.95	232.80
410.33	233.22
410.70	233.38
411.08	233.69
411.45	233.95
411.82	234.32
412.20	234.63
412.57	235.11
412.95	235.21
413.32	235.66
413.69	235.91
414.07	236.32
414.44	236.75
414.82	237.19
415.19	237.66
415.56	238.33
415.94	238.84
416.31	239.39
416.68	240.06
417.06	240.71
417.43	241.29
417.81	242.04
418.18	242.72
418.55	243.57
418.93	244.38
419.30	245.22
419.67	246.07
420.04	247.13
420.42	247.99
420.79	249.32
421.16	250.39
421.54	251.73
421.91	252.94
422.28	254.23
422.66	255.56
423.03	256.91
423.40	258.15
423.77	259.58
424.15	260.99
424.52	262.48
424.89	264.15
425.26	265.66
425.64	267.22
426.01	268.71
426.38	270.42
426.75	272.13
427.13	273.89
427.50	275.74
427.87	277.53
428.24	279.26
428.61	280.81
428.99	282.86
429.36	284.95
429.73	286.93
430.10	288.87
430.47	290.89
430.85	292.92
431.22	295.26
431.59	297.52
431.96	299.82
432.33	302.21
432.70	304.41
433.08	307.31
433.45	309.74
433.82	312.35
434.19	315.09
434.56	317.93
434.93	320.54
435.30	323.12
435.68	325.94
436.05	328.87
436.42	331.72
436.79	334.28
437.16	336.98
437.53	339.92
437.90	342.62
438.27	345.46
438.64	348.36
439.01	350.87
439.38	353.17
439.75	355.30
440.13	357.74
440.50	360.12
440.87	362.02
441.24	364.08
441.61	366.24
441.98	367.87
442.35	369.63
442.72	371.55
443.09	373.48
443.46	374.56
443.83	375.19
444.20	375.65
444.57	376.35
444.94	376.60
445.31	376.80
445.68	377.56
446.05	377.54
446.42	377.13
446.79	376.59
447.16	376.13
447.53	375.97
447.90	375.04
448.27	373.90
448.64	372.26
449.01	371.20
449.37	369.24
449.74	367.34
450.11	365.19
450.48	362.62
450.85	359.94
451.22	357.77
451.59	355.69
451.96	353.77
452.33	351.12
452.70	348.76
453.07	346.01
453.43	342.90
453.80	340.17
454.17	337.50
454.54	335.06
454.91	332.31
455.28	329.53
455.65	326.87
456.02	324.73
456.38	322.56
456.75	319.84
457.12	317.71
457.49	315.37
457.86	313.02
458.23	311.21
458.59	309.25
458.96	307.23
459.33	305.46
459.70	303.65
460.07	302.25
460.43	300.49
460.80	298.85
461.17	297.33
461.54	295.77
461.91	294.28
462.27	292.74
462.64	291.49
463.01	290.13
463.38	288.93
463.74	287.26
464.11	286.05
464.48	284.97
464.85	283.69
465.21	282.87
465.58	282.08
465.95	280.90
466.32	279.97
466.68	278.82
467.05	277.85
467.42	276.84
467.78	275.77
468.15	274.88
468.52	274.18
468.88	273.30
469.25	272.48
469.62	271.82
469.98	271.10
470.35	270.34
470.72	269.48
471.08	268.74
471.45	268.14
471.82	267.39
472.18	266.63
472.55	266.11
472.92	265.42
473.28	264.68
473.65	264.11
474.02	263.38
474.38	263.04
474.75	262.48
475.11	262.05
475.48	261.75
475.85	261.20
476.21	260.71
476.58	260.39
476.94	260.08
477.31	259.64
477.67	259.34
478.04	259.07
478.41	258.97
478.77	258.82
479.14	258.49
479.50	258.37
479.87	258.24
480.23	257.99
480.60	257.84
480.96	257.80
481.33	257.78
481.69	257.75
482.06	257.56
482.42	257.57
482.79	257.41
483.15	257.38
483.52	257.49
483.88	257.39
484.25	257.30
484.61	257.26
484.98	257.32
485.34	257.39
485.71	257.46
486.07	257.46
486.44	257.36
486.80	257.51
487.17	257.63
487.53	257.72
487.90	258.03
488.26	258.29
488.62	258.58
488.99	258.80
489.35	259.14
489.72	259.60
490.08	259.86
490.44	260.24
490.81	260.65
491.17	261.03
491.54	261.55
491.90	262.18
492.26	262.82
492.63	263.36
492.99	263.90
493.36	264.59
493.72	265.39
494.08	266.10
494.45	266.97
494.81	267.77
495.17	268.73
495.54	269.67
495.90	270.63
496.26	271.66
496.63	272.76
496.99	274.03
497.35	275.34
497.72	276.86
498.08	278.39
498.44	279.86
498.80	281.63
499.17	283.26
499.53	285.00
499.89	286.94
500.26	288.75
500.62	290.87
500.98	293.09
501.34	295.50
501.71	297.87
502.07	300.32
502.43	302.98
502.79	305.74
503.16	308.67
503.52	311.61
503.88	314.63
504.24	317.93
504.60	321.11
504.97	324.54
505.33	328.07
505.69	331.73
506.05	335.44
506.41	339.10
506.78	343.28
507.14	347.41
507.50	351.73
507.86	356.43
508.22	361.10
508.59	365.79
508.95	370.63
509.31	375.90
509.67	381.22
510.03	386.60
510.39	392.10
510.75	397.64
511.12	403.55
511.48	409.65
511.84	415.68
512.20	422.11
512.56	428.65
512.92	435.27
513.28	442.12
513.64	449.29
514.00	456.74
514.37	464.07
514.73	471.55
515.09	478.96
515.45	486.70
515.81	494.49
516.17	502.56
516.53	510.79
516.89	519.21
517.25	527.87
517.61	536.85
517.97	545.58
518.33	554.70
518.69	563.80
519.05	573.09
519.41	582.64
519.77	592.40
520.13	601.91
520.49	611.72
520.85	621.88
521.21	631.99
521.57	642.25
521.93	652.48
522.29	662.98
522.65	673.76
523.01	684.30
523.37	695.19
523.73	706.29
524.09	717.37
524.45	728.58
524.81	739.71
525.17	750.92
525.53	762.66
525.89	774.35
526.25	786.16
526.61	797.78
526.97	810.00
527.33	821.95
527.68	834.34
528.04	846.46
528.40	858.38
528.76	870.80
529.12	883.30
529.48	896.18
529.84	908.64
530.20	921.23
530.56	934.68
530.91	948.13
531.27	961.34
531.63	973.96
531.99	986.89
532.35	999.57
532.71	1012.17
533.07	1025.15
533.42	1038.04
533.78	1051.21
534.14	1064.09
534.50	1076.31
534.86	1089.13
535.21	1101.65
535.57	1114.87
535.93	1128.22
536.29	1141.02
536.65	1153.67
537.00	1166.14
537.36	1179.17
537.72	1191.82
538.08	1204.11
538.44	1215.94
538.79	1228.24
539.15	1240.54
539.51	1252.87
539.87	1265.52
540.22	1278.08
540.58	1290.90
540.94	1303.07
541.29	1315.04
541.65	1327.39
542.01	1340.00
542.37	1352.11
542.72	1364.05
543.08	1375.78
543.44	1387.18
543.79	1398.17
544.15	1409.67
544.51	1421.21
544.87	1432.59
545.22	1443.64
545.58	1454.39
545.94	1464.95
546.29	1475.25
546.65	1485.94
547.01	1495.83
547.36	1506.08
547.72	1516.16
548.07	1525.32
548.43	1534.92
548.79	1544.03
549.14	1552.81
549.50	1561.45
549.86	1570.37
550.21	1579.10
550.57	1587.72
550.92	1596.50
551.28	1605.25
551.64	1613.15
551.99	1621.52
552.35	1628.98
552.70	1637.22
553.06	1645.47
553.41	1653.43
553.77	1661.47
554.13	1669.10
554.48	1677.03
554.84	1684.11
555.19	1691.16
555.55	1698.46
555.90	1704.77
556.26	1711.77
556.61	1718.82
556.97	1725.55
557.32	1732.32
557.68	1738.57
558.03	1744.70
558.39	1750.69
558.74	1757.65
559.10	1764.18
559.45	1769.91
559.81	1776.70
560.16	1782.33
560.52	1787.47
560.87	1793.59
561.23	1798.61
561.58	1804.18
561.94	1809.39
562.29	1814.38
562.64	1818.77
563.00	1823.38
563.35	1829.40
563.71	1834.60
564.06	1839.57
564.42	1844.57
564.77	1848.74
565.12	1853.39
565.48	1858.23
565.83	1862.24
566.19	1865.63
566.54	1868.99
566.89	1872.48
567.25	1875.39
567.60	1879.24
567.96	1882.86
568.31	1885.92
568.66	1888.99
569.02	1891.89
569.37	1893.85
569.72	1896.90
570.08	1899.52
570.43	1901.87
570.78	1903.14
571.14	1904.44
571.49	1906.13
571.84	1907.82
572.20	1908.79
572.55	1909.82
572.90	1910.16
573.26	1911.35
573.61	1912.07
573.96	1912.66
574.31	1912.16
574.67	1911.92
575.02	1910.91
575.37	1910.28
575.72	1908.90
576.08	1908.10
576.43	1906.90
576.78	1906.74
577.13	1905.65
577.49	1905.26
577.84	1903.90
578.19	1902.55
578.54	1901.48
578.90	1899.49
579.25	1896.65
579.60	1895.03
579.95	1893.01
580.30	1890.86
580.66	1888.00
581.01	1885.02
581.36	1882.59
581.71	1881.00
582.06	1878.70
582.42	1876.09
582.77	1873.39
583.12	1870.41
583.47	1868.12
583.82	1865.60
584.17	1862.32
584.53	1859.07
584.88	1855.65
585.23	1852.10
585.58	1849.09
585.93	1845.54
586.28	1842.79
586.63	1840.22
586.98	1836.82
587.34	1833.62
587.69	1830.23
588.04	1826.68
588.39	1823.45
588.74	1818.96
589.09	1814.76
589.44	1810.39
589.79	1806.55
590.14	1802.81
590.49	1799.17
590.84	1794.52
591.19	1790.52
591.54	1785.58
591.89	1780.28
592.25	1775.70
592.60	1770.98
592.95	1765.92
593.30	1760.56
593.65	1754.77
594.00	1749.71
594.35	1745.23
594.70	1739.86
595.05	1734.99
595.40	1729.94
595.75	1724.36
596.10	1720.10
596.45	1715.66
596.80	1711.27
597.15	1706.82
597.50	1701.72
597.85	1696.84
598.19	1692.36
598.54	1687.52
598.89	1683.23
599.24	1679.31
599.59	1674.26
599.94	1670.10
600.29	1665.21
600.64	1660.85
600.99	1655.58
601.34	1650.77
601.69	1644.75
602.04	1639.74
602.39	1634.48
602.74	1629.96
603.08	1625.75
603.43	1621.17
603.78	1616.02
604.13	1610.52
604.48	1604.68
604.83	1599.42
605.18	1594.47
605.53	1588.26
605.87	1581.54
606.22	1575.97
606.57	1570.13
606.92	1564.71
607.27	1558.92
607.62	1553.64
607.96	1548.11
608.31	1543.31
608.66	1537.05
609.01	1530.99
609.36	1524.48
609.70	1517.80
610.05	1510.92
610.40	1504.64
610.75	1497.67
611.10	1490.65
611.44	1483.89
611.79	1477.86
612.14	1471.34
612.49	1464.03
612.83	1457.09
613.18	1450.80
613.53	1444.20
613.88	1436.87
614.22	1429.87
614.57	1422.56
614.92	1415.49
615.27	1408.67
615.61	1401.60
615.96	1394.90
616.31	1388.61
616.65	1382.97
617.00	1376.92
617.35	1370.29
617.70	1363.27
618.04	1356.41
618.39	1350.06
618.74	1343.70
619.08	1336.54
619.43	1330.07
619.78	1323.80
620.12	1317.68
620.47	1311.36
620.82	1304.61
621.16	1298.66
621.51	1292.59
621.85	1286.23
622.20	1279.75
622.55	1273.26
622.89	1267.11
623.24	1260.68
623.59	1254.68
623.93	1248.26
624.28	1242.04
624.62	1235.92
624.97	1230.19
625.32	1224.39
625.66	1218.31
626.01	1212.40
626.35	1206.54
626.70	1200.24
627.04	1194.26
627.39	1188.04
627.73	1181.61
628.08	1175.39
628.43	1168.76
628.77	1162.51
629.12	1155.98
629.46	1149.74
629.81	1142.89
630.15	1136.11
630.50	1129.89
630.84	1123.06
631.19	1116.20
631.53	1109.50
631.88	1102.91
632.22	1095.63
632.57	1089.44
632.91	1082.70
633.26	1075.77
633.60	1069.15
633.95	1062.56
634.29	1056.21
634.64	1050.16
634.98	1043.80
635.32	1038.12
635.67	1032.51
636.01	1026.45
636.36	1020.77
636.70	1015.11
637.05	1009.62
637.39	1004.25
637.73	998.48
638.08	993.41
638.42	988.12
638.77	982.52
639.11	977.02
639.45	971.54
639.80	965.47
640.14	960.14
640.49	954.73
640.83	949.19
641.17	943.88
641.52	938.50
641.86	932.87
642.20	927.80
642.55	922.14
642.89	916.70
643.23	911.00
643.58	905.96
643.92	900.28
644.26	895.08
644.61	889.97
644.95	884.62
645.29	878.31
645.64	872.52
645.98	867.08
646.32	861.71
646.66	856.51
647.01	851.35
647.35	845.86
647.69	840.82
648.04	835.82
648.38	830.25
648.72	824.55
649.06	819.40
649.41	813.78
649.75	807.99
650.09	802.55
650.43	797.41
650.78	791.64
651.12	786.23
651.46	780.84
651.80	775.44
652.14	770.61
652.49	766.22
652.83	761.34
653.17	756.20
653.51	751.22
653.85	746.05
654.20	741.03
654.54	735.96
654.88	730.63
655.22	725.29
655.56	720.43
655.90	715.70
656.25	710.81
656.59	706.34
656.93	701.99
657.27	697.26
657.61	692.28
657.95	688.13
658.29	683.74
658.64	679.23
658.98	674.34
659.32	669.44
659.66	664.72
660.00	660.07
660.34	655.75
660.68	651.34
661.02	647.09
661.36	642.78
661.70	638.82
662.05	634.90
662.39	631.15
662.73	627.09
663.07	623.16
663.41	619.13
663.75	615.20
664.09	611.33
664.43	607.54
664.77	603.89
665.11	600.04
665.45	596.39
665.79	592.70
666.13	589.19
666.47	585.36
666.81	581.47
667.15	577.58
667.49	573.76
667.83	570.40
668.17	566.79
668.51	563.05
668.85	559.33
669.19	555.78
669.53	552.36
669.87	548.90
670.21	545.60
670.55	542.43
670.89	539.38
671.23	536.25
671.57	533.13
671.91	530.02
672.25	526.77
672.58	523.59
672.92	520.30
673.26	517.10
673.60	514.38
673.94	511.48
674.28	509.08
674.62	506.57
674.96	503.69
675.30	501.01
675.64	498.59
675.97	495.79
676.31	493.30
676.65	490.41
676.99	487.97
677.33	485.29
677.67	482.61
678.01	479.64
678.34	476.86
678.68	474.31
679.02	471.64
679.36	469.15
679.70	466.80
680.04	464.37
680.37	462.04
680.71	459.48
681.05	457.33
681.39	454.70
681.73	452.26
682.06	449.97
682.40	447.64
682.74	445.32
683.08	443.05
683.42	440.63
683.75	438.62
684.09	436.18
684.43	433.94
684.77	431.67
685.10	429.46
685.44	427.30
685.78	425.04
686.12	422.97
686.45	420.83
686.79	418.55
687.13	416.50
687.46	414.38
687.80	412.31
688.14	410.08
688.48	408.36
688.81	406.28
689.15	404.20
689.49	402.34
689.82	400.37
690.16	398.57
690.50	396.76
690.83	394.77
691.17	392.99
691.51	391.15
691.84	389.45
692.18	387.66
692.52	385.77
692.85	384.01
693.19	382.28
693.52	380.48
693.86	378.80
694.20	377.06
694.53	375.29
694.87	373.75
695.21	372.08
695.54	370.28
695.88	368.60
696.21	366.92
696.55	365.35
696.88	363.77
697.22	362.20
697.56	360.69
697.89	359.07
698.23	357.60
698.56	356.02
698.90	354.47
699.23	353.02
699.57	351.57
699.90	350.00
700.24	348.45
700.58	346.89
700.91	345.40
701.25	343.99
701.58	342.69
701.92	341.22
702.25	339.95
702.59	338.53
702.92	337.26
703.26	336.04
703.59	334.55
703.93	333.30
704.26	331.94
704.60	330.60
704.93	329.32
705.26	328.08
705.60	326.92
705.93	325.75
706.27	324.64
706.60	323.59
706.94	322.57
707.27	321.54
707.61	320.59
707.94	319.49
708.27	318.41
708.61	317.36
708.94	316.39
709.28	315.33
709.61	314.39
709.94	313.43
710.28	312.37
710.61	311.44
710.95	310.38
711.28	309.67
711.61	308.72
711.95	307.82
712.28	306.75
712.61	305.78
712.95	304.92
713.28	304.11
713.61	303.20
713.95	302.37
714.28	301.55
714.61	300.56
714.95	299.70
715.28	298.76
715.61	297.86
715.95	297.04
716.28	296.25
716.61	295.51
716.95	294.71
717.28	293.92
717.61	293.19
717.94	292.39
718.28	291.42
718.61	290.74
718.94	290.11
719.27	289.46
719.61	288.85
719.94	288.02
720.27	287.19
720.60	286.49
720.94	285.86
721.27	285.16
721.60	284.64
721.93	284.01
722.27	283.54
722.60	282.82
722.93	282.17
723.26	281.60
723.59	280.94
723.93	280.31
724.26	279.74
724.59	279.14
724.92	278.56
725.25	278.05
725.59	277.53
725.92	276.90
726.25	276.40
726.58	275.95
726.91	275.54
727.24	275.00
727.57	274.48
727.91	273.81
728.24	273.34
728.57	272.86
728.90	272.35
729.23	271.83
729.56	271.52
729.89	271.00
730.22	270.44
730.55	269.94
730.89	269.53
731.22	268.98
731.55	268.55
731.88	268.24
732.21	267.79
732.54	267.17
732.87	266.70
733.20	266.23
733.53	265.69
733.86	265.25
734.19	264.88
734.52	264.42
734.85	264.17
735.18	263.61
735.51	263.26
735.84	262.89
736.17	262.59
736.50	262.19
736.83	262.11
737.16	261.71
737.49	261.40
737.82	261.03
738.15	260.76
738.48	260.40
738.81	260.02
739.14	259.64
739.47	259.42
739.80	259.21
740.13	258.95
740.46	258.52
740.79	258.17
741.12	257.90
741.45	257.63
741.78	257.15
742.11	256.99
742.44	256.66
742.77	256.51
743.10	256.20
743.43	255.86
743.75	255.33
744.08	255.23
744.41	254.92
744.74	254.61
745.07	254.37
745.40	254.14
745.73	253.89
746.06	253.71
746.39	253.52
746.71	253.17
747.04	252.80
747.37	252.52
747.70	252.29
748.03	251.98
748.36	251.76
748.68	251.66
749.01	251.34
749.34	251.11
749.67	250.77
750.00	250.45
750.33	250.37
750.65	250.14
750.98	249.71
751.31	249.45
751.64	249.23
751.97	249.08
752.29	248.82
752.62	248.52
752.95	248.20
753.28	247.83
753.60	247.73
753.93	247.61
754.26	247.40
754.59	247.21
754.91	247.04
755.24	246.86
755.57	246.53
755.90	246.23
756.22	245.87
756.55	245.60
756.88	245.30
757.20	244.94
757.53	244.64
757.86	244.41
758.19	244.30
758.51	244.08
758.84	243.76
759.17	243.61
759.49	243.54
759.82	243.39
760.15	243.22
760.47	242.88
760.80	242.69
761.13	242.65
761.45	242.39
761.78	242.07
762.11	241.80
762.43	241.61
762.76	241.57
763.08	241.52
763.41	241.34
763.74	241.26
764.06	241.08
764.39	240.86
764.71	240.76
765.04	240.58
765.37	240.48
765.69	240.30
766.02	240.06
766.34	239.84
766.67	239.73
767.00	239.62
767.32	239.61
767.65	239.40
767.97	239.25
768.30	239.18
768.62	239.09
768.95	238.95
769.27	238.82
769.60	238.72
769.92	238.48
770.25	238.41
770.57	238.31
770.90	238.17
771.22	238.09
771.55	238.00
771.87	237.88
772.20	237.65
772.52	237.66
772.85	237.74
773.17	237.64
773.50	237.56
773.82	237.54
774.15	237.36
774.47	237.27
774.80	237.10
775.12	236.95
775.45	236.89
775.77	236.86
776.09	236.88
776.42	236.72
776.74	236.57
777.07	236.48
777.39	236.32
777.72	236.20
778.04	236.23
778.36	236.06
778.69	236.03
779.01	235.99
779.33	235.80
779.66	235.63
779.98	235.47
780.31	235.29
780.63	235.20
780.95	235.12
781.28	235.03
781.60	234.97
781.92	234.85
782.25	234.74
782.57	234.66
782.89	234.46
783.22	234.36
783.54	234.37
783.86	234.36
784.19	234.37
784.51	234.39
784.83	234.26
785.16	234.30
785.48	234.15
785.80	234.15
786.12	234.17
786.45	234.06
786.77	234.13
787.09	234.18
787.42	234.12
787.74	234.05
