SpectraSuite Data File
++++++++++++++++++++++++++++++++++++
Date: Fri Feb 01 14:37:29 EST 2013
User: group
Dark Spectrum Present: No
Reference Spectrum Present: No
Number of Sampled Component Spectra: 1
Spectrometers: USB2E7196
Integration Time (usec): 70000 (USB2E7196)
Spectra Averaged: 10 (USB2E7196)
Boxcar Smoothing: 10 (USB2E7196)
Correct for Electrical Dark: No (USB2E7196)
Strobe/Lamp Enabled: No (USB2E7196)
Correct for Detector Non-linearity: No (USB2E7196)
Correct for Stray Light: No (USB2E7196)
Number of Pixels in Processed Spectrum: 2048
>>>>>Begin Processed Spectral Data<<<<<
339.09	0.00
339.48	215.60
339.86	217.40
340.24	218.90
340.63	220.30
341.01	224.60
341.39	223.60
341.78	223.20
342.16	225.20
342.54	226.70
342.93	214.48
343.31	225.30
343.69	225.89
344.07	226.30
344.46	226.68
344.84	227.09
345.22	227.19
345.60	227.37
345.99	227.61
346.37	227.82
346.75	227.91
347.13	227.98
347.52	227.93
347.90	228.00
348.28	228.10
348.66	228.27
349.05	228.18
349.43	228.13
349.81	228.13
350.19	228.11
350.57	228.23
350.96	228.15
351.34	228.25
351.72	228.22
352.10	228.36
352.48	228.43
352.87	228.42
353.25	228.56
353.63	228.59
354.01	228.69
354.39	228.71
354.77	228.72
355.15	228.86
355.54	228.90
355.92	229.00
356.30	228.97
356.68	229.05
357.06	229.21
357.44	229.38
357.82	229.40
358.20	229.42
358.58	229.44
358.97	229.57
359.35	229.58
359.73	229.72
360.11	229.76
360.49	229.88
360.87	229.87
361.25	229.90
361.63	230.00
362.01	230.06
362.39	230.09
362.77	230.10
363.15	230.10
363.53	230.14
363.91	230.17
364.29	230.32
364.67	230.05
365.05	230.11
365.43	230.13
365.81	230.22
366.19	230.43
366.57	230.58
366.95	230.55
367.33	230.56
367.71	230.46
368.09	230.60
368.47	230.56
368.85	230.63
369.23	230.62
369.61	230.61
369.99	230.69
370.37	230.64
370.75	230.76
371.13	230.64
371.51	230.59
371.89	230.54
372.27	230.36
372.65	230.37
373.03	230.36
373.41	230.32
373.78	230.29
374.16	230.07
374.54	229.90
374.92	229.90
375.30	229.90
375.68	229.80
376.06	229.66
376.44	229.62
376.82	229.50
377.19	229.43
377.57	229.31
377.95	229.06
378.33	229.04
378.71	228.80
379.09	228.71
379.47	228.58
379.84	228.34
380.22	228.26
380.60	228.29
380.98	228.22
381.36	228.14
381.73	228.00
382.11	227.90
382.49	227.90
382.87	227.71
383.25	227.60
383.62	227.83
384.00	227.64
384.38	227.60
384.76	227.63
385.13	227.61
385.51	227.54
385.89	227.37
386.27	227.26
386.64	227.21
387.02	227.21
387.40	227.20
387.78	227.13
388.15	227.09
388.53	227.03
388.91	226.86
389.29	226.72
389.66	226.73
390.04	226.75
390.42	226.74
390.79	226.81
391.17	226.77
391.55	226.53
391.92	226.55
392.30	226.54
392.68	226.37
393.05	226.40
393.43	226.38
393.81	226.51
394.18	226.52
394.56	226.56
394.94	226.61
395.31	226.73
395.69	226.97
396.06	227.06
396.44	227.13
396.82	227.14
397.19	227.39
397.57	227.29
397.95	227.30
398.32	227.20
398.70	227.30
399.07	227.43
399.45	227.51
399.82	227.64
400.20	227.63
400.58	227.86
400.95	227.81
401.33	227.99
401.70	228.18
402.08	228.21
402.45	228.33
402.83	228.48
403.20	228.63
403.58	228.57
403.95	228.71
404.33	228.89
404.71	229.15
405.08	229.37
405.46	229.58
405.83	229.90
406.21	230.22
406.58	230.42
406.96	230.55
407.33	230.77
407.70	230.97
408.08	231.37
408.45	231.67
408.83	232.06
409.20	232.29
409.58	232.55
409.95	233.04
410.33	233.47
410.70	233.74
411.08	234.08
411.45	234.58
411.82	235.03
412.20	235.51
412.57	236.17
412.95	236.60
413.32	237.33
413.69	237.83
414.07	238.43
414.44	239.20
414.82	240.07
415.19	240.94
415.56	241.79
415.94	242.69
416.31	243.60
416.68	244.60
417.06	245.90
417.43	247.02
417.81	248.26
418.18	249.60
418.55	251.12
418.93	252.51
419.30	254.14
419.67	255.70
420.04	257.48
420.42	258.99
420.79	261.02
421.16	262.87
421.54	264.88
421.91	266.99
422.28	269.00
422.66	271.24
423.03	273.50
423.40	275.82
423.77	278.20
424.15	280.70
424.52	283.10
424.89	285.82
425.26	288.51
425.64	291.08
426.01	293.85
426.38	296.60
426.75	299.59
427.13	302.56
427.50	305.68
427.87	308.98
428.24	312.34
428.61	315.41
428.99	318.80
429.36	322.66
429.73	326.34
430.10	330.18
430.47	334.00
430.85	337.95
431.22	342.03
431.59	346.39
431.96	350.50
432.33	355.29
432.70	359.83
433.08	364.95
433.45	369.81
433.82	374.70
434.19	380.16
434.56	385.55
434.93	390.45
435.30	395.67
435.68	401.21
436.05	406.72
436.42	412.15
436.79	417.21
437.16	422.41
437.53	427.97
437.90	433.44
438.27	438.70
438.64	444.27
439.01	449.52
439.38	454.05
439.75	458.68
440.13	463.82
440.50	468.52
440.87	472.70
441.24	476.99
441.61	481.49
441.98	484.79
442.35	488.67
442.72	492.91
443.09	496.97
443.46	499.29
443.83	501.00
444.20	502.48
444.57	504.74
444.94	506.08
445.31	507.42
445.68	508.76
446.05	509.71
446.42	509.72
446.79	509.50
447.16	509.52
447.53	509.57
447.90	508.05
448.27	506.58
448.64	504.03
449.01	502.41
449.37	499.38
449.74	496.64
450.11	492.85
450.48	488.69
450.85	484.27
451.22	480.71
451.59	477.35
451.96	474.13
452.33	469.60
452.70	465.49
453.07	460.55
453.43	455.44
453.80	450.53
454.17	445.68
454.54	441.24
454.91	436.23
455.28	431.39
455.65	426.89
456.02	422.32
456.38	418.57
456.75	413.57
457.12	409.30
457.49	405.03
457.86	401.09
458.23	397.69
458.59	393.84
458.96	389.98
459.33	386.44
459.70	383.12
460.07	380.40
460.43	377.19
460.80	374.08
461.17	371.40
461.54	368.60
461.91	365.89
462.27	363.21
462.64	360.80
463.01	358.13
463.38	355.60
463.74	353.05
464.11	350.82
464.48	349.00
464.85	346.99
465.21	345.27
465.58	343.50
465.95	341.41
466.32	339.73
466.68	337.97
467.05	336.42
467.42	334.58
467.78	332.67
468.15	330.95
468.52	329.66
468.88	327.87
469.25	326.26
469.62	325.05
469.98	323.57
470.35	322.39
470.72	321.18
471.08	319.78
471.45	318.63
471.82	317.32
472.18	315.90
472.55	314.85
472.92	313.71
473.28	312.64
473.65	311.60
474.02	310.59
474.38	309.70
474.75	308.78
475.11	307.84
475.48	307.10
475.85	306.43
476.21	305.78
476.58	305.24
476.94	304.63
477.31	303.95
477.67	303.46
478.04	302.95
478.41	302.46
478.77	302.24
479.14	301.67
479.50	301.30
479.87	301.07
480.23	300.90
480.60	300.67
480.96	300.46
481.33	300.30
481.69	300.07
482.06	299.91
482.42	299.73
482.79	299.71
483.15	299.67
483.52	299.62
483.88	299.60
484.25	299.50
484.61	299.51
484.98	299.60
485.34	299.80
485.71	299.75
486.07	299.86
486.44	299.97
486.80	300.29
487.17	300.62
487.53	300.95
487.90	301.17
488.26	301.56
488.62	301.97
488.99	302.32
489.35	302.72
489.72	303.06
490.08	303.55
490.44	304.00
490.81	304.53
491.17	304.96
491.54	305.35
491.90	306.04
492.26	306.70
492.63	307.30
492.99	307.67
493.36	308.43
493.72	309.15
494.08	309.76
494.45	310.50
494.81	311.30
495.17	312.00
495.54	312.74
495.90	313.40
496.26	313.97
496.63	314.69
496.99	315.49
497.35	316.25
497.72	316.96
498.08	317.70
498.44	318.46
498.80	319.42
499.17	320.19
499.53	320.83
499.89	321.61
500.26	322.33
500.62	323.11
500.98	323.80
501.34	324.58
501.71	325.35
502.07	326.04
502.43	326.53
502.79	327.10
503.16	327.64
503.52	328.24
503.88	328.82
504.24	329.30
504.60	329.80
504.97	330.35
505.33	330.73
505.69	331.24
506.05	331.64
506.41	331.92
506.78	332.29
507.14	332.69
507.50	332.92
507.86	333.16
508.22	333.55
508.59	333.73
508.95	333.89
509.31	334.15
509.67	334.25
510.03	334.50
510.39	334.69
510.75	334.89
511.12	335.02
511.48	335.20
511.84	335.48
512.20	335.50
512.56	335.64
512.92	335.76
513.28	335.81
513.64	335.70
514.00	335.65
514.37	335.76
514.73	335.81
515.09	335.88
515.45	335.98
515.81	335.97
516.17	336.12
516.53	336.30
516.89	336.27
517.25	336.38
517.61	336.50
517.97	336.66
518.33	336.89
518.69	337.00
519.05	337.24
519.41	337.42
519.77	337.84
520.13	338.20
520.49	338.68
520.85	339.06
521.21	339.71
521.57	340.36
521.93	340.78
522.29	341.38
522.65	342.19
523.01	343.00
523.37	343.69
523.73	344.51
524.09	345.30
524.45	346.30
524.81	347.38
525.17	348.71
525.53	349.83
525.89	351.09
526.25	352.50
526.61	353.92
526.97	355.51
527.33	357.14
527.68	358.91
528.04	360.68
528.40	362.48
528.76	364.29
529.12	366.29
529.48	368.54
529.84	370.60
530.20	372.80
530.56	375.03
530.91	377.66
531.27	380.21
531.63	382.70
531.99	385.25
532.35	387.90
532.71	390.18
533.07	393.11
533.42	396.10
533.78	399.04
534.14	402.07
534.50	404.98
534.86	408.03
535.21	411.22
535.57	414.55
535.93	418.10
536.29	421.80
536.65	425.39
537.00	428.93
537.36	432.73
537.72	436.31
538.08	440.16
538.44	443.83
538.79	447.68
539.15	451.56
539.51	455.66
539.87	459.80
540.22	464.22
540.58	468.31
540.94	472.30
541.29	476.60
541.65	480.89
542.01	485.50
542.37	490.12
542.72	494.23
543.08	498.70
543.44	503.20
543.79	507.38
544.15	511.93
544.51	516.71
544.87	521.25
545.22	526.07
545.58	530.72
545.94	535.36
546.29	540.14
546.65	545.08
547.01	549.80
547.36	554.49
547.72	559.20
548.07	564.03
548.43	568.95
548.79	573.79
549.14	578.50
549.50	583.33
549.86	587.95
550.21	592.80
550.57	597.70
550.92	602.38
551.28	607.21
551.64	611.95
551.99	616.66
552.35	621.48
552.70	626.28
553.06	631.51
553.41	636.45
553.77	641.17
554.13	645.95
554.48	650.73
554.84	655.46
555.19	660.30
555.55	665.30
555.90	670.10
556.26	674.87
556.61	679.69
556.97	683.88
557.32	688.51
557.68	693.56
558.03	698.10
558.39	702.91
558.74	707.89
559.10	712.29
559.45	716.96
559.81	721.80
560.16	726.08
560.52	730.12
560.87	734.53
561.23	738.82
561.58	743.35
561.94	748.04
562.29	752.28
562.64	756.19
563.00	760.27
563.35	764.67
563.71	768.92
564.06	773.18
564.42	777.69
564.77	781.90
565.12	785.86
565.48	790.00
565.83	793.99
566.19	797.67
566.54	801.80
566.89	805.58
567.25	809.01
567.60	813.08
567.96	816.86
568.31	820.60
568.66	824.30
569.02	827.68
569.37	830.64
569.72	834.06
570.08	837.51
570.43	840.48
570.78	843.25
571.14	845.89
571.49	848.87
571.84	852.04
572.20	854.80
572.55	857.52
572.90	860.00
573.26	862.60
573.61	865.09
573.96	867.44
574.31	869.30
574.67	871.22
575.02	872.94
575.37	874.62
575.72	876.40
576.08	878.34
576.43	879.94
576.78	881.34
577.13	883.08
577.49	884.55
577.84	886.29
578.19	887.77
578.54	889.33
578.90	890.58
579.25	891.24
579.60	892.29
579.95	893.10
580.30	893.89
580.66	894.62
581.01	895.41
581.36	896.11
581.71	897.23
582.06	898.18
582.42	898.87
582.77	899.36
583.12	899.78
583.47	900.21
583.82	900.84
584.17	901.68
584.53	902.20
584.88	902.72
585.23	903.09
585.58	903.47
585.93	903.65
586.28	903.81
586.63	904.38
586.98	904.65
587.34	905.17
587.69	905.71
588.04	906.03
588.39	906.21
588.74	905.82
589.09	905.46
589.44	905.18
589.79	905.21
590.14	905.53
590.49	905.15
590.84	904.79
591.19	904.43
591.54	903.89
591.89	902.77
592.25	902.36
592.60	901.22
592.95	900.08
593.30	899.48
593.65	898.60
594.00	897.34
594.35	896.82
594.70	895.35
595.05	894.24
595.40	892.79
595.75	891.55
596.10	891.07
596.45	890.18
596.80	889.59
597.15	888.80
597.50	887.41
597.85	886.70
598.19	885.69
598.54	884.66
598.89	883.66
599.24	882.98
599.59	881.80
599.94	880.78
600.29	879.69
600.64	878.21
600.99	876.81
601.34	875.77
601.69	873.98
602.04	872.87
602.39	871.23
602.74	869.93
603.08	868.76
603.43	867.27
603.78	865.77
604.13	863.87
604.48	862.00
604.83	860.58
605.18	859.10
605.53	857.12
605.87	854.98
606.22	853.33
606.57	851.45
606.92	849.64
607.27	848.45
607.62	847.09
607.96	845.38
608.31	843.95
608.66	841.86
609.01	839.64
609.36	837.15
609.70	834.94
610.05	832.67
610.40	830.32
610.75	827.80
611.10	825.46
611.44	823.05
611.79	820.60
612.14	818.22
612.49	815.38
612.83	812.90
613.18	810.52
613.53	807.97
613.88	805.32
614.22	802.51
614.57	799.38
614.92	796.60
615.27	794.06
615.61	791.16
615.96	788.59
616.31	786.40
616.65	784.27
617.00	781.76
617.35	779.19
617.70	776.40
618.04	773.66
618.39	771.00
618.74	768.44
619.08	765.66
619.43	762.84
619.78	760.35
620.12	757.83
620.47	755.44
620.82	752.48
621.16	749.92
621.51	747.29
621.85	744.62
622.20	741.76
622.55	739.08
622.89	736.28
623.24	733.85
623.59	731.00
623.93	728.43
624.28	725.87
624.62	723.49
624.97	721.15
625.32	718.72
625.66	716.34
626.01	713.73
626.35	711.15
626.70	708.74
627.04	706.02
627.39	703.38
627.73	700.70
628.08	698.32
628.43	695.69
628.77	693.11
629.12	690.41
629.46	687.90
629.81	684.90
630.15	682.26
630.50	679.30
630.84	676.36
631.19	673.33
631.53	670.77
631.88	667.64
632.22	664.44
632.57	661.83
632.91	658.77
633.26	656.00
633.60	653.09
633.95	650.17
634.29	647.45
634.64	645.06
634.98	642.15
635.32	639.53
635.67	636.99
636.01	634.59
636.36	632.12
636.70	629.52
637.05	627.32
637.39	624.80
637.73	622.32
638.08	620.24
638.42	618.00
638.77	615.60
639.11	613.35
639.45	611.19
639.80	608.46
640.14	606.10
640.49	603.60
640.83	601.22
641.17	598.92
641.52	596.50
641.86	593.60
642.20	591.06
642.55	588.44
642.89	585.95
643.23	583.06
643.58	580.76
643.92	578.08
644.26	575.58
644.61	573.34
644.95	570.82
645.29	568.02
645.64	565.33
645.98	562.66
646.32	560.29
646.66	557.68
647.01	555.24
647.35	552.92
647.69	550.57
648.04	548.38
648.38	545.80
648.72	543.20
649.06	540.82
649.41	538.53
649.75	536.00
650.09	533.52
650.43	531.27
650.78	528.58
651.12	526.16
651.46	523.88
651.80	521.23
652.14	518.94
652.49	516.70
652.83	514.62
653.17	512.16
653.51	509.53
653.85	507.12
654.20	504.77
654.54	502.17
654.88	499.70
655.22	497.14
655.56	494.60
655.90	492.38
656.25	490.15
656.59	487.80
656.93	485.69
657.27	483.31
657.61	480.97
657.95	478.72
658.29	476.49
658.64	473.97
658.98	471.62
659.32	469.27
659.66	466.87
660.00	464.45
660.34	462.20
660.68	460.17
661.02	457.94
661.36	455.95
661.70	454.02
662.05	452.07
662.39	450.17
662.73	448.39
663.07	446.38
663.41	444.43
663.75	442.61
664.09	440.42
664.43	438.62
664.77	436.72
665.11	434.87
665.45	433.13
665.79	431.43
666.13	429.62
666.47	427.68
666.81	425.97
667.15	423.93
667.49	422.00
667.83	420.18
668.17	418.37
668.51	416.42
668.85	414.41
669.19	412.79
669.53	410.89
669.87	409.05
670.21	407.36
670.55	405.40
670.89	403.67
671.23	402.18
671.57	400.43
671.91	398.90
672.25	397.33
672.58	395.61
672.92	393.95
673.26	392.51
673.60	391.28
673.94	389.71
674.28	388.49
674.62	387.27
674.96	385.84
675.30	384.67
675.64	383.30
675.97	382.10
676.31	380.55
676.65	379.16
676.99	377.82
677.33	376.46
677.67	375.31
678.01	373.95
678.34	372.61
678.68	371.31
679.02	369.89
679.36	368.72
679.70	367.57
680.04	366.24
680.37	364.85
680.71	363.40
681.05	362.35
681.39	361.17
681.73	359.86
682.06	358.75
682.40	357.61
682.74	356.60
683.08	355.64
683.42	354.40
683.75	353.32
684.09	352.09
684.43	350.90
684.77	349.69
685.10	348.53
685.44	347.30
685.78	346.23
686.12	345.14
686.45	343.78
686.79	342.56
687.13	341.50
687.46	340.40
687.80	339.37
688.14	338.15
688.48	336.93
688.81	335.98
689.15	334.84
689.49	333.54
689.82	332.29
690.16	330.90
690.50	329.93
690.83	328.77
691.17	327.70
691.51	326.70
691.84	325.75
692.18	324.82
692.52	323.80
692.85	322.73
693.19	321.83
693.52	320.86
693.86	319.94
694.20	318.91
694.53	318.11
694.87	316.97
695.21	315.85
695.54	314.99
695.88	313.76
696.21	312.67
696.55	311.76
696.88	310.95
697.22	310.12
697.56	309.18
697.89	308.40
698.23	307.63
698.56	306.73
698.90	305.86
699.23	304.76
699.57	303.98
699.90	303.08
700.24	302.20
700.58	301.36
700.91	300.45
701.25	299.72
701.58	298.95
701.92	298.24
702.25	297.56
702.59	296.77
702.92	296.19
703.26	295.57
703.59	294.93
703.93	294.18
704.26	293.45
704.60	292.85
704.93	292.12
705.26	291.26
705.60	290.56
705.93	289.80
706.27	289.36
706.60	288.78
706.94	288.30
707.27	287.47
707.61	286.92
707.94	286.30
708.27	285.60
708.61	284.90
708.94	284.26
709.28	283.64
709.61	283.00
709.94	282.44
710.28	281.78
710.61	281.10
710.95	280.42
711.28	279.97
711.61	279.34
711.95	278.88
712.28	278.31
712.61	277.72
712.95	277.28
713.28	276.77
713.61	276.15
713.95	275.57
714.28	275.18
714.61	274.63
714.95	274.10
715.28	273.61
715.61	273.04
715.95	272.56
716.28	271.98
716.61	271.57
716.95	270.99
717.28	270.60
717.61	270.10
717.94	269.76
718.28	269.17
718.61	268.67
718.94	268.12
719.27	267.90
719.61	267.65
719.94	267.20
720.27	266.76
720.60	266.32
720.94	265.98
721.27	265.57
721.60	265.24
721.93	265.00
722.27	264.71
722.60	264.37
722.93	264.09
723.26	263.82
723.59	263.47
723.93	263.19
724.26	262.84
724.59	262.55
724.92	262.09
725.25	261.84
725.59	261.59
725.92	261.31
726.25	260.88
726.58	260.41
726.91	260.15
727.24	259.84
727.57	259.64
727.91	259.20
728.24	258.98
728.57	258.71
728.90	258.35
729.23	257.93
729.56	257.64
729.89	257.23
730.22	256.95
730.55	256.66
730.89	256.36
731.22	256.07
731.55	255.87
731.88	255.56
732.21	255.18
732.54	254.88
732.87	254.58
733.20	254.30
733.53	254.14
733.86	253.91
734.19	253.62
734.52	253.28
734.85	253.21
735.18	252.87
735.51	252.54
735.84	252.47
736.17	252.29
736.50	252.04
736.83	252.08
737.16	251.86
737.49	251.61
737.82	251.36
738.15	251.22
738.48	250.91
738.81	250.75
739.14	250.60
739.47	250.32
739.80	250.08
740.13	249.89
740.46	249.67
740.79	249.34
741.12	249.07
741.45	248.87
741.78	248.51
742.11	248.33
742.44	248.18
742.77	247.85
743.10	247.70
743.43	247.54
743.75	247.20
744.08	247.27
744.41	247.08
744.74	246.87
745.07	246.65
745.40	246.56
745.73	246.41
746.06	246.13
746.39	246.05
746.71	245.84
747.04	245.66
747.37	245.42
747.70	245.25
748.03	245.06
748.36	244.85
748.68	244.68
749.01	244.49
749.34	244.21
749.67	244.07
750.00	243.84
750.33	243.76
750.65	243.64
750.98	243.22
751.31	242.99
751.64	242.82
751.97	242.73
752.29	242.59
752.62	242.42
752.95	242.26
753.28	241.96
753.60	241.94
753.93	241.79
754.26	241.57
754.59	241.40
754.91	241.18
755.24	241.05
755.57	240.87
755.90	240.76
756.22	240.60
756.55	240.40
756.88	240.24
757.20	240.04
757.53	239.82
757.86	239.66
758.19	239.50
758.51	239.39
758.84	239.05
759.17	238.75
759.49	238.64
759.82	238.69
760.15	238.66
760.47	238.48
760.80	238.22
761.13	238.16
761.45	238.00
761.78	237.98
762.11	237.85
762.43	237.75
762.76	237.61
763.08	237.55
763.41	237.53
763.74	237.52
764.06	237.42
764.39	237.23
764.71	237.19
765.04	237.16
765.37	237.00
765.69	236.93
766.02	236.84
766.34	236.66
766.67	236.43
767.00	236.37
767.32	236.33
767.65	236.50
767.97	236.42
768.30	236.41
768.62	236.30
768.95	236.25
769.27	236.21
769.60	236.09
769.92	235.98
770.25	235.85
770.57	235.51
770.90	235.41
771.22	235.38
771.55	235.21
771.87	235.17
772.20	235.07
772.52	235.25
772.85	235.45
773.17	235.38
773.50	235.30
773.82	235.14
774.15	234.97
774.47	234.76
774.80	234.61
775.12	234.52
775.45	234.44
775.77	234.32
776.09	234.15
776.42	234.05
776.74	234.07
777.07	233.85
777.39	233.93
777.72	233.79
778.04	233.66
778.36	233.49
778.69	233.44
779.01	233.46
779.33	233.27
779.66	232.91
779.98	232.87
780.31	232.76
780.63	232.81
780.95	232.79
781.28	232.72
781.60	232.74
781.92	232.65
782.25	232.63
782.57	232.62
782.89	232.61
783.22	232.66
783.54	232.55
783.86	232.66
784.19	232.60
784.51	232.60
784.83	232.60
785.16	232.67
785.48	232.55
785.80	232.55
786.12	232.37
786.45	232.42
786.77	232.44
787.09	232.46
787.42	232.38
787.74	232.36
788.06	232.24
788.38	232.17
788.71	232.14
789.03	232.05
789.35	232.00
789.67	231.94
789.99	231.80
790.32	231.90
790.64	231.78
790.96	231.86
791.28	231.83
791.61	231.91
791.93	231.90
792.25	231.86
792.57	231.90
792.89	231.96
793.21	231.92
793.54	231.82
793.86	231.76
794.18	231.73
