SpectraSuite Data File
++++++++++++++++++++++++++++++++++++
Date: Fri Feb 01 14:38:37 EST 2013
User: group
Dark Spectrum Present: No
Reference Spectrum Present: No
Number of Sampled Component Spectra: 1
Spectrometers: USB2E7196
Integration Time (usec): 70000 (USB2E7196)
Spectra Averaged: 10 (USB2E7196)
Boxcar Smoothing: 10 (USB2E7196)
Correct for Electrical Dark: No (USB2E7196)
Strobe/Lamp Enabled: No (USB2E7196)
Correct for Detector Non-linearity: No (USB2E7196)
Correct for Stray Light: No (USB2E7196)
Number of Pixels in Processed Spectrum: 2048
>>>>>Begin Processed Spectral Data<<<<<
339.09	0.00
339.48	217.30
339.86	217.30
340.24	218.80
340.63	219.40
341.01	224.40
341.39	222.90
341.78	224.30
342.16	225.40
342.54	225.60
342.93	214.65
343.31	225.45
343.69	226.03
344.07	226.44
344.46	226.83
344.84	227.29
345.22	227.47
345.60	227.64
345.99	227.87
346.37	227.96
346.75	228.03
347.13	228.15
347.52	228.16
347.90	228.26
348.28	228.21
348.66	228.27
349.05	228.21
349.43	228.26
349.81	228.26
350.19	228.34
350.57	228.24
350.96	228.32
351.34	228.41
351.72	228.37
352.10	228.50
352.48	228.62
352.87	228.58
353.25	228.65
353.63	228.77
354.01	228.73
354.39	228.79
354.77	228.89
355.15	228.88
355.54	228.96
355.92	229.00
356.30	229.00
356.68	229.20
357.06	229.30
357.44	229.40
357.82	229.35
358.20	229.40
358.58	229.47
358.97	229.48
359.35	229.59
359.73	229.70
360.11	229.70
360.49	229.70
360.87	229.84
361.25	229.88
361.63	229.94
362.01	229.96
362.39	229.99
362.77	230.07
363.15	230.05
363.53	230.02
363.91	229.99
364.29	229.98
364.67	229.68
365.05	229.63
365.43	229.52
365.81	229.62
366.19	229.66
366.57	229.69
366.95	229.75
367.33	229.74
367.71	229.66
368.09	229.69
368.47	229.71
368.85	229.60
369.23	229.47
369.61	229.31
369.99	229.29
370.37	229.29
370.75	229.27
371.13	229.19
371.51	229.11
371.89	228.97
372.27	228.99
372.65	229.04
373.03	228.96
373.41	228.90
373.78	228.73
374.16	228.53
374.54	228.39
374.92	228.20
375.30	227.97
375.68	227.86
376.06	227.81
376.44	227.72
376.82	227.55
377.19	227.54
377.57	227.54
377.95	227.50
378.33	227.47
378.71	227.18
379.09	227.12
379.47	227.00
379.84	226.89
380.22	226.72
380.60	226.49
380.98	226.33
381.36	226.20
381.73	226.23
382.11	226.14
382.49	226.11
382.87	226.00
383.25	225.95
383.62	226.09
384.00	225.98
384.38	225.89
384.76	225.94
385.13	226.03
385.51	226.01
385.89	225.96
386.27	225.86
386.64	226.00
387.02	225.97
387.40	225.94
387.78	225.97
388.15	225.95
388.53	226.02
388.91	226.04
389.29	226.00
389.66	226.09
390.04	226.19
390.42	226.27
390.79	226.36
391.17	226.48
391.55	226.29
391.92	226.31
392.30	226.38
392.68	226.31
393.05	226.20
393.43	226.25
393.81	226.28
394.18	226.30
394.56	226.26
394.94	226.33
395.31	226.40
395.69	226.52
396.06	226.73
396.44	226.75
396.82	226.89
397.19	227.21
397.57	227.18
397.95	227.27
398.32	227.27
398.70	227.38
399.07	227.38
399.45	227.42
399.82	227.49
400.20	227.61
400.58	227.86
400.95	227.99
401.33	227.97
401.70	228.23
402.08	228.38
402.45	228.55
402.83	228.75
403.20	228.96
403.58	229.10
403.95	229.25
404.33	229.39
404.71	229.49
405.08	229.76
405.46	230.00
405.83	230.12
406.21	230.33
406.58	230.43
406.96	230.75
407.33	230.95
407.70	231.25
408.08	231.55
408.45	231.74
408.83	231.95
409.20	232.27
409.58	232.43
409.95	232.69
410.33	233.03
410.70	233.24
411.08	233.52
411.45	233.82
411.82	234.05
412.20	234.49
412.57	235.04
412.95	235.16
413.32	235.50
413.69	235.94
414.07	236.42
414.44	237.03
414.82	237.48
415.19	238.16
415.56	238.66
415.94	239.19
416.31	239.95
416.68	240.72
417.06	241.48
417.43	242.17
417.81	242.95
418.18	243.76
418.55	244.77
418.93	245.76
419.30	246.88
419.67	248.11
420.04	249.30
420.42	250.34
420.79	251.90
421.16	253.31
421.54	254.81
421.91	256.26
422.28	257.79
422.66	259.39
423.03	261.03
423.40	262.78
423.77	264.58
424.15	266.34
424.52	268.20
424.89	270.31
425.26	272.37
425.64	274.24
426.01	276.36
426.38	278.54
426.75	280.77
427.13	282.91
427.50	285.20
427.87	287.61
428.24	290.20
428.61	292.40
428.99	295.08
429.36	297.78
429.73	300.50
430.10	303.13
430.47	305.94
430.85	308.62
431.22	311.57
431.59	314.95
431.96	318.01
432.33	321.26
432.70	324.43
433.08	328.24
433.45	331.75
433.82	335.29
434.19	339.14
434.56	342.96
434.93	346.62
435.30	350.25
435.68	354.33
436.05	358.12
436.42	362.02
436.79	365.56
437.16	369.35
437.53	373.40
437.90	377.49
438.27	381.50
438.64	385.56
439.01	389.40
439.38	392.39
439.75	395.52
440.13	399.26
440.50	402.74
440.87	405.43
441.24	408.48
441.61	411.55
441.98	414.11
442.35	416.90
442.72	419.99
443.09	422.88
443.46	424.49
443.83	425.79
444.20	426.86
444.57	428.30
444.94	429.09
445.31	429.95
445.68	430.88
446.05	431.30
446.42	431.20
446.79	431.07
447.16	431.00
447.53	431.02
447.90	430.03
448.27	428.84
448.64	427.15
449.01	426.07
449.37	424.00
449.74	421.59
450.11	418.90
450.48	415.70
450.85	412.44
451.22	409.87
451.59	407.31
451.96	404.94
452.33	401.65
452.70	398.72
453.07	395.11
453.43	391.20
453.80	387.54
454.17	384.15
454.54	380.78
454.91	377.07
455.28	373.56
455.65	369.97
456.02	366.89
456.38	364.05
456.75	360.44
457.12	357.43
457.49	354.36
457.86	351.38
458.23	348.67
458.59	345.83
458.96	342.94
459.33	340.34
459.70	337.70
460.07	335.55
460.43	333.05
460.80	330.80
461.17	328.90
461.54	326.84
461.91	324.87
462.27	322.75
462.64	320.99
463.01	318.89
463.38	317.25
463.74	315.06
464.11	313.33
464.48	311.82
464.85	309.97
465.21	308.69
465.58	307.23
465.95	305.75
466.32	304.46
466.68	303.14
467.05	301.83
467.42	300.49
467.78	299.06
468.15	297.80
468.52	296.70
468.88	295.36
469.25	294.01
469.62	293.00
469.98	292.01
470.35	291.02
470.72	290.19
471.08	289.04
471.45	288.20
471.82	287.22
472.18	286.30
472.55	285.57
472.92	284.80
473.28	284.08
473.65	283.42
474.02	282.72
474.38	281.98
474.75	281.32
475.11	280.71
475.48	280.17
475.85	279.68
476.21	279.12
476.58	278.57
476.94	278.29
477.31	277.70
477.67	277.22
478.04	276.73
478.41	276.40
478.77	276.16
479.14	275.68
479.50	275.50
479.87	275.25
480.23	275.13
480.60	274.69
480.96	274.37
481.33	274.13
481.69	273.82
482.06	273.72
482.42	273.70
482.79	273.51
483.15	273.34
483.52	273.34
483.88	273.32
484.25	273.17
484.61	273.06
484.98	273.11
485.34	273.17
485.71	273.30
486.07	273.31
486.44	273.30
486.80	273.39
487.17	273.36
487.53	273.43
487.90	273.46
488.26	273.85
488.62	274.16
488.99	274.26
489.35	274.44
489.72	274.59
490.08	274.60
490.44	274.90
490.81	275.25
491.17	275.37
491.54	275.58
491.90	275.98
492.26	276.22
492.63	276.60
492.99	276.84
493.36	277.15
493.72	277.40
494.08	277.68
494.45	278.16
494.81	278.60
495.17	278.83
495.54	279.32
495.90	279.62
496.26	279.94
496.63	280.32
496.99	280.69
497.35	281.09
497.72	281.57
498.08	281.92
498.44	282.25
498.80	282.60
499.17	283.00
499.53	283.33
499.89	283.78
500.26	284.14
500.62	284.48
500.98	284.84
501.34	285.16
501.71	285.47
502.07	285.74
502.43	286.11
502.79	286.56
503.16	286.75
503.52	287.09
503.88	287.33
504.24	287.85
504.60	288.25
504.97	288.59
505.33	288.91
505.69	289.37
506.05	289.69
506.41	290.06
506.78	290.50
507.14	290.97
507.50	291.49
507.86	291.75
508.22	292.25
508.59	292.72
508.95	293.33
509.31	293.95
509.67	294.47
510.03	295.03
510.39	295.62
510.75	296.30
511.12	296.85
511.48	297.63
511.84	298.24
512.20	299.07
512.56	299.95
512.92	300.72
513.28	301.53
513.64	302.51
514.00	303.58
514.37	304.50
514.73	305.54
515.09	306.52
515.45	307.72
515.81	308.81
516.17	310.16
516.53	311.44
516.89	312.71
517.25	314.15
517.61	315.62
517.97	317.16
518.33	318.75
518.69	320.65
519.05	322.35
519.41	324.15
519.77	326.23
520.13	328.17
520.49	330.33
520.85	332.46
521.21	334.78
521.57	337.10
521.93	339.47
522.29	341.91
522.65	344.40
523.01	347.04
523.37	349.60
523.73	352.11
524.09	354.89
524.45	357.85
524.81	360.90
525.17	364.19
525.53	367.42
525.89	370.74
526.25	374.16
526.61	377.61
526.97	381.14
527.33	384.69
527.68	388.71
528.04	392.38
528.40	396.34
528.76	400.25
529.12	404.28
529.48	408.57
529.84	412.73
530.20	416.98
530.56	421.60
530.91	426.28
531.27	431.08
531.63	435.86
531.99	440.68
532.35	445.57
532.71	450.24
533.07	455.32
533.42	460.51
533.78	465.49
534.14	470.71
534.50	476.00
534.86	481.20
535.21	486.33
535.57	491.99
535.93	497.50
536.29	503.25
536.65	509.02
537.00	514.63
537.36	520.43
537.72	526.27
538.08	531.89
538.44	537.72
538.79	543.58
539.15	549.37
539.51	555.23
539.87	561.26
540.22	567.35
540.58	573.38
540.94	579.22
541.29	585.40
541.65	591.43
542.01	597.57
542.37	603.76
542.72	609.94
543.08	615.96
543.44	622.14
543.79	628.10
544.15	634.22
544.51	640.42
544.87	646.62
545.22	652.89
545.58	659.00
545.94	665.02
546.29	671.14
546.65	677.16
547.01	683.16
547.36	689.00
547.72	694.72
548.07	700.64
548.43	706.84
548.79	712.73
549.14	718.60
549.50	724.41
549.86	730.20
550.21	736.01
550.57	741.99
550.92	747.69
551.28	753.17
551.64	758.91
551.99	764.71
552.35	770.48
552.70	776.03
553.06	782.00
553.41	787.90
553.77	793.60
554.13	799.39
554.48	805.23
554.84	810.83
555.19	816.53
555.55	822.02
555.90	827.29
556.26	832.59
556.61	838.26
556.97	843.56
557.32	849.25
557.68	854.34
558.03	859.39
558.39	864.68
558.74	870.45
559.10	875.61
559.45	880.64
559.81	885.80
560.16	890.89
560.52	895.62
560.87	900.45
561.23	905.11
561.58	909.99
561.94	914.70
562.29	919.40
562.64	924.08
563.00	928.79
563.35	933.68
563.71	938.70
564.06	943.24
564.42	947.88
564.77	952.18
565.12	956.75
565.48	961.47
565.83	965.60
566.19	969.75
566.54	973.58
566.89	977.57
567.25	981.50
567.60	985.85
567.96	989.89
568.31	993.74
568.66	997.48
569.02	1000.93
569.37	1004.31
569.72	1007.65
570.08	1010.92
570.43	1014.36
570.78	1017.29
571.14	1019.96
571.49	1022.79
571.84	1026.11
572.20	1028.68
572.55	1031.36
572.90	1033.61
573.26	1036.24
573.61	1038.27
573.96	1040.70
574.31	1042.43
574.67	1044.10
575.02	1045.40
575.37	1047.04
575.72	1048.38
576.08	1050.00
576.43	1051.35
576.78	1052.93
577.13	1054.65
577.49	1056.02
577.84	1056.80
578.19	1058.11
578.54	1058.94
578.90	1059.51
579.25	1059.60
579.60	1060.26
579.95	1060.72
580.30	1061.29
580.66	1061.46
581.01	1062.00
581.36	1062.15
581.71	1062.97
582.06	1063.28
582.42	1063.60
582.77	1063.77
583.12	1064.00
583.47	1063.80
583.82	1064.25
584.17	1064.01
584.53	1063.90
584.88	1063.53
585.23	1063.61
585.58	1063.57
585.93	1063.50
586.28	1063.70
586.63	1063.83
586.98	1063.82
587.34	1063.51
587.69	1063.48
588.04	1063.50
588.39	1063.34
588.74	1062.66
589.09	1061.92
589.44	1061.01
589.79	1060.44
590.14	1059.85
590.49	1059.10
590.84	1058.29
591.19	1057.45
591.54	1056.40
591.89	1054.96
592.25	1054.38
592.60	1053.03
592.95	1051.35
593.30	1049.68
593.65	1048.18
594.00	1046.57
594.35	1045.40
594.70	1043.74
595.05	1042.01
595.40	1040.11
595.75	1038.05
596.10	1036.68
596.45	1035.31
596.80	1034.23
597.15	1032.69
597.50	1030.85
597.85	1029.48
598.19	1028.04
598.54	1026.34
598.89	1024.80
599.24	1023.62
599.59	1021.80
599.94	1020.36
600.29	1018.81
600.64	1017.13
600.99	1014.93
601.34	1013.00
601.69	1010.62
602.04	1008.77
602.39	1006.68
602.74	1004.70
603.08	1003.00
603.43	1001.52
603.78	999.47
604.13	997.32
604.48	995.13
604.83	993.10
605.18	991.00
605.53	988.60
605.87	985.89
606.22	983.68
606.57	980.80
606.92	978.19
607.27	975.62
607.62	973.37
607.96	971.19
608.31	969.11
608.66	966.27
609.01	963.37
609.36	960.20
609.70	957.05
610.05	954.08
610.40	951.05
610.75	947.62
611.10	944.38
611.44	940.83
611.79	937.80
612.14	934.48
612.49	930.96
612.83	927.84
613.18	924.54
613.53	921.36
613.88	918.10
614.22	914.77
614.57	911.23
614.92	907.41
615.27	904.42
615.61	900.99
615.96	898.06
616.31	895.10
616.65	892.53
617.00	889.84
617.35	886.92
617.70	883.75
618.04	880.45
618.39	877.08
618.74	874.21
619.08	870.72
619.43	867.56
619.78	864.39
620.12	860.88
620.47	857.84
620.82	854.24
621.16	851.16
621.51	848.14
621.85	845.10
622.20	841.87
622.55	838.18
622.89	834.92
623.24	831.71
623.59	828.40
623.93	824.94
624.28	821.59
624.62	818.24
624.97	815.23
625.32	812.20
625.66	809.34
626.01	806.23
626.35	803.10
626.70	800.22
627.04	796.96
627.39	793.95
627.73	790.88
628.08	787.87
628.43	784.70
628.77	781.56
629.12	778.17
629.46	774.70
629.81	771.38
630.15	767.88
630.50	764.26
630.84	760.78
631.19	757.50
631.53	753.92
631.88	750.17
632.22	746.36
632.57	742.78
632.91	739.20
633.26	735.72
633.60	731.98
633.95	728.32
634.29	725.16
634.64	721.77
634.98	718.12
635.32	714.78
635.67	711.55
636.01	708.20
636.36	704.94
636.70	702.25
637.05	699.13
637.39	696.21
637.73	693.43
638.08	690.52
638.42	687.57
638.77	684.59
639.11	681.53
639.45	678.57
639.80	675.42
640.14	672.42
640.49	669.33
640.83	666.65
641.17	663.37
641.52	660.41
641.86	657.52
642.20	654.85
642.55	651.90
642.89	648.90
643.23	645.93
643.58	643.19
643.92	639.79
644.26	636.82
644.61	633.92
644.95	630.78
645.29	627.55
645.64	624.42
645.98	621.51
646.32	618.92
646.66	615.92
647.01	613.14
647.35	610.25
647.69	607.37
648.04	604.62
648.38	601.86
648.72	598.68
649.06	595.54
649.41	592.57
649.75	589.45
650.09	586.08
650.43	582.94
650.78	579.51
651.12	576.50
651.46	573.51
651.80	570.49
652.14	567.53
652.49	564.70
652.83	561.91
653.17	558.89
653.51	555.87
653.85	552.94
654.20	550.10
654.54	547.04
654.88	544.04
655.22	540.78
655.56	537.73
655.90	534.95
656.25	532.27
656.59	529.35
656.93	526.78
657.27	524.21
657.61	521.25
657.95	518.93
658.29	516.47
658.64	513.92
658.98	511.23
659.32	508.60
659.66	505.79
660.00	503.09
660.34	500.40
660.68	497.83
661.02	495.20
661.36	492.57
661.70	490.02
662.05	487.61
662.39	485.42
662.73	483.17
663.07	480.71
663.41	478.50
663.75	476.06
664.09	473.47
664.43	471.17
664.77	469.08
665.11	466.83
665.45	464.41
665.79	462.11
666.13	459.81
666.47	457.53
666.81	455.33
667.15	453.00
667.49	450.88
667.83	448.79
668.17	446.63
668.51	444.41
668.85	442.33
669.19	440.35
669.53	438.16
669.87	436.09
670.21	434.11
670.55	431.87
670.89	430.21
671.23	428.48
671.57	426.55
671.91	424.66
672.25	422.62
672.58	420.77
672.92	418.90
673.26	417.02
673.60	415.30
673.94	413.61
674.28	412.03
674.62	410.42
674.96	408.70
675.30	407.04
675.64	405.55
675.97	403.88
676.31	402.15
676.65	400.53
676.99	398.99
677.33	397.40
677.67	395.85
678.01	394.10
678.34	392.54
678.68	391.22
679.02	389.58
679.36	387.96
679.70	386.57
680.04	385.05
680.37	383.59
680.71	382.07
681.05	380.68
681.39	379.20
681.73	377.82
682.06	376.49
682.40	375.17
682.74	373.66
683.08	372.33
683.42	370.99
683.75	369.64
684.09	368.11
684.43	366.70
684.77	365.43
685.10	363.96
685.44	362.44
685.78	360.92
686.12	359.68
686.45	358.42
686.79	357.00
687.13	355.85
687.46	354.58
687.80	353.28
688.14	351.97
688.48	350.64
688.81	349.21
689.15	347.95
689.49	346.65
689.82	345.56
690.16	344.32
690.50	343.13
690.83	341.98
691.17	340.82
691.51	339.63
691.84	338.45
692.18	337.58
692.52	336.44
692.85	335.46
693.19	334.42
693.52	333.30
693.86	332.29
694.20	330.99
694.53	329.98
694.87	328.79
695.21	327.69
695.54	326.71
695.88	325.63
696.21	324.33
696.55	323.34
696.88	322.27
697.22	321.33
697.56	320.36
697.89	319.40
698.23	318.35
698.56	317.35
698.90	316.38
699.23	315.10
699.57	314.21
699.90	313.07
700.24	311.91
700.58	310.93
700.91	310.00
701.25	309.16
701.58	308.36
701.92	307.61
702.25	306.77
702.59	305.72
702.92	304.88
703.26	304.20
703.59	303.36
703.93	302.69
704.26	301.85
704.60	301.00
704.93	300.07
705.26	299.31
705.60	298.57
705.93	297.92
706.27	297.31
706.60	296.65
706.94	295.93
707.27	295.23
707.61	294.57
707.94	293.90
708.27	293.11
708.61	292.21
708.94	291.54
709.28	290.87
709.61	290.43
709.94	289.88
710.28	289.20
710.61	288.58
710.95	287.64
711.28	287.10
711.61	286.35
711.95	285.73
712.28	285.06
712.61	284.46
712.95	283.73
713.28	283.10
713.61	282.38
713.95	281.70
714.28	281.23
714.61	280.61
714.95	279.96
715.28	279.40
715.61	278.76
715.95	278.24
716.28	277.63
716.61	277.03
716.95	276.47
717.28	275.92
717.61	275.38
717.94	274.85
718.28	274.15
718.61	273.65
718.94	273.20
719.27	272.79
719.61	272.32
719.94	271.87
720.27	271.36
720.60	270.89
720.94	270.55
721.27	270.08
721.60	269.63
721.93	269.17
722.27	268.81
722.60	268.59
722.93	268.07
723.26	267.73
723.59	267.30
723.93	266.82
724.26	266.45
724.59	266.04
724.92	265.72
725.25	265.41
725.59	265.08
725.92	264.56
726.25	264.17
726.58	263.76
726.91	263.36
727.24	263.00
727.57	262.62
727.91	262.25
728.24	261.95
728.57	261.63
728.90	261.30
729.23	260.85
729.56	260.53
729.89	260.27
730.22	259.87
730.55	259.51
730.89	259.20
731.22	258.88
731.55	258.55
731.88	258.25
732.21	257.88
732.54	257.53
732.87	257.35
733.20	257.09
733.53	256.81
733.86	256.54
734.19	256.25
734.52	255.93
734.85	255.70
735.18	255.27
735.51	254.99
735.84	254.74
736.17	254.43
736.50	253.99
736.83	253.84
737.16	253.56
737.49	253.21
737.82	252.92
738.15	252.69
738.48	252.41
738.81	252.09
739.14	251.85
739.47	251.65
739.80	251.35
740.13	251.11
740.46	250.77
740.79	250.54
741.12	250.21
741.45	250.00
741.78	249.73
742.11	249.54
742.44	249.24
742.77	248.98
743.10	248.85
743.43	248.63
743.75	248.24
744.08	248.29
744.41	248.07
744.74	247.76
745.07	247.50
745.40	247.24
745.73	247.18
746.06	247.04
746.39	246.78
746.71	246.65
747.04	246.40
747.37	246.23
747.70	246.00
748.03	245.86
748.36	245.61
748.68	245.38
749.01	245.15
749.34	244.95
749.67	244.88
750.00	244.66
750.33	244.64
750.65	244.37
750.98	243.98
751.31	243.83
751.64	243.76
751.97	243.66
752.29	243.59
752.62	243.32
752.95	243.10
753.28	243.00
753.60	242.73
753.93	242.56
754.26	242.44
754.59	242.22
754.91	242.02
755.24	241.90
755.57	241.74
755.90	241.67
756.22	241.60
756.55	241.32
756.88	241.19
757.20	240.91
757.53	240.88
757.86	240.68
758.19	240.52
758.51	240.50
758.84	240.30
759.17	240.04
759.49	239.88
759.82	239.85
760.15	239.78
760.47	239.68
760.80	239.57
761.13	239.50
761.45	239.43
761.78	239.29
762.11	239.16
762.43	238.93
762.76	238.71
763.08	238.58
763.41	238.54
763.74	238.44
764.06	238.28
764.39	238.10
764.71	238.02
765.04	237.97
765.37	237.73
765.69	237.64
766.02	237.55
766.34	237.49
766.67	237.32
767.00	237.11
767.32	237.17
767.65	237.08
767.97	236.87
768.30	236.71
768.62	236.74
768.95	236.73
769.27	236.76
769.60	236.73
769.92	236.66
770.25	236.57
770.57	236.31
770.90	236.20
771.22	236.08
771.55	235.94
771.87	235.96
772.20	235.89
772.52	235.94
772.85	236.16
773.17	236.00
773.50	235.90
773.82	235.87
774.15	235.65
774.47	235.50
774.80	235.56
775.12	235.46
775.45	235.32
775.77	235.20
776.09	235.21
776.42	235.10
776.74	235.07
777.07	234.90
777.39	234.86
777.72	234.88
778.04	234.85
778.36	234.78
778.69	234.56
779.01	234.52
779.33	234.27
779.66	233.98
779.98	233.92
780.31	233.90
780.63	233.91
780.95	233.82
781.28	233.79
781.60	233.61
781.92	233.70
782.25	233.63
782.57	233.50
782.89	233.47
783.22	233.53
783.54	233.40
783.86	233.43
784.19	233.44
784.51	233.35
784.83	233.23
785.16	233.23
785.48	233.26
785.80	233.25
786.12	233.29
786.45	233.22
786.77	233.31
787.09	233.20
787.42	232.98
787.74	232.99
788.06	232.94
788.38	232.92
788.71	232.84
789.03	232.73
789.35	232.85
789.67	232.65
789.99	232.62
790.32	232.53
790.64	232.47
790.96	232.63
791.28	232.58
791.61	232.67
791.93	232.57
792.25	232.51
