SpectraSuite Data File
++++++++++++++++++++++++++++++++++++
Date: Fri Feb 01 14:38:20 EST 2013
User: group
Dark Spectrum Present: No
Reference Spectrum Present: No
Number of Sampled Component Spectra: 1
Spectrometers: USB2E7196
Integration Time (usec): 70000 (USB2E7196)
Spectra Averaged: 10 (USB2E7196)
Boxcar Smoothing: 10 (USB2E7196)
Correct for Electrical Dark: No (USB2E7196)
Strobe/Lamp Enabled: No (USB2E7196)
Correct for Detector Non-linearity: No (USB2E7196)
Correct for Stray Light: No (USB2E7196)
Number of Pixels in Processed Spectrum: 2048
>>>>>Begin Processed Spectral Data<<<<<
339.09	0.00
339.48	214.00
339.86	217.40
340.24	218.50
340.63	219.80
341.01	224.10
341.39	222.20
341.78	227.10
342.16	227.30
342.54	225.00
342.93	214.27
343.31	225.07
343.69	225.76
344.07	226.25
344.46	226.61
344.84	227.00
345.22	227.17
345.60	227.43
345.99	227.48
346.37	227.52
346.75	227.60
347.13	227.60
347.52	227.61
347.90	227.79
348.28	227.88
348.66	227.83
349.05	227.84
349.43	227.89
349.81	227.89
350.19	227.82
350.57	227.91
350.96	227.90
351.34	228.00
351.72	227.97
352.10	228.04
352.48	228.14
352.87	228.09
353.25	228.18
353.63	228.24
354.01	228.29
354.39	228.36
354.77	228.62
355.15	228.65
355.54	228.70
355.92	228.83
356.30	228.92
356.68	229.22
357.06	229.33
357.44	229.37
357.82	229.49
358.20	229.63
358.58	229.70
358.97	229.86
359.35	230.05
359.73	230.19
360.11	230.22
360.49	230.36
360.87	230.53
361.25	230.60
361.63	230.73
362.01	230.71
362.39	230.75
362.77	230.71
363.15	230.91
363.53	230.94
363.91	230.94
364.29	230.88
364.67	230.85
365.05	230.78
365.43	230.82
365.81	230.76
366.19	230.74
366.57	230.86
366.95	230.85
367.33	230.66
367.71	230.60
368.09	230.61
368.47	230.47
368.85	230.44
369.23	230.43
369.61	230.39
369.99	230.47
370.37	230.51
370.75	230.55
371.13	230.50
371.51	230.45
371.89	230.39
372.27	230.42
372.65	230.26
373.03	230.27
373.41	230.12
373.78	230.08
374.16	230.08
374.54	229.90
374.92	229.77
375.30	229.68
375.68	229.53
376.06	229.48
376.44	229.40
376.82	229.24
377.19	229.11
377.57	229.01
377.95	228.97
378.33	228.83
378.71	228.63
379.09	228.49
379.47	228.41
379.84	228.23
380.22	228.14
380.60	227.99
380.98	227.90
381.36	227.85
381.73	227.71
382.11	227.59
382.49	227.51
382.87	227.46
383.25	227.44
383.62	227.63
384.00	227.47
384.38	227.50
384.76	227.53
385.13	227.52
385.51	227.43
385.89	227.29
386.27	227.19
386.64	227.11
387.02	227.07
387.40	227.03
387.78	227.04
388.15	226.84
388.53	226.84
388.91	226.77
389.29	226.77
389.66	226.81
390.04	226.80
390.42	226.75
390.79	226.72
391.17	226.70
391.55	226.50
391.92	226.52
392.30	226.54
392.68	226.53
393.05	226.60
393.43	226.58
393.81	226.59
394.18	226.50
394.56	226.49
394.94	226.52
395.31	226.55
395.69	226.64
396.06	226.79
396.44	226.88
396.82	226.90
397.19	227.02
397.57	227.03
397.95	227.15
398.32	227.23
398.70	227.30
399.07	227.38
399.45	227.49
399.82	227.51
400.20	227.54
400.58	227.60
400.95	227.57
401.33	227.68
401.70	227.90
402.08	228.08
402.45	228.37
402.83	228.58
403.20	228.75
403.58	228.90
403.95	229.03
404.33	229.17
404.71	229.35
405.08	229.66
405.46	229.80
405.83	229.96
406.21	230.12
406.58	230.31
406.96	230.67
407.33	230.90
407.70	231.29
408.08	231.68
408.45	232.00
408.83	232.30
409.20	232.55
409.58	232.75
409.95	233.13
410.33	233.34
410.70	233.44
411.08	233.69
411.45	234.02
411.82	234.42
412.20	234.90
412.57	235.49
412.95	235.75
413.32	236.32
413.69	236.83
414.07	237.39
414.44	238.02
414.82	238.47
415.19	239.15
415.56	239.76
415.94	240.35
416.31	241.18
416.68	241.98
417.06	242.94
417.43	243.80
417.81	244.63
418.18	245.65
418.55	246.82
418.93	248.01
419.30	249.11
419.67	250.31
420.04	251.53
420.42	252.77
420.79	254.25
421.16	255.60
421.54	257.20
421.91	258.81
422.28	260.48
422.66	262.22
423.03	263.97
423.40	265.79
423.77	267.75
424.15	269.66
424.52	271.58
424.89	273.73
425.26	275.82
425.64	277.98
426.01	280.19
426.38	282.39
426.75	284.66
427.13	287.11
427.50	289.51
427.87	292.02
428.24	294.60
428.61	297.12
428.99	300.02
429.36	302.83
429.73	305.69
430.10	308.49
430.47	311.40
430.85	314.51
431.22	317.68
431.59	321.09
431.96	324.16
432.33	327.87
432.70	331.26
433.08	335.44
433.45	339.16
433.82	342.94
434.19	347.26
434.56	351.40
434.93	355.36
435.30	359.58
435.68	363.92
436.05	368.15
436.42	372.32
436.79	376.02
437.16	380.33
437.53	384.72
437.90	389.00
438.27	393.20
438.64	397.50
439.01	401.65
439.38	405.20
439.75	408.83
440.13	412.73
440.50	416.57
440.87	419.70
441.24	422.98
441.61	426.57
441.98	429.19
442.35	432.39
442.72	435.43
443.09	438.37
443.46	440.31
443.83	441.60
444.20	442.90
444.57	444.62
444.94	445.40
445.31	446.46
445.68	447.48
446.05	448.17
446.42	447.99
446.79	447.89
447.16	447.78
447.53	447.84
447.90	446.60
448.27	445.33
448.64	443.23
449.01	441.95
449.37	439.42
449.74	436.99
450.11	434.16
450.48	431.01
450.85	427.50
451.22	424.65
451.59	422.15
451.96	419.57
452.33	416.10
452.70	412.87
453.07	408.75
453.43	404.60
453.80	400.67
454.17	396.90
454.54	393.19
454.91	389.26
455.28	385.48
455.65	381.95
456.02	378.47
456.38	375.52
456.75	371.70
457.12	368.38
457.49	365.14
457.86	361.66
458.23	358.91
458.59	356.01
458.96	352.95
459.33	350.12
459.70	347.39
460.07	345.22
460.43	342.79
460.80	340.46
461.17	338.43
461.54	336.22
461.91	334.10
462.27	331.90
462.64	329.89
463.01	327.77
463.38	325.72
463.74	323.59
464.11	321.77
464.48	320.27
464.85	318.58
465.21	317.19
465.58	315.85
465.95	314.12
466.32	312.70
466.68	311.37
467.05	309.98
467.42	308.68
467.78	307.10
468.15	305.71
468.52	304.65
468.88	303.40
469.25	302.06
469.62	301.13
469.98	300.04
470.35	299.10
470.72	298.00
471.08	296.96
471.45	295.95
471.82	294.92
472.18	293.73
472.55	292.86
472.92	291.99
473.28	291.01
473.65	290.24
474.02	289.45
474.38	288.66
474.75	287.84
475.11	286.90
475.48	286.17
475.85	285.49
476.21	284.97
476.58	284.29
476.94	283.94
477.31	283.35
477.67	282.91
478.04	282.41
478.41	282.05
478.77	281.82
479.14	281.51
479.50	281.23
479.87	281.10
480.23	280.91
480.60	280.67
480.96	280.53
481.33	280.25
481.69	279.93
482.06	279.78
482.42	279.65
482.79	279.50
483.15	279.56
483.52	279.59
483.88	279.41
484.25	279.40
484.61	279.37
484.98	279.31
485.34	279.30
485.71	279.35
486.07	279.42
486.44	279.28
486.80	279.38
487.17	279.43
487.53	279.55
487.90	279.78
488.26	279.99
488.62	280.15
488.99	280.36
489.35	280.57
489.72	280.81
490.08	281.02
490.44	281.27
490.81	281.57
491.17	281.71
491.54	281.98
491.90	282.20
492.26	282.46
492.63	282.80
492.99	283.12
493.36	283.36
493.72	283.72
494.08	284.19
494.45	284.52
494.81	284.99
495.17	285.31
495.54	285.53
495.90	285.82
496.26	286.22
496.63	286.62
496.99	287.03
497.35	287.45
497.72	287.87
498.08	288.23
498.44	288.52
498.80	289.00
499.17	289.33
499.53	289.75
499.89	290.02
500.26	290.40
500.62	290.71
500.98	291.20
501.34	291.49
501.71	291.78
502.07	292.11
502.43	292.31
502.79	292.53
503.16	292.87
503.52	293.09
503.88	293.37
504.24	293.67
504.60	294.03
504.97	294.29
505.33	294.51
505.69	294.87
506.05	295.20
506.41	295.52
506.78	295.79
507.14	296.04
507.50	296.43
507.86	296.69
508.22	297.08
508.59	297.32
508.95	297.72
509.31	298.14
509.67	298.50
510.03	298.99
510.39	299.46
510.75	299.86
511.12	300.24
511.48	300.71
511.84	301.11
512.20	301.46
512.56	301.93
512.92	302.56
513.28	303.01
513.64	303.53
514.00	304.03
514.37	304.65
514.73	305.23
515.09	305.94
515.45	306.61
515.81	307.34
516.17	308.19
516.53	309.02
516.89	309.83
517.25	310.88
517.61	311.86
517.97	312.90
518.33	313.98
518.69	315.41
519.05	316.65
519.41	318.08
519.77	319.54
520.13	321.00
520.49	322.37
520.85	324.16
521.21	325.92
521.57	327.79
521.93	329.62
522.29	331.65
522.65	333.59
523.01	335.66
523.37	337.78
523.73	340.04
524.09	342.20
524.45	344.49
524.81	346.91
525.17	349.36
525.53	352.03
525.89	354.63
526.25	357.19
526.61	359.85
526.97	362.61
527.33	365.67
527.68	368.77
528.04	372.07
528.40	375.14
528.76	378.52
529.12	381.87
529.48	385.50
529.84	389.07
530.20	392.90
530.56	396.79
530.91	400.70
531.27	404.48
531.63	408.39
531.99	412.46
532.35	416.36
532.71	420.65
533.07	425.01
533.42	429.77
533.78	434.31
534.14	438.97
534.50	443.51
534.86	448.24
535.21	453.03
535.57	457.96
535.93	463.05
536.29	468.00
536.65	472.83
537.00	477.72
537.36	482.62
537.72	487.74
538.08	492.90
538.44	497.92
538.79	503.30
539.15	508.79
539.51	514.21
539.87	519.73
540.22	524.96
540.58	530.49
540.94	535.65
541.29	540.96
541.65	546.49
542.01	552.33
542.37	557.89
542.72	563.29
543.08	568.73
543.44	574.40
543.79	579.81
544.15	585.67
544.51	591.42
544.87	597.48
545.22	603.05
545.58	608.79
545.94	614.38
546.29	620.22
546.65	625.89
547.01	631.56
547.36	637.26
547.72	643.10
548.07	648.62
548.43	654.37
548.79	660.14
549.14	665.84
549.50	671.32
549.86	676.73
550.21	682.36
550.57	687.83
550.92	693.28
551.28	698.74
551.64	704.14
551.99	709.89
552.35	715.15
552.70	720.57
553.06	725.92
553.41	731.58
553.77	736.87
554.13	742.24
554.48	748.07
554.84	753.59
555.19	758.94
555.55	764.45
555.90	769.70
556.26	774.98
556.61	780.40
556.97	785.65
557.32	790.89
557.68	795.97
558.03	801.21
558.39	806.14
558.74	811.55
559.10	816.80
559.45	821.43
559.81	826.68
560.16	831.54
560.52	836.52
560.87	841.27
561.23	846.10
561.58	851.16
561.94	855.24
562.29	859.76
562.64	864.12
563.00	868.33
563.35	873.14
563.71	877.70
564.06	882.00
564.42	886.36
564.77	890.80
565.12	895.48
565.48	899.82
565.83	903.80
566.19	907.87
566.54	911.35
566.89	915.51
567.25	919.23
567.60	923.23
567.96	927.19
568.31	930.93
568.66	934.35
569.02	937.83
569.37	941.21
569.72	944.47
570.08	948.13
570.43	951.58
570.78	954.25
571.14	957.17
571.49	959.94
571.84	963.07
572.20	965.65
572.55	968.04
572.90	970.65
573.26	973.83
573.61	976.29
573.96	979.05
574.31	980.90
574.67	982.85
575.02	984.79
575.37	986.65
575.72	988.36
576.08	990.20
576.43	991.83
576.78	993.61
577.13	995.71
577.49	997.17
577.84	998.61
578.19	1000.42
578.54	1001.76
578.90	1003.05
579.25	1003.80
579.60	1004.89
579.95	1005.67
580.30	1006.40
580.66	1006.69
581.01	1007.16
581.36	1007.81
581.71	1008.66
582.06	1009.59
582.42	1009.86
582.77	1009.99
583.12	1010.43
583.47	1011.06
583.82	1011.13
584.17	1011.57
584.53	1011.66
584.88	1011.84
585.23	1011.96
585.58	1011.69
585.93	1011.68
586.28	1011.53
586.63	1011.62
586.98	1011.78
587.34	1012.10
587.69	1011.96
588.04	1011.89
588.39	1011.56
588.74	1011.11
589.09	1010.68
589.44	1009.60
589.79	1009.56
590.14	1009.13
590.49	1008.63
590.84	1007.50
591.19	1007.22
591.54	1005.74
591.89	1004.14
592.25	1003.27
592.60	1001.90
592.95	1000.85
593.30	999.58
593.65	998.43
594.00	997.01
594.35	996.09
594.70	994.14
595.05	992.65
595.40	990.88
595.75	989.37
596.10	988.07
596.45	986.85
596.80	985.89
597.15	984.15
597.50	982.68
597.85	981.40
598.19	980.20
598.54	978.62
598.89	977.79
599.24	977.17
599.59	975.36
599.94	974.10
600.29	972.27
600.64	970.53
600.99	968.57
601.34	966.84
601.69	964.43
602.04	963.03
602.39	961.35
602.74	960.00
603.08	958.75
603.43	956.91
603.78	955.00
604.13	953.03
604.48	951.10
604.83	949.37
605.18	947.10
605.53	944.48
605.87	941.73
606.22	939.47
606.57	936.69
606.92	934.29
607.27	932.36
607.62	930.61
607.96	928.48
608.31	926.57
608.66	924.38
609.01	921.87
609.36	919.20
609.70	916.50
610.05	913.66
610.40	910.62
610.75	907.78
611.10	904.89
611.44	901.69
611.79	898.94
612.14	895.79
612.49	892.71
612.83	890.00
613.18	887.17
613.53	884.29
613.88	881.28
614.22	878.33
614.57	874.96
614.92	871.80
615.27	868.70
615.61	865.57
615.96	862.50
616.31	859.81
616.65	857.01
617.00	854.23
617.35	851.25
617.70	848.20
618.04	845.20
618.39	842.31
618.74	839.43
619.08	836.21
619.43	833.23
619.78	830.18
620.12	827.26
620.47	824.13
620.82	820.80
621.16	817.62
621.51	814.92
621.85	811.77
622.20	808.32
622.55	805.54
622.89	802.66
623.24	799.58
623.59	796.57
623.93	793.49
624.28	790.40
624.62	787.70
624.97	784.90
625.32	781.94
625.66	778.99
626.01	776.14
626.35	773.23
626.70	770.18
627.04	767.74
627.39	764.73
627.73	761.96
628.08	759.03
628.43	756.12
628.77	752.86
629.12	749.54
629.46	746.60
629.81	743.37
630.15	740.07
630.50	736.85
630.84	733.25
631.19	729.90
631.53	726.57
631.88	722.90
632.22	719.22
632.57	716.10
632.91	712.76
633.26	709.51
633.60	705.98
633.95	702.92
634.29	699.59
634.64	696.79
634.98	693.55
635.32	690.85
635.67	688.10
636.01	685.00
636.36	682.12
636.70	679.38
637.05	676.39
637.39	673.71
637.73	671.09
638.08	668.87
638.42	666.31
638.77	663.70
639.11	660.93
639.45	658.22
639.80	655.29
640.14	652.45
640.49	649.77
640.83	647.20
641.17	644.37
641.52	641.33
641.86	638.26
642.20	635.68
642.55	632.60
642.89	629.54
643.23	626.90
643.58	624.39
643.92	621.46
644.26	618.61
644.61	615.74
644.95	612.57
645.29	609.30
645.64	606.20
645.98	603.52
646.32	601.00
646.66	598.09
647.01	595.30
647.35	592.61
647.69	589.88
648.04	587.37
648.38	584.50
648.72	581.70
649.06	578.81
649.41	576.04
649.75	573.11
650.09	570.22
650.43	567.29
650.78	564.12
651.12	561.13
651.46	558.35
651.80	555.55
652.14	553.11
652.49	550.26
652.83	547.48
653.17	544.39
653.51	541.20
653.85	538.66
654.20	535.75
654.54	532.76
654.88	529.75
655.22	526.80
655.56	523.89
655.90	521.14
656.25	518.51
656.59	515.72
656.93	513.18
657.27	510.74
657.61	508.13
657.95	505.71
658.29	503.30
658.64	500.79
658.98	497.89
659.32	495.09
659.66	492.69
660.00	490.21
660.34	487.80
660.68	485.55
661.02	483.10
661.36	480.87
661.70	478.61
662.05	476.22
662.39	473.95
662.73	471.90
663.07	469.76
663.41	467.55
663.75	465.34
664.09	463.19
664.43	460.89
664.77	458.78
665.11	456.74
665.45	454.57
665.79	452.40
666.13	450.41
666.47	448.36
666.81	446.21
667.15	444.16
667.49	442.19
667.83	440.26
668.17	438.24
668.51	436.03
668.85	434.09
669.19	432.39
669.53	430.57
669.87	428.60
670.21	426.76
670.55	424.87
670.89	423.21
671.23	421.32
671.57	419.57
671.91	417.84
672.25	416.01
672.58	414.25
672.92	412.49
673.26	410.89
673.60	409.32
673.94	407.66
674.28	406.16
674.62	404.62
674.96	402.95
675.30	401.44
675.64	400.14
675.97	398.58
676.31	396.90
676.65	395.24
676.99	393.84
677.33	392.26
677.67	390.78
678.01	389.12
678.34	387.64
678.68	386.13
679.02	384.45
679.36	382.87
679.70	381.42
680.04	380.20
680.37	378.63
680.71	377.01
681.05	375.71
681.39	374.38
681.73	372.87
682.06	371.57
682.40	370.10
682.74	368.68
683.08	367.28
683.42	366.03
683.75	364.63
684.09	363.12
684.43	361.64
684.77	360.23
685.10	358.75
685.44	357.34
685.78	356.09
686.12	355.01
686.45	353.73
686.79	352.41
687.13	350.93
687.46	349.68
687.80	348.50
688.14	347.22
688.48	345.92
688.81	344.61
689.15	343.38
689.49	342.19
689.82	341.02
690.16	339.89
690.50	338.76
690.83	337.60
691.17	336.45
691.51	335.43
691.84	334.43
692.18	333.28
692.52	332.02
692.85	330.83
693.19	329.62
693.52	328.55
693.86	327.42
694.20	326.42
694.53	325.37
694.87	324.26
695.21	323.16
695.54	322.07
695.88	321.02
696.21	319.90
696.55	318.88
696.88	317.86
697.22	316.88
697.56	315.79
697.89	314.87
698.23	313.78
698.56	312.70
698.90	311.64
699.23	310.70
699.57	309.88
699.90	308.89
700.24	307.88
700.58	307.06
700.91	306.22
701.25	305.32
701.58	304.50
701.92	303.77
702.25	302.95
702.59	302.17
702.92	301.38
703.26	300.56
703.59	299.76
703.93	299.06
704.26	298.31
704.60	297.57
704.93	296.80
705.26	296.16
705.60	295.41
705.93	294.79
706.27	294.27
706.60	293.62
706.94	293.03
707.27	292.40
707.61	291.59
707.94	290.92
708.27	290.13
708.61	289.39
708.94	288.69
709.28	288.19
709.61	287.47
709.94	286.95
710.28	286.43
710.61	285.92
710.95	285.14
711.28	284.50
711.61	283.79
711.95	283.28
712.28	282.61
712.61	282.10
712.95	281.54
713.28	281.08
713.61	280.52
713.95	279.90
714.28	279.29
714.61	278.74
714.95	278.25
715.28	277.81
715.61	277.37
715.95	276.94
716.28	276.27
716.61	275.81
716.95	275.25
717.28	274.75
717.61	274.21
717.94	273.65
718.28	273.08
718.61	272.72
718.94	272.17
719.27	271.78
719.61	271.33
719.94	270.85
720.27	270.25
720.60	269.73
720.94	269.37
721.27	269.09
721.60	268.84
721.93	268.41
722.27	268.00
722.60	267.59
722.93	267.11
723.26	266.69
723.59	266.28
723.93	265.88
724.26	265.44
724.59	265.00
724.92	264.61
725.25	264.30
725.59	263.84
725.92	263.56
726.25	263.19
726.58	262.76
726.91	262.40
727.24	262.13
727.57	261.80
727.91	261.40
728.24	260.98
728.57	260.54
728.90	260.26
729.23	259.92
729.56	259.59
729.89	259.16
730.22	258.73
730.55	258.37
730.89	257.91
731.22	257.52
731.55	257.20
731.88	257.02
732.21	256.65
732.54	256.37
732.87	256.05
733.20	255.74
733.53	255.60
733.86	255.29
734.19	254.88
734.52	254.53
734.85	254.42
735.18	254.13
735.51	253.88
735.84	253.51
736.17	253.20
736.50	252.84
736.83	252.76
737.16	252.55
737.49	252.36
737.82	252.13
738.15	251.99
738.48	251.59
738.81	251.23
739.14	251.07
739.47	250.71
739.80	250.40
740.13	250.21
740.46	249.82
740.79	249.64
741.12	249.53
741.45	249.37
741.78	249.05
742.11	248.80
742.44	248.40
742.77	248.26
743.10	248.08
743.43	247.80
743.75	247.45
744.08	247.54
744.41	247.23
744.74	247.13
745.07	246.90
745.40	246.92
745.73	246.92
746.06	246.64
746.39	246.61
746.71	246.44
747.04	246.18
747.37	246.03
747.70	245.70
748.03	245.36
748.36	245.28
748.68	245.07
749.01	244.80
749.34	244.70
749.67	244.49
750.00	244.35
750.33	244.44
750.65	244.32
750.98	243.90
751.31	243.68
751.64	243.44
751.97	243.42
752.29	243.19
752.62	242.92
752.95	242.84
753.28	242.56
753.60	242.33
753.93	242.29
754.26	242.10
754.59	241.89
754.91	241.80
755.24	241.61
755.57	241.44
755.90	241.47
756.22	241.39
756.55	241.26
756.88	241.03
757.20	240.75
757.53	240.50
757.86	240.39
758.19	240.36
758.51	240.28
758.84	239.95
759.17	239.87
759.49	239.69
759.82	239.62
760.15	239.57
760.47	239.44
760.80	239.24
761.13	239.21
761.45	239.20
761.78	239.03
762.11	238.86
762.43	238.72
762.76	238.40
763.08	238.23
763.41	238.15
763.74	238.07
764.06	237.89
764.39	237.80
764.71	237.69
765.04	237.60
765.37	237.50
765.69	237.42
766.02	237.30
766.34	237.18
766.67	236.90
767.00	236.86
767.32	236.90
767.65	236.96
767.97	236.81
768.30	236.74
768.62	236.69
768.95	236.60
769.27	236.41
769.60	236.42
769.92	236.30
770.25	235.96
770.57	235.84
770.90	235.77
771.22	235.56
771.55	235.44
771.87	235.30
772.20	235.09
772.52	235.11
772.85	235.13
773.17	235.09
773.50	235.07
773.82	235.00
774.15	234.82
774.47	234.56
774.80	234.53
775.12	234.44
775.45	234.30
775.77	234.15
776.09	234.08
776.42	233.99
776.74	234.00
777.07	234.10
777.39	234.06
777.72	234.04
778.04	234.08
778.36	234.05
778.69	234.05
779.01	234.10
779.33	233.84
779.66	233.64
779.98	233.53
780.31	233.47
780.63	233.40
780.95	233.31
781.28	233.23
781.60	233.07
781.92	232.93
782.25	232.98
782.57	232.90
782.89	232.86
783.22	232.89
783.54	232.83
783.86	232.73
784.19	232.62
784.51	232.64
784.83	232.50
785.16	232.45
785.48	232.42
785.80	232.38
786.12	232.46
786.45	232.46
786.77	232.47
787.09	232.43
787.42	232.36
787.74	232.40
788.06	232.40
788.38	232.33
788.71	232.31
789.03	232.32
789.35	232.44
789.67	232.53
789.99	232.43
790.32	232.33
790.64	232.40
790.96	232.60
791.28	232.54
791.61	232.70
791.93	232.60
792.25	232.48
792.57	232.64
792.89	232.51
793.21	232.45
