SpectraSuite Data File
++++++++++++++++++++++++++++++++++++
Date: Fri Feb 01 14:40:28 EST 2013
User: group
Dark Spectrum Present: No
Reference Spectrum Present: No
Number of Sampled Component Spectra: 1
Spectrometers: USB2E7196
Integration Time (usec): 70000 (USB2E7196)
Spectra Averaged: 10 (USB2E7196)
Boxcar Smoothing: 10 (USB2E7196)
Correct for Electrical Dark: No (USB2E7196)
Strobe/Lamp Enabled: No (USB2E7196)
Correct for Detector Non-linearity: No (USB2E7196)
Correct for Stray Light: No (USB2E7196)
Number of Pixels in Processed Spectrum: 2048
>>>>>Begin Processed Spectral Data<<<<<
339.09	0.00
339.48	216.40
339.86	216.00
340.24	218.70
340.63	222.00
341.01	226.00
341.39	222.80
341.78	223.00
342.16	226.10
342.54	226.10
342.93	214.68
343.31	225.54
343.69	226.09
344.07	226.68
344.46	227.09
344.84	227.39
345.22	227.47
345.60	227.74
345.99	228.03
346.37	228.18
346.75	228.24
347.13	228.26
347.52	228.27
347.90	228.32
348.28	228.30
348.66	228.31
349.05	228.34
349.43	228.43
349.81	228.40
350.19	228.43
350.57	228.53
350.96	228.57
351.34	228.65
351.72	228.75
352.10	228.78
352.48	228.87
352.87	228.95
353.25	229.08
353.63	229.01
354.01	228.96
354.39	228.97
354.77	229.11
355.15	229.28
355.54	229.36
355.92	229.31
356.30	229.44
356.68	229.70
357.06	229.70
357.44	229.73
357.82	229.84
358.20	229.98
358.58	229.97
358.97	230.18
359.35	230.21
359.73	230.27
360.11	230.38
360.49	230.40
360.87	230.41
361.25	230.35
361.63	230.56
362.01	230.64
362.39	230.72
362.77	230.77
363.15	230.80
363.53	230.87
363.91	230.96
364.29	230.99
364.67	230.79
365.05	230.86
365.43	230.79
365.81	230.78
366.19	230.83
366.57	230.99
366.95	230.91
367.33	230.88
367.71	230.84
368.09	230.79
368.47	230.89
368.85	230.91
369.23	231.00
369.61	230.96
369.99	230.96
370.37	230.94
370.75	230.95
371.13	230.77
371.51	230.77
371.89	230.70
372.27	230.71
372.65	230.64
373.03	230.60
373.41	230.60
373.78	230.56
374.16	230.43
374.54	230.23
374.92	230.01
375.30	229.95
375.68	229.81
376.06	229.73
376.44	229.52
376.82	229.37
377.19	229.25
377.57	229.20
377.95	229.14
378.33	229.01
378.71	228.92
379.09	228.90
379.47	228.81
379.84	228.67
380.22	228.52
380.60	228.43
380.98	228.28
381.36	228.13
381.73	228.00
382.11	227.91
382.49	227.86
382.87	227.85
383.25	227.76
383.62	227.99
384.00	227.88
384.38	227.84
384.76	227.85
385.13	227.88
385.51	227.76
385.89	227.62
386.27	227.60
386.64	227.54
387.02	227.47
387.40	227.32
387.78	227.31
388.15	227.36
388.53	227.38
388.91	227.33
389.29	227.33
389.66	227.29
390.04	227.23
390.42	227.22
390.79	227.13
391.17	227.10
391.55	226.80
391.92	226.76
392.30	226.80
392.68	226.79
393.05	226.66
393.43	226.68
393.81	226.80
394.18	226.75
394.56	226.66
394.94	226.76
395.31	226.80
395.69	226.93
396.06	226.91
396.44	226.87
396.82	226.98
397.19	227.10
397.57	227.13
397.95	227.27
398.32	227.29
398.70	227.32
399.07	227.47
399.45	227.58
399.82	227.73
400.20	227.68
400.58	227.74
400.95	227.77
401.33	227.80
401.70	227.98
402.08	228.03
402.45	228.20
402.83	228.31
403.20	228.46
403.58	228.50
403.95	228.62
404.33	228.83
404.71	228.91
405.08	229.23
405.46	229.39
405.83	229.49
406.21	229.63
406.58	229.86
406.96	230.07
407.33	230.22
407.70	230.48
408.08	230.98
408.45	231.20
408.83	231.58
409.20	231.88
409.58	232.03
409.95	232.51
410.33	232.79
410.70	232.97
411.08	233.24
411.45	233.48
411.82	233.80
412.20	234.12
412.57	234.61
412.95	234.75
413.32	235.23
413.69	235.63
414.07	236.08
414.44	236.58
414.82	237.04
415.19	237.52
415.56	238.04
415.94	238.43
416.31	239.09
416.68	239.68
417.06	240.22
417.43	240.86
417.81	241.53
418.18	242.27
418.55	243.06
418.93	243.94
419.30	244.87
419.67	245.71
420.04	246.74
420.42	247.64
420.79	248.81
421.16	249.84
421.54	251.10
421.91	252.29
422.28	253.55
422.66	254.81
423.03	256.27
423.40	257.58
423.77	258.99
424.15	260.38
424.52	261.77
424.89	263.52
425.26	265.00
425.64	266.37
426.01	267.99
426.38	269.54
426.75	271.26
427.13	272.96
427.50	274.87
427.87	276.59
428.24	278.43
428.61	280.12
428.99	281.98
429.36	284.01
429.73	286.10
430.10	288.15
430.47	290.11
430.85	292.00
431.22	294.13
431.59	296.53
431.96	298.80
432.33	301.28
432.70	303.61
433.08	306.40
433.45	308.98
433.82	311.55
434.19	314.49
434.56	317.25
434.93	319.86
435.30	322.43
435.68	325.29
436.05	328.07
436.42	330.82
436.79	333.47
437.16	336.15
437.53	338.92
437.90	341.60
438.27	344.49
438.64	347.47
439.01	350.16
439.38	352.42
439.75	354.56
440.13	357.10
440.50	359.51
440.87	361.46
441.24	363.48
441.61	365.67
441.98	367.15
442.35	369.07
442.72	370.99
443.09	372.86
443.46	374.06
443.83	374.80
444.20	375.46
444.57	376.34
444.94	376.75
445.31	377.21
445.68	377.78
446.05	377.86
446.42	377.40
446.79	376.97
447.16	376.55
447.53	376.32
447.90	375.30
448.27	374.15
448.64	372.58
449.01	371.49
449.37	369.46
449.74	367.66
450.11	365.49
450.48	363.07
450.85	360.55
451.22	358.34
451.59	356.37
451.96	354.42
452.33	351.81
452.70	349.44
453.07	346.60
453.43	343.69
453.80	340.88
454.17	338.34
454.54	335.79
454.91	333.15
455.28	330.40
455.65	327.80
456.02	325.55
456.38	323.32
456.75	320.60
457.12	318.42
457.49	316.30
457.86	314.10
458.23	312.26
458.59	310.25
458.96	308.14
459.33	306.33
459.70	304.47
460.07	303.00
460.43	301.13
460.80	299.50
461.17	297.98
461.54	296.39
461.91	294.92
462.27	293.51
462.64	292.18
463.01	290.80
463.38	289.47
463.74	287.74
464.11	286.62
464.48	285.52
464.85	284.31
465.21	283.39
465.58	282.22
465.95	281.09
466.32	280.22
466.68	279.22
467.05	278.10
467.42	277.11
467.78	276.00
468.15	275.20
468.52	274.43
468.88	273.41
469.25	272.64
469.62	271.92
469.98	271.00
470.35	270.18
470.72	269.43
471.08	268.59
471.45	268.10
471.82	267.42
472.18	266.73
472.55	266.27
472.92	265.61
473.28	265.05
473.65	264.43
474.02	263.69
474.38	263.15
474.75	262.65
475.11	262.24
475.48	261.86
475.85	261.39
476.21	260.93
476.58	260.58
476.94	260.12
477.31	259.71
477.67	259.45
478.04	259.07
478.41	258.84
478.77	258.76
479.14	258.42
479.50	258.18
479.87	257.94
480.23	257.73
480.60	257.45
480.96	257.30
481.33	257.17
481.69	256.99
482.06	256.89
482.42	256.77
482.79	256.50
483.15	256.41
483.52	256.36
483.88	256.29
484.25	256.27
484.61	256.43
484.98	256.42
485.34	256.49
485.71	256.63
486.07	256.68
486.44	256.70
486.80	256.79
487.17	256.96
487.53	257.19
487.90	257.37
488.26	257.72
488.62	257.95
488.99	258.20
489.35	258.54
489.72	258.86
490.08	259.21
490.44	259.60
490.81	259.97
491.17	260.32
491.54	260.79
491.90	261.32
492.26	261.80
492.63	262.40
492.99	263.02
493.36	263.74
493.72	264.45
494.08	265.14
494.45	265.97
494.81	266.94
495.17	267.80
495.54	268.84
495.90	269.62
496.26	270.75
496.63	271.99
496.99	273.27
497.35	274.57
497.72	276.00
498.08	277.37
498.44	278.96
498.80	280.66
499.17	282.36
499.53	283.91
499.89	285.71
500.26	287.58
500.62	289.52
500.98	291.66
501.34	293.75
501.71	295.93
502.07	298.30
502.43	300.51
502.79	303.15
503.16	305.86
503.52	308.70
503.88	311.49
504.24	314.40
504.60	317.47
504.97	320.70
505.33	323.91
505.69	327.49
506.05	330.99
506.41	334.53
506.78	338.37
507.14	342.40
507.50	346.71
507.86	351.00
508.22	355.37
508.59	359.78
508.95	364.57
509.31	369.66
509.67	374.65
510.03	379.89
510.39	385.06
510.75	390.41
511.12	396.04
511.48	401.83
511.84	407.66
512.20	413.59
512.56	419.90
512.92	426.41
513.28	433.09
513.64	439.92
514.00	447.03
514.37	454.00
514.73	461.25
515.09	468.39
515.45	475.76
515.81	483.55
516.17	491.36
516.53	499.16
516.89	507.10
517.25	515.22
517.61	523.65
517.97	532.18
518.33	540.53
518.69	549.30
519.05	558.29
519.41	567.43
519.77	577.05
520.13	586.34
520.49	595.82
520.85	605.16
521.21	615.09
521.57	625.10
521.93	635.13
522.29	645.37
522.65	655.59
523.01	665.97
523.37	676.00
523.73	686.53
524.09	697.25
524.45	708.01
524.81	719.09
525.17	730.28
525.53	741.50
525.89	752.97
526.25	764.63
526.61	775.81
526.97	787.40
527.33	798.90
527.68	810.69
528.04	822.60
528.40	834.84
528.76	846.80
529.12	858.68
529.48	870.65
529.84	882.23
530.20	894.71
530.56	907.54
530.91	920.66
531.27	933.29
531.63	945.61
531.99	958.26
532.35	970.60
532.71	982.73
533.07	995.56
533.42	1008.33
533.78	1020.78
534.14	1033.48
534.50	1045.46
534.86	1057.95
535.21	1070.27
535.57	1083.02
535.93	1095.56
536.29	1107.95
536.65	1120.50
537.00	1132.95
537.36	1146.15
537.72	1158.42
538.08	1170.36
538.44	1182.40
538.79	1194.60
539.15	1206.70
539.51	1219.12
539.87	1231.88
540.22	1244.28
540.58	1256.56
540.94	1268.22
541.29	1280.15
541.65	1292.12
542.01	1304.68
542.37	1316.49
542.72	1328.38
543.08	1339.84
543.44	1351.34
543.79	1362.21
544.15	1373.31
544.51	1384.87
544.87	1395.91
545.22	1406.83
545.58	1417.60
545.94	1427.63
546.29	1437.72
546.65	1448.49
547.01	1458.50
547.36	1467.90
547.72	1477.49
548.07	1487.00
548.43	1496.42
548.79	1505.89
549.14	1515.03
549.50	1523.55
549.86	1531.95
550.21	1540.37
550.57	1549.09
550.92	1557.46
551.28	1565.91
551.64	1574.08
551.99	1581.79
552.35	1589.45
552.70	1597.59
553.06	1605.69
553.41	1614.08
553.77	1621.98
554.13	1629.62
554.48	1637.11
554.84	1644.83
555.19	1651.87
555.55	1658.66
555.90	1665.82
556.26	1672.27
556.61	1679.19
556.97	1685.98
557.32	1692.75
557.68	1699.29
558.03	1705.49
558.39	1711.41
558.74	1718.60
559.10	1724.79
559.45	1731.17
559.81	1737.84
560.16	1743.28
560.52	1748.67
560.87	1754.05
561.23	1759.24
561.58	1764.52
561.94	1769.26
562.29	1773.87
562.64	1778.85
563.00	1783.42
563.35	1788.53
563.71	1793.89
564.06	1798.81
564.42	1803.35
564.77	1807.87
565.12	1812.61
565.48	1816.87
565.83	1820.60
566.19	1824.11
566.54	1827.37
566.89	1830.91
567.25	1833.80
567.60	1837.50
567.96	1840.63
568.31	1843.25
568.66	1846.45
569.02	1849.37
569.37	1851.72
569.72	1854.24
570.08	1856.59
570.43	1859.05
570.78	1860.20
571.14	1861.08
571.49	1862.12
571.84	1864.57
572.20	1865.43
572.55	1866.34
572.90	1867.01
573.26	1868.66
573.61	1868.85
573.96	1869.82
574.31	1869.32
574.67	1868.70
575.02	1868.03
575.37	1867.70
575.72	1867.29
576.08	1866.44
576.43	1865.36
576.78	1865.15
577.13	1864.41
577.49	1863.80
577.84	1862.13
578.19	1861.44
578.54	1860.71
578.90	1859.06
579.25	1856.18
579.60	1854.62
579.95	1852.36
580.30	1850.02
580.66	1847.03
581.01	1844.57
581.36	1842.00
581.71	1840.81
582.06	1838.83
582.42	1836.39
582.77	1833.48
583.12	1830.27
583.47	1827.65
583.82	1825.19
584.17	1821.68
584.53	1819.19
584.88	1816.29
585.23	1813.91
585.58	1810.94
585.93	1807.55
586.28	1804.89
586.63	1802.24
586.98	1799.56
587.34	1796.71
587.69	1793.76
588.04	1791.23
588.39	1788.41
588.74	1784.60
589.09	1780.27
589.44	1776.42
589.79	1772.92
590.14	1769.97
590.49	1767.06
590.84	1763.29
591.19	1759.44
591.54	1755.24
591.89	1749.77
592.25	1745.44
592.60	1740.43
592.95	1735.63
593.30	1730.94
593.65	1725.89
594.00	1720.92
594.35	1715.95
594.70	1710.32
595.05	1705.57
595.40	1700.13
595.75	1694.80
596.10	1690.53
596.45	1686.03
596.80	1681.91
597.15	1677.11
597.50	1671.87
597.85	1667.17
598.19	1662.70
598.54	1658.06
598.89	1653.69
599.24	1650.33
599.59	1645.60
599.94	1641.38
600.29	1636.58
600.64	1631.74
600.99	1626.79
601.34	1621.84
601.69	1616.34
602.04	1612.01
602.39	1607.05
602.74	1602.62
603.08	1598.59
603.43	1593.29
603.78	1588.40
604.13	1582.67
604.48	1577.34
604.83	1572.27
605.18	1567.37
605.53	1561.28
605.87	1554.89
606.22	1549.50
606.57	1542.94
606.92	1537.15
607.27	1531.86
607.62	1526.58
607.96	1521.26
608.31	1515.92
608.66	1510.48
609.01	1504.74
609.36	1498.20
609.70	1491.37
610.05	1484.69
610.40	1477.64
610.75	1471.16
611.10	1464.30
611.44	1457.54
611.79	1451.23
612.14	1444.75
612.49	1437.25
612.83	1430.88
613.18	1424.56
613.53	1418.24
613.88	1411.60
614.22	1404.65
614.57	1397.32
614.92	1390.70
615.27	1384.49
615.61	1377.69
615.96	1370.84
616.31	1364.76
616.65	1359.20
617.00	1353.53
617.35	1347.37
617.70	1340.64
618.04	1334.02
618.39	1327.94
618.74	1322.12
619.08	1315.80
619.43	1309.54
619.78	1303.62
620.12	1297.50
620.47	1291.40
620.82	1284.91
621.16	1278.78
621.51	1273.15
621.85	1266.91
622.20	1260.21
622.55	1253.49
622.89	1247.39
623.24	1241.60
623.59	1235.73
623.93	1229.50
624.28	1223.33
624.62	1217.25
624.97	1211.88
625.32	1206.48
625.66	1200.70
626.01	1194.72
626.35	1188.32
626.70	1181.91
627.04	1175.67
627.39	1169.20
627.73	1162.88
628.08	1156.65
628.43	1150.48
628.77	1144.19
629.12	1137.83
629.46	1131.96
629.81	1125.44
630.15	1118.91
630.50	1112.35
630.84	1105.26
631.19	1098.48
631.53	1092.11
631.88	1085.33
632.22	1078.69
632.57	1072.52
632.91	1065.55
633.26	1058.94
633.60	1052.74
633.95	1046.77
634.29	1040.84
634.64	1035.23
634.98	1029.35
635.32	1023.81
635.67	1018.36
636.01	1012.77
636.36	1007.10
636.70	1001.39
637.05	995.87
637.39	990.74
637.73	985.37
638.08	980.51
638.42	975.61
638.77	970.25
639.11	965.17
639.45	959.66
639.80	953.86
640.14	948.70
640.49	943.29
640.83	938.09
641.17	932.74
641.52	927.38
641.86	921.79
642.20	916.50
642.55	911.03
642.89	905.64
643.23	899.81
643.58	894.97
643.92	889.21
644.26	883.84
644.61	878.54
644.95	873.14
645.29	867.41
645.64	861.58
645.98	856.27
646.32	850.90
646.66	845.70
647.01	840.58
647.35	835.42
647.69	830.44
648.04	825.39
648.38	820.13
648.72	814.79
649.06	809.58
649.41	804.22
649.75	798.53
650.09	793.24
650.43	787.91
650.78	782.40
651.12	777.49
651.46	772.50
651.80	767.47
652.14	762.52
652.49	757.70
652.83	752.92
653.17	747.65
653.51	742.82
653.85	737.76
654.20	732.80
654.54	727.67
654.88	722.44
655.22	717.40
655.56	712.36
655.90	707.70
656.25	702.96
656.59	698.40
656.93	693.96
657.27	689.30
657.61	684.80
657.95	680.48
658.29	676.00
658.64	671.40
658.98	666.72
659.32	661.95
659.66	657.39
660.00	652.82
660.34	648.50
660.68	643.97
661.02	639.68
661.36	635.40
661.70	631.50
662.05	627.75
662.39	623.95
662.73	620.08
663.07	616.22
663.41	612.44
663.75	608.48
664.09	604.78
664.43	600.88
664.77	597.21
665.11	593.40
665.45	589.80
665.79	586.20
666.13	582.33
666.47	578.85
666.81	575.15
667.15	571.48
667.49	568.08
667.83	564.76
668.17	561.29
668.51	557.88
668.85	554.11
669.19	550.69
669.53	547.03
669.87	543.52
670.21	540.10
670.55	536.70
670.89	533.77
671.23	530.81
671.57	527.87
671.91	524.81
672.25	521.91
672.58	518.83
672.92	515.76
673.26	513.05
673.60	510.10
673.94	507.43
674.28	505.00
674.62	502.30
674.96	499.56
675.30	496.88
675.64	494.37
675.97	492.05
676.31	489.51
676.65	487.09
676.99	484.85
677.33	482.13
677.67	479.69
678.01	476.95
678.34	474.04
678.68	471.62
679.02	469.05
679.36	466.54
679.70	464.12
680.04	461.87
680.37	459.32
680.71	456.83
681.05	454.47
681.39	451.89
681.73	449.61
682.06	447.27
682.40	445.22
682.74	442.84
683.08	440.51
683.42	438.18
683.75	435.80
684.09	433.47
684.43	431.43
684.77	429.29
685.10	427.13
685.44	425.11
685.78	422.93
686.12	420.98
686.45	418.69
686.79	416.69
687.13	414.68
687.46	412.76
687.80	410.88
688.14	408.72
688.48	406.85
688.81	404.70
689.15	402.89
689.49	400.79
689.82	398.96
690.16	396.85
690.50	395.02
690.83	393.27
691.17	391.40
691.51	389.65
691.84	387.86
692.18	385.96
692.52	384.10
692.85	382.31
693.19	380.36
693.52	378.75
693.86	376.95
694.20	375.22
694.53	373.49
694.87	371.69
695.21	370.12
695.54	368.39
695.88	366.80
696.21	364.97
696.55	363.37
696.88	361.69
697.22	360.24
697.56	358.67
697.89	357.14
698.23	355.65
698.56	354.04
698.90	352.47
699.23	350.96
699.57	349.55
699.90	348.08
700.24	346.63
700.58	345.16
700.91	343.69
701.25	342.23
701.58	340.88
701.92	339.67
702.25	338.25
702.59	336.94
702.92	335.67
703.26	334.58
703.59	333.26
703.93	332.25
704.26	331.13
704.60	329.97
704.93	328.76
705.26	327.44
705.60	326.33
705.93	325.23
706.27	324.28
706.60	323.21
706.94	322.11
707.27	321.03
707.61	319.91
707.94	319.00
708.27	317.88
708.61	316.81
708.94	315.79
709.28	314.82
709.61	313.88
709.94	312.88
710.28	311.85
710.61	310.95
710.95	309.69
711.28	308.86
711.61	307.89
711.95	306.87
712.28	305.97
712.61	304.96
712.95	304.09
713.28	303.18
713.61	302.12
713.95	301.09
714.28	300.21
714.61	299.36
714.95	298.46
715.28	297.58
715.61	296.64
715.95	295.77
716.28	294.97
716.61	294.18
716.95	293.38
717.28	292.50
717.61	291.68
717.94	291.07
718.28	290.10
718.61	289.35
718.94	288.71
719.27	287.98
719.61	287.41
719.94	286.70
720.27	285.95
720.60	285.35
720.94	284.81
721.27	284.18
721.60	283.62
721.93	283.02
722.27	282.55
722.60	282.12
722.93	281.56
723.26	281.07
723.59	280.32
723.93	279.80
724.26	279.25
724.59	278.77
724.92	278.17
725.25	277.70
725.59	277.20
725.92	276.51
726.25	275.92
726.58	275.35
726.91	274.89
727.24	274.41
727.57	273.90
727.91	273.35
728.24	273.04
728.57	272.54
728.90	272.04
729.23	271.48
729.56	271.06
729.89	270.48
730.22	269.98
730.55	269.63
730.89	269.15
731.22	268.76
731.55	268.24
731.88	267.79
732.21	267.34
732.54	266.81
732.87	266.50
733.20	266.13
733.53	265.70
733.86	265.17
734.19	264.72
734.52	264.39
734.85	264.11
735.18	263.47
735.51	263.06
735.84	262.64
736.17	262.34
736.50	261.82
736.83	261.77
737.16	261.38
737.49	261.05
737.82	260.70
738.15	260.27
738.48	259.85
738.81	259.46
739.14	259.03
739.47	258.77
739.80	258.44
740.13	258.16
740.46	257.82
740.79	257.64
741.12	257.30
741.45	257.04
741.78	256.71
742.11	256.50
742.44	256.15
742.77	255.84
743.10	255.51
743.43	255.28
743.75	254.70
744.08	254.69
744.41	254.38
744.74	254.10
745.07	253.80
745.40	253.69
745.73	253.52
746.06	253.28
746.39	253.09
746.71	252.82
747.04	252.55
747.37	252.26
747.70	251.94
748.03	251.67
748.36	251.37
748.68	251.10
749.01	250.80
749.34	250.56
749.67	250.37
750.00	250.19
750.33	250.03
750.65	249.80
750.98	249.34
751.31	249.12
751.64	249.00
751.97	248.98
752.29	248.58
752.62	248.26
752.95	247.99
753.28	247.70
753.60	247.41
753.93	247.31
754.26	247.12
754.59	246.82
754.91	246.61
755.24	246.34
755.57	246.14
755.90	245.97
756.22	245.77
756.55	245.59
756.88	245.29
757.20	244.91
757.53	244.76
757.86	244.44
758.19	244.30
758.51	244.04
758.84	243.78
759.17	243.65
759.49	243.49
759.82	243.44
760.15	243.32
760.47	243.22
760.80	242.90
761.13	242.71
761.45	242.49
761.78	242.29
762.11	242.12
762.43	241.91
762.76	241.63
763.08	241.46
763.41	241.39
763.74	241.20
764.06	241.06
764.39	240.87
764.71	240.70
765.04	240.60
765.37	240.43
765.69	240.27
766.02	240.14
766.34	240.01
766.67	239.80
767.00	239.63
767.32	239.59
767.65	239.58
767.97	239.49
768.30	239.47
768.62	239.36
768.95	239.24
769.27	239.07
769.60	239.05
769.92	239.01
770.25	238.64
770.57	238.51
770.90	238.42
771.22	238.29
771.55	238.20
771.87	238.12
772.20	237.96
772.52	238.00
772.85	238.12
773.17	238.01
773.50	237.93
773.82	237.75
774.15	237.61
774.47	237.41
774.80	237.30
775.12	237.20
775.45	237.11
775.77	236.98
776.09	237.00
776.42	236.97
776.74	236.84
777.07	236.69
777.39	236.68
777.72	236.66
778.04	236.60
778.36	236.60
778.69	236.35
779.01	236.26
779.33	236.01
779.66	235.74
779.98	235.63
780.31	235.46
780.63	235.41
780.95	235.34
781.28	235.36
781.60	235.32
781.92	235.26
782.25	235.19
782.57	235.14
782.89	235.03
783.22	234.91
783.54	234.90
783.86	235.00
784.19	234.94
784.51	234.88
784.83	234.83
785.16	234.77
785.48	234.83
785.80	234.80
786.12	234.73
786.45	234.74
786.77	234.74
787.09	234.84
787.42	234.81
787.74	234.76
788.06	234.68
