SpectraSuite Data File
++++++++++++++++++++++++++++++++++++
Date: Fri Feb 01 14:38:42 EST 2013
User: group
Dark Spectrum Present: No
Reference Spectrum Present: No
Number of Sampled Component Spectra: 1
Spectrometers: USB2E7196
Integration Time (usec): 70000 (USB2E7196)
Spectra Averaged: 10 (USB2E7196)
Boxcar Smoothing: 10 (USB2E7196)
Correct for Electrical Dark: No (USB2E7196)
Strobe/Lamp Enabled: No (USB2E7196)
Correct for Detector Non-linearity: No (USB2E7196)
Correct for Stray Light: No (USB2E7196)
Number of Pixels in Processed Spectrum: 2048
>>>>>Begin Processed Spectral Data<<<<<
339.09	0.00
339.48	215.20
339.86	217.40
340.24	220.40
340.63	219.10
341.01	224.70
341.39	223.80
341.78	224.30
342.16	224.40
342.54	226.10
342.93	214.30
343.31	225.15
343.69	225.69
344.07	226.16
344.46	226.53
344.84	226.92
345.22	227.08
345.60	227.25
345.99	227.41
346.37	227.58
346.75	227.56
347.13	227.67
347.52	227.79
347.90	227.95
348.28	227.95
348.66	227.91
349.05	227.93
349.43	228.06
349.81	228.14
350.19	228.20
350.57	228.21
350.96	228.22
351.34	228.27
351.72	228.36
352.10	228.44
352.48	228.50
352.87	228.59
353.25	228.70
353.63	228.72
354.01	228.84
354.39	228.92
354.77	229.01
355.15	229.17
355.54	229.19
355.92	229.21
356.30	229.33
356.68	229.61
357.06	229.64
357.44	229.52
357.82	229.48
358.20	229.57
358.58	229.62
358.97	229.58
359.35	229.61
359.73	229.76
360.11	229.83
360.49	229.79
360.87	229.78
361.25	229.67
361.63	229.81
362.01	229.82
362.39	229.90
362.77	229.99
363.15	229.92
363.53	229.93
363.91	229.91
364.29	229.88
364.67	229.59
365.05	229.60
365.43	229.67
365.81	229.77
366.19	229.76
366.57	229.80
366.95	229.90
367.33	229.95
367.71	229.86
368.09	229.86
368.47	229.93
368.85	229.85
369.23	230.00
369.61	229.90
369.99	229.86
370.37	229.69
370.75	229.73
371.13	229.63
371.51	229.60
371.89	229.46
372.27	229.34
372.65	229.35
373.03	229.30
373.41	229.23
373.78	229.15
374.16	229.00
374.54	228.90
374.92	228.71
375.30	228.66
375.68	228.46
376.06	228.36
376.44	228.20
376.82	228.28
377.19	228.10
377.57	228.01
377.95	227.92
378.33	227.85
378.71	227.69
379.09	227.64
379.47	227.53
379.84	227.46
380.22	227.47
380.60	227.33
380.98	227.17
381.36	227.08
381.73	226.92
382.11	227.00
382.49	226.99
382.87	227.08
383.25	226.85
383.62	227.07
384.00	226.91
384.38	226.94
384.76	226.90
385.13	226.99
385.51	227.00
385.89	226.79
386.27	226.80
386.64	226.72
387.02	226.70
387.40	226.65
387.78	226.61
388.15	226.52
388.53	226.48
388.91	226.55
389.29	226.53
389.66	226.54
390.04	226.38
390.42	226.36
390.79	226.22
391.17	226.31
391.55	226.11
391.92	226.15
392.30	226.13
392.68	225.93
393.05	225.83
393.43	225.75
393.81	225.95
394.18	225.92
394.56	225.95
394.94	226.08
395.31	226.11
395.69	226.30
396.06	226.50
396.44	226.60
396.82	226.65
397.19	226.80
397.57	226.85
397.95	227.07
398.32	227.12
398.70	227.28
399.07	227.40
399.45	227.54
399.82	227.58
400.20	227.65
400.58	227.90
400.95	227.95
401.33	228.17
401.70	228.27
402.08	228.51
402.45	228.65
402.83	228.75
403.20	228.89
403.58	228.90
403.95	229.01
404.33	229.16
404.71	229.24
405.08	229.47
405.46	229.68
405.83	229.71
406.21	229.89
406.58	230.00
406.96	230.09
407.33	230.22
407.70	230.60
408.08	231.02
408.45	231.19
408.83	231.60
409.20	231.84
409.58	232.12
409.95	232.28
410.33	232.56
410.70	232.93
411.08	233.29
411.45	233.72
411.82	233.99
412.20	234.44
412.57	235.02
412.95	235.22
413.32	235.64
413.69	236.10
414.07	236.70
414.44	237.26
414.82	237.81
415.19	238.49
415.56	239.01
415.94	239.48
416.31	240.16
416.68	240.80
417.06	241.55
417.43	242.37
417.81	243.42
418.18	244.31
418.55	245.15
418.93	246.20
419.30	247.20
419.67	248.46
420.04	249.55
420.42	250.75
420.79	252.23
421.16	253.62
421.54	255.09
421.91	256.46
422.28	257.95
422.66	259.61
423.03	261.30
423.40	262.90
423.77	264.65
424.15	266.50
424.52	268.32
424.89	270.37
425.26	272.21
425.64	273.96
426.01	276.00
426.38	278.07
426.75	280.18
427.13	282.30
427.50	284.44
427.87	286.78
428.24	288.99
428.61	291.25
428.99	293.71
429.36	296.40
429.73	299.00
430.10	301.72
430.47	304.49
430.85	307.10
431.22	310.03
431.59	313.20
431.96	316.09
432.33	319.30
432.70	322.39
433.08	326.12
433.45	329.51
433.82	332.90
434.19	336.63
434.56	340.29
434.93	343.88
435.30	347.46
435.68	351.44
436.05	355.26
436.42	359.02
436.79	362.57
437.16	366.31
437.53	370.37
437.90	374.18
438.27	378.05
438.64	382.01
439.01	385.65
439.38	388.73
439.75	391.87
440.13	395.55
440.50	398.84
440.87	401.47
441.24	404.39
441.61	407.50
441.98	409.92
442.35	412.67
442.72	415.52
443.09	418.20
443.46	419.80
443.83	421.03
444.20	422.20
444.57	423.62
444.94	424.44
445.31	425.30
445.68	426.23
446.05	426.61
446.42	426.50
446.79	426.52
447.16	426.35
447.53	426.36
447.90	425.09
448.27	424.09
448.64	422.39
449.01	421.14
449.37	419.11
449.74	416.86
450.11	414.42
450.48	411.35
450.85	408.31
451.22	405.82
451.59	403.37
451.96	400.93
452.33	397.67
452.70	394.75
453.07	390.95
453.43	387.18
453.80	383.64
454.17	380.24
454.54	376.85
454.91	373.26
455.28	369.69
455.65	366.54
456.02	363.29
456.38	360.42
456.75	357.02
457.12	353.98
457.49	351.12
457.86	347.96
458.23	345.62
458.59	342.85
458.96	339.90
459.33	337.35
459.70	334.80
460.07	332.84
460.43	330.43
460.80	328.25
461.17	326.24
461.54	324.08
461.91	322.02
462.27	319.91
462.64	318.22
463.01	316.46
463.38	314.68
463.74	312.75
464.11	311.20
464.48	309.75
464.85	308.17
465.21	306.92
465.58	305.67
465.95	304.03
466.32	302.70
466.68	301.45
467.05	300.24
467.42	298.97
467.78	297.57
468.15	296.28
468.52	295.38
468.88	294.20
469.25	293.08
469.62	292.14
469.98	291.29
470.35	290.50
470.72	289.54
471.08	288.43
471.45	287.58
471.82	286.71
472.18	285.80
472.55	285.10
472.92	284.25
473.28	283.55
473.65	282.80
474.02	282.09
474.38	281.48
474.75	280.80
475.11	280.11
475.48	279.52
475.85	279.02
476.21	278.40
476.58	277.80
476.94	277.39
477.31	276.91
477.67	276.40
478.04	275.88
478.41	275.46
478.77	275.27
479.14	274.95
479.50	274.60
479.87	274.26
480.23	273.91
480.60	273.60
480.96	273.44
481.33	273.28
481.69	273.14
482.06	272.95
482.42	272.78
482.79	272.61
483.15	272.53
483.52	272.44
483.88	272.21
484.25	272.30
484.61	272.15
484.98	272.16
485.34	272.18
485.71	272.20
486.07	272.19
486.44	272.09
486.80	272.08
487.17	272.16
487.53	272.37
487.90	272.45
488.26	272.71
488.62	272.72
488.99	272.80
489.35	272.95
489.72	273.12
490.08	273.37
490.44	273.60
490.81	273.87
491.17	274.11
491.54	274.55
491.90	274.70
492.26	275.08
492.63	275.20
492.99	275.35
493.36	275.56
493.72	275.90
494.08	276.08
494.45	276.35
494.81	276.65
495.17	276.93
495.54	277.29
495.90	277.41
496.26	277.71
496.63	278.09
496.99	278.40
497.35	278.82
497.72	279.20
498.08	279.50
498.44	279.72
498.80	280.10
499.17	280.43
499.53	280.80
499.89	281.08
500.26	281.55
500.62	281.99
500.98	282.38
501.34	282.79
501.71	283.36
502.07	283.78
502.43	284.17
502.79	284.50
503.16	284.90
503.52	285.44
503.88	285.87
504.24	286.37
504.60	286.86
504.97	287.20
505.33	287.46
505.69	288.00
506.05	288.48
506.41	288.92
506.78	289.38
507.14	289.85
507.50	290.40
507.86	290.97
508.22	291.52
508.59	291.97
508.95	292.49
509.31	292.96
509.67	293.55
510.03	294.22
510.39	294.95
510.75	295.68
511.12	296.49
511.48	297.30
511.84	297.95
512.20	298.89
512.56	299.80
512.92	300.91
513.28	301.93
513.64	303.09
514.00	304.10
514.37	305.19
514.73	306.36
515.09	307.65
515.45	308.84
515.81	310.25
516.17	311.80
516.53	313.37
516.89	314.83
517.25	316.44
517.61	318.02
517.97	319.65
518.33	321.42
518.69	323.07
519.05	324.98
519.41	327.05
519.77	329.02
520.13	331.23
520.49	333.29
520.85	335.61
521.21	337.99
521.57	340.57
521.93	343.19
522.29	345.81
522.65	348.47
523.01	351.35
523.37	354.14
523.73	356.98
524.09	359.99
524.45	363.24
524.81	366.50
525.17	369.95
525.53	373.54
525.89	377.10
526.25	380.91
526.61	384.38
526.97	388.14
527.33	391.84
527.68	395.81
528.04	399.90
528.40	403.89
528.76	408.03
529.12	412.41
529.48	416.81
529.84	421.26
530.20	425.81
530.56	430.61
530.91	435.60
531.27	440.78
531.63	445.55
531.99	450.43
532.35	455.34
532.71	460.29
533.07	465.30
533.42	470.59
533.78	475.68
534.14	481.32
534.50	486.53
534.86	492.07
535.21	497.36
535.57	503.16
535.93	509.04
536.29	514.83
536.65	520.44
537.00	526.08
537.36	532.01
537.72	537.80
538.08	543.51
538.44	549.22
538.79	554.92
539.15	560.95
539.51	567.22
539.87	573.44
540.22	579.73
540.58	586.21
540.94	592.15
541.29	598.55
541.65	604.41
542.01	610.91
542.37	617.37
542.72	623.84
543.08	630.00
543.44	636.08
543.79	642.01
544.15	648.57
544.51	655.39
544.87	661.64
545.22	668.01
545.58	674.40
545.94	680.58
546.29	686.84
546.65	693.17
547.01	699.26
547.36	705.46
547.72	711.56
548.07	717.60
548.43	723.78
548.79	729.89
549.14	736.26
549.50	742.48
549.86	748.55
550.21	754.17
550.57	759.94
550.92	766.03
551.28	772.17
551.64	777.91
551.99	783.49
552.35	789.40
552.70	795.22
553.06	801.05
553.41	806.86
553.77	812.73
554.13	818.40
554.48	824.21
554.84	829.93
555.19	835.68
555.55	841.35
555.90	846.80
556.26	852.15
556.61	857.36
556.97	862.61
557.32	867.86
557.68	873.52
558.03	879.02
558.39	884.22
558.74	889.70
559.10	894.78
559.45	899.92
559.81	905.62
560.16	910.58
560.52	915.52
560.87	920.43
561.23	925.26
561.58	930.18
561.94	934.80
562.29	939.29
562.64	943.84
563.00	948.20
563.35	953.27
563.71	958.10
564.06	962.98
564.42	967.55
564.77	972.10
565.12	976.64
565.48	981.15
565.83	985.44
566.19	989.60
566.54	993.76
566.89	997.76
567.25	1001.37
567.60	1005.64
567.96	1009.40
568.31	1013.22
568.66	1017.00
569.02	1020.50
569.37	1023.96
569.72	1027.45
570.08	1030.61
570.43	1033.69
570.78	1036.45
571.14	1039.03
571.49	1041.94
571.84	1044.96
572.20	1047.37
572.55	1049.95
572.90	1052.07
573.26	1054.34
573.61	1056.57
573.96	1058.74
574.31	1060.54
574.67	1061.90
575.02	1063.30
575.37	1065.28
575.72	1066.67
576.08	1068.10
576.43	1069.51
576.78	1071.30
577.13	1073.17
577.49	1074.56
577.84	1075.81
578.19	1077.16
578.54	1078.27
578.90	1078.84
579.25	1079.22
579.60	1080.11
579.95	1080.57
580.30	1081.14
580.66	1081.75
581.01	1082.20
581.36	1082.53
581.71	1083.01
582.06	1083.76
582.42	1083.81
582.77	1083.72
583.12	1084.03
583.47	1084.53
583.82	1084.50
584.17	1084.20
584.53	1083.91
584.88	1083.98
585.23	1084.05
585.58	1083.66
585.93	1083.50
586.28	1083.62
586.63	1083.45
586.98	1083.38
587.34	1083.12
587.69	1083.11
588.04	1082.84
588.39	1082.21
588.74	1081.09
589.09	1080.43
589.44	1079.32
589.79	1078.94
590.14	1078.30
590.49	1077.20
590.84	1075.62
591.19	1074.63
591.54	1073.01
591.89	1071.10
592.25	1069.92
592.60	1068.05
592.95	1066.22
593.30	1064.77
593.65	1062.90
594.00	1061.29
594.35	1059.84
594.70	1057.69
595.05	1055.72
595.40	1053.36
595.75	1051.42
596.10	1050.16
596.45	1048.31
596.80	1047.06
597.15	1045.56
597.50	1043.69
597.85	1042.46
598.19	1041.17
598.54	1039.82
598.89	1038.45
599.24	1037.43
599.59	1035.37
599.94	1033.56
600.29	1032.04
600.64	1029.90
600.99	1027.90
601.34	1025.76
601.69	1023.27
602.04	1021.70
602.39	1019.70
602.74	1018.19
603.08	1016.28
603.43	1014.50
603.78	1012.56
604.13	1010.19
604.48	1007.69
604.83	1005.64
605.18	1003.06
605.53	1000.32
605.87	997.43
606.22	994.80
606.57	992.10
606.92	989.70
607.27	987.86
607.62	985.81
607.96	983.70
608.31	981.32
608.66	978.75
609.01	975.80
609.36	972.78
609.70	969.67
610.05	966.43
610.40	963.52
610.75	960.01
611.10	956.92
611.44	953.49
611.79	950.42
612.14	947.09
612.49	943.56
612.83	940.02
613.18	936.95
613.53	934.03
613.88	930.53
614.22	926.75
614.57	922.96
614.92	919.30
615.27	915.72
615.61	912.15
615.96	908.77
616.31	905.98
616.65	903.22
617.00	900.35
617.35	897.22
617.70	893.57
618.04	890.42
618.39	886.88
618.74	884.00
619.08	880.47
619.43	877.12
619.78	874.28
620.12	871.35
620.47	868.26
620.82	864.54
621.16	861.29
621.51	858.54
621.85	855.16
622.20	851.56
622.55	848.36
622.89	845.26
623.24	842.24
623.59	838.82
623.93	835.21
624.28	831.76
624.62	828.52
624.97	825.66
625.32	822.46
625.66	819.46
626.01	816.07
626.35	813.01
626.70	809.61
627.04	806.31
627.39	802.74
627.73	799.23
628.08	796.07
628.43	792.60
628.77	789.06
629.12	785.75
629.46	782.47
629.81	778.81
630.15	775.06
630.50	771.50
630.84	767.71
631.19	764.15
631.53	760.69
631.88	756.95
632.22	753.22
632.57	749.98
632.91	746.57
633.26	742.91
633.60	739.27
633.95	736.01
634.29	732.34
634.64	729.13
634.98	725.50
635.32	722.35
635.67	719.21
636.01	715.81
636.36	712.57
636.70	709.45
637.05	706.43
637.39	703.69
637.73	700.45
638.08	697.50
638.42	694.64
638.77	691.59
639.11	688.61
639.45	685.78
639.80	682.48
640.14	679.27
640.49	676.20
640.83	673.22
641.17	670.14
641.52	667.50
641.86	664.50
642.20	661.88
642.55	658.72
642.89	655.87
643.23	652.95
643.58	650.15
643.92	647.05
644.26	644.09
644.61	641.15
644.95	638.23
645.29	634.94
645.64	631.57
645.98	628.55
646.32	625.50
646.66	622.16
647.01	619.16
647.35	616.26
647.69	613.27
648.04	610.38
648.38	607.29
648.72	603.74
649.06	600.55
649.41	597.32
649.75	593.92
650.09	590.75
650.43	587.70
650.78	584.46
651.12	581.33
651.46	578.20
651.80	575.08
652.14	572.18
652.49	569.57
652.83	566.93
653.17	563.73
653.51	560.83
653.85	557.83
654.20	554.67
654.54	551.44
654.88	548.44
655.22	545.18
655.56	542.15
655.90	539.66
656.25	536.83
656.59	534.00
656.93	531.49
657.27	528.61
657.61	525.66
657.95	522.99
658.29	520.21
658.64	517.49
658.98	514.60
659.32	511.74
659.66	509.00
660.00	506.10
660.34	503.44
660.68	500.70
661.02	498.16
661.36	495.75
661.70	493.39
662.05	491.01
662.39	488.84
662.73	486.53
663.07	484.12
663.41	481.97
663.75	479.54
664.09	477.11
664.43	474.73
664.77	472.66
665.11	470.35
665.45	468.20
665.79	465.96
666.13	463.74
666.47	461.51
666.81	459.08
667.15	456.77
667.49	454.79
667.83	452.80
668.17	450.62
668.51	448.39
668.85	446.10
669.19	444.00
669.53	441.66
669.87	439.50
670.21	437.30
670.55	435.11
670.89	433.37
671.23	431.58
671.57	429.69
671.91	427.80
672.25	425.87
672.58	423.94
672.92	422.04
673.26	420.31
673.60	418.47
673.94	416.77
674.28	415.35
674.62	413.60
674.96	411.78
675.30	410.14
675.64	408.58
675.97	407.16
676.31	405.43
676.65	404.01
676.99	402.41
677.33	400.68
677.67	398.99
678.01	397.13
678.34	395.42
678.68	393.90
679.02	392.10
679.36	390.54
679.70	389.09
680.04	387.58
680.37	385.86
680.71	384.37
681.05	382.88
681.39	381.35
681.73	379.90
682.06	378.53
682.40	377.39
682.74	375.99
683.08	374.52
683.42	373.07
683.75	371.53
684.09	370.09
684.43	368.63
684.77	367.25
685.10	365.91
685.44	364.57
685.78	363.06
686.12	361.77
686.45	360.46
686.79	358.89
687.13	357.59
687.46	356.39
687.80	355.12
688.14	353.80
688.48	352.41
688.81	351.06
689.15	349.71
689.49	348.11
689.82	346.74
690.16	345.42
690.50	344.31
690.83	343.05
691.17	341.74
691.51	340.66
691.84	339.55
692.18	338.36
692.52	337.15
692.85	336.13
693.19	334.99
693.52	333.87
693.86	332.84
694.20	331.63
694.53	330.34
694.87	329.02
695.21	327.85
695.54	326.60
695.88	325.27
696.21	324.11
696.55	323.08
696.88	322.02
697.22	321.00
697.56	319.81
697.89	318.80
698.23	317.89
698.56	316.75
698.90	315.70
699.23	314.57
699.57	313.62
699.90	312.53
700.24	311.50
700.58	310.42
700.91	309.47
701.25	308.81
701.58	308.09
701.92	307.27
702.25	306.36
702.59	305.49
702.92	304.69
703.26	303.90
703.59	302.99
703.93	302.26
704.26	301.46
704.60	300.66
704.93	299.85
705.26	298.98
705.60	298.29
705.93	297.60
706.27	297.00
706.60	296.25
706.94	295.58
707.27	294.94
707.61	294.33
707.94	293.58
708.27	292.70
708.61	291.94
708.94	291.29
709.28	290.67
709.61	289.96
709.94	289.44
710.28	288.70
710.61	288.18
710.95	287.33
711.28	286.75
711.61	286.19
711.95	285.57
712.28	285.00
712.61	284.22
712.95	283.66
713.28	283.02
713.61	282.34
713.95	281.78
714.28	281.01
714.61	280.39
714.95	279.99
715.28	279.29
715.61	278.66
715.95	278.20
716.28	277.71
716.61	277.14
716.95	276.52
717.28	276.08
717.61	275.46
717.94	274.93
718.28	274.24
718.61	273.67
718.94	273.12
719.27	272.57
719.61	272.14
719.94	271.64
720.27	271.13
720.60	270.70
720.94	270.20
721.27	269.88
721.60	269.42
721.93	268.95
722.27	268.60
722.60	268.20
722.93	267.72
723.26	267.25
723.59	266.91
723.93	266.67
724.26	266.21
724.59	265.80
724.92	265.41
725.25	265.17
725.59	264.83
725.92	264.52
726.25	264.18
726.58	263.85
726.91	263.44
727.24	263.14
727.57	262.82
727.91	262.40
728.24	262.04
728.57	261.58
728.90	261.08
729.23	260.65
729.56	260.35
729.89	259.97
730.22	259.67
730.55	259.26
730.89	258.94
731.22	258.63
731.55	258.42
731.88	258.16
732.21	257.76
732.54	257.50
732.87	257.10
733.20	256.80
733.53	256.45
733.86	256.19
734.19	255.80
734.52	255.46
734.85	255.34
735.18	255.06
735.51	254.80
735.84	254.58
736.17	254.30
736.50	254.00
736.83	253.87
737.16	253.57
737.49	253.42
737.82	252.98
738.15	252.77
738.48	252.48
738.81	252.23
739.14	251.98
739.47	251.74
739.80	251.58
740.13	251.39
740.46	251.11
740.79	250.82
741.12	250.57
741.45	250.33
741.78	249.97
742.11	249.72
742.44	249.63
742.77	249.41
743.10	249.23
743.43	248.94
743.75	248.58
744.08	248.59
744.41	248.39
744.74	248.23
745.07	247.98
745.40	247.61
745.73	247.47
746.06	247.22
746.39	247.04
746.71	246.77
747.04	246.47
747.37	246.36
747.70	246.19
748.03	246.02
748.36	245.86
748.68	245.67
749.01	245.52
749.34	245.28
749.67	245.15
750.00	244.91
750.33	244.83
750.65	244.63
750.98	244.21
751.31	243.95
751.64	243.77
751.97	243.60
752.29	243.49
752.62	243.23
752.95	243.03
753.28	242.78
753.60	242.67
753.93	242.68
754.26	242.44
754.59	242.32
754.91	242.17
755.24	242.02
755.57	241.89
755.90	241.62
756.22	241.39
756.55	241.16
756.88	241.05
757.20	240.91
757.53	240.75
757.86	240.70
758.19	240.66
758.51	240.54
758.84	240.30
759.17	240.23
759.49	240.18
759.82	240.26
760.15	240.13
760.47	239.93
760.80	239.72
761.13	239.66
761.45	239.50
761.78	239.45
762.11	239.32
762.43	239.11
762.76	239.17
763.08	239.13
763.41	239.00
763.74	238.99
764.06	238.78
764.39	238.76
764.71	238.55
765.04	238.43
765.37	238.28
765.69	238.26
766.02	238.21
766.34	238.00
766.67	237.76
767.00	237.74
767.32	237.80
767.65	237.77
767.97	237.74
768.30	237.56
768.62	237.37
768.95	237.31
769.27	237.26
769.60	237.04
769.92	236.86
770.25	236.78
770.57	236.58
770.90	236.48
771.22	236.42
771.55	236.38
771.87	236.29
772.20	236.18
772.52	236.25
772.85	236.31
773.17	236.21
773.50	236.16
773.82	236.02
774.15	235.70
774.47	235.51
774.80	235.30
775.12	235.33
775.45	235.27
775.77	235.15
776.09	235.11
776.42	235.12
776.74	235.09
777.07	235.09
777.39	235.05
777.72	234.98
778.04	234.80
778.36	234.66
778.69	234.54
779.01	234.54
779.33	234.30
779.66	234.07
779.98	233.99
780.31	233.82
780.63	233.81
780.95	233.84
781.28	233.83
781.60	233.76
781.92	233.65
782.25	233.57
782.57	233.52
782.89	233.44
783.22	233.31
783.54	233.15
783.86	233.04
784.19	233.03
784.51	232.88
784.83	232.75
785.16	232.78
785.48	232.77
785.80	232.65
786.12	232.59
786.45	232.56
786.77	232.47
787.09	232.52
787.42	232.36
787.74	232.35
788.06	232.27
788.38	232.28
788.71	232.16
789.03	232.05
789.35	231.99
789.67	231.81
789.99	231.82
790.32	231.84
790.64	231.81
790.96	231.79
791.28	231.91
791.61	231.85
791.93	231.76
