SpectraSuite Data File
++++++++++++++++++++++++++++++++++++
Date: Fri Feb 01 14:35:33 EST 2013
User: group
Dark Spectrum Present: No
Reference Spectrum Present: No
Number of Sampled Component Spectra: 1
Spectrometers: USB2E7196
Integration Time (usec): 70000 (USB2E7196)
Spectra Averaged: 10 (USB2E7196)
Boxcar Smoothing: 10 (USB2E7196)
Correct for Electrical Dark: No (USB2E7196)
Strobe/Lamp Enabled: No (USB2E7196)
Correct for Detector Non-linearity: No (USB2E7196)
Correct for Stray Light: No (USB2E7196)
Number of Pixels in Processed Spectrum: 2048
>>>>>Begin Processed Spectral Data<<<<<
339.09	0.00
339.48	215.30
339.86	216.80
340.24	217.50
340.63	219.30
341.01	225.60
341.39	222.30
341.78	222.30
342.16	224.60
342.54	225.20
342.93	213.84
343.31	224.72
343.69	225.30
344.07	225.87
344.46	226.38
344.84	226.74
345.22	226.79
345.60	227.11
345.99	227.40
346.37	227.57
346.75	227.68
347.13	227.74
347.52	227.90
347.90	227.96
348.28	227.99
348.66	227.95
349.05	227.82
349.43	227.92
349.81	228.05
350.19	228.06
350.57	228.19
350.96	228.22
351.34	228.31
351.72	228.40
352.10	228.34
352.48	228.40
352.87	228.55
353.25	228.66
353.63	228.62
354.01	228.71
354.39	228.80
354.77	228.87
355.15	229.08
355.54	229.16
355.92	229.26
356.30	229.27
356.68	229.59
357.06	229.71
357.44	229.73
357.82	229.78
358.20	229.89
358.58	229.80
358.97	229.87
359.35	229.95
359.73	230.10
360.11	230.21
360.49	230.32
360.87	230.24
361.25	230.37
361.63	230.56
362.01	230.56
362.39	230.60
362.77	230.65
363.15	230.64
363.53	230.66
363.91	230.71
364.29	230.74
364.67	230.52
365.05	230.50
365.43	230.51
365.81	230.50
366.19	230.55
366.57	230.64
366.95	230.64
367.33	230.49
367.71	230.41
368.09	230.40
368.47	230.30
368.85	230.28
369.23	230.22
369.61	230.15
369.99	230.19
370.37	230.09
370.75	230.20
371.13	230.10
371.51	230.13
371.89	230.04
372.27	230.11
372.65	230.17
373.03	230.18
373.41	230.19
373.78	230.19
374.16	230.00
374.54	229.90
374.92	229.79
375.30	229.78
375.68	229.64
376.06	229.61
376.44	229.51
376.82	229.57
377.19	229.48
377.57	229.35
377.95	229.19
378.33	229.15
378.71	228.92
379.09	228.89
379.47	228.66
379.84	228.53
380.22	228.34
380.60	228.18
380.98	228.08
381.36	228.01
381.73	227.92
382.11	227.93
382.49	227.84
382.87	227.85
383.25	227.80
383.62	227.94
384.00	227.79
384.38	227.74
384.76	227.65
385.13	227.69
385.51	227.62
385.89	227.67
386.27	227.59
386.64	227.54
387.02	227.52
387.40	227.61
387.78	227.60
388.15	227.62
388.53	227.58
388.91	227.59
389.29	227.52
389.66	227.50
390.04	227.37
390.42	227.42
390.79	227.34
391.17	227.30
391.55	227.16
391.92	227.28
392.30	227.34
392.68	227.30
393.05	227.23
393.43	227.26
393.81	227.23
394.18	227.28
394.56	227.36
394.94	227.40
395.31	227.37
395.69	227.51
396.06	227.55
396.44	227.59
396.82	227.59
397.19	227.76
397.57	227.77
397.95	227.94
398.32	227.91
398.70	228.00
399.07	228.15
399.45	228.27
399.82	228.35
400.20	228.45
400.58	228.48
400.95	228.66
401.33	228.83
401.70	229.07
402.08	229.15
402.45	229.33
402.83	229.50
403.20	229.53
403.58	229.62
403.95	229.76
404.33	230.06
404.71	230.37
405.08	230.73
405.46	231.10
405.83	231.33
406.21	231.78
406.58	232.04
406.96	232.23
407.33	232.67
407.70	233.10
408.08	233.64
408.45	234.10
408.83	234.51
409.20	234.91
409.58	235.34
409.95	235.85
410.33	236.45
410.70	237.03
411.08	237.83
411.45	238.61
411.82	239.48
412.20	240.22
412.57	241.10
412.95	241.70
413.32	242.66
413.69	243.67
414.07	244.70
414.44	245.93
414.82	247.11
415.19	248.37
415.56	249.68
415.94	251.01
416.31	252.80
416.68	254.33
417.06	256.17
417.43	257.90
417.81	260.05
418.18	261.89
418.55	264.06
418.93	266.20
419.30	268.41
419.67	270.73
420.04	273.29
420.42	275.90
420.79	279.02
421.16	282.01
421.54	285.17
421.91	288.39
422.28	291.72
422.66	295.40
423.03	298.80
423.40	302.39
423.77	306.22
424.15	310.07
424.52	314.14
424.89	318.63
425.26	323.01
425.64	326.96
426.01	331.64
426.38	336.27
426.75	341.11
427.13	345.99
427.50	351.17
427.87	356.50
428.24	361.87
428.61	366.89
428.99	372.43
429.36	378.55
429.73	384.49
430.10	390.32
430.47	396.24
430.85	402.43
431.22	409.01
431.59	416.05
431.96	422.85
432.33	430.21
432.70	437.34
433.08	445.66
433.45	453.68
433.82	461.46
434.19	470.17
434.56	478.56
434.93	486.63
435.30	494.70
435.68	503.65
436.05	512.51
436.42	521.44
436.79	529.45
437.16	537.77
437.53	546.83
437.90	555.78
438.27	564.57
438.64	573.95
439.01	582.33
439.38	589.92
439.75	597.05
440.13	605.59
440.50	613.30
440.87	619.84
441.24	626.70
441.61	634.26
441.98	639.83
442.35	646.64
442.72	653.56
443.09	660.36
443.46	664.68
443.83	667.54
444.20	670.06
444.57	673.92
444.94	676.38
445.31	678.40
445.68	680.45
446.05	682.08
446.42	682.06
446.79	682.12
447.16	681.97
447.53	682.28
447.90	679.95
448.27	677.74
448.64	674.13
449.01	671.94
449.37	666.94
449.74	662.28
450.11	655.99
450.48	649.38
450.85	642.57
451.22	636.88
451.59	631.53
451.96	626.50
452.33	619.33
452.70	612.83
453.07	605.10
453.43	597.28
453.80	589.40
454.17	581.70
454.54	574.50
454.91	566.45
455.28	558.75
455.65	551.38
456.02	544.09
456.38	537.52
456.75	529.37
457.12	522.96
457.49	516.39
457.86	510.31
458.23	504.89
458.59	498.65
458.96	492.56
459.33	487.03
459.70	481.64
460.07	477.07
460.43	471.88
460.80	466.99
461.17	462.64
461.54	458.03
461.91	453.72
462.27	449.29
462.64	445.83
463.01	441.69
463.38	437.73
463.74	433.85
464.11	430.56
464.48	427.50
464.85	423.92
465.21	421.28
465.58	418.50
465.95	415.09
466.32	412.26
466.68	409.24
467.05	406.46
467.42	403.64
467.78	400.71
468.15	397.96
468.52	395.90
468.88	393.24
469.25	391.00
469.62	389.11
469.98	387.00
470.35	384.88
470.72	382.97
471.08	381.06
471.45	379.19
471.82	377.34
472.18	375.26
472.55	373.88
472.92	372.13
473.28	370.44
473.65	368.97
474.02	367.51
474.38	366.27
474.75	365.17
475.11	363.91
475.48	362.88
475.85	361.90
476.21	361.04
476.58	360.20
476.94	359.52
477.31	358.86
477.67	358.15
478.04	357.43
478.41	356.89
478.77	356.61
479.14	356.20
479.50	355.93
479.87	355.84
480.23	355.62
480.60	355.40
480.96	355.20
481.33	355.30
481.69	355.42
482.06	355.37
482.42	355.30
482.79	355.30
483.15	355.57
483.52	355.93
483.88	356.05
484.25	356.48
484.61	356.80
484.98	357.04
485.34	357.67
485.71	358.33
486.07	359.00
486.44	359.44
486.80	360.09
487.17	360.90
487.53	362.09
487.90	363.10
488.26	364.36
488.62	365.72
488.99	366.82
489.35	367.92
489.72	369.32
490.08	370.78
490.44	372.26
490.81	373.85
491.17	375.46
491.54	377.22
491.90	378.70
492.26	380.49
492.63	382.36
492.99	384.10
493.36	386.06
493.72	388.09
494.08	390.14
494.45	392.43
494.81	394.67
495.17	396.69
495.54	398.84
495.90	401.09
496.26	403.33
496.63	405.57
496.99	408.14
497.35	410.59
497.72	413.17
498.08	415.65
498.44	418.12
498.80	420.84
499.17	423.50
499.53	426.25
499.89	428.93
500.26	431.45
500.62	434.01
500.98	436.78
501.34	439.32
501.71	442.17
502.07	444.78
502.43	447.18
502.79	449.72
503.16	452.36
503.52	454.73
503.88	457.09
504.24	459.81
504.60	462.26
504.97	464.70
505.33	467.20
505.69	469.69
506.05	472.17
506.41	474.36
506.78	476.42
507.14	478.64
507.50	480.72
507.86	483.04
508.22	485.43
508.59	487.51
508.95	489.73
509.31	491.60
509.67	493.57
510.03	495.54
510.39	497.36
510.75	499.17
511.12	501.06
511.48	502.79
511.84	504.48
512.20	506.08
512.56	507.87
512.92	509.32
513.28	510.91
513.64	512.27
514.00	513.68
514.37	515.06
514.73	516.37
515.09	517.63
515.45	518.77
515.81	519.78
516.17	520.99
516.53	522.09
516.89	523.12
517.25	524.12
517.61	525.23
517.97	526.12
518.33	527.02
518.69	527.91
519.05	528.98
519.41	529.82
519.77	530.90
520.13	531.50
520.49	532.22
520.85	532.77
521.21	533.71
521.57	534.46
521.93	535.30
522.29	536.21
522.65	536.96
523.01	537.83
523.37	538.46
523.73	539.11
524.09	539.91
524.45	540.82
524.81	541.61
525.17	542.52
525.53	543.49
525.89	544.45
526.25	545.45
526.61	546.28
526.97	547.11
527.33	547.99
527.68	549.47
528.04	550.79
528.40	552.36
528.76	553.50
529.12	555.01
529.48	556.51
529.84	557.74
530.20	559.36
530.56	560.80
530.91	562.61
531.27	564.12
531.63	565.70
531.99	567.41
532.35	569.26
532.71	570.90
533.07	572.80
533.42	574.85
533.78	576.72
534.14	578.76
534.50	580.77
534.86	582.86
535.21	584.67
535.57	586.81
535.93	588.75
536.29	590.94
536.65	593.21
537.00	595.43
537.36	597.70
537.72	600.33
538.08	603.12
538.44	605.64
538.79	608.35
539.15	610.83
539.51	613.75
539.87	616.69
540.22	619.53
540.58	622.58
540.94	625.25
541.29	628.20
541.65	631.16
542.01	634.49
542.37	637.50
542.72	640.49
543.08	643.44
543.44	646.72
543.79	649.76
544.15	652.94
544.51	656.13
544.87	659.75
545.22	662.91
545.58	666.01
545.94	669.04
546.29	672.36
546.65	675.53
547.01	678.57
547.36	681.70
547.72	684.95
548.07	688.09
548.43	691.31
548.79	694.58
549.14	697.86
549.50	701.08
549.86	704.44
550.21	707.76
550.57	711.47
550.92	714.87
551.28	718.27
551.64	721.45
551.99	724.82
552.35	728.09
552.70	731.48
553.06	734.70
553.41	738.31
553.77	741.68
554.13	745.30
554.48	748.71
554.84	752.19
555.19	755.70
555.55	759.27
555.90	762.88
556.26	766.20
556.61	769.80
556.97	773.09
557.32	776.50
557.68	780.17
558.03	783.20
558.39	786.50
558.74	790.12
559.10	793.49
559.45	796.85
559.81	800.28
560.16	803.36
560.52	806.50
560.87	809.96
561.23	813.08
561.58	816.62
561.94	819.89
562.29	822.97
562.64	825.85
563.00	828.74
563.35	831.79
563.71	835.20
564.06	838.21
564.42	841.38
564.77	844.74
565.12	847.70
565.48	850.87
565.83	853.65
566.19	856.63
566.54	859.60
566.89	862.52
567.25	865.09
567.60	868.10
567.96	871.13
568.31	873.76
568.66	876.46
569.02	878.69
569.37	880.94
569.72	883.41
570.08	885.88
570.43	888.29
570.78	890.60
571.14	892.54
571.49	894.56
571.84	896.63
572.20	898.24
572.55	900.04
572.90	901.61
573.26	903.50
573.61	904.96
573.96	906.45
574.31	907.38
574.67	908.53
575.02	909.39
575.37	910.47
575.72	911.24
576.08	912.29
576.43	913.58
576.78	914.48
577.13	915.45
577.49	916.33
577.84	917.25
578.19	917.90
578.54	918.69
578.90	919.00
579.25	919.36
579.60	919.89
579.95	920.26
580.30	920.56
580.66	920.76
581.01	920.86
581.36	921.29
581.71	922.02
582.06	922.13
582.42	922.41
582.77	922.43
583.12	922.39
583.47	922.38
583.82	922.05
584.17	921.77
584.53	921.50
584.88	921.29
585.23	920.87
585.58	920.43
585.93	919.95
586.28	920.05
586.63	919.92
586.98	919.47
587.34	919.10
587.69	918.69
588.04	918.22
588.39	918.10
588.74	917.00
589.09	915.74
589.44	915.14
589.79	914.50
590.14	913.90
590.49	913.25
590.84	912.25
591.19	911.02
591.54	910.18
591.89	908.47
592.25	907.49
592.60	906.01
592.95	904.51
593.30	902.82
593.65	901.22
594.00	899.50
594.35	898.45
594.70	896.62
595.05	895.02
595.40	893.22
595.75	891.08
596.10	889.69
596.45	888.60
596.80	887.44
597.15	885.80
597.50	884.06
597.85	882.51
598.19	881.20
598.54	880.02
598.89	878.60
599.24	877.73
599.59	875.95
599.94	874.51
600.29	873.12
600.64	871.81
600.99	869.77
601.34	867.94
601.69	865.50
602.04	863.90
602.39	861.95
602.74	860.35
603.08	858.73
603.43	856.98
603.78	855.08
604.13	852.85
604.48	851.01
604.83	849.00
605.18	847.05
605.53	844.51
605.87	841.98
606.22	839.66
606.57	836.82
606.92	834.66
607.27	832.65
607.62	830.60
607.96	828.53
608.31	826.61
608.66	824.26
609.01	821.95
609.36	819.49
609.70	817.07
610.05	814.33
610.40	811.61
610.75	808.72
611.10	805.78
611.44	802.91
611.79	799.97
612.14	797.11
612.49	793.90
612.83	791.17
613.18	788.43
613.53	785.60
613.88	783.10
614.22	780.28
614.57	777.13
614.92	774.17
615.27	771.21
615.61	768.31
615.96	765.67
616.31	763.10
616.65	760.35
617.00	757.77
617.35	755.19
617.70	752.46
618.04	749.65
618.39	746.93
618.74	744.30
619.08	741.50
619.43	739.10
619.78	736.64
620.12	734.00
620.47	731.09
620.82	728.16
621.16	725.39
621.51	722.70
621.85	720.07
622.20	717.21
622.55	714.48
622.89	711.64
623.24	709.04
623.59	706.21
623.93	703.61
624.28	701.09
624.62	698.53
624.97	696.18
625.32	693.69
625.66	691.33
626.01	688.50
626.35	685.80
626.70	682.99
627.04	680.32
627.39	677.50
627.73	675.11
628.08	672.55
628.43	669.78
628.77	667.20
629.12	664.33
629.46	661.81
629.81	658.88
630.15	656.33
630.50	653.50
630.84	650.54
631.19	647.55
631.53	644.67
631.88	641.60
632.22	638.33
632.57	635.71
632.91	632.81
633.26	630.23
633.60	627.50
633.95	624.70
634.29	622.12
634.64	619.80
634.98	617.18
635.32	614.87
635.67	612.78
636.01	610.31
636.36	607.85
636.70	605.41
637.05	603.15
637.39	600.66
637.73	598.30
638.08	596.08
638.42	593.88
638.77	591.32
639.11	589.13
639.45	586.99
639.80	584.61
640.14	582.21
640.49	579.98
640.83	577.92
641.17	575.72
641.52	573.25
641.86	570.56
642.20	568.27
642.55	565.68
642.89	563.17
643.23	560.69
643.58	558.51
643.92	555.86
644.26	553.44
644.61	551.39
644.95	548.79
645.29	546.20
645.64	543.59
645.98	541.23
646.32	538.89
646.66	536.29
647.01	533.94
647.35	531.55
647.69	529.20
648.04	526.71
648.38	524.10
648.72	521.68
649.06	519.29
649.41	516.96
649.75	514.51
650.09	511.88
650.43	509.20
650.78	506.65
651.12	504.29
651.46	501.97
651.80	499.36
652.14	497.15
652.49	495.03
652.83	492.81
653.17	490.49
653.51	488.08
653.85	485.99
654.20	483.54
654.54	481.16
654.88	478.70
655.22	476.15
655.56	473.94
655.90	471.73
656.25	469.63
656.59	467.41
656.93	465.22
657.27	463.24
657.61	461.22
657.95	459.19
658.29	457.05
658.64	454.90
658.98	452.70
659.32	450.58
659.66	448.43
660.00	446.43
660.34	444.29
660.68	442.37
661.02	440.13
661.36	438.17
661.70	436.39
662.05	434.72
662.39	433.06
662.73	431.12
663.07	429.36
663.41	427.60
663.75	425.69
664.09	424.05
664.43	422.30
664.77	420.59
665.11	418.88
665.45	417.28
665.79	415.63
666.13	414.05
666.47	412.24
666.81	410.61
667.15	408.71
667.49	407.31
667.83	405.62
668.17	404.19
668.51	402.57
668.85	401.00
669.19	399.16
669.53	397.50
669.87	395.96
670.21	394.32
670.55	392.83
670.89	391.56
671.23	390.24
671.57	388.60
671.91	387.19
672.25	385.58
672.58	384.08
672.92	382.65
673.26	381.40
673.60	380.04
673.94	378.71
674.28	377.61
674.62	376.30
674.96	374.91
675.30	373.57
675.64	372.41
675.97	371.06
676.31	369.85
676.65	368.73
676.99	367.58
677.33	366.29
677.67	365.08
678.01	363.66
678.34	362.26
678.68	361.18
679.02	360.02
679.36	358.95
679.70	357.88
680.04	356.67
680.37	355.29
680.71	354.20
681.05	353.14
681.39	352.10
681.73	350.90
682.06	349.80
682.40	348.74
682.74	347.54
683.08	346.50
683.42	345.38
683.75	344.28
684.09	343.10
684.43	342.16
684.77	341.08
685.10	339.94
685.44	338.85
685.78	337.75
686.12	336.69
686.45	335.60
686.79	334.35
687.13	333.22
687.46	332.15
687.80	331.19
688.14	330.21
688.48	329.04
688.81	327.95
689.15	326.97
689.49	326.01
689.82	325.08
690.16	323.84
690.50	322.92
690.83	321.90
691.17	320.86
691.51	319.84
691.84	318.81
692.18	317.89
692.52	316.88
692.85	315.89
693.19	314.89
693.52	314.00
693.86	313.10
694.20	312.28
694.53	311.35
694.87	310.27
695.21	309.22
695.54	308.27
695.88	307.28
696.21	306.25
696.55	305.42
696.88	304.52
697.22	303.83
697.56	302.96
697.89	302.07
698.23	301.24
698.56	300.41
698.90	299.63
699.23	298.72
699.57	297.90
699.90	297.09
700.24	296.22
700.58	295.45
700.91	294.81
701.25	294.12
701.58	293.54
701.92	292.96
702.25	292.17
702.59	291.51
702.92	290.97
703.26	290.33
703.59	289.49
703.93	288.94
704.26	288.22
704.60	287.57
704.93	286.83
705.26	286.30
705.60	285.63
705.93	285.06
706.27	284.65
706.60	284.17
706.94	283.62
707.27	283.06
707.61	282.45
707.94	281.95
708.27	281.30
708.61	280.55
708.94	279.95
709.28	279.53
709.61	278.95
709.94	278.40
710.28	277.91
710.61	277.50
710.95	276.90
711.28	276.53
711.61	275.98
711.95	275.56
712.28	274.96
712.61	274.54
712.95	274.08
713.28	273.63
713.61	273.22
713.95	272.71
714.28	272.40
714.61	272.06
714.95	271.52
715.28	271.10
715.61	270.64
715.95	270.23
716.28	269.75
716.61	269.46
716.95	269.09
717.28	268.73
717.61	268.20
717.94	267.80
718.28	267.33
718.61	267.07
718.94	266.84
719.27	266.59
719.61	266.34
719.94	265.95
720.27	265.47
720.60	265.00
720.94	264.64
721.27	264.28
721.60	263.86
721.93	263.53
722.27	263.16
722.60	262.95
722.93	262.60
723.26	262.29
723.59	261.95
723.93	261.56
724.26	261.27
724.59	261.04
724.92	260.76
725.25	260.41
725.59	260.06
725.92	259.69
726.25	259.33
726.58	258.94
726.91	258.58
727.24	258.35
727.57	258.00
727.91	257.78
728.24	257.42
728.57	257.19
728.90	256.90
729.23	256.58
729.56	256.38
729.89	256.09
730.22	255.85
730.55	255.52
730.89	255.38
731.22	255.12
731.55	254.77
731.88	254.41
732.21	254.20
732.54	253.83
732.87	253.60
733.20	253.34
733.53	253.13
733.86	252.97
734.19	252.70
734.52	252.59
734.85	252.50
735.18	252.22
735.51	251.85
735.84	251.62
736.17	251.44
736.50	251.10
736.83	251.16
737.16	250.88
737.49	250.67
737.82	250.43
738.15	250.14
738.48	250.01
738.81	249.68
739.14	249.49
739.47	249.41
739.80	249.08
740.13	248.82
740.46	248.54
740.79	248.16
741.12	247.93
741.45	247.54
741.78	247.07
742.11	247.02
742.44	246.90
742.77	246.68
743.10	246.50
743.43	246.29
743.75	245.83
744.08	245.92
744.41	245.82
744.74	245.57
745.07	245.34
745.40	245.15
745.73	245.20
746.06	244.89
746.39	244.57
746.71	244.45
747.04	244.28
747.37	244.05
747.70	244.03
748.03	243.81
748.36	243.71
748.68	243.65
749.01	243.31
749.34	243.09
749.67	243.05
750.00	242.90
750.33	242.86
750.65	242.69
750.98	242.24
751.31	241.98
751.64	241.84
751.97	241.85
752.29	241.71
752.62	241.38
752.95	241.25
753.28	241.17
753.60	241.03
753.93	240.92
754.26	240.82
754.59	240.64
754.91	240.50
755.24	240.40
755.57	240.23
755.90	240.07
756.22	239.93
756.55	239.67
756.88	239.48
757.20	239.26
757.53	239.20
757.86	239.16
758.19	239.14
758.51	238.97
758.84	238.78
759.17	238.63
759.49	238.69
759.82	238.84
760.15	238.73
760.47	238.70
760.80	238.65
761.13	238.58
761.45	238.44
761.78	238.40
762.11	238.27
762.43	238.17
762.76	238.12
763.08	238.24
763.41	238.23
763.74	238.20
764.06	238.20
764.39	238.08
764.71	237.85
765.04	237.69
765.37	237.70
765.69	237.66
766.02	237.56
766.34	237.39
766.67	237.20
767.00	237.18
767.32	237.12
767.65	237.05
767.97	237.01
768.30	236.95
768.62	236.90
768.95	236.90
769.27	236.85
769.60	236.84
769.92	236.66
770.25	236.50
770.57	236.36
770.90	236.17
771.22	236.12
771.55	236.15
771.87	236.08
772.20	235.90
772.52	235.93
772.85	236.10
773.17	236.02
773.50	235.89
773.82	235.75
774.15	235.70
774.47	235.59
774.80	235.44
775.12	235.33
775.45	235.25
775.77	235.13
776.09	235.06
776.42	234.95
776.74	234.85
777.07	234.78
777.39	234.66
777.72	234.54
778.04	234.40
778.36	234.30
778.69	234.13
779.01	234.09
779.33	233.84
779.66	233.53
779.98	233.48
780.31	233.42
780.63	233.41
780.95	233.22
781.28	233.19
781.60	233.12
781.92	233.04
782.25	232.88
782.57	232.77
782.89	232.69
783.22	232.59
783.54	232.54
783.86	232.50
784.19	232.42
784.51	232.40
784.83	232.32
785.16	232.25
785.48	232.28
785.80	232.19
786.12	232.16
786.45	232.12
786.77	231.96
787.09	231.86
787.42	231.80
787.74	231.88
788.06	231.70
788.38	231.58
788.71	231.44
789.03	231.38
789.35	231.31
789.67	231.21
789.99	231.16
790.32	231.07
790.64	231.08
790.96	231.26
791.28	231.18
791.61	231.16
791.93	231.05
792.25	231.09
792.57	231.22
792.89	231.16
793.21	231.16
793.54	231.22
793.86	231.15
794.18	231.10
