SpectraSuite Data File
++++++++++++++++++++++++++++++++++++
Date: Fri Feb 01 14:33:45 EST 2013
User: group
Dark Spectrum Present: No
Reference Spectrum Present: No
Number of Sampled Component Spectra: 1
Spectrometers: USB2E7196
Integration Time (usec): 70000 (USB2E7196)
Spectra Averaged: 10 (USB2E7196)
Boxcar Smoothing: 10 (USB2E7196)
Correct for Electrical Dark: No (USB2E7196)
Strobe/Lamp Enabled: No (USB2E7196)
Correct for Detector Non-linearity: No (USB2E7196)
Correct for Stray Light: No (USB2E7196)
Number of Pixels in Processed Spectrum: 2048
>>>>>Begin Processed Spectral Data<<<<<
339.09	0.00
339.48	217.40
339.86	219.20
340.24	219.40
340.63	219.30
341.01	225.00
341.39	223.10
341.78	225.20
342.16	224.70
342.54	226.80
342.93	214.50
343.31	225.28
343.69	225.72
344.07	226.11
344.46	226.50
344.84	226.88
345.22	227.05
345.60	227.35
345.99	227.47
346.37	227.67
346.75	227.68
347.13	227.80
347.52	227.87
347.90	227.96
348.28	227.95
348.66	228.03
349.05	228.10
349.43	228.15
349.81	228.20
350.19	228.11
350.57	228.33
350.96	228.45
351.34	228.58
351.72	228.70
352.10	228.79
352.48	228.90
352.87	228.97
353.25	229.04
353.63	229.13
354.01	229.29
354.39	229.33
354.77	229.44
355.15	229.57
355.54	229.63
355.92	229.69
356.30	229.88
356.68	230.05
357.06	230.02
357.44	230.01
357.82	230.08
358.20	230.17
358.58	230.12
358.97	230.20
359.35	230.26
359.73	230.29
360.11	230.33
360.49	230.38
360.87	230.38
361.25	230.36
361.63	230.31
362.01	230.21
362.39	230.19
362.77	230.20
363.15	230.15
363.53	230.17
363.91	230.12
364.29	230.11
364.67	229.97
365.05	229.90
365.43	229.95
365.81	229.92
366.19	230.10
366.57	230.30
366.95	230.27
367.33	230.21
367.71	230.17
368.09	230.20
368.47	230.14
368.85	230.24
369.23	230.28
369.61	230.25
369.99	230.42
370.37	230.38
370.75	230.46
371.13	230.38
371.51	230.27
371.89	230.29
372.27	230.23
372.65	230.14
373.03	230.20
373.41	230.14
373.78	230.13
374.16	230.00
374.54	229.80
374.92	229.72
375.30	229.74
375.68	229.69
376.06	229.58
376.44	229.48
376.82	229.41
377.19	229.33
377.57	229.26
377.95	229.10
378.33	229.18
378.71	228.95
379.09	228.92
379.47	228.88
379.84	228.84
380.22	228.78
380.60	228.68
380.98	228.49
381.36	228.44
381.73	228.34
382.11	228.34
382.49	228.32
382.87	228.29
383.25	228.17
383.62	228.40
384.00	228.33
384.38	228.28
384.76	228.17
385.13	228.19
385.51	228.15
385.89	228.03
386.27	227.87
386.64	227.92
387.02	227.88
387.40	227.97
387.78	227.88
388.15	227.89
388.53	227.87
388.91	227.90
389.29	227.82
389.66	227.77
390.04	227.70
390.42	227.77
390.79	227.78
391.17	227.83
391.55	227.62
391.92	227.60
392.30	227.69
392.68	227.69
393.05	227.72
393.43	227.73
393.81	227.77
394.18	227.85
394.56	227.86
394.94	228.01
395.31	227.87
395.69	228.05
396.06	228.08
396.44	228.10
396.82	228.25
397.19	228.42
397.57	228.60
397.95	228.67
398.32	228.58
398.70	228.62
399.07	228.72
399.45	228.79
399.82	229.12
400.20	229.18
400.58	229.40
400.95	229.38
401.33	229.60
401.70	229.98
402.08	230.15
402.45	230.37
402.83	230.55
403.20	230.90
403.58	231.09
403.95	231.42
404.33	231.76
404.71	231.99
405.08	232.41
405.46	232.70
405.83	233.19
406.21	233.63
406.58	234.20
406.96	234.64
407.33	235.18
407.70	235.59
408.08	236.29
408.45	236.87
408.83	237.72
409.20	238.40
409.58	238.99
409.95	239.79
410.33	240.63
410.70	241.49
411.08	242.42
411.45	243.42
411.82	244.45
412.20	245.64
412.57	247.00
412.95	248.08
413.32	249.48
413.69	250.86
414.07	252.31
414.44	253.90
414.82	255.53
415.19	257.49
415.56	259.36
415.94	261.42
416.31	263.68
416.68	265.80
417.06	268.33
417.43	270.68
417.81	273.52
418.18	276.39
418.55	279.44
418.93	282.73
419.30	286.07
419.67	289.46
420.04	293.01
420.42	296.96
420.79	301.34
421.16	305.73
421.54	310.20
421.91	314.88
422.28	319.71
422.66	325.00
423.03	329.90
423.40	335.18
423.77	340.69
424.15	346.51
424.52	352.40
424.89	358.80
425.26	365.37
425.64	371.26
426.01	377.71
426.38	384.40
426.75	391.14
427.13	398.38
427.50	405.83
427.87	413.71
428.24	421.16
428.61	428.61
428.99	436.60
429.36	445.35
429.73	454.17
430.10	462.69
430.47	471.25
430.85	480.35
431.22	489.91
431.59	500.00
431.96	509.52
432.33	520.16
432.70	530.56
433.08	542.40
433.45	553.81
433.82	565.34
434.19	578.03
434.56	590.43
434.93	602.20
435.30	614.09
435.68	626.93
436.05	639.91
436.42	652.63
436.79	664.30
437.16	676.61
437.53	689.67
437.90	702.97
438.27	716.20
438.64	729.95
439.01	742.22
439.38	753.49
439.75	764.21
440.13	776.60
440.50	788.56
440.87	798.39
441.24	808.53
441.61	819.55
441.98	827.98
442.35	837.59
442.72	847.48
443.09	857.08
443.46	863.42
443.83	868.01
444.20	872.03
444.57	877.66
444.94	881.13
445.31	884.41
445.68	887.47
446.05	889.52
446.42	889.67
446.79	889.65
447.16	889.52
447.53	890.09
447.90	886.77
448.27	883.20
448.64	877.72
449.01	874.39
449.37	866.99
449.74	860.00
450.11	851.31
450.48	841.65
450.85	831.76
451.22	823.64
451.59	815.66
451.96	808.30
452.33	797.74
452.70	788.38
453.07	776.92
453.43	765.18
453.80	753.64
454.17	742.16
454.54	731.83
454.91	720.31
455.28	709.00
455.65	698.69
456.02	687.81
456.38	678.73
456.75	667.21
457.12	657.82
457.49	648.27
457.86	639.13
458.23	631.31
458.59	622.54
458.96	613.48
459.33	605.51
459.70	597.46
460.07	591.21
460.43	583.85
460.80	576.82
461.17	570.50
461.54	563.94
461.91	557.91
462.27	551.67
462.64	546.24
463.01	540.22
463.38	534.44
463.74	528.90
464.11	523.85
464.48	519.51
464.85	514.64
465.21	510.96
465.58	507.09
465.95	502.20
466.32	498.44
466.68	494.43
467.05	490.48
467.42	486.53
467.78	482.23
468.15	478.16
468.52	475.16
468.88	471.53
469.25	468.41
469.62	465.67
469.98	462.73
470.35	460.06
470.72	457.55
471.08	454.78
471.45	452.26
471.82	449.74
472.18	446.89
472.55	444.99
472.92	442.60
473.28	440.62
473.65	438.71
474.02	436.55
474.38	434.73
474.75	433.16
475.11	431.55
475.48	430.31
475.85	429.30
476.21	428.24
476.58	427.34
476.94	426.50
477.31	425.55
477.67	424.58
478.04	423.74
478.41	423.15
478.77	422.76
479.14	422.33
479.50	422.22
479.87	422.33
480.23	422.37
480.60	422.38
480.96	422.18
481.33	422.63
481.69	422.95
482.06	423.30
482.42	423.52
482.79	423.72
483.15	424.44
483.52	425.17
483.88	425.97
484.25	426.65
484.61	427.50
484.98	428.57
485.34	429.91
485.71	431.48
486.07	432.88
486.44	434.29
486.80	435.95
487.17	437.60
487.53	439.53
487.90	441.55
488.26	443.66
488.62	446.00
488.99	447.93
489.35	450.31
489.72	452.98
490.08	455.84
490.44	458.92
490.81	461.90
491.17	464.76
491.54	467.88
491.90	471.28
492.26	474.75
492.63	478.36
492.99	481.77
493.36	485.41
493.72	489.53
494.08	493.46
494.45	497.67
494.81	502.11
495.17	506.40
495.54	510.94
495.90	515.63
496.26	520.44
496.63	525.38
496.99	530.55
497.35	535.80
497.72	541.20
498.08	546.58
498.44	552.10
498.80	557.97
499.17	563.76
499.53	569.47
499.89	575.30
500.26	580.85
500.62	586.77
500.98	592.76
501.34	598.61
501.71	604.91
502.07	610.85
502.43	617.01
502.79	623.08
503.16	629.36
503.52	635.48
503.88	641.53
504.24	647.92
504.60	654.22
504.97	660.70
505.33	667.06
505.69	673.63
506.05	679.85
506.41	686.13
506.78	692.53
507.14	698.89
507.50	705.23
507.86	711.97
508.22	718.55
508.59	725.00
508.95	731.67
509.31	737.92
509.67	744.36
510.03	750.72
510.39	757.07
510.75	763.42
511.12	769.57
511.48	775.93
511.84	782.16
512.20	788.21
512.56	794.20
512.92	800.25
513.28	805.96
513.64	811.70
514.00	817.41
514.37	823.27
514.73	828.84
515.09	834.22
515.45	839.67
515.81	844.92
516.17	850.13
516.53	855.15
516.89	860.20
517.25	865.16
517.61	869.96
517.97	874.88
518.33	879.19
518.69	883.84
519.05	888.29
519.41	892.99
519.77	897.65
520.13	901.99
520.49	906.02
520.85	910.13
521.21	914.12
521.57	918.30
521.93	921.84
522.29	925.92
522.65	929.89
523.01	933.48
523.37	936.42
523.73	939.47
524.09	942.73
524.45	946.08
524.81	949.66
525.17	953.26
525.53	956.78
525.89	960.21
526.25	963.84
526.61	966.79
526.97	969.42
527.33	972.24
527.68	975.39
528.04	978.20
528.40	981.08
528.76	984.51
529.12	987.39
529.48	990.70
529.84	993.51
530.20	996.31
530.56	999.31
530.91	1003.47
531.27	1006.94
531.63	1009.93
531.99	1012.92
532.35	1015.60
532.71	1018.05
533.07	1020.88
533.42	1023.89
533.78	1026.52
534.14	1029.70
534.50	1032.34
534.86	1035.27
535.21	1037.45
535.57	1040.42
535.93	1043.17
536.29	1045.48
536.65	1048.17
537.00	1050.09
537.36	1052.66
537.72	1055.16
538.08	1057.70
538.44	1059.76
538.79	1062.05
539.15	1064.20
539.51	1066.68
539.87	1069.47
540.22	1072.16
540.58	1074.65
540.94	1076.87
541.29	1078.95
541.65	1081.00
542.01	1083.69
542.37	1086.02
542.72	1088.45
543.08	1090.62
543.44	1093.09
543.79	1095.22
544.15	1097.33
544.51	1100.20
544.87	1102.63
545.22	1104.71
545.58	1106.76
545.94	1108.47
546.29	1110.53
546.65	1112.51
547.01	1114.50
547.36	1115.90
547.72	1117.36
548.07	1118.89
548.43	1120.70
548.79	1122.61
549.14	1124.36
549.50	1125.78
549.86	1127.12
550.21	1128.63
550.57	1130.20
550.92	1131.82
551.28	1133.17
551.64	1134.63
551.99	1135.90
552.35	1136.97
552.70	1138.41
553.06	1139.76
553.41	1141.54
553.77	1143.14
554.13	1144.44
554.48	1145.87
554.84	1147.65
555.19	1148.87
555.55	1150.10
555.90	1150.84
556.26	1152.12
556.61	1153.45
556.97	1154.68
557.32	1155.87
557.68	1157.11
558.03	1158.50
558.39	1159.50
558.74	1161.05
559.10	1162.18
559.45	1163.19
559.81	1164.76
560.16	1165.89
560.52	1167.00
560.87	1168.16
561.23	1168.77
561.58	1170.38
561.94	1171.15
562.29	1171.60
562.64	1172.63
563.00	1173.42
563.35	1174.94
563.71	1176.00
564.06	1177.14
564.42	1178.42
564.77	1179.29
565.12	1180.40
565.48	1181.32
565.83	1181.85
566.19	1182.53
566.54	1183.17
566.89	1184.04
567.25	1184.25
567.60	1185.40
567.96	1186.03
568.31	1186.43
568.66	1187.19
569.02	1187.37
569.37	1187.55
569.72	1188.04
570.08	1188.34
570.43	1188.80
570.78	1189.00
571.14	1188.45
571.49	1188.03
571.84	1188.23
572.20	1188.11
572.55	1187.49
572.90	1186.84
573.26	1186.81
573.61	1185.96
573.96	1185.36
574.31	1184.04
574.67	1182.87
575.02	1181.18
575.37	1179.96
575.72	1178.38
576.08	1177.20
576.43	1175.98
576.78	1175.14
577.13	1174.27
577.49	1173.12
577.84	1171.69
578.19	1169.80
578.54	1168.69
578.90	1167.48
579.25	1165.14
579.60	1163.14
579.95	1161.88
580.30	1159.66
580.66	1157.35
581.01	1155.57
581.36	1153.68
581.71	1152.10
582.06	1150.44
582.42	1148.60
582.77	1146.46
583.12	1144.49
583.47	1142.41
583.82	1140.10
584.17	1137.58
584.53	1135.33
584.88	1133.04
585.23	1130.57
585.58	1128.42
585.93	1126.24
586.28	1124.04
586.63	1121.97
586.98	1119.83
587.34	1117.19
587.69	1115.16
588.04	1112.94
588.39	1110.63
588.74	1107.85
589.09	1105.11
589.44	1102.41
589.79	1100.22
590.14	1097.90
590.49	1095.48
590.84	1092.65
591.19	1090.14
591.54	1087.02
591.89	1083.43
592.25	1080.54
592.60	1077.50
592.95	1074.26
593.30	1070.74
593.65	1067.33
594.00	1064.26
594.35	1061.53
594.70	1058.11
595.05	1054.94
595.40	1051.68
595.75	1048.21
596.10	1045.05
596.45	1042.03
596.80	1039.19
597.15	1035.69
597.50	1032.40
597.85	1029.18
598.19	1026.17
598.54	1023.36
598.89	1020.62
599.24	1018.06
599.59	1015.02
599.94	1012.10
600.29	1008.91
600.64	1005.86
600.99	1002.44
601.34	999.03
601.69	995.66
602.04	992.65
602.39	989.43
602.74	986.42
603.08	983.70
603.43	980.83
603.78	977.71
604.13	974.28
604.48	971.19
604.83	968.07
605.18	964.96
605.53	961.36
605.87	957.16
606.22	953.68
606.57	949.89
606.92	946.40
607.27	942.76
607.62	939.90
607.96	936.84
608.31	933.73
608.66	930.06
609.01	925.98
609.36	921.83
609.70	917.89
610.05	913.93
610.40	910.14
610.75	906.18
611.10	901.96
611.44	897.73
611.79	893.84
612.14	889.72
612.49	885.32
612.83	881.37
613.18	877.70
613.53	873.95
613.88	869.90
614.22	865.80
614.57	861.72
614.92	857.20
615.27	853.21
615.61	849.04
615.96	845.29
616.31	841.64
616.65	838.65
617.00	835.35
617.35	831.71
617.70	827.65
618.04	823.58
618.39	819.94
618.74	816.36
619.08	812.65
619.43	809.00
619.78	805.65
620.12	801.87
620.47	798.21
620.82	794.09
621.16	790.50
621.51	786.95
621.85	783.44
622.20	780.01
622.55	776.23
622.89	772.60
623.24	769.10
623.59	765.74
623.93	761.94
624.28	758.48
624.62	755.06
624.97	751.76
625.32	748.67
625.66	745.51
626.01	742.31
626.35	738.73
626.70	735.17
627.04	731.86
627.39	728.44
627.73	725.23
628.08	722.19
628.43	718.92
628.77	715.62
629.12	712.44
629.46	709.04
629.81	705.62
630.15	702.31
630.50	698.76
630.84	695.17
631.19	691.58
631.53	687.91
631.88	684.22
632.22	680.80
632.57	677.56
632.91	674.17
633.26	670.66
633.60	667.38
633.95	664.34
634.29	661.14
634.64	658.30
634.98	654.90
635.32	652.06
635.67	649.20
636.01	646.21
636.36	643.14
636.70	640.25
637.05	637.47
637.39	634.61
637.73	632.13
638.08	629.47
638.42	626.87
638.77	623.90
639.11	621.30
639.45	618.35
639.80	615.50
640.14	612.36
640.49	609.52
640.83	606.69
641.17	603.75
641.52	600.76
641.86	597.85
642.20	595.23
642.55	592.28
642.89	589.26
643.23	586.35
643.58	583.77
643.92	580.84
644.26	577.96
644.61	575.35
644.95	572.34
645.29	569.36
645.64	566.28
645.98	563.70
646.32	560.98
646.66	558.43
647.01	555.79
647.35	553.46
647.69	550.95
648.04	548.60
648.38	545.91
648.72	543.17
649.06	540.51
649.41	537.77
649.75	534.75
650.09	532.03
650.43	529.43
650.78	526.67
651.12	524.04
651.46	521.48
651.80	518.73
652.14	516.26
652.49	513.79
652.83	511.44
653.17	508.80
653.51	506.20
653.85	503.59
654.20	500.75
654.54	497.90
654.88	495.21
655.22	492.30
655.56	489.62
655.90	487.19
656.25	484.76
656.59	482.35
656.93	480.20
657.27	477.94
657.61	475.45
657.95	473.02
658.29	470.93
658.64	468.63
658.98	466.30
659.32	463.76
659.66	461.61
660.00	459.26
660.34	457.10
660.68	454.90
661.02	452.63
661.36	450.68
661.70	448.78
662.05	446.85
662.39	444.95
662.73	443.14
663.07	441.30
663.41	439.41
663.75	437.50
664.09	435.44
664.43	433.54
664.77	431.75
665.11	429.96
665.45	427.92
665.79	426.07
666.13	424.18
666.47	422.37
666.81	420.30
667.15	418.31
667.49	416.37
667.83	414.64
668.17	412.75
668.51	410.86
668.85	409.05
669.19	407.40
669.53	405.54
669.87	403.69
670.21	401.87
670.55	400.06
670.89	398.61
671.23	397.19
671.57	395.60
671.91	393.98
672.25	392.35
672.58	390.90
672.92	389.17
673.26	387.64
673.60	386.32
673.94	385.15
674.28	384.04
674.62	382.89
674.96	381.43
675.30	380.21
675.64	378.76
675.97	377.40
676.31	376.08
676.65	374.80
676.99	373.67
677.33	372.45
677.67	371.17
678.01	369.65
678.34	368.21
678.68	366.83
679.02	365.48
679.36	364.09
679.70	362.82
680.04	361.62
680.37	360.34
680.71	359.08
681.05	357.69
681.39	356.41
681.73	355.10
682.06	354.05
682.40	352.95
682.74	351.91
683.08	350.82
683.42	349.61
683.75	348.54
684.09	347.40
684.43	346.13
684.77	345.02
685.10	343.82
685.44	342.69
685.78	341.58
686.12	340.55
686.45	339.51
686.79	338.26
687.13	337.30
687.46	336.26
687.80	335.10
688.14	333.90
688.48	332.92
688.81	331.88
689.15	330.73
689.49	329.57
689.82	328.60
690.16	327.50
690.50	326.39
690.83	325.36
691.17	324.38
691.51	323.55
691.84	322.61
692.18	321.75
692.52	320.77
692.85	319.88
693.19	319.08
693.52	318.19
693.86	317.36
694.20	316.34
694.53	315.38
694.87	314.58
695.21	313.78
695.54	312.73
695.88	311.75
696.21	310.68
696.55	309.78
696.88	308.81
697.22	308.04
697.56	307.27
697.89	306.46
698.23	305.55
698.56	304.63
698.90	303.80
699.23	302.87
699.57	302.14
699.90	301.34
700.24	300.42
700.58	299.56
700.91	298.79
701.25	298.05
701.58	297.40
701.92	296.54
702.25	295.82
702.59	295.08
702.92	294.37
703.26	293.78
703.59	293.08
703.93	292.64
704.26	292.01
704.60	291.28
704.93	290.48
705.26	289.78
705.60	289.12
705.93	288.35
706.27	287.94
706.60	287.40
706.94	286.82
707.27	286.02
707.61	285.39
707.94	284.83
708.27	284.29
708.61	283.61
708.94	282.97
709.28	282.29
709.61	281.78
709.94	281.29
710.28	280.73
710.61	280.29
710.95	279.50
711.28	279.00
711.61	278.50
711.95	278.03
712.28	277.40
712.61	276.85
712.95	276.48
713.28	275.86
713.61	275.13
713.95	274.59
714.28	274.28
714.61	273.79
714.95	273.32
715.28	272.71
715.61	272.20
715.95	271.81
716.28	271.33
716.61	270.94
716.95	270.40
717.28	269.87
717.61	269.32
717.94	268.89
718.28	268.25
718.61	267.78
718.94	267.28
719.27	266.98
719.61	266.53
719.94	266.03
720.27	265.60
720.60	265.34
720.94	264.89
721.27	264.47
721.60	264.10
721.93	263.67
722.27	263.50
722.60	263.25
722.93	262.88
723.26	262.66
723.59	262.20
723.93	261.83
724.26	261.53
724.59	261.22
724.92	260.90
725.25	260.72
725.59	260.47
725.92	260.22
726.25	259.95
726.58	259.73
726.91	259.52
727.24	259.22
727.57	258.85
727.91	258.63
728.24	258.43
728.57	258.13
728.90	257.87
729.23	257.48
729.56	257.23
729.89	257.00
730.22	256.73
730.55	256.53
730.89	256.48
731.22	256.24
731.55	255.98
731.88	255.71
732.21	255.33
732.54	255.03
732.87	254.74
733.20	254.44
733.53	254.17
733.86	253.93
734.19	253.68
734.52	253.55
734.85	253.37
735.18	253.02
735.51	252.88
735.84	252.56
736.17	252.34
736.50	252.01
736.83	251.95
737.16	251.71
737.49	251.42
737.82	251.03
738.15	250.88
738.48	250.65
738.81	250.48
739.14	250.19
739.47	249.95
739.80	249.70
740.13	249.50
740.46	249.20
740.79	248.86
741.12	248.63
741.45	248.35
741.78	248.02
742.11	247.78
742.44	247.38
742.77	247.25
743.10	247.00
743.43	246.87
743.75	246.49
744.08	246.53
744.41	246.24
744.74	246.02
745.07	245.72
745.40	245.54
745.73	245.33
746.06	245.28
746.39	245.16
746.71	244.99
747.04	244.71
747.37	244.59
747.70	244.42
748.03	244.19
748.36	244.04
748.68	243.78
749.01	243.63
749.34	243.61
749.67	243.41
750.00	243.21
750.33	243.14
750.65	242.94
750.98	242.50
751.31	242.43
751.64	242.32
751.97	242.35
752.29	242.25
752.62	242.08
752.95	241.87
753.28	241.63
753.60	241.54
753.93	241.48
754.26	241.30
754.59	241.15
754.91	240.96
755.24	240.74
755.57	240.78
755.90	240.63
756.22	240.51
756.55	240.40
756.88	240.19
757.20	239.91
757.53	239.79
757.86	239.67
758.19	239.51
758.51	239.34
758.84	239.09
759.17	238.99
759.49	238.87
759.82	238.85
760.15	238.78
760.47	238.64
760.80	238.50
761.13	238.37
761.45	238.24
761.78	238.21
762.11	238.22
762.43	238.11
762.76	237.98
763.08	237.94
763.41	237.91
763.74	237.93
764.06	237.84
764.39	237.78
764.71	237.71
765.04	237.65
765.37	237.60
765.69	237.53
766.02	237.36
766.34	237.21
766.67	237.01
767.00	236.96
767.32	236.99
767.65	237.00
767.97	236.99
768.30	236.93
768.62	236.93
768.95	236.71
769.27	236.55
769.60	236.47
769.92	236.23
770.25	236.00
770.57	235.85
770.90	235.80
771.22	235.58
771.55	235.59
771.87	235.49
772.20	235.42
772.52	235.44
772.85	235.54
773.17	235.57
773.50	235.52
773.82	235.40
774.15	235.22
774.47	234.97
774.80	234.83
775.12	234.76
775.45	234.69
775.77	234.64
776.09	234.53
776.42	234.51
776.74	234.56
777.07	234.61
777.39	234.55
777.72	234.38
778.04	234.39
778.36	234.19
778.69	234.21
779.01	234.10
779.33	233.90
779.66	233.65
779.98	233.55
780.31	233.48
780.63	233.45
780.95	233.44
781.28	233.38
781.60	233.31
781.92	233.26
782.25	233.18
782.57	233.13
782.89	233.03
783.22	233.08
783.54	233.03
783.86	232.92
784.19	232.89
784.51	232.88
784.83	232.85
785.16	232.70
785.48	232.52
785.80	232.55
786.12	232.50
786.45	232.46
786.77	232.34
787.09	232.30
787.42	232.27
787.74	232.18
788.06	232.30
788.38	232.29
788.71	232.26
789.03	232.15
789.35	232.06
789.67	232.08
789.99	231.98
