SpectraSuite Data File
++++++++++++++++++++++++++++++++++++
Date: Fri Feb 01 14:41:11 EST 2013
User: group
Dark Spectrum Present: No
Reference Spectrum Present: No
Number of Sampled Component Spectra: 1
Spectrometers: USB2E7196
Integration Time (usec): 70000 (USB2E7196)
Spectra Averaged: 10 (USB2E7196)
Boxcar Smoothing: 10 (USB2E7196)
Correct for Electrical Dark: No (USB2E7196)
Strobe/Lamp Enabled: No (USB2E7196)
Correct for Detector Non-linearity: No (USB2E7196)
Correct for Stray Light: No (USB2E7196)
Number of Pixels in Processed Spectrum: 2048
>>>>>Begin Processed Spectral Data<<<<<
339.09	0.00
339.48	215.10
339.86	218.20
340.24	219.80
340.63	219.60
341.01	225.30
341.39	223.40
341.78	223.80
342.16	226.70
342.54	229.30
342.93	214.81
343.31	225.64
343.69	226.20
344.07	226.60
344.46	227.02
344.84	227.42
345.22	227.62
345.60	227.90
345.99	228.16
346.37	228.29
346.75	228.23
347.13	228.25
347.52	228.36
347.90	228.55
348.28	228.65
348.66	228.75
349.05	228.71
349.43	228.78
349.81	228.84
350.19	228.85
350.57	228.90
350.96	228.99
351.34	229.10
351.72	229.25
352.10	229.35
352.48	229.41
352.87	229.56
353.25	229.60
353.63	229.68
354.01	229.75
354.39	229.91
354.77	230.01
355.15	230.18
355.54	230.31
355.92	230.41
356.30	230.44
356.68	230.64
357.06	230.70
357.44	230.62
357.82	230.72
358.20	230.76
358.58	230.84
358.97	230.86
359.35	230.93
359.73	231.02
360.11	231.09
360.49	231.03
360.87	231.00
361.25	230.99
361.63	231.07
362.01	231.16
362.39	231.07
362.77	231.09
363.15	231.12
363.53	231.13
363.91	231.06
364.29	231.04
364.67	230.94
365.05	230.95
365.43	231.10
365.81	231.11
366.19	231.17
366.57	231.16
366.95	231.11
367.33	230.97
367.71	230.94
368.09	230.99
368.47	230.98
368.85	230.99
369.23	231.03
369.61	230.86
369.99	230.89
370.37	230.80
370.75	230.86
371.13	230.73
371.51	230.62
371.89	230.57
372.27	230.50
372.65	230.40
373.03	230.30
373.41	230.16
373.78	229.99
374.16	229.84
374.54	229.74
374.92	229.72
375.30	229.73
375.68	229.57
376.06	229.52
376.44	229.54
376.82	229.43
377.19	229.33
377.57	229.16
377.95	228.89
378.33	228.83
378.71	228.70
379.09	228.59
379.47	228.49
379.84	228.47
380.22	228.42
380.60	228.25
380.98	228.25
381.36	228.20
381.73	228.07
382.11	228.10
382.49	227.93
382.87	227.83
383.25	227.83
383.62	227.99
384.00	227.78
384.38	227.58
384.76	227.46
385.13	227.47
385.51	227.53
385.89	227.43
386.27	227.37
386.64	227.31
387.02	227.30
387.40	227.21
387.78	227.07
388.15	227.09
388.53	227.12
388.91	226.96
389.29	226.93
389.66	226.95
390.04	226.82
390.42	226.88
390.79	226.91
391.17	226.91
391.55	226.71
391.92	226.77
392.30	226.85
392.68	226.85
393.05	226.74
393.43	226.70
393.81	226.73
394.18	226.74
394.56	226.75
394.94	226.75
395.31	226.73
395.69	226.90
396.06	226.85
396.44	226.90
396.82	227.05
397.19	227.19
397.57	227.36
397.95	227.51
398.32	227.65
398.70	227.66
399.07	227.73
399.45	227.85
399.82	227.91
400.20	228.09
400.58	228.19
400.95	228.32
401.33	228.61
401.70	228.95
402.08	229.10
402.45	229.30
402.83	229.44
403.20	229.70
403.58	229.75
403.95	229.98
404.33	230.08
404.71	230.21
405.08	230.50
405.46	230.62
405.83	230.86
406.21	230.92
406.58	231.30
406.96	231.47
407.33	231.63
407.70	231.90
408.08	232.19
408.45	232.50
408.83	232.80
409.20	232.92
409.58	233.02
409.95	233.37
410.33	233.63
410.70	234.00
411.08	234.28
411.45	234.73
411.82	235.21
412.20	235.71
412.57	236.24
412.95	236.39
413.32	236.89
413.69	237.20
414.07	237.67
414.44	238.07
414.82	238.72
415.19	239.34
415.56	239.94
415.94	240.51
416.31	241.31
416.68	242.10
417.06	242.88
417.43	243.61
417.81	244.43
418.18	245.35
418.55	246.26
418.93	247.27
419.30	248.30
419.67	249.30
420.04	250.26
420.42	251.43
420.79	252.94
421.16	254.18
421.54	255.62
421.91	257.10
422.28	258.61
422.66	260.08
423.03	261.69
423.40	263.10
423.77	264.66
424.15	266.30
424.52	267.91
424.89	269.75
425.26	271.68
425.64	273.42
426.01	275.10
426.38	277.02
426.75	278.99
427.13	280.97
427.50	282.97
427.87	285.23
428.24	287.22
428.61	289.06
428.99	291.33
429.36	293.65
429.73	295.95
430.10	298.18
430.47	300.47
430.85	302.76
431.22	305.40
431.59	308.26
431.96	310.71
432.33	313.45
432.70	316.22
433.08	319.30
433.45	322.29
433.82	325.39
434.19	328.66
434.56	331.70
434.93	334.55
435.30	337.44
435.68	340.73
436.05	343.95
436.42	347.19
436.79	350.06
437.16	353.29
437.53	356.53
437.90	359.82
438.27	362.93
438.64	366.25
439.01	369.29
439.38	371.64
439.75	374.30
440.13	377.15
440.50	379.87
440.87	382.12
441.24	384.10
441.61	386.33
441.98	388.03
442.35	390.21
442.72	392.39
443.09	394.53
443.46	395.64
443.83	396.46
444.20	397.03
444.57	398.03
444.94	398.32
445.31	398.68
445.68	399.22
446.05	399.32
446.42	398.82
446.79	398.30
447.16	397.92
447.53	397.19
447.90	396.04
448.27	394.53
448.64	392.60
449.01	391.50
449.37	389.44
449.74	387.20
450.11	384.64
450.48	381.67
450.85	378.73
451.22	376.18
451.59	373.77
451.96	371.62
452.33	368.43
452.70	365.66
453.07	362.44
453.43	358.82
453.80	355.65
454.17	352.55
454.54	349.55
454.91	346.34
455.28	343.48
455.65	340.51
456.02	338.04
456.38	335.63
456.75	332.51
457.12	329.73
457.49	327.22
457.86	324.76
458.23	322.71
458.59	320.29
458.96	317.99
459.33	315.78
459.70	313.53
460.07	311.98
460.43	309.93
460.80	308.02
461.17	306.45
461.54	304.65
461.91	303.08
462.27	301.44
462.64	299.90
463.01	298.28
463.38	296.77
463.74	294.88
464.11	293.50
464.48	292.32
464.85	291.18
465.21	290.06
465.58	288.98
465.95	287.74
466.32	286.68
466.68	285.48
467.05	284.35
467.42	283.24
467.78	282.08
468.15	280.96
468.52	280.01
468.88	278.90
469.25	277.94
469.62	276.99
469.98	276.20
470.35	275.53
470.72	274.84
471.08	273.94
471.45	273.29
471.82	272.47
472.18	271.58
472.55	270.91
472.92	270.34
473.28	269.59
473.65	268.91
474.02	268.34
474.38	267.86
474.75	267.40
475.11	266.95
475.48	266.45
475.85	266.06
476.21	265.81
476.58	265.43
476.94	265.20
477.31	264.92
477.67	264.50
478.04	264.03
478.41	263.70
478.77	263.65
479.14	263.31
479.50	263.10
479.87	263.04
480.23	262.91
480.60	262.74
480.96	262.69
481.33	262.79
481.69	262.79
482.06	262.83
482.42	262.80
482.79	262.81
483.15	262.84
483.52	263.07
483.88	263.06
484.25	263.15
484.61	263.23
484.98	263.35
485.34	263.72
485.71	264.26
486.07	264.52
486.44	264.82
486.80	265.22
487.17	265.74
487.53	266.32
487.90	266.83
488.26	267.50
488.62	268.12
488.99	268.72
489.35	269.33
489.72	270.07
490.08	270.95
490.44	271.77
490.81	272.74
491.17	273.58
491.54	274.81
491.90	276.06
492.26	277.30
492.63	278.61
492.99	279.81
493.36	281.22
493.72	282.81
494.08	284.36
494.45	286.06
494.81	287.80
495.17	289.66
495.54	291.67
495.90	293.54
496.26	295.75
496.63	298.08
496.99	300.50
497.35	303.07
497.72	305.66
498.08	308.41
498.44	311.36
498.80	314.55
499.17	317.68
499.53	320.87
499.89	324.32
500.26	327.83
500.62	331.69
500.98	335.52
501.34	339.64
501.71	343.90
502.07	348.32
502.43	352.95
502.79	357.63
503.16	362.69
503.52	367.83
503.88	373.15
504.24	378.50
504.60	384.35
504.97	390.35
505.33	396.56
505.69	403.12
506.05	409.75
506.41	416.43
506.78	423.25
507.14	430.49
507.50	438.10
507.86	445.92
508.22	453.76
508.59	461.77
508.95	470.26
509.31	478.90
509.67	487.87
510.03	497.15
510.39	506.75
510.75	516.23
511.12	526.14
511.48	536.03
511.84	546.59
512.20	556.98
512.56	567.81
512.92	579.06
513.28	590.36
513.64	601.68
514.00	613.41
514.37	625.70
514.73	638.10
515.09	650.29
515.45	662.89
515.81	675.74
516.17	689.08
516.53	702.27
516.89	715.91
517.25	729.46
517.61	743.11
517.97	756.67
518.33	770.65
518.69	785.12
519.05	799.88
519.41	814.69
519.77	830.20
520.13	845.50
520.49	860.83
520.85	876.02
521.21	891.59
521.57	907.80
521.93	923.11
522.29	939.23
522.65	955.31
523.01	971.40
523.37	987.52
523.73	1003.72
524.09	1020.08
524.45	1036.67
524.81	1053.55
525.17	1070.84
525.53	1088.51
525.89	1105.96
526.25	1123.43
526.61	1140.52
526.97	1157.90
527.33	1174.92
527.68	1192.56
528.04	1209.83
528.40	1227.55
528.76	1245.76
529.12	1263.52
529.48	1281.75
529.84	1299.19
530.20	1317.73
530.56	1336.65
530.91	1355.40
531.27	1374.08
531.63	1392.52
531.99	1410.97
532.35	1428.80
532.71	1446.60
533.07	1464.73
533.42	1482.75
533.78	1500.58
534.14	1518.70
534.50	1535.94
534.86	1553.85
535.21	1570.71
535.57	1588.77
535.93	1606.49
536.29	1623.24
536.65	1640.80
537.00	1657.87
537.36	1675.38
537.72	1691.84
538.08	1707.95
538.44	1724.22
538.79	1740.46
539.15	1756.84
539.51	1772.83
539.87	1789.71
540.22	1805.41
540.58	1821.65
540.94	1837.30
541.29	1852.83
541.65	1868.29
542.01	1884.17
542.37	1899.13
542.72	1914.35
543.08	1929.02
543.44	1943.73
543.79	1958.11
544.15	1971.97
544.51	1986.86
544.87	2000.97
545.22	2014.73
545.58	2028.24
545.94	2040.97
546.29	2053.70
546.65	2066.36
547.01	2078.86
547.36	2090.84
547.72	2103.04
548.07	2114.00
548.43	2125.19
548.79	2136.18
549.14	2146.48
549.50	2156.60
549.86	2166.87
550.21	2177.07
550.57	2186.89
550.92	2196.48
551.28	2206.63
551.64	2215.70
551.99	2224.38
552.35	2232.65
552.70	2241.97
553.06	2251.00
553.41	2260.60
553.77	2269.16
554.13	2277.74
554.48	2286.40
554.84	2293.97
555.19	2301.32
555.55	2309.40
555.90	2316.82
556.26	2324.32
556.61	2331.91
556.97	2338.97
557.32	2346.22
557.68	2353.08
558.03	2360.03
558.39	2366.88
558.74	2373.79
559.10	2380.59
559.45	2386.78
559.81	2394.70
560.16	2400.36
560.52	2405.67
560.87	2411.26
561.23	2416.21
561.58	2421.70
561.94	2426.19
562.29	2430.94
562.64	2435.83
563.00	2440.08
563.35	2445.32
563.71	2450.65
564.06	2455.79
564.42	2460.54
564.77	2465.26
565.12	2469.61
565.48	2473.88
565.83	2476.83
566.19	2479.79
566.54	2482.67
566.89	2486.03
567.25	2487.93
567.60	2491.10
567.96	2494.09
568.31	2495.85
568.66	2498.68
569.02	2500.31
569.37	2501.68
569.72	2503.35
570.08	2504.58
570.43	2506.21
570.78	2507.06
571.14	2506.73
571.49	2506.65
571.84	2507.70
572.20	2506.97
572.55	2506.77
572.90	2505.41
573.26	2505.40
573.61	2504.92
573.96	2503.68
574.31	2501.51
574.67	2498.82
575.02	2496.26
575.37	2493.78
575.72	2491.07
576.08	2488.91
576.43	2485.82
576.78	2483.42
577.13	2481.14
577.49	2479.17
577.84	2475.74
578.19	2472.45
578.54	2469.49
578.90	2465.74
579.25	2461.05
579.60	2457.00
579.95	2452.38
580.30	2448.01
580.66	2443.48
581.01	2438.44
581.36	2434.29
581.71	2430.81
582.06	2426.91
582.42	2421.85
582.77	2417.35
583.12	2412.43
583.47	2407.52
583.82	2403.42
584.17	2398.49
584.53	2393.34
584.88	2388.05
585.23	2383.10
585.58	2378.11
585.93	2372.58
586.28	2368.22
586.63	2363.17
586.98	2358.03
587.34	2353.40
587.69	2348.66
588.04	2343.12
588.39	2337.57
588.74	2330.72
589.09	2323.64
589.44	2317.04
589.79	2311.60
590.14	2306.16
590.49	2300.50
590.84	2293.59
591.19	2287.16
591.54	2279.90
591.89	2272.38
592.25	2265.65
592.60	2257.61
592.95	2249.82
593.30	2242.69
593.65	2234.71
594.00	2227.60
594.35	2221.05
594.70	2212.58
595.05	2205.15
595.40	2197.56
595.75	2190.01
596.10	2183.66
596.45	2177.13
596.80	2170.80
597.15	2163.81
597.50	2155.94
597.85	2148.83
598.19	2142.18
598.54	2135.17
598.89	2128.83
599.24	2122.93
599.59	2115.78
599.94	2109.64
600.29	2102.94
600.64	2095.65
600.99	2087.66
601.34	2080.27
601.69	2071.79
602.04	2065.11
602.39	2057.56
602.74	2051.41
603.08	2044.98
603.43	2038.20
603.78	2030.59
604.13	2023.20
604.48	2015.41
604.83	2007.95
605.18	2000.64
605.53	1992.08
605.87	1983.10
606.22	1975.30
606.57	1966.93
606.92	1958.96
607.27	1951.32
607.62	1944.00
607.96	1936.70
608.31	1929.64
608.66	1921.34
609.01	1912.96
609.36	1904.04
609.70	1895.24
610.05	1885.11
610.40	1876.32
610.75	1867.21
611.10	1858.30
611.44	1848.45
611.79	1839.54
612.14	1830.41
612.49	1820.42
612.83	1811.67
613.18	1803.18
613.53	1794.17
613.88	1784.72
614.22	1775.60
614.57	1765.60
614.92	1755.92
615.27	1746.80
615.61	1737.66
615.96	1728.64
616.31	1720.83
616.65	1713.23
617.00	1704.91
617.35	1697.06
617.70	1687.88
618.04	1678.65
618.39	1670.18
618.74	1661.65
619.08	1652.81
619.43	1644.50
619.78	1636.59
620.12	1628.28
620.47	1619.61
620.82	1610.73
621.16	1602.58
621.51	1594.10
621.85	1585.94
622.20	1577.11
622.55	1568.34
622.89	1559.93
623.24	1551.41
623.59	1542.71
623.93	1534.25
624.28	1525.81
624.62	1517.29
624.97	1509.57
625.32	1501.51
625.66	1493.45
626.01	1485.40
626.35	1477.34
626.70	1468.80
627.04	1461.06
627.39	1452.50
627.73	1444.43
628.08	1436.51
628.43	1428.02
628.77	1420.05
629.12	1411.72
629.46	1403.69
629.81	1394.91
630.15	1386.10
630.50	1377.75
630.84	1368.96
631.19	1359.69
631.53	1351.25
631.88	1342.26
632.22	1332.80
632.57	1324.65
632.91	1316.07
633.26	1307.77
633.60	1298.93
633.95	1290.73
634.29	1282.03
634.64	1274.51
634.98	1266.12
635.32	1258.40
635.67	1250.97
636.01	1242.86
636.36	1234.93
636.70	1227.18
637.05	1219.83
637.39	1212.84
637.73	1205.56
638.08	1198.71
638.42	1191.99
638.77	1184.92
639.11	1177.47
639.45	1170.79
639.80	1163.31
640.14	1155.73
640.49	1148.81
640.83	1141.98
641.17	1134.99
641.52	1127.97
641.86	1120.43
642.20	1113.60
642.55	1105.66
642.89	1098.35
643.23	1090.96
643.58	1084.67
643.92	1077.57
644.26	1070.52
644.61	1063.57
644.95	1056.61
645.29	1048.84
645.64	1041.34
645.98	1034.32
646.32	1028.10
646.66	1020.91
647.01	1014.02
647.35	1007.58
647.69	1000.24
648.04	993.77
648.38	986.72
648.72	979.46
649.06	972.63
649.41	965.69
649.75	959.07
650.09	952.03
650.43	945.27
650.78	937.68
651.12	930.98
651.46	924.36
651.80	917.63
652.14	911.00
652.49	904.74
652.83	898.53
653.17	891.46
653.51	884.57
653.85	877.87
654.20	871.34
654.54	864.56
654.88	858.23
655.22	851.46
655.56	844.85
655.90	838.81
656.25	832.53
656.59	826.26
656.93	820.36
657.27	814.50
657.61	808.30
657.95	802.71
658.29	796.66
658.64	790.62
658.98	784.38
659.32	778.30
659.66	772.50
660.00	766.50
660.34	760.97
660.68	755.29
661.02	749.76
661.36	744.34
661.70	739.07
662.05	733.81
662.39	728.66
662.73	723.47
663.07	718.35
663.41	713.38
663.75	708.44
664.09	703.22
664.43	698.36
664.77	693.69
665.11	688.72
665.45	684.12
665.79	679.33
666.13	674.77
666.47	670.11
666.81	665.41
667.15	660.56
667.49	655.97
667.83	651.49
668.17	646.89
668.51	642.29
668.85	637.59
669.19	633.24
669.53	628.73
669.87	624.18
670.21	619.83
670.55	615.73
670.89	611.76
671.23	607.80
671.57	603.46
671.91	599.27
672.25	595.17
672.58	591.08
672.92	587.29
673.26	583.58
673.60	579.90
673.94	576.22
674.28	572.91
674.62	569.55
674.96	566.07
675.30	562.80
675.64	559.30
675.97	555.93
676.31	552.48
676.65	549.30
676.99	546.46
677.33	543.16
677.67	539.73
678.01	536.11
678.34	532.84
678.68	529.71
679.02	526.60
679.36	523.45
679.70	520.32
680.04	517.17
680.37	513.78
680.71	510.70
681.05	507.78
681.39	504.86
681.73	501.79
682.06	498.87
682.40	495.93
682.74	493.08
683.08	490.38
683.42	487.40
683.75	484.50
684.09	481.36
684.43	478.47
684.77	475.73
685.10	473.20
685.44	470.42
685.78	467.76
686.12	465.01
686.45	462.35
686.79	459.77
687.13	457.20
687.46	454.70
687.80	452.11
688.14	449.45
688.48	446.95
688.81	444.38
689.15	441.99
689.49	439.56
689.82	437.22
690.16	434.70
690.50	432.68
690.83	430.20
691.17	427.97
691.51	425.75
691.84	423.40
692.18	421.10
692.52	418.87
692.85	416.51
693.19	414.48
693.52	412.41
693.86	410.19
694.20	408.00
694.53	405.79
694.87	403.67
695.21	401.48
695.54	399.31
695.88	397.08
696.21	395.01
696.55	392.93
696.88	390.90
697.22	389.09
697.56	387.10
697.89	385.18
698.23	383.20
698.56	381.41
698.90	379.60
699.23	377.63
699.57	375.80
699.90	373.98
700.24	372.02
700.58	370.13
700.91	368.32
701.25	366.70
701.58	365.35
701.92	363.80
702.25	362.22
702.59	360.52
702.92	359.08
703.26	357.44
703.59	355.90
703.93	354.62
704.26	352.97
704.60	351.46
704.93	349.99
705.26	348.59
705.60	347.24
705.93	345.99
706.27	344.75
706.60	343.27
706.94	341.95
707.27	340.61
707.61	339.46
707.94	338.27
708.27	336.80
708.61	335.29
708.94	333.84
709.28	332.52
709.61	331.16
709.94	329.91
710.28	328.70
710.61	327.54
710.95	325.87
711.28	324.78
711.61	323.41
711.95	322.11
712.28	320.86
712.61	319.48
712.95	318.19
713.28	316.98
713.61	316.01
713.95	314.89
714.28	313.82
714.61	312.65
714.95	311.50
715.28	310.50
715.61	309.50
715.95	308.58
716.28	307.65
716.61	306.83
716.95	305.87
717.28	304.96
717.61	303.95
717.94	303.24
718.28	302.27
718.61	301.46
718.94	300.65
719.27	299.86
719.61	298.99
719.94	298.05
720.27	297.34
720.60	296.33
720.94	295.54
721.27	294.86
721.60	294.14
721.93	293.44
722.27	292.64
722.60	291.96
722.93	291.16
723.26	290.43
723.59	289.64
723.93	288.91
724.26	288.11
724.59	287.46
724.92	286.87
725.25	286.24
725.59	285.52
725.92	284.98
726.25	284.35
726.58	283.85
726.91	283.29
727.24	282.58
727.57	282.09
727.91	281.57
728.24	280.93
728.57	280.26
728.90	279.78
729.23	279.31
729.56	278.81
729.89	278.28
730.22	277.66
730.55	277.08
730.89	276.78
731.22	276.31
731.55	275.79
731.88	275.18
732.21	274.79
732.54	274.27
732.87	273.85
733.20	273.24
733.53	272.72
733.86	272.30
734.19	271.85
734.52	271.46
734.85	271.08
735.18	270.68
735.51	270.34
735.84	269.86
736.17	269.38
736.50	268.73
736.83	268.49
737.16	268.17
737.49	267.73
737.82	267.20
738.15	266.85
738.48	266.53
738.81	266.16
739.14	265.59
739.47	265.25
739.80	264.81
740.13	264.53
740.46	264.09
740.79	263.62
741.12	263.30
741.45	262.89
741.78	262.35
742.11	261.94
742.44	261.31
742.77	260.96
743.10	260.56
743.43	260.19
743.75	259.63
744.08	259.61
744.41	259.33
744.74	258.92
745.07	258.62
745.40	258.34
745.73	258.00
746.06	257.80
746.39	257.42
746.71	256.95
747.04	256.58
747.37	256.21
747.70	255.93
748.03	255.49
748.36	255.20
748.68	254.91
749.01	254.52
749.34	254.40
749.67	254.00
750.00	253.79
750.33	253.69
750.65	253.40
750.98	252.70
751.31	252.43
751.64	252.15
751.97	251.90
752.29	251.41
752.62	251.14
752.95	250.75
753.28	250.54
753.60	250.28
753.93	250.07
754.26	249.81
754.59	249.46
754.91	249.12
755.24	248.84
755.57	248.56
755.90	248.29
756.22	247.92
756.55	247.66
756.88	247.37
757.20	246.96
757.53	246.72
757.86	246.54
758.19	246.35
758.51	246.09
758.84	245.73
759.17	245.52
759.49	245.22
759.82	245.25
760.15	244.94
760.47	244.86
760.80	244.65
761.13	244.51
761.45	244.41
761.78	244.27
762.11	244.03
762.43	243.77
762.76	243.53
763.08	243.43
763.41	243.29
763.74	243.16
764.06	243.00
764.39	242.85
764.71	242.70
765.04	242.43
765.37	242.24
765.69	242.08
766.02	242.05
766.34	241.87
766.67	241.57
767.00	241.56
767.32	241.37
767.65	241.40
767.97	241.34
768.30	241.20
768.62	241.07
768.95	241.00
769.27	240.93
769.60	240.89
769.92	240.73
770.25	240.55
770.57	240.36
770.90	240.25
771.22	240.21
771.55	240.00
771.87	239.92
772.20	239.90
772.52	239.87
772.85	239.84
773.17	239.78
773.50	239.56
773.82	239.43
774.15	239.29
774.47	238.93
774.80	238.66
775.12	238.48
775.45	238.37
775.77	238.32
776.09	238.23
776.42	238.12
776.74	238.11
777.07	238.06
777.39	237.95
777.72	237.83
778.04	237.69
778.36	237.65
778.69	237.60
779.01	237.48
779.33	237.23
779.66	237.06
779.98	237.03
780.31	236.99
780.63	236.86
780.95	236.75
781.28	236.70
781.60	236.65
781.92	236.61
782.25	236.50
782.57	236.33
782.89	236.30
783.22	236.13
783.54	235.98
783.86	235.95
784.19	235.88
784.51	235.85
784.83	235.80
785.16	235.60
785.48	235.47
785.80	235.36
786.12	235.36
786.45	235.17
786.77	234.95
