SpectraSuite Data File
++++++++++++++++++++++++++++++++++++
Date: Fri Feb 01 14:39:45 EST 2013
User: group
Dark Spectrum Present: No
Reference Spectrum Present: No
Number of Sampled Component Spectra: 1
Spectrometers: USB2E7196
Integration Time (usec): 70000 (USB2E7196)
Spectra Averaged: 10 (USB2E7196)
Boxcar Smoothing: 10 (USB2E7196)
Correct for Electrical Dark: No (USB2E7196)
Strobe/Lamp Enabled: No (USB2E7196)
Correct for Detector Non-linearity: No (USB2E7196)
Correct for Stray Light: No (USB2E7196)
Number of Pixels in Processed Spectrum: 2048
>>>>>Begin Processed Spectral Data<<<<<
339.09	0.00
339.48	217.20
339.86	216.60
340.24	220.20
340.63	223.60
341.01	224.90
341.39	222.40
341.78	226.10
342.16	227.00
342.54	225.10
342.93	214.90
343.31	225.80
343.69	226.31
344.07	226.78
344.46	227.18
344.84	227.40
345.22	227.48
345.60	227.74
345.99	227.80
346.37	227.80
346.75	227.82
347.13	227.90
347.52	228.01
347.90	228.10
348.28	228.11
348.66	228.04
349.05	227.96
349.43	227.93
349.81	227.84
350.19	227.84
350.57	227.91
350.96	228.00
351.34	227.95
351.72	227.96
352.10	228.04
352.48	228.04
352.87	228.10
353.25	228.18
353.63	228.20
354.01	228.24
354.39	228.30
354.77	228.52
355.15	228.62
355.54	228.58
355.92	228.58
356.30	228.70
356.68	228.95
357.06	229.02
357.44	229.10
357.82	229.18
358.20	229.30
358.58	229.36
358.97	229.43
359.35	229.54
359.73	229.70
360.11	229.83
360.49	229.89
360.87	229.94
361.25	229.99
361.63	230.05
362.01	230.23
362.39	230.34
362.77	230.36
363.15	230.30
363.53	230.48
363.91	230.49
364.29	230.50
364.67	230.35
365.05	230.36
365.43	230.45
365.81	230.47
366.19	230.59
366.57	230.61
366.95	230.59
367.33	230.60
367.71	230.50
368.09	230.54
368.47	230.52
368.85	230.47
369.23	230.47
369.61	230.49
369.99	230.46
370.37	230.45
370.75	230.44
371.13	230.42
371.51	230.35
371.89	230.33
372.27	230.37
372.65	230.37
373.03	230.23
373.41	230.05
373.78	230.14
374.16	229.92
374.54	229.81
374.92	229.63
375.30	229.51
375.68	229.42
376.06	229.30
376.44	229.20
376.82	229.16
377.19	229.17
377.57	229.04
377.95	228.90
378.33	228.79
378.71	228.67
379.09	228.61
379.47	228.46
379.84	228.41
380.22	228.21
380.60	228.13
380.98	228.10
381.36	227.96
381.73	227.72
382.11	227.72
382.49	227.68
382.87	227.62
383.25	227.53
383.62	227.71
384.00	227.52
384.38	227.45
384.76	227.39
385.13	227.35
385.51	227.27
385.89	227.20
386.27	227.08
386.64	227.09
387.02	227.10
387.40	227.16
387.78	227.00
388.15	227.02
388.53	226.97
388.91	226.95
389.29	227.04
389.66	227.13
390.04	226.98
390.42	226.91
390.79	226.96
391.17	226.91
391.55	226.75
391.92	226.81
392.30	226.81
392.68	226.84
393.05	226.85
393.43	226.92
393.81	226.93
394.18	226.99
394.56	227.10
394.94	227.13
395.31	227.01
395.69	227.20
396.06	227.30
396.44	227.34
396.82	227.30
397.19	227.43
397.57	227.36
397.95	227.51
398.32	227.59
398.70	227.62
399.07	227.81
399.45	227.78
399.82	227.83
400.20	227.87
400.58	227.80
400.95	227.82
401.33	227.98
401.70	228.18
402.08	228.27
402.45	228.15
402.83	228.24
403.20	228.49
403.58	228.55
403.95	228.60
404.33	228.75
404.71	229.01
405.08	229.20
405.46	229.37
405.83	229.47
406.21	229.59
406.58	229.67
406.96	229.80
407.33	230.00
407.70	230.25
408.08	230.61
408.45	230.89
408.83	231.14
409.20	231.21
409.58	231.38
409.95	231.71
410.33	232.03
410.70	232.13
411.08	232.32
411.45	232.63
411.82	232.88
412.20	233.18
412.57	233.59
412.95	233.69
413.32	234.13
413.69	234.50
414.07	234.97
414.44	235.54
414.82	236.01
415.19	236.58
415.56	237.05
415.94	237.51
416.31	238.15
416.68	238.63
417.06	239.41
417.43	240.06
417.81	240.74
418.18	241.41
418.55	242.39
418.93	243.27
419.30	244.11
419.67	245.11
420.04	245.99
420.42	246.90
420.79	248.30
421.16	249.41
421.54	250.70
421.91	251.91
422.28	253.18
422.66	254.44
423.03	255.79
423.40	257.28
423.77	258.67
424.15	260.21
424.52	261.80
424.89	263.38
425.26	264.93
425.64	266.43
426.01	268.20
426.38	269.86
426.75	271.62
427.13	273.36
427.50	275.17
427.87	277.21
428.24	279.01
428.61	280.63
428.99	282.73
429.36	284.86
429.73	286.96
430.10	289.12
430.47	291.30
430.85	293.46
431.22	295.76
431.59	298.40
431.96	300.59
432.33	303.20
432.70	305.77
433.08	308.72
433.45	311.57
433.82	314.15
434.19	317.27
434.56	320.30
434.93	323.10
435.30	325.88
435.68	328.90
436.05	332.10
436.42	335.12
436.79	337.71
437.16	340.64
437.53	343.76
437.90	346.70
438.27	349.71
438.64	352.76
439.01	355.50
439.38	357.87
439.75	360.39
440.13	363.10
440.50	365.70
440.87	367.87
441.24	369.98
441.61	372.63
441.98	374.31
442.35	376.38
442.72	378.52
443.09	380.51
443.46	381.65
443.83	382.35
444.20	382.99
444.57	384.17
444.94	384.70
445.31	385.14
445.68	385.73
446.05	385.91
446.42	385.59
446.79	385.36
447.16	385.04
447.53	384.64
447.90	383.53
448.27	382.50
448.64	380.94
449.01	379.99
449.37	377.89
449.74	376.08
450.11	373.97
450.48	371.49
450.85	369.00
451.22	366.87
451.59	364.94
451.96	363.09
452.33	360.23
452.70	357.79
453.07	354.95
453.43	351.88
453.80	349.03
454.17	346.45
454.54	343.71
454.91	340.87
455.28	338.10
455.65	335.43
456.02	332.98
456.38	330.54
456.75	327.56
457.12	325.21
457.49	322.76
457.86	320.29
458.23	318.33
458.59	316.11
458.96	313.77
459.33	311.70
459.70	309.66
460.07	308.07
460.43	306.12
460.80	304.28
461.17	302.64
461.54	301.10
461.91	299.38
462.27	297.77
462.64	296.28
463.01	294.84
463.38	293.60
463.74	291.84
464.11	290.62
464.48	289.45
464.85	288.09
465.21	287.08
465.58	285.95
465.95	284.70
466.32	283.72
466.68	282.76
467.05	281.62
467.42	280.56
467.78	279.47
468.15	278.50
468.52	277.73
468.88	276.89
469.25	275.93
469.62	275.18
469.98	274.39
470.35	273.76
470.72	273.10
471.08	272.19
471.45	271.51
471.82	270.81
472.18	270.08
472.55	269.58
472.92	268.87
473.28	268.25
473.65	267.60
474.02	267.00
474.38	266.49
474.75	266.08
475.11	265.52
475.48	265.08
475.85	264.62
476.21	264.20
476.58	263.62
476.94	263.22
477.31	262.89
477.67	262.50
478.04	262.11
478.41	261.80
478.77	261.61
479.14	261.24
479.50	260.98
479.87	260.85
480.23	260.57
480.60	260.43
480.96	260.24
481.33	260.26
481.69	260.05
482.06	259.80
482.42	259.62
482.79	259.48
483.15	259.36
483.52	259.39
483.88	259.17
484.25	259.13
484.61	259.14
484.98	259.07
485.34	259.17
485.71	259.22
486.07	259.12
486.44	259.12
486.80	259.21
487.17	259.21
487.53	259.32
487.90	259.55
488.26	259.62
488.62	259.82
488.99	259.76
489.35	259.88
489.72	260.09
490.08	260.24
490.44	260.45
490.81	260.67
491.17	260.86
491.54	261.24
491.90	261.49
492.26	261.66
492.63	261.86
492.99	262.00
493.36	262.30
493.72	262.78
494.08	262.98
494.45	263.42
494.81	263.89
495.17	264.25
495.54	264.68
495.90	265.08
496.26	265.49
496.63	266.10
496.99	266.65
497.35	267.33
497.72	268.00
498.08	268.57
498.44	269.30
498.80	269.96
499.17	270.59
499.53	271.38
499.89	272.29
500.26	273.14
500.62	274.17
500.98	275.05
501.34	275.93
501.71	277.02
502.07	277.95
502.43	279.00
502.79	280.15
503.16	281.28
503.52	282.65
503.88	283.84
504.24	285.13
504.60	286.53
504.97	287.90
505.33	289.30
505.69	290.99
506.05	292.61
506.41	294.20
506.78	296.01
507.14	297.87
507.50	299.80
507.86	301.87
508.22	303.82
508.59	305.98
508.95	308.20
509.31	310.60
509.67	313.04
510.03	315.60
510.39	318.27
510.75	320.90
511.12	323.46
511.48	326.35
511.84	329.22
512.20	332.29
512.56	335.42
512.92	338.76
513.28	342.07
513.64	345.43
514.00	349.09
514.37	352.75
514.73	356.49
515.09	360.09
515.45	364.06
515.81	368.18
516.17	372.30
516.53	376.60
516.89	380.84
517.25	385.31
517.61	389.91
517.97	394.48
518.33	399.10
518.69	404.12
519.05	409.17
519.41	414.44
519.77	419.76
520.13	425.11
520.49	430.47
520.85	435.97
521.21	441.83
521.57	447.67
521.93	453.29
522.29	459.45
522.65	465.52
523.01	471.57
523.37	477.74
523.73	484.05
524.09	490.62
524.45	497.12
524.81	503.80
525.17	510.56
525.53	517.54
525.89	524.62
526.25	531.75
526.61	538.84
526.97	545.85
527.33	553.01
527.68	560.80
528.04	568.35
528.40	576.00
528.76	583.51
529.12	591.26
529.48	599.55
529.84	607.22
530.20	615.52
530.56	623.61
530.91	631.98
531.27	640.30
531.63	648.40
531.99	656.86
532.35	665.18
532.71	673.49
533.07	682.08
533.42	690.82
533.78	699.42
534.14	708.00
534.50	716.71
534.86	725.64
535.21	734.00
535.57	742.83
535.93	751.68
536.29	760.84
536.65	769.85
537.00	778.22
537.36	787.28
537.72	795.80
538.08	804.69
538.44	813.42
538.79	822.50
539.15	831.23
539.51	840.40
539.87	849.51
540.22	858.74
540.58	867.63
540.94	876.66
541.29	885.31
541.65	894.01
542.01	903.09
542.37	911.91
542.72	920.79
543.08	929.46
543.44	938.14
543.79	946.34
544.15	954.88
544.51	963.95
544.87	972.51
545.22	981.41
545.58	989.82
545.94	997.83
546.29	1005.82
546.65	1014.04
547.01	1021.86
547.36	1029.75
547.72	1037.27
548.07	1045.03
548.43	1052.52
548.79	1060.38
549.14	1068.05
549.50	1075.33
549.86	1082.61
550.21	1089.75
550.57	1096.83
550.92	1104.07
551.28	1111.26
551.64	1117.96
551.99	1124.92
552.35	1131.77
552.70	1138.49
553.06	1145.56
553.41	1152.80
553.77	1159.81
554.13	1166.93
554.48	1174.03
554.84	1180.44
555.19	1187.09
555.55	1193.65
555.90	1199.38
556.26	1205.40
556.61	1211.60
556.97	1217.28
557.32	1223.22
557.68	1229.25
558.03	1235.74
558.39	1241.59
558.74	1247.82
559.10	1253.85
559.45	1259.39
559.81	1265.52
560.16	1270.81
560.52	1275.99
560.87	1281.52
561.23	1286.62
561.58	1291.88
561.94	1296.74
562.29	1301.44
562.64	1306.26
563.00	1310.78
563.35	1316.69
563.71	1321.98
564.06	1326.95
564.42	1332.08
564.77	1336.54
565.12	1341.54
565.48	1345.76
565.83	1349.89
566.19	1353.77
566.54	1357.69
566.89	1361.41
567.25	1364.87
567.60	1369.05
567.96	1372.84
568.31	1376.09
568.66	1379.51
569.02	1382.78
569.37	1385.50
569.72	1389.10
570.08	1392.04
570.43	1395.35
570.78	1397.40
571.14	1399.49
571.49	1401.90
571.84	1404.82
572.20	1407.09
572.55	1408.87
572.90	1410.54
573.26	1412.53
573.61	1414.15
573.96	1415.88
574.31	1416.75
574.67	1417.83
575.02	1418.42
575.37	1419.19
575.72	1419.49
576.08	1420.09
576.43	1420.27
576.78	1421.24
577.13	1421.67
577.49	1422.24
577.84	1422.31
578.19	1422.62
578.54	1422.36
578.90	1421.95
579.25	1420.95
579.60	1420.51
579.95	1419.97
580.30	1419.01
580.66	1418.21
581.01	1417.50
581.36	1416.67
581.71	1416.62
582.06	1415.78
582.42	1414.84
582.77	1413.71
583.12	1412.93
583.47	1412.03
583.82	1411.07
584.17	1409.29
584.53	1407.96
584.88	1406.51
585.23	1404.88
585.58	1403.68
585.93	1402.68
586.28	1401.70
586.63	1400.37
586.98	1399.25
587.34	1397.96
587.69	1396.62
588.04	1395.08
588.39	1393.68
588.74	1390.98
589.09	1388.76
589.44	1386.68
589.79	1384.73
590.14	1383.00
590.49	1380.79
590.84	1378.21
591.19	1376.16
591.54	1373.53
591.89	1370.60
592.25	1368.00
592.60	1364.95
592.95	1361.60
593.30	1358.29
593.65	1354.88
594.00	1351.63
594.35	1349.15
594.70	1345.37
595.05	1342.73
595.40	1339.51
595.75	1335.71
596.10	1333.57
596.45	1331.01
596.80	1327.99
597.15	1325.09
597.50	1321.87
597.85	1318.94
598.19	1316.16
598.54	1312.84
598.89	1310.04
599.24	1307.42
599.59	1304.60
599.94	1301.92
600.29	1298.75
600.64	1295.66
600.99	1292.16
601.34	1289.18
601.69	1284.97
602.04	1281.86
602.39	1278.27
602.74	1275.33
603.08	1272.71
603.43	1269.41
603.78	1265.71
604.13	1262.07
604.48	1258.53
604.83	1254.96
605.18	1251.49
605.53	1247.50
605.87	1243.19
606.22	1239.48
606.57	1235.50
606.92	1231.24
607.27	1227.56
607.62	1224.40
607.96	1221.01
608.31	1217.71
608.66	1213.58
609.01	1209.30
609.36	1204.88
609.70	1200.18
610.05	1195.17
610.40	1190.35
610.75	1185.27
611.10	1180.60
611.44	1175.88
611.79	1171.18
612.14	1166.70
612.49	1161.49
612.83	1156.69
613.18	1152.20
613.53	1147.70
613.88	1142.53
614.22	1137.79
614.57	1132.60
614.92	1127.33
615.27	1122.70
615.61	1117.76
615.96	1112.76
616.31	1108.61
616.65	1104.86
617.00	1100.61
617.35	1096.09
617.70	1091.15
618.04	1086.63
618.39	1082.05
618.74	1077.82
619.08	1072.99
619.43	1068.12
619.78	1063.98
620.12	1059.45
620.47	1054.96
620.82	1050.07
621.16	1045.97
621.51	1041.88
621.85	1037.45
622.20	1032.76
622.55	1028.00
622.89	1023.51
623.24	1019.37
623.59	1014.95
623.93	1010.14
624.28	1005.64
624.62	1001.39
624.97	997.30
625.32	993.18
625.66	989.09
626.01	984.41
626.35	980.13
626.70	975.70
627.04	971.24
627.39	966.87
627.73	962.14
628.08	957.78
628.43	952.92
628.77	947.88
629.12	943.27
629.46	938.93
629.81	934.20
630.15	929.23
630.50	924.50
630.84	919.37
631.19	914.13
631.53	909.11
631.88	904.16
632.22	898.91
632.57	893.98
632.91	889.00
633.26	883.95
633.60	879.04
633.95	874.33
634.29	869.60
634.64	865.13
634.98	860.84
635.32	856.72
635.67	852.61
636.01	848.18
636.36	843.63
636.70	839.33
637.05	834.89
637.39	831.00
637.73	826.73
638.08	822.83
638.42	819.19
638.77	815.56
639.11	811.05
639.45	807.39
639.80	803.20
640.14	798.95
640.49	795.36
640.83	791.51
641.17	787.60
641.52	783.50
641.86	779.29
642.20	775.45
642.55	770.72
642.89	766.52
643.23	762.36
643.58	758.70
643.92	754.27
644.26	750.16
644.61	746.14
644.95	742.14
645.29	737.49
645.64	733.09
645.98	728.73
646.32	725.19
646.66	720.90
647.01	716.83
647.35	712.79
647.69	708.53
648.04	704.50
648.38	700.33
648.72	696.11
649.06	691.76
649.41	687.34
649.75	683.36
650.09	679.39
650.43	675.34
650.78	670.83
651.12	666.85
651.46	662.87
651.80	658.92
652.14	655.13
652.49	651.56
652.83	647.95
653.17	643.97
653.51	639.96
653.85	636.21
654.20	632.55
654.54	628.72
654.88	624.90
655.22	620.93
655.56	617.16
655.90	613.63
656.25	610.53
656.59	606.95
656.93	603.55
657.27	599.85
657.61	596.47
657.95	593.19
658.29	589.89
658.64	586.41
658.98	582.59
659.32	578.79
659.66	575.33
660.00	571.61
660.34	568.20
660.68	564.90
661.02	561.36
661.36	558.04
661.70	554.96
662.05	552.02
662.39	549.08
662.73	546.03
663.07	543.14
663.41	539.85
663.75	536.90
664.09	533.89
664.43	531.08
664.77	528.30
665.11	525.50
665.45	522.67
665.79	519.98
666.13	517.24
666.47	514.29
666.81	511.64
667.15	508.78
667.49	506.10
667.83	503.47
668.17	500.83
668.51	498.05
668.85	495.28
669.19	492.40
669.53	489.83
669.87	487.07
670.21	484.50
670.55	481.97
670.89	479.59
671.23	477.16
671.57	474.65
671.91	472.15
672.25	469.68
672.58	467.13
672.92	464.68
673.26	462.48
673.60	460.44
673.94	458.22
674.28	456.25
674.62	454.21
674.96	451.99
675.30	450.02
675.64	447.99
675.97	445.79
676.31	443.75
676.65	441.53
676.99	439.53
677.33	437.27
677.67	435.14
678.01	432.90
678.34	430.62
678.68	428.53
679.02	426.34
679.36	424.28
679.70	422.27
680.04	420.31
680.37	418.25
680.71	416.16
681.05	414.22
681.39	412.17
681.73	410.31
682.06	408.51
682.40	406.65
682.74	404.83
683.08	403.11
683.42	401.25
683.75	399.61
684.09	397.86
684.43	396.10
684.77	394.26
685.10	392.55
685.44	390.97
685.78	389.39
686.12	387.78
686.45	386.02
686.79	384.35
687.13	382.84
687.46	381.03
687.80	379.54
688.14	377.77
688.48	376.29
688.81	374.48
689.15	372.85
689.49	371.32
689.82	369.77
690.16	368.23
690.50	366.81
690.83	365.19
691.17	363.67
691.51	362.27
691.84	360.87
692.18	359.34
692.52	357.90
692.85	356.33
693.19	354.88
693.52	353.48
693.86	352.07
694.20	350.46
694.53	349.17
694.87	347.82
695.21	346.28
695.54	344.86
695.88	343.58
696.21	342.08
696.55	340.81
696.88	339.46
697.22	338.05
697.56	336.80
697.89	335.43
698.23	334.25
698.56	333.01
698.90	331.83
699.23	330.58
699.57	329.24
699.90	328.10
700.24	326.80
700.58	325.63
700.91	324.46
701.25	323.33
701.58	322.29
701.92	321.18
702.25	320.19
702.59	319.15
702.92	318.13
703.26	317.24
703.59	316.14
703.93	315.16
704.26	314.25
704.60	313.12
704.93	312.21
705.26	311.20
705.60	310.18
705.93	309.36
706.27	308.77
706.60	308.10
706.94	307.23
707.27	306.38
707.61	305.60
707.94	304.90
708.27	304.01
708.61	303.08
708.94	302.28
709.28	301.41
709.61	300.58
709.94	299.83
710.28	299.03
710.61	298.30
710.95	297.55
711.28	296.84
711.61	296.16
711.95	295.48
712.28	294.67
712.61	294.02
712.95	293.21
713.28	292.44
713.61	291.67
713.95	290.93
714.28	290.24
714.61	289.50
714.95	288.80
715.28	288.22
715.61	287.42
715.95	286.69
716.28	286.10
716.61	285.49
716.95	284.81
717.28	284.17
717.61	283.52
717.94	282.91
718.28	282.13
718.61	281.40
718.94	280.76
719.27	280.16
719.61	279.58
719.94	279.15
720.27	278.42
720.60	277.82
720.94	277.26
721.27	276.81
721.60	276.27
721.93	275.76
722.27	275.23
722.60	274.93
722.93	274.46
723.26	274.02
723.59	273.47
723.93	272.96
724.26	272.55
724.59	272.01
724.92	271.46
725.25	271.16
725.59	270.89
725.92	270.43
726.25	270.05
726.58	269.64
726.91	269.13
727.24	268.83
727.57	268.54
727.91	268.04
728.24	267.60
728.57	267.30
728.90	266.82
729.23	266.37
729.56	266.06
729.89	265.53
730.22	265.14
730.55	264.94
730.89	264.56
731.22	264.09
731.55	263.66
731.88	263.28
732.21	262.81
732.54	262.35
732.87	261.95
733.20	261.55
733.53	261.10
733.86	260.63
734.19	260.17
734.52	259.71
734.85	259.47
735.18	259.07
735.51	258.74
735.84	258.44
736.17	258.31
736.50	257.80
736.83	257.76
737.16	257.46
737.49	256.95
737.82	256.62
738.15	256.31
738.48	256.06
738.81	255.71
739.14	255.31
739.47	254.96
739.80	254.66
740.13	254.30
740.46	254.02
740.79	253.83
741.12	253.51
741.45	253.27
741.78	252.94
742.11	252.78
742.44	252.38
742.77	252.15
743.10	251.69
743.43	251.40
743.75	251.02
744.08	250.98
744.41	250.80
744.74	250.51
745.07	250.30
745.40	250.01
745.73	249.89
746.06	249.74
746.39	249.56
746.71	249.24
747.04	248.95
747.37	248.59
747.70	248.36
748.03	248.25
748.36	248.00
748.68	247.74
749.01	247.52
749.34	247.34
749.67	247.01
750.00	246.90
750.33	246.91
750.65	246.58
750.98	246.05
751.31	245.77
751.64	245.67
751.97	245.51
752.29	245.30
752.62	245.01
752.95	244.84
753.28	244.60
753.60	244.45
753.93	244.49
754.26	244.32
754.59	243.93
754.91	243.69
755.24	243.37
755.57	243.26
755.90	243.04
756.22	242.87
756.55	242.85
756.88	242.74
757.20	242.43
757.53	242.26
757.86	242.12
758.19	242.03
758.51	241.89
758.84	241.64
759.17	241.49
759.49	241.39
759.82	241.31
760.15	241.22
760.47	241.22
760.80	240.98
761.13	241.01
761.45	241.04
761.78	240.91
762.11	240.92
762.43	240.75
762.76	240.58
763.08	240.46
763.41	240.26
763.74	239.98
764.06	239.79
764.39	239.70
764.71	239.64
765.04	239.48
765.37	239.27
765.69	239.12
766.02	239.00
766.34	238.83
766.67	238.68
767.00	238.60
767.32	238.49
767.65	238.53
767.97	238.42
768.30	238.27
768.62	238.07
768.95	237.90
769.27	237.76
769.60	237.77
769.92	237.65
770.25	237.46
770.57	237.43
770.90	237.37
771.22	237.28
771.55	237.15
771.87	237.09
772.20	237.02
772.52	237.09
772.85	237.35
773.17	237.20
773.50	237.12
773.82	237.03
774.15	236.89
774.47	236.62
774.80	236.52
775.12	236.41
775.45	236.44
775.77	236.47
776.09	236.43
776.42	236.26
776.74	236.24
777.07	236.23
777.39	236.04
777.72	236.05
778.04	235.99
778.36	235.84
778.69	235.74
779.01	235.65
779.33	235.41
779.66	235.07
779.98	235.03
780.31	234.98
780.63	234.91
780.95	234.84
781.28	234.78
781.60	234.63
781.92	234.50
782.25	234.35
782.57	234.21
782.89	234.11
783.22	234.13
783.54	233.96
783.86	233.83
784.19	233.76
784.51	233.75
784.83	233.64
785.16	233.61
785.48	233.51
785.80	233.52
786.12	233.50
786.45	233.33
786.77	233.19
787.09	233.02
787.42	232.89
787.74	232.76
788.06	232.79
788.38	232.69
788.71	232.72
789.03	232.68
789.35	232.63
