SpectraSuite Data File
++++++++++++++++++++++++++++++++++++
Date: Fri Feb 01 14:35:33 EST 2013
User: group
Dark Spectrum Present: No
Reference Spectrum Present: No
Number of Sampled Component Spectra: 1
Spectrometers: USB2E7196
Integration Time (usec): 70000 (USB2E7196)
Spectra Averaged: 10 (USB2E7196)
Boxcar Smoothing: 10 (USB2E7196)
Correct for Electrical Dark: No (USB2E7196)
Strobe/Lamp Enabled: No (USB2E7196)
Correct for Detector Non-linearity: No (USB2E7196)
Correct for Stray Light: No (USB2E7196)
Number of Pixels in Processed Spectrum: 2048
>>>>>Begin Processed Spectral Data<<<<<
339.09	0.00
339.48	218.50
339.86	218.60
340.24	220.70
340.63	220.30
341.01	224.10
341.39	225.50
341.78	226.00
342.16	226.10
342.54	227.60
342.93	215.72
343.31	226.56
343.69	227.06
344.07	227.49
344.46	227.87
344.84	228.21
345.22	228.42
345.60	228.51
345.99	228.63
346.37	228.80
346.75	228.82
347.13	228.87
347.52	228.89
347.90	228.95
348.28	228.89
348.66	228.86
349.05	228.79
349.43	228.77
349.81	228.80
350.19	228.81
350.57	228.79
350.96	228.85
351.34	228.90
351.72	228.87
352.10	228.99
352.48	229.07
352.87	229.15
353.25	229.22
353.63	229.33
354.01	229.40
354.39	229.39
354.77	229.47
355.15	229.58
355.54	229.55
355.92	229.50
356.30	229.51
356.68	229.66
357.06	229.68
357.44	229.68
357.82	229.66
358.20	229.68
358.58	229.61
358.97	229.59
359.35	229.72
359.73	229.78
360.11	229.68
360.49	229.66
360.87	229.67
361.25	229.67
361.63	229.70
362.01	229.70
362.39	229.70
362.77	229.67
363.15	229.57
363.53	229.58
363.91	229.66
364.29	229.67
364.67	229.50
365.05	229.58
365.43	229.64
365.81	229.74
366.19	229.91
366.57	230.03
366.95	229.97
367.33	229.86
367.71	229.84
368.09	229.87
368.47	229.80
368.85	229.82
369.23	229.81
369.61	229.59
369.99	229.62
370.37	229.57
370.75	229.57
371.13	229.52
371.51	229.49
371.89	229.42
372.27	229.43
372.65	229.37
373.03	229.36
373.41	229.21
373.78	229.03
374.16	228.71
374.54	228.63
374.92	228.53
375.30	228.36
375.68	228.25
376.06	228.26
376.44	228.23
376.82	228.13
377.19	228.09
377.57	228.10
377.95	227.98
378.33	227.97
378.71	227.80
379.09	227.80
379.47	227.74
379.84	227.65
380.22	227.46
380.60	227.43
380.98	227.26
381.36	227.15
381.73	227.12
382.11	227.11
382.49	226.98
382.87	226.94
383.25	227.08
383.62	227.21
384.00	227.10
384.38	227.04
384.76	227.07
385.13	227.01
385.51	227.04
385.89	227.00
386.27	226.93
386.64	227.00
387.02	226.96
387.40	226.96
387.78	226.92
388.15	227.03
388.53	227.00
388.91	227.00
389.29	227.07
389.66	227.09
390.04	227.18
390.42	227.21
390.79	227.25
391.17	227.14
391.55	227.06
391.92	227.01
392.30	226.98
392.68	226.90
393.05	226.90
393.43	226.93
393.81	226.94
394.18	226.99
394.56	227.10
394.94	227.19
395.31	227.21
395.69	227.32
396.06	227.37
396.44	227.43
396.82	227.61
397.19	227.82
397.57	227.90
397.95	227.93
398.32	228.00
398.70	228.10
399.07	228.28
399.45	228.35
399.82	228.50
400.20	228.69
400.58	228.73
400.95	228.81
401.33	229.08
401.70	229.36
402.08	229.46
402.45	229.58
402.83	229.85
403.20	230.00
403.58	230.07
403.95	230.24
404.33	230.46
404.71	230.66
405.08	230.84
405.46	231.00
405.83	231.25
406.21	231.57
406.58	231.96
406.96	232.31
407.33	232.66
407.70	233.07
408.08	233.58
408.45	234.13
408.83	234.62
409.20	234.99
409.58	235.36
409.95	236.00
410.33	236.66
410.70	237.13
411.08	237.74
411.45	238.53
411.82	239.33
412.20	240.17
412.57	241.06
412.95	241.87
413.32	242.88
413.69	243.92
414.07	244.98
414.44	245.99
414.82	247.11
415.19	248.48
415.56	249.84
415.94	251.25
416.31	252.88
416.68	254.41
417.06	256.16
417.43	257.90
417.81	259.69
418.18	261.49
418.55	263.51
418.93	265.77
419.30	267.98
419.67	270.40
420.04	272.83
420.42	275.35
420.79	278.34
421.16	281.36
421.54	284.43
421.91	287.64
422.28	291.12
422.66	294.67
423.03	298.13
423.40	301.70
423.77	305.39
424.15	309.16
424.52	313.19
424.89	317.45
425.26	321.64
425.64	325.81
426.01	330.32
426.38	335.02
426.75	339.76
427.13	344.58
427.50	349.72
427.87	355.02
428.24	360.26
428.61	365.41
428.99	370.96
429.36	376.92
429.73	382.79
430.10	388.59
430.47	394.60
430.85	400.73
431.22	407.24
431.59	414.26
431.96	421.02
432.33	428.59
432.70	435.72
433.08	444.10
433.45	451.87
433.82	459.75
434.19	468.57
434.56	476.93
434.93	485.16
435.30	493.09
435.68	502.22
436.05	511.11
436.42	519.72
436.79	527.60
437.16	536.20
437.53	545.03
437.90	554.00
438.27	562.59
438.64	571.71
439.01	580.28
439.38	587.76
439.75	595.00
440.13	603.13
440.50	611.02
440.87	617.38
441.24	624.20
441.61	631.73
441.98	637.27
442.35	643.91
442.72	650.50
443.09	657.01
443.46	660.90
443.83	663.95
444.20	666.82
444.57	670.61
444.94	672.88
445.31	675.30
445.68	677.44
446.05	679.15
446.42	679.35
446.79	679.26
447.16	679.36
447.53	679.60
447.90	677.37
448.27	675.25
448.64	671.78
449.01	669.79
449.37	664.79
449.74	659.93
450.11	654.01
450.48	647.63
450.85	640.95
451.22	635.47
451.59	630.10
451.96	624.95
452.33	617.86
452.70	611.25
453.07	603.43
453.43	595.26
453.80	587.49
454.17	579.77
454.54	572.80
454.91	564.78
455.28	557.07
455.65	549.91
456.02	542.68
456.38	536.48
456.75	528.34
457.12	521.85
457.49	515.43
457.86	509.26
458.23	503.71
458.59	497.57
458.96	491.20
459.33	485.69
459.70	480.10
460.07	475.72
460.43	470.73
460.80	465.83
461.17	461.60
461.54	457.01
461.91	452.67
462.27	448.07
462.64	444.33
463.01	440.33
463.38	436.37
463.74	432.20
464.11	428.71
464.48	425.73
464.85	422.34
465.21	419.66
465.58	416.90
465.95	413.54
466.32	410.95
466.68	408.31
467.05	405.49
467.42	402.77
467.78	399.76
468.15	396.87
468.52	394.77
468.88	392.10
469.25	389.71
469.62	387.95
469.98	385.96
470.35	384.00
470.72	382.09
471.08	380.07
471.45	378.42
471.82	376.54
472.18	374.60
472.55	373.10
472.92	371.29
473.28	369.76
473.65	368.55
474.02	367.14
474.38	365.70
474.75	364.72
475.11	363.51
475.48	362.56
475.85	361.78
476.21	360.87
476.58	360.15
476.94	359.52
477.31	358.61
477.67	357.90
478.04	357.32
478.41	356.69
478.77	356.45
479.14	355.97
479.50	355.65
479.87	355.45
480.23	355.32
480.60	355.21
480.96	355.00
481.33	354.92
481.69	354.98
482.06	355.09
482.42	354.89
482.79	354.91
483.15	355.25
483.52	355.53
483.88	355.80
484.25	356.20
484.61	356.50
484.98	357.15
485.34	357.84
485.71	358.53
486.07	359.32
486.44	359.91
486.80	360.74
487.17	361.68
487.53	362.65
487.90	363.60
488.26	364.89
488.62	366.10
488.99	367.13
489.35	368.33
489.72	369.83
490.08	371.44
490.44	372.84
490.81	374.19
491.17	375.68
491.54	377.34
491.90	378.78
492.26	380.54
492.63	382.31
492.99	383.90
493.36	385.75
493.72	387.70
494.08	389.60
494.45	391.73
494.81	393.90
495.17	396.10
495.54	398.40
495.90	400.52
496.26	402.74
496.63	405.15
496.99	407.48
497.35	409.98
497.72	412.30
498.08	414.86
498.44	417.50
498.80	420.24
499.17	422.80
499.53	425.42
499.89	427.92
500.26	430.35
500.62	432.95
500.98	435.65
501.34	438.26
501.71	440.96
502.07	443.56
502.43	445.99
502.79	448.54
503.16	451.16
503.52	453.66
503.88	456.02
504.24	458.44
504.60	460.90
504.97	463.25
505.33	465.67
505.69	468.38
506.05	470.63
506.41	472.79
506.78	475.12
507.14	477.48
507.50	479.93
507.86	482.15
508.22	484.29
508.59	486.34
508.95	488.46
509.31	490.31
509.67	492.19
510.03	494.31
510.39	496.12
510.75	497.88
511.12	499.71
511.48	501.62
511.84	503.40
512.20	505.06
512.56	506.70
512.92	508.43
513.28	509.75
513.64	511.29
514.00	512.76
514.37	514.00
514.73	515.20
515.09	516.33
515.45	517.67
515.81	518.89
516.17	519.89
516.53	520.95
516.89	522.06
517.25	523.19
517.61	524.00
517.97	524.83
518.33	525.67
518.69	526.65
519.05	527.38
519.41	528.14
519.77	529.12
520.13	529.89
520.49	530.58
520.85	531.30
521.21	531.91
521.57	532.84
521.93	533.54
522.29	534.54
522.65	535.18
523.01	535.69
523.37	536.36
523.73	537.13
524.09	537.71
524.45	538.57
524.81	539.45
525.17	540.38
525.53	541.40
525.89	542.40
526.25	543.38
526.61	544.30
526.97	545.20
527.33	546.10
527.68	547.23
528.04	548.25
528.40	549.56
528.76	550.91
529.12	552.04
529.48	553.54
529.84	554.77
530.20	556.38
530.56	558.12
530.91	559.90
531.27	561.61
531.63	563.23
531.99	564.91
532.35	566.31
532.71	567.93
533.07	569.73
533.42	571.76
533.78	573.39
534.14	575.40
534.50	577.34
534.86	579.36
535.21	581.11
535.57	583.42
535.93	585.38
536.29	587.70
536.65	589.90
537.00	592.16
537.36	594.58
537.72	596.96
538.08	599.36
538.44	601.50
538.79	603.92
539.15	606.48
539.51	609.25
539.87	612.18
540.22	615.08
540.58	618.14
540.94	620.82
541.29	623.76
541.65	626.68
542.01	629.94
542.37	632.93
542.72	636.14
543.08	638.88
543.44	642.12
543.79	644.92
544.15	648.26
544.51	651.56
544.87	654.82
545.22	657.91
545.58	661.24
545.94	664.68
546.29	668.13
546.65	671.52
547.01	674.58
547.36	677.80
547.72	680.96
548.07	684.08
548.43	687.27
548.79	690.56
549.14	693.82
549.50	697.15
549.86	700.48
550.21	703.88
550.57	707.62
550.92	710.80
551.28	714.48
551.64	717.71
551.99	721.27
552.35	724.64
552.70	728.21
553.06	731.56
553.41	735.18
553.77	738.56
554.13	742.22
554.48	745.83
554.84	749.29
555.19	753.06
555.55	756.59
555.90	759.72
556.26	763.39
556.61	767.18
556.97	770.60
557.32	773.93
557.68	777.45
558.03	780.62
558.39	784.30
558.74	787.86
559.10	791.50
559.45	794.56
559.81	798.31
560.16	801.70
560.52	805.24
560.87	808.47
561.23	811.71
561.58	815.07
561.94	818.38
562.29	821.76
562.64	824.65
563.00	827.88
563.35	831.64
563.71	834.83
564.06	837.89
564.42	840.89
564.77	844.43
565.12	847.61
565.48	850.88
565.83	853.75
566.19	856.74
566.54	859.47
566.89	862.31
567.25	864.90
567.60	867.95
567.96	870.32
568.31	872.91
568.66	875.73
569.02	878.14
569.37	880.33
569.72	882.59
570.08	884.94
570.43	887.04
570.78	888.91
571.14	890.79
571.49	892.71
571.84	895.29
572.20	897.08
572.55	898.69
572.90	900.38
573.26	902.10
573.61	903.51
573.96	905.07
574.31	906.46
574.67	907.50
575.02	908.24
575.37	909.41
575.72	910.39
576.08	911.27
576.43	912.11
576.78	913.40
577.13	914.42
577.49	915.59
577.84	916.34
578.19	917.14
578.54	917.73
578.90	918.16
579.25	918.07
579.60	918.51
579.95	918.92
580.30	919.36
580.66	919.65
581.01	919.57
581.36	919.55
581.71	919.76
582.06	920.03
582.42	920.01
582.77	920.04
583.12	920.13
583.47	920.40
583.82	920.49
584.17	920.00
584.53	919.88
584.88	919.44
585.23	918.89
585.58	918.75
585.93	918.37
586.28	918.36
586.63	918.08
586.98	917.68
587.34	917.38
587.69	916.66
588.04	916.09
588.39	916.08
588.74	915.37
589.09	914.59
589.44	913.61
589.79	913.07
590.14	912.56
590.49	911.53
590.84	910.29
591.19	909.34
591.54	908.04
591.89	906.57
592.25	905.94
592.60	904.81
592.95	903.26
593.30	902.03
593.65	900.44
594.00	898.83
594.35	897.66
594.70	895.79
595.05	894.44
595.40	892.75
595.75	890.83
596.10	889.30
596.45	888.00
596.80	886.98
597.15	885.55
597.50	883.77
597.85	882.30
598.19	880.75
598.54	879.25
598.89	878.09
599.24	876.78
599.59	874.68
599.94	873.26
600.29	871.68
600.64	869.69
600.99	867.62
601.34	866.13
601.69	863.88
602.04	862.31
602.39	860.34
602.74	858.93
603.08	857.22
603.43	855.63
603.78	853.73
604.13	851.46
604.48	849.42
604.83	847.65
605.18	845.78
605.53	843.54
605.87	841.09
606.22	838.92
606.57	836.52
606.92	834.51
607.27	832.41
607.62	830.70
607.96	829.04
608.31	827.37
608.66	824.82
609.01	822.27
609.36	819.84
609.70	817.15
610.05	814.37
610.40	811.92
610.75	809.21
611.10	806.40
611.44	803.54
611.79	800.98
612.14	798.10
612.49	795.17
612.83	792.47
613.18	789.91
613.53	787.12
613.88	784.14
614.22	781.18
614.57	778.19
614.92	774.84
615.27	772.18
615.61	768.91
615.96	766.50
616.31	764.13
616.65	761.73
617.00	759.32
617.35	756.46
617.70	753.64
618.04	750.80
618.39	748.12
618.74	745.44
619.08	742.49
619.43	739.82
619.78	737.21
620.12	734.49
620.47	731.54
620.82	728.83
621.16	726.24
621.51	723.69
621.85	720.89
622.20	718.00
622.55	715.06
622.89	712.52
623.24	709.88
623.59	707.20
623.93	704.27
624.28	701.55
624.62	699.14
624.97	696.69
625.32	694.09
625.66	691.57
626.01	689.04
626.35	686.46
626.70	683.65
627.04	681.03
627.39	678.03
627.73	675.60
628.08	672.86
628.43	670.20
628.77	667.21
629.12	664.59
629.46	662.16
629.81	659.19
630.15	656.37
630.50	653.31
630.84	650.26
631.19	647.40
631.53	644.54
631.88	641.50
632.22	638.22
632.57	635.55
632.91	632.71
633.26	629.88
633.60	627.00
633.95	624.11
634.29	621.58
634.64	619.38
634.98	616.64
635.32	614.25
635.67	611.78
636.01	609.30
636.36	606.73
636.70	604.30
637.05	601.91
637.39	599.52
637.73	597.16
638.08	594.98
638.42	592.60
638.77	590.49
639.11	588.21
639.45	585.94
639.80	583.55
640.14	581.01
640.49	578.87
640.83	576.57
641.17	574.54
641.52	571.95
641.86	569.32
642.20	567.00
642.55	564.29
642.89	562.16
643.23	559.87
643.58	557.71
643.92	555.23
644.26	552.75
644.61	550.67
644.95	548.20
645.29	545.55
645.64	543.10
645.98	540.46
646.32	538.18
646.66	536.01
647.01	533.44
647.35	531.17
647.69	528.61
648.04	526.30
648.38	523.80
648.72	521.59
649.06	519.36
649.41	517.09
649.75	514.69
650.09	512.07
650.43	509.45
650.78	506.78
651.12	504.37
651.46	502.17
651.80	499.61
652.14	497.32
652.49	495.07
652.83	492.93
653.17	490.64
653.51	488.13
653.85	485.74
654.20	483.55
654.54	481.14
654.88	478.75
655.22	476.31
655.56	473.93
655.90	471.61
656.25	469.43
656.59	466.98
656.93	464.99
657.27	463.03
657.61	460.93
657.95	459.01
658.29	457.04
658.64	455.06
658.98	452.90
659.32	450.64
659.66	448.55
660.00	446.38
660.34	444.28
660.68	442.40
661.02	440.43
661.36	438.56
661.70	436.77
662.05	435.06
662.39	433.53
662.73	431.84
663.07	430.13
663.41	428.26
663.75	426.60
664.09	424.88
664.43	422.87
664.77	421.20
665.11	419.50
665.45	417.66
665.79	415.96
666.13	414.20
666.47	412.66
666.81	411.09
667.15	409.32
667.49	407.72
667.83	406.06
668.17	404.34
668.51	402.68
668.85	401.07
669.19	399.52
669.53	397.80
669.87	396.14
670.21	394.40
670.55	392.92
670.89	391.57
671.23	390.04
671.57	388.64
671.91	387.21
672.25	385.67
672.58	384.41
672.92	382.88
673.26	381.70
673.60	380.40
673.94	378.94
674.28	377.70
674.62	376.46
674.96	375.12
675.30	373.80
675.64	372.34
675.97	371.10
676.31	369.90
676.65	368.56
676.99	367.52
677.33	366.25
677.67	365.05
678.01	363.66
678.34	362.48
678.68	361.22
679.02	360.04
679.36	358.81
679.70	357.55
680.04	356.45
680.37	355.18
680.71	353.95
681.05	352.96
681.39	351.79
681.73	350.62
682.06	349.68
682.40	348.62
682.74	347.81
683.08	346.81
683.42	345.65
683.75	344.60
684.09	343.30
684.43	342.30
684.77	341.13
685.10	339.97
685.44	338.89
685.78	337.92
686.12	336.88
686.45	335.83
686.79	334.77
687.13	333.66
687.46	332.52
687.80	331.54
688.14	330.28
688.48	329.25
688.81	328.08
689.15	326.96
689.49	325.95
689.82	324.91
690.16	323.82
690.50	322.70
690.83	321.74
691.17	320.70
691.51	319.75
691.84	318.76
692.18	317.79
692.52	316.78
692.85	315.81
693.19	314.83
693.52	313.89
693.86	312.91
694.20	312.02
694.53	311.23
694.87	310.22
695.21	309.41
695.54	308.52
695.88	307.73
696.21	306.73
696.55	305.82
696.88	304.88
697.22	304.09
697.56	303.36
697.89	302.46
698.23	301.80
698.56	300.91
698.90	300.18
699.23	299.34
699.57	298.53
699.90	297.69
700.24	296.86
700.58	296.09
700.91	295.41
701.25	294.69
701.58	294.11
701.92	293.41
702.25	292.71
702.59	292.14
702.92	291.42
703.26	290.84
703.59	290.17
703.93	289.66
704.26	288.87
704.60	288.27
704.93	287.71
705.26	286.96
705.60	286.35
705.93	285.75
706.27	285.24
706.60	284.71
706.94	284.18
707.27	283.53
707.61	283.03
707.94	282.44
708.27	281.81
708.61	281.09
708.94	280.55
709.28	280.05
709.61	279.46
709.94	279.13
710.28	278.61
710.61	278.11
710.95	277.39
711.28	277.06
711.61	276.47
711.95	275.98
712.28	275.44
712.61	275.01
712.95	274.53
713.28	274.07
713.61	273.60
713.95	273.17
714.28	272.82
714.61	272.23
714.95	271.85
715.28	271.41
715.61	270.90
715.95	270.54
716.28	270.06
716.61	269.66
716.95	269.13
717.28	268.63
717.61	268.23
717.94	267.92
718.28	267.35
718.61	267.03
718.94	266.64
719.27	266.37
719.61	266.00
719.94	265.76
720.27	265.25
720.60	264.85
720.94	264.45
721.27	264.17
721.60	263.93
721.93	263.46
722.27	263.19
722.60	262.92
722.93	262.60
723.26	262.21
723.59	261.84
723.93	261.45
724.26	261.15
724.59	260.79
724.92	260.40
725.25	260.19
725.59	259.73
725.92	259.46
726.25	259.12
726.58	258.79
726.91	258.28
727.24	258.05
727.57	257.83
727.91	257.50
728.24	257.03
728.57	256.74
728.90	256.48
729.23	255.98
729.56	255.75
729.89	255.41
730.22	255.22
730.55	254.77
730.89	254.56
731.22	254.26
731.55	253.90
731.88	253.63
732.21	253.23
732.54	252.96
732.87	252.66
733.20	252.48
733.53	252.07
733.86	251.88
734.19	251.50
734.52	251.08
734.85	250.91
735.18	250.66
735.51	250.41
735.84	250.20
736.17	250.05
736.50	249.70
736.83	249.71
737.16	249.41
737.49	249.25
737.82	248.90
738.15	248.78
738.48	248.64
738.81	248.52
739.14	248.26
739.47	248.07
739.80	247.85
740.13	247.53
740.46	247.36
740.79	247.10
741.12	247.12
741.45	247.00
741.78	246.62
742.11	246.51
742.44	246.28
742.77	245.99
743.10	245.71
743.43	245.55
743.75	245.11
744.08	245.23
744.41	245.08
744.74	244.99
745.07	244.74
745.40	244.53
745.73	244.27
746.06	244.21
746.39	244.10
746.71	243.89
747.04	243.80
747.37	243.71
747.70	243.62
748.03	243.41
748.36	243.27
748.68	243.28
749.01	243.08
749.34	242.97
749.67	242.90
750.00	242.80
750.33	242.80
750.65	242.68
750.98	242.32
751.31	242.20
751.64	242.08
751.97	242.10
752.29	242.02
752.62	241.84
752.95	241.65
753.28	241.49
753.60	241.34
753.93	241.18
754.26	241.12
754.59	240.87
754.91	240.68
755.24	240.49
755.57	240.40
755.90	240.30
756.22	240.19
756.55	240.01
756.88	239.96
757.20	239.67
757.53	239.55
757.86	239.43
758.19	239.38
758.51	239.28
758.84	239.09
759.17	239.04
759.49	238.97
759.82	238.99
760.15	238.83
760.47	238.73
760.80	238.62
761.13	238.57
761.45	238.58
761.78	238.57
762.11	238.48
762.43	238.33
762.76	238.30
763.08	238.15
763.41	238.06
763.74	238.02
764.06	237.95
764.39	237.71
764.71	237.55
765.04	237.38
765.37	237.30
765.69	237.25
766.02	237.13
766.34	237.03
766.67	236.84
767.00	236.83
767.32	236.82
767.65	236.87
767.97	236.63
768.30	236.45
768.62	236.31
768.95	236.28
769.27	236.15
769.60	236.02
769.92	235.97
770.25	235.82
770.57	235.61
770.90	235.46
771.22	235.48
771.55	235.37
771.87	235.27
772.20	235.05
772.52	234.93
772.85	235.02
773.17	234.98
773.50	234.91
773.82	234.81
774.15	234.62
774.47	234.33
774.80	234.24
775.12	234.14
775.45	234.10
775.77	233.94
776.09	233.82
776.42	233.76
776.74	233.73
777.07	233.70
777.39	233.61
777.72	233.51
778.04	233.46
778.36	233.45
778.69	233.36
779.01	233.40
779.33	233.18
779.66	232.81
779.98	232.70
780.31	232.72
780.63	232.66
780.95	232.62
781.28	232.68
781.60	232.55
781.92	232.47
782.25	232.32
782.57	232.25
782.89	232.14
783.22	232.05
783.54	231.91
783.86	231.91
784.19	231.99
784.51	231.97
784.83	231.88
785.16	231.80
785.48	231.74
785.80	231.70
786.12	231.61
786.45	231.64
786.77	231.58
787.09	231.40
787.42	231.31
787.74	231.33
788.06	231.23
788.38	231.24
788.71	231.16
789.03	231.20
789.35	231.19
789.67	231.15
789.99	231.12
790.32	231.06
790.64	231.05
790.96	231.03
791.28	231.00
791.61	231.00
791.93	231.03
792.25	231.07
792.57	231.11
792.89	231.20
793.21	231.25
793.54	231.28
793.86	231.35
794.18	231.40
