SpectraSuite Data File
++++++++++++++++++++++++++++++++++++
Date: Fri Feb 01 14:40:34 EST 2013
User: group
Dark Spectrum Present: No
Reference Spectrum Present: No
Number of Sampled Component Spectra: 1
Spectrometers: USB2E7196
Integration Time (usec): 70000 (USB2E7196)
Spectra Averaged: 10 (USB2E7196)
Boxcar Smoothing: 10 (USB2E7196)
Correct for Electrical Dark: No (USB2E7196)
Strobe/Lamp Enabled: No (USB2E7196)
Correct for Detector Non-linearity: No (USB2E7196)
Correct for Stray Light: No (USB2E7196)
Number of Pixels in Processed Spectrum: 2048
>>>>>Begin Processed Spectral Data<<<<<
339.09	0.00
339.48	217.60
339.86	218.90
340.24	218.00
340.63	221.30
341.01	224.40
341.39	223.00
341.78	225.80
342.16	227.70
342.54	227.40
342.93	215.03
343.31	225.93
343.69	226.40
344.07	226.82
344.46	227.30
344.84	227.69
345.22	227.85
345.60	228.22
345.99	228.35
346.37	228.37
346.75	228.46
347.13	228.43
347.52	228.56
347.90	228.65
348.28	228.66
348.66	228.79
349.05	228.82
349.43	228.92
349.81	228.99
350.19	229.02
350.57	228.99
350.96	229.00
351.34	229.01
351.72	229.01
352.10	229.06
352.48	229.14
352.87	229.09
353.25	229.15
353.63	229.12
354.01	229.17
354.39	229.30
354.77	229.32
355.15	229.55
355.54	229.57
355.92	229.58
356.30	229.66
356.68	229.83
357.06	229.85
357.44	229.89
357.82	229.94
358.20	229.99
358.58	230.08
358.97	230.13
359.35	230.28
359.73	230.47
360.11	230.54
360.49	230.60
360.87	230.65
361.25	230.64
361.63	230.76
362.01	230.81
362.39	230.73
362.77	230.79
363.15	230.70
363.53	230.80
363.91	230.79
364.29	230.74
364.67	230.44
365.05	230.33
365.43	230.34
365.81	230.23
366.19	230.31
366.57	230.40
366.95	230.48
367.33	230.47
367.71	230.42
368.09	230.35
368.47	230.30
368.85	230.24
369.23	230.31
369.61	230.12
369.99	230.10
370.37	230.05
370.75	230.14
371.13	230.03
371.51	229.96
371.89	229.94
372.27	229.83
372.65	229.83
373.03	229.82
373.41	229.78
373.78	229.77
374.16	229.58
374.54	229.43
374.92	229.17
375.30	229.00
375.68	228.82
376.06	228.80
376.44	228.63
376.82	228.70
377.19	228.62
377.57	228.57
377.95	228.37
378.33	228.31
378.71	228.03
379.09	228.04
379.47	228.00
379.84	227.76
380.22	227.81
380.60	227.70
380.98	227.64
381.36	227.59
381.73	227.51
382.11	227.44
382.49	227.34
382.87	227.30
383.25	227.19
383.62	227.42
384.00	227.31
384.38	227.38
384.76	227.26
385.13	227.27
385.51	227.13
385.89	227.19
386.27	227.18
386.64	227.11
387.02	227.05
387.40	226.87
387.78	226.92
388.15	226.79
388.53	226.72
388.91	226.70
389.29	226.63
389.66	226.64
390.04	226.58
390.42	226.61
390.79	226.68
391.17	226.66
391.55	226.49
391.92	226.46
392.30	226.38
392.68	226.39
393.05	226.32
393.43	226.45
393.81	226.38
394.18	226.36
394.56	226.49
394.94	226.60
395.31	226.63
395.69	226.69
396.06	226.93
396.44	226.96
396.82	227.01
397.19	227.12
397.57	227.17
397.95	227.30
398.32	227.30
398.70	227.34
399.07	227.50
399.45	227.47
399.82	227.60
400.20	227.72
400.58	227.79
400.95	227.84
401.33	227.97
401.70	228.25
402.08	228.40
402.45	228.47
402.83	228.63
403.20	228.84
403.58	228.90
403.95	228.90
404.33	229.12
404.71	229.35
405.08	229.52
405.46	229.68
405.83	229.83
406.21	229.98
406.58	230.15
406.96	230.31
407.33	230.52
407.70	230.73
408.08	231.09
408.45	231.31
408.83	231.59
409.20	231.75
409.58	231.89
409.95	232.10
410.33	232.42
410.70	232.62
411.08	232.89
411.45	233.29
411.82	233.59
412.20	233.83
412.57	234.14
412.95	234.49
413.32	234.87
413.69	235.23
414.07	235.62
414.44	236.14
414.82	236.54
415.19	237.04
415.56	237.56
415.94	237.94
416.31	238.60
416.68	239.13
417.06	239.84
417.43	240.61
417.81	241.43
418.18	242.14
418.55	242.96
418.93	243.77
419.30	244.70
419.67	245.63
420.04	246.55
420.42	247.47
420.79	248.67
421.16	249.84
421.54	251.15
421.91	252.42
422.28	253.54
422.66	254.84
423.03	256.30
423.40	257.59
423.77	259.05
424.15	260.30
424.52	261.83
424.89	263.47
425.26	264.84
425.64	266.22
426.01	267.82
426.38	269.41
426.75	271.05
427.13	272.61
427.50	274.37
427.87	276.25
428.24	278.13
428.61	279.74
428.99	281.68
429.36	283.71
429.73	285.71
430.10	287.77
430.47	289.84
430.85	291.91
431.22	294.22
431.59	296.61
431.96	298.89
432.33	301.49
432.70	303.90
433.08	306.78
433.45	309.49
433.82	312.06
434.19	315.08
434.56	318.00
434.93	320.76
435.30	323.44
435.68	326.49
436.05	329.30
436.42	332.22
436.79	334.76
437.16	337.57
437.53	340.55
437.90	343.44
438.27	346.30
438.64	349.07
439.01	351.58
439.38	353.96
439.75	356.29
440.13	358.68
440.50	360.90
440.87	362.88
441.24	364.83
441.61	367.27
441.98	368.69
442.35	370.54
442.72	372.42
443.09	374.46
443.46	375.54
443.83	376.30
444.20	376.80
444.57	377.85
444.94	378.16
445.31	378.46
445.68	378.95
446.05	379.10
446.42	378.73
446.79	378.52
447.16	378.07
447.53	377.80
447.90	376.76
448.27	375.67
448.64	374.14
449.01	373.12
449.37	370.96
449.74	369.15
450.11	367.00
450.48	364.51
450.85	361.82
451.22	359.51
451.59	357.50
451.96	355.61
452.33	352.79
452.70	350.32
453.07	347.58
453.43	344.59
453.80	341.66
454.17	339.04
454.54	336.39
454.91	333.59
455.28	330.80
455.65	328.16
456.02	325.83
456.38	323.52
456.75	320.73
457.12	318.49
457.49	316.10
457.86	313.76
458.23	311.90
458.59	309.72
458.96	307.65
459.33	305.72
459.70	303.68
460.07	302.12
460.43	300.30
460.80	298.53
461.17	296.95
461.54	295.49
461.91	293.96
462.27	292.34
462.64	290.99
463.01	289.55
463.38	288.29
463.74	286.69
464.11	285.39
464.48	284.24
464.85	282.97
465.21	282.19
465.58	281.20
465.95	279.94
466.32	279.10
466.68	278.15
467.05	277.10
467.42	276.05
467.78	275.06
468.15	274.15
468.52	273.30
468.88	272.30
469.25	271.38
469.62	270.62
469.98	269.92
470.35	269.17
470.72	268.41
471.08	267.60
471.45	266.96
471.82	266.34
472.18	265.67
472.55	265.18
472.92	264.49
473.28	263.81
473.65	263.23
474.02	262.57
474.38	262.02
474.75	261.47
475.11	261.17
475.48	260.67
475.85	260.23
476.21	259.89
476.58	259.58
476.94	259.27
477.31	258.94
477.67	258.61
478.04	258.33
478.41	258.10
478.77	258.02
479.14	257.70
479.50	257.49
479.87	257.27
480.23	257.07
480.60	256.82
480.96	256.68
481.33	256.76
481.69	256.58
482.06	256.57
482.42	256.54
482.79	256.50
483.15	256.56
483.52	256.70
483.88	256.79
484.25	256.88
484.61	256.94
484.98	257.00
485.34	257.21
485.71	257.43
486.07	257.61
486.44	257.56
486.80	257.83
487.17	257.93
487.53	258.20
487.90	258.59
488.26	258.87
488.62	259.38
488.99	259.70
489.35	260.19
489.72	260.44
490.08	260.94
490.44	261.43
490.81	261.99
491.17	262.43
491.54	262.98
491.90	263.57
492.26	264.23
492.63	264.95
492.99	265.57
493.36	266.28
493.72	267.13
494.08	268.00
494.45	269.06
494.81	270.14
495.17	271.12
495.54	272.11
495.90	273.41
496.26	274.53
496.63	275.73
496.99	277.06
497.35	278.59
497.72	280.13
498.08	281.60
498.44	283.15
498.80	284.90
499.17	286.66
499.53	288.58
499.89	290.45
500.26	292.49
500.62	294.79
500.98	297.00
501.34	299.29
501.71	301.88
502.07	304.21
502.43	306.80
502.79	309.69
503.16	312.60
503.52	315.44
503.88	318.52
504.24	321.66
504.60	324.93
504.97	328.48
505.33	331.94
505.69	335.80
506.05	339.73
506.41	343.68
506.78	347.89
507.14	351.94
507.50	356.44
507.86	361.20
508.22	365.74
508.59	370.63
508.95	375.70
509.31	381.00
509.67	386.52
510.03	391.99
510.39	397.58
510.75	403.37
511.12	409.36
511.48	415.66
511.84	422.04
512.20	428.53
512.56	435.03
512.92	442.10
513.28	449.24
513.64	456.37
514.00	463.72
514.37	471.28
514.73	479.20
515.09	486.95
515.45	494.82
515.81	503.05
516.17	511.27
516.53	519.81
516.89	528.20
517.25	537.00
517.61	546.06
517.97	555.00
518.33	564.03
518.69	573.46
519.05	582.95
519.41	592.73
519.77	602.88
520.13	613.03
520.49	622.86
520.85	633.05
521.21	643.57
521.57	654.39
521.93	664.86
522.29	675.72
522.65	686.57
523.01	697.49
523.37	708.51
523.73	719.95
524.09	731.30
524.45	742.80
524.81	754.62
525.17	766.71
525.53	778.57
525.89	790.65
526.25	802.73
526.61	814.61
526.97	827.00
527.33	839.24
527.68	851.79
528.04	864.27
528.40	876.64
528.76	889.57
529.12	902.19
529.48	915.17
529.84	927.57
530.20	940.48
530.56	953.94
530.91	967.34
531.27	980.61
531.63	993.77
531.99	1007.29
532.35	1020.30
532.71	1032.90
533.07	1046.45
533.42	1059.94
533.78	1073.10
534.14	1086.70
534.50	1099.57
534.86	1112.87
535.21	1125.82
535.57	1139.41
535.93	1152.90
536.29	1165.93
536.65	1179.27
537.00	1192.44
537.36	1205.50
537.72	1218.60
538.08	1231.00
538.44	1243.59
538.79	1256.32
539.15	1268.57
539.51	1281.02
539.87	1293.91
540.22	1306.53
540.58	1319.16
540.94	1331.57
541.29	1343.89
541.65	1355.86
542.01	1368.72
542.37	1380.64
542.72	1392.60
543.08	1404.40
543.44	1416.07
543.79	1426.80
544.15	1438.07
544.51	1449.72
544.87	1461.59
545.22	1472.87
545.58	1483.94
545.94	1494.66
546.29	1505.33
546.65	1516.08
547.01	1526.40
547.36	1536.29
547.72	1546.61
548.07	1556.30
548.43	1565.99
548.79	1575.71
549.14	1584.77
549.50	1593.25
549.86	1601.95
550.21	1610.59
550.57	1619.23
550.92	1627.93
551.28	1636.62
551.64	1644.70
551.99	1653.00
552.35	1661.19
552.70	1668.44
553.06	1676.94
553.41	1685.20
553.77	1692.72
554.13	1700.66
554.48	1708.37
554.84	1716.01
555.19	1723.05
555.55	1730.66
555.90	1737.40
556.26	1744.29
556.61	1751.62
556.97	1758.47
557.32	1765.29
557.68	1772.10
558.03	1778.53
558.39	1784.57
558.74	1791.72
559.10	1798.16
559.45	1803.72
559.81	1809.88
560.16	1816.03
560.52	1821.20
560.87	1827.20
561.23	1832.72
561.58	1838.11
561.94	1842.96
562.29	1847.42
562.64	1852.20
563.00	1856.47
563.35	1861.57
563.71	1866.61
564.06	1871.26
564.42	1876.05
564.77	1880.80
565.12	1885.46
565.48	1890.15
565.83	1893.97
566.19	1897.47
566.54	1901.21
566.89	1904.59
567.25	1907.43
567.60	1911.66
567.96	1914.96
568.31	1917.51
568.66	1920.61
569.02	1923.43
569.37	1926.04
569.72	1928.58
570.08	1931.04
570.43	1933.16
570.78	1934.82
571.14	1935.57
571.49	1936.93
571.84	1939.01
572.20	1940.03
572.55	1940.72
572.90	1941.29
573.26	1942.33
573.61	1942.98
573.96	1942.99
574.31	1942.76
574.67	1942.26
575.02	1941.03
575.37	1940.66
575.72	1939.60
576.08	1938.75
576.43	1937.70
576.78	1936.82
577.13	1936.34
577.49	1935.40
577.84	1934.12
578.19	1932.86
578.54	1931.86
578.90	1929.79
579.25	1926.37
579.60	1923.91
579.95	1921.48
580.30	1918.41
580.66	1915.62
581.01	1912.90
581.36	1910.30
581.71	1908.58
582.06	1906.30
582.42	1903.77
582.77	1900.83
583.12	1897.78
583.47	1895.09
583.82	1892.34
584.17	1889.00
584.53	1885.52
584.88	1882.08
585.23	1878.63
585.58	1875.43
585.93	1872.27
586.28	1869.72
586.63	1867.24
586.98	1864.42
587.34	1861.50
587.69	1858.45
588.04	1855.23
588.39	1851.55
588.74	1847.40
589.09	1842.71
589.44	1838.42
589.79	1834.81
590.14	1831.28
590.49	1827.33
590.84	1822.51
591.19	1818.51
591.54	1814.05
591.89	1808.92
592.25	1804.60
592.60	1799.50
592.95	1794.14
593.30	1788.77
593.65	1783.30
594.00	1777.88
594.35	1773.08
594.70	1767.20
595.05	1762.30
595.40	1756.76
595.75	1751.44
596.10	1746.88
596.45	1742.52
596.80	1737.94
597.15	1732.57
597.50	1726.96
597.85	1722.01
598.19	1717.48
598.54	1712.24
598.89	1707.33
599.24	1703.05
599.59	1697.89
599.94	1693.23
600.29	1688.24
600.64	1683.01
600.99	1677.41
601.34	1672.12
601.69	1666.39
602.04	1661.51
602.39	1655.98
602.74	1651.11
603.08	1646.34
603.43	1641.48
603.78	1636.13
604.13	1631.06
604.48	1625.78
604.83	1620.25
605.18	1615.34
605.53	1609.38
605.87	1603.10
606.22	1597.49
606.57	1591.34
606.92	1585.61
607.27	1580.27
607.62	1574.88
607.96	1569.66
608.31	1564.29
608.66	1558.18
609.01	1551.60
609.36	1545.18
609.70	1538.05
610.05	1531.09
610.40	1524.30
610.75	1517.27
611.10	1510.41
611.44	1502.67
611.79	1496.13
612.14	1489.45
612.49	1481.52
612.83	1474.57
613.18	1467.81
613.53	1461.11
613.88	1453.98
614.22	1446.91
614.57	1439.41
614.92	1432.56
615.27	1425.61
615.61	1418.60
615.96	1412.15
616.31	1406.01
616.65	1400.03
617.00	1394.20
617.35	1388.14
617.70	1381.67
618.04	1374.82
618.39	1368.08
618.74	1362.14
619.08	1355.00
619.43	1348.69
619.78	1342.85
620.12	1336.39
620.47	1329.67
620.82	1322.88
621.16	1316.63
621.51	1310.10
621.85	1303.75
622.20	1296.65
622.55	1290.38
622.89	1284.07
623.24	1277.75
623.59	1271.28
623.93	1264.78
624.28	1258.58
624.62	1252.10
624.97	1245.85
625.32	1239.79
625.66	1233.48
626.01	1227.09
626.35	1221.30
626.70	1214.79
627.04	1208.38
627.39	1202.00
627.73	1195.50
628.08	1189.35
628.43	1182.80
628.77	1176.50
629.12	1170.04
629.46	1163.80
629.81	1156.57
630.15	1149.90
630.50	1142.97
630.84	1136.17
631.19	1129.00
631.53	1122.12
631.88	1115.31
632.22	1107.98
632.57	1101.32
632.91	1094.80
633.26	1088.11
633.60	1081.16
633.95	1074.43
634.29	1068.13
634.64	1061.78
634.98	1055.74
635.32	1049.60
635.67	1044.01
636.01	1038.20
636.36	1032.20
636.70	1026.54
637.05	1021.17
637.39	1015.25
637.73	1009.49
638.08	1004.59
638.42	999.42
638.77	994.00
639.11	988.07
639.45	982.77
639.80	976.92
640.14	971.35
640.49	965.86
640.83	960.23
641.17	954.70
641.52	948.88
641.86	943.17
642.20	937.60
642.55	931.60
642.89	925.80
643.23	919.80
643.58	914.64
643.92	908.86
644.26	902.77
644.61	897.71
644.95	892.37
645.29	886.07
645.64	879.97
645.98	874.44
646.32	869.27
646.66	863.75
647.01	858.52
647.35	853.21
647.69	847.84
648.04	842.78
648.38	837.29
648.72	831.77
649.06	826.40
649.41	821.04
649.75	815.73
650.09	810.07
650.43	804.65
650.78	798.50
651.12	793.20
651.46	788.46
651.80	782.93
652.14	777.80
652.49	772.64
652.83	767.81
653.17	762.23
653.51	757.05
653.85	752.04
654.20	746.91
654.54	741.40
654.88	736.11
655.22	730.60
655.56	725.65
655.90	720.94
656.25	716.14
656.59	711.44
656.93	706.76
657.27	702.24
657.61	697.36
657.95	693.28
658.29	688.58
658.64	683.71
658.98	678.98
659.32	674.25
659.66	669.64
660.00	664.83
660.34	660.56
660.68	656.16
661.02	651.53
661.36	647.43
661.70	643.41
662.05	639.51
662.39	635.87
662.73	631.94
663.07	628.03
663.41	624.19
663.75	620.01
664.09	616.06
664.43	611.95
664.77	608.37
665.11	604.39
665.45	600.50
665.79	596.70
666.13	592.92
666.47	589.19
666.81	585.40
667.15	581.76
667.49	578.13
667.83	574.68
668.17	571.18
668.51	567.47
668.85	563.93
669.19	560.52
669.53	556.83
669.87	553.51
670.21	550.03
670.55	546.59
670.89	543.73
671.23	540.61
671.57	537.53
671.91	534.37
672.25	531.18
672.58	528.35
672.92	525.36
673.26	522.57
673.60	519.75
673.94	516.87
674.28	514.20
674.62	511.45
674.96	508.60
675.30	505.85
675.64	503.07
675.97	500.26
676.31	497.41
676.65	494.81
676.99	492.19
677.33	489.51
677.67	486.70
678.01	483.70
678.34	480.97
678.68	478.30
679.02	475.56
679.36	473.04
679.70	470.28
680.04	467.66
680.37	465.03
680.71	462.44
681.05	460.10
681.39	457.55
681.73	455.18
682.06	452.61
682.40	450.41
682.74	447.95
683.08	445.80
683.42	443.25
683.75	440.90
684.09	438.37
684.43	435.92
684.77	433.61
685.10	431.40
685.44	429.18
685.78	427.14
686.12	425.02
686.45	422.84
686.79	420.73
687.13	418.60
687.46	416.42
687.80	414.12
688.14	411.81
688.48	409.76
688.81	407.63
689.15	405.68
689.49	403.54
689.82	401.54
690.16	399.33
690.50	397.57
690.83	395.63
691.17	393.60
691.51	391.78
691.84	390.14
692.18	388.19
692.52	386.23
692.85	384.36
693.19	382.53
693.52	380.64
693.86	378.82
694.20	377.18
694.53	375.50
694.87	373.88
695.21	372.40
695.54	370.69
695.88	368.99
696.21	367.30
696.55	365.65
696.88	364.09
697.22	362.55
697.56	360.95
697.89	359.32
698.23	357.80
698.56	356.14
698.90	354.50
699.23	353.07
699.57	351.67
699.90	350.11
700.24	348.78
700.58	347.27
700.91	345.82
701.25	344.33
701.58	343.00
701.92	341.66
702.25	340.27
702.59	339.11
702.92	337.94
703.26	336.66
703.59	335.44
703.93	334.39
704.26	333.24
704.60	331.97
704.93	330.75
705.26	329.53
705.60	328.61
705.93	327.48
706.27	326.43
706.60	325.39
706.94	324.41
707.27	323.18
707.61	322.23
707.94	321.23
708.27	320.08
708.61	319.01
708.94	318.05
709.28	317.03
709.61	315.97
709.94	314.95
710.28	313.95
710.61	313.13
710.95	311.98
711.28	311.07
711.61	310.16
711.95	309.36
712.28	308.42
712.61	307.34
712.95	306.55
713.28	305.62
713.61	304.61
713.95	303.64
714.28	302.86
714.61	301.97
714.95	301.08
715.28	300.41
715.61	299.48
715.95	298.70
716.28	297.94
716.61	297.03
716.95	296.00
717.28	295.39
717.61	294.59
717.94	293.76
718.28	292.85
718.61	292.15
718.94	291.32
719.27	290.64
719.61	290.03
719.94	289.20
720.27	288.50
720.60	287.65
720.94	286.98
721.27	286.35
721.60	285.89
721.93	285.29
722.27	284.58
722.60	283.93
722.93	283.20
723.26	282.53
723.59	281.92
723.93	281.47
724.26	280.76
724.59	280.05
724.92	279.55
725.25	279.10
725.59	278.44
725.92	277.89
726.25	277.37
726.58	276.69
726.91	276.14
727.24	275.49
727.57	275.05
727.91	274.43
728.24	273.80
728.57	273.11
728.90	272.62
729.23	272.03
729.56	271.57
729.89	271.08
730.22	270.55
730.55	270.05
730.89	269.61
731.22	269.16
731.55	268.60
731.88	268.16
732.21	267.57
732.54	267.08
732.87	266.60
733.20	266.03
733.53	265.56
733.86	265.19
734.19	264.80
734.52	264.44
734.85	264.16
735.18	263.70
735.51	263.31
735.84	262.82
736.17	262.52
736.50	262.14
736.83	261.85
737.16	261.44
737.49	261.04
737.82	260.66
738.15	260.37
738.48	260.12
738.81	259.70
739.14	259.47
739.47	259.21
739.80	258.82
740.13	258.52
740.46	258.17
740.79	257.78
741.12	257.45
741.45	257.18
741.78	256.84
742.11	256.65
742.44	256.29
742.77	256.09
743.10	255.68
743.43	255.41
743.75	255.01
744.08	255.11
744.41	254.79
744.74	254.47
745.07	254.12
745.40	253.76
745.73	253.54
746.06	253.19
746.39	252.88
746.71	252.70
747.04	252.45
747.37	252.24
747.70	251.98
748.03	251.69
748.36	251.36
748.68	251.06
749.01	250.83
749.34	250.54
749.67	250.20
750.00	250.01
750.33	249.90
750.65	249.74
750.98	249.22
751.31	249.05
751.64	248.83
751.97	248.69
752.29	248.53
752.62	248.25
752.95	248.04
753.28	247.84
753.60	247.60
753.93	247.53
754.26	247.35
754.59	247.16
754.91	247.07
755.24	246.95
755.57	246.64
755.90	246.35
756.22	246.22
756.55	246.04
756.88	245.89
757.20	245.62
757.53	245.32
757.86	245.19
758.19	245.04
758.51	244.83
758.84	244.47
759.17	244.33
759.49	244.23
759.82	244.21
760.15	243.99
760.47	243.75
760.80	243.47
761.13	243.24
761.45	243.09
761.78	242.81
762.11	242.59
762.43	242.56
762.76	242.40
763.08	242.20
763.41	242.01
763.74	241.76
764.06	241.52
764.39	241.32
764.71	241.10
765.04	240.90
765.37	240.75
765.69	240.58
766.02	240.47
766.34	240.29
766.67	240.07
767.00	239.99
767.32	239.96
767.65	239.97
767.97	239.90
768.30	239.81
768.62	239.64
768.95	239.42
769.27	239.21
769.60	239.17
769.92	239.06
770.25	238.82
770.57	238.65
770.90	238.60
771.22	238.52
771.55	238.33
771.87	238.27
772.20	238.04
772.52	238.19
772.85	238.28
773.17	238.06
773.50	237.82
773.82	237.62
774.15	237.42
774.47	237.10
774.80	236.92
775.12	236.60
775.45	236.47
775.77	236.43
776.09	236.46
776.42	236.34
776.74	236.26
777.07	236.16
777.39	236.20
777.72	235.98
778.04	235.85
778.36	235.69
778.69	235.57
779.01	235.52
779.33	235.20
779.66	234.83
779.98	234.80
780.31	234.75
780.63	234.75
780.95	234.70
781.28	234.65
781.60	234.60
781.92	234.67
782.25	234.76
782.57	234.67
782.89	234.56
783.22	234.41
783.54	234.29
783.86	234.34
784.19	234.15
784.51	234.20
784.83	234.20
785.16	234.19
785.48	234.19
785.80	234.29
786.12	234.27
786.45	234.27
786.77	234.16
787.09	234.11
787.42	233.96
787.74	233.95
