SpectraSuite Data File
++++++++++++++++++++++++++++++++++++
Date: Fri Feb 01 14:38:02 EST 2013
User: group
Dark Spectrum Present: No
Reference Spectrum Present: No
Number of Sampled Component Spectra: 1
Spectrometers: USB2E7196
Integration Time (usec): 70000 (USB2E7196)
Spectra Averaged: 10 (USB2E7196)
Boxcar Smoothing: 10 (USB2E7196)
Correct for Electrical Dark: No (USB2E7196)
Strobe/Lamp Enabled: No (USB2E7196)
Correct for Detector Non-linearity: No (USB2E7196)
Correct for Stray Light: No (USB2E7196)
Number of Pixels in Processed Spectrum: 2048
>>>>>Begin Processed Spectral Data<<<<<
339.09	0.00
339.48	215.70
339.86	216.20
340.24	218.20
340.63	221.20
341.01	224.70
341.39	222.30
341.78	226.20
342.16	226.60
342.54	227.20
342.93	214.66
343.31	225.59
343.69	226.17
344.07	226.65
344.46	227.08
344.84	227.40
345.22	227.56
345.60	227.93
345.99	228.01
346.37	228.02
346.75	228.05
347.13	228.14
347.52	228.18
347.90	228.31
348.28	228.44
348.66	228.48
349.05	228.34
349.43	228.45
349.81	228.40
350.19	228.60
350.57	228.64
350.96	228.68
351.34	228.69
351.72	228.80
352.10	228.93
352.48	229.01
352.87	229.07
353.25	229.10
353.63	229.10
354.01	229.21
354.39	229.38
354.77	229.39
355.15	229.44
355.54	229.56
355.92	229.57
356.30	229.59
356.68	229.78
357.06	229.98
357.44	229.93
357.82	230.01
358.20	229.98
358.58	230.07
358.97	230.12
359.35	230.17
359.73	230.26
360.11	230.16
360.49	230.20
360.87	230.30
361.25	230.32
361.63	230.40
362.01	230.37
362.39	230.32
362.77	230.40
363.15	230.38
363.53	230.34
363.91	230.32
364.29	230.36
364.67	230.07
365.05	230.07
365.43	230.16
365.81	230.23
366.19	230.41
366.57	230.43
366.95	230.40
367.33	230.35
367.71	230.32
368.09	230.43
368.47	230.36
368.85	230.30
369.23	230.38
369.61	230.26
369.99	230.31
370.37	230.31
370.75	230.47
371.13	230.41
371.51	230.37
371.89	230.31
372.27	230.09
372.65	230.17
373.03	230.07
373.41	229.91
373.78	229.78
374.16	229.52
374.54	229.41
374.92	229.35
375.30	229.19
375.68	229.07
376.06	229.01
376.44	228.99
376.82	228.90
377.19	228.81
377.57	228.75
377.95	228.52
378.33	228.41
378.71	228.07
379.09	227.96
379.47	227.88
379.84	227.82
380.22	227.83
380.60	227.68
380.98	227.58
381.36	227.54
381.73	227.51
382.11	227.44
382.49	227.38
382.87	227.23
383.25	227.23
383.62	227.32
384.00	227.26
384.38	227.11
384.76	227.01
385.13	227.04
385.51	226.96
385.89	226.95
386.27	227.01
386.64	227.07
387.02	227.00
387.40	226.96
387.78	226.92
388.15	226.90
388.53	226.87
388.91	226.77
389.29	226.74
389.66	226.74
390.04	226.67
390.42	226.66
390.79	226.75
391.17	226.77
391.55	226.62
391.92	226.64
392.30	226.76
392.68	226.83
393.05	226.80
393.43	226.82
393.81	226.80
394.18	226.70
394.56	226.69
394.94	226.77
395.31	226.79
395.69	226.87
396.06	226.86
396.44	226.94
396.82	227.10
397.19	227.23
397.57	227.12
397.95	227.25
398.32	227.23
398.70	227.20
399.07	227.27
399.45	227.29
399.82	227.34
400.20	227.47
400.58	227.53
400.95	227.52
401.33	227.59
401.70	227.88
402.08	228.04
402.45	228.10
402.83	228.24
403.20	228.37
403.58	228.46
403.95	228.75
404.33	228.89
404.71	228.91
405.08	229.11
405.46	229.46
405.83	229.64
406.21	229.86
406.58	230.13
406.96	230.38
407.33	230.65
407.70	230.85
408.08	231.20
408.45	231.52
408.83	231.82
409.20	232.15
409.58	232.37
409.95	232.68
410.33	233.11
410.70	233.52
411.08	233.98
411.45	234.40
411.82	234.77
412.20	235.25
412.57	236.00
412.95	236.42
413.32	237.06
413.69	237.51
414.07	238.08
414.44	238.67
414.82	239.30
415.19	239.99
415.56	240.79
415.94	241.45
416.31	242.27
416.68	243.18
417.06	244.16
417.43	245.08
417.81	246.20
418.18	247.20
418.55	248.28
418.93	249.43
419.30	250.66
419.67	252.04
420.04	253.35
420.42	254.68
420.79	256.46
421.16	258.00
421.54	259.80
421.91	261.54
422.28	263.39
422.66	265.35
423.03	267.38
423.40	269.25
423.77	271.44
424.15	273.54
424.52	275.83
424.89	278.21
425.26	280.53
425.64	282.69
426.01	285.20
426.38	287.67
426.75	290.16
427.13	292.74
427.50	295.57
427.87	298.39
428.24	301.05
428.61	303.57
428.99	306.63
429.36	309.90
429.73	313.15
430.10	316.39
430.47	319.70
430.85	322.99
431.22	326.42
431.59	330.09
431.96	333.67
432.33	337.44
432.70	341.16
433.08	345.60
433.45	349.87
433.82	354.04
434.19	358.80
434.56	363.43
434.93	367.90
435.30	372.11
435.68	376.80
436.05	381.73
436.42	386.35
436.79	390.41
437.16	394.80
437.53	399.50
437.90	404.17
438.27	408.60
438.64	413.20
439.01	417.87
439.38	421.81
439.75	425.57
440.13	429.85
440.50	434.17
440.87	437.59
441.24	441.20
441.61	445.18
441.98	447.88
442.35	451.21
442.72	454.46
443.09	457.85
443.46	460.17
443.83	461.54
444.20	462.82
444.57	464.84
444.94	465.93
445.31	467.00
445.68	468.17
446.05	469.01
446.42	469.06
446.79	468.83
447.16	468.59
447.53	468.64
447.90	467.37
448.27	465.98
448.64	463.83
449.01	462.34
449.37	459.47
449.74	456.82
450.11	453.53
450.48	450.16
450.85	446.38
451.22	443.29
451.59	440.38
451.96	437.81
452.33	433.79
452.70	430.43
453.07	426.29
453.43	421.89
453.80	417.62
454.17	413.55
454.54	409.54
454.91	405.31
455.28	401.07
455.65	397.09
456.02	393.32
456.38	390.02
456.75	385.77
457.12	382.35
457.49	378.89
457.86	375.51
458.23	372.56
458.59	369.35
458.96	365.96
459.33	363.04
459.70	359.97
460.07	357.55
460.43	354.65
460.80	351.84
461.17	349.49
461.54	346.91
461.91	344.49
462.27	342.34
462.64	340.30
463.01	338.21
463.38	336.17
463.74	333.77
464.11	331.83
464.48	330.23
464.85	328.31
465.21	326.90
465.58	325.34
465.95	323.43
466.32	321.80
466.68	320.16
467.05	318.51
467.42	316.86
467.78	315.25
468.15	313.70
468.52	312.57
468.88	311.04
469.25	309.80
469.62	308.77
469.98	307.42
470.35	306.27
470.72	305.10
471.08	303.87
471.45	302.85
471.82	301.92
472.18	300.73
472.55	299.82
472.92	298.86
473.28	297.96
473.65	297.10
474.02	296.31
474.38	295.63
474.75	294.87
475.11	294.17
475.48	293.59
475.85	293.08
476.21	292.53
476.58	291.99
476.94	291.37
477.31	290.78
477.67	290.24
478.04	289.74
478.41	289.30
478.77	289.12
479.14	288.74
479.50	288.28
479.87	288.04
480.23	287.80
480.60	287.41
480.96	287.12
481.33	286.99
481.69	286.73
482.06	286.58
482.42	286.35
482.79	286.22
483.15	286.13
483.52	286.01
483.88	285.84
484.25	285.83
484.61	285.87
484.98	285.81
485.34	286.02
485.71	286.05
486.07	286.20
486.44	286.11
486.80	286.17
487.17	286.24
487.53	286.40
487.90	286.50
488.26	286.86
488.62	287.11
488.99	287.23
489.35	287.46
489.72	287.67
490.08	288.04
490.44	288.32
490.81	288.62
491.17	288.96
491.54	289.34
491.90	289.52
492.26	289.88
492.63	290.19
492.99	290.53
493.36	291.01
493.72	291.40
494.08	291.73
494.45	292.24
494.81	292.76
495.17	293.20
495.54	293.82
495.90	294.25
496.26	294.66
496.63	295.10
496.99	295.70
497.35	296.23
497.72	296.86
498.08	297.30
498.44	297.76
498.80	298.19
499.17	298.64
499.53	299.21
499.89	299.73
500.26	300.32
500.62	300.62
500.98	301.01
501.34	301.42
501.71	301.94
502.07	302.23
502.43	302.59
502.79	302.86
503.16	303.10
503.52	303.35
503.88	303.70
504.24	303.96
504.60	304.25
504.97	304.52
505.33	304.65
505.69	304.94
506.05	305.22
506.41	305.40
506.78	305.70
507.14	305.85
507.50	306.08
507.86	306.29
508.22	306.59
508.59	306.64
508.95	306.81
509.31	307.08
509.67	307.35
510.03	307.47
510.39	307.76
510.75	308.00
511.12	308.23
511.48	308.54
511.84	308.84
512.20	309.07
512.56	309.20
512.92	309.45
513.28	309.88
513.64	310.17
514.00	310.52
514.37	310.86
514.73	311.22
515.09	311.50
515.45	311.79
515.81	312.09
516.17	312.64
516.53	313.19
516.89	313.60
517.25	314.28
517.61	315.10
517.97	315.67
518.33	316.28
518.69	316.96
519.05	317.77
519.41	318.67
519.77	319.63
520.13	320.67
520.49	321.64
520.85	322.56
521.21	323.78
521.57	324.98
521.93	326.15
522.29	327.59
522.65	329.00
523.01	330.59
523.37	332.18
523.73	333.79
524.09	335.48
524.45	337.32
524.81	338.96
525.17	340.82
525.53	342.80
525.89	344.88
526.25	347.28
526.61	349.24
526.97	351.55
527.33	353.81
527.68	356.50
528.04	359.00
528.40	361.58
528.76	364.14
529.12	366.97
529.48	369.90
529.84	372.77
530.20	375.89
530.56	379.07
530.91	382.32
531.27	385.61
531.63	389.05
531.99	392.60
532.35	396.24
532.71	399.77
533.07	403.53
533.42	407.64
533.78	411.40
534.14	415.42
534.50	419.23
534.86	423.19
535.21	427.10
535.57	431.57
535.93	435.77
536.29	440.30
536.65	444.78
537.00	449.09
537.36	453.68
537.72	458.21
538.08	462.63
538.44	467.33
538.79	472.23
539.15	476.79
539.51	481.41
539.87	486.43
540.22	491.32
540.58	496.20
540.94	500.69
541.29	505.49
541.65	510.50
542.01	515.84
542.37	521.31
542.72	526.42
543.08	531.57
543.44	536.99
543.79	541.91
544.15	547.13
544.51	552.74
544.87	557.95
545.22	563.31
545.58	568.71
545.94	573.95
546.29	579.26
546.65	584.75
547.01	590.12
547.36	595.30
547.72	600.66
548.07	606.10
548.43	611.66
548.79	617.28
549.14	622.61
549.50	627.62
549.86	632.46
550.21	637.75
550.57	643.02
550.92	648.13
551.28	653.40
551.64	658.64
551.99	663.78
552.35	669.02
552.70	674.09
553.06	679.48
553.41	684.68
553.77	689.84
554.13	694.93
554.48	700.44
554.84	705.66
555.19	710.72
555.55	715.86
555.90	720.71
556.26	725.57
556.61	730.70
556.97	735.80
557.32	740.93
557.68	745.98
558.03	750.81
558.39	755.85
558.74	761.08
559.10	765.90
559.45	770.52
559.81	775.76
560.16	780.59
560.52	785.13
560.87	789.93
561.23	794.54
561.58	799.40
561.94	803.49
562.29	807.88
562.64	812.41
563.00	816.63
563.35	821.13
563.71	825.67
564.06	830.24
564.42	834.67
564.77	838.83
565.12	842.93
565.48	847.31
565.83	851.07
566.19	854.92
566.54	858.90
566.89	862.91
567.25	866.48
567.60	870.45
567.96	874.38
568.31	878.32
568.66	881.95
569.02	885.44
569.37	888.87
569.72	892.49
570.08	895.75
570.43	899.06
570.78	902.20
571.14	905.40
571.49	908.10
571.84	911.16
572.20	914.13
572.55	916.87
572.90	919.38
573.26	922.44
573.61	925.02
573.96	927.52
574.31	929.60
574.67	931.51
575.02	933.16
575.37	935.00
575.72	936.13
576.08	938.20
576.43	939.61
576.78	941.45
577.13	942.93
577.49	944.66
577.84	946.10
578.19	947.73
578.54	948.84
578.90	949.85
579.25	950.23
579.60	951.12
579.95	952.26
580.30	952.92
580.66	953.60
581.01	954.28
581.36	955.00
581.71	956.06
582.06	956.87
582.42	957.73
582.77	958.22
583.12	958.96
583.47	959.20
583.82	959.92
584.17	960.22
584.53	960.59
584.88	960.80
585.23	961.04
585.58	961.15
585.93	961.10
586.28	961.72
586.63	962.44
586.98	962.88
587.34	962.84
587.69	963.02
588.04	963.15
588.39	963.36
588.74	962.63
589.09	962.10
589.44	961.38
589.79	961.22
590.14	961.17
590.49	961.02
590.84	960.38
591.19	959.79
591.54	958.82
591.89	957.58
592.25	956.83
592.60	955.76
592.95	954.35
593.30	953.41
593.65	952.07
594.00	950.99
594.35	949.99
594.70	948.50
595.05	947.41
595.40	945.85
595.75	944.17
596.10	943.30
596.45	942.22
596.80	941.38
597.15	939.99
597.50	938.30
597.85	936.85
598.19	935.76
598.54	934.50
598.89	933.58
599.24	932.73
599.59	931.30
599.94	930.39
600.29	929.20
600.64	927.76
600.99	926.30
601.34	924.72
601.69	922.78
602.04	921.32
602.39	919.57
602.74	918.40
603.08	917.03
603.43	915.76
603.78	914.25
604.13	912.54
604.48	910.86
604.83	909.44
605.18	907.70
605.53	905.63
605.87	903.42
606.22	901.46
606.57	899.41
606.92	897.52
607.27	895.80
607.62	894.30
607.96	892.50
608.31	890.75
608.66	888.30
609.01	886.06
609.36	883.88
609.70	881.31
610.05	878.39
610.40	875.89
610.75	873.08
611.10	870.38
611.44	867.42
611.79	864.79
612.14	861.91
612.49	858.93
612.83	856.15
613.18	853.35
613.53	850.70
613.88	847.80
614.22	844.99
614.57	841.59
614.92	838.42
615.27	835.60
615.61	831.99
615.96	829.45
616.31	826.85
616.65	824.25
617.00	821.67
617.35	819.07
617.70	816.15
618.04	812.93
618.39	810.16
618.74	807.52
619.08	804.28
619.43	801.55
619.78	799.03
620.12	796.39
620.47	793.90
620.82	790.80
621.16	788.04
621.51	785.12
621.85	782.39
622.20	779.46
622.55	776.50
622.89	774.18
623.24	771.50
623.59	768.67
623.93	765.95
624.28	763.19
624.62	760.56
624.97	757.97
625.32	755.61
625.66	752.84
626.01	750.10
626.35	747.50
626.70	744.70
627.04	742.04
627.39	739.14
627.73	736.09
628.08	733.51
628.43	730.63
628.77	727.79
629.12	724.92
629.46	722.15
629.81	719.20
630.15	716.14
630.50	713.10
630.84	709.93
631.19	706.81
631.53	703.82
631.88	700.48
632.22	697.05
632.57	694.33
632.91	691.09
633.26	688.01
633.60	684.92
633.95	681.70
634.29	678.56
634.64	675.77
634.98	672.74
635.32	669.71
635.67	667.13
636.01	664.15
636.36	661.34
636.70	658.67
637.05	656.00
637.39	653.32
637.73	650.68
638.08	648.00
638.42	645.23
638.77	642.68
639.11	640.00
639.45	637.59
639.80	634.67
640.14	632.20
640.49	629.69
640.83	627.19
641.17	624.80
641.52	622.10
641.86	619.27
642.20	616.74
642.55	614.07
642.89	611.23
643.23	608.63
643.58	606.01
643.92	602.96
644.26	600.32
644.61	597.72
644.95	594.92
645.29	592.09
645.64	589.40
645.98	586.57
646.32	584.16
646.66	581.38
647.01	578.64
647.35	576.12
647.69	573.52
648.04	571.08
648.38	568.12
648.72	565.33
649.06	562.67
649.41	559.97
649.75	557.07
650.09	554.32
650.43	551.46
650.78	548.67
651.12	546.08
651.46	543.31
651.80	540.73
652.14	538.12
652.49	535.75
652.83	533.03
653.17	530.32
653.51	527.50
653.85	524.89
654.20	522.29
654.54	519.15
654.88	516.31
655.22	513.39
655.56	510.73
655.90	508.30
656.25	505.76
656.59	503.41
656.93	501.20
657.27	498.73
657.61	496.28
657.95	493.74
658.29	491.52
658.64	488.94
658.98	486.43
659.32	483.93
659.66	481.40
660.00	479.17
660.34	476.87
660.68	474.50
661.02	472.12
661.36	469.80
661.70	467.90
662.05	466.07
662.39	464.00
662.73	462.01
663.07	460.04
663.41	458.02
663.75	455.70
664.09	453.48
664.43	451.50
664.77	449.65
665.11	447.73
665.45	445.78
665.79	443.87
666.13	441.93
666.47	439.96
666.81	437.86
667.15	435.73
667.49	433.90
667.83	432.31
668.17	430.43
668.51	428.50
668.85	426.60
669.19	424.76
669.53	422.94
669.87	421.19
670.21	419.40
670.55	417.43
670.89	415.92
671.23	414.33
671.57	412.66
671.91	410.88
672.25	409.10
672.58	407.28
672.92	405.71
673.26	404.02
673.60	402.44
673.94	401.11
674.28	399.80
674.62	398.37
674.96	396.57
675.30	395.10
675.64	393.64
675.97	392.19
676.31	390.59
676.65	389.20
676.99	387.88
677.33	386.29
677.67	384.79
678.01	383.21
678.34	381.77
678.68	380.28
679.02	378.96
679.36	377.77
679.70	376.44
680.04	374.87
680.37	373.40
680.71	372.04
681.05	370.70
681.39	369.27
681.73	367.79
682.06	366.63
682.40	365.39
682.74	364.17
683.08	362.94
683.42	361.61
683.75	360.18
684.09	358.80
684.43	357.42
684.77	356.26
685.10	354.94
685.44	353.53
685.78	352.21
686.12	350.89
686.45	349.58
686.79	348.22
687.13	347.14
687.46	345.86
687.80	344.67
688.14	343.40
688.48	342.27
688.81	341.10
689.15	339.96
689.49	338.73
689.82	337.56
690.16	336.33
690.50	335.15
690.83	334.03
691.17	332.87
691.51	331.75
691.84	330.66
692.18	329.51
692.52	328.47
692.85	327.43
693.19	326.39
693.52	325.20
693.86	324.20
694.20	323.23
694.53	322.29
694.87	321.20
695.21	320.13
695.54	318.94
695.88	317.78
696.21	316.61
696.55	315.59
696.88	314.54
697.22	313.46
697.56	312.50
697.89	311.54
698.23	310.55
698.56	309.70
698.90	308.79
699.23	307.87
699.57	306.90
699.90	305.90
700.24	304.95
700.58	304.16
700.91	303.36
701.25	302.58
701.58	302.07
701.92	301.28
702.25	300.49
702.59	299.76
702.92	299.17
703.26	298.37
703.59	297.73
703.93	297.15
704.26	296.51
704.60	295.84
704.93	295.10
705.26	294.36
705.60	293.69
705.93	293.07
706.27	292.55
706.60	291.99
706.94	291.38
707.27	290.76
707.61	290.02
707.94	289.24
708.27	288.52
708.61	287.51
708.94	286.95
709.28	286.41
709.61	285.79
709.94	285.15
710.28	284.64
710.61	284.10
710.95	283.40
711.28	282.84
711.61	282.18
711.95	281.71
712.28	281.10
712.61	280.43
712.95	279.86
713.28	279.31
713.61	278.75
713.95	278.24
714.28	277.68
714.61	277.31
714.95	276.83
715.28	276.21
715.61	275.73
715.95	275.21
716.28	274.69
716.61	274.20
716.95	273.66
717.28	273.23
717.61	272.59
717.94	271.97
718.28	271.41
718.61	270.99
718.94	270.49
719.27	270.08
719.61	269.74
719.94	269.25
720.27	268.86
720.60	268.42
720.94	267.98
721.27	267.56
721.60	267.16
721.93	266.85
722.27	266.57
722.60	266.24
722.93	265.87
723.26	265.48
723.59	265.10
723.93	264.61
724.26	264.15
724.59	263.86
724.92	263.64
725.25	263.40
725.59	263.09
725.92	262.78
726.25	262.38
726.58	262.06
726.91	261.73
727.24	261.30
727.57	260.97
727.91	260.64
728.24	260.39
728.57	259.93
728.90	259.42
729.23	258.87
729.56	258.67
729.89	258.34
730.22	257.95
730.55	257.60
730.89	257.40
731.22	257.19
731.55	256.95
731.88	256.60
732.21	256.10
732.54	255.69
732.87	255.33
733.20	255.11
733.53	254.77
733.86	254.51
734.19	254.20
734.52	254.00
734.85	253.83
735.18	253.39
735.51	253.12
735.84	252.93
736.17	252.74
736.50	252.24
736.83	252.12
737.16	251.96
737.49	251.68
737.82	251.44
738.15	251.03
738.48	250.68
738.81	250.40
739.14	250.22
739.47	249.98
739.80	249.70
740.13	249.52
740.46	249.18
740.79	248.84
741.12	248.67
741.45	248.36
741.78	248.05
742.11	247.94
742.44	247.74
742.77	247.61
743.10	247.40
743.43	247.16
743.75	246.70
744.08	246.64
744.41	246.47
744.74	246.26
745.07	246.08
745.40	245.84
745.73	245.66
746.06	245.53
746.39	245.29
746.71	245.14
747.04	244.78
747.37	244.62
747.70	244.49
748.03	244.30
748.36	244.09
748.68	243.93
749.01	243.67
749.34	243.52
749.67	243.20
750.00	243.07
750.33	243.15
750.65	243.04
750.98	242.80
751.31	242.66
751.64	242.50
751.97	242.58
752.29	242.50
752.62	242.35
752.95	242.16
753.28	242.14
753.60	241.99
753.93	242.02
754.26	242.01
754.59	241.80
754.91	241.58
755.24	241.50
755.57	241.28
755.90	241.18
756.22	241.13
756.55	241.05
756.88	240.90
757.20	240.60
757.53	240.45
757.86	240.23
758.19	240.13
758.51	240.03
758.84	239.72
759.17	239.50
759.49	239.42
759.82	239.36
760.15	239.18
760.47	239.08
760.80	238.97
761.13	238.85
761.45	238.82
761.78	238.80
762.11	238.71
762.43	238.57
762.76	238.48
763.08	238.28
763.41	238.30
763.74	238.25
764.06	238.20
764.39	238.09
764.71	237.99
765.04	237.80
765.37	237.71
765.69	237.64
766.02	237.70
766.34	237.60
766.67	237.40
767.00	237.34
767.32	237.36
767.65	237.32
767.97	237.29
768.30	237.17
768.62	237.02
768.95	236.94
769.27	236.93
769.60	236.93
769.92	236.89
770.25	236.71
770.57	236.60
770.90	236.50
771.22	236.38
771.55	236.26
771.87	236.19
772.20	236.07
772.52	236.13
772.85	236.14
773.17	236.06
773.50	235.99
773.82	235.90
774.15	235.68
774.47	235.45
774.80	235.27
775.12	235.16
775.45	235.04
775.77	234.85
776.09	234.78
776.42	234.69
776.74	234.63
777.07	234.53
777.39	234.43
777.72	234.37
778.04	234.32
778.36	234.22
778.69	234.10
779.01	233.92
779.33	233.66
779.66	233.31
779.98	233.18
780.31	233.12
780.63	233.05
780.95	232.97
781.28	232.90
781.60	232.79
781.92	232.72
782.25	232.69
782.57	232.71
782.89	232.59
783.22	232.45
783.54	232.33
783.86	232.27
784.19	232.13
784.51	232.03
784.83	231.99
785.16	231.91
785.48	231.93
785.80	231.98
786.12	231.91
786.45	231.98
786.77	231.90
787.09	231.82
787.42	231.75
787.74	231.70
788.06	231.68
788.38	231.65
788.71	231.52
789.03	231.50
789.35	231.50
789.67	231.43
789.99	231.37
790.32	231.42
790.64	231.45
790.96	231.62
791.28	231.57
791.61	231.50
791.93	231.55
792.25	231.52
792.57	231.67
792.89	231.63
793.21	231.53
793.54	231.55
793.86	231.52
794.18	231.51
