SpectraSuite Data File
++++++++++++++++++++++++++++++++++++
Date: Fri Feb 01 14:41:03 EST 2013
User: group
Dark Spectrum Present: No
Reference Spectrum Present: No
Number of Sampled Component Spectra: 1
Spectrometers: USB2E7196
Integration Time (usec): 70000 (USB2E7196)
Spectra Averaged: 10 (USB2E7196)
Boxcar Smoothing: 10 (USB2E7196)
Correct for Electrical Dark: No (USB2E7196)
Strobe/Lamp Enabled: No (USB2E7196)
Correct for Detector Non-linearity: No (USB2E7196)
Correct for Stray Light: No (USB2E7196)
Number of Pixels in Processed Spectrum: 2048
>>>>>Begin Processed Spectral Data<<<<<
339.09	0.00
339.48	216.90
339.86	218.10
340.24	217.50
340.63	221.80
341.01	225.30
341.39	224.10
341.78	225.50
342.16	226.30
342.54	227.70
342.93	214.88
343.31	225.77
343.69	226.37
344.07	226.83
344.46	227.37
344.84	227.81
345.22	228.04
345.60	228.30
345.99	228.43
346.37	228.63
346.75	228.72
347.13	228.89
347.52	229.08
347.90	229.10
348.28	229.18
348.66	229.33
349.05	229.26
349.43	229.26
349.81	229.34
350.19	229.48
350.57	229.58
350.96	229.65
351.34	229.78
351.72	229.77
352.10	229.95
352.48	230.00
352.87	229.93
353.25	229.94
353.63	229.90
354.01	230.06
354.39	230.04
354.77	230.06
355.15	230.15
355.54	230.05
355.92	230.05
356.30	230.13
356.68	230.28
357.06	230.49
357.44	230.49
357.82	230.50
358.20	230.48
358.58	230.40
358.97	230.49
359.35	230.48
359.73	230.59
360.11	230.47
360.49	230.52
360.87	230.55
361.25	230.58
361.63	230.73
362.01	230.70
362.39	230.68
362.77	230.72
363.15	230.72
363.53	230.83
363.91	230.82
364.29	230.78
364.67	230.55
365.05	230.40
365.43	230.47
365.81	230.49
366.19	230.60
366.57	230.73
366.95	230.65
367.33	230.59
367.71	230.50
368.09	230.55
368.47	230.52
368.85	230.42
369.23	230.49
369.61	230.34
369.99	230.31
370.37	230.31
370.75	230.31
371.13	230.14
371.51	229.98
371.89	229.97
372.27	229.87
372.65	229.80
373.03	229.80
373.41	229.68
373.78	229.45
374.16	229.37
374.54	229.24
374.92	229.16
375.30	229.01
375.68	228.86
376.06	228.73
376.44	228.63
376.82	228.70
377.19	228.55
377.57	228.50
377.95	228.39
378.33	228.34
378.71	228.08
379.09	228.14
379.47	228.13
379.84	228.10
380.22	228.02
380.60	227.92
380.98	227.90
381.36	227.87
381.73	227.97
382.11	227.86
382.49	227.80
382.87	227.70
383.25	227.69
383.62	227.85
384.00	227.79
384.38	227.71
384.76	227.69
385.13	227.59
385.51	227.52
385.89	227.40
386.27	227.34
386.64	227.38
387.02	227.31
387.40	227.17
387.78	227.04
388.15	227.07
388.53	227.10
388.91	227.05
389.29	226.99
389.66	226.97
390.04	227.00
390.42	227.04
390.79	227.05
391.17	227.14
391.55	226.98
391.92	227.03
392.30	227.10
392.68	227.05
393.05	227.13
393.43	227.25
393.81	227.38
394.18	227.33
394.56	227.43
394.94	227.56
395.31	227.70
395.69	227.86
396.06	227.93
396.44	228.01
396.82	228.05
397.19	228.23
397.57	228.30
397.95	228.33
398.32	228.38
398.70	228.47
399.07	228.50
399.45	228.70
399.82	228.79
400.20	228.86
400.58	228.94
400.95	228.97
401.33	229.12
401.70	229.40
402.08	229.49
402.45	229.53
402.83	229.56
403.20	229.73
403.58	229.95
403.95	230.12
404.33	230.30
404.71	230.46
405.08	230.73
405.46	230.92
405.83	231.15
406.21	231.29
406.58	231.49
406.96	231.71
407.33	231.93
407.70	232.19
408.08	232.57
408.45	232.85
408.83	233.26
409.20	233.39
409.58	233.45
409.95	233.90
410.33	234.36
410.70	234.67
411.08	235.02
411.45	235.18
411.82	235.44
412.20	235.70
412.57	236.16
412.95	236.41
413.32	236.81
413.69	237.24
414.07	237.69
414.44	238.21
414.82	238.68
415.19	239.32
415.56	239.89
415.94	240.34
416.31	241.02
416.68	241.61
417.06	242.47
417.43	243.37
417.81	244.16
418.18	244.89
418.55	245.80
418.93	246.64
419.30	247.69
419.67	248.71
420.04	249.79
420.42	250.81
420.79	252.10
421.16	253.45
421.54	254.80
421.91	256.16
422.28	257.50
422.66	258.97
423.03	260.43
423.40	261.88
423.77	263.50
424.15	264.89
424.52	266.46
424.89	268.21
425.26	269.78
425.64	271.42
426.01	273.23
426.38	275.08
426.75	276.94
427.13	278.85
427.50	280.80
427.87	282.87
428.24	284.93
428.61	286.84
428.99	288.96
429.36	291.15
429.73	293.40
430.10	295.71
430.47	297.93
430.85	300.03
431.22	302.61
431.59	305.32
431.96	308.06
432.33	310.83
432.70	313.49
433.08	316.60
433.45	319.47
433.82	322.43
434.19	325.69
434.56	328.85
434.93	331.75
435.30	334.71
435.68	338.03
436.05	341.15
436.42	344.24
436.79	346.93
437.16	350.03
437.53	353.21
437.90	356.28
438.27	359.43
438.64	362.63
439.01	365.48
439.38	367.94
439.75	370.29
440.13	373.08
440.50	375.52
440.87	377.53
441.24	379.73
441.61	382.02
441.98	383.58
442.35	385.45
442.72	387.45
443.09	389.42
443.46	390.38
443.83	390.85
444.20	391.48
444.57	392.49
444.94	392.66
445.31	393.03
445.68	393.41
446.05	393.43
446.42	393.01
446.79	392.35
447.16	391.69
447.53	391.27
447.90	390.05
448.27	388.87
448.64	387.19
449.01	385.91
449.37	383.64
449.74	381.59
450.11	379.19
450.48	376.51
450.85	373.67
451.22	371.24
451.59	369.26
451.96	367.00
452.33	363.96
452.70	361.40
453.07	358.36
453.43	355.09
453.80	351.92
454.17	348.92
454.54	346.19
454.91	343.16
455.28	340.16
455.65	337.19
456.02	334.57
456.38	332.17
456.75	329.17
457.12	326.66
457.49	324.14
457.86	321.73
458.23	319.58
458.59	317.22
458.96	314.97
459.33	312.84
459.70	310.80
460.07	309.20
460.43	307.12
460.80	305.21
461.17	303.60
461.54	302.01
461.91	300.36
462.27	298.64
462.64	297.33
463.01	295.71
463.38	294.31
463.74	292.52
464.11	291.10
464.48	289.83
464.85	288.63
465.21	287.52
465.58	286.45
465.95	285.22
466.32	284.25
466.68	283.08
467.05	281.95
467.42	280.81
467.78	279.70
468.15	278.74
468.52	277.85
468.88	276.72
469.25	275.72
469.62	275.01
469.98	274.20
470.35	273.39
470.72	272.72
471.08	271.87
471.45	271.31
471.82	270.70
472.18	269.91
472.55	269.20
472.92	268.53
473.28	267.83
473.65	267.14
474.02	266.55
474.38	266.11
474.75	265.72
475.11	265.21
475.48	264.82
475.85	264.38
476.21	264.00
476.58	263.73
476.94	263.43
477.31	262.99
477.67	262.72
478.04	262.42
478.41	262.09
478.77	262.09
479.14	261.74
479.50	261.44
479.87	261.35
480.23	261.21
480.60	261.08
480.96	261.02
481.33	261.00
481.69	260.85
482.06	260.93
482.42	260.86
482.79	260.81
483.15	260.86
483.52	261.04
483.88	261.08
484.25	261.18
484.61	261.36
484.98	261.60
485.34	261.88
485.71	262.03
486.07	262.27
486.44	262.33
486.80	262.69
487.17	263.10
487.53	263.56
487.90	264.12
488.26	264.77
488.62	265.35
488.99	266.02
489.35	266.75
489.72	267.32
490.08	268.11
490.44	268.94
490.81	269.65
491.17	270.51
491.54	271.45
491.90	272.60
492.26	273.70
492.63	274.90
492.99	275.95
493.36	277.27
493.72	278.86
494.08	280.35
494.45	281.88
494.81	283.42
495.17	284.89
495.54	286.69
495.90	288.50
496.26	290.31
496.63	292.49
496.99	294.63
497.35	296.96
497.72	299.20
498.08	301.76
498.44	304.54
498.80	307.31
499.17	310.28
499.53	313.03
499.89	316.15
500.26	319.36
500.62	322.70
500.98	326.34
501.34	329.83
501.71	333.72
502.07	337.76
502.43	341.97
502.79	346.52
503.16	351.11
503.52	355.76
503.88	360.57
504.24	365.53
504.60	370.69
504.97	376.00
505.33	381.62
505.69	387.54
506.05	393.48
506.41	399.64
506.78	405.96
507.14	412.72
507.50	419.48
507.86	426.46
508.22	433.87
508.59	441.09
508.95	448.80
509.31	456.60
509.67	464.82
510.03	473.24
510.39	481.79
510.75	490.33
511.12	499.25
511.48	508.66
511.84	517.97
512.20	527.56
512.56	537.39
512.92	547.34
513.28	557.70
513.64	567.97
514.00	578.72
514.37	589.70
514.73	600.98
515.09	612.23
515.45	623.79
515.81	635.80
516.17	648.06
516.53	660.23
516.89	672.84
517.25	685.25
517.61	697.80
517.97	710.49
518.33	723.57
518.69	736.79
519.05	750.28
519.41	763.82
519.77	777.84
520.13	792.17
520.49	806.47
520.85	820.71
521.21	835.25
521.57	850.20
521.93	864.75
522.29	879.74
522.65	894.86
523.01	909.65
523.37	924.23
523.73	939.44
524.09	955.10
524.45	970.65
524.81	986.63
525.17	1003.20
525.53	1019.46
525.89	1035.65
526.25	1052.15
526.61	1068.20
526.97	1084.80
527.33	1101.35
527.68	1117.64
528.04	1134.29
528.40	1150.70
528.76	1167.83
529.12	1184.53
529.48	1201.50
529.84	1217.90
530.20	1235.29
530.56	1253.03
530.91	1271.08
531.27	1288.50
531.63	1305.41
531.99	1322.62
532.35	1339.49
532.71	1355.57
533.07	1372.75
533.42	1389.87
533.78	1406.46
534.14	1423.45
534.50	1440.02
534.86	1456.85
535.21	1473.34
535.57	1489.85
535.93	1506.92
536.29	1523.43
536.65	1540.01
537.00	1556.39
537.36	1573.02
537.72	1588.77
538.08	1604.46
538.44	1619.70
538.79	1635.24
539.15	1650.69
539.51	1666.40
539.87	1681.81
540.22	1697.47
540.58	1713.01
540.94	1727.82
541.29	1742.80
541.65	1757.68
542.01	1772.85
542.37	1787.82
542.72	1802.17
543.08	1816.66
543.44	1830.60
543.79	1843.37
544.15	1856.81
544.51	1870.83
544.87	1884.17
545.22	1897.53
545.58	1910.55
545.94	1922.86
546.29	1935.72
546.65	1947.92
547.01	1959.33
547.36	1970.84
547.72	1982.13
548.07	1992.95
548.43	2004.25
548.79	2015.34
549.14	2025.38
549.50	2035.03
549.86	2044.25
550.21	2053.82
550.57	2063.52
550.92	2073.06
551.28	2083.05
551.64	2092.02
551.99	2100.68
552.35	2109.45
552.70	2117.96
553.06	2126.66
553.41	2135.69
553.77	2143.32
554.13	2152.15
554.48	2160.34
554.84	2168.48
555.19	2176.62
555.55	2184.32
555.90	2191.35
556.26	2198.52
556.61	2206.05
556.97	2212.96
557.32	2219.96
557.68	2227.74
558.03	2234.43
558.39	2240.95
558.74	2248.02
559.10	2254.25
559.45	2260.44
559.81	2267.50
560.16	2273.17
560.52	2278.50
560.87	2284.39
561.23	2289.64
561.58	2294.95
561.94	2299.99
562.29	2304.40
562.64	2308.91
563.00	2313.29
563.35	2318.76
563.71	2323.89
564.06	2329.21
564.42	2334.07
564.77	2338.83
565.12	2342.65
565.48	2346.52
565.83	2349.78
566.19	2353.24
566.54	2356.41
566.89	2359.51
567.25	2361.80
567.60	2365.55
567.96	2368.35
568.31	2370.60
568.66	2373.43
569.02	2375.47
569.37	2377.01
569.72	2379.30
570.08	2381.01
570.43	2382.51
570.78	2383.47
571.14	2383.81
571.49	2383.96
571.84	2385.93
572.20	2385.72
572.55	2385.46
572.90	2385.15
573.26	2385.41
573.61	2384.76
573.96	2384.33
574.31	2382.95
574.67	2380.80
575.02	2378.69
575.37	2377.24
575.72	2374.92
576.08	2372.98
576.43	2370.81
576.78	2369.40
577.13	2367.61
577.49	2365.10
577.84	2362.63
578.19	2359.42
578.54	2356.30
578.90	2352.69
579.25	2347.36
579.60	2343.72
579.95	2339.81
580.30	2335.56
580.66	2330.72
581.01	2326.26
581.36	2322.35
581.71	2318.70
582.06	2315.02
582.42	2310.32
582.77	2305.36
583.12	2300.35
583.47	2296.15
583.82	2291.91
584.17	2286.90
584.53	2281.91
584.88	2277.57
585.23	2272.86
585.58	2268.22
585.93	2263.35
586.28	2259.33
586.63	2255.31
586.98	2250.99
587.34	2246.70
587.69	2242.19
588.04	2237.86
588.39	2233.05
588.74	2226.83
589.09	2220.67
589.44	2214.74
589.79	2209.55
590.14	2205.15
590.49	2200.14
590.84	2193.87
591.19	2188.39
591.54	2181.77
591.89	2174.18
592.25	2167.48
592.60	2160.61
592.95	2153.33
593.30	2146.67
593.65	2139.48
594.00	2132.47
594.35	2125.92
594.70	2118.25
595.05	2111.90
595.40	2104.66
595.75	2097.64
596.10	2091.57
596.45	2085.98
596.80	2080.20
597.15	2073.96
597.50	2066.64
597.85	2060.23
598.19	2054.12
598.54	2047.14
598.89	2041.26
599.24	2036.00
599.59	2029.75
599.94	2023.59
600.29	2017.58
600.64	2011.01
600.99	2003.78
601.34	1997.02
601.69	1989.70
602.04	1983.15
602.39	1976.03
602.74	1970.00
603.08	1963.74
603.43	1957.25
603.78	1949.89
604.13	1942.43
604.48	1934.96
604.83	1928.03
605.18	1921.12
605.53	1912.71
605.87	1904.14
606.22	1896.72
606.57	1888.99
606.92	1881.28
607.27	1873.91
607.62	1866.81
607.96	1859.54
608.31	1852.77
608.66	1844.88
609.01	1836.92
609.36	1828.54
609.70	1819.69
610.05	1810.70
610.40	1802.20
610.75	1793.25
611.10	1784.61
611.44	1775.35
611.79	1767.20
612.14	1758.57
612.49	1749.02
612.83	1740.70
613.18	1732.66
613.53	1724.01
613.88	1715.06
614.22	1706.47
614.57	1697.10
614.92	1688.40
615.27	1680.03
615.61	1670.97
615.96	1662.53
616.31	1654.38
616.65	1647.29
617.00	1639.83
617.35	1631.96
617.70	1623.50
618.04	1615.16
618.39	1606.89
618.74	1599.36
619.08	1590.62
619.43	1582.50
619.78	1575.06
620.12	1567.12
620.47	1558.79
620.82	1550.48
621.16	1542.74
621.51	1534.61
621.85	1526.84
622.20	1518.10
622.55	1509.85
622.89	1502.06
623.24	1494.34
623.59	1486.61
623.93	1478.71
624.28	1470.60
624.62	1462.26
624.97	1454.56
625.32	1447.16
625.66	1439.95
626.01	1432.31
626.35	1424.71
626.70	1416.91
627.04	1409.40
627.39	1401.44
627.73	1393.77
628.08	1386.31
628.43	1378.35
628.77	1370.55
629.12	1362.28
629.46	1354.77
629.81	1346.15
630.15	1337.68
630.50	1329.52
630.84	1320.93
631.19	1312.07
631.53	1304.15
631.88	1295.94
632.22	1287.31
632.57	1279.40
632.91	1271.07
633.26	1262.61
633.60	1254.33
633.95	1246.25
634.29	1238.02
634.64	1230.90
634.98	1222.97
635.32	1215.61
635.67	1208.62
636.01	1201.57
636.36	1194.44
636.70	1187.30
637.05	1180.61
637.39	1173.90
637.73	1166.48
638.08	1159.98
638.42	1153.49
638.77	1146.35
639.11	1139.61
639.45	1132.84
639.80	1125.81
640.14	1118.94
640.49	1112.34
640.83	1105.61
641.17	1098.83
641.52	1092.02
641.86	1084.75
642.20	1078.21
642.55	1070.90
642.89	1063.90
643.23	1056.62
643.58	1050.15
643.92	1042.93
644.26	1036.14
644.61	1029.63
644.95	1023.12
645.29	1015.54
645.64	1008.21
645.98	1001.62
646.32	995.09
646.66	988.12
647.01	981.37
647.35	974.62
647.69	967.92
648.04	961.60
648.38	954.61
648.72	947.61
649.06	940.76
649.41	933.86
649.75	927.09
650.09	920.27
650.43	913.67
650.78	906.67
651.12	900.21
651.46	893.91
651.80	887.00
652.14	881.01
652.49	875.21
652.83	869.29
653.17	862.76
653.51	856.41
653.85	850.72
654.20	844.49
654.54	837.88
654.88	831.69
655.22	825.24
655.56	819.06
655.90	813.33
656.25	807.58
656.59	801.88
656.93	796.21
657.27	790.29
657.61	784.30
657.95	779.07
658.29	773.43
658.64	767.55
658.98	762.03
659.32	755.80
659.66	750.17
660.00	744.50
660.34	739.27
660.68	733.77
661.02	728.02
661.36	722.74
661.70	717.93
662.05	713.03
662.39	708.10
662.73	703.27
663.07	698.50
663.41	693.85
663.75	689.08
664.09	684.12
664.43	679.46
664.77	675.06
665.11	670.07
665.45	665.61
665.79	661.03
666.13	656.48
666.47	652.08
666.81	647.39
667.15	642.69
667.49	638.20
667.83	634.14
668.17	630.03
668.51	625.54
668.85	621.28
669.19	617.13
669.53	613.00
669.87	608.81
670.21	604.65
670.55	600.33
670.89	596.80
671.23	593.16
671.57	589.58
671.91	585.71
672.25	582.21
672.58	578.49
672.92	574.73
673.26	571.32
673.60	567.79
673.94	564.34
674.28	561.17
674.62	557.77
674.96	554.27
675.30	550.76
675.64	547.65
675.97	544.36
676.31	541.00
676.65	537.85
676.99	535.05
677.33	531.65
677.67	528.63
678.01	525.07
678.34	521.86
678.68	518.49
679.02	515.39
679.36	512.32
679.70	509.20
680.04	506.34
680.37	503.13
680.71	500.25
681.05	497.65
681.39	494.86
681.73	492.06
682.06	489.33
682.40	486.85
682.74	484.03
683.08	481.32
683.42	478.68
683.75	475.94
684.09	473.18
684.43	470.70
684.77	468.10
685.10	465.43
685.44	462.90
685.78	460.52
686.12	457.98
686.45	455.32
686.79	452.85
687.13	450.33
687.46	447.88
687.80	445.38
688.14	442.60
688.48	440.17
688.81	437.59
689.15	435.09
689.49	432.62
689.82	430.37
690.16	427.94
690.50	425.58
690.83	423.31
691.17	420.94
691.51	418.69
691.84	416.49
692.18	414.33
692.52	411.88
692.85	409.58
693.19	407.50
693.52	405.35
693.86	403.10
694.20	400.96
694.53	398.84
694.87	396.84
695.21	394.70
695.54	392.63
695.88	390.50
696.21	388.42
696.55	386.54
696.88	384.66
697.22	382.79
697.56	380.99
697.89	378.98
698.23	377.14
698.56	375.32
698.90	373.50
699.23	371.61
699.57	369.99
699.90	368.25
700.24	366.35
700.58	364.61
700.91	363.10
701.25	361.55
701.58	360.01
701.92	358.41
702.25	356.89
702.59	355.33
702.92	353.99
703.26	352.73
703.59	351.19
703.93	349.71
704.26	348.34
704.60	346.90
704.93	345.55
705.26	344.04
705.60	342.78
705.93	341.50
706.27	340.39
706.60	339.13
706.94	337.94
707.27	336.57
707.61	335.25
707.94	334.02
708.27	332.61
708.61	331.34
708.94	330.01
709.28	329.02
709.61	327.83
709.94	326.67
710.28	325.40
710.61	324.28
710.95	323.09
711.28	322.06
711.61	320.87
711.95	319.84
712.28	318.85
712.61	317.59
712.95	316.41
713.28	315.16
713.61	314.03
713.95	312.76
714.28	311.92
714.61	311.04
714.95	310.00
715.28	309.09
715.61	308.08
715.95	307.26
716.28	306.38
716.61	305.57
716.95	304.67
717.28	303.78
717.61	302.86
717.94	301.94
718.28	300.96
718.61	300.17
718.94	299.33
719.27	298.42
719.61	297.67
719.94	296.95
720.27	296.18
720.60	295.50
720.94	294.80
721.27	294.10
721.60	293.39
721.93	292.73
722.27	292.12
722.60	291.42
722.93	290.75
723.26	289.90
723.59	289.20
723.93	288.44
724.26	287.86
724.59	287.21
724.92	286.57
725.25	285.89
725.59	285.22
725.92	284.59
726.25	283.95
726.58	283.31
726.91	282.65
727.24	282.03
727.57	281.33
727.91	280.67
728.24	280.01
728.57	279.33
728.90	278.57
729.23	277.93
729.56	277.50
729.89	276.85
730.22	276.40
730.55	275.82
730.89	275.40
731.22	274.81
731.55	274.21
731.88	273.59
732.21	273.17
732.54	272.61
732.87	272.05
733.20	271.57
733.53	271.16
733.86	270.69
734.19	270.23
734.52	269.71
734.85	269.52
735.18	269.05
735.51	268.72
735.84	268.47
736.17	268.04
736.50	267.48
736.83	267.19
737.16	266.70
737.49	266.06
737.82	265.57
738.15	264.99
738.48	264.60
738.81	264.22
739.14	263.68
739.47	263.21
739.80	262.76
740.13	262.36
740.46	261.92
740.79	261.43
741.12	261.08
741.45	260.74
741.78	260.21
742.11	259.81
742.44	259.37
742.77	258.95
743.10	258.42
743.43	258.09
743.75	257.55
744.08	257.37
744.41	257.22
744.74	256.93
745.07	256.64
745.40	256.37
745.73	256.19
746.06	255.90
746.39	255.71
746.71	255.45
747.04	255.10
747.37	254.78
747.70	254.58
748.03	254.29
748.36	253.95
748.68	253.67
749.01	253.40
749.34	253.05
749.67	252.78
750.00	252.63
750.33	252.53
750.65	252.33
750.98	251.84
751.31	251.48
751.64	251.23
751.97	251.10
752.29	250.82
752.62	250.48
752.95	250.29
753.28	250.07
753.60	249.88
753.93	249.85
754.26	249.58
754.59	249.34
754.91	249.11
755.24	248.88
755.57	248.64
755.90	248.39
756.22	248.25
756.55	247.87
756.88	247.59
757.20	247.24
757.53	247.03
757.86	246.89
758.19	246.80
758.51	246.50
758.84	246.22
759.17	246.14
759.49	245.90
759.82	245.77
760.15	245.58
760.47	245.35
760.80	244.99
761.13	244.92
761.45	244.73
761.78	244.58
762.11	244.42
762.43	244.18
762.76	244.04
763.08	243.92
763.41	243.80
763.74	243.64
764.06	243.47
764.39	243.30
764.71	243.09
765.04	242.98
765.37	242.87
765.69	242.64
766.02	242.32
766.34	242.25
766.67	242.00
767.00	241.76
767.32	241.69
767.65	241.67
767.97	241.50
768.30	241.46
768.62	241.27
768.95	241.16
769.27	241.10
769.60	240.93
769.92	240.76
770.25	240.69
770.57	240.47
770.90	240.26
771.22	240.08
771.55	239.94
771.87	239.69
772.20	239.60
772.52	239.78
772.85	239.81
773.17	239.64
773.50	239.51
773.82	239.37
774.15	239.07
774.47	238.84
774.80	238.65
775.12	238.49
775.45	238.36
775.77	238.29
776.09	238.18
776.42	238.07
776.74	237.92
777.07	237.74
777.39	237.71
777.72	237.70
778.04	237.59
778.36	237.48
778.69	237.38
779.01	237.28
779.33	236.95
779.66	236.70
779.98	236.62
780.31	236.44
780.63	236.42
780.95	236.47
781.28	236.35
781.60	236.21
781.92	236.07
782.25	236.00
782.57	235.81
782.89	235.69
783.22	235.60
783.54	235.59
783.86	235.53
784.19	235.50
784.51	235.31
784.83	235.20
785.16	235.05
785.48	235.03
785.80	234.94
786.12	234.76
786.45	234.72
786.77	234.58
