SpectraSuite Data File
++++++++++++++++++++++++++++++++++++
Date: Fri Feb 01 14:37:39 EST 2013
User: group
Dark Spectrum Present: No
Reference Spectrum Present: No
Number of Sampled Component Spectra: 1
Spectrometers: USB2E7196
Integration Time (usec): 70000 (USB2E7196)
Spectra Averaged: 10 (USB2E7196)
Boxcar Smoothing: 10 (USB2E7196)
Correct for Electrical Dark: No (USB2E7196)
Strobe/Lamp Enabled: No (USB2E7196)
Correct for Detector Non-linearity: No (USB2E7196)
Correct for Stray Light: No (USB2E7196)
Number of Pixels in Processed Spectrum: 2048
>>>>>Begin Processed Spectral Data<<<<<
339.09	0.00
339.48	215.20
339.86	217.20
340.24	219.20
340.63	220.20
341.01	224.20
341.39	223.60
341.78	223.10
342.16	224.20
342.54	226.60
342.93	214.23
343.31	224.99
343.69	225.57
344.07	226.08
344.46	226.46
344.84	226.83
345.22	226.92
345.60	227.03
345.99	227.30
346.37	227.55
346.75	227.55
347.13	227.55
347.52	227.43
347.90	227.60
348.28	227.58
348.66	227.71
349.05	227.60
349.43	227.61
349.81	227.62
350.19	227.67
350.57	227.69
350.96	227.62
351.34	227.75
351.72	227.85
352.10	227.90
352.48	227.94
352.87	227.99
353.25	228.07
353.63	228.20
354.01	228.16
354.39	228.28
354.77	228.41
355.15	228.62
355.54	228.90
355.92	228.85
356.30	228.94
356.68	229.08
357.06	229.30
357.44	229.45
357.82	229.46
358.20	229.54
358.58	229.67
358.97	229.89
359.35	230.00
359.73	230.01
360.11	230.10
360.49	230.20
360.87	230.21
361.25	230.36
361.63	230.50
362.01	230.60
362.39	230.45
362.77	230.51
363.15	230.52
363.53	230.51
363.91	230.48
364.29	230.50
364.67	230.31
365.05	230.28
365.43	230.19
365.81	230.29
366.19	230.24
366.57	230.22
366.95	230.14
367.33	230.08
367.71	229.99
368.09	230.00
368.47	229.95
368.85	229.91
369.23	229.84
369.61	229.72
369.99	229.80
370.37	229.80
370.75	229.83
371.13	229.67
371.51	229.55
371.89	229.49
372.27	229.38
372.65	229.36
373.03	229.25
373.41	229.23
373.78	229.06
374.16	228.94
374.54	228.82
374.92	228.64
375.30	228.57
375.68	228.47
376.06	228.36
376.44	228.29
376.82	228.26
377.19	228.20
377.57	228.02
377.95	227.81
378.33	227.80
378.71	227.55
379.09	227.56
379.47	227.48
379.84	227.38
380.22	227.29
380.60	227.14
380.98	227.10
381.36	226.99
381.73	226.89
382.11	226.90
382.49	226.84
382.87	226.78
383.25	226.62
383.62	226.90
384.00	226.69
384.38	226.63
384.76	226.52
385.13	226.51
385.51	226.53
385.89	226.47
386.27	226.37
386.64	226.34
387.02	226.17
387.40	226.16
387.78	226.18
388.15	226.20
388.53	226.11
388.91	226.10
389.29	226.04
389.66	226.15
390.04	226.05
390.42	226.03
390.79	226.07
391.17	225.98
391.55	225.60
391.92	225.61
392.30	225.65
392.68	225.63
393.05	225.64
393.43	225.68
393.81	225.78
394.18	225.70
394.56	225.84
394.94	225.91
395.31	225.89
395.69	225.98
396.06	226.06
396.44	226.14
396.82	226.13
397.19	226.20
397.57	226.15
397.95	226.28
398.32	226.35
398.70	226.36
399.07	226.63
399.45	226.82
399.82	227.02
400.20	227.11
400.58	227.21
400.95	227.30
401.33	227.49
401.70	227.69
402.08	227.85
402.45	227.95
402.83	228.20
403.20	228.50
403.58	228.69
403.95	228.88
404.33	229.22
404.71	229.45
405.08	229.86
405.46	230.02
405.83	230.24
406.21	230.41
406.58	230.70
406.96	230.84
407.33	231.13
407.70	231.43
408.08	231.83
408.45	232.26
408.83	232.53
409.20	232.76
409.58	233.00
409.95	233.47
410.33	233.77
410.70	234.11
411.08	234.41
411.45	234.77
411.82	235.17
412.20	235.50
412.57	236.12
412.95	236.46
413.32	237.08
413.69	237.66
414.07	238.34
414.44	239.02
414.82	239.88
415.19	240.62
415.56	241.39
415.94	242.17
416.31	243.09
416.68	244.17
417.06	245.33
417.43	246.40
417.81	247.45
418.18	248.75
418.55	249.99
418.93	251.41
419.30	252.88
419.67	254.37
420.04	256.04
420.42	257.55
420.79	259.51
421.16	261.36
421.54	263.34
421.91	265.17
422.28	267.21
422.66	269.19
423.03	271.43
423.40	273.53
423.77	275.85
424.15	278.14
424.52	280.43
424.89	282.87
425.26	285.38
425.64	287.84
426.01	290.27
426.38	293.10
426.75	295.87
427.13	298.83
427.50	301.88
427.87	304.93
428.24	308.09
428.61	311.05
428.99	314.48
429.36	317.96
429.73	321.50
430.10	324.98
430.47	328.51
430.85	332.13
431.22	336.14
431.59	340.27
431.96	344.12
432.33	348.43
432.70	352.76
433.08	357.61
433.45	362.33
433.82	367.22
434.19	372.38
434.56	377.38
434.93	382.13
435.30	386.86
435.68	392.09
436.05	397.30
436.42	402.35
436.79	407.02
437.16	412.03
437.53	417.56
437.90	422.74
438.27	427.97
438.64	433.34
439.01	438.24
439.38	442.77
439.75	447.20
440.13	452.12
440.50	456.90
440.87	460.91
441.24	464.85
441.61	469.42
441.98	472.65
442.35	476.62
442.72	480.67
443.09	484.68
443.46	487.33
443.83	489.04
444.20	490.71
444.57	492.83
444.94	494.10
445.31	495.22
445.68	496.65
446.05	497.60
446.42	497.55
446.79	497.59
447.16	497.40
447.53	497.38
447.90	496.01
448.27	494.59
448.64	492.13
449.01	490.70
449.37	487.46
449.74	484.57
450.11	481.13
450.48	477.17
450.85	473.12
451.22	469.63
451.59	466.45
451.96	463.20
452.33	458.88
452.70	455.12
453.07	450.42
453.43	445.62
453.80	440.80
454.17	436.29
454.54	431.92
454.91	427.17
455.28	422.59
455.65	418.24
456.02	413.94
456.38	410.46
456.75	405.75
457.12	401.78
457.49	397.90
457.86	393.96
458.23	390.68
458.59	386.96
458.96	383.13
459.33	379.85
459.70	376.65
460.07	373.93
460.43	370.80
460.80	367.81
461.17	365.08
461.54	362.49
461.91	360.00
462.27	357.29
462.64	354.99
463.01	352.50
463.38	350.21
463.74	347.64
464.11	345.38
464.48	343.61
464.85	341.66
465.21	340.00
465.58	338.26
465.95	336.07
466.32	334.23
466.68	332.61
467.05	330.79
467.42	329.10
467.78	327.39
468.15	325.62
468.52	324.36
468.88	322.67
469.25	321.13
469.62	319.85
469.98	318.53
470.35	317.26
470.72	316.04
471.08	314.68
471.45	313.55
471.82	312.31
472.18	310.85
472.55	309.77
472.92	308.68
473.28	307.60
473.65	306.62
474.02	305.67
474.38	304.74
474.75	304.07
475.11	303.14
475.48	302.39
475.85	301.70
476.21	301.13
476.58	300.68
476.94	300.18
477.31	299.54
477.67	299.06
478.04	298.62
478.41	298.23
478.77	297.94
479.14	297.49
479.50	297.10
479.87	296.97
480.23	296.80
480.60	296.40
480.96	296.15
481.33	295.96
481.69	295.75
482.06	295.53
482.42	295.23
482.79	295.10
483.15	294.91
483.52	294.97
483.88	294.75
484.25	294.61
484.61	294.63
484.98	294.49
485.34	294.47
485.71	294.48
486.07	294.61
486.44	294.70
486.80	294.90
487.17	295.22
487.53	295.36
487.90	295.67
488.26	296.01
488.62	296.23
488.99	296.51
489.35	296.92
489.72	297.35
490.08	297.83
490.44	298.20
490.81	298.77
491.17	299.19
491.54	299.76
491.90	300.27
492.26	300.78
492.63	301.48
492.99	302.00
493.36	302.52
493.72	303.11
494.08	303.68
494.45	304.34
494.81	305.07
495.17	305.85
495.54	306.40
495.90	307.17
496.26	307.95
496.63	308.77
496.99	309.50
497.35	310.23
497.72	310.87
498.08	311.59
498.44	312.32
498.80	312.99
499.17	313.65
499.53	314.31
499.89	314.92
500.26	315.57
500.62	316.20
500.98	316.94
501.34	317.50
501.71	318.08
502.07	318.65
502.43	319.08
502.79	319.40
503.16	319.92
503.52	320.39
503.88	320.72
504.24	321.10
504.60	321.51
504.97	321.87
505.33	322.40
505.69	322.95
506.05	323.21
506.41	323.50
506.78	323.79
507.14	324.00
507.50	324.27
507.86	324.47
508.22	324.80
508.59	324.90
508.95	325.02
509.31	325.20
509.67	325.27
510.03	325.36
510.39	325.68
510.75	325.70
511.12	325.79
511.48	325.92
511.84	325.92
512.20	325.88
512.56	326.00
512.92	325.98
513.28	325.99
513.64	326.00
514.00	326.15
514.37	326.20
514.73	326.40
515.09	326.53
515.45	326.54
515.81	326.60
516.17	326.77
516.53	327.00
516.89	327.20
517.25	327.49
517.61	327.84
517.97	328.12
518.33	328.51
518.69	328.79
519.05	329.16
519.41	329.77
519.77	330.50
520.13	330.99
520.49	331.45
520.85	332.04
521.21	332.94
521.57	333.58
521.93	334.19
522.29	335.05
522.65	335.88
523.01	336.96
523.37	337.97
523.73	339.06
524.09	340.14
524.45	341.36
524.81	342.62
525.17	343.88
525.53	345.23
525.89	346.68
526.25	348.35
526.61	349.95
526.97	351.57
527.33	353.17
527.68	355.18
528.04	357.00
528.40	359.05
528.76	361.11
529.12	363.36
529.48	365.62
529.84	367.84
530.20	370.08
530.56	372.48
530.91	375.08
531.27	377.70
531.63	380.41
531.99	383.24
532.35	386.05
532.71	389.03
533.07	392.03
533.42	395.48
533.78	398.63
534.14	402.05
534.50	405.24
534.86	408.73
535.21	412.04
535.57	415.87
535.93	419.36
536.29	423.00
536.65	426.57
537.00	430.31
537.36	434.27
537.72	438.49
538.08	442.59
538.44	446.63
538.79	450.69
539.15	454.91
539.51	459.20
539.87	463.57
540.22	468.12
540.58	472.58
540.94	476.72
541.29	481.05
541.65	485.37
542.01	490.13
542.37	494.76
542.72	499.40
543.08	503.99
543.44	508.70
543.79	513.30
544.15	518.26
544.51	523.43
544.87	528.39
545.22	533.10
545.58	537.95
545.94	542.74
546.29	547.91
546.65	552.75
547.01	557.56
547.36	562.60
547.72	567.20
548.07	572.11
548.43	577.18
548.79	582.01
549.14	586.85
549.50	591.64
549.86	596.52
550.21	601.44
550.57	606.45
550.92	611.43
551.28	616.41
551.64	621.41
551.99	626.37
552.35	631.18
552.70	636.35
553.06	641.25
553.41	646.26
553.77	651.06
554.13	656.03
554.48	661.01
554.84	665.85
555.19	670.84
555.55	675.89
555.90	680.43
556.26	685.61
556.61	690.47
556.97	695.12
557.32	699.87
557.68	704.84
558.03	709.66
558.39	714.47
558.74	719.37
559.10	724.04
559.45	728.54
559.81	733.30
560.16	737.60
560.52	742.16
560.87	746.89
561.23	751.12
561.58	755.69
561.94	760.01
562.29	764.11
562.64	768.28
563.00	772.45
563.35	777.01
563.71	781.14
564.06	785.42
564.42	789.75
564.77	793.74
565.12	797.65
565.48	801.48
565.83	804.90
566.19	808.75
566.54	812.36
566.89	816.06
567.25	819.95
567.60	824.01
567.96	827.82
568.31	831.53
568.66	835.20
569.02	838.58
569.37	841.85
569.72	845.13
570.08	848.44
570.43	851.58
570.78	854.48
571.14	857.32
571.49	860.30
571.84	863.37
572.20	866.33
572.55	869.22
572.90	871.62
573.26	874.84
573.61	877.44
573.96	879.65
574.31	881.79
574.67	883.52
575.02	885.16
575.37	887.00
575.72	888.36
576.08	890.17
576.43	891.91
576.78	893.68
577.13	895.55
577.49	897.35
577.84	898.74
578.19	900.09
578.54	901.40
578.90	902.90
579.25	903.96
579.60	904.90
579.95	905.66
580.30	906.92
580.66	907.40
581.01	908.06
581.36	909.23
581.71	910.33
582.06	911.25
582.42	912.16
582.77	912.78
583.12	913.59
583.47	914.33
583.82	914.87
584.17	915.25
584.53	915.78
584.88	916.22
585.23	916.92
585.58	917.44
585.93	917.91
586.28	918.13
586.63	918.30
586.98	918.86
587.34	919.14
587.69	919.44
588.04	919.62
588.39	919.78
588.74	919.49
589.09	919.34
589.44	918.90
589.79	918.66
590.14	918.61
590.49	918.26
590.84	917.86
591.19	917.74
591.54	917.07
591.89	915.86
592.25	915.23
592.60	914.20
592.95	913.35
593.30	912.44
593.65	911.22
594.00	910.31
594.35	909.68
594.70	908.21
595.05	907.28
595.40	906.07
595.75	904.64
596.10	903.92
596.45	902.78
596.80	902.16
597.15	901.23
597.50	899.85
597.85	898.71
598.19	897.63
598.54	896.34
598.89	895.49
599.24	894.90
599.59	893.60
599.94	892.41
600.29	891.12
600.64	890.01
600.99	889.00
601.34	887.76
601.69	885.86
602.04	884.94
602.39	883.30
602.74	882.42
603.08	881.18
603.43	879.66
603.78	878.17
604.13	876.69
604.48	874.77
604.83	873.39
605.18	872.11
605.53	870.24
605.87	868.09
606.22	866.23
606.57	864.20
606.92	862.40
607.27	860.67
607.62	859.30
607.96	857.38
608.31	855.73
608.66	853.65
609.01	851.43
609.36	848.90
609.70	846.18
610.05	843.44
610.40	841.12
610.75	838.51
611.10	835.96
611.44	832.94
611.79	830.90
612.14	828.13
612.49	824.92
612.83	822.06
613.18	819.56
613.53	817.05
613.88	814.24
614.22	811.40
614.57	808.40
614.92	805.31
615.27	802.70
615.61	799.62
615.96	796.84
616.31	794.45
616.65	792.41
617.00	790.14
617.35	787.67
617.70	784.94
618.04	782.26
618.39	779.73
618.74	777.32
619.08	774.33
619.43	771.76
619.78	769.41
620.12	766.92
620.47	764.37
620.82	761.30
621.16	758.91
621.51	756.42
621.85	753.94
622.20	751.17
622.55	748.20
622.89	745.63
623.24	743.09
623.59	740.40
623.93	737.52
624.28	734.81
624.62	732.56
624.97	730.18
625.32	727.75
625.66	725.20
626.01	722.51
626.35	719.94
626.70	717.43
627.04	714.86
627.39	712.15
627.73	709.43
628.08	707.21
628.43	704.56
628.77	701.64
629.12	698.67
629.46	696.05
629.81	693.22
630.15	690.21
630.50	687.36
630.84	684.26
631.19	681.27
631.53	678.38
631.88	675.03
632.22	672.08
632.57	669.31
632.91	666.32
633.26	663.60
633.60	660.60
633.95	657.62
634.29	654.90
634.64	652.43
634.98	649.85
635.32	647.03
635.67	644.41
636.01	641.87
636.36	639.46
636.70	636.97
637.05	634.67
637.39	632.37
637.73	629.96
638.08	627.75
638.42	625.47
638.77	623.13
639.11	620.52
639.45	617.62
639.80	615.02
640.14	612.70
640.49	610.14
640.83	607.72
641.17	605.38
641.52	602.66
641.86	600.09
642.20	597.55
642.55	594.99
642.89	592.46
643.23	590.10
643.58	587.75
643.92	584.83
644.26	582.20
644.61	579.75
644.95	577.12
645.29	574.40
645.64	571.72
645.98	569.14
646.32	566.88
646.66	564.55
647.01	561.97
647.35	559.34
647.69	556.85
648.04	554.50
648.38	551.86
648.72	549.35
649.06	546.52
649.41	543.94
649.75	541.26
650.09	538.64
650.43	535.85
650.78	533.04
651.12	530.55
651.46	528.09
651.80	525.46
652.14	523.02
652.49	520.74
652.83	518.32
653.17	515.82
653.51	513.06
653.85	510.72
654.20	508.25
654.54	505.85
654.88	503.29
655.22	500.65
655.56	498.20
655.90	495.74
656.25	493.55
656.59	491.29
656.93	489.12
657.27	486.95
657.61	484.76
657.95	482.65
658.29	480.55
658.64	478.25
658.98	475.90
659.32	473.31
659.66	470.84
660.00	468.53
660.34	466.19
660.68	464.10
661.02	461.85
661.36	459.70
661.70	457.42
662.05	455.48
662.39	453.62
662.73	451.61
663.07	449.71
663.41	447.69
663.75	445.57
664.09	443.60
664.43	441.30
664.77	439.35
665.11	437.35
665.45	435.47
665.79	433.58
666.13	431.62
666.47	430.02
666.81	428.20
667.15	426.28
667.49	424.49
667.83	422.92
668.17	420.97
668.51	419.11
668.85	417.40
669.19	415.61
669.53	413.75
669.87	411.85
670.21	410.22
670.55	408.41
670.89	406.96
671.23	405.31
671.57	403.82
671.91	402.23
672.25	400.51
672.58	398.98
672.92	397.49
673.26	396.05
673.60	394.36
673.94	392.81
674.28	391.35
674.62	390.04
674.96	388.51
675.30	387.26
675.64	385.86
675.97	384.46
676.31	383.08
676.65	381.68
676.99	380.50
677.33	378.94
677.67	377.60
678.01	375.99
678.34	374.58
678.68	373.30
679.02	371.85
679.36	370.57
679.70	369.20
680.04	367.79
680.37	366.36
680.71	365.13
681.05	364.06
681.39	362.94
681.73	361.75
682.06	360.53
682.40	359.17
682.74	357.95
683.08	356.90
683.42	355.59
683.75	354.39
684.09	353.13
684.43	351.96
684.77	350.80
685.10	349.72
685.44	348.52
685.78	347.30
686.12	346.15
686.45	345.02
686.79	343.75
687.13	342.64
687.46	341.65
687.80	340.56
688.14	339.37
688.48	338.17
688.81	337.02
689.15	335.85
689.49	334.86
689.82	333.82
690.16	332.64
690.50	331.58
690.83	330.38
691.17	329.21
691.51	328.17
691.84	327.14
692.18	326.05
692.52	324.95
692.85	323.84
693.19	322.92
693.52	321.87
693.86	320.82
694.20	319.78
694.53	318.62
694.87	317.68
695.21	316.59
695.54	315.61
695.88	314.51
696.21	313.49
696.55	312.48
696.88	311.48
697.22	310.46
697.56	309.57
697.89	308.70
698.23	307.89
698.56	306.98
698.90	306.33
699.23	305.34
699.57	304.48
699.90	303.70
700.24	302.83
700.58	302.09
700.91	301.32
701.25	300.54
701.58	299.93
701.92	299.10
702.25	298.38
702.59	297.59
702.92	296.85
703.26	296.21
703.59	295.57
703.93	294.99
704.26	294.31
704.60	293.66
704.93	293.00
705.26	292.32
705.60	291.78
705.93	290.92
706.27	290.43
706.60	289.87
706.94	289.30
707.27	288.44
707.61	287.74
707.94	287.17
708.27	286.50
708.61	285.83
708.94	285.29
709.28	284.70
709.61	284.14
709.94	283.79
710.28	283.14
710.61	282.47
710.95	281.68
711.28	281.12
711.61	280.51
711.95	279.94
712.28	279.33
712.61	278.68
712.95	278.19
713.28	277.54
713.61	276.93
713.95	276.19
714.28	275.71
714.61	275.20
714.95	274.60
715.28	274.07
715.61	273.43
715.95	272.84
716.28	272.32
716.61	271.77
716.95	271.09
717.28	270.59
717.61	270.10
717.94	269.71
718.28	269.11
718.61	268.60
718.94	268.05
719.27	267.61
719.61	267.28
719.94	266.78
720.27	266.38
720.60	266.04
720.94	265.74
721.27	265.54
721.60	265.19
721.93	264.87
722.27	264.60
722.60	264.26
722.93	263.98
723.26	263.62
723.59	263.33
723.93	263.03
724.26	262.80
724.59	262.40
724.92	262.18
725.25	261.91
725.59	261.59
725.92	261.52
726.25	261.14
726.58	260.74
726.91	260.45
727.24	260.19
727.57	259.81
727.91	259.44
728.24	259.15
728.57	258.81
728.90	258.54
729.23	258.13
729.56	257.98
729.89	257.68
730.22	257.44
730.55	257.05
730.89	256.78
731.22	256.38
731.55	256.19
731.88	255.93
732.21	255.71
732.54	255.42
732.87	255.00
733.20	254.73
733.53	254.42
733.86	254.12
734.19	253.80
734.52	253.58
734.85	253.55
735.18	253.12
735.51	252.89
735.84	252.67
736.17	252.52
736.50	252.11
736.83	252.01
737.16	251.73
737.49	251.65
737.82	251.46
738.15	251.30
738.48	251.11
738.81	250.76
739.14	250.46
739.47	250.31
739.80	250.13
740.13	249.91
740.46	249.74
740.79	249.55
741.12	249.32
741.45	249.15
741.78	248.81
742.11	248.74
742.44	248.52
742.77	248.23
743.10	247.87
743.43	247.58
743.75	247.22
744.08	247.21
744.41	246.84
744.74	246.48
745.07	246.27
745.40	246.01
745.73	245.88
746.06	245.64
746.39	245.40
746.71	245.10
747.04	244.93
747.37	244.60
747.70	244.35
748.03	244.11
748.36	243.79
748.68	243.49
749.01	243.30
749.34	243.11
749.67	242.93
750.00	242.90
750.33	242.91
750.65	242.69
750.98	242.25
751.31	242.16
751.64	242.06
751.97	241.82
752.29	241.69
752.62	241.40
752.95	241.30
753.28	241.11
753.60	241.00
753.93	240.89
754.26	240.72
754.59	240.57
754.91	240.43
755.24	240.25
755.57	240.21
755.90	239.88
756.22	239.66
756.55	239.58
756.88	239.40
757.20	239.19
757.53	238.94
757.86	238.81
758.19	238.70
758.51	238.64
758.84	238.61
759.17	238.42
759.49	238.29
759.82	238.21
760.15	238.11
760.47	237.94
760.80	237.78
761.13	237.80
761.45	237.69
761.78	237.57
762.11	237.50
762.43	237.34
762.76	237.28
763.08	237.25
763.41	237.03
763.74	236.91
764.06	236.80
764.39	236.84
764.71	236.81
765.04	236.75
765.37	236.58
765.69	236.43
766.02	236.38
766.34	236.35
766.67	236.23
767.00	236.21
767.32	236.34
767.65	236.54
767.97	236.41
768.30	236.34
768.62	236.37
768.95	236.33
769.27	236.27
769.60	236.26
769.92	236.25
770.25	236.27
770.57	236.21
770.90	236.21
771.22	236.02
771.55	235.95
771.87	235.87
772.20	235.87
772.52	236.00
772.85	236.24
773.17	236.13
773.50	236.07
773.82	235.95
774.15	235.78
774.47	235.49
774.80	235.53
775.12	235.58
775.45	235.50
775.77	235.52
776.09	235.50
776.42	235.49
776.74	235.47
777.07	235.43
777.39	235.37
777.72	235.21
778.04	235.23
778.36	235.08
778.69	235.01
779.01	235.00
779.33	234.70
779.66	234.40
779.98	234.37
780.31	234.30
780.63	234.30
780.95	234.34
781.28	234.29
781.60	234.21
781.92	234.14
782.25	234.10
782.57	234.02
782.89	233.87
783.22	233.83
783.54	233.67
783.86	233.45
784.19	233.36
784.51	233.47
784.83	233.40
785.16	233.43
785.48	233.31
785.80	233.12
786.12	233.15
786.45	232.99
786.77	232.94
787.09	232.91
787.42	232.74
787.74	232.57
788.06	232.37
788.38	232.27
788.71	232.15
789.03	231.99
789.35	231.88
789.67	231.77
789.99	231.65
790.32	231.60
790.64	231.78
790.96	231.89
791.28	231.65
791.61	231.53
791.93	231.48
792.25	231.51
792.57	231.58
792.89	231.40
793.21	231.44
793.54	231.36
793.86	231.21
794.18	231.28
