SpectraSuite Data File
++++++++++++++++++++++++++++++++++++
Date: Fri Feb 01 14:41:36 EST 2013
User: group
Dark Spectrum Present: No
Reference Spectrum Present: No
Number of Sampled Component Spectra: 1
Spectrometers: USB2E7196
Integration Time (usec): 70000 (USB2E7196)
Spectra Averaged: 10 (USB2E7196)
Boxcar Smoothing: 10 (USB2E7196)
Correct for Electrical Dark: No (USB2E7196)
Strobe/Lamp Enabled: No (USB2E7196)
Correct for Detector Non-linearity: No (USB2E7196)
Correct for Stray Light: No (USB2E7196)
Number of Pixels in Processed Spectrum: 2048
>>>>>Begin Processed Spectral Data<<<<<
339.09	0.00
339.48	216.80
339.86	218.40
340.24	218.10
340.63	220.40
341.01	225.10
341.39	222.40
341.78	223.60
342.16	224.50
342.54	225.50
342.93	214.55
343.31	225.37
343.69	225.82
344.07	226.29
344.46	226.83
344.84	227.20
345.22	227.28
345.60	227.63
345.99	227.84
346.37	228.15
346.75	228.30
347.13	228.43
347.52	228.34
347.90	228.49
348.28	228.54
348.66	228.64
349.05	228.80
349.43	228.90
349.81	228.90
350.19	228.94
350.57	229.06
350.96	229.30
351.34	229.38
351.72	229.55
352.10	229.59
352.48	229.62
352.87	229.70
353.25	229.76
353.63	229.73
354.01	229.89
354.39	229.81
354.77	229.88
355.15	230.03
355.54	230.18
355.92	230.17
356.30	230.22
356.68	230.35
357.06	230.28
357.44	230.27
357.82	230.25
358.20	230.40
358.58	230.43
358.97	230.34
359.35	230.50
359.73	230.49
360.11	230.60
360.49	230.67
360.87	230.78
361.25	230.92
361.63	231.05
362.01	231.02
362.39	231.13
362.77	231.23
363.15	231.17
363.53	231.16
363.91	231.13
364.29	231.09
364.67	230.93
365.05	230.97
365.43	231.01
365.81	231.09
366.19	231.06
366.57	231.14
366.95	231.16
367.33	231.05
367.71	231.17
368.09	231.16
368.47	231.10
368.85	230.97
369.23	230.86
369.61	230.77
369.99	230.78
370.37	230.68
370.75	230.60
371.13	230.39
371.51	230.32
371.89	230.26
372.27	230.25
372.65	230.23
373.03	230.19
373.41	230.11
373.78	229.95
374.16	229.91
374.54	229.75
374.92	229.60
375.30	229.54
375.68	229.31
376.06	229.20
376.44	229.15
376.82	229.21
377.19	229.20
377.57	229.07
377.95	228.95
378.33	228.86
378.71	228.67
379.09	228.80
379.47	228.82
379.84	228.67
380.22	228.57
380.60	228.40
380.98	228.25
381.36	228.10
381.73	228.10
382.11	228.02
382.49	228.00
382.87	227.95
383.25	227.93
383.62	228.10
384.00	227.98
384.38	227.92
384.76	227.83
385.13	227.84
385.51	227.85
385.89	227.75
386.27	227.69
386.64	227.69
387.02	227.63
387.40	227.61
387.78	227.73
388.15	227.67
388.53	227.77
388.91	227.81
389.29	227.84
389.66	227.74
390.04	227.67
390.42	227.64
390.79	227.69
391.17	227.61
391.55	227.50
391.92	227.59
392.30	227.60
392.68	227.52
393.05	227.48
393.43	227.52
393.81	227.65
394.18	227.77
394.56	227.92
394.94	227.93
395.31	227.89
395.69	227.99
396.06	228.13
396.44	228.18
396.82	228.22
397.19	228.42
397.57	228.56
397.95	228.67
398.32	228.71
398.70	228.84
399.07	229.02
399.45	229.03
399.82	229.04
400.20	229.10
400.58	229.30
400.95	229.36
401.33	229.57
401.70	229.74
402.08	229.80
402.45	229.91
402.83	230.11
403.20	230.30
403.58	230.38
403.95	230.70
404.33	231.02
404.71	231.20
405.08	231.52
405.46	231.61
405.83	231.90
406.21	232.11
406.58	232.26
406.96	232.48
407.33	232.72
407.70	233.08
408.08	233.40
408.45	233.63
408.83	234.06
409.20	234.21
409.58	234.43
409.95	234.81
410.33	235.13
410.70	235.38
411.08	235.78
411.45	236.26
411.82	236.49
412.20	236.78
412.57	237.39
412.95	237.58
413.32	238.22
413.69	238.70
414.07	239.14
414.44	239.79
414.82	240.35
415.19	241.07
415.56	241.66
415.94	242.40
416.31	243.19
416.68	244.01
417.06	244.93
417.43	245.85
417.81	246.77
418.18	247.66
418.55	248.77
418.93	249.90
419.30	250.97
419.67	252.20
420.04	253.43
420.42	254.67
420.79	256.32
421.16	257.78
421.54	259.35
421.91	261.06
422.28	262.71
422.66	264.58
423.03	266.38
423.40	268.17
423.77	270.05
424.15	271.97
424.52	273.74
424.89	276.04
425.26	278.07
425.64	280.03
426.01	282.29
426.38	284.57
426.75	286.80
427.13	289.04
427.50	291.44
427.87	293.85
428.24	296.26
428.61	298.44
428.99	301.11
429.36	303.86
429.73	306.60
430.10	309.26
430.47	311.94
430.85	314.61
431.22	317.59
431.59	320.75
431.96	323.70
432.33	327.01
432.70	330.02
433.08	333.71
433.45	337.15
433.82	340.52
434.19	344.32
434.56	348.03
434.93	351.52
435.30	355.07
435.68	359.04
436.05	362.78
436.42	366.66
436.79	369.95
437.16	373.51
437.53	377.19
437.90	380.94
438.27	384.63
438.64	388.47
439.01	391.91
439.38	394.71
439.75	397.40
440.13	400.65
440.50	403.69
440.87	406.27
441.24	408.92
441.61	411.80
441.98	413.54
442.35	415.73
442.72	418.19
443.09	420.30
443.46	421.50
443.83	422.15
444.20	422.60
444.57	423.64
444.94	423.99
445.31	424.43
445.68	424.95
446.05	425.00
446.42	424.37
446.79	423.80
447.16	423.30
447.53	423.02
447.90	421.54
448.27	420.02
448.64	417.76
449.01	416.21
449.37	413.46
449.74	410.94
450.11	408.01
450.48	404.74
450.85	401.43
451.22	398.55
451.59	395.94
451.96	393.37
452.33	389.92
452.70	386.82
453.07	383.14
453.43	379.14
453.80	375.31
454.17	371.85
454.54	368.52
454.91	364.87
455.28	361.43
455.65	358.20
456.02	355.06
456.38	352.23
456.75	348.67
457.12	345.68
457.49	342.93
457.86	340.04
458.23	337.58
458.59	334.93
458.96	332.20
459.33	329.83
459.70	327.28
460.07	325.21
460.43	322.90
460.80	320.66
461.17	318.67
461.54	316.57
461.91	314.58
462.27	312.42
462.64	310.71
463.01	308.69
463.38	306.80
463.74	304.80
464.11	303.20
464.48	301.82
464.85	300.48
465.21	299.20
465.58	298.01
465.95	296.51
466.32	295.31
466.68	294.10
467.05	292.81
467.42	291.72
467.78	290.42
468.15	289.18
468.52	288.30
468.88	287.13
469.25	286.10
469.62	285.24
469.98	284.40
470.35	283.59
470.72	282.84
471.08	281.97
471.45	281.19
471.82	280.40
472.18	279.61
472.55	278.88
472.92	278.16
473.28	277.40
473.65	276.86
474.02	276.10
474.38	275.47
474.75	274.91
475.11	274.34
475.48	273.95
475.85	273.54
476.21	273.09
476.58	272.77
476.94	272.60
477.31	272.28
477.67	271.97
478.04	271.68
478.41	271.47
478.77	271.48
479.14	271.22
479.50	271.10
479.87	270.88
480.23	270.88
480.60	270.80
480.96	270.82
481.33	270.76
481.69	270.92
482.06	271.02
482.42	271.18
482.79	271.31
483.15	271.49
483.52	271.84
483.88	272.06
484.25	272.30
484.61	272.54
484.98	272.87
485.34	273.38
485.71	273.87
486.07	274.31
486.44	274.66
486.80	275.30
487.17	275.87
487.53	276.66
487.90	277.34
488.26	278.16
488.62	279.04
488.99	279.85
489.35	280.85
489.72	281.82
490.08	282.91
490.44	284.16
490.81	285.36
491.17	286.57
491.54	288.04
491.90	289.58
492.26	291.21
492.63	293.08
492.99	294.78
493.36	296.67
493.72	298.75
494.08	300.95
494.45	303.30
494.81	305.77
495.17	308.22
495.54	310.95
495.90	313.80
496.26	316.78
496.63	320.08
496.99	323.36
497.35	326.94
497.72	330.46
498.08	334.13
498.44	338.04
498.80	342.22
499.17	346.51
499.53	350.99
499.89	355.68
500.26	360.31
500.62	365.32
500.98	370.73
501.34	376.05
501.71	381.62
502.07	387.46
502.43	393.48
502.79	399.75
503.16	406.28
503.52	413.10
503.88	420.10
504.24	427.43
504.60	435.01
504.97	442.85
505.33	451.12
505.69	459.76
506.05	468.57
506.41	477.43
506.78	486.41
507.14	495.71
507.50	505.36
507.86	515.51
508.22	526.09
508.59	536.60
508.95	547.71
509.31	559.09
509.67	570.89
510.03	582.96
510.39	595.16
510.75	607.88
511.12	620.58
511.48	633.74
511.84	647.04
512.20	660.59
512.56	674.61
512.92	688.79
513.28	703.32
513.64	718.01
514.00	733.19
514.37	748.92
514.73	764.75
515.09	780.57
515.45	796.90
515.81	813.24
516.17	830.19
516.53	847.33
516.89	864.36
517.25	881.47
517.61	899.03
517.97	916.96
518.33	934.20
518.69	952.34
519.05	970.72
519.41	989.38
519.77	1008.39
520.13	1027.57
520.49	1046.79
520.85	1066.04
521.21	1085.42
521.57	1105.59
521.93	1125.20
522.29	1145.77
522.65	1165.84
523.01	1185.79
523.37	1205.79
523.73	1225.77
524.09	1245.96
524.45	1267.11
524.81	1287.87
525.17	1308.95
525.53	1330.08
525.89	1351.80
526.25	1373.11
526.61	1394.26
526.97	1415.73
527.33	1436.98
527.68	1458.50
528.04	1479.72
528.40	1500.94
528.76	1523.43
529.12	1544.89
529.48	1566.74
529.84	1587.39
530.20	1609.24
530.56	1631.02
530.91	1653.90
531.27	1676.41
531.63	1698.01
531.99	1719.42
532.35	1740.87
532.71	1761.55
533.07	1783.37
533.42	1804.39
533.78	1825.61
534.14	1846.99
534.50	1867.00
534.86	1887.46
535.21	1907.35
535.57	1928.94
535.93	1950.06
536.29	1969.95
536.65	1989.99
537.00	2009.82
537.36	2030.34
537.72	2049.72
538.08	2069.29
538.44	2087.35
538.79	2105.78
539.15	2124.05
539.51	2143.31
539.87	2162.17
540.22	2181.03
540.58	2198.92
540.94	2217.64
541.29	2235.30
541.65	2252.64
542.01	2271.08
542.37	2288.88
542.72	2306.26
543.08	2322.12
543.44	2338.97
543.79	2354.38
544.15	2370.58
544.51	2387.17
544.87	2402.68
545.22	2418.49
545.58	2433.60
545.94	2447.79
546.29	2462.20
546.65	2476.99
547.01	2490.08
547.36	2503.91
547.72	2517.16
548.07	2529.89
548.43	2542.10
548.79	2554.52
549.14	2566.31
549.50	2577.22
549.86	2588.47
550.21	2599.50
550.57	2610.68
550.92	2621.05
551.28	2631.80
551.64	2641.63
551.99	2651.60
552.35	2661.30
552.70	2671.03
553.06	2680.88
553.41	2691.24
553.77	2700.37
554.13	2709.67
554.48	2718.82
554.84	2726.72
555.19	2735.25
555.55	2743.77
555.90	2751.21
556.26	2758.87
556.61	2766.79
556.97	2774.06
557.32	2781.38
557.68	2788.83
558.03	2795.90
558.39	2802.20
558.74	2810.24
559.10	2816.78
559.45	2822.84
559.81	2830.21
560.16	2836.17
560.52	2841.68
560.87	2847.71
561.23	2852.39
561.58	2857.52
561.94	2862.34
562.29	2866.86
562.64	2870.50
563.00	2874.46
563.35	2879.21
563.71	2884.37
564.06	2888.92
564.42	2893.72
564.77	2897.90
565.12	2902.08
565.48	2905.89
565.83	2909.19
566.19	2911.69
566.54	2914.00
566.89	2916.44
567.25	2917.77
567.60	2920.60
567.96	2922.37
568.31	2923.30
568.66	2925.26
569.02	2926.83
569.37	2927.42
569.72	2928.70
570.08	2930.31
570.43	2930.87
570.78	2931.07
571.14	2929.72
571.49	2929.10
571.84	2929.50
572.20	2927.93
572.55	2925.84
572.90	2923.75
573.26	2922.28
573.61	2920.61
573.96	2918.91
574.31	2915.53
574.67	2911.74
575.02	2907.86
575.37	2904.72
575.72	2900.86
576.08	2897.62
576.43	2893.71
576.78	2890.23
577.13	2887.06
577.49	2883.22
577.84	2879.22
578.19	2875.13
578.54	2870.58
578.90	2864.93
579.25	2858.49
579.60	2853.13
579.95	2847.41
580.30	2841.09
580.66	2834.78
581.01	2827.93
581.36	2822.26
581.71	2817.68
582.06	2812.31
582.42	2806.07
582.77	2799.28
583.12	2793.20
583.47	2787.00
583.82	2780.58
584.17	2773.69
584.53	2766.53
584.88	2759.92
585.23	2753.21
585.58	2746.44
585.93	2739.63
586.28	2733.98
586.63	2727.77
586.98	2721.45
587.34	2715.65
587.69	2709.08
588.04	2702.43
588.39	2695.95
588.74	2687.69
589.09	2678.79
589.44	2670.51
589.79	2663.39
590.14	2657.45
590.49	2650.37
590.84	2642.59
591.19	2634.94
591.54	2626.26
591.89	2616.81
592.25	2608.05
592.60	2598.77
592.95	2589.18
593.30	2580.53
593.65	2571.10
594.00	2561.62
594.35	2552.79
594.70	2542.88
595.05	2534.48
595.40	2524.80
595.75	2515.11
596.10	2506.87
596.45	2499.27
596.80	2491.79
597.15	2483.34
597.50	2473.73
597.85	2464.37
598.19	2455.96
598.54	2447.21
598.89	2439.35
599.24	2432.44
599.59	2423.83
599.94	2415.79
600.29	2407.71
600.64	2399.47
600.99	2389.80
601.34	2381.10
601.69	2371.87
602.04	2363.08
602.39	2354.16
602.74	2346.85
603.08	2338.75
603.43	2330.29
603.78	2321.08
604.13	2311.62
604.48	2302.16
604.83	2293.07
605.18	2284.43
605.53	2274.00
605.87	2263.86
606.22	2254.66
606.57	2244.33
606.92	2234.80
607.27	2225.73
607.62	2216.69
607.96	2207.20
608.31	2199.14
608.66	2189.29
609.01	2179.36
609.36	2169.21
609.70	2158.33
610.05	2147.19
610.40	2136.84
610.75	2126.08
611.10	2116.05
611.44	2105.23
611.79	2094.93
612.14	2084.29
612.49	2072.81
612.83	2062.33
613.18	2051.44
613.53	2040.55
613.88	2029.63
614.22	2018.55
614.57	2006.97
614.92	1996.08
615.27	1985.47
615.61	1973.98
615.96	1963.22
616.31	1953.24
616.65	1943.79
617.00	1934.09
617.35	1924.02
617.70	1913.40
618.04	1903.00
618.39	1892.36
618.74	1882.30
619.08	1871.41
619.43	1861.38
619.78	1852.02
620.12	1842.40
620.47	1833.15
620.82	1822.79
621.16	1813.28
621.51	1803.85
621.85	1794.02
622.20	1783.14
622.55	1773.25
622.89	1763.93
623.24	1754.85
623.59	1745.46
623.93	1735.74
624.28	1726.16
624.62	1716.06
624.97	1706.79
625.32	1697.65
625.66	1688.19
626.01	1679.14
626.35	1669.66
626.70	1659.90
627.04	1650.43
627.39	1640.61
627.73	1630.70
628.08	1621.79
628.43	1611.95
628.77	1602.41
629.12	1592.70
629.46	1583.77
629.81	1573.36
630.15	1563.14
630.50	1553.00
630.84	1542.49
631.19	1531.91
631.53	1522.06
631.88	1511.98
632.22	1501.57
632.57	1491.75
632.91	1481.85
633.26	1471.62
633.60	1461.60
633.95	1451.67
634.29	1442.57
634.64	1433.71
634.98	1424.27
635.32	1415.01
635.67	1406.50
636.01	1397.57
636.36	1388.49
636.70	1379.59
637.05	1371.54
637.39	1363.27
637.73	1354.93
638.08	1346.90
638.42	1339.07
638.77	1330.79
639.11	1322.58
639.45	1314.33
639.80	1305.63
640.14	1297.24
640.49	1289.06
640.83	1280.79
641.17	1272.90
641.52	1263.88
641.86	1255.10
642.20	1247.02
642.55	1238.19
642.89	1229.87
643.23	1221.07
643.58	1213.41
643.92	1205.01
644.26	1196.19
644.61	1188.08
644.95	1179.91
645.29	1170.80
645.64	1161.85
645.98	1153.70
646.32	1146.20
646.66	1138.04
647.01	1129.95
647.35	1121.85
647.69	1113.90
648.04	1106.49
648.38	1098.21
648.72	1090.06
649.06	1081.92
649.41	1073.90
649.75	1065.88
650.09	1057.24
650.43	1049.43
650.78	1040.95
651.12	1032.97
651.46	1025.59
651.80	1017.72
652.14	1010.00
652.49	1002.90
652.83	995.88
653.17	987.81
653.51	979.93
653.85	972.17
654.20	964.54
654.54	956.75
654.88	949.06
655.22	941.10
655.56	933.57
655.90	926.68
656.25	919.67
656.59	912.57
656.93	905.85
657.27	899.00
657.61	891.63
657.95	885.11
658.29	878.29
658.64	871.30
658.98	864.17
659.32	857.26
659.66	850.41
660.00	843.57
660.34	836.99
660.68	830.14
661.02	823.70
661.36	817.57
661.70	811.60
662.05	805.53
662.39	799.92
662.73	793.72
663.07	787.53
663.41	781.59
663.75	775.62
664.09	769.51
664.43	763.55
664.77	758.15
665.11	752.57
665.45	747.42
665.79	742.05
666.13	736.46
666.47	730.87
666.81	725.24
667.15	719.72
667.49	714.55
667.83	709.72
668.17	704.55
668.51	699.16
668.85	693.74
669.19	688.69
669.53	683.40
669.87	678.61
670.21	673.87
670.55	668.98
670.89	664.36
671.23	660.07
671.57	655.74
671.91	651.15
672.25	646.18
672.58	641.47
672.92	636.97
673.26	632.91
673.60	628.62
673.94	624.63
674.28	620.84
674.62	616.86
674.96	612.51
675.30	608.66
675.64	604.78
675.97	601.06
676.31	597.21
676.65	593.45
676.99	589.95
677.33	585.97
677.67	582.34
678.01	578.34
678.34	574.28
678.68	570.50
679.02	566.88
679.36	563.38
679.70	559.67
680.04	555.85
680.37	552.26
680.71	548.82
681.05	545.54
681.39	541.96
681.73	538.49
682.06	535.33
682.40	532.00
682.74	528.80
683.08	525.56
683.42	522.24
683.75	518.94
684.09	515.26
684.43	511.92
684.77	508.53
685.10	505.49
685.44	502.49
685.78	499.56
686.12	496.49
686.45	493.32
686.79	490.20
687.13	487.50
687.46	484.44
687.80	481.22
688.14	478.01
688.48	475.06
688.81	472.07
689.15	469.14
689.49	466.30
689.82	463.24
690.16	460.34
690.50	457.69
690.83	455.10
691.17	452.39
691.51	449.90
691.84	447.58
692.18	445.06
692.52	442.42
692.85	439.62
693.19	437.10
693.52	434.63
693.86	432.16
694.20	429.57
694.53	427.19
694.87	424.90
695.21	422.50
695.54	420.12
695.88	417.80
696.21	415.50
696.55	413.11
696.88	411.01
697.22	408.81
697.56	406.64
697.89	404.41
698.23	402.27
698.56	400.12
698.90	397.95
699.23	395.56
699.57	393.45
699.90	391.48
700.24	389.32
700.58	387.37
700.91	385.45
701.25	383.48
701.58	381.50
701.92	379.63
702.25	377.82
702.59	376.00
702.92	374.19
703.26	372.45
703.59	370.82
703.93	369.28
704.26	367.60
704.60	365.78
704.93	363.98
705.26	362.38
705.60	360.86
705.93	359.18
706.27	357.72
706.60	356.26
706.94	354.69
707.27	353.16
707.61	351.57
707.94	350.07
708.27	348.54
708.61	347.06
708.94	345.54
709.28	344.13
709.61	342.71
709.94	341.47
710.28	340.07
710.61	338.66
710.95	337.04
711.28	335.80
711.61	334.51
711.95	333.30
712.28	332.01
712.61	330.59
712.95	329.48
713.28	328.35
713.61	327.03
713.95	325.81
714.28	324.71
714.61	323.74
714.95	322.61
715.28	321.41
715.61	320.19
715.95	319.18
716.28	318.11
716.61	316.98
716.95	316.00
717.28	314.89
717.61	313.86
717.94	312.94
718.28	311.76
718.61	310.82
718.94	309.87
719.27	308.93
719.61	308.04
719.94	306.98
720.27	305.92
720.60	305.11
720.94	304.24
721.27	303.40
721.60	302.56
721.93	301.80
722.27	301.19
722.60	300.36
722.93	299.52
723.26	298.81
723.59	298.10
723.93	297.23
724.26	296.50
724.59	295.84
724.92	295.12
725.25	294.44
725.59	293.51
725.92	292.69
726.25	291.93
726.58	291.23
726.91	290.57
727.24	289.93
727.57	289.20
727.91	288.46
728.24	287.72
728.57	286.96
728.90	286.16
729.23	285.24
729.56	284.78
729.89	284.07
730.22	283.28
730.55	282.55
730.89	281.93
731.22	281.25
731.55	280.57
731.88	279.81
732.21	279.04
732.54	278.59
732.87	277.94
733.20	277.45
733.53	276.87
733.86	276.38
734.19	275.69
734.52	275.10
734.85	274.72
735.18	274.13
735.51	273.63
735.84	273.08
736.17	272.69
736.50	272.10
736.83	271.88
737.16	271.39
737.49	270.92
737.82	270.28
738.15	269.76
738.48	269.17
738.81	268.69
739.14	268.30
739.47	267.71
739.80	267.31
740.13	266.77
740.46	266.21
740.79	265.66
741.12	265.30
741.45	264.90
741.78	264.39
742.11	263.97
742.44	263.48
742.77	263.09
743.10	262.61
743.43	262.04
743.75	261.50
744.08	261.29
744.41	260.89
744.74	260.54
745.07	260.23
745.40	259.90
745.73	259.53
746.06	259.10
746.39	258.79
746.71	258.38
747.04	257.92
747.37	257.72
747.70	257.39
748.03	257.08
748.36	256.79
748.68	256.38
749.01	256.05
749.34	255.79
749.67	255.58
750.00	255.32
750.33	255.22
750.65	254.91
750.98	254.48
751.31	254.24
751.64	254.00
751.97	253.80
752.29	253.47
752.62	253.20
752.95	253.07
753.28	252.80
753.60	252.51
753.93	252.46
754.26	252.06
754.59	251.83
754.91	251.52
755.24	251.15
755.57	250.98
755.90	250.67
756.22	250.30
756.55	250.00
756.88	249.70
757.20	249.34
757.53	248.97
757.86	248.74
758.19	248.51
758.51	248.32
758.84	247.99
759.17	247.83
759.49	247.67
759.82	247.53
760.15	247.45
760.47	247.38
760.80	247.10
761.13	247.00
761.45	246.71
761.78	246.47
762.11	246.34
762.43	246.12
762.76	246.02
763.08	245.93
763.41	245.67
763.74	245.54
764.06	245.41
764.39	245.26
764.71	245.07
765.04	244.83
765.37	244.58
765.69	244.39
766.02	244.14
766.34	244.00
766.67	243.74
767.00	243.52
767.32	243.43
767.65	243.43
767.97	243.24
768.30	243.02
768.62	242.92
768.95	242.76
769.27	242.56
769.60	242.42
769.92	242.24
770.25	242.03
770.57	241.86
770.90	241.62
771.22	241.48
771.55	241.31
771.87	241.19
772.20	241.00
772.52	241.12
772.85	241.15
773.17	240.89
773.50	240.67
773.82	240.43
774.15	240.18
774.47	239.79
774.80	239.63
775.12	239.59
775.45	239.42
775.77	239.22
776.09	239.06
776.42	238.83
776.74	238.64
777.07	238.61
777.39	238.40
777.72	238.27
778.04	238.10
778.36	237.89
778.69	237.70
779.01	237.57
779.33	237.16
779.66	236.92
779.98	236.88
780.31	236.70
780.63	236.72
780.95	236.60
781.28	236.60
781.60	236.43
781.92	236.18
782.25	236.15
782.57	236.12
782.89	236.08
783.22	235.90
783.54	235.84
783.86	235.71
784.19	235.68
784.51	235.78
784.83	235.72
785.16	235.70
785.48	235.69
785.80	235.54
786.12	235.46
