SpectraSuite Data File
++++++++++++++++++++++++++++++++++++
Date: Fri Feb 01 14:34:06 EST 2013
User: group
Dark Spectrum Present: No
Reference Spectrum Present: No
Number of Sampled Component Spectra: 1
Spectrometers: USB2E7196
Integration Time (usec): 70000 (USB2E7196)
Spectra Averaged: 10 (USB2E7196)
Boxcar Smoothing: 10 (USB2E7196)
Correct for Electrical Dark: No (USB2E7196)
Strobe/Lamp Enabled: No (USB2E7196)
Correct for Detector Non-linearity: No (USB2E7196)
Correct for Stray Light: No (USB2E7196)
Number of Pixels in Processed Spectrum: 2048
>>>>>Begin Processed Spectral Data<<<<<
339.09	0.00
339.48	216.40
339.86	219.10
340.24	219.10
340.63	221.30
341.01	224.40
341.39	221.90
341.78	224.10
342.16	226.10
342.54	226.80
342.93	214.80
343.31	225.68
343.69	226.18
344.07	226.58
344.46	226.95
344.84	227.33
345.22	227.52
345.60	227.87
345.99	228.12
346.37	228.16
346.75	228.26
347.13	228.35
347.52	228.40
347.90	228.48
348.28	228.40
348.66	228.40
349.05	228.31
349.43	228.44
349.81	228.48
350.19	228.55
350.57	228.63
350.96	228.66
351.34	228.70
351.72	228.74
352.10	228.87
352.48	228.92
352.87	228.95
353.25	228.98
353.63	229.05
354.01	229.08
354.39	229.27
354.77	229.26
355.15	229.34
355.54	229.39
355.92	229.51
356.30	229.70
356.68	229.93
357.06	230.17
357.44	230.14
357.82	230.15
358.20	230.04
358.58	230.15
358.97	230.25
359.35	230.40
359.73	230.58
360.11	230.60
360.49	230.84
360.87	230.90
361.25	230.88
361.63	230.91
362.01	231.00
362.39	231.01
362.77	231.05
363.15	230.96
363.53	231.03
363.91	231.00
364.29	230.96
364.67	230.77
365.05	230.63
365.43	230.70
365.81	230.75
366.19	230.90
366.57	230.88
366.95	230.85
367.33	230.77
367.71	230.69
368.09	230.60
368.47	230.43
368.85	230.38
369.23	230.48
369.61	230.37
369.99	230.35
370.37	230.37
370.75	230.48
371.13	230.45
371.51	230.36
371.89	230.34
372.27	230.35
372.65	230.35
373.03	230.32
373.41	230.19
373.78	230.10
374.16	230.01
374.54	229.77
374.92	229.64
375.30	229.58
375.68	229.49
376.06	229.46
376.44	229.37
376.82	229.30
377.19	229.19
377.57	229.16
377.95	228.97
378.33	228.88
378.71	228.62
379.09	228.54
379.47	228.38
379.84	228.22
380.22	228.06
380.60	227.90
380.98	227.82
381.36	227.75
381.73	227.70
382.11	227.62
382.49	227.54
382.87	227.39
383.25	227.33
383.62	227.50
384.00	227.44
384.38	227.49
384.76	227.44
385.13	227.53
385.51	227.37
385.89	227.35
386.27	227.25
386.64	227.20
387.02	227.25
387.40	227.33
387.78	227.20
388.15	227.28
388.53	227.29
388.91	227.22
389.29	227.23
389.66	227.17
390.04	227.11
390.42	227.21
390.79	227.24
391.17	227.19
391.55	226.98
391.92	227.00
392.30	226.95
392.68	226.98
393.05	226.89
393.43	227.00
393.81	227.09
394.18	227.09
394.56	227.17
394.94	227.25
395.31	227.20
395.69	227.47
396.06	227.47
396.44	227.54
396.82	227.67
397.19	227.86
397.57	227.97
397.95	228.12
398.32	228.25
398.70	228.47
399.07	228.66
399.45	228.80
399.82	228.91
400.20	229.00
400.58	229.17
400.95	229.34
401.33	229.58
401.70	229.82
402.08	229.97
402.45	230.25
402.83	230.46
403.20	230.77
403.58	230.93
403.95	231.22
404.33	231.50
404.71	231.84
405.08	232.29
405.46	232.69
405.83	233.09
406.21	233.40
406.58	233.72
406.96	234.10
407.33	234.64
407.70	235.19
408.08	235.90
408.45	236.47
408.83	237.12
409.20	237.74
409.58	238.25
409.95	239.13
410.33	239.94
410.70	240.79
411.08	241.63
411.45	242.61
411.82	243.70
412.20	244.84
412.57	246.05
412.95	247.07
413.32	248.27
413.69	249.54
414.07	251.07
414.44	252.78
414.82	254.38
415.19	256.14
415.56	257.91
415.94	259.77
416.31	261.87
416.68	263.85
417.06	266.32
417.43	268.64
417.81	271.02
418.18	273.57
418.55	276.39
418.93	279.43
419.30	282.60
419.67	285.89
420.04	289.34
420.42	292.91
420.79	297.02
421.16	301.18
421.54	305.41
421.91	309.67
422.28	314.11
422.66	318.86
423.03	323.52
423.40	328.41
423.77	333.71
424.15	338.95
424.52	344.46
424.89	350.29
425.26	356.19
425.64	361.96
426.01	368.09
426.38	374.37
426.75	380.79
427.13	387.56
427.50	394.31
427.87	401.48
428.24	408.52
428.61	415.32
428.99	422.85
429.36	431.21
429.73	439.25
430.10	447.21
430.47	455.48
430.85	464.05
431.22	472.87
431.59	482.31
431.96	491.30
432.33	501.27
432.70	510.81
433.08	522.14
433.45	532.54
433.82	543.26
434.19	555.06
434.56	566.52
434.93	577.19
435.30	588.23
435.68	600.32
436.05	612.40
436.42	624.46
436.79	635.07
437.16	646.48
437.53	658.74
437.90	670.91
438.27	682.89
438.64	695.50
439.01	707.22
439.38	717.40
439.75	727.26
440.13	738.85
440.50	750.09
440.87	759.08
441.24	768.63
441.61	779.14
441.98	786.80
442.35	795.82
442.72	805.05
443.09	814.03
443.46	819.99
443.83	824.13
444.20	827.75
444.57	833.36
444.94	836.51
445.31	839.61
445.68	842.69
446.05	844.90
446.42	844.79
446.79	844.62
447.16	844.63
447.53	845.29
447.90	842.25
448.27	838.87
448.64	833.78
449.01	830.71
449.37	823.65
449.74	817.30
450.11	809.17
450.48	800.40
450.85	791.21
451.22	783.55
451.59	776.49
451.96	769.51
452.33	759.56
452.70	750.65
453.07	739.96
453.43	728.98
453.80	718.15
454.17	707.84
454.54	698.20
454.91	687.40
455.28	676.88
455.65	667.10
456.02	656.96
456.38	648.56
456.75	637.77
457.12	629.03
457.49	619.93
457.86	611.46
458.23	604.18
458.59	596.00
458.96	587.46
459.33	579.90
459.70	572.55
460.07	566.54
460.43	559.61
460.80	553.09
461.17	547.42
461.54	541.34
461.91	535.61
462.27	529.68
462.64	524.71
463.01	519.07
463.38	513.67
463.74	508.56
464.11	504.05
464.48	499.96
464.85	495.25
465.21	491.87
465.58	488.10
465.95	483.47
466.32	479.73
466.68	476.01
467.05	472.19
467.42	468.31
467.78	464.41
468.15	460.79
468.52	458.01
468.88	454.23
469.25	450.99
469.62	448.16
469.98	445.27
470.35	442.66
470.72	440.19
471.08	437.51
471.45	435.14
471.82	432.59
472.18	429.98
472.55	428.16
472.92	426.16
473.28	424.26
473.65	422.32
474.02	420.33
474.38	418.66
474.75	417.34
475.11	415.94
475.48	414.77
475.85	413.77
476.21	412.88
476.58	412.09
476.94	411.46
477.31	410.88
477.67	410.14
478.04	409.31
478.41	408.88
478.77	408.74
479.14	408.32
479.50	407.98
479.87	408.03
480.23	407.94
480.60	407.57
480.96	407.41
481.33	407.79
481.69	408.21
482.06	408.37
482.42	408.38
482.79	408.64
483.15	409.19
483.52	409.97
483.88	410.41
484.25	411.04
484.61	411.74
484.98	412.48
485.34	413.71
485.71	415.04
486.07	416.32
486.44	417.40
486.80	418.85
487.17	420.70
487.53	422.43
487.90	424.34
488.26	426.37
488.62	428.51
488.99	430.57
489.35	432.67
489.72	435.00
490.08	437.67
490.44	440.24
490.81	442.96
491.17	445.68
491.54	448.30
491.90	451.20
492.26	454.49
492.63	457.79
492.99	460.87
493.36	464.18
493.72	467.75
494.08	471.39
494.45	475.13
494.81	478.87
495.17	482.87
495.54	486.91
495.90	491.09
496.26	495.31
496.63	499.47
496.99	503.88
497.35	508.67
497.72	513.22
498.08	517.75
498.44	522.50
498.80	527.46
499.17	532.54
499.53	537.50
499.89	542.47
500.26	547.42
500.62	552.47
500.98	557.85
501.34	562.87
501.71	568.12
502.07	573.42
502.43	578.56
502.79	583.79
503.16	588.95
503.52	594.28
503.88	599.40
504.24	605.03
504.60	610.62
504.97	615.98
505.33	621.50
505.69	627.37
506.05	633.01
506.41	638.29
506.78	643.82
507.14	649.14
507.50	654.64
507.86	660.33
508.22	665.80
508.59	670.97
508.95	676.40
509.31	681.86
509.67	687.17
510.03	692.69
510.39	697.80
510.75	703.28
511.12	708.25
511.48	713.53
511.84	718.44
512.20	723.43
512.56	728.44
512.92	733.26
513.28	738.02
513.64	742.40
514.00	746.90
514.37	751.40
514.73	755.96
515.09	760.21
515.45	764.40
515.81	768.56
516.17	772.72
516.53	776.92
516.89	780.83
517.25	784.71
517.61	788.36
517.97	791.90
518.33	795.18
518.69	798.86
519.05	802.33
519.41	805.53
519.77	808.86
520.13	812.08
520.49	815.13
520.85	817.90
521.21	820.95
521.57	824.24
521.93	827.18
522.29	830.40
522.65	833.39
523.01	835.83
523.37	838.51
523.73	841.20
524.09	843.90
524.45	846.70
524.81	849.36
525.17	852.30
525.53	855.40
525.89	857.95
526.25	860.47
526.61	862.72
526.97	865.72
527.33	868.21
527.68	870.85
528.04	873.44
528.40	876.13
528.76	879.00
529.12	881.63
529.48	884.33
529.84	886.48
530.20	888.78
530.56	892.13
530.91	895.20
531.27	898.12
531.63	900.32
531.99	902.58
532.35	905.01
532.71	907.15
533.07	909.60
533.42	912.45
533.78	915.02
534.14	917.81
534.50	919.67
534.86	922.19
535.21	924.16
535.57	926.87
535.93	929.48
536.29	931.74
536.65	933.93
537.00	935.71
537.36	938.47
537.72	940.75
538.08	942.45
538.44	944.43
538.79	946.48
539.15	948.74
539.51	951.38
539.87	953.74
540.22	956.16
540.58	958.72
540.94	960.72
541.29	962.84
541.65	965.06
542.01	968.02
542.37	970.70
542.72	973.34
543.08	975.54
543.44	978.04
543.79	979.86
544.15	982.31
544.51	985.37
544.87	987.60
545.22	990.37
545.58	992.73
545.94	994.90
546.29	997.24
546.65	999.57
547.01	1001.62
547.36	1003.85
547.72	1005.99
548.07	1007.91
548.43	1010.05
548.79	1012.29
549.14	1014.45
549.50	1016.03
549.86	1017.70
550.21	1019.67
550.57	1021.46
550.92	1023.24
551.28	1025.82
551.64	1027.74
551.99	1029.61
552.35	1031.68
552.70	1033.66
553.06	1035.66
553.41	1037.72
553.77	1039.78
554.13	1041.90
554.48	1044.08
554.84	1046.22
555.19	1048.26
555.55	1050.25
555.90	1052.26
556.26	1054.22
556.61	1056.15
556.97	1058.16
557.32	1060.23
557.68	1062.04
558.03	1064.11
558.39	1065.92
558.74	1067.96
559.10	1069.57
559.45	1071.43
559.81	1073.57
560.16	1074.86
560.52	1076.68
560.87	1078.70
561.23	1080.23
561.58	1081.90
561.94	1083.32
562.29	1084.61
562.64	1085.85
563.00	1087.16
563.35	1089.22
563.71	1091.07
564.06	1092.80
564.42	1094.66
564.77	1096.07
565.12	1097.80
565.48	1099.21
565.83	1100.24
566.19	1101.63
566.54	1102.94
566.89	1104.17
567.25	1105.14
567.60	1106.87
567.96	1108.18
568.31	1109.19
568.66	1109.89
569.02	1110.72
569.37	1111.66
569.72	1112.67
570.08	1113.60
570.43	1114.47
570.78	1114.57
571.14	1114.70
571.49	1115.07
571.84	1115.42
572.20	1115.45
572.55	1115.43
572.90	1115.40
573.26	1116.30
573.61	1116.36
573.96	1116.28
574.31	1115.73
574.67	1114.83
575.02	1113.90
575.37	1113.27
575.72	1112.42
576.08	1111.97
576.43	1111.41
576.78	1110.64
577.13	1109.96
577.49	1109.50
577.84	1108.72
578.19	1108.07
578.54	1107.34
578.90	1106.31
579.25	1104.92
579.60	1104.17
579.95	1103.03
580.30	1101.80
580.66	1099.87
581.01	1097.55
581.36	1096.02
581.71	1094.55
582.06	1093.45
582.42	1091.78
582.77	1090.29
583.12	1088.69
583.47	1087.33
583.82	1085.71
584.17	1083.63
584.53	1081.97
584.88	1080.32
585.23	1078.02
585.58	1076.21
585.93	1074.45
586.28	1072.78
586.63	1071.07
586.98	1069.09
587.34	1067.53
587.69	1065.60
588.04	1063.78
588.39	1062.49
588.74	1060.26
589.09	1058.26
589.44	1056.02
589.79	1054.29
590.14	1052.07
590.49	1049.97
590.84	1047.66
591.19	1045.82
591.54	1043.43
591.89	1040.44
592.25	1037.56
592.60	1035.17
592.95	1032.21
593.30	1029.31
593.65	1026.50
594.00	1023.89
594.35	1021.53
594.70	1018.10
595.05	1015.52
595.40	1012.43
595.75	1009.42
596.10	1007.20
596.45	1004.63
596.80	1002.00
597.15	999.28
597.50	996.47
597.85	994.12
598.19	991.53
598.54	988.81
598.89	986.43
599.24	984.20
599.59	981.78
599.94	979.28
600.29	976.59
600.64	973.81
600.99	970.55
601.34	967.54
601.69	964.14
602.04	961.50
602.39	958.49
602.74	956.21
603.08	953.50
603.43	950.52
603.78	948.00
604.13	945.00
604.48	942.10
604.83	939.12
605.18	935.88
605.53	932.54
605.87	928.84
606.22	925.76
606.57	922.45
606.92	919.03
607.27	916.09
607.62	913.39
607.96	910.43
608.31	907.96
608.66	904.67
609.01	901.40
609.36	897.94
609.70	894.35
610.05	890.59
610.40	887.26
610.75	883.74
611.10	879.41
611.44	875.62
611.79	871.94
612.14	868.48
612.49	864.35
612.83	860.66
613.18	857.00
613.53	853.45
613.88	849.79
614.22	846.04
614.57	841.81
614.92	837.88
615.27	834.20
615.61	830.08
615.96	826.38
616.31	822.86
616.65	819.60
617.00	816.44
617.35	813.13
617.70	809.15
618.04	805.60
618.39	802.19
618.74	798.93
619.08	795.35
619.43	791.80
619.78	788.71
620.12	785.27
620.47	781.90
620.82	778.01
621.16	774.43
621.51	771.32
621.85	768.24
622.20	764.82
622.55	761.36
622.89	758.13
623.24	755.26
623.59	751.88
623.93	748.75
624.28	745.29
624.62	741.91
624.97	738.92
625.32	735.54
625.66	732.62
626.01	729.12
626.35	725.84
626.70	722.48
627.04	719.30
627.39	716.20
627.73	713.00
628.08	710.02
628.43	706.88
628.77	703.62
629.12	700.29
629.46	696.87
629.81	693.48
630.15	689.91
630.50	686.27
630.84	682.73
631.19	679.17
631.53	676.03
631.88	672.44
632.22	668.84
632.57	665.80
632.91	662.41
633.26	659.40
633.60	656.31
633.95	653.24
634.29	650.27
634.64	647.25
634.98	644.00
635.32	641.20
635.67	638.43
636.01	635.50
636.36	632.57
636.70	630.01
637.05	627.27
637.39	624.67
637.73	621.91
638.08	619.63
638.42	616.97
638.77	614.35
639.11	611.66
639.45	609.17
639.80	606.10
640.14	603.36
640.49	600.72
640.83	597.94
641.17	595.53
641.52	592.70
641.86	589.84
642.20	587.45
642.55	584.60
642.89	582.03
643.23	579.31
643.58	576.78
643.92	573.83
644.26	571.29
644.61	568.85
644.95	566.16
645.29	563.20
645.64	560.42
645.98	557.51
646.32	555.04
646.66	552.29
647.01	549.88
647.35	547.52
647.69	544.90
648.04	542.50
648.38	539.59
648.72	536.80
649.06	534.29
649.41	531.70
649.75	528.91
650.09	526.11
650.43	523.26
650.78	520.25
651.12	517.60
651.46	515.13
651.80	512.45
652.14	510.08
652.49	507.75
652.83	505.31
653.17	502.73
653.51	500.23
653.85	497.69
654.20	495.23
654.54	492.51
654.88	489.83
655.22	487.10
655.56	484.59
655.90	482.24
656.25	479.76
656.59	477.24
656.93	475.19
657.27	472.96
657.61	470.66
657.95	468.70
658.29	466.62
658.64	464.18
658.98	461.80
659.32	459.43
659.66	457.07
660.00	454.81
660.34	452.70
660.68	450.57
661.02	448.40
661.36	446.31
661.70	444.28
662.05	442.46
662.39	440.88
662.73	439.00
663.07	437.05
663.41	435.13
663.75	433.13
664.09	431.01
664.43	429.07
664.77	427.39
665.11	425.69
665.45	423.79
665.79	422.00
666.13	420.20
666.47	418.49
666.81	416.70
667.15	414.75
667.49	412.83
667.83	410.98
668.17	409.36
668.51	407.43
668.85	405.67
669.19	404.19
669.53	402.28
669.87	400.62
670.21	399.10
670.55	397.61
670.89	396.40
671.23	394.99
671.57	393.54
671.91	391.93
672.25	390.30
672.58	388.98
672.92	387.45
673.26	386.25
673.60	384.84
673.94	383.41
674.28	382.37
674.62	381.32
674.96	379.95
675.30	378.75
675.64	377.55
675.97	376.50
676.31	374.95
676.65	373.67
676.99	372.52
677.33	371.11
677.67	369.70
678.01	368.23
678.34	366.80
678.68	365.53
679.02	364.31
679.36	363.00
679.70	361.65
680.04	360.39
680.37	358.93
680.71	357.70
681.05	356.51
681.39	355.25
681.73	353.99
682.06	352.95
682.40	351.79
682.74	350.72
683.08	349.49
683.42	348.50
683.75	347.21
684.09	345.89
684.43	344.85
684.77	343.75
685.10	342.53
685.44	341.47
685.78	340.31
686.12	339.13
686.45	338.05
686.79	337.00
687.13	336.03
687.46	335.00
687.80	333.92
688.14	332.86
688.48	331.77
688.81	330.69
689.15	329.61
689.49	328.42
689.82	327.30
690.16	326.22
690.50	325.00
690.83	324.12
691.17	323.05
691.51	321.99
691.84	321.10
692.18	320.23
692.52	319.19
692.85	318.15
693.19	317.26
693.52	316.39
693.86	315.25
694.20	314.24
694.53	313.33
694.87	312.32
695.21	311.42
695.54	310.52
695.88	309.47
696.21	308.38
696.55	307.60
696.88	306.75
697.22	305.84
697.56	305.15
697.89	304.23
698.23	303.44
698.56	302.56
698.90	301.57
699.23	300.66
699.57	299.81
699.90	298.88
700.24	298.01
700.58	297.18
700.91	296.54
701.25	295.87
701.58	295.16
701.92	294.50
702.25	293.71
702.59	292.85
702.92	292.24
703.26	291.66
703.59	290.90
703.93	290.29
704.26	289.58
704.60	288.74
704.93	287.99
705.26	287.20
705.60	286.64
705.93	286.18
706.27	285.63
706.60	285.19
706.94	284.81
707.27	284.25
707.61	283.51
707.94	282.86
708.27	282.18
708.61	281.48
708.94	280.87
709.28	280.40
709.61	279.95
709.94	279.47
710.28	278.87
710.61	278.32
710.95	277.63
711.28	277.31
711.61	276.85
711.95	276.48
712.28	276.10
712.61	275.58
712.95	275.04
713.28	274.61
713.61	274.01
713.95	273.48
714.28	272.93
714.61	272.58
714.95	272.20
715.28	271.65
715.61	271.25
715.95	270.82
716.28	270.27
716.61	269.92
716.95	269.40
717.28	269.16
717.61	268.74
717.94	268.45
718.28	267.94
718.61	267.66
718.94	267.26
719.27	266.92
719.61	266.50
719.94	266.19
720.27	265.76
720.60	265.54
720.94	265.20
721.27	264.99
721.60	264.65
721.93	264.21
722.27	264.04
722.60	263.74
722.93	263.39
723.26	263.16
723.59	262.64
723.93	262.39
724.26	261.95
724.59	261.65
724.92	261.29
725.25	260.86
725.59	260.39
725.92	260.19
726.25	259.80
726.58	259.59
726.91	259.21
727.24	258.96
727.57	258.56
727.91	258.19
728.24	257.91
728.57	257.59
728.90	257.36
729.23	257.18
729.56	257.03
729.89	256.71
730.22	256.40
730.55	256.27
730.89	256.00
731.22	255.73
731.55	255.45
731.88	255.14
732.21	254.86
732.54	254.61
732.87	254.15
733.20	253.85
733.53	253.58
733.86	253.32
734.19	252.88
734.52	252.75
734.85	252.57
735.18	252.15
735.51	251.95
735.84	251.75
736.17	251.39
736.50	251.01
736.83	251.04
737.16	250.85
737.49	250.50
737.82	250.32
738.15	250.21
738.48	249.88
738.81	249.69
739.14	249.56
739.47	249.32
739.80	249.19
740.13	249.00
740.46	248.69
740.79	248.46
741.12	248.29
741.45	248.02
741.78	247.75
742.11	247.68
742.44	247.38
742.77	247.23
743.10	247.00
743.43	246.76
743.75	246.25
744.08	246.21
744.41	246.11
744.74	245.83
745.07	245.54
745.40	245.47
745.73	245.29
746.06	245.14
746.39	244.95
746.71	244.79
747.04	244.55
747.37	244.39
747.70	244.25
748.03	244.10
748.36	243.93
748.68	243.72
749.01	243.44
749.34	243.39
749.67	243.20
750.00	243.02
750.33	243.02
750.65	243.01
750.98	242.62
751.31	242.42
751.64	242.30
751.97	242.35
752.29	242.24
752.62	242.13
752.95	241.92
753.28	241.76
753.60	241.58
753.93	241.52
754.26	241.46
754.59	241.24
754.91	241.08
755.24	240.90
755.57	240.85
755.90	240.75
756.22	240.63
756.55	240.53
756.88	240.37
757.20	240.12
757.53	239.87
757.86	239.88
758.19	239.77
758.51	239.67
758.84	239.43
759.17	239.28
759.49	239.23
759.82	239.25
760.15	239.24
760.47	239.20
760.80	239.01
761.13	238.99
761.45	238.99
761.78	238.93
762.11	238.87
762.43	238.74
762.76	238.58
763.08	238.49
763.41	238.33
763.74	238.30
764.06	238.16
764.39	238.14
764.71	237.93
765.04	237.77
765.37	237.69
765.69	237.50
766.02	237.30
766.34	237.19
766.67	237.00
767.00	236.85
767.32	236.77
767.65	236.86
767.97	236.65
768.30	236.53
768.62	236.47
768.95	236.31
769.27	236.25
769.60	236.31
769.92	236.18
770.25	236.05
770.57	235.99
770.90	235.90
771.22	235.74
771.55	235.69
771.87	235.59
772.20	235.61
772.52	235.70
772.85	235.94
773.17	235.74
773.50	235.69
773.82	235.67
774.15	235.50
774.47	235.34
774.80	235.32
775.12	235.22
775.45	235.15
775.77	235.08
776.09	234.96
776.42	234.88
776.74	234.80
777.07	234.68
777.39	234.47
777.72	234.43
778.04	234.37
778.36	234.31
778.69	234.41
779.01	234.25
779.33	234.07
779.66	233.85
779.98	233.85
780.31	233.71
780.63	233.65
780.95	233.60
781.28	233.47
781.60	233.39
781.92	233.23
782.25	233.07
782.57	233.08
782.89	233.07
783.22	232.95
783.54	232.88
783.86	232.88
784.19	232.81
784.51	232.80
784.83	232.79
785.16	232.74
785.48	232.58
785.80	232.46
786.12	232.41
786.45	232.26
786.77	232.19
787.09	232.15
787.42	232.09
787.74	232.07
788.06	232.02
788.38	231.97
788.71	231.96
789.03	231.93
789.35	231.86
789.67	231.73
789.99	231.69
790.32	231.68
790.64	231.73
790.96	231.92
791.28	231.81
