SpectraSuite Data File
++++++++++++++++++++++++++++++++++++
Date: Fri Feb 01 14:35:37 EST 2013
User: group
Dark Spectrum Present: No
Reference Spectrum Present: No
Number of Sampled Component Spectra: 1
Spectrometers: USB2E7196
Integration Time (usec): 70000 (USB2E7196)
Spectra Averaged: 10 (USB2E7196)
Boxcar Smoothing: 10 (USB2E7196)
Correct for Electrical Dark: No (USB2E7196)
Strobe/Lamp Enabled: No (USB2E7196)
Correct for Detector Non-linearity: No (USB2E7196)
Correct for Stray Light: No (USB2E7196)
Number of Pixels in Processed Spectrum: 2048
>>>>>Begin Processed Spectral Data<<<<<
339.09	0.00
339.48	215.20
339.86	218.10
340.24	216.40
340.63	220.00
341.01	223.50
341.39	222.30
341.78	225.20
342.16	226.10
342.54	225.00
342.93	214.33
343.31	225.14
343.69	225.79
344.07	226.24
344.46	226.82
344.84	227.12
345.22	227.38
345.60	227.69
345.99	227.80
346.37	228.00
346.75	228.13
347.13	228.19
347.52	228.42
347.90	228.54
348.28	228.55
348.66	228.63
349.05	228.62
349.43	228.63
349.81	228.58
350.19	228.65
350.57	228.67
350.96	228.69
351.34	228.82
351.72	228.85
352.10	228.97
352.48	228.96
352.87	229.09
353.25	229.21
353.63	229.25
354.01	229.35
354.39	229.32
354.77	229.41
355.15	229.47
355.54	229.36
355.92	229.38
356.30	229.50
356.68	229.68
357.06	229.76
357.44	229.78
357.82	229.95
358.20	229.95
358.58	229.95
358.97	230.05
359.35	230.14
359.73	230.24
360.11	230.25
360.49	230.35
360.87	230.44
361.25	230.44
361.63	230.54
362.01	230.65
362.39	230.77
362.77	230.81
363.15	230.82
363.53	230.94
363.91	231.00
364.29	231.00
364.67	230.80
365.05	230.79
365.43	230.78
365.81	230.66
366.19	230.75
366.57	230.83
366.95	230.72
367.33	230.60
367.71	230.53
368.09	230.46
368.47	230.49
368.85	230.40
369.23	230.40
369.61	230.35
369.99	230.25
370.37	230.13
370.75	230.27
371.13	230.19
371.51	230.02
371.89	229.94
372.27	229.87
372.65	229.80
373.03	229.68
373.41	229.67
373.78	229.64
374.16	229.42
374.54	229.28
374.92	229.22
375.30	229.12
375.68	228.96
376.06	228.88
376.44	228.76
376.82	228.65
377.19	228.53
377.57	228.34
377.95	228.20
378.33	228.01
378.71	227.74
379.09	227.76
379.47	227.69
379.84	227.61
380.22	227.46
380.60	227.46
380.98	227.31
381.36	227.15
381.73	227.11
382.11	227.02
382.49	226.90
382.87	226.77
383.25	226.84
383.62	227.05
384.00	226.94
384.38	226.86
384.76	226.89
385.13	226.80
385.51	226.76
385.89	226.71
386.27	226.71
386.64	226.62
387.02	226.53
387.40	226.53
387.78	226.52
388.15	226.57
388.53	226.56
388.91	226.64
389.29	226.70
389.66	226.70
390.04	226.81
390.42	226.89
390.79	226.98
391.17	226.92
391.55	226.65
391.92	226.74
392.30	226.78
392.68	226.76
393.05	226.86
393.43	226.91
393.81	226.94
394.18	227.01
394.56	227.04
394.94	227.19
395.31	227.27
395.69	227.37
396.06	227.36
396.44	227.43
396.82	227.53
397.19	227.65
397.57	227.71
397.95	227.74
398.32	227.85
398.70	227.83
399.07	227.91
399.45	228.10
399.82	228.22
400.20	228.35
400.58	228.53
400.95	228.60
401.33	228.78
401.70	229.10
402.08	229.35
402.45	229.52
402.83	229.65
403.20	229.90
403.58	229.97
403.95	230.30
404.33	230.49
404.71	230.73
405.08	231.15
405.46	231.42
405.83	231.75
406.21	232.06
406.58	232.55
406.96	232.91
407.33	233.25
407.70	233.64
408.08	234.28
408.45	234.63
408.83	235.14
409.20	235.60
409.58	236.06
409.95	236.49
410.33	237.20
410.70	237.66
411.08	238.23
411.45	238.95
411.82	239.52
412.20	240.23
412.57	241.08
412.95	241.75
413.32	242.64
413.69	243.66
414.07	244.53
414.44	245.53
414.82	246.59
415.19	247.85
415.56	249.14
415.94	250.23
416.31	251.82
416.68	253.37
417.06	255.08
417.43	256.69
417.81	258.55
418.18	260.34
418.55	262.47
418.93	264.62
419.30	266.94
419.67	269.19
420.04	271.70
420.42	274.21
420.79	277.19
421.16	280.22
421.54	283.14
421.91	286.30
422.28	289.65
422.66	293.13
423.03	296.49
423.40	300.03
423.77	303.92
424.15	307.73
424.52	311.63
424.89	315.94
425.26	320.10
425.64	324.11
426.01	328.60
426.38	333.11
426.75	337.81
427.13	342.38
427.50	347.53
427.87	352.78
428.24	358.00
428.61	362.82
428.99	368.23
429.36	374.16
429.73	379.96
430.10	385.69
430.47	391.53
430.85	397.70
431.22	404.22
431.59	411.00
431.96	417.60
432.33	424.83
432.70	431.80
433.08	440.03
433.45	447.89
433.82	455.42
434.19	464.05
434.56	472.38
434.93	480.59
435.30	488.65
435.68	497.33
436.05	506.07
436.42	514.50
436.79	522.22
437.16	530.55
437.53	539.54
437.90	548.36
438.27	557.10
438.64	566.06
439.01	574.40
439.38	581.85
439.75	588.96
440.13	597.03
440.50	604.80
440.87	611.22
441.24	617.95
441.61	625.54
441.98	631.06
442.35	637.56
442.72	643.96
443.09	650.36
443.46	654.52
443.83	657.27
444.20	660.25
444.57	664.20
444.94	666.51
445.31	668.79
445.68	670.83
446.05	672.29
446.42	672.71
446.79	672.54
447.16	672.45
447.53	672.83
447.90	670.81
448.27	668.59
448.64	664.94
449.01	662.69
449.37	657.68
449.74	653.17
450.11	647.27
450.48	641.03
450.85	634.28
451.22	628.68
451.59	623.60
451.96	618.59
452.33	611.32
452.70	604.98
453.07	597.17
453.43	589.30
453.80	581.71
454.17	573.90
454.54	566.95
454.91	559.13
455.28	551.33
455.65	544.31
456.02	537.04
456.38	531.07
456.75	523.31
457.12	516.82
457.49	510.20
457.86	503.94
458.23	498.52
458.59	492.63
458.96	486.77
459.33	481.45
459.70	475.91
460.07	471.65
460.43	466.47
460.80	461.63
461.17	457.46
461.54	453.02
461.91	448.92
462.27	444.56
462.64	440.87
463.01	436.90
463.38	432.75
463.74	428.92
464.11	425.30
464.48	422.12
464.85	418.92
465.21	416.37
465.58	413.71
465.95	410.45
466.32	407.73
466.68	404.89
467.05	402.00
467.42	399.30
467.78	396.40
468.15	393.79
468.52	391.70
468.88	389.05
469.25	386.64
469.62	384.65
469.98	382.60
470.35	380.65
470.72	378.72
471.08	376.89
471.45	375.16
471.82	373.49
472.18	371.60
472.55	370.30
472.92	368.70
473.28	367.23
473.65	365.63
474.02	364.28
474.38	362.94
474.75	361.76
475.11	360.65
475.48	359.63
475.85	358.86
476.21	358.00
476.58	357.32
476.94	356.67
477.31	355.89
477.67	355.08
478.04	354.38
478.41	354.01
478.77	353.60
479.14	353.10
479.50	352.80
479.87	352.78
480.23	352.65
480.60	352.27
480.96	352.05
481.33	352.26
481.69	352.20
482.06	352.16
482.42	352.23
482.79	352.32
483.15	352.63
483.52	352.90
483.88	353.17
484.25	353.48
484.61	353.84
484.98	354.39
485.34	355.14
485.71	355.99
486.07	356.56
486.44	357.25
486.80	358.03
487.17	358.82
487.53	359.65
487.90	360.51
488.26	361.70
488.62	362.97
488.99	363.99
489.35	365.27
489.72	366.73
490.08	368.17
490.44	369.61
490.81	370.98
491.17	372.49
491.54	374.10
491.90	375.55
492.26	377.39
492.63	379.02
492.99	380.75
493.36	382.64
493.72	384.60
494.08	386.49
494.45	388.56
494.81	390.69
495.17	392.84
495.54	395.09
495.90	397.26
496.26	399.34
496.63	401.70
496.99	403.93
497.35	406.20
497.72	408.59
498.08	410.91
498.44	413.57
498.80	416.15
499.17	418.70
499.53	421.22
499.89	423.62
500.26	426.03
500.62	428.32
500.98	430.88
501.34	433.33
501.71	435.85
502.07	438.40
502.43	440.66
502.79	443.06
503.16	445.30
503.52	447.68
503.88	449.87
504.24	452.12
504.60	454.50
504.97	456.89
505.33	459.11
505.69	461.49
506.05	463.74
506.41	465.74
506.78	467.75
507.14	469.93
507.50	471.98
507.86	474.22
508.22	476.36
508.59	478.21
508.95	480.13
509.31	482.06
509.67	483.94
510.03	485.86
510.39	487.59
510.75	489.40
511.12	491.14
511.48	492.98
511.84	494.49
512.20	496.03
512.56	497.60
512.92	498.97
513.28	500.36
513.64	501.32
514.00	502.65
514.37	503.90
514.73	505.10
515.09	506.17
515.45	507.15
515.81	508.19
516.17	509.07
516.53	510.13
516.89	511.02
517.25	511.90
517.61	512.80
517.97	513.68
518.33	514.19
518.69	514.80
519.05	515.44
519.41	516.27
519.77	517.24
520.13	517.94
520.49	518.72
520.85	519.40
521.21	520.39
521.57	521.00
521.93	521.61
522.29	522.34
522.65	523.14
523.01	523.77
523.37	524.31
523.73	525.02
524.09	525.60
524.45	526.31
524.81	527.05
525.17	527.94
525.53	528.86
525.89	529.94
526.25	531.30
526.61	532.26
526.97	533.29
527.33	534.12
527.68	535.18
528.04	536.23
528.40	537.40
528.76	538.54
529.12	540.01
529.48	541.47
529.84	542.83
530.20	544.28
530.56	545.77
530.91	547.59
531.27	549.24
531.63	551.05
531.99	552.91
532.35	554.60
532.71	556.34
533.07	558.30
533.42	560.27
533.78	561.85
534.14	563.85
534.50	565.78
534.86	567.89
535.21	569.80
535.57	572.23
535.93	574.40
536.29	576.92
536.65	579.12
537.00	581.21
537.36	583.73
537.72	586.08
538.08	588.88
538.44	591.36
538.79	594.11
539.15	596.66
539.51	599.25
539.87	602.34
540.22	605.05
540.58	607.78
540.94	610.57
541.29	613.62
541.65	616.59
542.01	619.75
542.37	622.62
542.72	625.77
543.08	628.67
543.44	631.86
543.79	634.63
544.15	637.92
544.51	641.68
544.87	644.81
545.22	648.22
545.58	651.34
545.94	654.59
546.29	657.61
546.65	661.01
547.01	664.33
547.36	667.59
547.72	670.83
548.07	674.08
548.43	677.44
548.79	680.64
549.14	684.14
549.50	687.60
549.86	690.99
550.21	694.53
550.57	698.10
550.92	701.41
551.28	704.94
551.64	708.34
551.99	711.85
552.35	715.17
552.70	718.56
553.06	722.31
553.41	725.93
553.77	729.61
554.13	733.12
554.48	736.50
554.84	739.88
555.19	743.61
555.55	747.24
555.90	750.55
556.26	754.16
556.61	757.68
556.97	760.93
557.32	764.46
557.68	767.81
558.03	771.06
558.39	774.63
558.74	778.03
559.10	781.33
559.45	784.71
559.81	788.58
560.16	791.93
560.52	795.25
560.87	798.59
561.23	801.74
561.58	805.37
561.94	808.72
562.29	811.82
562.64	814.80
563.00	818.02
563.35	821.66
563.71	824.82
564.06	827.95
564.42	831.21
564.77	834.47
565.12	837.79
565.48	841.27
565.83	844.29
566.19	847.59
566.54	850.67
566.89	853.54
567.25	856.42
567.60	859.36
567.96	862.29
568.31	864.97
568.66	867.88
569.02	870.15
569.37	872.62
569.72	875.38
570.08	878.14
570.43	880.32
570.78	882.61
571.14	884.72
571.49	886.81
571.84	889.01
572.20	890.96
572.55	892.88
572.90	894.34
573.26	896.10
573.61	897.52
573.96	899.15
574.31	900.11
574.67	901.15
575.02	902.30
575.37	903.18
575.72	904.10
576.08	905.39
576.43	906.32
576.78	907.76
577.13	908.86
577.49	909.75
577.84	910.60
578.19	911.00
578.54	912.01
578.90	912.64
579.25	913.14
579.60	913.59
579.95	913.86
580.30	914.24
580.66	914.69
581.01	914.88
581.36	914.99
581.71	915.63
582.06	915.95
582.42	916.08
582.77	916.18
583.12	916.26
583.47	916.11
583.82	916.24
584.17	915.72
584.53	915.29
584.88	915.00
585.23	914.85
585.58	914.77
585.93	914.35
586.28	914.24
586.63	913.78
586.98	913.37
587.34	913.13
587.69	912.60
588.04	912.18
588.39	911.74
588.74	910.94
589.09	909.98
589.44	908.85
589.79	908.35
590.14	907.75
590.49	907.02
590.84	906.16
591.19	905.38
591.54	904.16
591.89	902.81
592.25	901.88
592.60	900.40
592.95	898.92
593.30	897.27
593.65	895.43
594.00	894.13
594.35	893.29
594.70	891.61
595.05	890.23
595.40	888.34
595.75	886.66
596.10	885.23
596.45	883.68
596.80	882.52
597.15	880.93
597.50	879.28
597.85	877.85
598.19	876.40
598.54	874.85
598.89	873.36
599.24	872.32
599.59	870.76
599.94	869.34
600.29	867.88
600.64	866.52
600.99	864.82
601.34	863.04
601.69	860.66
602.04	858.76
602.39	857.00
602.74	855.50
603.08	853.95
603.43	852.25
603.78	850.72
604.13	848.84
604.48	846.84
604.83	844.92
605.18	842.92
605.53	840.40
605.87	837.87
606.22	836.02
606.57	833.57
606.92	831.10
607.27	828.81
607.62	827.12
607.96	824.98
608.31	823.20
608.66	820.76
609.01	818.59
609.36	816.05
609.70	813.26
610.05	810.60
610.40	807.88
610.75	805.39
611.10	802.74
611.44	799.75
611.79	797.28
612.14	794.52
612.49	791.40
612.83	788.60
613.18	785.94
613.53	783.20
613.88	780.32
614.22	777.51
614.57	774.65
614.92	771.41
615.27	768.60
615.61	765.65
615.96	763.11
616.31	760.34
616.65	758.12
617.00	755.84
617.35	752.92
617.70	750.13
618.04	747.19
618.39	744.13
618.74	741.51
619.08	738.46
619.43	735.83
619.78	733.51
620.12	730.88
620.47	728.40
620.82	725.70
621.16	723.04
621.51	720.72
621.85	718.18
622.20	715.47
622.55	712.72
622.89	710.01
623.24	707.44
623.59	704.85
623.93	702.11
624.28	699.50
624.62	697.26
624.97	695.02
625.32	692.70
625.66	690.47
626.01	688.12
626.35	685.65
626.70	682.97
627.04	680.49
627.39	677.89
627.73	675.08
628.08	672.51
628.43	669.91
628.77	667.15
629.12	664.55
629.46	661.86
629.81	659.05
630.15	656.21
630.50	653.35
630.84	650.48
631.19	647.54
631.53	644.81
631.88	641.65
632.22	638.55
632.57	635.90
632.91	633.00
633.26	630.20
633.60	627.33
633.95	624.57
634.29	621.83
634.64	619.46
634.98	616.99
635.32	614.58
635.67	612.03
636.01	609.37
636.36	606.98
636.70	604.44
637.05	602.21
637.39	600.03
637.73	597.48
638.08	595.33
638.42	593.02
638.77	590.69
639.11	588.39
639.45	585.96
639.80	583.36
640.14	581.07
640.49	578.87
640.83	576.62
641.17	574.26
641.52	571.76
641.86	569.14
642.20	566.72
642.55	564.08
642.89	561.78
643.23	559.37
643.58	556.98
643.92	554.61
644.26	552.13
644.61	549.84
644.95	547.69
645.29	544.91
645.64	542.38
645.98	539.76
646.32	537.78
646.66	535.63
647.01	533.22
647.35	530.77
647.69	528.30
648.04	526.07
648.38	523.63
648.72	521.15
649.06	518.82
649.41	516.50
649.75	514.08
650.09	511.61
650.43	509.29
650.78	506.85
651.12	504.56
651.46	502.27
651.80	499.85
652.14	497.46
652.49	495.30
652.83	493.10
653.17	490.83
653.51	488.14
653.85	485.64
654.20	483.40
654.54	481.21
654.88	478.73
655.22	476.32
655.56	474.07
655.90	472.09
656.25	470.10
656.59	467.85
656.93	465.86
657.27	463.78
657.61	461.49
657.95	459.52
658.29	457.41
658.64	455.34
658.98	453.14
659.32	450.92
659.66	448.87
660.00	446.89
660.34	444.72
660.68	442.74
661.02	440.88
661.36	438.87
661.70	436.89
662.05	435.13
662.39	433.45
662.73	431.64
663.07	429.99
663.41	428.15
663.75	426.41
664.09	424.45
664.43	422.63
664.77	420.89
665.11	418.97
665.45	417.30
665.79	415.60
666.13	413.96
666.47	412.36
666.81	410.65
667.15	408.95
667.49	407.38
667.83	405.97
668.17	404.25
668.51	402.60
668.85	400.91
669.19	399.37
669.53	397.64
669.87	396.04
670.21	394.31
670.55	392.76
670.89	391.46
671.23	390.15
671.57	388.68
671.91	387.42
672.25	385.92
672.58	384.46
672.92	382.92
673.26	381.64
673.60	380.35
673.94	379.15
674.28	377.76
674.62	376.73
674.96	375.42
675.30	374.25
675.64	373.18
675.97	371.98
676.31	370.62
676.65	369.38
676.99	368.25
677.33	366.89
677.67	365.55
678.01	364.12
678.34	362.86
678.68	361.52
679.02	360.26
679.36	359.17
679.70	357.91
680.04	356.73
680.37	355.29
680.71	354.08
681.05	352.81
681.39	351.79
681.73	350.46
682.06	349.33
682.40	348.18
682.74	346.96
683.08	346.03
683.42	344.82
683.75	343.80
684.09	342.64
684.43	341.60
684.77	340.64
685.10	339.51
685.44	338.30
685.78	337.24
686.12	336.26
686.45	335.13
686.79	334.02
687.13	333.00
687.46	332.09
687.80	331.02
688.14	330.00
688.48	328.90
688.81	327.83
689.15	326.73
689.49	325.67
689.82	324.73
690.16	323.68
690.50	322.79
690.83	321.72
691.17	320.81
691.51	319.75
691.84	318.73
692.18	317.68
692.52	316.84
692.85	315.98
693.19	315.09
693.52	314.18
693.86	313.32
694.20	312.43
694.53	311.47
694.87	310.62
695.21	309.67
695.54	308.85
695.88	308.01
696.21	307.18
696.55	306.40
696.88	305.38
697.22	304.47
697.56	303.63
697.89	302.80
698.23	301.91
698.56	301.13
698.90	300.43
699.23	299.74
699.57	298.82
699.90	297.96
700.24	297.18
700.58	296.40
700.91	295.67
701.25	295.03
701.58	294.43
701.92	293.60
702.25	292.90
702.59	292.20
702.92	291.58
703.26	290.85
703.59	290.17
703.93	289.80
704.26	289.17
704.60	288.53
704.93	287.90
705.26	287.32
705.60	286.84
705.93	286.16
706.27	285.53
706.60	285.09
706.94	284.64
707.27	283.94
707.61	283.38
707.94	282.93
708.27	282.39
708.61	281.72
708.94	281.33
709.28	280.93
709.61	280.42
709.94	279.93
710.28	279.40
710.61	278.78
710.95	278.10
711.28	277.53
711.61	277.10
711.95	276.63
712.28	275.99
712.61	275.35
712.95	274.90
713.28	274.51
713.61	273.94
713.95	273.38
714.28	272.91
714.61	272.41
714.95	271.93
715.28	271.39
715.61	270.98
715.95	270.50
716.28	269.97
716.61	269.45
716.95	268.92
717.28	268.65
717.61	268.35
717.94	267.93
718.28	267.47
718.61	266.98
718.94	266.71
719.27	266.52
719.61	266.16
719.94	265.82
720.27	265.34
720.60	265.03
720.94	264.73
721.27	264.40
721.60	264.18
721.93	263.79
722.27	263.41
722.60	263.03
722.93	262.59
723.26	262.33
723.59	262.02
723.93	261.70
724.26	261.27
724.59	260.83
724.92	260.50
725.25	260.27
725.59	260.09
725.92	259.64
726.25	259.26
726.58	258.90
726.91	258.48
727.24	258.20
727.57	257.92
727.91	257.55
728.24	257.17
728.57	256.82
728.90	256.58
729.23	256.26
729.56	256.00
729.89	255.64
730.22	255.17
730.55	254.86
730.89	254.49
731.22	254.22
731.55	254.00
731.88	253.71
732.21	253.30
732.54	252.92
732.87	252.63
733.20	252.26
733.53	252.10
733.86	251.92
734.19	251.54
734.52	251.27
734.85	251.10
735.18	250.88
735.51	250.61
735.84	250.30
736.17	250.13
736.50	249.80
736.83	249.99
737.16	249.85
737.49	249.62
737.82	249.46
738.15	249.24
738.48	249.00
738.81	248.76
739.14	248.58
739.47	248.42
739.80	248.23
740.13	248.00
740.46	247.72
740.79	247.44
741.12	247.20
741.45	247.02
741.78	246.77
742.11	246.64
742.44	246.43
742.77	246.20
743.10	245.92
743.43	245.88
743.75	245.39
744.08	245.48
744.41	245.29
744.74	245.06
745.07	244.86
745.40	244.72
745.73	244.64
746.06	244.48
746.39	244.27
746.71	244.03
747.04	243.87
747.37	243.71
747.70	243.61
748.03	243.62
748.36	243.42
748.68	243.22
749.01	243.03
749.34	242.90
749.67	242.77
750.00	242.68
750.33	242.67
750.65	242.60
750.98	242.28
751.31	242.11
751.64	242.04
751.97	241.99
752.29	241.87
752.62	241.63
752.95	241.63
753.28	241.43
753.60	241.46
753.93	241.44
754.26	241.24
754.59	241.01
754.91	240.86
755.24	240.80
755.57	240.72
755.90	240.58
756.22	240.46
756.55	240.36
756.88	240.19
757.20	239.89
757.53	239.71
757.86	239.56
758.19	239.50
758.51	239.40
758.84	239.26
759.17	239.11
759.49	239.00
759.82	238.89
760.15	238.75
760.47	238.57
760.80	238.44
761.13	238.40
761.45	238.38
761.78	238.23
762.11	238.10
762.43	237.93
762.76	237.87
763.08	237.77
763.41	237.74
763.74	237.65
764.06	237.53
764.39	237.33
764.71	237.19
765.04	237.10
765.37	237.01
765.69	236.83
766.02	236.71
766.34	236.64
766.67	236.53
767.00	236.54
767.32	236.47
767.65	236.44
767.97	236.42
768.30	236.38
768.62	236.24
768.95	236.14
769.27	236.06
769.60	235.98
769.92	235.98
770.25	235.94
770.57	235.86
770.90	235.80
771.22	235.75
771.55	235.71
771.87	235.61
772.20	235.44
772.52	235.55
772.85	235.76
773.17	235.67
773.50	235.49
773.82	235.33
774.15	235.21
774.47	235.02
774.80	234.81
775.12	234.66
775.45	234.60
775.77	234.47
776.09	234.41
776.42	234.28
776.74	234.20
777.07	234.03
777.39	233.87
777.72	233.80
778.04	233.80
778.36	233.80
778.69	233.69
779.01	233.65
779.33	233.38
779.66	233.02
779.98	232.94
780.31	232.93
780.63	233.08
780.95	233.03
781.28	232.98
781.60	233.03
781.92	233.00
782.25	232.98
782.57	232.97
782.89	233.02
783.22	232.96
783.54	232.83
783.86	232.74
784.19	232.70
784.51	232.62
784.83	232.49
785.16	232.38
785.48	232.38
785.80	232.44
786.12	232.54
786.45	232.54
786.77	232.60
787.09	232.58
787.42	232.40
787.74	232.47
788.06	232.53
788.38	232.52
788.71	232.52
789.03	232.50
789.35	232.46
789.67	232.36
789.99	232.34
790.32	232.39
790.64	232.35
790.96	232.52
791.28	232.47
791.61	232.51
791.93	232.50
792.25	232.55
792.57	232.62
792.89	232.51
793.21	232.47
793.54	232.43
793.86	232.35
794.18	232.40
