SpectraSuite Data File
++++++++++++++++++++++++++++++++++++
Date: Fri Feb 01 14:35:00 EST 2013
User: group
Dark Spectrum Present: No
Reference Spectrum Present: No
Number of Sampled Component Spectra: 1
Spectrometers: USB2E7196
Integration Time (usec): 70000 (USB2E7196)
Spectra Averaged: 10 (USB2E7196)
Boxcar Smoothing: 10 (USB2E7196)
Correct for Electrical Dark: No (USB2E7196)
Strobe/Lamp Enabled: No (USB2E7196)
Correct for Detector Non-linearity: No (USB2E7196)
Correct for Stray Light: No (USB2E7196)
Number of Pixels in Processed Spectrum: 2048
>>>>>Begin Processed Spectral Data<<<<<
339.09	0.00
339.48	215.60
339.86	217.30
340.24	219.00
340.63	220.60
341.01	225.30
341.39	222.00
341.78	223.70
342.16	225.10
342.54	228.10
342.93	215.00
343.31	225.86
343.69	226.41
344.07	226.87
344.46	227.35
344.84	227.76
345.22	227.97
345.60	228.27
345.99	228.45
346.37	228.62
346.75	228.60
347.13	228.74
347.52	228.70
347.90	228.81
348.28	228.74
348.66	228.72
349.05	228.70
349.43	228.65
349.81	228.76
350.19	228.84
350.57	228.99
350.96	229.04
351.34	229.13
351.72	229.25
352.10	229.40
352.48	229.40
352.87	229.45
353.25	229.48
353.63	229.52
354.01	229.70
354.39	229.74
354.77	229.85
355.15	229.98
355.54	230.07
355.92	230.05
356.30	230.11
356.68	230.23
357.06	230.31
357.44	230.26
357.82	230.30
358.20	230.23
358.58	230.22
358.97	230.26
359.35	230.39
359.73	230.47
360.11	230.53
360.49	230.59
360.87	230.62
361.25	230.66
361.63	230.75
362.01	230.71
362.39	230.78
362.77	230.75
363.15	230.70
363.53	230.67
363.91	230.69
364.29	230.56
364.67	230.48
365.05	230.44
365.43	230.54
365.81	230.50
366.19	230.61
366.57	230.55
366.95	230.53
367.33	230.39
367.71	230.32
368.09	230.24
368.47	230.23
368.85	230.14
369.23	230.06
369.61	229.93
369.99	229.93
370.37	229.75
370.75	229.87
371.13	229.80
371.51	229.76
371.89	229.69
372.27	229.73
372.65	229.57
373.03	229.48
373.41	229.37
373.78	229.29
374.16	229.15
374.54	229.14
374.92	229.01
375.30	228.92
375.68	228.76
376.06	228.79
376.44	228.73
376.82	228.64
377.19	228.58
377.57	228.50
377.95	228.47
378.33	228.35
378.71	228.07
379.09	228.05
379.47	227.94
379.84	227.87
380.22	227.84
380.60	227.80
380.98	227.72
381.36	227.62
381.73	227.45
382.11	227.37
382.49	227.31
382.87	227.21
383.25	227.15
383.62	227.33
384.00	227.16
384.38	227.01
384.76	227.11
385.13	227.07
385.51	227.03
385.89	226.83
386.27	226.95
386.64	227.08
387.02	226.98
387.40	226.92
387.78	226.93
388.15	226.83
388.53	226.90
388.91	226.82
389.29	226.85
389.66	227.01
390.04	227.00
390.42	226.93
390.79	226.88
391.17	226.90
391.55	226.72
391.92	226.71
392.30	226.75
392.68	226.64
393.05	226.71
393.43	226.75
393.81	226.84
394.18	226.79
394.56	226.72
394.94	226.83
395.31	226.91
395.69	227.00
396.06	227.08
396.44	227.03
396.82	227.14
397.19	227.34
397.57	227.37
397.95	227.54
398.32	227.64
398.70	228.04
399.07	228.10
399.45	228.19
399.82	228.35
400.20	228.59
400.58	228.73
400.95	228.86
401.33	229.04
401.70	229.42
402.08	229.68
402.45	230.00
402.83	230.27
403.20	230.50
403.58	230.67
403.95	231.01
404.33	231.39
404.71	231.73
405.08	231.89
405.46	232.24
405.83	232.47
406.21	232.90
406.58	233.14
406.96	233.60
407.33	234.06
407.70	234.43
408.08	234.98
408.45	235.45
408.83	235.95
409.20	236.50
409.58	236.84
409.95	237.48
410.33	238.10
410.70	238.75
411.08	239.54
411.45	240.30
411.82	241.10
412.20	241.96
412.57	243.00
412.95	243.94
413.32	245.02
413.69	246.22
414.07	247.41
414.44	248.68
414.82	250.02
415.19	251.59
415.56	253.14
415.94	254.64
416.31	256.35
416.68	258.25
417.06	260.20
417.43	262.13
417.81	264.33
418.18	266.53
418.55	268.88
418.93	271.40
419.30	273.96
419.67	276.50
420.04	279.18
420.42	282.10
420.79	285.62
421.16	289.03
421.54	292.50
421.91	296.00
422.28	299.80
422.66	303.80
423.03	307.60
423.40	311.76
423.77	316.02
424.15	320.60
424.52	325.02
424.89	330.30
425.26	335.27
425.64	339.71
426.01	344.77
426.38	350.10
426.75	355.30
427.13	360.81
427.50	366.87
427.87	373.12
428.24	379.14
428.61	384.73
428.99	390.98
429.36	397.81
429.73	404.72
430.10	411.53
430.47	418.35
430.85	425.51
431.22	433.06
431.59	441.08
431.96	448.57
432.33	456.91
432.70	464.90
433.08	474.40
433.45	483.60
433.82	492.47
434.19	502.38
434.56	512.17
434.93	521.48
435.30	530.43
435.68	540.55
436.05	550.59
436.42	560.70
436.79	569.66
437.16	579.33
437.53	589.42
437.90	599.38
438.27	609.31
438.64	619.65
439.01	629.45
439.38	638.01
439.75	646.21
440.13	656.04
440.50	664.93
440.87	672.47
441.24	680.04
441.61	688.74
441.98	694.98
442.35	702.34
442.72	710.13
443.09	717.82
443.46	722.62
443.83	726.17
444.20	729.24
444.57	733.68
444.94	736.20
445.31	738.88
445.68	741.51
446.05	743.32
446.42	743.61
446.79	743.26
447.16	743.25
447.53	743.69
447.90	740.94
448.27	738.38
448.64	734.10
449.01	731.67
449.37	725.96
449.74	720.79
450.11	713.97
450.48	706.28
450.85	698.63
451.22	692.27
451.59	685.93
451.96	680.27
452.33	672.03
452.70	664.70
453.07	655.76
453.43	646.44
453.80	637.54
454.17	628.71
454.54	620.64
454.91	611.63
455.28	602.90
455.65	594.92
456.02	586.60
456.38	579.55
456.75	570.63
457.12	563.36
457.49	555.94
457.86	549.22
458.23	543.13
458.59	536.26
458.96	529.24
459.33	523.32
459.70	517.20
460.07	512.27
460.43	506.62
460.80	500.99
461.17	496.32
461.54	491.26
461.91	486.57
462.27	481.58
462.64	477.37
463.01	472.58
463.38	467.81
463.74	463.42
464.11	459.54
464.48	456.04
464.85	452.00
465.21	448.80
465.58	445.36
465.95	441.63
466.32	438.50
466.68	435.42
467.05	432.17
467.42	428.88
467.78	425.66
468.15	422.46
468.52	420.07
468.88	416.91
469.25	414.21
469.62	412.02
469.98	409.55
470.35	407.35
470.72	405.42
471.08	403.25
471.45	401.09
471.82	398.90
472.18	396.54
472.55	395.00
472.92	393.24
473.28	391.61
473.65	389.99
474.02	388.38
474.38	386.86
474.75	385.66
475.11	384.13
475.48	383.00
475.85	381.99
476.21	381.14
476.58	380.57
476.94	379.87
477.31	378.97
477.67	378.31
478.04	377.57
478.41	377.06
478.77	376.62
479.14	376.07
479.50	375.86
479.87	375.84
480.23	375.70
480.60	375.40
480.96	375.21
481.33	375.43
481.69	375.45
482.06	375.51
482.42	375.30
482.79	375.50
483.15	375.74
483.52	376.42
483.88	376.88
484.25	377.05
484.61	377.60
484.98	378.07
485.34	378.82
485.71	379.80
486.07	380.52
486.44	381.39
486.80	382.50
487.17	383.56
487.53	384.76
487.90	386.19
488.26	387.87
488.62	389.42
488.99	390.79
489.35	392.40
489.72	394.04
490.08	395.99
490.44	397.94
490.81	400.05
491.17	401.87
491.54	403.92
491.90	406.04
492.26	408.16
492.63	410.63
492.99	412.94
493.36	415.35
493.72	418.04
494.08	420.74
494.45	423.62
494.81	426.55
495.17	429.41
495.54	432.19
495.90	435.08
496.26	437.96
496.63	441.10
496.99	444.29
497.35	447.74
497.72	451.06
498.08	454.29
498.44	457.50
498.80	461.11
499.17	464.55
499.53	468.38
499.89	471.96
500.26	475.43
500.62	478.98
500.98	482.82
501.34	486.36
501.71	490.00
502.07	493.50
502.43	497.00
502.79	500.45
503.16	504.06
503.52	507.74
503.88	511.24
504.24	514.71
504.60	518.13
504.97	521.58
505.33	525.21
505.69	529.05
506.05	532.80
506.41	536.05
506.78	539.44
507.14	542.76
507.50	546.01
507.86	549.42
508.22	552.92
508.59	555.95
508.95	559.17
509.31	562.40
509.67	565.67
510.03	568.67
510.39	571.88
510.75	574.84
511.12	577.50
511.48	580.56
511.84	583.49
512.20	586.30
512.56	589.08
512.92	591.61
513.28	594.05
513.64	596.34
514.00	598.80
514.37	601.35
514.73	603.62
515.09	605.92
515.45	608.00
515.81	609.99
516.17	612.01
516.53	614.14
516.89	615.97
517.25	617.95
517.61	620.07
517.97	621.75
518.33	623.52
518.69	625.30
519.05	626.94
519.41	628.58
519.77	630.43
520.13	631.99
520.49	633.45
520.85	634.75
521.21	636.16
521.57	637.81
521.93	639.05
522.29	640.54
522.65	641.98
523.01	643.47
523.37	644.62
523.73	646.13
524.09	647.40
524.45	648.84
524.81	649.90
525.17	651.36
525.53	652.99
525.89	654.44
526.25	655.79
526.61	657.19
526.97	658.70
527.33	660.09
527.68	661.72
528.04	663.30
528.40	665.05
528.76	667.00
529.12	668.64
529.48	670.59
529.84	671.92
530.20	673.83
530.56	675.84
530.91	678.02
531.27	679.75
531.63	681.65
531.99	683.34
532.35	685.44
532.71	686.90
533.07	688.72
533.42	690.70
533.78	692.89
534.14	695.10
534.50	697.10
534.86	699.24
535.21	701.04
535.57	703.21
535.93	705.52
536.29	707.70
536.65	709.85
537.00	711.86
537.36	714.41
537.72	716.73
538.08	718.82
538.44	721.12
538.79	723.60
539.15	725.63
539.51	728.31
539.87	730.90
540.22	733.68
540.58	736.70
540.94	739.38
541.29	741.92
541.65	744.40
542.01	747.29
542.37	750.09
542.72	752.88
543.08	755.66
543.44	758.36
543.79	760.79
544.15	763.60
544.51	766.77
544.87	769.61
545.22	772.73
545.58	775.64
545.94	778.30
546.29	781.21
546.65	784.50
547.01	787.45
547.36	790.08
547.72	792.94
548.07	795.35
548.43	797.83
548.79	800.75
549.14	803.49
549.50	806.25
549.86	808.91
550.21	811.63
550.57	814.72
550.92	817.52
551.28	820.40
551.64	823.44
551.99	826.31
552.35	829.12
552.70	831.70
553.06	834.91
553.41	838.09
553.77	840.98
554.13	844.08
554.48	847.21
554.84	850.42
555.19	853.41
555.55	856.73
555.90	860.02
556.26	863.06
556.61	866.00
556.97	868.65
557.32	871.61
557.68	874.99
558.03	877.82
558.39	880.67
558.74	883.81
559.10	886.75
559.45	889.44
559.81	892.56
560.16	895.32
560.52	897.74
560.87	900.68
561.23	903.14
561.58	905.86
561.94	908.60
562.29	910.91
562.64	913.39
563.00	915.72
563.35	918.28
563.71	921.25
564.06	924.24
564.42	926.95
564.77	929.39
565.12	931.57
565.48	934.09
565.83	936.51
566.19	938.88
566.54	940.92
566.89	943.07
567.25	945.34
567.60	947.92
567.96	950.19
568.31	952.09
568.66	954.35
569.02	955.87
569.37	957.10
569.72	959.35
570.08	961.38
570.43	963.04
570.78	964.55
571.14	965.50
571.49	966.78
571.84	968.39
572.20	969.79
572.55	971.05
572.90	972.17
573.26	973.69
573.61	974.80
573.96	975.87
574.31	976.62
574.67	976.90
575.02	977.28
575.37	977.76
575.72	978.36
576.08	978.86
576.43	979.57
576.78	980.51
577.13	980.80
577.49	981.00
577.84	981.50
578.19	981.70
578.54	982.08
578.90	982.13
579.25	981.75
579.60	981.63
579.95	981.48
580.30	981.42
580.66	980.84
581.01	980.25
581.36	979.74
581.71	979.56
582.06	979.50
582.42	979.05
582.77	978.36
583.12	977.61
583.47	977.09
583.82	976.47
584.17	975.45
584.53	974.74
584.88	973.85
585.23	972.80
585.58	972.22
585.93	971.33
586.28	970.79
586.63	970.15
586.98	969.20
587.34	968.49
587.69	967.37
588.04	966.80
588.39	966.03
588.74	964.89
589.09	963.70
589.44	962.21
589.79	961.05
590.14	960.24
590.49	958.92
590.84	957.48
591.19	956.38
591.54	954.90
591.89	953.00
592.25	951.76
592.60	949.84
592.95	948.03
593.30	945.81
593.65	943.50
594.00	941.38
594.35	940.06
594.70	937.80
595.05	936.00
595.40	933.61
595.75	931.38
596.10	929.54
596.45	927.80
596.80	926.05
597.15	923.81
597.50	921.55
597.85	919.85
598.19	917.91
598.54	915.77
598.89	913.89
599.24	912.23
599.59	910.01
599.94	908.41
600.29	906.22
600.64	904.32
600.99	902.12
601.34	900.03
601.69	897.19
602.04	895.21
602.39	892.62
602.74	890.33
603.08	888.19
603.43	886.20
603.78	883.61
604.13	881.52
604.48	879.42
604.83	877.36
605.18	874.85
605.53	872.06
605.87	869.35
606.22	866.87
606.57	864.14
606.92	861.70
607.27	859.26
607.62	857.10
607.96	854.92
608.31	852.90
608.66	850.43
609.01	847.84
609.36	844.92
609.70	842.02
610.05	839.13
610.40	836.30
610.75	833.14
611.10	830.31
611.44	826.85
611.79	823.80
612.14	820.52
612.49	817.10
612.83	814.20
613.18	810.94
613.53	807.57
613.88	804.38
614.22	801.16
614.57	797.72
614.92	794.53
615.27	791.16
615.61	787.66
615.96	784.48
616.31	781.30
616.65	778.64
617.00	776.06
617.35	773.07
617.70	769.71
618.04	766.26
618.39	763.20
618.74	760.30
619.08	756.91
619.43	753.78
619.78	751.20
620.12	748.16
620.47	745.21
620.82	742.27
621.16	739.31
621.51	736.55
621.85	733.47
622.20	730.23
622.55	727.33
622.89	724.30
623.24	721.30
623.59	718.50
623.93	715.52
624.28	712.45
624.62	709.61
624.97	707.15
625.32	704.54
625.66	701.87
626.01	699.30
626.35	696.67
626.70	694.13
627.04	691.21
627.39	688.36
627.73	685.63
628.08	682.86
628.43	680.22
628.77	677.05
629.12	674.25
629.46	671.38
629.81	668.21
630.15	665.39
630.50	662.67
630.84	659.59
631.19	656.47
631.53	653.45
631.88	650.46
632.22	647.30
632.57	644.58
632.91	641.33
633.26	638.30
633.60	635.35
633.95	632.39
634.29	629.41
634.64	626.90
634.98	624.01
635.32	621.44
635.67	618.73
636.01	616.20
636.36	613.59
636.70	611.06
637.05	608.76
637.39	606.31
637.73	603.55
638.08	601.22
638.42	598.90
638.77	596.45
639.11	593.83
639.45	591.45
639.80	588.83
640.14	586.54
640.49	584.09
640.83	581.67
641.17	579.18
641.52	576.82
641.86	574.04
642.20	571.70
642.55	569.06
642.89	566.58
643.23	563.99
643.58	561.53
643.92	558.94
644.26	556.59
644.61	554.24
644.95	551.91
645.29	549.24
645.64	546.64
645.98	544.36
646.32	542.09
646.66	539.47
647.01	536.97
647.35	534.59
647.69	532.09
648.04	529.95
648.38	527.58
648.72	525.00
649.06	522.72
649.41	520.17
649.75	517.70
650.09	515.16
650.43	512.69
650.78	510.18
651.12	507.80
651.46	505.25
651.80	502.81
652.14	500.41
652.49	498.32
652.83	496.15
653.17	493.56
653.51	491.02
653.85	488.83
654.20	486.55
654.54	484.08
654.88	481.66
655.22	478.89
655.56	476.48
655.90	474.27
656.25	472.04
656.59	469.97
656.93	467.94
657.27	465.86
657.61	463.64
657.95	461.63
658.29	459.39
658.64	457.30
658.98	454.94
659.32	452.81
659.66	450.62
660.00	448.13
660.34	446.04
660.68	444.00
661.02	441.86
661.36	439.95
661.70	437.96
662.05	436.11
662.39	434.49
662.73	432.60
663.07	430.79
663.41	428.89
663.75	427.23
664.09	425.33
664.43	423.51
664.77	421.80
665.11	419.85
665.45	418.26
665.79	416.39
666.13	414.70
666.47	412.98
666.81	411.22
667.15	409.60
667.49	408.01
667.83	406.44
668.17	404.65
668.51	402.94
668.85	401.30
669.19	399.89
669.53	398.24
669.87	396.63
670.21	394.98
670.55	393.40
670.89	391.96
671.23	390.53
671.57	389.16
671.91	387.74
672.25	386.33
672.58	384.93
672.92	383.59
673.26	382.29
673.60	380.92
673.94	379.65
674.28	378.26
674.62	376.95
674.96	375.64
675.30	374.47
675.64	373.18
675.97	371.95
676.31	370.50
676.65	369.32
676.99	368.30
677.33	367.02
677.67	365.61
678.01	364.18
678.34	362.89
678.68	361.51
679.02	360.34
679.36	359.35
679.70	358.01
680.04	356.69
680.37	355.51
680.71	354.36
681.05	353.29
681.39	352.30
681.73	351.19
682.06	350.16
682.40	349.13
682.74	348.08
683.08	347.03
683.42	345.86
683.75	344.77
684.09	343.49
684.43	342.54
684.77	341.56
685.10	340.30
685.44	339.24
685.78	338.18
686.12	337.02
686.45	335.85
686.79	334.84
687.13	333.94
687.46	332.88
687.80	331.94
688.14	330.75
688.48	329.66
688.81	328.64
689.15	327.61
689.49	326.60
689.82	325.68
690.16	324.57
690.50	323.59
690.83	322.62
691.17	321.55
691.51	320.54
691.84	319.74
692.18	318.87
692.52	317.88
692.85	316.86
693.19	316.00
693.52	315.14
693.86	314.25
694.20	313.25
694.53	312.36
694.87	311.34
695.21	310.43
695.54	309.60
695.88	308.65
696.21	307.71
696.55	306.76
696.88	305.84
697.22	304.97
697.56	304.22
697.89	303.32
698.23	302.56
698.56	301.81
698.90	300.86
699.23	300.03
699.57	299.15
699.90	298.44
700.24	297.58
700.58	296.70
700.91	295.85
701.25	295.22
701.58	294.49
701.92	293.75
702.25	293.01
702.59	292.20
702.92	291.55
703.26	290.89
703.59	290.23
703.93	289.68
704.26	289.13
704.60	288.49
704.93	287.86
705.26	287.26
705.60	286.56
705.93	286.06
706.27	285.52
706.60	285.12
706.94	284.57
707.27	283.96
707.61	283.33
707.94	282.86
708.27	282.26
708.61	281.58
708.94	280.94
709.28	280.40
709.61	279.90
709.94	279.37
710.28	278.80
710.61	278.45
710.95	277.61
711.28	277.09
711.61	276.51
711.95	276.06
712.28	275.45
712.61	275.03
712.95	274.54
713.28	274.25
713.61	273.70
713.95	273.13
714.28	272.59
714.61	272.21
714.95	271.67
715.28	271.07
715.61	270.64
715.95	270.20
716.28	269.83
716.61	269.44
716.95	268.93
717.28	268.57
717.61	268.05
717.94	267.85
718.28	267.37
718.61	267.04
718.94	266.58
719.27	266.13
719.61	265.69
719.94	265.31
720.27	264.72
720.60	264.42
720.94	264.12
721.27	263.78
721.60	263.40
721.93	263.15
722.27	262.99
722.60	262.65
722.93	262.42
723.26	262.07
723.59	261.80
723.93	261.56
724.26	261.27
724.59	260.87
724.92	260.49
725.25	260.22
725.59	259.93
725.92	259.59
726.25	259.41
726.58	259.09
726.91	258.66
727.24	258.50
727.57	258.10
727.91	257.77
728.24	257.45
728.57	257.20
728.90	256.87
729.23	256.57
729.56	256.35
729.89	256.00
730.22	255.65
730.55	255.21
730.89	254.94
731.22	254.60
731.55	254.40
731.88	254.02
732.21	253.76
732.54	253.40
732.87	253.16
733.20	252.95
733.53	252.80
733.86	252.76
734.19	252.41
734.52	252.15
734.85	251.94
735.18	251.77
735.51	251.57
735.84	251.25
736.17	250.95
736.50	250.67
736.83	250.74
737.16	250.62
737.49	250.43
737.82	250.18
738.15	249.94
738.48	249.60
738.81	249.50
739.14	249.13
739.47	248.94
739.80	248.80
740.13	248.53
740.46	248.17
740.79	247.82
741.12	247.60
741.45	247.42
741.78	247.26
742.11	247.11
742.44	246.81
742.77	246.67
743.10	246.47
743.43	246.33
743.75	245.89
744.08	245.89
744.41	245.80
744.74	245.51
745.07	245.35
745.40	245.35
745.73	245.21
746.06	245.11
746.39	244.87
746.71	244.55
747.04	244.34
747.37	244.20
747.70	244.04
748.03	243.81
748.36	243.60
748.68	243.36
749.01	243.15
749.34	243.02
749.67	242.85
750.00	242.71
750.33	242.63
750.65	242.47
750.98	242.10
751.31	241.85
751.64	241.77
751.97	241.67
752.29	241.44
752.62	241.19
752.95	241.09
753.28	240.94
753.60	240.76
753.93	240.60
754.26	240.51
754.59	240.31
754.91	240.20
755.24	240.09
755.57	239.86
755.90	239.71
756.22	239.58
756.55	239.39
756.88	239.22
757.20	238.99
757.53	238.83
757.86	238.72
758.19	238.66
758.51	238.44
758.84	238.26
759.17	238.06
759.49	237.95
759.82	237.92
760.15	237.87
760.47	237.89
760.80	237.78
761.13	237.69
761.45	237.61
761.78	237.49
762.11	237.44
762.43	237.43
762.76	237.35
763.08	237.25
763.41	237.31
763.74	237.28
764.06	237.14
764.39	237.03
764.71	236.90
765.04	236.77
765.37	236.71
765.69	236.65
766.02	236.57
766.34	236.52
766.67	236.43
767.00	236.43
767.32	236.40
767.65	236.51
767.97	236.44
768.30	236.41
768.62	236.41
768.95	236.29
769.27	236.24
769.60	236.13
769.92	236.12
770.25	235.94
770.57	235.90
770.90	235.86
771.22	235.72
771.55	235.66
771.87	235.66
772.20	235.60
772.52	235.63
772.85	235.85
773.17	235.74
773.50	235.59
773.82	235.44
774.15	235.20
774.47	234.95
774.80	234.80
775.12	234.62
775.45	234.54
775.77	234.45
776.09	234.35
776.42	234.26
776.74	234.13
777.07	234.07
777.39	233.88
777.72	233.86
778.04	233.90
778.36	233.80
778.69	233.62
779.01	233.58
779.33	233.32
779.66	233.02
779.98	232.83
780.31	232.77
780.63	232.68
780.95	232.70
781.28	232.57
781.60	232.50
781.92	232.47
782.25	232.44
782.57	232.30
782.89	232.22
783.22	232.18
783.54	232.12
783.86	231.92
784.19	231.85
784.51	231.78
784.83	231.76
785.16	231.63
785.48	231.62
785.80	231.64
786.12	231.70
786.45	231.70
786.77	231.80
787.09	231.75
787.42	231.71
787.74	231.70
788.06	231.73
788.38	231.66
788.71	231.68
789.03	231.47
789.35	231.52
789.67	231.47
789.99	231.54
790.32	231.47
790.64	231.67
790.96	231.83
791.28	231.77
791.61	231.63
791.93	231.66
792.25	231.69
792.57	231.79
792.89	231.63
793.21	231.57
793.54	231.60
793.86	231.59
794.18	231.59
