SpectraSuite Data File
++++++++++++++++++++++++++++++++++++
Date: Fri Feb 01 14:33:49 EST 2013
User: group
Dark Spectrum Present: No
Reference Spectrum Present: No
Number of Sampled Component Spectra: 1
Spectrometers: USB2E7196
Integration Time (usec): 70000 (USB2E7196)
Spectra Averaged: 10 (USB2E7196)
Boxcar Smoothing: 10 (USB2E7196)
Correct for Electrical Dark: No (USB2E7196)
Strobe/Lamp Enabled: No (USB2E7196)
Correct for Detector Non-linearity: No (USB2E7196)
Correct for Stray Light: No (USB2E7196)
Number of Pixels in Processed Spectrum: 2048
>>>>>Begin Processed Spectral Data<<<<<
339.09	0.00
339.48	216.10
339.86	217.00
340.24	217.70
340.63	219.40
341.01	223.60
341.39	222.00
341.78	225.80
342.16	225.90
342.54	227.10
342.93	214.51
343.31	225.36
343.69	225.81
344.07	226.28
344.46	226.81
344.84	227.29
345.22	227.59
345.60	227.98
345.99	228.12
346.37	228.26
346.75	228.40
347.13	228.51
347.52	228.55
347.90	228.70
348.28	228.61
348.66	228.65
349.05	228.70
349.43	228.68
349.81	228.70
350.19	228.84
350.57	228.80
350.96	228.82
351.34	228.93
351.72	229.18
352.10	229.30
352.48	229.29
352.87	229.31
353.25	229.36
353.63	229.38
354.01	229.48
354.39	229.56
354.77	229.56
355.15	229.82
355.54	229.87
355.92	229.80
356.30	229.92
356.68	230.22
357.06	230.32
357.44	230.32
357.82	230.54
358.20	230.67
358.58	230.90
358.97	230.91
359.35	230.97
359.73	231.06
360.11	231.09
360.49	231.26
360.87	231.30
361.25	231.34
361.63	231.40
362.01	231.41
362.39	231.45
362.77	231.50
363.15	231.42
363.53	231.47
363.91	231.55
364.29	231.56
364.67	231.32
365.05	231.30
365.43	231.33
365.81	231.22
366.19	231.22
366.57	231.21
366.95	231.23
367.33	231.11
367.71	231.00
368.09	231.05
368.47	231.00
368.85	231.02
369.23	231.01
369.61	230.94
369.99	230.97
370.37	230.97
370.75	230.93
371.13	230.89
371.51	230.76
371.89	230.79
372.27	230.76
372.65	230.76
373.03	230.64
373.41	230.64
373.78	230.57
374.16	230.42
374.54	230.31
374.92	230.15
375.30	230.13
375.68	230.03
376.06	229.89
376.44	229.80
376.82	229.63
377.19	229.50
377.57	229.40
377.95	229.26
378.33	229.13
378.71	229.10
379.09	229.00
379.47	228.90
379.84	228.71
380.22	228.60
380.60	228.46
380.98	228.45
381.36	228.31
381.73	228.26
382.11	228.20
382.49	228.15
382.87	228.08
383.25	227.93
383.62	228.09
384.00	228.01
384.38	227.86
384.76	227.97
385.13	228.00
385.51	228.01
385.89	227.82
386.27	227.77
386.64	227.74
387.02	227.76
387.40	227.72
387.78	227.74
388.15	227.65
388.53	227.63
388.91	227.62
389.29	227.58
389.66	227.60
390.04	227.55
390.42	227.57
390.79	227.66
391.17	227.75
391.55	227.49
391.92	227.46
392.30	227.63
392.68	227.53
393.05	227.50
393.43	227.56
393.81	227.72
394.18	227.69
394.56	227.65
394.94	227.64
395.31	227.76
395.69	227.90
396.06	228.03
396.44	228.19
396.82	228.22
397.19	228.47
397.57	228.53
397.95	228.70
398.32	228.82
398.70	228.90
399.07	229.11
399.45	229.36
399.82	229.63
400.20	229.69
400.58	229.84
400.95	229.99
401.33	230.14
401.70	230.47
402.08	230.77
402.45	231.04
402.83	231.35
403.20	231.60
403.58	231.92
403.95	232.28
404.33	232.66
404.71	232.97
405.08	233.41
405.46	233.78
405.83	234.11
406.21	234.54
406.58	235.03
406.96	235.41
407.33	235.89
407.70	236.42
408.08	237.15
408.45	237.81
408.83	238.57
409.20	239.20
409.58	239.78
409.95	240.56
410.33	241.38
410.70	242.23
411.08	243.16
411.45	244.07
411.82	245.04
412.20	246.09
412.57	247.48
412.95	248.65
413.32	249.95
413.69	251.47
414.07	252.80
414.44	254.33
414.82	255.98
415.19	257.89
415.56	259.78
415.94	261.81
416.31	264.06
416.68	266.21
417.06	268.76
417.43	271.22
417.81	273.95
418.18	276.74
418.55	279.76
418.93	283.04
419.30	286.42
419.67	290.00
420.04	293.45
420.42	297.02
420.79	301.08
421.16	305.43
421.54	309.74
421.91	314.43
422.28	319.30
422.66	324.37
423.03	329.36
423.40	334.43
423.77	339.82
424.15	345.30
424.52	351.06
424.89	357.43
425.26	363.61
425.64	369.40
426.01	375.83
426.38	382.44
426.75	388.93
427.13	395.61
427.50	402.75
427.87	410.37
428.24	417.99
428.61	425.53
428.99	433.50
429.36	442.20
429.73	450.59
430.10	458.91
430.47	467.41
430.85	476.42
431.22	485.90
431.59	495.62
431.96	505.07
432.33	515.60
432.70	525.83
433.08	537.77
433.45	549.16
433.82	560.20
434.19	572.60
434.56	584.88
434.93	596.62
435.30	608.22
435.68	620.97
436.05	633.82
436.42	646.25
436.79	657.50
437.16	669.89
437.53	682.96
437.90	695.87
438.27	708.78
438.64	721.79
439.01	734.01
439.38	745.21
439.75	755.89
440.13	768.01
440.50	779.54
440.87	789.05
441.24	798.83
441.61	810.13
441.98	818.59
442.35	828.15
442.72	837.99
443.09	847.61
443.46	853.67
443.83	857.81
444.20	862.04
444.57	867.88
444.94	871.05
445.31	874.49
445.68	877.55
446.05	879.88
446.42	880.03
446.79	880.01
447.16	880.00
447.53	880.36
447.90	877.24
448.27	873.87
448.64	868.35
449.01	865.23
449.37	858.05
449.74	851.21
450.11	842.52
450.48	833.00
450.85	823.34
451.22	815.60
451.59	808.17
451.96	800.85
452.33	790.44
452.70	781.15
453.07	769.83
453.43	758.57
453.80	747.29
454.17	736.54
454.54	726.19
454.91	714.75
455.28	703.81
455.65	693.35
456.02	682.66
456.38	674.03
456.75	663.01
457.12	653.38
457.49	643.73
457.86	634.93
458.23	627.23
458.59	618.49
458.96	609.40
459.33	601.47
459.70	593.42
460.07	586.93
460.43	579.75
460.80	572.64
461.17	566.34
461.54	559.83
461.91	553.58
462.27	547.20
462.64	541.98
463.01	536.14
463.38	530.60
463.74	525.02
464.11	520.00
464.48	515.30
464.85	510.62
465.21	506.90
465.58	503.04
465.95	498.30
466.32	494.49
466.68	490.55
467.05	486.71
467.42	482.77
467.78	478.87
468.15	474.83
468.52	471.85
468.88	468.15
469.25	464.81
469.62	462.30
469.98	459.61
470.35	456.91
470.72	454.24
471.08	451.43
471.45	449.04
471.82	446.55
472.18	443.73
472.55	441.80
472.92	439.57
473.28	437.44
473.65	435.59
474.02	433.40
474.38	432.00
474.75	430.40
475.11	428.79
475.48	427.56
475.85	426.25
476.21	425.20
476.58	424.35
476.94	423.51
477.31	422.35
477.67	421.42
478.04	420.67
478.41	420.26
478.77	419.84
479.14	419.30
479.50	419.00
479.87	419.24
480.23	419.14
480.60	419.07
480.96	418.84
481.33	419.03
481.69	419.47
482.06	419.37
482.42	419.37
482.79	419.60
483.15	420.20
483.52	421.15
483.88	421.86
484.25	422.55
484.61	423.46
484.98	424.46
485.34	425.71
485.71	427.16
486.07	428.40
486.44	429.64
486.80	431.31
487.17	433.05
487.53	434.76
487.90	436.65
488.26	438.75
488.62	441.23
488.99	443.53
489.35	445.81
489.72	448.53
490.08	451.47
490.44	454.39
490.81	457.18
491.17	460.01
491.54	463.12
491.90	466.30
492.26	469.73
492.63	473.23
492.99	476.70
493.36	480.31
493.72	484.36
494.08	488.34
494.45	492.52
494.81	496.76
495.17	501.11
495.54	505.76
495.90	510.50
496.26	515.00
496.63	519.66
496.99	524.60
497.35	529.85
497.72	535.02
498.08	540.16
498.44	545.62
498.80	551.42
499.17	557.15
499.53	562.81
499.89	568.30
500.26	573.84
500.62	579.62
500.98	585.28
501.34	591.10
501.71	597.08
502.07	603.02
502.43	609.12
502.79	615.14
503.16	621.27
503.52	627.27
503.88	633.43
504.24	639.66
504.60	645.72
504.97	651.90
505.33	658.28
505.69	664.98
506.05	671.23
506.41	677.14
506.78	683.16
507.14	689.39
507.50	695.95
507.86	702.61
508.22	708.97
508.59	715.19
508.95	721.39
509.31	727.84
509.67	734.01
510.03	740.09
510.39	746.05
510.75	752.03
511.12	757.95
511.48	764.16
511.84	770.02
512.20	776.13
512.56	781.97
512.92	787.89
513.28	793.39
513.64	798.68
514.00	804.29
514.37	809.53
514.73	814.82
515.09	819.78
515.45	824.75
515.81	829.70
516.17	834.88
516.53	840.04
516.89	844.50
517.25	849.00
517.61	853.45
517.97	857.92
518.33	862.20
518.69	866.46
519.05	870.47
519.41	874.63
519.77	878.90
520.13	883.16
520.49	886.84
520.85	890.57
521.21	894.48
521.57	898.51
521.93	902.02
522.29	905.78
522.65	909.25
523.01	912.66
523.37	915.93
523.73	919.01
524.09	922.00
524.45	925.37
524.81	928.70
525.17	932.20
525.53	935.73
525.89	938.70
526.25	941.93
526.61	944.81
526.97	947.89
527.33	950.70
527.68	953.68
528.04	956.52
528.40	959.16
528.76	962.21
529.12	965.27
529.48	968.38
529.84	970.89
530.20	974.12
530.56	977.50
530.91	980.93
531.27	984.29
531.63	987.00
531.99	989.97
532.35	993.05
532.71	995.44
533.07	998.12
533.42	1001.04
533.78	1003.69
534.14	1006.70
534.50	1009.20
534.86	1012.09
535.21	1014.21
535.57	1017.05
535.93	1019.98
536.29	1022.49
536.65	1024.81
537.00	1027.44
537.36	1030.28
537.72	1032.39
538.08	1034.44
538.44	1036.44
538.79	1038.57
539.15	1040.92
539.51	1043.51
539.87	1045.81
540.22	1048.45
540.58	1050.95
540.94	1053.47
541.29	1056.01
541.65	1058.05
542.01	1060.66
542.37	1062.66
542.72	1065.16
543.08	1067.23
543.44	1069.44
543.79	1071.49
544.15	1073.76
544.51	1076.40
544.87	1078.69
545.22	1081.10
545.58	1083.25
545.94	1085.06
546.29	1086.94
546.65	1088.95
547.01	1090.81
547.36	1092.62
547.72	1094.48
548.07	1096.28
548.43	1098.06
548.79	1099.80
549.14	1101.58
549.50	1103.04
549.86	1104.83
550.21	1106.29
550.57	1108.10
550.92	1109.82
551.28	1111.56
551.64	1112.90
551.99	1114.20
552.35	1115.51
552.70	1117.07
553.06	1118.80
553.41	1120.67
553.77	1122.31
554.13	1124.15
554.48	1126.05
554.84	1127.68
555.19	1129.06
555.55	1130.29
555.90	1131.42
556.26	1132.82
556.61	1134.09
556.97	1135.73
557.32	1137.25
557.68	1138.70
558.03	1140.01
558.39	1141.23
558.74	1143.08
559.10	1144.57
559.45	1145.90
559.81	1147.92
560.16	1149.14
560.52	1150.00
560.87	1151.39
561.23	1152.40
561.58	1153.94
561.94	1154.79
562.29	1155.90
562.64	1156.85
563.00	1157.77
563.35	1159.27
563.71	1160.49
564.06	1161.90
564.42	1162.94
564.77	1163.89
565.12	1165.01
565.48	1165.92
565.83	1166.80
566.19	1167.30
566.54	1167.93
566.89	1168.60
567.25	1168.78
567.60	1169.96
567.96	1171.10
568.31	1171.97
568.66	1172.49
569.02	1172.63
569.37	1172.65
569.72	1172.89
570.08	1173.44
570.43	1174.10
570.78	1173.93
571.14	1173.70
571.49	1173.81
571.84	1174.20
572.20	1173.89
572.55	1173.71
572.90	1173.35
573.26	1173.01
573.61	1172.46
573.96	1171.97
574.31	1170.98
574.67	1170.01
575.02	1168.36
575.37	1167.11
575.72	1165.27
576.08	1164.22
576.43	1162.75
576.78	1161.99
577.13	1160.80
577.49	1159.66
577.84	1158.22
578.19	1157.15
578.54	1156.06
578.90	1154.70
579.25	1152.36
579.60	1150.64
579.95	1148.50
580.30	1146.53
580.66	1144.54
581.01	1142.73
581.36	1140.96
581.71	1139.62
582.06	1138.06
582.42	1136.06
582.77	1133.93
583.12	1132.39
583.47	1130.98
583.82	1129.04
584.17	1126.72
584.53	1124.68
584.88	1122.46
585.23	1120.46
585.58	1118.35
585.93	1115.89
586.28	1113.80
586.63	1111.81
586.98	1110.08
587.34	1108.31
587.69	1106.64
588.04	1104.72
588.39	1102.76
588.74	1100.03
589.09	1097.17
589.44	1094.30
589.79	1092.24
590.14	1090.02
590.49	1087.36
590.84	1084.64
591.19	1082.48
591.54	1079.44
591.89	1076.39
592.25	1073.44
592.60	1070.09
592.95	1066.90
593.30	1063.84
593.65	1060.22
594.00	1057.29
594.35	1054.40
594.70	1050.78
595.05	1047.51
595.40	1044.27
595.75	1040.55
596.10	1037.62
596.45	1034.92
596.80	1032.01
597.15	1029.06
597.50	1025.93
597.85	1023.37
598.19	1020.35
598.54	1017.14
598.89	1014.56
599.24	1011.96
599.59	1009.20
599.94	1006.48
600.29	1003.50
600.64	1000.44
600.99	997.21
601.34	994.06
601.69	990.25
602.04	987.51
602.39	984.06
602.74	981.06
603.08	978.23
603.43	975.52
603.78	972.41
604.13	969.51
604.48	966.09
604.83	963.07
605.18	959.70
605.53	955.86
605.87	952.01
606.22	948.68
606.57	945.32
606.92	941.89
607.27	938.65
607.62	935.40
607.96	932.27
608.31	929.22
608.66	925.47
609.01	921.91
609.36	918.01
609.70	914.12
610.05	910.14
610.40	906.39
610.75	902.11
611.10	898.11
611.44	893.62
611.79	890.00
612.14	885.86
612.49	881.48
612.83	877.79
613.18	874.25
613.53	870.16
613.88	865.79
614.22	861.64
614.57	857.14
614.92	852.90
615.27	848.80
615.61	844.87
615.96	841.26
616.31	837.85
616.65	834.46
617.00	831.17
617.35	827.64
617.70	823.55
618.04	819.76
618.39	815.93
618.74	812.75
619.08	808.56
619.43	804.91
619.78	801.52
620.12	797.88
620.47	794.03
620.82	790.30
621.16	786.70
621.51	783.20
621.85	779.93
622.20	776.40
622.55	772.84
622.89	769.44
623.24	766.04
623.59	762.61
623.93	759.25
624.28	755.81
624.62	752.30
624.97	749.30
625.32	746.09
625.66	743.03
626.01	739.45
626.35	736.56
626.70	733.23
627.04	729.92
627.39	726.51
627.73	723.22
628.08	720.18
628.43	717.09
628.77	714.03
629.12	710.80
629.46	707.45
629.81	704.21
630.15	700.61
630.50	697.20
630.84	693.47
631.19	689.94
631.53	686.63
631.88	682.87
632.22	679.19
632.57	676.17
632.91	672.69
633.26	669.51
633.60	665.96
633.95	662.88
634.29	659.79
634.64	656.73
634.98	653.53
635.32	650.46
635.67	647.54
636.01	644.47
636.36	641.30
636.70	638.80
637.05	635.81
637.39	633.12
637.73	629.95
638.08	627.45
638.42	624.61
638.77	621.68
639.11	619.23
639.45	616.71
639.80	613.78
640.14	610.95
640.49	608.06
640.83	605.38
641.17	602.32
641.52	599.19
641.86	596.36
642.20	593.65
642.55	590.76
642.89	587.91
643.23	584.99
643.58	582.64
643.92	579.57
644.26	576.85
644.61	574.09
644.95	571.70
645.29	568.56
645.64	565.76
645.98	562.97
646.32	560.18
646.66	557.34
647.01	554.48
647.35	551.75
647.69	549.29
648.04	546.81
648.38	544.30
648.72	541.58
649.06	538.76
649.41	536.03
649.75	532.95
650.09	530.28
650.43	527.50
650.78	524.50
651.12	521.71
651.46	519.21
651.80	516.68
652.14	514.08
652.49	511.86
652.83	509.40
653.17	506.81
653.51	504.38
653.85	501.80
654.20	499.28
654.54	496.73
654.88	493.96
655.22	491.10
655.56	488.49
655.90	486.26
656.25	483.93
656.59	481.77
656.93	479.80
657.27	477.38
657.61	475.13
657.95	473.05
658.29	470.74
658.64	468.38
658.98	466.05
659.32	463.60
659.66	461.36
660.00	459.00
660.34	456.73
660.68	454.49
661.02	452.35
661.36	450.29
661.70	448.26
662.05	446.38
662.39	444.60
662.73	442.69
663.07	440.74
663.41	438.95
663.75	436.84
664.09	434.80
664.43	433.00
664.77	431.01
665.11	428.99
665.45	427.25
665.79	425.53
666.13	423.51
666.47	421.69
666.81	419.60
667.15	417.70
667.49	416.20
667.83	414.41
668.17	412.63
668.51	410.76
668.85	409.05
669.19	407.29
669.53	405.50
669.87	403.72
670.21	402.03
670.55	400.21
670.89	398.79
671.23	397.41
671.57	395.72
671.91	394.27
672.25	392.79
672.58	391.38
672.92	389.70
673.26	388.37
673.60	387.04
673.94	385.68
674.28	384.56
674.62	383.06
674.96	381.75
675.30	380.54
675.64	379.06
675.97	377.63
676.31	376.43
676.65	375.16
676.99	373.94
677.33	372.61
677.67	371.43
678.01	370.03
678.34	368.64
678.68	367.39
679.02	366.03
679.36	364.66
679.70	363.18
680.04	361.88
680.37	360.62
680.71	359.40
681.05	358.37
681.39	357.11
681.73	355.85
682.06	354.64
682.40	353.46
682.74	352.52
683.08	351.49
683.42	350.30
683.75	349.11
684.09	347.83
684.43	346.59
684.77	345.45
685.10	344.38
685.44	343.19
685.78	342.09
686.12	340.91
686.45	339.72
686.79	338.72
687.13	337.72
687.46	336.44
687.80	335.40
688.14	334.10
688.48	333.00
688.81	331.89
689.15	330.83
689.49	329.76
689.82	328.66
690.16	327.60
690.50	326.44
690.83	325.36
691.17	324.28
691.51	323.32
691.84	322.32
692.18	321.16
692.52	320.12
692.85	319.23
693.19	318.41
693.52	317.56
693.86	316.59
694.20	315.62
694.53	314.85
694.87	313.83
695.21	312.96
695.54	311.98
695.88	311.12
696.21	310.18
696.55	309.17
696.88	308.23
697.22	307.30
697.56	306.48
697.89	305.59
698.23	304.81
698.56	303.96
698.90	303.07
699.23	302.26
699.57	301.49
699.90	300.51
700.24	299.68
700.58	298.78
700.91	298.03
701.25	297.53
701.58	296.84
701.92	296.06
702.25	295.33
702.59	294.58
702.92	293.77
703.26	293.06
703.59	292.40
703.93	291.88
704.26	291.16
704.60	290.57
704.93	289.93
705.26	289.30
705.60	288.76
705.93	288.17
706.27	287.69
706.60	287.15
706.94	286.59
707.27	285.96
707.61	285.39
707.94	284.76
708.27	283.90
708.61	283.11
708.94	282.61
709.28	281.97
709.61	281.43
709.94	281.00
710.28	280.42
710.61	279.99
710.95	279.27
711.28	278.88
711.61	278.20
711.95	277.67
712.28	277.01
712.61	276.38
712.95	275.90
713.28	275.44
713.61	274.91
713.95	274.43
714.28	273.95
714.61	273.46
714.95	272.99
715.28	272.42
715.61	272.08
715.95	271.54
716.28	271.18
716.61	270.77
716.95	270.25
717.28	269.80
717.61	269.29
717.94	268.98
718.28	268.46
718.61	268.25
718.94	267.87
719.27	267.54
719.61	267.20
719.94	266.77
720.27	266.28
720.60	265.94
720.94	265.55
721.27	265.20
721.60	264.95
721.93	264.61
722.27	264.40
722.60	264.02
722.93	263.71
723.26	263.34
723.59	263.00
723.93	262.70
724.26	262.44
724.59	262.12
724.92	261.72
725.25	261.46
725.59	261.06
725.92	260.76
726.25	260.40
726.58	260.17
726.91	259.72
727.24	259.35
727.57	258.99
727.91	258.67
728.24	258.27
728.57	257.82
728.90	257.53
729.23	257.14
729.56	256.93
729.89	256.60
730.22	256.24
730.55	256.00
730.89	255.60
731.22	255.28
731.55	254.90
731.88	254.70
732.21	254.25
732.54	253.92
732.87	253.62
733.20	253.50
733.53	253.14
733.86	253.01
734.19	252.73
734.52	252.52
734.85	252.39
735.18	252.11
735.51	251.97
735.84	251.58
736.17	251.49
736.50	251.13
736.83	251.17
737.16	250.84
737.49	250.46
737.82	250.31
738.15	250.13
738.48	249.98
738.81	249.67
739.14	249.55
739.47	249.31
739.80	249.10
740.13	248.90
740.46	248.66
740.79	248.36
741.12	248.15
741.45	247.80
741.78	247.45
742.11	247.36
742.44	247.15
742.77	247.13
743.10	246.77
743.43	246.57
743.75	246.10
744.08	246.34
744.41	246.25
744.74	246.10
745.07	245.90
745.40	245.85
745.73	245.80
746.06	245.50
746.39	245.29
746.71	245.10
747.04	244.83
747.37	244.70
747.70	244.59
748.03	244.55
748.36	244.47
748.68	244.40
749.01	244.16
749.34	244.02
749.67	243.90
750.00	243.91
750.33	243.92
750.65	243.85
750.98	243.40
751.31	243.26
751.64	243.05
751.97	243.02
752.29	242.85
752.62	242.62
752.95	242.58
753.28	242.48
753.60	242.36
753.93	242.28
754.26	242.17
754.59	242.04
754.91	241.80
755.24	241.64
755.57	241.54
755.90	241.45
756.22	241.29
756.55	241.11
756.88	240.79
757.20	240.52
757.53	240.34
757.86	240.25
758.19	240.18
758.51	240.07
758.84	239.80
759.17	239.68
759.49	239.51
759.82	239.39
760.15	239.36
760.47	239.27
760.80	239.04
761.13	238.93
761.45	238.80
761.78	238.73
762.11	238.65
762.43	238.41
762.76	238.25
763.08	238.24
763.41	238.12
763.74	238.00
764.06	237.87
764.39	237.81
764.71	237.64
765.04	237.44
765.37	237.33
765.69	237.30
766.02	237.10
766.34	237.03
766.67	236.91
767.00	236.76
767.32	236.70
767.65	236.71
767.97	236.53
768.30	236.36
768.62	236.18
768.95	236.07
769.27	235.90
769.60	235.86
769.92	235.69
770.25	235.57
770.57	235.49
770.90	235.41
771.22	235.20
771.55	235.21
771.87	235.10
772.20	235.01
772.52	235.11
772.85	235.18
773.17	235.01
773.50	234.96
773.82	234.88
774.15	234.65
774.47	234.52
774.80	234.50
775.12	234.49
775.45	234.46
775.77	234.33
776.09	234.48
776.42	234.46
776.74	234.39
777.07	234.26
777.39	234.20
777.72	234.06
778.04	234.11
778.36	234.01
778.69	234.01
779.01	233.99
779.33	233.71
779.66	233.49
779.98	233.47
780.31	233.50
780.63	233.49
780.95	233.47
781.28	233.31
781.60	233.27
781.92	233.28
782.25	233.18
782.57	233.20
782.89	233.01
783.22	232.95
783.54	232.93
783.86	232.95
784.19	232.98
784.51	233.09
784.83	232.99
785.16	232.97
785.48	232.92
785.80	232.90
786.12	232.93
786.45	232.95
786.77	233.03
787.09	232.87
787.42	232.70
787.74	232.74
788.06	232.79
788.38	232.69
788.71	232.57
789.03	232.56
789.35	232.57
789.67	232.57
789.99	232.51
790.32	232.38
