SpectraSuite Data File
++++++++++++++++++++++++++++++++++++
Date: Fri Feb 01 14:42:03 EST 2013
User: group
Dark Spectrum Present: No
Reference Spectrum Present: No
Number of Sampled Component Spectra: 1
Spectrometers: USB2E7196
Integration Time (usec): 70000 (USB2E7196)
Spectra Averaged: 10 (USB2E7196)
Boxcar Smoothing: 10 (USB2E7196)
Correct for Electrical Dark: No (USB2E7196)
Strobe/Lamp Enabled: No (USB2E7196)
Correct for Detector Non-linearity: No (USB2E7196)
Correct for Stray Light: No (USB2E7196)
Number of Pixels in Processed Spectrum: 2048
>>>>>Begin Processed Spectral Data<<<<<
339.09	0.00
339.48	215.70
339.86	216.90
340.24	218.00
340.63	221.50
341.01	225.20
341.39	223.60
341.78	224.00
342.16	224.50
342.54	224.10
342.93	214.07
343.31	224.85
343.69	225.47
344.07	225.97
344.46	226.28
344.84	226.68
345.22	226.83
345.60	227.04
345.99	227.21
346.37	227.36
346.75	227.58
347.13	227.85
347.52	227.94
347.90	228.00
348.28	228.02
348.66	228.23
349.05	228.12
349.43	228.26
349.81	228.35
350.19	228.42
350.57	228.60
350.96	228.71
351.34	228.87
351.72	228.88
352.10	229.03
352.48	229.27
352.87	229.22
353.25	229.19
353.63	229.23
354.01	229.34
354.39	229.46
354.77	229.56
355.15	229.65
355.54	229.81
355.92	229.84
356.30	229.85
356.68	229.99
357.06	230.00
357.44	230.01
357.82	230.16
358.20	230.15
358.58	230.19
358.97	230.19
359.35	230.21
359.73	230.40
360.11	230.37
360.49	230.46
360.87	230.44
361.25	230.58
361.63	230.70
362.01	230.80
362.39	230.86
362.77	230.91
363.15	231.00
363.53	231.01
363.91	231.10
364.29	231.24
364.67	231.11
365.05	231.20
365.43	231.22
365.81	231.20
366.19	231.33
366.57	231.40
366.95	231.39
367.33	231.41
367.71	231.34
368.09	231.35
368.47	231.33
368.85	231.47
369.23	231.59
369.61	231.55
369.99	231.63
370.37	231.62
370.75	231.73
371.13	231.51
371.51	231.36
371.89	231.36
372.27	231.27
372.65	231.20
373.03	231.25
373.41	231.18
373.78	231.07
374.16	230.97
374.54	230.81
374.92	230.87
375.30	230.79
375.68	230.64
376.06	230.66
376.44	230.67
376.82	230.55
377.19	230.33
377.57	230.26
377.95	230.11
378.33	230.00
378.71	229.70
379.09	229.73
379.47	229.75
379.84	229.60
380.22	229.51
380.60	229.48
380.98	229.31
381.36	229.14
381.73	229.12
382.11	229.05
382.49	228.90
382.87	228.80
383.25	228.78
383.62	228.92
384.00	228.75
384.38	228.60
384.76	228.58
385.13	228.62
385.51	228.60
385.89	228.47
386.27	228.40
386.64	228.50
387.02	228.37
387.40	228.24
387.78	228.32
388.15	228.33
388.53	228.19
388.91	228.20
389.29	228.22
389.66	228.30
390.04	228.18
390.42	228.21
390.79	228.24
391.17	228.20
391.55	228.05
391.92	228.18
392.30	228.11
392.68	228.07
393.05	227.99
393.43	227.85
393.81	227.90
394.18	227.91
394.56	227.84
394.94	228.05
395.31	228.08
395.69	228.16
396.06	228.20
396.44	228.27
396.82	228.36
397.19	228.50
397.57	228.45
397.95	228.70
398.32	228.78
398.70	228.78
399.07	228.91
399.45	228.97
399.82	228.94
400.20	229.03
400.58	229.14
400.95	229.22
401.33	229.50
401.70	229.85
402.08	230.05
402.45	230.20
402.83	230.33
403.20	230.50
403.58	230.66
403.95	230.80
404.33	230.97
404.71	231.25
405.08	231.53
405.46	231.78
405.83	231.99
406.21	232.19
406.58	232.51
406.96	232.74
407.33	233.09
407.70	233.42
408.08	233.98
408.45	234.30
408.83	234.71
409.20	235.01
409.58	235.17
409.95	235.54
410.33	235.91
410.70	236.26
411.08	236.77
411.45	237.23
411.82	237.67
412.20	238.37
412.57	238.88
412.95	239.44
413.32	240.03
413.69	240.60
414.07	241.34
414.44	242.03
414.82	242.69
415.19	243.53
415.56	244.35
415.94	245.04
416.31	246.02
416.68	247.04
417.06	248.22
417.43	249.23
417.81	250.40
418.18	251.61
418.55	252.90
418.93	254.16
419.30	255.53
419.67	257.08
420.04	258.50
420.42	260.03
420.79	261.80
421.16	263.53
421.54	265.38
421.91	267.18
422.28	269.19
422.66	271.31
423.03	273.35
423.40	275.49
423.77	277.73
424.15	279.97
424.52	282.18
424.89	284.60
425.26	287.01
425.64	289.22
426.01	291.73
426.38	294.22
426.75	296.83
427.13	299.59
427.50	302.34
427.87	305.22
428.24	308.17
428.61	310.90
428.99	313.96
429.36	317.11
429.73	320.39
430.10	323.47
430.47	326.66
430.85	329.94
431.22	333.46
431.59	337.15
431.96	340.56
432.33	344.43
432.70	348.09
433.08	352.50
433.45	356.63
433.82	360.54
434.19	365.00
434.56	369.34
434.93	373.36
435.30	377.50
435.68	381.90
436.05	386.18
436.42	390.30
436.79	394.13
437.16	398.27
437.53	402.55
437.90	406.85
438.27	411.08
438.64	415.38
439.01	419.27
439.38	422.74
439.75	426.15
440.13	429.99
440.50	433.59
440.87	436.47
441.24	439.47
441.61	442.82
441.98	445.21
442.35	448.06
442.72	450.98
443.09	453.56
443.46	455.05
443.83	455.99
444.20	456.77
444.57	458.12
444.94	458.71
445.31	459.25
445.68	459.77
446.05	459.82
446.42	459.11
446.79	458.23
447.16	457.42
447.53	456.85
447.90	455.03
448.27	453.03
448.64	450.43
449.01	448.63
449.37	445.52
449.74	442.52
450.11	438.89
450.48	434.80
450.85	430.92
451.22	427.45
451.59	424.22
451.96	421.21
452.33	417.14
452.70	413.38
453.07	409.05
453.43	404.42
453.80	400.12
454.17	395.98
454.54	392.19
454.91	388.00
455.28	383.87
455.65	379.96
456.02	376.37
456.38	373.09
456.75	368.90
457.12	365.43
457.49	362.00
457.86	358.70
458.23	355.88
458.59	352.53
458.96	349.40
459.33	346.49
459.70	343.58
460.07	341.12
460.43	338.37
460.80	335.80
461.17	333.52
461.54	331.20
461.91	329.02
462.27	326.71
462.64	324.70
463.01	322.50
463.38	320.60
463.74	318.34
464.11	316.32
464.48	314.68
464.85	312.97
465.21	311.54
465.58	310.06
465.95	308.43
466.32	307.20
466.68	305.76
467.05	304.33
467.42	302.95
467.78	301.52
468.15	300.17
468.52	299.10
468.88	297.91
469.25	296.71
469.62	295.66
469.98	294.56
470.35	293.63
470.72	292.63
471.08	291.43
471.45	290.55
471.82	289.78
472.18	288.83
472.55	288.16
472.92	287.28
473.28	286.57
473.65	285.77
474.02	285.02
474.38	284.53
474.75	284.01
475.11	283.31
475.48	282.84
475.85	282.31
476.21	281.95
476.58	281.55
476.94	281.27
477.31	281.16
477.67	280.94
478.04	280.69
478.41	280.69
478.77	280.76
479.14	280.59
479.50	280.56
479.87	280.57
480.23	280.62
480.60	280.61
480.96	280.55
481.33	280.71
481.69	280.90
482.06	280.96
482.42	281.20
482.79	281.48
483.15	281.83
483.52	282.34
483.88	282.63
484.25	282.96
484.61	283.32
484.98	283.59
485.34	284.20
485.71	284.84
486.07	285.60
486.44	286.13
486.80	287.00
487.17	287.95
487.53	289.03
487.90	290.09
488.26	291.28
488.62	292.55
488.99	293.77
489.35	295.04
489.72	296.46
490.08	298.05
490.44	299.69
490.81	301.41
491.17	303.16
491.54	305.23
491.90	307.40
492.26	309.63
492.63	312.01
492.99	314.43
493.36	317.05
493.72	319.60
494.08	322.57
494.45	325.68
494.81	328.82
495.17	332.02
495.54	335.42
495.90	339.10
496.26	342.81
496.63	346.77
496.99	351.06
497.35	355.60
497.72	360.20
498.08	364.99
498.44	370.09
498.80	375.58
499.17	380.84
499.53	386.57
499.89	392.55
500.26	398.73
500.62	405.18
500.98	411.82
501.34	418.87
501.71	426.20
502.07	433.60
502.43	441.33
502.79	449.54
503.16	457.98
503.52	466.72
503.88	475.64
504.24	484.96
504.60	494.70
504.97	504.67
505.33	514.94
505.69	526.17
506.05	537.37
506.41	548.62
506.78	560.44
507.14	572.48
507.50	584.96
507.86	597.99
508.22	611.34
508.59	624.84
508.95	639.02
509.31	653.34
509.67	667.95
510.03	682.80
510.39	698.10
510.75	714.24
511.12	730.27
511.48	746.99
511.84	763.96
512.20	780.97
512.56	798.77
512.92	816.79
513.28	834.87
513.64	853.23
514.00	872.12
514.37	891.36
514.73	910.86
515.09	930.60
515.45	950.25
515.81	970.41
516.17	991.44
516.53	1012.20
516.89	1033.32
517.25	1055.02
517.61	1076.81
517.97	1098.56
518.33	1120.11
518.69	1142.45
519.05	1165.29
519.41	1188.35
519.77	1211.52
520.13	1235.04
520.49	1258.12
520.85	1281.32
521.21	1304.93
521.57	1329.12
521.93	1352.56
522.29	1377.31
522.65	1401.42
523.01	1425.93
523.37	1450.07
523.73	1473.87
524.09	1498.23
524.45	1523.13
524.81	1547.90
525.17	1573.23
525.53	1598.50
525.89	1623.94
526.25	1649.50
526.61	1674.11
526.97	1699.16
527.33	1724.60
527.68	1749.83
528.04	1775.21
528.40	1800.83
528.76	1826.88
529.12	1852.61
529.48	1879.06
529.84	1903.54
530.20	1929.47
530.56	1955.35
530.91	1981.56
531.27	2008.14
531.63	2033.58
531.99	2058.78
532.35	2083.88
532.71	2107.89
533.07	2133.22
533.42	2157.47
533.78	2181.73
534.14	2206.46
534.50	2230.36
534.86	2254.44
535.21	2277.35
535.57	2301.58
535.93	2325.08
536.29	2348.25
536.65	2371.00
537.00	2393.35
537.36	2416.76
537.72	2438.52
538.08	2460.74
538.44	2482.25
538.79	2503.11
539.15	2524.38
539.51	2545.84
539.87	2567.38
540.22	2589.08
540.58	2610.17
540.94	2631.08
541.29	2650.49
541.65	2669.99
542.01	2690.32
542.37	2709.95
542.72	2729.37
543.08	2748.26
543.44	2767.00
543.79	2784.02
544.15	2801.42
544.51	2820.05
544.87	2837.75
545.22	2855.36
545.58	2872.38
545.94	2888.17
546.29	2904.57
546.65	2919.56
547.01	2934.20
547.36	2948.85
547.72	2963.20
548.07	2976.68
548.43	2989.96
548.79	3003.40
549.14	3016.66
549.50	3028.35
549.86	3039.82
550.21	3051.67
550.57	3063.26
550.92	3075.03
551.28	3086.48
551.64	3098.05
551.99	3108.18
552.35	3118.49
552.70	3128.68
553.06	3138.45
553.41	3149.06
553.77	3158.20
554.13	3168.96
554.48	3178.82
554.84	3187.59
555.19	3196.35
555.55	3204.70
555.90	3213.11
556.26	3221.76
556.61	3229.71
556.97	3237.11
557.32	3244.91
557.68	3252.73
558.03	3259.61
558.39	3265.73
558.74	3273.92
559.10	3280.55
559.45	3287.05
559.81	3293.86
560.16	3299.40
560.52	3304.68
560.87	3310.90
561.23	3315.48
561.58	3320.75
561.94	3325.34
562.29	3329.02
562.64	3332.36
563.00	3336.50
563.35	3341.53
563.71	3346.77
564.06	3351.51
564.42	3356.54
564.77	3360.65
565.12	3364.30
565.48	3368.00
565.83	3370.61
566.19	3372.86
566.54	3374.50
566.89	3375.64
567.25	3376.18
567.60	3378.72
567.96	3380.39
568.31	3380.61
568.66	3382.01
569.02	3382.38
569.37	3382.58
569.72	3383.35
570.08	3383.88
570.43	3383.59
570.78	3382.14
571.14	3379.70
571.49	3377.89
571.84	3376.75
572.20	3374.52
572.55	3372.00
572.90	3368.79
573.26	3367.26
573.61	3364.09
573.96	3360.78
574.31	3357.17
574.67	3352.81
575.02	3347.12
575.37	3342.68
575.72	3337.21
576.08	3332.82
576.43	3326.97
576.78	3321.76
577.13	3317.44
577.49	3312.78
577.84	3307.11
578.19	3301.30
578.54	3295.65
578.90	3288.56
579.25	3280.77
579.60	3273.42
579.95	3265.92
580.30	3258.71
580.66	3250.40
581.01	3242.60
581.36	3234.82
581.71	3228.18
582.06	3221.59
582.42	3214.34
582.77	3205.93
583.12	3198.19
583.47	3190.78
583.82	3183.58
584.17	3175.25
584.53	3167.01
584.88	3158.42
585.23	3150.19
585.58	3142.41
585.93	3134.35
586.28	3126.84
586.63	3119.96
586.98	3112.02
587.34	3104.15
587.69	3095.76
588.04	3087.87
588.39	3079.83
588.74	3070.81
589.09	3060.89
589.44	3050.72
589.79	3042.38
590.14	3034.40
590.49	3025.21
590.84	3015.05
591.19	3005.80
591.54	2995.29
591.89	2983.37
592.25	2973.23
592.60	2961.62
592.95	2950.46
593.30	2939.37
593.65	2928.20
594.00	2916.17
594.35	2905.93
594.70	2893.96
595.05	2883.79
595.40	2872.73
595.75	2860.89
596.10	2851.09
596.45	2840.98
596.80	2832.03
597.15	2821.65
597.50	2810.47
597.85	2800.74
598.19	2791.10
598.54	2780.95
598.89	2771.59
599.24	2763.62
599.59	2753.47
599.94	2744.95
600.29	2735.05
600.64	2725.08
600.99	2714.40
601.34	2704.55
601.69	2693.40
602.04	2684.29
602.39	2674.08
602.74	2664.28
603.08	2655.40
603.43	2645.64
603.78	2635.62
604.13	2624.73
604.48	2614.22
604.83	2603.85
605.18	2593.34
605.53	2581.59
605.87	2569.28
606.22	2558.20
606.57	2546.18
606.92	2534.92
607.27	2523.98
607.62	2513.49
607.96	2502.61
608.31	2492.63
608.66	2480.95
609.01	2469.46
609.36	2456.77
609.70	2443.55
610.05	2430.74
610.40	2418.18
610.75	2405.45
611.10	2393.11
611.44	2379.65
611.79	2367.47
612.14	2354.92
612.49	2341.32
612.83	2329.05
613.18	2317.15
613.53	2304.78
613.88	2291.92
614.22	2279.46
614.57	2266.20
614.92	2252.92
615.27	2240.80
615.61	2227.93
615.96	2215.67
616.31	2204.34
616.65	2193.90
617.00	2183.29
617.35	2172.00
617.70	2159.71
618.04	2147.44
618.39	2135.64
618.74	2124.64
619.08	2112.47
619.43	2100.78
619.78	2090.23
620.12	2078.43
620.47	2066.87
620.82	2055.00
621.16	2043.67
621.51	2032.79
621.85	2021.65
622.20	2010.01
622.55	1998.14
622.89	1986.94
623.24	1976.03
623.59	1965.12
623.93	1954.16
624.28	1942.71
624.62	1931.01
624.97	1920.16
625.32	1909.76
625.66	1898.77
626.01	1887.90
626.35	1876.65
626.70	1865.74
627.04	1854.80
627.39	1844.01
627.73	1833.22
628.08	1822.57
628.43	1811.59
628.77	1800.59
629.12	1789.10
629.46	1778.20
629.81	1767.01
630.15	1755.56
630.50	1744.26
630.84	1732.20
631.19	1719.81
631.53	1708.42
631.88	1697.20
632.22	1685.78
632.57	1674.42
632.91	1663.20
633.26	1651.56
633.60	1640.19
633.95	1629.03
634.29	1618.00
634.64	1607.83
634.98	1596.70
635.32	1586.62
635.67	1576.65
636.01	1566.35
636.36	1556.30
636.70	1546.34
637.05	1536.56
637.39	1527.07
637.73	1517.10
638.08	1508.26
638.42	1499.16
638.77	1489.69
639.11	1479.88
639.45	1470.32
639.80	1460.34
640.14	1450.71
640.49	1441.28
640.83	1431.97
641.17	1422.49
641.52	1412.75
641.86	1402.75
642.20	1393.84
642.55	1383.99
642.89	1374.44
643.23	1364.32
643.58	1355.38
643.92	1346.10
644.26	1336.12
644.61	1326.75
644.95	1317.80
645.29	1307.32
645.64	1297.50
645.98	1287.82
646.32	1278.77
646.66	1269.40
647.01	1260.44
647.35	1251.26
647.69	1242.06
648.04	1233.10
648.38	1223.45
648.72	1213.76
649.06	1204.12
649.41	1194.74
649.75	1185.19
650.09	1176.03
650.43	1166.92
650.78	1156.89
651.12	1147.07
651.46	1138.43
651.80	1129.51
652.14	1120.48
652.49	1111.85
652.83	1103.13
653.17	1094.32
653.51	1085.56
653.85	1076.93
654.20	1068.08
654.54	1059.25
654.88	1050.76
655.22	1041.60
655.56	1033.13
655.90	1025.05
656.25	1017.21
656.59	1008.77
656.93	1000.60
657.27	992.04
657.61	983.53
657.95	976.20
658.29	968.85
658.64	960.70
658.98	952.40
659.32	943.91
659.66	936.30
660.00	928.70
660.34	920.98
660.68	913.43
661.02	905.66
661.36	898.53
661.70	891.31
662.05	884.18
662.39	877.42
662.73	870.90
663.07	864.16
663.41	857.35
663.75	850.60
664.09	844.17
664.43	837.73
664.77	831.55
665.11	824.97
665.45	818.58
665.79	812.47
666.13	806.13
666.47	800.11
666.81	793.31
667.15	786.53
667.49	780.58
667.83	774.47
668.17	768.49
668.51	762.32
668.85	756.33
669.19	750.51
669.53	745.15
669.87	739.28
670.21	733.69
670.55	727.93
670.89	722.42
671.23	717.00
671.57	711.70
671.91	706.39
672.25	700.85
672.58	695.41
672.92	690.02
673.26	685.29
673.60	680.61
673.94	676.15
674.28	671.82
674.62	667.16
674.96	662.61
675.30	658.17
675.64	653.70
675.97	649.35
676.31	644.92
676.65	640.17
676.99	635.74
677.33	631.11
677.67	626.60
678.01	622.12
678.34	617.63
678.68	613.39
679.02	609.15
679.36	605.16
679.70	601.18
680.04	597.03
680.37	592.60
680.71	588.38
681.05	584.62
681.39	580.74
681.73	576.98
682.06	573.21
682.40	569.46
682.74	565.75
683.08	561.96
683.42	558.14
683.75	554.57
684.09	550.76
684.43	547.17
684.77	543.86
685.10	540.43
685.44	537.03
685.78	533.51
686.12	530.23
686.45	526.73
686.79	523.22
687.13	519.97
687.46	516.80
687.80	513.40
688.14	509.91
688.48	506.58
688.81	503.17
689.15	499.96
689.49	496.80
689.82	493.56
690.16	490.29
690.50	487.30
690.83	484.28
691.17	481.46
691.51	478.52
691.84	475.61
692.18	472.60
692.52	469.70
692.85	466.81
693.19	463.85
693.52	461.16
693.86	458.41
694.20	455.58
694.53	452.91
694.87	450.20
695.21	447.49
695.54	444.88
695.88	442.17
696.21	439.31
696.55	436.67
696.88	434.31
697.22	431.74
697.56	429.26
697.89	426.63
698.23	424.07
698.56	421.61
698.90	419.02
699.23	416.63
699.57	414.24
699.90	411.72
700.24	409.24
700.58	406.75
700.91	404.41
701.25	402.37
701.58	399.99
701.92	397.85
702.25	395.58
702.59	393.36
702.92	391.21
703.26	389.30
703.59	387.23
703.93	385.17
704.26	383.26
704.60	381.31
704.93	379.33
705.26	377.31
705.60	375.60
705.93	373.90
706.27	372.20
706.60	370.53
706.94	368.79
707.27	367.07
707.61	365.27
707.94	363.60
708.27	361.79
708.61	360.06
708.94	358.38
709.28	357.01
709.61	355.50
709.94	354.04
710.28	352.44
710.61	350.89
710.95	349.20
711.28	347.81
711.61	346.21
711.95	344.73
712.28	343.29
712.61	341.69
712.95	340.18
713.28	338.84
713.61	337.29
713.95	335.98
714.28	334.73
714.61	333.51
714.95	332.24
715.28	330.93
715.61	329.72
715.95	328.47
716.28	327.16
716.61	325.93
716.95	324.68
717.28	323.55
717.61	322.38
717.94	321.20
718.28	319.93
718.61	318.76
718.94	317.78
719.27	316.74
719.61	315.82
719.94	314.80
720.27	313.63
720.60	312.63
720.94	311.61
721.27	310.72
721.60	309.83
721.93	308.85
722.27	307.97
722.60	307.12
722.93	306.26
723.26	305.23
723.59	304.30
723.93	303.53
724.26	302.75
724.59	301.97
724.92	301.20
725.25	300.45
725.59	299.75
725.92	298.98
726.25	298.18
726.58	297.47
726.91	296.74
727.24	296.07
727.57	295.38
727.91	294.69
728.24	293.94
728.57	293.15
728.90	292.39
729.23	291.67
729.56	291.02
729.89	290.37
730.22	289.72
730.55	289.14
730.89	288.45
731.22	287.76
731.55	286.96
731.88	286.38
732.21	285.62
732.54	285.08
732.87	284.32
733.20	283.79
733.53	283.19
733.86	282.58
734.19	281.89
734.52	281.39
734.85	280.90
735.18	280.23
735.51	279.70
735.84	279.25
736.17	278.80
736.50	278.09
736.83	277.74
737.16	277.30
737.49	276.72
737.82	276.19
738.15	275.65
738.48	275.18
738.81	274.52
739.14	274.02
739.47	273.28
739.80	272.83
740.13	272.35
740.46	271.76
740.79	271.24
741.12	270.71
741.45	270.12
741.78	269.64
742.11	269.30
742.44	268.70
742.77	268.17
743.10	267.65
743.43	267.21
743.75	266.53
744.08	266.19
744.41	265.72
744.74	265.25
745.07	264.74
745.40	264.38
745.73	264.07
746.06	263.66
746.39	263.21
746.71	262.73
747.04	262.22
747.37	261.76
747.70	261.19
748.03	260.78
748.36	260.46
748.68	259.93
749.01	259.39
749.34	259.06
749.67	258.70
750.00	258.26
750.33	258.03
750.65	257.63
750.98	257.12
751.31	256.63
751.64	256.23
751.97	256.03
752.29	255.56
752.62	255.15
752.95	254.87
753.28	254.59
753.60	254.28
753.93	253.94
754.26	253.60
754.59	253.30
754.91	253.02
755.24	252.60
755.57	252.34
755.90	252.08
756.22	251.72
756.55	251.31
756.88	251.01
757.20	250.59
757.53	250.24
757.86	249.97
758.19	249.80
758.51	249.54
758.84	249.17
759.17	249.00
759.49	248.68
759.82	248.38
760.15	248.12
760.47	247.93
760.80	247.74
761.13	247.58
761.45	247.41
761.78	247.15
762.11	246.95
762.43	246.74
762.76	246.51
763.08	246.45
763.41	246.40
763.74	246.21
764.06	245.91
764.39	245.89
764.71	245.64
765.04	245.40
765.37	245.20
765.69	245.02
766.02	244.72
766.34	244.67
766.67	244.50
767.00	244.38
767.32	244.29
767.65	244.13
767.97	243.96
768.30	243.81
768.62	243.65
768.95	243.58
769.27	243.34
769.60	243.22
769.92	242.94
770.25	242.79
770.57	242.60
770.90	242.50
771.22	242.17
771.55	242.00
771.87	242.00
772.20	241.87
772.52	241.97
772.85	242.06
773.17	241.88
773.50	241.80
773.82	241.63
774.15	241.47
774.47	241.32
774.80	241.25
775.12	241.16
775.45	241.08
775.77	240.91
776.09	240.89
776.42	240.77
776.74	240.78
777.07	240.58
777.39	240.53
777.72	240.36
778.04	240.28
778.36	240.27
778.69	240.12
779.01	239.98
779.33	239.65
779.66	239.47
779.98	239.39
780.31	239.21
780.63	239.25
780.95	239.10
781.28	238.93
781.60	238.78
781.92	238.71
782.25	238.60
782.57	238.49
782.89	238.32
783.22	238.16
783.54	238.06
783.86	237.96
784.19	237.79
784.51	237.75
784.83	237.60
785.16	237.36
785.48	237.21
785.80	237.17
