SpectraSuite Data File
++++++++++++++++++++++++++++++++++++
Date: Fri Feb 01 14:40:19 EST 2013
User: group
Dark Spectrum Present: No
Reference Spectrum Present: No
Number of Sampled Component Spectra: 1
Spectrometers: USB2E7196
Integration Time (usec): 70000 (USB2E7196)
Spectra Averaged: 10 (USB2E7196)
Boxcar Smoothing: 10 (USB2E7196)
Correct for Electrical Dark: No (USB2E7196)
Strobe/Lamp Enabled: No (USB2E7196)
Correct for Detector Non-linearity: No (USB2E7196)
Correct for Stray Light: No (USB2E7196)
Number of Pixels in Processed Spectrum: 2048
>>>>>Begin Processed Spectral Data<<<<<
339.09	0.00
339.48	216.10
339.86	216.50
340.24	219.60
340.63	220.60
341.01	225.10
341.39	221.90
341.78	225.50
342.16	225.30
342.54	226.50
342.93	214.56
343.31	225.38
343.69	225.87
344.07	226.38
344.46	226.74
344.84	227.03
345.22	227.21
345.60	227.47
345.99	227.70
346.37	227.83
346.75	227.81
347.13	227.84
347.52	227.91
347.90	228.00
348.28	228.02
348.66	227.98
349.05	227.92
349.43	228.00
349.81	228.01
350.19	228.19
350.57	228.27
350.96	228.40
351.34	228.49
351.72	228.59
352.10	228.70
352.48	228.79
352.87	228.95
353.25	228.92
353.63	229.01
354.01	229.02
354.39	229.15
354.77	229.28
355.15	229.38
355.54	229.42
355.92	229.42
356.30	229.52
356.68	229.78
357.06	229.93
357.44	229.99
357.82	230.08
358.20	230.05
358.58	230.12
358.97	230.21
359.35	230.38
359.73	230.50
360.11	230.48
360.49	230.57
360.87	230.54
361.25	230.65
361.63	230.87
362.01	230.84
362.39	230.88
362.77	230.93
363.15	231.00
363.53	230.97
363.91	231.00
364.29	231.06
364.67	230.91
365.05	230.84
365.43	230.81
365.81	230.79
366.19	230.90
366.57	230.96
366.95	230.91
367.33	230.76
367.71	230.77
368.09	230.83
368.47	230.79
368.85	230.75
369.23	230.74
369.61	230.52
369.99	230.59
370.37	230.52
370.75	230.61
371.13	230.57
371.51	230.53
371.89	230.48
372.27	230.42
372.65	230.45
373.03	230.43
373.41	230.38
373.78	230.36
374.16	230.21
374.54	230.08
374.92	229.96
375.30	230.01
375.68	229.87
376.06	229.82
376.44	229.80
376.82	229.75
377.19	229.70
377.57	229.61
377.95	229.44
378.33	229.32
378.71	229.09
379.09	228.98
379.47	228.86
379.84	228.75
380.22	228.62
380.60	228.49
380.98	228.33
381.36	228.24
381.73	228.08
382.11	227.98
382.49	227.89
382.87	227.80
383.25	227.61
383.62	227.71
384.00	227.60
384.38	227.48
384.76	227.44
385.13	227.42
385.51	227.35
385.89	227.32
386.27	227.24
386.64	227.18
387.02	227.13
387.40	227.08
387.78	227.12
388.15	227.05
388.53	227.00
388.91	226.93
389.29	226.76
389.66	226.81
390.04	226.79
390.42	226.89
390.79	226.74
391.17	226.83
391.55	226.69
391.92	226.70
392.30	226.65
392.68	226.59
393.05	226.59
393.43	226.63
393.81	226.61
394.18	226.75
394.56	226.78
394.94	226.77
395.31	226.86
395.69	226.89
396.06	226.93
396.44	227.01
396.82	227.10
397.19	227.40
397.57	227.49
397.95	227.67
398.32	227.72
398.70	227.97
399.07	228.12
399.45	228.11
399.82	228.17
400.20	228.23
400.58	228.38
400.95	228.40
401.33	228.60
401.70	228.86
402.08	228.95
402.45	229.13
402.83	229.30
403.20	229.43
403.58	229.49
403.95	229.72
404.33	229.90
404.71	230.14
405.08	230.43
405.46	230.60
405.83	230.78
406.21	230.85
406.58	231.10
406.96	231.24
407.33	231.51
407.70	231.77
408.08	232.11
408.45	232.41
408.83	232.65
409.20	232.87
409.58	232.99
409.95	233.20
410.33	233.43
410.70	233.71
411.08	233.96
411.45	234.32
411.82	234.58
412.20	234.99
412.57	235.41
412.95	235.60
413.32	236.05
413.69	236.30
414.07	236.76
414.44	237.14
414.82	237.44
415.19	237.94
415.56	238.47
415.94	239.07
416.31	239.64
416.68	240.23
417.06	240.92
417.43	241.62
417.81	242.45
418.18	243.26
418.55	244.03
418.93	244.80
419.30	245.61
419.67	246.54
420.04	247.32
420.42	248.20
420.79	249.33
421.16	250.33
421.54	251.65
421.91	252.80
422.28	253.98
422.66	255.33
423.03	256.66
423.40	257.97
423.77	259.29
424.15	260.55
424.52	261.88
424.89	263.40
425.26	264.83
425.64	266.14
426.01	267.69
426.38	269.32
426.75	270.94
427.13	272.73
427.50	274.46
427.87	276.31
428.24	278.10
428.61	279.84
428.99	281.74
429.36	283.67
429.73	285.68
430.10	287.80
430.47	289.71
430.85	291.75
431.22	293.82
431.59	296.22
431.96	298.45
432.33	300.91
432.70	303.35
433.08	306.09
433.45	308.81
433.82	311.50
434.19	314.33
434.56	317.20
434.93	319.76
435.30	322.43
435.68	325.38
436.05	328.28
436.42	330.98
436.79	333.54
437.16	336.14
437.53	339.07
437.90	341.89
438.27	344.77
438.64	347.64
439.01	350.29
439.38	352.43
439.75	354.68
440.13	357.35
440.50	359.49
440.87	361.44
441.24	363.40
441.61	365.49
441.98	367.12
442.35	368.87
442.72	370.81
443.09	372.72
443.46	373.59
443.83	374.19
444.20	374.73
444.57	375.61
444.94	376.16
445.31	376.43
445.68	376.81
446.05	376.92
446.42	376.53
446.79	376.29
447.16	375.98
447.53	375.60
447.90	374.49
448.27	373.47
448.64	371.88
449.01	370.77
449.37	368.84
449.74	366.84
450.11	364.87
450.48	362.35
450.85	359.79
451.22	357.77
451.59	355.89
451.96	353.95
452.33	351.38
452.70	348.85
453.07	346.13
453.43	343.11
453.80	340.42
454.17	337.83
454.54	335.26
454.91	332.51
455.28	329.79
455.65	327.11
456.02	324.90
456.38	322.87
456.75	320.09
457.12	317.89
457.49	315.62
457.86	313.22
458.23	311.51
458.59	309.35
458.96	307.25
459.33	305.19
459.70	303.39
460.07	301.98
460.43	300.30
460.80	298.59
461.17	297.26
461.54	295.75
461.91	294.26
462.27	292.75
462.64	291.49
463.01	290.29
463.38	289.22
463.74	287.54
464.11	286.24
464.48	285.24
464.85	284.00
465.21	283.14
465.58	282.26
465.95	281.04
466.32	280.19
466.68	279.27
467.05	278.45
467.42	277.42
467.78	276.22
468.15	275.22
468.52	274.54
468.88	273.56
469.25	272.60
469.62	271.87
469.98	271.08
470.35	270.30
470.72	269.53
471.08	268.68
471.45	268.13
471.82	267.50
472.18	266.80
472.55	266.28
472.92	265.60
473.28	264.96
473.65	264.34
474.02	263.64
474.38	263.15
474.75	262.63
475.11	262.11
475.48	261.74
475.85	261.40
476.21	260.92
476.58	260.56
476.94	260.15
477.31	259.74
477.67	259.36
478.04	258.93
478.41	258.70
478.77	258.50
479.14	258.18
479.50	257.88
479.87	257.57
480.23	257.28
480.60	257.09
480.96	256.83
481.33	256.66
481.69	256.65
482.06	256.34
482.42	256.11
482.79	255.94
483.15	255.87
483.52	255.88
483.88	255.81
484.25	255.62
484.61	255.52
484.98	255.53
485.34	255.61
485.71	255.79
486.07	255.76
486.44	255.66
486.80	255.67
487.17	255.81
487.53	256.03
487.90	256.21
488.26	256.43
488.62	256.70
488.99	256.92
489.35	257.08
489.72	257.33
490.08	257.69
490.44	258.06
490.81	258.35
491.17	258.64
491.54	259.06
491.90	259.55
492.26	260.11
492.63	260.51
492.99	260.96
493.36	261.53
493.72	262.21
494.08	262.82
494.45	263.53
494.81	264.34
495.17	265.03
495.54	265.87
495.90	266.75
496.26	267.64
496.63	268.69
496.99	269.66
497.35	270.87
497.72	271.99
498.08	273.11
498.44	274.34
498.80	275.72
499.17	277.14
499.53	278.55
499.89	280.11
500.26	281.80
500.62	283.47
500.98	285.20
501.34	286.98
501.71	288.97
502.07	290.99
502.43	292.94
502.79	295.03
503.16	297.28
503.52	299.60
503.88	302.00
504.24	304.51
504.60	307.20
504.97	309.97
505.33	312.88
505.69	315.90
506.05	318.92
506.41	322.01
506.78	325.37
507.14	328.91
507.50	332.60
507.86	336.34
508.22	340.15
508.59	343.99
508.95	348.12
509.31	352.44
509.67	356.88
510.03	361.34
510.39	365.98
510.75	370.69
511.12	375.45
511.48	380.40
511.84	385.51
512.20	390.74
512.56	396.24
512.92	401.89
513.28	407.73
513.64	413.70
514.00	419.73
514.37	425.98
514.73	432.13
515.09	438.40
515.45	444.82
515.81	451.34
516.17	458.26
516.53	465.23
516.89	472.21
517.25	479.30
517.61	486.67
517.97	494.15
518.33	501.66
518.69	509.40
519.05	517.35
519.41	525.30
519.77	533.57
520.13	541.81
520.49	549.99
520.85	558.51
521.21	567.27
521.57	576.10
521.93	584.65
522.29	593.72
522.65	602.75
523.01	611.90
523.37	621.11
523.73	630.54
524.09	639.95
524.45	649.39
524.81	659.22
525.17	669.31
525.53	679.57
525.89	689.72
526.25	700.07
526.61	710.35
526.97	721.04
527.33	731.56
527.68	742.05
528.04	752.81
528.40	763.58
528.76	774.48
529.12	785.49
529.48	796.42
529.84	807.26
530.20	818.57
530.56	830.15
530.91	842.12
531.27	853.63
531.63	865.10
531.99	876.74
532.35	888.05
532.71	899.10
533.07	910.73
533.42	922.16
533.78	933.81
534.14	945.45
534.50	956.22
534.86	967.87
535.21	979.29
535.57	991.11
535.93	1002.75
536.29	1014.26
536.65	1025.76
537.00	1037.33
537.36	1048.99
537.72	1060.54
538.08	1071.69
538.44	1082.50
538.79	1093.74
539.15	1104.70
539.51	1116.24
539.87	1127.71
540.22	1139.27
540.58	1150.56
540.94	1161.81
541.29	1172.87
541.65	1183.69
542.01	1195.27
542.37	1206.17
542.72	1217.30
543.08	1227.86
543.44	1238.84
543.79	1249.09
544.15	1259.58
544.51	1270.60
544.87	1281.27
545.22	1291.48
545.58	1301.73
545.94	1311.68
546.29	1321.75
546.65	1331.67
547.01	1341.08
547.36	1350.36
547.72	1359.46
548.07	1368.62
548.43	1377.91
548.79	1386.67
549.14	1395.46
549.50	1404.27
549.86	1412.44
550.21	1420.62
550.57	1429.13
550.92	1437.13
551.28	1445.47
551.64	1453.10
551.99	1460.84
552.35	1468.54
552.70	1475.94
553.06	1483.70
553.41	1491.92
553.77	1498.94
554.13	1506.60
554.48	1514.17
554.84	1521.67
555.19	1528.83
555.55	1535.81
555.90	1542.37
556.26	1549.31
556.61	1556.04
556.97	1562.56
557.32	1569.29
557.68	1575.65
558.03	1581.68
558.39	1587.31
558.74	1593.82
559.10	1600.53
559.45	1606.34
559.81	1612.66
560.16	1618.47
560.52	1623.85
560.87	1629.14
561.23	1634.59
561.58	1640.37
561.94	1645.44
562.29	1649.86
562.64	1654.47
563.00	1659.06
563.35	1664.40
563.71	1669.46
564.06	1674.47
564.42	1678.89
564.77	1683.43
565.12	1688.35
565.48	1693.12
565.83	1697.43
566.19	1701.20
566.54	1704.53
566.89	1708.01
567.25	1711.25
567.60	1715.04
567.96	1718.59
568.31	1721.76
568.66	1724.90
569.02	1727.42
569.37	1729.77
569.72	1733.04
570.08	1735.66
570.43	1737.98
570.78	1739.72
571.14	1741.06
571.49	1742.90
571.84	1745.31
572.20	1746.68
572.55	1747.84
572.90	1748.50
573.26	1750.01
573.61	1750.68
573.96	1751.76
574.31	1751.87
574.67	1751.37
575.02	1751.07
575.37	1751.11
575.72	1750.30
576.08	1749.94
576.43	1749.32
576.78	1749.26
577.13	1748.80
577.49	1748.76
577.84	1748.41
578.19	1747.55
578.54	1746.70
578.90	1745.10
579.25	1742.68
579.60	1741.52
579.95	1739.35
580.30	1737.45
580.66	1735.29
581.01	1733.32
581.36	1731.18
581.71	1730.21
582.06	1728.68
582.42	1726.55
582.77	1724.21
583.12	1722.30
583.47	1720.24
583.82	1718.35
584.17	1715.77
584.53	1712.91
584.88	1709.66
585.23	1706.84
585.58	1704.54
585.93	1702.12
586.28	1700.20
586.63	1698.28
586.98	1695.54
587.34	1693.54
587.69	1691.05
588.04	1688.50
588.39	1685.70
588.74	1681.98
589.09	1677.97
589.44	1674.73
589.79	1672.30
590.14	1669.14
590.49	1665.38
590.84	1661.67
591.19	1658.08
591.54	1653.81
591.89	1649.50
592.25	1646.23
592.60	1641.30
592.95	1636.54
593.30	1632.05
593.65	1627.01
594.00	1622.23
594.35	1618.03
594.70	1612.69
595.05	1608.50
595.40	1603.64
595.75	1599.03
596.10	1595.21
596.45	1591.31
596.80	1587.27
597.15	1582.47
597.50	1578.11
597.85	1574.33
598.19	1570.55
598.54	1566.32
598.89	1562.52
599.24	1559.07
599.59	1554.52
599.94	1550.93
600.29	1546.92
600.64	1542.72
600.99	1538.15
601.34	1533.99
601.69	1529.27
602.04	1525.44
602.39	1520.70
602.74	1516.98
603.08	1513.00
603.43	1509.00
603.78	1504.54
604.13	1499.85
604.48	1495.47
604.83	1490.72
605.18	1485.98
605.53	1480.59
605.87	1474.65
606.22	1469.58
606.57	1464.09
606.92	1459.10
607.27	1454.27
607.62	1449.67
607.96	1444.70
608.31	1440.21
608.66	1434.53
609.01	1429.08
609.36	1422.77
609.70	1416.58
610.05	1410.00
610.40	1404.11
610.75	1397.84
611.10	1391.90
611.44	1385.38
611.79	1379.21
612.14	1373.25
612.49	1366.79
612.83	1360.38
613.18	1354.62
613.53	1348.47
613.88	1342.32
614.22	1335.88
614.57	1329.33
614.92	1322.86
615.27	1316.70
615.61	1310.18
615.96	1304.27
616.31	1298.62
616.65	1293.79
617.00	1288.56
617.35	1282.83
617.70	1276.70
618.04	1270.63
618.39	1264.68
618.74	1259.24
619.08	1253.05
619.43	1247.21
619.78	1241.66
620.12	1235.91
620.47	1230.19
620.82	1224.04
621.16	1218.22
621.51	1212.82
621.85	1207.16
622.20	1200.88
622.55	1194.84
622.89	1189.07
623.24	1183.46
623.59	1177.63
623.93	1171.97
624.28	1166.18
624.62	1160.50
624.97	1154.78
625.32	1149.38
625.66	1144.04
626.01	1138.36
626.35	1133.02
626.70	1127.22
627.04	1121.74
627.39	1115.90
627.73	1110.37
628.08	1105.15
628.43	1099.67
628.77	1093.97
629.12	1087.86
629.46	1082.11
629.81	1076.35
630.15	1070.07
630.50	1064.01
630.84	1057.56
631.19	1050.97
631.53	1044.85
631.88	1038.90
632.22	1032.84
632.57	1027.01
632.91	1020.42
633.26	1014.46
633.60	1007.77
633.95	1001.80
634.29	996.25
634.64	990.90
634.98	984.98
635.32	979.53
635.67	974.16
636.01	968.37
636.36	963.02
636.70	957.92
637.05	952.68
637.39	947.95
637.73	942.74
638.08	938.09
638.42	933.42
638.77	928.34
639.11	923.10
639.45	918.23
639.80	912.99
640.14	908.30
640.49	903.37
640.83	898.65
641.17	893.65
641.52	888.25
641.86	883.33
642.20	878.59
642.55	873.49
642.89	868.31
643.23	863.44
643.58	858.71
643.92	853.80
644.26	848.65
644.61	843.89
644.95	839.26
645.29	833.66
645.64	828.31
645.98	823.63
646.32	818.92
646.66	813.97
647.01	808.99
647.35	804.14
647.69	799.18
648.04	794.75
648.38	789.85
648.72	784.88
649.06	779.83
649.41	774.86
649.75	769.67
650.09	764.47
650.43	759.80
650.78	754.90
651.12	749.71
651.46	745.09
651.80	740.12
652.14	735.39
652.49	730.99
652.83	726.41
653.17	721.31
653.51	716.40
653.85	711.69
654.20	706.98
654.54	702.09
654.88	697.29
655.22	692.37
655.56	687.70
655.90	683.19
656.25	678.83
656.59	674.61
656.93	670.42
657.27	666.46
657.61	661.81
657.95	657.58
658.29	653.52
658.64	649.15
658.98	644.99
659.32	640.41
659.66	636.23
660.00	632.01
660.34	627.98
660.68	624.19
661.02	619.82
661.36	615.86
661.70	612.06
662.05	608.30
662.39	604.70
662.73	600.99
663.07	597.26
663.41	593.63
663.75	589.63
664.09	585.81
664.43	582.21
664.77	578.73
665.11	575.32
665.45	571.89
665.79	568.58
666.13	565.03
666.47	561.75
666.81	558.40
667.15	554.90
667.49	551.74
667.83	548.30
668.17	545.02
668.51	541.78
668.85	538.38
669.19	535.19
669.53	531.76
669.87	528.49
670.21	525.38
670.55	522.33
670.89	519.55
671.23	516.72
671.57	513.75
671.91	510.75
672.25	507.72
672.58	504.97
672.92	502.10
673.26	499.44
673.60	496.68
673.94	493.80
674.28	491.27
674.62	488.64
674.96	485.96
675.30	483.53
675.64	480.82
675.97	478.35
676.31	475.93
676.65	473.60
676.99	471.15
677.33	468.78
677.67	466.38
678.01	463.78
678.34	461.31
678.68	458.86
679.02	456.43
679.36	454.00
679.70	451.55
680.04	449.12
680.37	446.61
680.71	444.40
681.05	442.59
681.39	440.47
681.73	438.25
682.06	436.26
682.40	434.31
682.74	432.24
683.08	430.26
683.42	427.97
683.75	425.91
684.09	424.07
684.43	421.84
684.77	419.65
685.10	417.57
685.44	415.54
685.78	413.61
686.12	411.84
686.45	409.69
686.79	407.69
687.13	405.90
687.46	403.98
687.80	402.11
688.14	399.90
688.48	398.04
688.81	396.18
689.15	394.22
689.49	392.37
689.82	390.70
690.16	388.70
690.50	387.06
690.83	385.26
691.17	383.29
691.51	381.75
691.84	380.19
692.18	378.61
692.52	376.90
692.85	375.19
693.19	373.57
693.52	372.10
693.86	370.33
694.20	368.62
694.53	367.11
694.87	365.52
695.21	363.87
695.54	362.24
695.88	360.61
696.21	359.11
696.55	357.60
696.88	356.05
697.22	354.63
697.56	353.20
697.89	351.82
698.23	350.46
698.56	348.89
698.90	347.40
699.23	345.88
699.57	344.56
699.90	343.11
700.24	341.48
700.58	340.07
700.91	338.88
701.25	337.59
701.58	336.40
701.92	334.97
702.25	333.75
702.59	332.67
702.92	331.39
703.26	330.12
703.59	328.84
703.93	327.89
704.26	326.74
704.60	325.53
704.93	324.35
705.26	323.25
705.60	322.25
705.93	321.18
706.27	320.32
706.60	319.37
706.94	318.40
707.27	317.45
707.61	316.48
707.94	315.46
708.27	314.46
708.61	313.35
708.94	312.51
709.28	311.51
709.61	310.40
709.94	309.46
710.28	308.48
710.61	307.60
710.95	306.40
711.28	305.66
711.61	304.67
711.95	303.71
712.28	302.88
712.61	301.87
712.95	301.01
713.28	300.09
713.61	299.06
713.95	298.21
714.28	297.36
714.61	296.53
714.95	295.80
715.28	294.89
715.61	294.12
715.95	293.22
716.28	292.50
716.61	291.70
716.95	290.97
717.28	290.36
717.61	289.66
717.94	288.98
718.28	288.11
718.61	287.50
718.94	286.77
719.27	286.03
719.61	285.52
719.94	284.76
720.27	284.01
720.60	283.46
720.94	282.83
721.27	282.31
721.60	281.75
721.93	281.16
722.27	280.73
722.60	280.01
722.93	279.41
723.26	278.72
723.59	278.08
723.93	277.50
724.26	276.94
724.59	276.42
724.92	275.86
725.25	275.27
725.59	274.74
725.92	274.38
726.25	273.86
726.58	273.28
726.91	272.96
727.24	272.51
727.57	271.99
727.91	271.38
728.24	270.94
728.57	270.46
728.90	269.96
729.23	269.36
729.56	269.11
729.89	268.60
730.22	268.27
730.55	267.86
730.89	267.60
731.22	267.14
731.55	266.63
731.88	266.13
732.21	265.75
732.54	265.35
732.87	264.92
733.20	264.42
733.53	264.10
733.86	263.66
734.19	263.23
734.52	262.96
734.85	262.86
735.18	262.40
735.51	262.07
735.84	261.69
736.17	261.51
736.50	261.12
736.83	261.03
737.16	260.66
737.49	260.40
737.82	259.94
738.15	259.60
738.48	259.30
738.81	259.14
739.14	258.85
739.47	258.51
739.80	258.12
740.13	257.91
740.46	257.59
740.79	257.26
741.12	257.00
741.45	256.56
741.78	256.20
742.11	255.97
742.44	255.63
742.77	255.45
743.10	255.15
743.43	254.76
743.75	254.33
744.08	254.33
744.41	254.04
744.74	253.77
745.07	253.55
745.40	253.25
745.73	253.03
746.06	252.82
746.39	252.61
746.71	252.35
747.04	252.06
747.37	251.76
747.70	251.56
748.03	251.32
748.36	251.13
748.68	250.82
749.01	250.58
749.34	250.28
749.67	249.98
750.00	249.67
750.33	249.50
750.65	249.25
750.98	248.73
751.31	248.54
751.64	248.28
751.97	248.15
752.29	247.92
752.62	247.57
752.95	247.19
753.28	246.93
753.60	246.74
753.93	246.58
754.26	246.38
754.59	246.11
754.91	245.88
755.24	245.67
755.57	245.40
755.90	245.17
756.22	245.05
756.55	244.80
756.88	244.54
757.20	244.36
757.53	244.09
757.86	243.95
758.19	243.69
758.51	243.50
758.84	243.18
759.17	242.96
759.49	242.90
759.82	242.91
760.15	242.75
760.47	242.55
760.80	242.36
761.13	242.17
761.45	241.95
761.78	241.82
762.11	241.64
762.43	241.49
762.76	241.25
763.08	241.02
763.41	240.88
763.74	240.79
764.06	240.64
764.39	240.49
764.71	240.26
765.04	240.12
765.37	240.00
765.69	239.81
766.02	239.57
766.34	239.36
766.67	239.11
767.00	239.05
767.32	239.05
767.65	238.96
767.97	238.90
768.30	238.89
768.62	238.68
768.95	238.61
769.27	238.47
769.60	238.43
769.92	238.30
770.25	238.10
770.57	237.88
770.90	237.73
771.22	237.70
771.55	237.65
771.87	237.52
772.20	237.42
772.52	237.54
772.85	237.81
773.17	237.68
773.50	237.73
773.82	237.45
774.15	237.20
774.47	237.12
774.80	236.93
775.12	236.70
775.45	236.70
775.77	236.48
776.09	236.42
776.42	236.35
776.74	236.43
777.07	236.44
777.39	236.44
777.72	236.31
778.04	236.20
778.36	236.18
778.69	236.13
779.01	236.03
779.33	235.87
779.66	235.50
779.98	235.43
780.31	235.22
780.63	235.35
780.95	235.32
781.28	235.02
781.60	235.01
781.92	234.96
782.25	234.95
782.57	234.94
782.89	234.89
783.22	234.72
783.54	234.50
783.86	234.40
784.19	234.24
784.51	234.29
784.83	234.24
785.16	234.13
785.48	234.15
785.80	234.14
786.12	234.01
786.45	234.05
786.77	234.04
787.09	233.99
787.42	233.81
787.74	233.81
788.06	233.94
788.38	233.84
