SpectraSuite Data File
++++++++++++++++++++++++++++++++++++
Date: Fri Feb 01 14:35:46 EST 2013
User: group
Dark Spectrum Present: No
Reference Spectrum Present: No
Number of Sampled Component Spectra: 1
Spectrometers: USB2E7196
Integration Time (usec): 70000 (USB2E7196)
Spectra Averaged: 10 (USB2E7196)
Boxcar Smoothing: 10 (USB2E7196)
Correct for Electrical Dark: No (USB2E7196)
Strobe/Lamp Enabled: No (USB2E7196)
Correct for Detector Non-linearity: No (USB2E7196)
Correct for Stray Light: No (USB2E7196)
Number of Pixels in Processed Spectrum: 2048
>>>>>Begin Processed Spectral Data<<<<<
339.09	0.00
339.48	216.40
339.86	218.00
340.24	219.10
340.63	222.10
341.01	224.50
341.39	225.50
341.78	224.90
342.16	228.20
342.54	225.00
342.93	214.89
343.31	225.79
343.69	226.42
344.07	226.83
344.46	227.29
344.84	227.61
345.22	227.76
345.60	227.94
345.99	228.16
346.37	228.16
346.75	228.31
347.13	228.43
347.52	228.41
347.90	228.58
348.28	228.50
348.66	228.61
349.05	228.62
349.43	228.71
349.81	228.83
350.19	228.95
350.57	229.02
350.96	229.02
351.34	229.11
351.72	229.08
352.10	229.20
352.48	229.33
352.87	229.40
353.25	229.52
353.63	229.53
354.01	229.57
354.39	229.69
354.77	229.71
355.15	229.81
355.54	229.91
355.92	229.90
356.30	230.10
356.68	230.32
357.06	230.40
357.44	230.45
357.82	230.43
358.20	230.44
358.58	230.47
358.97	230.60
359.35	230.65
359.73	230.61
360.11	230.78
360.49	230.70
360.87	230.65
361.25	230.67
361.63	230.73
362.01	230.75
362.39	230.72
362.77	230.82
363.15	230.78
363.53	230.73
363.91	230.80
364.29	230.76
364.67	230.59
365.05	230.58
365.43	230.52
365.81	230.56
366.19	230.59
366.57	230.62
366.95	230.69
367.33	230.56
367.71	230.66
368.09	230.60
368.47	230.70
368.85	230.70
369.23	230.73
369.61	230.62
369.99	230.68
370.37	230.56
370.75	230.59
371.13	230.53
371.51	230.47
371.89	230.36
372.27	230.29
372.65	230.18
373.03	230.04
373.41	230.01
373.78	230.00
374.16	229.80
374.54	229.67
374.92	229.43
375.30	229.36
375.68	229.29
376.06	229.21
376.44	229.00
376.82	228.95
377.19	228.85
377.57	228.86
377.95	228.77
378.33	228.80
378.71	228.68
379.09	228.61
379.47	228.58
379.84	228.42
380.22	228.25
380.60	228.14
380.98	228.07
381.36	228.07
381.73	227.86
382.11	227.88
382.49	227.83
382.87	227.80
383.25	227.73
383.62	227.90
384.00	227.72
384.38	227.70
384.76	227.70
385.13	227.73
385.51	227.66
385.89	227.53
386.27	227.46
386.64	227.40
387.02	227.27
387.40	227.15
387.78	227.17
388.15	227.25
388.53	227.26
388.91	227.27
389.29	227.10
389.66	227.13
390.04	227.02
390.42	227.02
390.79	227.00
391.17	227.00
391.55	226.67
391.92	226.69
392.30	226.72
392.68	226.60
393.05	226.55
393.43	226.50
393.81	226.46
394.18	226.53
394.56	226.45
394.94	226.61
395.31	226.67
395.69	226.74
396.06	226.77
396.44	226.79
396.82	226.74
397.19	226.95
397.57	227.05
397.95	227.27
398.32	227.35
398.70	227.39
399.07	227.52
399.45	227.69
399.82	227.79
400.20	227.82
400.58	227.99
400.95	227.96
401.33	228.20
401.70	228.55
402.08	228.69
402.45	228.95
402.83	229.11
403.20	229.33
403.58	229.51
403.95	229.81
404.33	230.13
404.71	230.40
405.08	230.74
405.46	230.95
405.83	231.18
406.21	231.54
406.58	231.94
406.96	232.24
407.33	232.72
407.70	233.16
408.08	233.74
408.45	234.24
408.83	234.75
409.20	235.19
409.58	235.64
409.95	236.21
410.33	236.77
410.70	237.26
411.08	237.95
411.45	238.68
411.82	239.36
412.20	240.05
412.57	241.01
412.95	241.70
413.32	242.69
413.69	243.65
414.07	244.51
414.44	245.61
414.82	246.74
415.19	247.95
415.56	249.12
415.94	250.46
416.31	251.92
416.68	253.43
417.06	255.09
417.43	256.59
417.81	258.45
418.18	260.29
418.55	262.41
418.93	264.51
419.30	266.76
419.67	268.98
420.04	271.34
420.42	273.81
420.79	276.66
421.16	279.53
421.54	282.39
421.91	285.63
422.28	288.77
422.66	292.16
423.03	295.25
423.40	298.76
423.77	302.34
424.15	306.01
424.52	309.93
424.89	314.13
425.26	318.21
425.64	321.83
426.01	326.14
426.38	330.42
426.75	334.72
427.13	339.23
427.50	344.01
427.87	349.03
428.24	353.98
428.61	358.88
428.99	364.05
429.36	370.04
429.73	375.60
430.10	381.11
430.47	386.66
430.85	392.69
431.22	398.73
431.59	405.21
431.96	411.59
432.33	418.51
432.70	425.16
433.08	433.00
433.45	440.49
433.82	447.86
434.19	456.17
434.56	464.24
434.93	471.70
435.30	479.40
435.68	487.77
436.05	496.16
436.42	504.39
436.79	511.94
437.16	519.75
437.53	528.12
437.90	536.69
438.27	545.20
438.64	553.83
439.01	562.05
439.38	569.32
439.75	576.29
440.13	584.27
440.50	591.65
440.87	598.10
441.24	604.66
441.61	611.88
441.98	617.20
442.35	623.79
442.72	630.51
443.09	636.86
443.46	640.91
443.83	643.63
444.20	646.09
444.57	649.54
444.94	651.82
445.31	654.19
445.68	656.20
446.05	657.72
446.42	657.99
446.79	657.92
447.16	657.88
447.53	658.02
447.90	655.79
448.27	653.88
448.64	650.23
449.01	648.13
449.37	643.52
449.74	639.04
450.11	633.16
450.48	626.74
450.85	620.20
451.22	614.99
451.59	610.12
451.96	605.43
452.33	598.86
452.70	592.61
453.07	585.00
453.43	577.39
453.80	569.92
454.17	562.53
454.54	555.73
454.91	548.15
455.28	540.92
455.65	534.27
456.02	527.44
456.38	521.48
456.75	514.01
457.12	507.64
457.49	501.33
457.86	495.35
458.23	490.32
458.59	484.40
458.96	478.45
459.33	473.19
459.70	467.91
460.07	463.60
460.43	458.85
460.80	454.29
461.17	450.18
461.54	445.84
461.91	441.90
462.27	437.67
462.64	434.24
463.01	430.13
463.38	426.10
463.74	422.16
464.11	418.78
464.48	415.77
464.85	412.57
465.21	410.25
465.58	407.69
465.95	404.48
466.32	402.05
466.68	399.38
467.05	396.79
467.42	394.23
467.78	391.57
468.15	388.76
468.52	386.70
468.88	384.26
469.25	381.97
469.62	380.01
469.98	378.03
470.35	376.06
470.72	374.31
471.08	372.50
471.45	370.91
471.82	369.35
472.18	367.52
472.55	366.00
472.92	364.38
473.28	362.86
473.65	361.38
474.02	360.04
474.38	358.81
474.75	357.70
475.11	356.37
475.48	355.37
475.85	354.69
476.21	353.81
476.58	353.07
476.94	352.49
477.31	351.81
477.67	351.04
478.04	350.44
478.41	349.93
478.77	349.52
479.14	348.96
479.50	348.60
479.87	348.39
480.23	348.30
480.60	347.88
480.96	347.60
481.33	347.77
481.69	347.67
482.06	347.63
482.42	347.42
482.79	347.52
483.15	347.72
483.52	347.97
483.88	348.21
484.25	348.33
484.61	348.56
484.98	348.98
485.34	349.58
485.71	350.18
486.07	350.99
486.44	351.57
486.80	352.22
487.17	352.95
487.53	353.83
487.90	354.87
488.26	355.96
488.62	357.03
488.99	357.78
489.35	358.91
489.72	360.30
490.08	361.57
490.44	363.00
490.81	364.36
491.17	365.65
491.54	367.23
491.90	368.67
492.26	370.34
492.63	371.92
492.99	373.60
493.36	375.26
493.72	376.93
494.08	378.72
494.45	380.74
494.81	382.72
495.17	384.72
495.54	386.55
495.90	388.61
496.26	390.68
496.63	392.91
496.99	395.06
497.35	397.20
497.72	399.58
498.08	401.78
498.44	403.96
498.80	406.45
499.17	408.64
499.53	411.13
499.89	413.37
500.26	415.71
500.62	417.91
500.98	420.37
501.34	422.59
501.71	425.00
502.07	427.19
502.43	429.31
502.79	431.55
503.16	433.88
503.52	436.13
503.88	438.24
504.24	440.47
504.60	442.67
504.97	444.90
505.33	447.05
505.69	449.32
506.05	451.47
506.41	453.23
506.78	455.21
507.14	457.07
507.50	459.00
507.86	460.98
508.22	463.10
508.59	464.69
508.95	466.64
509.31	468.23
509.67	470.00
510.03	471.79
510.39	473.28
510.75	474.87
511.12	476.22
511.48	477.94
511.84	479.35
512.20	480.72
512.56	481.90
512.92	483.00
513.28	484.02
513.64	485.07
514.00	486.08
514.37	487.10
514.73	488.11
515.09	488.92
515.45	489.74
515.81	490.44
516.17	491.24
516.53	491.86
516.89	492.62
517.25	493.29
517.61	493.96
517.97	494.66
518.33	495.06
518.69	495.75
519.05	496.24
519.41	496.83
519.77	497.70
520.13	498.28
520.49	498.83
520.85	499.35
521.21	500.00
521.57	500.75
521.93	501.13
522.29	501.74
522.65	502.32
523.01	502.80
523.37	503.08
523.73	503.72
524.09	504.31
524.45	504.96
524.81	505.68
525.17	506.48
525.53	507.40
525.89	508.42
526.25	509.45
526.61	510.12
526.97	511.13
527.33	511.61
527.68	512.68
528.04	513.74
528.40	514.87
528.76	516.12
529.12	517.55
529.48	519.15
529.84	520.50
530.20	521.97
530.56	523.63
530.91	525.60
531.27	527.21
531.63	528.99
531.99	530.56
532.35	532.22
532.71	533.60
533.07	535.30
533.42	537.18
533.78	538.97
534.14	541.04
534.50	542.83
534.86	545.20
535.21	547.19
535.57	549.74
535.93	552.03
536.29	554.24
536.65	556.27
537.00	558.41
537.36	560.97
537.72	563.53
538.08	566.14
538.44	568.52
538.79	571.11
539.15	573.44
539.51	576.45
539.87	579.29
540.22	582.52
540.58	585.51
540.94	588.31
541.29	591.04
541.65	594.05
542.01	597.58
542.37	600.45
542.72	603.50
543.08	606.45
543.44	609.74
543.79	612.80
544.15	616.40
544.51	620.04
544.87	623.38
545.22	626.82
545.58	629.85
545.94	633.20
546.29	636.63
546.65	640.16
547.01	643.36
547.36	646.77
547.72	650.21
548.07	653.58
548.43	657.07
548.79	660.88
549.14	664.14
549.50	667.32
549.86	670.87
550.21	674.51
550.57	677.96
550.92	681.51
551.28	685.29
551.64	688.68
551.99	692.11
552.35	695.48
552.70	698.94
553.06	702.61
553.41	706.20
553.77	710.02
554.13	713.92
554.48	717.82
554.84	721.37
555.19	724.84
555.55	728.56
555.90	732.06
556.26	735.71
556.61	739.37
556.97	742.87
557.32	746.54
557.68	749.95
558.03	753.69
558.39	757.00
558.74	760.27
559.10	763.77
559.45	767.24
559.81	771.02
560.16	774.61
560.52	778.28
560.87	782.07
561.23	785.32
561.58	788.73
561.94	792.17
562.29	795.62
562.64	799.01
563.00	802.30
563.35	805.70
563.71	809.07
564.06	812.67
564.42	815.98
564.77	819.14
565.12	822.53
565.48	825.93
565.83	829.14
566.19	832.52
566.54	835.91
566.89	838.94
567.25	842.10
567.60	845.28
567.96	848.25
568.31	850.78
568.66	853.67
569.02	855.90
569.37	858.35
569.72	860.95
570.08	863.51
570.43	865.75
570.78	868.27
571.14	870.46
571.49	872.53
571.84	875.19
572.20	877.52
572.55	879.60
572.90	881.10
573.26	883.04
573.61	885.00
573.96	886.44
574.31	887.95
574.67	889.05
575.02	890.08
575.37	891.10
575.72	892.04
576.08	893.27
576.43	894.72
576.78	896.05
577.13	897.21
577.49	898.25
577.84	899.53
578.19	900.27
578.54	900.96
578.90	901.71
579.25	901.79
579.60	902.10
579.95	902.52
580.30	903.08
580.66	903.50
581.01	903.60
581.36	903.79
581.71	904.14
582.06	904.43
582.42	904.78
582.77	904.88
583.12	905.27
583.47	905.24
583.82	905.30
584.17	904.91
584.53	904.76
584.88	904.80
585.23	904.70
585.58	904.82
585.93	904.85
586.28	904.84
586.63	905.02
586.98	904.99
587.34	904.57
587.69	904.18
588.04	903.83
588.39	903.49
588.74	902.78
589.09	902.09
589.44	901.46
589.79	900.85
590.14	900.42
590.49	899.67
590.84	898.83
591.19	898.34
591.54	897.45
591.89	896.16
592.25	895.05
592.60	893.44
592.95	892.06
593.30	890.50
593.65	889.10
594.00	887.40
594.35	886.50
594.70	884.90
595.05	883.67
595.40	882.19
595.75	880.48
596.10	879.09
596.45	877.72
596.80	876.42
597.15	874.88
597.50	873.27
597.85	872.10
598.19	870.80
598.54	869.08
598.89	867.85
599.24	866.72
599.59	865.14
599.94	864.15
600.29	862.55
600.64	861.05
600.99	859.18
601.34	857.56
601.69	855.39
602.04	853.98
602.39	852.05
602.74	850.49
603.08	848.95
603.43	847.69
603.78	845.99
604.13	844.28
604.48	842.57
604.83	840.86
605.18	838.83
605.53	836.55
605.87	834.22
606.22	832.12
606.57	829.76
606.92	827.94
607.27	825.53
607.62	823.53
607.96	821.66
608.31	819.77
608.66	817.70
609.01	815.42
609.36	813.01
609.70	810.50
610.05	807.90
610.40	805.60
610.75	802.90
611.10	800.56
611.44	797.53
611.79	794.97
612.14	792.38
612.49	789.66
612.83	787.22
613.18	784.85
613.53	782.10
613.88	779.38
614.22	776.50
614.57	773.82
614.92	770.77
615.27	768.02
615.61	765.13
615.96	762.48
616.31	759.82
616.65	757.45
617.00	755.22
617.35	752.46
617.70	749.45
618.04	746.51
618.39	743.76
618.74	741.29
619.08	738.47
619.43	735.79
619.78	733.32
620.12	730.50
620.47	727.92
620.82	725.15
621.16	722.63
621.51	720.04
621.85	717.40
622.20	715.06
622.55	712.24
622.89	709.84
623.24	707.17
623.59	704.69
623.93	702.04
624.28	699.21
624.62	696.76
624.97	694.44
625.32	692.10
625.66	689.53
626.01	686.92
626.35	684.40
626.70	681.66
627.04	679.04
627.39	676.41
627.73	673.70
628.08	671.41
628.43	669.04
628.77	666.39
629.12	663.62
629.46	661.02
629.81	658.18
630.15	655.37
630.50	652.59
630.84	649.51
631.19	646.69
631.53	643.94
631.88	640.99
632.22	638.00
632.57	635.29
632.91	632.53
633.26	629.78
633.60	626.99
633.95	624.39
634.29	621.61
634.64	619.42
634.98	616.77
635.32	614.34
635.67	611.70
636.01	609.17
636.36	606.80
636.70	604.20
637.05	602.00
637.39	599.65
637.73	597.44
638.08	595.50
638.42	593.36
638.77	591.10
639.11	588.67
639.45	586.36
639.80	583.92
640.14	581.38
640.49	579.00
640.83	576.34
641.17	573.98
641.52	571.47
641.86	568.79
642.20	566.40
642.55	563.60
642.89	561.23
643.23	558.70
643.58	556.46
643.92	553.95
644.26	551.56
644.61	549.35
644.95	546.77
645.29	543.89
645.64	541.15
645.98	538.70
646.32	536.50
646.66	534.19
647.01	531.95
647.35	529.78
647.69	527.52
648.04	525.56
648.38	523.25
648.72	520.75
649.06	518.53
649.41	516.12
649.75	513.70
650.09	511.16
650.43	508.73
650.78	506.02
651.12	503.80
651.46	501.51
651.80	498.94
652.14	496.83
652.49	494.79
652.83	492.55
653.17	490.22
653.51	487.90
653.85	485.64
654.20	483.16
654.54	480.74
654.88	478.36
655.22	475.87
655.56	473.40
655.90	471.38
656.25	469.08
656.59	467.10
656.93	465.17
657.27	463.11
657.61	461.05
657.95	459.12
658.29	457.06
658.64	454.90
658.98	452.88
659.32	450.74
659.66	448.58
660.00	446.60
660.34	444.67
660.68	442.67
661.02	440.64
661.36	438.66
661.70	436.62
662.05	434.81
662.39	433.11
662.73	431.40
663.07	429.73
663.41	428.04
663.75	426.20
664.09	424.25
664.43	422.49
664.77	420.64
665.11	419.05
665.45	417.37
665.79	415.70
666.13	414.03
666.47	412.23
666.81	410.54
667.15	408.77
667.49	406.82
667.83	405.10
668.17	403.55
668.51	401.95
668.85	400.57
669.19	399.14
669.53	397.47
669.87	395.82
670.21	394.27
670.55	392.71
670.89	391.28
671.23	389.90
671.57	388.45
671.91	387.10
672.25	385.58
672.58	384.10
672.92	382.66
673.26	381.23
673.60	379.88
673.94	378.60
674.28	377.37
674.62	376.34
674.96	375.21
675.30	373.84
675.64	372.58
675.97	371.18
676.31	369.86
676.65	368.64
676.99	367.59
677.33	366.33
677.67	365.02
678.01	363.68
678.34	362.55
678.68	361.42
679.02	360.24
679.36	359.02
679.70	357.87
680.04	356.63
680.37	355.40
680.71	354.15
681.05	353.05
681.39	351.97
681.73	350.86
682.06	349.71
682.40	348.71
682.74	347.72
683.08	346.80
683.42	345.62
683.75	344.82
684.09	343.46
684.43	342.30
684.77	341.28
685.10	340.26
685.44	339.14
685.78	338.00
686.12	336.98
686.45	335.93
686.79	334.87
687.13	333.97
687.46	332.98
687.80	332.19
688.14	331.10
688.48	329.96
688.81	328.91
689.15	327.96
689.49	326.80
689.82	325.69
690.16	324.58
690.50	323.67
690.83	322.47
691.17	321.64
691.51	320.73
691.84	319.70
692.18	318.72
692.52	317.66
692.85	316.78
693.19	315.77
693.52	314.81
693.86	313.86
694.20	312.78
694.53	311.76
694.87	310.76
695.21	309.83
695.54	308.88
695.88	307.89
696.21	306.87
696.55	306.05
696.88	305.14
697.22	304.30
697.56	303.50
697.89	302.55
698.23	301.65
698.56	300.83
698.90	300.01
699.23	299.15
699.57	298.37
699.90	297.53
700.24	296.79
700.58	295.97
700.91	295.26
701.25	294.70
701.58	294.19
701.92	293.41
702.25	292.76
702.59	292.23
702.92	291.60
703.26	290.96
703.59	290.31
703.93	289.85
704.26	289.27
704.60	288.50
704.93	287.95
705.26	287.24
705.60	286.62
705.93	286.07
706.27	285.49
706.60	284.96
706.94	284.40
707.27	283.70
707.61	283.27
707.94	282.72
708.27	282.05
708.61	281.30
708.94	280.69
709.28	280.15
709.61	279.58
709.94	279.18
710.28	278.74
710.61	278.24
710.95	277.58
711.28	277.11
711.61	276.65
711.95	276.14
712.28	275.64
712.61	275.07
712.95	274.65
713.28	274.28
713.61	273.76
713.95	273.33
714.28	272.91
714.61	272.26
714.95	271.83
715.28	271.31
715.61	270.91
715.95	270.51
716.28	270.06
716.61	269.65
716.95	269.11
717.28	268.76
717.61	268.37
717.94	268.06
718.28	267.53
718.61	267.10
718.94	266.64
719.27	266.54
719.61	266.20
719.94	265.76
720.27	265.37
720.60	265.01
720.94	264.47
721.27	264.16
721.60	264.00
721.93	263.57
722.27	263.36
722.60	263.04
722.93	262.77
723.26	262.48
723.59	262.16
723.93	261.85
724.26	261.43
724.59	261.08
724.92	260.67
725.25	260.44
725.59	260.12
725.92	260.00
726.25	259.52
726.58	259.21
726.91	258.91
727.24	258.55
727.57	258.18
727.91	257.95
728.24	257.63
728.57	257.28
728.90	257.01
729.23	256.57
729.56	256.31
729.89	255.94
730.22	255.57
730.55	255.22
730.89	254.95
731.22	254.75
731.55	254.54
731.88	254.29
732.21	253.97
732.54	253.68
732.87	253.39
733.20	253.11
733.53	253.00
733.86	252.74
734.19	252.45
734.52	252.25
734.85	252.20
735.18	251.91
735.51	251.63
735.84	251.49
736.17	251.35
736.50	251.15
736.83	251.13
737.16	250.99
737.49	250.74
737.82	250.46
738.15	250.15
738.48	249.80
738.81	249.46
739.14	249.19
739.47	248.91
739.80	248.56
740.13	248.31
740.46	247.94
740.79	247.72
741.12	247.55
741.45	247.34
741.78	246.94
742.11	246.81
742.44	246.54
742.77	246.19
743.10	245.96
743.43	245.58
743.75	245.23
744.08	245.17
744.41	245.01
744.74	244.85
745.07	244.59
745.40	244.41
745.73	244.42
746.06	244.31
746.39	244.13
746.71	244.02
747.04	243.78
747.37	243.50
747.70	243.32
748.03	243.12
748.36	243.03
748.68	242.90
749.01	242.67
749.34	242.58
749.67	242.46
750.00	242.32
750.33	242.52
750.65	242.32
750.98	242.00
751.31	241.79
751.64	241.67
751.97	241.64
752.29	241.57
752.62	241.28
752.95	241.05
753.28	240.99
753.60	240.87
753.93	240.84
754.26	240.75
754.59	240.54
754.91	240.48
755.24	240.16
755.57	240.06
755.90	239.91
756.22	239.76
756.55	239.63
756.88	239.50
757.20	239.07
757.53	238.98
757.86	238.91
758.19	238.91
758.51	238.85
758.84	238.72
759.17	238.62
759.49	238.62
759.82	238.66
760.15	238.65
760.47	238.51
760.80	238.40
761.13	238.41
761.45	238.31
761.78	238.26
762.11	238.29
762.43	238.22
762.76	238.16
763.08	238.05
763.41	237.94
763.74	237.89
764.06	237.92
764.39	237.84
764.71	237.66
765.04	237.51
765.37	237.32
765.69	237.16
766.02	237.04
766.34	236.94
766.67	236.72
767.00	236.53
767.32	236.56
767.65	236.67
767.97	236.51
768.30	236.50
768.62	236.29
768.95	236.19
769.27	236.09
769.60	236.04
769.92	235.94
770.25	235.91
770.57	235.80
770.90	235.59
771.22	235.40
771.55	235.38
771.87	235.31
772.20	235.24
772.52	235.27
772.85	235.45
773.17	235.35
773.50	235.32
773.82	235.18
774.15	235.01
774.47	234.68
774.80	234.65
775.12	234.53
775.45	234.53
775.77	234.44
776.09	234.31
776.42	234.20
776.74	234.26
777.07	234.11
777.39	234.09
777.72	234.08
778.04	233.98
778.36	233.93
778.69	233.82
779.01	233.78
779.33	233.63
779.66	233.39
779.98	233.32
780.31	233.24
780.63	233.35
780.95	233.22
781.28	233.21
781.60	233.07
781.92	233.13
782.25	233.00
782.57	232.94
782.89	232.86
783.22	232.85
783.54	232.73
783.86	232.76
784.19	232.63
784.51	232.63
784.83	232.68
785.16	232.57
785.48	232.59
785.80	232.55
786.12	232.55
786.45	232.41
786.77	232.35
787.09	232.30
787.42	232.22
787.74	232.22
788.06	232.20
788.38	232.17
788.71	232.00
789.03	232.00
789.35	232.00
789.67	232.00
789.99	231.91
790.32	231.92
790.64	231.93
790.96	232.06
791.28	231.91
791.61	231.89
791.93	231.88
792.25	231.92
792.57	231.98
792.89	231.90
793.21	231.94
793.54	231.98
793.86	231.96
794.18	231.89
