SpectraSuite Data File
++++++++++++++++++++++++++++++++++++
Date: Fri Feb 01 14:34:51 EST 2013
User: group
Dark Spectrum Present: No
Reference Spectrum Present: No
Number of Sampled Component Spectra: 1
Spectrometers: USB2E7196
Integration Time (usec): 70000 (USB2E7196)
Spectra Averaged: 10 (USB2E7196)
Boxcar Smoothing: 10 (USB2E7196)
Correct for Electrical Dark: No (USB2E7196)
Strobe/Lamp Enabled: No (USB2E7196)
Correct for Detector Non-linearity: No (USB2E7196)
Correct for Stray Light: No (USB2E7196)
Number of Pixels in Processed Spectrum: 2048
>>>>>Begin Processed Spectral Data<<<<<
339.09	0.00
339.48	218.00
339.86	218.20
340.24	221.20
340.63	222.00
341.01	225.50
341.39	224.10
341.78	224.80
342.16	227.30
342.54	225.60
342.93	215.81
343.31	226.67
343.69	227.13
344.07	227.59
344.46	228.00
344.84	228.29
345.22	228.40
345.60	228.65
345.99	228.83
346.37	228.94
346.75	229.16
347.13	229.10
347.52	229.19
347.90	229.26
348.28	229.18
348.66	229.20
349.05	229.20
349.43	229.27
349.81	229.27
350.19	229.20
350.57	229.29
350.96	229.46
351.34	229.51
351.72	229.64
352.10	229.77
352.48	229.71
352.87	229.71
353.25	229.79
353.63	229.86
354.01	229.97
354.39	230.02
354.77	230.09
355.15	230.28
355.54	230.33
355.92	230.34
356.30	230.36
356.68	230.54
357.06	230.51
357.44	230.40
357.82	230.42
358.20	230.42
358.58	230.40
358.97	230.45
359.35	230.59
359.73	230.64
360.11	230.63
360.49	230.72
360.87	230.86
361.25	230.92
361.63	230.96
362.01	230.98
362.39	230.99
362.77	230.95
363.15	230.92
363.53	230.77
363.91	230.73
364.29	230.76
364.67	230.60
365.05	230.56
365.43	230.55
365.81	230.64
366.19	230.81
366.57	230.74
366.95	230.73
367.33	230.55
367.71	230.48
368.09	230.57
368.47	230.50
368.85	230.42
369.23	230.45
369.61	230.39
369.99	230.42
370.37	230.41
370.75	230.43
371.13	230.27
371.51	230.26
371.89	230.24
372.27	230.11
372.65	230.01
373.03	229.98
373.41	229.99
373.78	229.83
374.16	229.75
374.54	229.72
374.92	229.59
375.30	229.53
375.68	229.39
376.06	229.18
376.44	229.08
376.82	229.05
377.19	229.00
377.57	228.86
377.95	228.59
378.33	228.38
378.71	228.28
379.09	228.19
379.47	228.20
379.84	228.22
380.22	228.16
380.60	228.17
380.98	228.10
381.36	227.92
381.73	227.94
382.11	227.77
382.49	227.74
382.87	227.56
383.25	227.59
383.62	227.76
384.00	227.72
384.38	227.68
384.76	227.60
385.13	227.64
385.51	227.52
385.89	227.49
386.27	227.51
386.64	227.39
387.02	227.45
387.40	227.27
387.78	227.11
388.15	226.97
388.53	226.86
388.91	226.80
389.29	226.90
389.66	226.85
390.04	226.80
390.42	226.83
390.79	226.86
391.17	226.89
391.55	226.67
391.92	226.70
392.30	226.71
392.68	226.61
393.05	226.50
393.43	226.57
393.81	226.64
394.18	226.62
394.56	226.63
394.94	226.75
395.31	226.89
395.69	227.10
396.06	227.35
396.44	227.41
396.82	227.48
397.19	227.58
397.57	227.70
397.95	227.90
398.32	227.91
398.70	227.96
399.07	228.06
399.45	228.23
399.82	228.27
400.20	228.35
400.58	228.52
400.95	228.61
401.33	228.84
401.70	229.20
402.08	229.39
402.45	229.68
402.83	229.82
403.20	230.00
403.58	230.05
403.95	230.27
404.33	230.62
404.71	230.88
405.08	231.28
405.46	231.51
405.83	231.73
406.21	232.12
406.58	232.64
406.96	233.01
407.33	233.49
407.70	234.04
408.08	234.69
408.45	235.33
408.83	235.94
409.20	236.45
409.58	236.90
409.95	237.72
410.33	238.40
410.70	239.14
411.08	240.03
411.45	240.90
411.82	241.75
412.20	242.75
412.57	243.74
412.95	244.59
413.32	245.66
413.69	246.83
414.07	247.97
414.44	249.20
414.82	250.56
415.19	252.15
415.56	253.58
415.94	255.30
416.31	257.10
416.68	258.89
417.06	261.06
417.43	263.04
417.81	265.23
418.18	267.57
418.55	270.08
418.93	272.59
419.30	275.28
419.67	278.03
420.04	280.79
420.42	283.87
420.79	287.40
421.16	290.79
421.54	294.43
421.91	298.26
422.28	302.29
422.66	306.50
423.03	310.51
423.40	314.93
423.77	319.46
424.15	324.14
424.52	328.97
424.89	334.11
425.26	339.16
425.64	343.91
426.01	349.13
426.38	354.63
426.75	360.11
427.13	365.78
427.50	371.90
427.87	378.17
428.24	384.61
428.61	390.53
428.99	397.26
429.36	404.24
429.73	411.44
430.10	418.21
430.47	425.18
430.85	432.34
431.22	439.91
431.59	448.06
431.96	455.68
432.33	464.24
432.70	472.60
433.08	482.36
433.45	491.45
433.82	500.63
434.19	510.70
434.56	520.75
434.93	530.43
435.30	539.80
435.68	550.23
436.05	560.41
436.42	570.65
436.79	579.95
437.16	590.09
437.53	600.53
437.90	611.31
438.27	621.82
438.64	632.58
439.01	642.76
439.38	651.59
439.75	660.20
440.13	670.13
440.50	679.55
440.87	687.61
441.24	695.85
441.61	704.69
441.98	711.47
442.35	719.31
442.72	727.39
443.09	735.43
443.46	740.44
443.83	744.13
444.20	747.44
444.57	752.10
444.94	755.06
445.31	757.77
445.68	760.33
446.05	762.19
446.42	762.71
446.79	762.76
447.16	762.61
447.53	763.20
447.90	760.62
448.27	757.89
448.64	753.27
449.01	750.70
449.37	745.05
449.74	739.39
450.11	732.36
450.48	724.63
450.85	716.56
451.22	710.19
451.59	703.85
451.96	698.16
452.33	689.53
452.70	681.65
453.07	672.17
453.43	662.78
453.80	653.48
454.17	644.31
454.54	635.64
454.91	626.45
455.28	617.21
455.65	608.89
456.02	600.30
456.38	593.04
456.75	583.59
457.12	575.92
457.49	568.20
457.86	560.93
458.23	554.45
458.59	547.53
458.96	540.12
459.33	533.79
459.70	527.26
460.07	522.26
460.43	516.39
460.80	510.74
461.17	505.69
461.54	500.39
461.91	495.34
462.27	490.24
462.64	486.02
463.01	481.29
463.38	476.40
463.74	471.80
464.11	467.63
464.48	464.13
464.85	460.15
465.21	457.10
465.58	453.74
465.95	449.73
466.32	446.60
466.68	443.41
467.05	440.10
467.42	436.72
467.78	433.19
468.15	429.82
468.52	427.52
468.88	424.20
469.25	421.50
469.62	419.35
469.98	416.89
470.35	414.35
470.72	412.10
471.08	409.75
471.45	407.67
471.82	405.75
472.18	403.31
472.55	401.59
472.92	399.70
473.28	397.95
473.65	396.22
474.02	394.14
474.38	392.71
474.75	391.51
475.11	390.13
475.48	389.09
475.85	388.23
476.21	387.27
476.58	386.46
476.94	385.69
477.31	384.75
477.67	384.03
478.04	383.47
478.41	382.97
478.77	382.62
479.14	382.05
479.50	381.65
479.87	381.62
480.23	381.50
480.60	381.29
480.96	381.06
481.33	381.43
481.69	381.70
482.06	381.74
482.42	381.63
482.79	381.75
483.15	381.98
483.52	382.44
483.88	382.87
484.25	383.38
484.61	383.96
484.98	384.55
485.34	385.45
485.71	386.39
486.07	387.28
486.44	388.19
486.80	389.35
487.17	390.54
487.53	391.92
487.90	393.30
488.26	394.91
488.62	396.57
488.99	398.12
489.35	399.70
489.72	401.47
490.08	403.50
490.44	405.44
490.81	407.71
491.17	409.83
491.54	412.02
491.90	414.13
492.26	416.40
492.63	418.98
492.99	421.28
493.36	423.83
493.72	426.63
494.08	429.45
494.45	432.51
494.81	435.50
495.17	438.49
495.54	441.71
495.90	444.80
496.26	448.06
496.63	451.26
496.99	454.87
497.35	458.40
497.72	461.86
498.08	465.40
498.44	468.80
498.80	472.50
499.17	476.32
499.53	480.43
499.89	484.41
500.26	488.13
500.62	491.97
500.98	495.87
501.34	499.72
501.71	503.57
502.07	507.24
502.43	511.05
502.79	514.94
503.16	518.71
503.52	522.61
503.88	526.34
504.24	530.30
504.60	534.15
504.97	538.02
505.33	542.03
505.69	546.15
506.05	550.10
506.41	553.77
506.78	557.66
507.14	561.14
507.50	564.65
507.86	568.24
508.22	572.10
508.59	575.63
508.95	579.27
509.31	582.98
509.67	586.70
510.03	590.23
510.39	593.75
510.75	597.09
511.12	600.46
511.48	603.73
511.84	606.89
512.20	609.76
512.56	612.87
512.92	615.82
513.28	618.84
513.64	621.76
514.00	624.72
514.37	627.00
514.73	629.69
515.09	632.24
515.45	635.07
515.81	637.37
516.17	639.87
516.53	642.38
516.89	644.54
517.25	646.54
517.61	648.63
517.97	650.73
518.33	652.54
518.69	654.56
519.05	656.52
519.41	658.49
519.77	660.67
520.13	662.68
520.49	664.41
520.85	666.08
521.21	667.62
521.57	669.44
521.93	671.29
522.29	673.10
522.65	674.74
523.01	676.09
523.37	677.67
523.73	679.23
524.09	680.66
524.45	682.02
524.81	683.68
525.17	685.45
525.53	687.10
525.89	688.84
526.25	690.39
526.61	691.92
526.97	693.55
527.33	695.12
527.68	696.74
528.04	698.44
528.40	699.96
528.76	702.01
529.12	703.65
529.48	705.51
529.84	707.12
530.20	709.26
530.56	711.34
530.91	713.60
531.27	715.61
531.63	717.49
531.99	719.68
532.35	721.66
532.71	723.42
533.07	725.34
533.42	727.56
533.78	729.59
534.14	731.81
534.50	733.77
534.86	736.09
535.21	737.93
535.57	740.39
535.93	742.54
536.29	744.73
536.65	746.89
537.00	749.02
537.36	751.36
537.72	753.49
538.08	755.81
538.44	758.02
538.79	760.51
539.15	762.90
539.51	765.57
539.87	768.12
540.22	770.82
540.58	773.43
540.94	776.06
541.29	778.47
541.65	781.20
542.01	783.91
542.37	786.47
542.72	789.25
543.08	791.68
543.44	794.64
543.79	796.90
544.15	799.85
544.51	802.92
544.87	805.80
545.22	808.77
545.58	811.36
545.94	814.00
546.29	816.82
546.65	819.65
547.01	822.35
547.36	825.12
547.72	828.11
548.07	830.83
548.43	833.38
548.79	836.23
549.14	838.88
549.50	841.72
549.86	844.45
550.21	847.25
550.57	850.03
550.92	852.75
551.28	855.79
551.64	858.30
551.99	861.01
552.35	864.03
552.70	866.53
553.06	869.53
553.41	872.45
553.77	875.07
554.13	877.95
554.48	880.85
554.84	883.63
555.19	885.99
555.55	888.86
555.90	891.65
556.26	894.46
556.61	897.10
556.97	899.68
557.32	902.35
557.68	904.90
558.03	907.94
558.39	910.54
558.74	913.66
559.10	916.58
559.45	919.13
559.81	921.88
560.16	924.72
560.52	927.77
560.87	930.58
561.23	933.19
561.58	935.80
561.94	937.96
562.29	940.16
562.64	942.53
563.00	945.00
563.35	947.92
563.71	950.77
564.06	953.38
564.42	956.12
564.77	958.68
565.12	961.53
565.48	963.88
565.83	966.16
566.19	967.99
566.54	969.99
566.89	972.12
567.25	973.91
567.60	976.00
567.96	977.71
568.31	979.61
568.66	981.36
569.02	982.93
569.37	984.64
569.72	986.45
570.08	988.31
570.43	989.80
570.78	990.88
571.14	991.92
571.49	993.24
571.84	994.50
572.20	995.57
572.55	996.46
572.90	997.40
573.26	998.51
573.61	999.60
573.96	1000.42
574.31	1000.90
574.67	1001.39
575.02	1001.61
575.37	1001.94
575.72	1001.70
576.08	1002.18
576.43	1002.39
576.78	1002.82
577.13	1003.24
577.49	1003.49
577.84	1003.36
578.19	1003.48
578.54	1003.46
578.90	1003.28
579.25	1002.49
579.60	1002.02
579.95	1001.50
580.30	1000.63
580.66	999.92
581.01	999.02
581.36	998.62
581.71	998.36
582.06	997.81
582.42	997.32
582.77	996.50
583.12	995.78
583.47	994.98
583.82	994.62
584.17	993.47
584.53	992.49
584.88	991.36
585.23	990.60
585.58	989.63
585.93	988.57
586.28	987.66
586.63	987.00
586.98	986.06
587.34	984.93
587.69	983.84
588.04	983.01
588.39	982.06
588.74	980.55
589.09	978.91
589.44	977.30
589.79	975.86
590.14	974.57
590.49	973.54
590.84	971.90
591.19	970.29
591.54	968.47
591.89	966.50
592.25	964.89
592.60	962.76
592.95	960.55
593.30	958.49
593.65	956.29
594.00	953.79
594.35	952.23
594.70	949.98
595.05	948.28
595.40	945.82
595.75	943.40
596.10	941.33
596.45	939.44
596.80	937.74
597.15	935.68
597.50	933.50
597.85	931.38
598.19	929.50
598.54	927.62
598.89	925.74
599.24	924.09
599.59	922.12
599.94	920.30
600.29	918.25
600.64	916.16
600.99	913.97
601.34	912.11
601.69	909.19
602.04	906.92
602.39	904.43
602.74	902.24
603.08	900.27
603.43	898.13
603.78	895.84
604.13	893.55
604.48	891.44
604.83	889.28
605.18	887.08
605.53	884.29
605.87	881.19
606.22	878.76
606.57	875.89
606.92	873.10
607.27	870.71
607.62	868.21
607.96	865.71
608.31	863.25
608.66	860.46
609.01	857.73
609.36	854.74
609.70	851.69
610.05	848.60
610.40	845.60
610.75	842.26
611.10	839.09
611.44	835.41
611.79	832.06
612.14	828.44
612.49	824.64
612.83	821.30
613.18	818.08
613.53	814.87
613.88	811.40
614.22	807.95
614.57	804.30
614.92	800.93
615.27	797.52
615.61	794.04
615.96	790.79
616.31	787.64
616.65	785.06
617.00	782.01
617.35	779.14
617.70	775.68
618.04	772.54
618.39	769.33
618.74	766.61
619.08	763.35
619.43	760.31
619.78	757.50
620.12	754.73
620.47	751.63
620.82	748.23
621.16	745.40
621.51	742.66
621.85	739.61
622.20	736.84
622.55	734.04
622.89	731.08
623.24	728.27
623.59	725.33
623.93	722.31
624.28	719.15
624.62	716.13
624.97	713.55
625.32	710.64
625.66	707.70
626.01	704.67
626.35	701.90
626.70	699.12
627.04	696.43
627.39	693.21
627.73	690.28
628.08	687.61
628.43	684.76
628.77	681.78
629.12	678.70
629.46	675.54
629.81	672.26
630.15	669.10
630.50	665.98
630.84	662.82
631.19	659.37
631.53	656.58
631.88	653.45
632.22	650.28
632.57	647.50
632.91	644.62
633.26	641.60
633.60	638.45
633.95	635.40
634.29	632.35
634.64	629.67
634.98	626.90
635.32	624.30
635.67	621.61
636.01	619.09
636.36	616.49
636.70	613.83
637.05	611.29
637.39	609.00
637.73	606.52
638.08	604.32
638.42	602.08
638.77	599.74
639.11	597.06
639.45	594.66
639.80	591.96
640.14	589.70
640.49	587.53
640.83	585.00
641.17	582.54
641.52	580.00
641.86	577.49
642.20	575.13
642.55	572.42
642.89	569.88
643.23	567.20
643.58	564.83
643.92	562.22
644.26	559.77
644.61	557.31
644.95	554.80
645.29	552.05
645.64	549.35
645.98	546.78
646.32	544.61
646.66	541.99
647.01	539.60
647.35	536.97
647.69	534.22
648.04	532.20
648.38	529.52
648.72	527.08
649.06	524.52
649.41	521.93
649.75	519.35
650.09	516.74
650.43	514.26
650.78	511.49
651.12	509.02
651.46	506.59
651.80	504.05
652.14	501.70
652.49	499.43
652.83	497.25
653.17	494.76
653.51	492.30
653.85	489.94
654.20	487.63
654.54	485.19
654.88	482.90
655.22	480.17
655.56	477.96
655.90	475.60
656.25	473.39
656.59	471.13
656.93	469.10
657.27	467.00
657.61	464.63
657.95	462.75
658.29	460.76
658.64	458.44
658.98	456.24
659.32	453.96
659.66	451.71
660.00	449.60
660.34	447.35
660.68	445.12
661.02	443.01
661.36	440.81
661.70	438.96
662.05	436.97
662.39	435.29
662.73	433.35
663.07	431.60
663.41	429.80
663.75	427.87
664.09	425.95
664.43	424.10
664.77	422.40
665.11	420.61
665.45	418.79
665.79	417.20
666.13	415.50
666.47	413.78
666.81	412.12
667.15	410.15
667.49	408.52
667.83	406.99
668.17	405.34
668.51	403.74
668.85	401.92
669.19	400.33
669.53	398.54
669.87	397.10
670.21	395.45
670.55	393.82
670.89	392.46
671.23	390.91
671.57	389.47
671.91	388.05
672.25	386.51
672.58	384.99
672.92	383.47
673.26	382.03
673.60	380.82
673.94	379.44
674.28	378.30
674.62	377.27
674.96	375.92
675.30	374.53
675.64	373.16
675.97	371.93
676.31	370.70
676.65	369.55
676.99	368.41
677.33	367.19
677.67	366.03
678.01	364.65
678.34	363.51
678.68	362.22
679.02	360.92
679.36	359.80
679.70	358.77
680.04	357.58
680.37	356.38
680.71	355.07
681.05	353.92
681.39	352.93
681.73	351.41
682.06	350.42
682.40	349.55
682.74	348.60
683.08	347.70
683.42	346.62
683.75	345.54
684.09	344.30
684.43	343.15
684.77	341.90
685.10	340.94
685.44	339.83
685.78	338.84
686.12	337.61
686.45	336.53
686.79	335.33
687.13	334.31
687.46	333.34
687.80	332.40
688.14	331.36
688.48	330.24
688.81	329.45
689.15	328.50
689.49	327.45
689.82	326.47
690.16	325.37
690.50	324.34
690.83	323.37
691.17	322.42
691.51	321.42
691.84	320.63
692.18	319.61
692.52	318.69
692.85	317.59
693.19	316.95
693.52	316.10
693.86	315.21
694.20	314.39
694.53	313.44
694.87	312.43
695.21	311.44
695.54	310.42
695.88	309.50
696.21	308.29
696.55	307.39
696.88	306.46
697.22	305.46
697.56	304.68
697.89	303.84
698.23	303.01
698.56	302.16
698.90	301.35
699.23	300.50
699.57	299.67
699.90	298.90
700.24	298.04
700.58	297.11
700.91	296.43
701.25	295.59
701.58	294.92
701.92	294.23
702.25	293.63
702.59	292.95
702.92	292.18
703.26	291.64
703.59	290.91
703.93	290.55
704.26	289.88
704.60	289.02
704.93	288.19
705.26	287.49
705.60	287.01
705.93	286.26
706.27	285.71
706.60	285.22
706.94	284.74
707.27	283.89
707.61	283.29
707.94	282.63
708.27	281.97
708.61	281.28
708.94	280.71
709.28	280.10
709.61	279.61
709.94	279.19
710.28	278.65
710.61	278.05
710.95	277.28
711.28	276.78
711.61	276.36
711.95	275.96
712.28	275.38
712.61	274.66
712.95	274.28
713.28	273.79
713.61	273.16
713.95	272.53
714.28	272.19
714.61	271.71
714.95	271.26
715.28	270.80
715.61	270.38
715.95	269.79
716.28	269.28
716.61	268.82
716.95	268.19
717.28	267.75
717.61	267.34
717.94	267.02
718.28	266.59
718.61	266.15
718.94	265.71
719.27	265.43
719.61	265.16
719.94	264.73
720.27	264.30
720.60	263.96
720.94	263.62
721.27	263.48
721.60	263.24
721.93	262.91
722.27	262.64
722.60	262.30
722.93	262.13
723.26	261.88
723.59	261.52
723.93	261.42
724.26	261.08
724.59	260.81
724.92	260.41
725.25	260.12
725.59	259.87
725.92	259.68
726.25	259.44
726.58	259.13
726.91	258.85
727.24	258.70
727.57	258.50
727.91	258.27
728.24	257.85
728.57	257.52
728.90	257.31
729.23	256.99
729.56	256.77
729.89	256.50
730.22	256.27
730.55	256.02
730.89	255.72
731.22	255.41
731.55	255.10
731.88	254.89
732.21	254.73
732.54	254.34
732.87	253.96
733.20	253.55
733.53	253.32
733.86	253.04
734.19	252.68
734.52	252.42
734.85	252.31
735.18	252.00
735.51	251.78
735.84	251.52
736.17	251.27
736.50	250.95
736.83	250.92
737.16	250.67
737.49	250.37
737.82	250.00
738.15	249.90
738.48	249.73
738.81	249.46
739.14	249.11
739.47	248.93
739.80	248.60
740.13	248.42
740.46	248.18
740.79	247.96
741.12	247.62
741.45	247.26
741.78	246.87
742.11	246.79
742.44	246.46
742.77	246.15
743.10	246.03
743.43	245.81
743.75	245.33
744.08	245.31
744.41	245.03
744.74	244.81
745.07	244.51
745.40	244.39
745.73	244.20
746.06	244.00
746.39	243.83
746.71	243.74
747.04	243.48
747.37	243.20
747.70	242.98
748.03	242.95
748.36	242.83
748.68	242.66
749.01	242.38
749.34	242.20
749.67	242.04
750.00	241.80
750.33	241.79
750.65	241.62
750.98	241.25
751.31	241.18
751.64	241.10
751.97	240.97
752.29	240.80
752.62	240.55
752.95	240.39
753.28	240.26
753.60	240.03
753.93	240.01
754.26	239.95
754.59	239.84
754.91	239.62
755.24	239.38
755.57	239.32
755.90	239.17
756.22	239.06
756.55	238.96
756.88	238.83
757.20	238.59
757.53	238.41
757.86	238.28
758.19	238.23
758.51	238.13
758.84	238.10
759.17	237.93
759.49	237.93
759.82	237.92
760.15	237.76
760.47	237.73
760.80	237.55
761.13	237.48
761.45	237.43
761.78	237.32
762.11	237.40
762.43	237.24
762.76	237.21
763.08	237.20
763.41	237.08
763.74	236.98
764.06	236.91
764.39	236.82
764.71	236.69
765.04	236.49
765.37	236.49
765.69	236.36
766.02	236.29
766.34	236.19
766.67	236.12
767.00	236.22
767.32	236.29
767.65	236.32
767.97	236.26
768.30	236.21
768.62	236.18
768.95	236.07
769.27	236.06
769.60	236.02
769.92	235.90
770.25	235.85
770.57	235.80
770.90	235.74
771.22	235.77
771.55	235.70
771.87	235.81
772.20	235.63
772.52	235.69
772.85	235.78
773.17	235.68
773.50	235.62
773.82	235.44
774.15	235.23
774.47	235.10
774.80	235.03
775.12	234.87
775.45	234.80
775.77	234.77
776.09	234.70
776.42	234.65
776.74	234.74
777.07	234.71
777.39	234.69
777.72	234.60
778.04	234.61
778.36	234.65
778.69	234.55
779.01	234.62
779.33	234.41
779.66	234.24
779.98	234.13
780.31	234.03
780.63	234.02
780.95	234.01
781.28	234.03
781.60	233.90
781.92	233.81
782.25	233.81
782.57	233.76
782.89	233.60
783.22	233.45
783.54	233.31
783.86	233.27
784.19	233.18
784.51	233.22
784.83	233.04
785.16	232.97
785.48	232.97
785.80	232.79
786.12	232.79
786.45	232.70
786.77	232.76
787.09	232.73
787.42	232.69
787.74	232.65
788.06	232.63
788.38	232.66
788.71	232.61
789.03	232.51
789.35	232.51
789.67	232.52
789.99	232.46
790.32	232.37
790.64	232.32
790.96	232.41
791.28	232.20
791.61	232.25
791.93	232.17
792.25	231.92
792.57	232.18
792.89	232.10
793.21	232.09
793.54	232.04
793.86	231.92
