SpectraSuite Data File
++++++++++++++++++++++++++++++++++++
Date: Fri Feb 01 14:40:26 EST 2013
User: group
Dark Spectrum Present: No
Reference Spectrum Present: No
Number of Sampled Component Spectra: 1
Spectrometers: USB2E7196
Integration Time (usec): 70000 (USB2E7196)
Spectra Averaged: 10 (USB2E7196)
Boxcar Smoothing: 10 (USB2E7196)
Correct for Electrical Dark: No (USB2E7196)
Strobe/Lamp Enabled: No (USB2E7196)
Correct for Detector Non-linearity: No (USB2E7196)
Correct for Stray Light: No (USB2E7196)
Number of Pixels in Processed Spectrum: 2048
>>>>>Begin Processed Spectral Data<<<<<
339.09	0.00
339.48	219.10
339.86	217.10
340.24	220.90
340.63	219.90
341.01	224.30
341.39	222.00
341.78	225.00
342.16	224.70
342.54	225.20
342.93	214.81
343.31	225.68
343.69	226.10
344.07	226.64
344.46	226.93
344.84	227.23
345.22	227.35
345.60	227.57
345.99	227.67
346.37	227.85
346.75	227.95
347.13	228.02
347.52	228.10
347.90	228.23
348.28	228.23
348.66	228.15
349.05	228.15
349.43	228.27
349.81	228.30
350.19	228.29
350.57	228.37
350.96	228.39
351.34	228.44
351.72	228.40
352.10	228.41
352.48	228.58
352.87	228.74
353.25	228.94
353.63	229.04
354.01	229.10
354.39	229.20
354.77	229.29
355.15	229.40
355.54	229.48
355.92	229.47
356.30	229.66
356.68	229.84
357.06	229.88
357.44	229.84
357.82	229.79
358.20	229.84
358.58	229.89
358.97	229.92
359.35	230.04
359.73	230.25
360.11	230.32
360.49	230.34
360.87	230.36
361.25	230.34
361.63	230.45
362.01	230.63
362.39	230.59
362.77	230.63
363.15	230.57
363.53	230.71
363.91	230.70
364.29	230.58
364.67	230.48
365.05	230.56
365.43	230.59
365.81	230.71
366.19	230.91
366.57	230.97
366.95	230.97
367.33	230.88
367.71	230.87
368.09	230.82
368.47	230.77
368.85	230.79
369.23	230.79
369.61	230.79
369.99	230.81
370.37	230.73
370.75	230.76
371.13	230.71
371.51	230.62
371.89	230.62
372.27	230.61
372.65	230.49
373.03	230.39
373.41	230.30
373.78	230.06
374.16	229.88
374.54	229.77
374.92	229.60
375.30	229.56
375.68	229.40
376.06	229.41
376.44	229.24
376.82	229.13
377.19	229.11
377.57	229.01
377.95	228.80
378.33	228.71
378.71	228.52
379.09	228.41
379.47	228.26
379.84	228.20
380.22	228.09
380.60	227.96
380.98	227.84
381.36	227.76
381.73	227.71
382.11	227.61
382.49	227.51
382.87	227.41
383.25	227.32
383.62	227.52
384.00	227.41
384.38	227.38
384.76	227.27
385.13	227.28
385.51	227.21
385.89	227.12
386.27	227.17
386.64	227.22
387.02	227.18
387.40	227.14
387.78	227.01
388.15	227.02
388.53	227.11
388.91	227.12
389.29	227.11
389.66	227.18
390.04	227.10
390.42	227.13
390.79	227.11
391.17	227.14
391.55	226.81
391.92	226.77
392.30	226.88
392.68	226.92
393.05	226.76
393.43	226.67
393.81	226.68
394.18	226.64
394.56	226.54
394.94	226.66
395.31	226.60
395.69	226.66
396.06	226.68
396.44	226.58
396.82	226.56
397.19	226.65
397.57	226.74
397.95	226.80
398.32	226.74
398.70	226.90
399.07	226.93
399.45	227.08
399.82	227.18
400.20	227.15
400.58	227.14
400.95	227.22
401.33	227.39
401.70	227.60
402.08	227.66
402.45	227.83
402.83	227.92
403.20	228.12
403.58	228.14
403.95	228.13
404.33	228.45
404.71	228.74
405.08	229.02
405.46	229.06
405.83	229.35
406.21	229.53
406.58	229.71
406.96	229.86
407.33	230.05
407.70	230.24
408.08	230.57
408.45	230.96
408.83	231.15
409.20	231.29
409.58	231.41
409.95	231.75
410.33	232.13
410.70	232.42
411.08	232.80
411.45	233.14
411.82	233.58
412.20	233.93
412.57	234.30
412.95	234.58
413.32	235.03
413.69	235.34
414.07	235.78
414.44	236.17
414.82	236.76
415.19	237.31
415.56	237.83
415.94	238.44
416.31	239.02
416.68	239.75
417.06	240.50
417.43	241.10
417.81	241.88
418.18	242.53
418.55	243.24
418.93	244.00
419.30	244.80
419.67	245.75
420.04	246.66
420.42	247.53
420.79	248.67
421.16	249.86
421.54	251.07
421.91	252.30
422.28	253.52
422.66	254.80
423.03	256.15
423.40	257.50
423.77	258.85
424.15	260.20
424.52	261.77
424.89	263.30
425.26	264.88
425.64	266.24
426.01	267.92
426.38	269.57
426.75	271.25
427.13	273.09
427.50	274.80
427.87	276.62
428.24	278.53
428.61	280.28
428.99	282.20
429.36	284.26
429.73	286.33
430.10	288.33
430.47	290.30
430.85	292.23
431.22	294.30
431.59	296.76
431.96	299.02
432.33	301.41
432.70	303.92
433.08	306.78
433.45	309.44
433.82	311.92
434.19	314.97
434.56	317.82
434.93	320.50
435.30	323.28
435.68	326.04
436.05	328.87
436.42	331.51
436.79	333.97
437.16	336.65
437.53	339.49
437.90	342.49
438.27	345.22
438.64	348.15
439.01	350.79
439.38	352.89
439.75	355.06
440.13	357.63
440.50	359.90
440.87	361.70
441.24	363.78
441.61	365.92
441.98	367.29
442.35	369.05
442.72	370.81
443.09	372.62
443.46	373.71
443.83	374.34
444.20	375.03
444.57	375.81
444.94	376.14
445.31	376.55
445.68	377.13
446.05	377.29
446.42	376.91
446.79	376.72
447.16	376.25
447.53	376.06
447.90	374.84
448.27	373.78
448.64	372.28
449.01	371.01
449.37	369.22
449.74	367.40
450.11	365.37
450.48	362.87
450.85	360.36
451.22	358.23
451.59	356.20
451.96	354.27
452.33	351.78
452.70	349.44
453.07	346.58
453.43	343.43
453.80	340.69
454.17	338.19
454.54	335.51
454.91	332.82
455.28	329.94
455.65	327.40
456.02	325.10
456.38	322.96
456.75	320.33
457.12	318.06
457.49	315.94
457.86	313.65
458.23	311.94
458.59	309.76
458.96	307.74
459.33	305.91
459.70	303.96
460.07	302.42
460.43	300.65
460.80	298.98
461.17	297.50
461.54	296.00
461.91	294.44
462.27	293.01
462.64	291.74
463.01	290.47
463.38	289.14
463.74	287.47
464.11	286.23
464.48	285.28
464.85	284.05
465.21	283.08
465.58	282.07
465.95	280.89
466.32	279.91
466.68	278.90
467.05	277.89
467.42	276.84
467.78	275.86
468.15	274.90
468.52	274.12
468.88	273.13
469.25	272.20
469.62	271.41
469.98	270.61
470.35	269.88
470.72	269.13
471.08	268.29
471.45	267.70
471.82	267.01
472.18	266.18
472.55	265.57
472.92	264.84
473.28	264.19
473.65	263.64
474.02	263.06
474.38	262.47
474.75	261.92
475.11	261.56
475.48	261.23
475.85	260.84
476.21	260.48
476.58	260.16
476.94	259.88
477.31	259.52
477.67	259.23
478.04	259.00
478.41	258.75
478.77	258.75
479.14	258.42
479.50	258.22
479.87	258.04
480.23	257.85
480.60	257.66
480.96	257.48
481.33	257.34
481.69	257.26
482.06	257.10
482.42	257.03
482.79	256.99
483.15	256.80
483.52	256.78
483.88	256.74
484.25	256.62
484.61	256.60
484.98	256.59
485.34	256.70
485.71	256.70
486.07	256.80
486.44	256.85
486.80	257.07
487.17	257.21
487.53	257.31
487.90	257.60
488.26	257.91
488.62	258.16
488.99	258.38
489.35	258.71
489.72	259.18
490.08	259.55
490.44	259.83
490.81	260.27
491.17	260.80
491.54	261.27
491.90	261.86
492.26	262.37
492.63	262.97
492.99	263.50
493.36	264.21
493.72	264.92
494.08	265.61
494.45	266.28
494.81	267.19
495.17	268.08
495.54	269.00
495.90	269.84
496.26	270.92
496.63	272.08
496.99	273.18
497.35	274.40
497.72	275.69
498.08	277.01
498.44	278.51
498.80	279.98
499.17	281.50
499.53	283.07
499.89	284.70
500.26	286.46
500.62	288.31
500.98	290.28
501.34	292.24
501.71	294.37
502.07	296.61
502.43	298.89
502.79	301.30
503.16	303.83
503.52	306.49
503.88	309.11
504.24	311.86
504.60	314.75
504.97	317.93
505.33	321.16
505.69	324.61
506.05	327.94
506.41	331.47
506.78	335.06
507.14	338.99
507.50	343.18
507.86	347.32
508.22	351.47
508.59	355.62
508.95	360.27
509.31	364.92
509.67	369.84
510.03	374.73
510.39	379.89
510.75	385.24
511.12	390.71
511.48	396.27
511.84	402.01
512.20	407.90
512.56	413.71
512.92	419.89
513.28	426.21
513.64	432.73
514.00	439.29
514.37	446.19
514.73	453.04
515.09	459.83
515.45	467.05
515.81	474.38
516.17	482.06
516.53	489.72
516.89	497.46
517.25	505.31
517.61	513.36
517.97	521.54
518.33	529.61
518.69	538.07
519.05	546.78
519.41	555.63
519.77	564.76
520.13	574.02
520.49	583.20
520.85	592.60
521.21	602.03
521.57	612.19
521.93	621.80
522.29	631.85
522.65	641.73
523.01	651.77
523.37	661.69
523.73	671.90
524.09	682.13
524.45	692.67
524.81	703.30
525.17	714.21
525.53	725.24
525.89	736.46
526.25	747.64
526.61	758.73
526.97	769.90
527.33	781.27
527.68	792.90
528.04	804.33
528.40	815.73
528.76	827.78
529.12	839.07
529.48	851.05
529.84	862.45
530.20	874.56
530.56	886.83
530.91	899.68
531.27	912.04
531.63	924.18
531.99	936.26
532.35	948.37
532.71	960.37
533.07	972.78
533.42	985.22
533.78	997.58
534.14	1009.95
534.50	1022.22
534.86	1034.57
535.21	1046.64
535.57	1059.17
535.93	1071.54
536.29	1083.60
536.65	1095.94
537.00	1108.02
537.36	1120.51
537.72	1132.94
538.08	1145.05
538.44	1156.79
538.79	1168.67
539.15	1180.71
539.51	1192.79
539.87	1205.41
540.22	1217.64
540.58	1229.76
540.94	1240.88
541.29	1252.34
541.65	1263.78
542.01	1275.57
542.37	1287.15
542.72	1298.68
543.08	1309.96
543.44	1321.50
543.79	1332.15
544.15	1343.01
544.51	1354.75
544.87	1365.90
545.22	1376.60
545.58	1387.02
545.94	1397.17
546.29	1407.36
546.65	1417.70
547.01	1427.81
547.36	1436.79
547.72	1446.16
548.07	1455.09
548.43	1465.13
548.79	1474.39
549.14	1483.62
549.50	1492.22
549.86	1500.20
550.21	1508.55
550.57	1516.80
550.92	1524.98
551.28	1533.23
551.64	1541.57
551.99	1549.30
552.35	1557.17
552.70	1564.66
553.06	1572.37
553.41	1580.29
553.77	1587.64
554.13	1595.11
554.48	1602.36
554.84	1610.19
555.19	1617.61
555.55	1624.80
555.90	1631.07
556.26	1637.78
556.61	1644.82
556.97	1651.14
557.32	1658.33
557.68	1664.87
558.03	1671.52
558.39	1677.38
558.74	1684.20
559.10	1690.13
559.45	1696.11
559.81	1702.43
560.16	1708.61
560.52	1714.22
560.87	1719.68
561.23	1724.80
561.58	1730.10
561.94	1735.36
562.29	1739.71
562.64	1743.91
563.00	1748.53
563.35	1754.07
563.71	1759.29
564.06	1763.73
564.42	1768.95
564.77	1773.26
565.12	1777.54
565.48	1781.98
565.83	1786.15
566.19	1789.55
566.54	1793.18
566.89	1796.25
567.25	1799.13
567.60	1802.69
567.96	1805.98
568.31	1809.29
568.66	1812.59
569.02	1815.30
569.37	1817.66
569.72	1820.27
570.08	1822.98
570.43	1825.47
570.78	1827.18
571.14	1828.09
571.49	1829.67
571.84	1831.90
572.20	1833.07
572.55	1834.42
572.90	1834.76
573.26	1835.90
573.61	1837.18
573.96	1838.00
574.31	1838.10
574.67	1837.73
575.02	1836.71
575.37	1836.84
575.72	1835.60
576.08	1835.46
576.43	1834.98
576.78	1834.22
577.13	1834.42
577.49	1834.16
577.84	1832.82
578.19	1831.50
578.54	1830.68
578.90	1829.22
579.25	1826.23
579.60	1824.80
579.95	1822.52
580.30	1820.79
580.66	1818.03
581.01	1815.28
581.36	1813.03
581.71	1811.01
582.06	1808.97
582.42	1806.89
582.77	1803.88
583.12	1801.65
583.47	1799.15
583.82	1796.71
584.17	1794.03
584.53	1791.08
584.88	1788.06
585.23	1785.53
585.58	1782.91
585.93	1780.07
586.28	1777.63
586.63	1775.45
586.98	1772.54
587.34	1769.89
587.69	1766.78
588.04	1764.46
588.39	1761.60
588.74	1757.64
589.09	1753.80
589.44	1750.11
589.79	1746.67
590.14	1743.59
590.49	1739.89
590.84	1736.11
591.19	1732.34
591.54	1728.28
591.89	1722.96
592.25	1718.35
592.60	1713.35
592.95	1708.29
593.30	1703.67
593.65	1698.70
594.00	1693.64
594.35	1689.21
594.70	1683.89
595.05	1678.81
595.40	1673.51
595.75	1668.36
596.10	1663.69
596.45	1659.17
596.80	1655.02
597.15	1650.55
597.50	1645.23
597.85	1640.92
598.19	1636.41
598.54	1631.79
598.89	1627.31
599.24	1623.78
599.59	1619.62
599.94	1615.54
600.29	1611.39
600.64	1606.50
600.99	1601.06
601.34	1596.86
601.69	1591.49
602.04	1587.49
602.39	1583.04
602.74	1578.82
603.08	1574.46
603.43	1570.22
603.78	1565.79
604.13	1560.56
604.48	1555.35
604.83	1550.56
605.18	1545.45
605.53	1539.68
605.87	1533.57
606.22	1528.24
606.57	1522.65
606.92	1517.00
607.27	1511.88
607.62	1507.02
607.96	1501.69
608.31	1496.98
608.66	1491.11
609.01	1485.19
609.36	1478.21
609.70	1471.90
610.05	1464.91
610.40	1458.67
610.75	1452.26
611.10	1445.87
611.44	1438.90
611.79	1432.64
612.14	1426.27
612.49	1419.30
612.83	1412.80
613.18	1406.35
613.53	1399.99
613.88	1392.69
614.22	1385.83
614.57	1378.60
614.92	1371.52
615.27	1365.48
615.61	1358.64
615.96	1351.63
616.31	1345.67
616.65	1340.57
617.00	1334.98
617.35	1329.32
617.70	1322.78
618.04	1316.21
618.39	1309.91
618.74	1304.44
619.08	1297.93
619.43	1291.76
619.78	1286.06
620.12	1280.04
620.47	1274.29
620.82	1267.87
621.16	1262.16
621.51	1256.49
621.85	1250.52
622.20	1244.00
622.55	1237.84
622.89	1232.08
623.24	1226.38
623.59	1220.45
623.93	1214.30
624.28	1207.98
624.62	1201.84
624.97	1196.09
625.32	1190.52
625.66	1184.76
626.01	1178.57
626.35	1172.79
626.70	1167.02
627.04	1161.47
627.39	1155.31
627.73	1148.93
628.08	1143.17
628.43	1137.34
628.77	1131.05
629.12	1124.64
629.46	1119.08
629.81	1112.30
630.15	1105.87
630.50	1099.81
630.84	1093.14
631.19	1086.51
631.53	1080.30
631.88	1073.72
632.22	1067.21
632.57	1061.18
632.91	1055.14
633.26	1049.05
633.60	1042.76
633.95	1036.40
634.29	1030.20
634.64	1024.61
634.98	1018.82
635.32	1012.98
635.67	1007.39
636.01	1001.71
636.36	996.18
636.70	990.57
637.05	985.52
637.39	980.34
637.73	974.91
638.08	969.91
638.42	964.75
638.77	959.47
639.11	954.37
639.45	949.09
639.80	943.47
640.14	937.97
640.49	932.72
640.83	927.24
641.17	922.06
641.52	916.68
641.86	910.96
642.20	905.88
642.55	900.62
642.89	895.24
643.23	890.05
643.58	885.30
643.92	879.83
644.26	874.19
644.61	868.96
644.95	863.52
645.29	857.81
645.64	852.16
645.98	846.88
646.32	841.95
646.66	836.72
647.01	831.28
647.35	826.14
647.69	820.91
648.04	816.26
648.38	810.93
648.72	805.46
649.06	800.30
649.41	795.23
649.75	789.92
650.09	784.46
650.43	779.19
650.78	773.78
651.12	768.54
651.46	763.80
651.80	758.68
652.14	753.86
652.49	749.22
652.83	744.59
653.17	739.37
653.51	734.13
653.85	729.39
654.20	724.59
654.54	719.38
654.88	714.43
655.22	709.43
655.56	704.64
655.90	700.09
656.25	695.49
656.59	690.67
656.93	686.29
657.27	682.00
657.61	677.58
657.95	673.21
658.29	669.00
658.64	664.40
658.98	659.71
659.32	655.05
659.66	650.73
660.00	646.30
660.34	642.09
660.68	638.03
661.02	633.66
661.36	629.71
661.70	626.00
662.05	622.22
662.39	618.54
662.73	614.79
663.07	611.04
663.41	607.52
663.75	603.74
664.09	599.80
664.43	596.21
664.77	592.64
665.11	589.08
665.45	585.39
665.79	581.90
666.13	578.42
666.47	574.93
666.81	571.15
667.15	567.54
667.49	564.20
667.83	560.79
668.17	557.64
668.51	554.26
668.85	550.60
669.19	547.25
669.53	543.70
669.87	540.17
670.21	536.98
670.55	533.52
670.89	530.62
671.23	527.74
671.57	524.60
671.91	521.38
672.25	518.16
672.58	515.27
672.92	512.34
673.26	509.68
673.60	506.92
673.94	504.36
674.28	501.83
674.62	499.12
674.96	496.39
675.30	493.82
675.64	491.19
675.97	488.64
676.31	485.90
676.65	483.46
676.99	481.38
677.33	478.76
677.67	476.39
678.01	473.69
678.34	471.03
678.68	468.50
679.02	466.07
679.36	463.80
679.70	461.29
680.04	458.70
680.37	456.19
680.71	453.83
681.05	451.61
681.39	449.46
681.73	447.16
682.06	444.94
682.40	442.53
682.74	440.22
683.08	438.05
683.42	435.85
683.75	433.48
684.09	431.08
684.43	428.82
684.77	426.65
685.10	424.46
685.44	422.35
685.78	420.26
686.12	418.27
686.45	416.15
686.79	413.94
687.13	412.12
687.46	410.11
687.80	407.98
688.14	405.79
688.48	403.51
688.81	401.48
689.15	399.40
689.49	397.49
689.82	395.56
690.16	393.69
690.50	391.78
690.83	390.04
691.17	388.00
691.51	386.26
691.84	384.52
692.18	382.81
692.52	381.00
692.85	379.23
693.19	377.54
693.52	375.74
693.86	374.16
694.20	372.45
694.53	370.63
694.87	368.98
695.21	367.21
695.54	365.60
695.88	363.95
696.21	362.31
696.55	360.74
696.88	359.25
697.22	357.70
697.56	356.33
697.89	354.80
698.23	353.42
698.56	351.94
698.90	350.39
699.23	348.90
699.57	347.49
699.90	346.02
700.24	344.49
700.58	343.16
700.91	341.67
701.25	340.27
701.58	339.20
701.92	337.93
702.25	336.71
702.59	335.52
702.92	334.30
703.26	333.07
703.59	331.71
703.93	330.69
704.26	329.44
704.60	328.21
704.93	327.09
705.26	325.93
705.60	324.82
705.93	323.75
706.27	322.70
706.60	321.72
706.94	320.65
707.27	319.51
707.61	318.57
707.94	317.70
708.27	316.66
708.61	315.49
708.94	314.54
709.28	313.56
709.61	312.65
709.94	311.73
710.28	310.95
710.61	310.05
710.95	308.81
711.28	308.02
711.61	307.06
711.95	306.15
712.28	305.19
712.61	304.19
712.95	303.30
713.28	302.47
713.61	301.54
713.95	300.68
714.28	299.87
714.61	299.02
714.95	298.14
715.28	297.39
715.61	296.47
715.95	295.72
716.28	294.97
716.61	294.19
716.95	293.31
717.28	292.51
717.61	291.79
717.94	291.17
718.28	290.36
718.61	289.71
718.94	288.98
719.27	288.41
719.61	287.87
719.94	287.28
720.27	286.57
720.60	285.94
720.94	285.35
721.27	284.86
721.60	284.18
721.93	283.65
722.27	283.04
722.60	282.59
722.93	281.94
723.26	281.21
723.59	280.58
723.93	280.06
724.26	279.41
724.59	278.89
724.92	278.37
725.25	277.85
725.59	277.28
725.92	276.67
726.25	276.11
726.58	275.54
726.91	275.03
727.24	274.58
727.57	274.04
727.91	273.41
728.24	272.80
728.57	272.28
728.90	271.72
729.23	271.15
729.56	270.69
729.89	270.19
730.22	269.83
730.55	269.33
730.89	268.89
731.22	268.43
731.55	267.98
731.88	267.34
732.21	266.94
732.54	266.46
732.87	266.05
733.20	265.63
733.53	265.11
733.86	264.60
734.19	264.09
734.52	263.59
734.85	263.29
735.18	262.70
735.51	262.33
735.84	261.84
736.17	261.52
736.50	261.00
736.83	260.72
737.16	260.22
737.49	259.88
737.82	259.49
738.15	259.07
738.48	258.76
738.81	258.50
739.14	258.07
739.47	257.61
739.80	257.23
740.13	256.90
740.46	256.63
740.79	256.25
741.12	255.90
741.45	255.70
741.78	255.36
742.11	255.24
742.44	254.97
742.77	254.88
743.10	254.54
743.43	254.30
743.75	253.89
744.08	253.89
744.41	253.55
744.74	253.28
745.07	253.07
745.40	252.74
745.73	252.52
746.06	252.18
746.39	251.97
746.71	251.64
747.04	251.32
747.37	251.13
747.70	251.01
748.03	250.78
748.36	250.50
748.68	250.32
749.01	250.05
749.34	249.80
749.67	249.43
750.00	249.25
750.33	249.00
750.65	248.81
750.98	248.42
751.31	248.34
751.64	248.15
751.97	248.13
752.29	248.00
752.62	247.73
752.95	247.52
753.28	247.32
753.60	247.26
753.93	247.08
754.26	246.73
754.59	246.50
754.91	246.31
755.24	246.14
755.57	245.87
755.90	245.68
756.22	245.43
756.55	245.25
756.88	245.06
757.20	244.90
757.53	244.69
757.86	244.47
758.19	244.30
758.51	244.21
758.84	243.83
759.17	243.64
759.49	243.54
759.82	243.49
760.15	243.51
760.47	243.38
760.80	243.17
761.13	243.19
761.45	243.02
761.78	242.82
762.11	242.70
762.43	242.46
762.76	242.30
763.08	242.11
763.41	242.00
763.74	241.90
764.06	241.70
764.39	241.64
764.71	241.56
765.04	241.33
765.37	241.10
765.69	241.07
766.02	240.88
766.34	240.67
766.67	240.46
767.00	240.34
767.32	240.22
767.65	240.33
767.97	240.10
768.30	239.94
768.62	239.76
768.95	239.47
769.27	239.49
769.60	239.45
769.92	239.36
770.25	239.13
770.57	239.00
770.90	238.92
771.22	238.75
771.55	238.54
771.87	238.45
772.20	238.28
772.52	238.20
772.85	238.33
773.17	238.23
773.50	238.04
773.82	237.83
774.15	237.66
774.47	237.39
774.80	237.34
775.12	237.18
775.45	237.21
775.77	237.20
776.09	237.03
776.42	236.89
776.74	236.81
777.07	236.70
777.39	236.50
777.72	236.32
778.04	236.16
778.36	236.11
778.69	235.98
779.01	235.91
779.33	235.69
779.66	235.39
779.98	235.23
780.31	235.27
780.63	235.18
780.95	235.11
781.28	234.98
781.60	234.84
781.92	234.78
782.25	234.61
782.57	234.47
782.89	234.43
783.22	234.37
783.54	234.27
783.86	234.30
784.19	234.25
784.51	234.28
784.83	234.19
785.16	234.11
785.48	234.04
785.80	233.99
786.12	233.97
786.45	233.87
786.77	233.85
787.09	233.80
787.42	233.74
787.74	233.68
788.06	233.72
