SpectraSuite Data File
++++++++++++++++++++++++++++++++++++
Date: Fri Feb 01 14:35:44 EST 2013
User: group
Dark Spectrum Present: No
Reference Spectrum Present: No
Number of Sampled Component Spectra: 1
Spectrometers: USB2E7196
Integration Time (usec): 70000 (USB2E7196)
Spectra Averaged: 10 (USB2E7196)
Boxcar Smoothing: 10 (USB2E7196)
Correct for Electrical Dark: No (USB2E7196)
Strobe/Lamp Enabled: No (USB2E7196)
Correct for Detector Non-linearity: No (USB2E7196)
Correct for Stray Light: No (USB2E7196)
Number of Pixels in Processed Spectrum: 2048
>>>>>Begin Processed Spectral Data<<<<<
339.09	0.00
339.48	216.20
339.86	217.00
340.24	219.80
340.63	221.40
341.01	224.60
341.39	223.20
341.78	224.40
342.16	224.50
342.54	225.10
342.93	214.71
343.31	225.60
343.69	226.16
344.07	226.66
344.46	227.05
344.84	227.35
345.22	227.47
345.60	227.73
345.99	227.97
346.37	228.12
346.75	228.29
347.13	228.36
347.52	228.38
347.90	228.50
348.28	228.58
348.66	228.59
349.05	228.43
349.43	228.39
349.81	228.44
350.19	228.57
350.57	228.64
350.96	228.80
351.34	228.78
351.72	228.80
352.10	228.81
352.48	228.88
352.87	228.95
353.25	229.02
353.63	228.98
354.01	228.99
354.39	229.15
354.77	229.13
355.15	229.29
355.54	229.24
355.92	229.23
356.30	229.28
356.68	229.48
357.06	229.63
357.44	229.80
357.82	229.77
358.20	229.71
358.58	229.70
358.97	229.73
359.35	229.85
359.73	230.09
360.11	230.20
360.49	230.26
360.87	230.28
361.25	230.42
361.63	230.61
362.01	230.62
362.39	230.61
362.77	230.67
363.15	230.58
363.53	230.59
363.91	230.61
364.29	230.48
364.67	230.27
365.05	230.27
365.43	230.33
365.81	230.45
366.19	230.69
366.57	230.70
366.95	230.69
367.33	230.68
367.71	230.51
368.09	230.51
368.47	230.46
368.85	230.44
369.23	230.38
369.61	230.18
369.99	230.19
370.37	230.10
370.75	230.27
371.13	230.19
371.51	230.09
371.89	230.05
372.27	230.08
372.65	229.99
373.03	229.90
373.41	229.76
373.78	229.51
374.16	229.27
374.54	229.23
374.92	229.14
375.30	229.04
375.68	228.99
376.06	228.96
376.44	228.89
376.82	228.71
377.19	228.69
377.57	228.73
377.95	228.65
378.33	228.65
378.71	228.42
379.09	228.32
379.47	228.40
379.84	228.27
380.22	228.18
380.60	228.12
380.98	228.01
381.36	227.91
381.73	227.80
382.11	227.80
382.49	227.61
382.87	227.55
383.25	227.40
383.62	227.49
384.00	227.35
384.38	227.30
384.76	227.38
385.13	227.26
385.51	227.16
385.89	227.02
386.27	226.94
386.64	226.89
387.02	226.88
387.40	226.75
387.78	226.78
388.15	226.80
388.53	226.78
388.91	226.75
389.29	226.77
389.66	226.74
390.04	226.64
390.42	226.66
390.79	226.65
391.17	226.69
391.55	226.53
391.92	226.56
392.30	226.50
392.68	226.50
393.05	226.50
393.43	226.42
393.81	226.50
394.18	226.44
394.56	226.44
394.94	226.47
395.31	226.52
395.69	226.50
396.06	226.51
396.44	226.65
396.82	226.74
397.19	226.87
397.57	226.97
397.95	227.10
398.32	227.09
398.70	227.21
399.07	227.42
399.45	227.41
399.82	227.57
400.20	227.73
400.58	227.81
400.95	227.93
401.33	228.25
401.70	228.60
402.08	228.76
402.45	229.02
402.83	229.26
403.20	229.50
403.58	229.83
403.95	230.09
404.33	230.26
404.71	230.39
405.08	230.72
405.46	231.08
405.83	231.40
406.21	231.78
406.58	232.08
406.96	232.40
407.33	232.93
407.70	233.24
408.08	233.74
408.45	234.25
408.83	234.78
409.20	235.20
409.58	235.56
409.95	236.10
410.33	236.65
410.70	237.32
411.08	237.86
411.45	238.55
411.82	239.16
412.20	239.96
412.57	241.00
412.95	241.79
413.32	242.70
413.69	243.61
414.07	244.61
414.44	245.75
414.82	246.83
415.19	248.04
415.56	249.35
415.94	250.68
416.31	252.16
416.68	253.57
417.06	255.34
417.43	256.94
417.81	258.90
418.18	260.80
418.55	262.71
418.93	264.78
419.30	267.00
419.67	269.51
420.04	271.92
420.42	274.31
420.79	277.19
421.16	280.03
421.54	282.95
421.91	285.91
422.28	289.13
422.66	292.54
423.03	295.80
423.40	299.26
423.77	302.97
424.15	306.72
424.52	310.67
424.89	314.77
425.26	318.85
425.64	322.60
426.01	326.82
426.38	331.27
426.75	335.89
427.13	340.52
427.50	345.36
427.87	350.33
428.24	355.53
428.61	360.44
428.99	365.69
429.36	371.59
429.73	377.45
430.10	383.01
430.47	388.76
430.85	394.68
431.22	400.93
431.59	407.42
431.96	413.62
432.33	420.70
432.70	427.53
433.08	435.51
433.45	443.01
433.82	450.32
434.19	458.68
434.56	466.81
434.93	474.54
435.30	482.16
435.68	490.67
436.05	498.94
436.42	507.29
436.79	514.85
437.16	523.15
437.53	531.53
437.90	540.10
438.27	548.70
438.64	557.50
439.01	565.70
439.38	572.93
439.75	579.90
440.13	587.65
440.50	595.16
440.87	601.71
441.24	608.37
441.61	615.61
441.98	620.87
442.35	627.32
442.72	633.60
443.09	639.85
443.46	643.93
443.83	646.75
444.20	649.27
444.57	653.22
444.94	655.17
445.31	657.63
445.68	659.59
446.05	660.96
446.42	661.12
446.79	660.95
447.16	661.00
447.53	661.47
447.90	659.46
448.27	657.63
448.64	653.83
449.01	651.68
449.37	647.26
449.74	642.85
450.11	637.13
450.48	630.92
450.85	624.43
451.22	619.21
451.59	614.08
451.96	609.11
452.33	602.09
452.70	595.78
453.07	588.25
453.43	580.74
453.80	573.13
454.17	565.80
454.54	559.08
454.91	551.54
455.28	544.16
455.65	537.39
456.02	530.17
456.38	524.32
456.75	516.80
457.12	510.32
457.49	504.08
457.86	497.99
458.23	492.91
458.59	487.27
458.96	481.13
459.33	475.99
459.70	470.84
460.07	466.52
460.43	461.82
460.80	457.04
461.17	452.97
461.54	448.79
461.91	444.51
462.27	440.09
462.64	436.49
463.01	432.65
463.38	428.83
463.74	425.00
464.11	421.58
464.48	418.53
464.85	415.23
465.21	412.59
465.58	409.79
465.95	406.67
466.32	404.05
466.68	401.52
467.05	398.98
467.42	396.26
467.78	393.47
468.15	390.65
468.52	388.57
468.88	385.94
469.25	383.51
469.62	381.80
469.98	379.92
470.35	378.00
470.72	375.94
471.08	373.97
471.45	372.12
471.82	370.48
472.18	368.46
472.55	367.18
472.92	365.72
473.28	364.40
473.65	362.91
474.02	361.40
474.38	360.17
474.75	359.02
475.11	357.79
475.48	356.83
475.85	356.15
476.21	355.39
476.58	354.60
476.94	354.00
477.31	353.30
477.67	352.69
478.04	352.04
478.41	351.62
478.77	351.06
479.14	350.71
479.50	350.14
479.87	350.14
480.23	349.94
480.60	349.62
480.96	349.30
481.33	349.29
481.69	349.30
482.06	349.18
482.42	348.90
482.79	348.98
483.15	349.22
483.52	349.50
483.88	349.74
484.25	349.94
484.61	350.20
484.98	350.55
485.34	351.11
485.71	351.88
486.07	352.52
486.44	353.25
486.80	354.08
487.17	355.19
487.53	356.11
487.90	356.92
488.26	357.94
488.62	359.02
488.99	359.92
489.35	361.05
489.72	362.38
490.08	363.81
490.44	365.02
490.81	366.26
491.17	367.50
491.54	368.83
491.90	370.45
492.26	372.05
492.63	373.61
492.99	375.19
493.36	376.79
493.72	378.68
494.08	380.53
494.45	382.20
494.81	383.99
495.17	385.86
495.54	387.96
495.90	389.98
496.26	391.97
496.63	394.15
496.99	396.41
497.35	398.56
497.72	400.90
498.08	403.40
498.44	405.83
498.80	408.30
499.17	410.82
499.53	413.07
499.89	415.37
500.26	417.87
500.62	420.11
500.98	422.52
501.34	424.65
501.71	427.15
502.07	429.66
502.43	431.85
502.79	434.30
503.16	436.60
503.52	438.95
503.88	441.31
504.24	443.44
504.60	445.64
504.97	447.87
505.33	450.14
505.69	452.46
506.05	454.50
506.41	456.38
506.78	458.33
507.14	460.40
507.50	462.30
507.86	464.31
508.22	466.20
508.59	468.07
508.95	470.12
509.31	471.97
509.67	473.86
510.03	475.61
510.39	477.13
510.75	478.67
511.12	480.16
511.48	481.69
511.84	483.23
512.20	484.56
512.56	486.01
512.92	487.25
513.28	488.29
513.64	489.53
514.00	490.81
514.37	492.11
514.73	493.19
515.09	494.42
515.45	495.18
515.81	496.12
516.17	496.90
516.53	497.68
516.89	498.15
517.25	498.70
517.61	499.61
517.97	500.34
518.33	501.01
518.69	501.68
519.05	502.38
519.41	503.10
519.77	503.85
520.13	504.34
520.49	504.94
520.85	505.58
521.21	506.09
521.57	506.85
521.93	507.24
522.29	507.91
522.65	508.47
523.01	508.93
523.37	509.56
523.73	510.20
524.09	510.95
524.45	511.73
524.81	512.48
525.17	513.30
525.53	514.16
525.89	515.24
526.25	516.16
526.61	516.89
526.97	517.94
527.33	518.90
527.68	520.11
528.04	521.17
528.40	522.29
528.76	523.67
529.12	524.71
529.48	526.06
529.84	527.31
530.20	528.67
530.56	530.28
530.91	531.93
531.27	533.55
531.63	534.87
531.99	536.58
532.35	538.26
532.71	539.64
533.07	541.42
533.42	543.20
533.78	545.05
534.14	547.07
534.50	548.75
534.86	550.67
535.21	552.57
535.57	554.72
535.93	556.81
536.29	558.96
536.65	561.37
537.00	563.70
537.36	566.04
537.72	568.56
538.08	571.01
538.44	573.37
538.79	576.00
539.15	578.64
539.51	581.42
539.87	584.35
540.22	587.40
540.58	590.36
540.94	593.04
541.29	595.71
541.65	598.76
542.01	601.84
542.37	605.12
542.72	608.27
543.08	611.10
543.44	614.38
543.79	617.33
544.15	620.56
544.51	623.91
544.87	627.39
545.22	630.65
545.58	634.06
545.94	637.41
546.29	640.70
546.65	644.11
547.01	647.36
547.36	650.61
547.72	653.84
548.07	657.24
548.43	660.75
548.79	664.50
549.14	667.83
549.50	671.37
549.86	674.74
550.21	678.15
550.57	681.99
550.92	685.66
551.28	689.45
551.64	692.69
551.99	696.22
552.35	699.72
552.70	703.35
553.06	707.10
553.41	710.89
553.77	714.72
554.13	718.62
554.48	722.49
554.84	726.25
555.19	729.85
555.55	733.65
555.90	737.07
556.26	740.70
556.61	744.35
556.97	747.80
557.32	751.46
557.68	755.09
558.03	758.50
558.39	761.78
558.74	765.49
559.10	769.35
559.45	772.92
559.81	776.44
560.16	779.56
560.52	783.07
560.87	786.54
561.23	789.90
561.58	793.55
561.94	796.94
562.29	800.23
562.64	803.62
563.00	806.74
563.35	810.38
563.71	813.91
564.06	817.49
564.42	821.14
564.77	824.50
565.12	827.90
565.48	831.50
565.83	834.52
566.19	837.43
566.54	840.38
566.89	843.24
567.25	846.32
567.60	849.93
567.96	852.77
568.31	855.58
568.66	858.25
569.02	860.66
569.37	862.98
569.72	865.59
570.08	868.20
570.43	870.56
570.78	872.71
571.14	874.67
571.49	876.70
571.84	879.03
572.20	880.95
572.55	882.80
572.90	884.46
573.26	886.54
573.61	888.26
573.96	890.09
574.31	891.59
574.67	892.83
575.02	893.65
575.37	894.93
575.72	896.05
576.08	897.17
576.43	897.93
576.78	899.22
577.13	900.30
577.49	901.50
577.84	902.53
578.19	903.65
578.54	904.37
578.90	905.27
579.25	905.33
579.60	905.83
579.95	906.13
580.30	906.53
580.66	906.45
581.01	906.87
581.36	907.00
581.71	907.49
582.06	907.82
582.42	908.09
582.77	908.04
583.12	907.99
583.47	908.09
583.82	908.49
584.17	908.16
584.53	908.03
584.88	907.72
585.23	907.42
585.58	906.96
585.93	906.82
586.28	906.31
586.63	906.30
586.98	906.03
587.34	906.10
587.69	905.49
588.04	905.48
588.39	905.00
588.74	904.14
589.09	903.42
589.44	902.62
589.79	902.30
590.14	901.74
590.49	901.09
590.84	900.03
591.19	899.05
591.54	898.18
591.89	896.74
592.25	895.67
592.60	894.21
592.95	893.16
593.30	891.53
593.65	890.08
594.00	888.59
594.35	887.59
594.70	885.89
595.05	884.74
595.40	883.16
595.75	881.28
596.10	880.05
596.45	878.65
596.80	877.46
597.15	875.79
597.50	874.18
597.85	872.72
598.19	871.44
598.54	870.12
598.89	868.50
599.24	867.25
599.59	865.40
599.94	864.16
600.29	862.50
600.64	861.26
600.99	859.42
601.34	857.83
601.69	855.79
602.04	853.79
602.39	852.06
602.74	850.74
603.08	849.55
603.43	848.13
603.78	846.44
604.13	844.46
604.48	842.67
604.83	840.99
605.18	839.31
605.53	837.59
605.87	835.32
606.22	833.55
606.57	831.47
606.92	830.00
607.27	828.21
607.62	826.41
607.96	824.45
608.31	822.80
608.66	820.39
609.01	817.95
609.36	815.82
609.70	813.01
610.05	810.31
610.40	807.94
610.75	805.23
611.10	802.47
611.44	799.89
611.79	797.21
612.14	794.49
612.49	791.49
612.83	788.52
613.18	785.96
613.53	783.07
613.88	780.13
614.22	776.95
614.57	773.83
614.92	770.58
615.27	767.82
615.61	764.77
615.96	762.21
616.31	759.63
616.65	757.29
617.00	754.93
617.35	752.26
617.70	749.20
618.04	746.41
618.39	743.78
618.74	740.93
619.08	738.09
619.43	735.38
619.78	732.69
620.12	730.07
620.47	727.21
620.82	724.64
621.16	722.18
621.51	719.76
621.85	717.21
622.20	714.80
622.55	712.00
622.89	709.38
623.24	706.78
623.59	704.25
623.93	701.59
624.28	698.79
624.62	696.20
624.97	693.92
625.32	691.48
625.66	688.93
626.01	686.39
626.35	683.82
626.70	681.25
627.04	678.63
627.39	675.70
627.73	672.95
628.08	670.26
628.43	667.63
628.77	664.85
629.12	661.91
629.46	659.42
629.81	656.56
630.15	653.91
630.50	651.01
630.84	648.15
631.19	645.01
631.53	642.49
631.88	639.43
632.22	636.33
632.57	633.49
632.91	630.67
633.26	627.87
633.60	625.26
633.95	622.45
634.29	619.75
634.64	617.45
634.98	614.98
635.32	612.63
635.67	610.12
636.01	607.59
636.36	605.22
636.70	602.55
637.05	600.19
637.39	597.92
637.73	595.77
638.08	593.67
638.42	591.57
638.77	589.07
639.11	586.69
639.45	584.42
639.80	582.03
640.14	579.71
640.49	577.64
640.83	575.23
641.17	572.99
641.52	570.66
641.86	568.30
642.20	566.01
642.55	563.53
642.89	561.28
643.23	559.10
643.58	556.97
643.92	554.50
644.26	552.35
644.61	550.19
644.95	548.01
645.29	545.20
645.64	542.60
645.98	540.28
646.32	538.28
646.66	535.79
647.01	533.51
647.35	531.21
647.69	528.82
648.04	526.66
648.38	524.29
648.72	521.95
649.06	519.48
649.41	517.20
649.75	514.60
650.09	512.11
650.43	509.49
650.78	507.08
651.12	504.62
651.46	502.14
651.80	499.71
652.14	497.17
652.49	495.11
652.83	493.15
653.17	490.94
653.51	488.48
653.85	486.32
654.20	484.00
654.54	481.69
654.88	479.27
655.22	476.65
655.56	474.45
655.90	472.29
656.25	470.09
656.59	467.76
656.93	465.87
657.27	463.79
657.61	461.53
657.95	459.32
658.29	457.28
658.64	455.13
658.98	452.82
659.32	450.67
659.66	448.65
660.00	446.63
660.34	444.53
660.68	442.39
661.02	440.31
661.36	438.38
661.70	436.45
662.05	434.73
662.39	433.07
662.73	431.20
663.07	429.53
663.41	427.61
663.75	425.87
664.09	423.88
664.43	422.16
664.77	420.53
665.11	418.81
665.45	417.25
665.79	415.49
666.13	413.84
666.47	412.27
666.81	410.45
667.15	408.46
667.49	406.84
667.83	405.42
668.17	403.72
668.51	402.01
668.85	400.23
669.19	398.64
669.53	396.98
669.87	395.32
670.21	393.71
670.55	392.40
670.89	390.97
671.23	389.64
671.57	388.11
671.91	386.88
672.25	385.43
672.58	383.99
672.92	382.60
673.26	381.28
673.60	379.73
673.94	378.32
674.28	377.05
674.62	375.83
674.96	374.50
675.30	373.30
675.64	372.11
675.97	371.03
676.31	369.72
676.65	368.47
676.99	367.23
677.33	365.89
677.67	364.67
678.01	363.34
678.34	362.11
678.68	360.86
679.02	359.38
679.36	358.11
679.70	356.99
680.04	355.83
680.37	354.65
680.71	353.43
681.05	352.37
681.39	351.35
681.73	350.14
682.06	349.12
682.40	348.11
682.74	346.96
683.08	345.94
683.42	344.78
683.75	343.87
684.09	342.70
684.43	341.70
684.77	340.58
685.10	339.61
685.44	338.56
685.78	337.50
686.12	336.52
686.45	335.54
686.79	334.29
687.13	333.42
687.46	332.30
687.80	331.36
688.14	330.25
688.48	329.12
688.81	328.13
689.15	327.08
689.49	326.10
689.82	325.11
690.16	323.98
690.50	323.06
690.83	322.00
691.17	321.15
691.51	320.21
691.84	319.26
692.18	318.34
692.52	317.40
692.85	316.55
693.19	315.72
693.52	314.91
693.86	314.18
694.20	313.13
694.53	312.31
694.87	311.43
695.21	310.55
695.54	309.76
695.88	308.75
696.21	307.85
696.55	306.99
696.88	306.13
697.22	305.30
697.56	304.44
697.89	303.58
698.23	302.70
698.56	301.84
698.90	301.05
699.23	300.04
699.57	299.23
699.90	298.40
700.24	297.52
700.58	296.68
700.91	295.90
701.25	295.28
701.58	294.63
701.92	293.98
702.25	293.24
702.59	292.52
702.92	291.92
703.26	291.23
703.59	290.52
703.93	290.09
704.26	289.45
704.60	288.83
704.93	288.12
705.26	287.51
705.60	286.87
705.93	286.22
706.27	285.89
706.60	285.27
706.94	284.62
707.27	284.00
707.61	283.38
707.94	282.75
708.27	282.10
708.61	281.24
708.94	280.56
709.28	280.18
709.61	279.60
709.94	279.17
710.28	278.60
710.61	278.02
710.95	277.24
711.28	276.90
711.61	276.29
711.95	275.94
712.28	275.33
712.61	274.78
712.95	274.26
713.28	273.70
713.61	273.14
713.95	272.74
714.28	272.25
714.61	271.75
714.95	271.31
715.28	270.78
715.61	270.43
715.95	270.13
716.28	269.56
716.61	269.16
716.95	268.55
717.28	268.12
717.61	267.60
717.94	267.20
718.28	266.57
718.61	266.15
718.94	265.63
719.27	265.34
719.61	265.05
719.94	264.69
720.27	264.13
720.60	263.76
720.94	263.40
721.27	263.20
721.60	262.92
721.93	262.57
722.27	262.27
722.60	261.90
722.93	261.40
723.26	261.12
723.59	260.69
723.93	260.43
724.26	260.08
724.59	259.83
724.92	259.65
725.25	259.38
725.59	259.11
725.92	258.90
726.25	258.50
726.58	258.08
726.91	257.77
727.24	257.57
727.57	257.50
727.91	257.04
728.24	256.67
728.57	256.39
728.90	256.10
729.23	255.78
729.56	255.54
729.89	255.33
730.22	255.00
730.55	254.71
730.89	254.44
731.22	254.15
731.55	253.93
731.88	253.55
732.21	253.39
732.54	253.02
732.87	252.72
733.20	252.56
733.53	252.45
733.86	252.29
734.19	252.07
734.52	251.72
734.85	251.69
735.18	251.53
735.51	251.28
735.84	251.08
736.17	250.92
736.50	250.75
736.83	250.81
737.16	250.63
737.49	250.51
737.82	250.30
738.15	250.09
738.48	249.88
738.81	249.59
739.14	249.26
739.47	249.14
739.80	248.92
740.13	248.83
740.46	248.57
740.79	248.30
741.12	248.11
741.45	247.84
741.78	247.50
742.11	247.25
742.44	247.05
742.77	246.87
743.10	246.67
743.43	246.37
743.75	245.91
744.08	246.02
744.41	245.77
744.74	245.57
745.07	245.45
745.40	245.25
745.73	245.26
746.06	244.99
746.39	244.87
746.71	244.69
747.04	244.40
747.37	244.26
747.70	244.09
748.03	243.83
748.36	243.72
748.68	243.66
749.01	243.54
749.34	243.37
749.67	243.18
750.00	242.92
750.33	242.90
750.65	242.77
750.98	242.31
751.31	242.17
751.64	242.02
751.97	241.95
752.29	241.84
752.62	241.55
752.95	241.48
753.28	241.23
753.60	241.05
753.93	240.91
754.26	240.69
754.59	240.43
754.91	240.30
755.24	240.09
755.57	239.82
755.90	239.58
756.22	239.47
756.55	239.27
756.88	239.20
757.20	238.98
757.53	238.82
757.86	238.76
758.19	238.61
758.51	238.57
758.84	238.28
759.17	238.07
759.49	238.01
759.82	237.96
760.15	237.89
760.47	237.75
760.80	237.57
761.13	237.54
761.45	237.45
761.78	237.30
762.11	237.23
762.43	237.19
762.76	237.08
763.08	237.00
763.41	236.99
763.74	236.96
764.06	236.88
764.39	236.76
764.71	236.74
765.04	236.70
765.37	236.50
765.69	236.50
766.02	236.47
766.34	236.28
766.67	236.20
767.00	236.19
767.32	236.20
767.65	236.19
767.97	236.10
768.30	236.10
768.62	236.15
768.95	236.01
769.27	235.99
769.60	236.00
769.92	235.79
770.25	235.67
770.57	235.49
770.90	235.44
771.22	235.39
771.55	235.18
771.87	235.18
772.20	235.20
772.52	235.30
772.85	235.48
773.17	235.40
773.50	235.26
773.82	235.14
774.15	234.97
774.47	234.83
774.80	234.76
775.12	234.72
775.45	234.52
775.77	234.46
776.09	234.41
776.42	234.36
776.74	234.42
777.07	234.32
777.39	234.22
777.72	234.08
778.04	233.94
778.36	233.98
778.69	233.87
779.01	233.71
779.33	233.56
779.66	233.20
779.98	233.25
780.31	233.25
780.63	233.21
780.95	233.31
781.28	233.26
781.60	233.19
781.92	233.02
782.25	233.10
782.57	233.10
782.89	232.86
783.22	232.80
783.54	232.65
783.86	232.65
784.19	232.61
784.51	232.56
784.83	232.46
785.16	232.28
785.48	232.22
785.80	232.30
786.12	232.29
786.45	232.26
786.77	232.23
787.09	232.15
787.42	232.02
787.74	231.97
788.06	232.00
788.38	231.95
788.71	232.02
789.03	231.92
789.35	231.86
789.67	231.93
789.99	231.88
790.32	231.88
790.64	231.83
790.96	231.96
791.28	231.93
791.61	232.04
791.93	232.05
792.25	231.91
792.57	231.88
792.89	231.71
793.21	231.76
793.54	231.63
793.86	231.54
794.18	231.58
