SpectraSuite Data File
++++++++++++++++++++++++++++++++++++
Date: Fri Feb 01 14:40:14 EST 2013
User: group
Dark Spectrum Present: No
Reference Spectrum Present: No
Number of Sampled Component Spectra: 1
Spectrometers: USB2E7196
Integration Time (usec): 70000 (USB2E7196)
Spectra Averaged: 10 (USB2E7196)
Boxcar Smoothing: 10 (USB2E7196)
Correct for Electrical Dark: No (USB2E7196)
Strobe/Lamp Enabled: No (USB2E7196)
Correct for Detector Non-linearity: No (USB2E7196)
Correct for Stray Light: No (USB2E7196)
Number of Pixels in Processed Spectrum: 2048
>>>>>Begin Processed Spectral Data<<<<<
339.09	0.00
339.48	215.50
339.86	216.60
340.24	219.20
340.63	220.80
341.01	223.20
341.39	222.10
341.78	224.20
342.16	224.20
342.54	226.00
342.93	213.97
343.31	224.86
343.69	225.46
344.07	225.92
344.46	226.37
344.84	226.62
345.22	226.81
345.60	227.07
345.99	227.22
346.37	227.44
346.75	227.45
347.13	227.42
347.52	227.53
347.90	227.66
348.28	227.73
348.66	227.86
349.05	227.83
349.43	227.83
349.81	227.93
350.19	227.95
350.57	228.03
350.96	228.10
351.34	228.15
351.72	228.15
352.10	228.27
352.48	228.37
352.87	228.60
353.25	228.64
353.63	228.76
354.01	228.73
354.39	228.90
354.77	229.00
355.15	229.15
355.54	229.22
355.92	229.23
356.30	229.31
356.68	229.54
357.06	229.60
357.44	229.69
357.82	229.77
358.20	229.82
358.58	229.87
358.97	229.98
359.35	230.07
359.73	230.12
360.11	230.21
360.49	230.20
360.87	230.18
361.25	230.26
361.63	230.33
362.01	230.50
362.39	230.42
362.77	230.54
363.15	230.60
363.53	230.67
363.91	230.66
364.29	230.71
364.67	230.54
365.05	230.48
365.43	230.53
365.81	230.54
366.19	230.63
366.57	230.73
366.95	230.68
367.33	230.55
367.71	230.65
368.09	230.64
368.47	230.63
368.85	230.62
369.23	230.65
369.61	230.64
369.99	230.66
370.37	230.67
370.75	230.69
371.13	230.65
371.51	230.50
371.89	230.53
372.27	230.45
372.65	230.47
373.03	230.40
373.41	230.29
373.78	230.23
374.16	230.07
374.54	229.83
374.92	229.73
375.30	229.67
375.68	229.51
376.06	229.46
376.44	229.32
376.82	229.21
377.19	229.12
377.57	228.98
377.95	228.84
378.33	228.70
378.71	228.61
379.09	228.51
379.47	228.52
379.84	228.40
380.22	228.36
380.60	228.26
380.98	228.22
381.36	228.15
381.73	228.06
382.11	227.96
382.49	227.94
382.87	227.83
383.25	227.77
383.62	227.98
384.00	227.87
384.38	227.78
384.76	227.73
385.13	227.79
385.51	227.70
385.89	227.59
386.27	227.63
386.64	227.50
387.02	227.40
387.40	227.36
387.78	227.31
388.15	227.22
388.53	227.13
388.91	227.20
389.29	227.15
389.66	227.08
390.04	227.04
390.42	227.05
390.79	227.03
391.17	227.01
391.55	226.70
391.92	226.62
392.30	226.69
392.68	226.65
393.05	226.62
393.43	226.55
393.81	226.60
394.18	226.38
394.56	226.44
394.94	226.50
395.31	226.44
395.69	226.48
396.06	226.55
396.44	226.63
396.82	226.67
397.19	226.86
397.57	226.95
397.95	227.09
398.32	227.08
398.70	227.24
399.07	227.39
399.45	227.46
399.82	227.65
400.20	227.71
400.58	227.85
400.95	227.91
401.33	228.13
401.70	228.34
402.08	228.54
402.45	228.65
402.83	228.86
403.20	228.98
403.58	229.16
403.95	229.36
404.33	229.43
404.71	229.44
405.08	229.69
405.46	229.81
405.83	229.97
406.21	230.15
406.58	230.38
406.96	230.55
407.33	230.70
407.70	230.89
408.08	231.22
408.45	231.47
408.83	231.63
409.20	231.79
409.58	231.90
409.95	232.22
410.33	232.46
410.70	232.66
411.08	232.92
411.45	233.20
411.82	233.47
412.20	233.78
412.57	234.26
412.95	234.39
413.32	234.85
413.69	235.29
414.07	235.69
414.44	236.10
414.82	236.56
415.19	237.20
415.56	237.72
415.94	238.13
416.31	238.70
416.68	239.31
417.06	240.07
417.43	240.80
417.81	241.49
418.18	242.30
418.55	243.10
418.93	244.01
419.30	244.79
419.67	245.69
420.04	246.55
420.42	247.55
420.79	248.85
421.16	249.87
421.54	250.91
421.91	252.04
422.28	253.25
422.66	254.53
423.03	255.82
423.40	257.18
423.77	258.55
424.15	259.85
424.52	261.31
424.89	262.87
425.26	264.31
425.64	265.77
426.01	267.29
426.38	268.91
426.75	270.62
427.13	272.39
427.50	274.09
427.87	276.17
428.24	277.90
428.61	279.57
428.99	281.58
429.36	283.63
429.73	285.78
430.10	287.71
430.47	289.71
430.85	291.75
431.22	293.90
431.59	296.30
431.96	298.54
432.33	300.94
432.70	303.26
433.08	306.16
433.45	308.74
433.82	311.39
434.19	314.22
434.56	316.95
434.93	319.56
435.30	322.29
435.68	325.13
436.05	328.03
436.42	330.75
436.79	333.26
437.16	336.01
437.53	338.80
437.90	341.70
438.27	344.55
438.64	347.44
439.01	350.09
439.38	352.38
439.75	354.62
440.13	357.17
440.50	359.59
440.87	361.48
441.24	363.49
441.61	365.68
441.98	367.10
442.35	368.89
442.72	370.87
443.09	372.56
443.46	373.54
443.83	374.13
444.20	374.66
444.57	375.45
444.94	375.71
445.31	376.12
445.68	376.68
446.05	376.85
446.42	376.48
446.79	376.13
447.16	375.67
447.53	375.48
447.90	374.40
448.27	373.40
448.64	371.86
449.01	370.77
449.37	368.81
449.74	367.16
450.11	365.19
450.48	362.78
450.85	360.47
451.22	358.35
451.59	356.44
451.96	354.51
452.33	352.05
452.70	349.79
453.07	346.95
453.43	343.95
453.80	341.16
454.17	338.45
454.54	335.75
454.91	333.02
455.28	330.34
455.65	327.91
456.02	325.53
456.38	323.30
456.75	320.69
457.12	318.42
457.49	316.14
457.86	313.79
458.23	311.91
458.59	309.79
458.96	307.79
459.33	305.81
459.70	303.97
460.07	302.41
460.43	300.76
460.80	299.25
461.17	297.67
461.54	296.16
461.91	294.75
462.27	293.29
462.64	292.07
463.01	290.72
463.38	289.49
463.74	287.85
464.11	286.70
464.48	285.57
464.85	284.38
465.21	283.47
465.58	282.51
465.95	281.25
466.32	280.28
466.68	279.17
467.05	278.25
467.42	277.29
467.78	276.29
468.15	275.30
468.52	274.33
468.88	273.47
469.25	272.52
469.62	271.82
469.98	271.05
470.35	270.29
470.72	269.55
471.08	268.57
471.45	268.05
471.82	267.37
472.18	266.60
472.55	265.96
472.92	265.23
473.28	264.62
473.65	264.09
474.02	263.50
474.38	263.09
474.75	262.60
475.11	262.09
475.48	261.53
475.85	261.17
476.21	260.84
476.58	260.50
476.94	260.22
477.31	259.79
477.67	259.48
478.04	259.11
478.41	258.89
478.77	258.88
479.14	258.43
479.50	258.17
479.87	258.01
480.23	257.85
480.60	257.63
480.96	257.40
481.33	257.28
481.69	257.14
482.06	256.96
482.42	256.75
482.79	256.60
483.15	256.50
483.52	256.28
483.88	256.19
484.25	256.01
484.61	255.86
484.98	256.07
485.34	256.21
485.71	256.25
486.07	256.23
486.44	256.06
486.80	256.17
487.17	256.32
487.53	256.49
487.90	256.68
488.26	256.99
488.62	257.14
488.99	257.34
489.35	257.54
489.72	257.76
490.08	258.01
490.44	258.25
490.81	258.67
491.17	259.21
491.54	259.55
491.90	260.00
492.26	260.49
492.63	260.71
492.99	261.00
493.36	261.62
493.72	262.03
494.08	262.61
494.45	263.43
494.81	264.10
495.17	264.79
495.54	265.58
495.90	266.28
496.26	267.16
496.63	268.08
496.99	269.07
497.35	270.15
497.72	271.30
498.08	272.48
498.44	273.64
498.80	274.80
499.17	276.16
499.53	277.48
499.89	278.83
500.26	280.32
500.62	281.92
500.98	283.49
501.34	285.18
501.71	287.00
502.07	288.58
502.43	290.48
502.79	292.48
503.16	294.52
503.52	296.78
503.88	298.89
504.24	301.07
504.60	303.36
504.97	305.89
505.33	308.45
505.69	311.35
506.05	314.15
506.41	317.01
506.78	319.80
507.14	322.90
507.50	326.27
507.86	329.71
508.22	333.14
508.59	336.67
508.95	340.35
509.31	344.20
509.67	348.26
510.03	352.27
510.39	356.42
510.75	360.80
511.12	365.20
511.48	370.00
511.84	374.85
512.20	379.85
512.56	384.86
512.92	390.12
513.28	395.32
513.64	400.80
514.00	406.36
514.37	412.34
514.73	418.16
515.09	423.96
515.45	429.97
515.81	436.38
516.17	442.68
516.53	449.39
516.89	456.09
517.25	462.80
517.61	469.78
517.97	476.64
518.33	483.75
518.69	490.96
519.05	498.39
519.41	505.96
519.77	513.77
520.13	521.59
520.49	529.51
520.85	537.67
521.21	545.89
521.57	554.25
521.93	562.29
522.29	570.86
522.65	579.40
523.01	588.09
523.37	596.69
523.73	605.64
524.09	614.59
524.45	623.62
524.81	633.06
525.17	642.65
525.53	652.44
525.89	662.26
526.25	672.00
526.61	681.64
526.97	691.43
527.33	701.38
527.68	711.47
528.04	721.60
528.40	731.62
528.76	742.15
529.12	752.76
529.48	763.67
529.84	774.16
530.20	785.05
530.56	796.10
530.91	807.17
531.27	818.32
531.63	829.26
531.99	840.06
532.35	851.08
532.71	861.67
533.07	872.76
533.42	883.52
533.78	894.46
534.14	905.47
534.50	916.25
534.86	927.25
535.21	938.07
535.57	949.23
535.93	960.42
536.29	971.56
536.65	982.44
537.00	993.63
537.36	1004.91
537.72	1015.92
538.08	1026.59
538.44	1037.69
538.79	1048.70
539.15	1059.29
539.51	1070.75
539.87	1081.76
540.22	1092.90
540.58	1104.08
540.94	1115.27
541.29	1126.24
541.65	1137.16
542.01	1148.36
542.37	1159.46
542.72	1170.08
543.08	1180.68
543.44	1191.01
543.79	1200.58
544.15	1211.04
544.51	1221.45
544.87	1231.69
545.22	1241.83
545.58	1251.83
545.94	1261.13
546.29	1270.90
546.65	1280.49
547.01	1289.62
547.36	1298.92
547.72	1307.84
548.07	1316.47
548.43	1325.11
548.79	1333.74
549.14	1342.30
549.50	1350.88
549.86	1358.82
550.21	1367.05
550.57	1374.84
550.92	1383.40
551.28	1391.60
551.64	1399.02
551.99	1406.59
552.35	1413.96
552.70	1421.39
553.06	1429.02
553.41	1436.76
553.77	1443.94
554.13	1451.87
554.48	1459.04
554.84	1466.03
555.19	1473.22
555.55	1480.39
555.90	1486.92
556.26	1493.81
556.61	1500.36
556.97	1506.38
557.32	1512.84
557.68	1519.03
558.03	1525.60
558.39	1531.39
558.74	1537.99
559.10	1544.21
559.45	1550.01
559.81	1556.36
560.16	1561.93
560.52	1567.58
560.87	1573.13
561.23	1578.24
561.58	1583.39
561.94	1588.48
562.29	1592.90
562.64	1597.28
563.00	1601.70
563.35	1607.37
563.71	1612.34
564.06	1617.37
564.42	1622.20
564.77	1626.40
565.12	1631.42
565.48	1635.95
565.83	1639.85
566.19	1643.65
566.54	1647.46
566.89	1651.04
567.25	1653.99
567.60	1658.09
567.96	1661.36
568.31	1664.58
568.66	1667.45
569.02	1670.39
569.37	1672.93
569.72	1676.10
570.08	1679.31
570.43	1681.92
570.78	1683.40
571.14	1685.04
571.49	1686.64
571.84	1689.04
572.20	1690.69
572.55	1691.78
572.90	1692.49
573.26	1694.24
573.61	1695.32
573.96	1696.50
574.31	1696.58
574.67	1697.16
575.02	1696.76
575.37	1697.02
575.72	1696.30
576.08	1696.53
576.43	1695.90
576.78	1695.98
577.13	1695.97
577.49	1695.58
577.84	1694.92
578.19	1694.61
578.54	1693.60
578.90	1692.36
579.25	1690.59
579.60	1689.33
579.95	1688.00
580.30	1686.47
580.66	1684.39
581.01	1682.72
581.36	1680.66
581.71	1679.70
582.06	1677.85
582.42	1675.99
582.77	1673.76
583.12	1672.25
583.47	1670.62
583.82	1669.08
584.17	1666.77
584.53	1664.24
584.88	1662.22
585.23	1659.90
585.58	1657.64
585.93	1655.58
586.28	1654.04
586.63	1651.95
586.98	1649.53
587.34	1647.47
587.69	1645.40
588.04	1643.05
588.39	1640.39
588.74	1636.90
589.09	1633.50
589.44	1630.01
589.79	1627.20
590.14	1624.41
590.49	1621.11
590.84	1617.66
591.19	1614.24
591.54	1610.16
591.89	1605.52
592.25	1601.49
592.60	1597.02
592.95	1592.36
593.30	1588.06
593.65	1583.33
594.00	1578.80
594.35	1575.52
594.70	1570.18
595.05	1565.74
595.40	1560.94
595.75	1556.27
596.10	1552.70
596.45	1549.02
596.80	1545.93
597.15	1542.18
597.50	1538.19
597.85	1534.41
598.19	1530.50
598.54	1526.44
598.89	1522.96
599.24	1520.01
599.59	1515.80
599.94	1512.46
600.29	1508.57
600.64	1504.37
600.99	1499.53
601.34	1495.53
601.69	1490.17
602.04	1486.35
602.39	1481.63
602.74	1477.95
603.08	1473.90
603.43	1470.05
603.78	1465.50
604.13	1460.49
604.48	1455.46
604.83	1450.87
605.18	1446.14
605.53	1440.62
605.87	1435.28
606.22	1430.37
606.57	1425.00
606.92	1420.28
607.27	1415.45
607.62	1411.04
607.96	1406.38
608.31	1402.20
608.66	1396.71
609.01	1391.53
609.36	1385.95
609.70	1380.37
610.05	1374.57
610.40	1369.27
610.75	1363.05
611.10	1357.19
611.44	1351.13
611.79	1345.57
612.14	1339.86
612.49	1333.34
612.83	1327.73
613.18	1321.75
613.53	1315.97
613.88	1310.00
614.22	1303.68
614.57	1297.31
614.92	1291.10
615.27	1285.43
615.61	1279.65
615.96	1273.87
616.31	1268.39
616.65	1263.39
617.00	1257.75
617.35	1252.08
617.70	1245.91
618.04	1239.66
618.39	1233.92
618.74	1228.46
619.08	1222.45
619.43	1216.62
619.78	1211.81
620.12	1206.12
620.47	1200.66
620.82	1194.78
621.16	1189.28
621.51	1183.91
621.85	1178.52
622.20	1172.54
622.55	1166.75
622.89	1161.04
623.24	1155.84
623.59	1150.37
623.93	1144.62
624.28	1139.50
624.62	1134.12
624.97	1128.96
625.32	1124.09
625.66	1118.97
626.01	1113.68
626.35	1108.41
626.70	1102.62
627.04	1096.86
627.39	1091.17
627.73	1085.53
628.08	1080.13
628.43	1074.66
628.77	1069.26
629.12	1063.35
629.46	1057.87
629.81	1051.85
630.15	1045.90
630.50	1040.13
630.84	1034.35
631.19	1028.37
631.53	1022.53
631.88	1016.46
632.22	1010.23
632.57	1004.98
632.91	999.10
633.26	993.39
633.60	987.44
633.95	982.13
634.29	976.81
634.64	971.81
634.98	966.20
635.32	960.74
635.67	955.69
636.01	950.56
636.36	945.59
636.70	940.55
637.05	935.66
637.39	930.81
637.73	925.64
638.08	920.78
638.42	916.23
638.77	911.61
639.11	906.87
639.45	902.23
639.80	896.85
640.14	891.94
640.49	886.88
640.83	882.24
641.17	877.01
641.52	871.95
641.86	866.91
642.20	862.45
642.55	857.65
642.89	852.68
643.23	847.32
643.58	842.70
643.92	837.70
644.26	833.08
644.61	828.40
644.95	823.76
645.29	818.58
645.64	813.27
645.98	808.27
646.32	803.40
646.66	798.47
647.01	793.50
647.35	788.75
647.69	784.34
648.04	779.82
648.38	775.28
648.72	770.40
649.06	765.41
649.41	760.87
649.75	755.99
650.09	751.12
650.43	746.44
650.78	741.40
651.12	736.59
651.46	731.60
651.80	726.80
652.14	722.15
652.49	717.75
652.83	713.46
653.17	708.80
653.51	704.33
653.85	699.90
654.20	695.62
654.54	690.83
654.88	685.93
655.22	681.13
655.56	676.45
655.90	672.13
656.25	667.99
656.59	663.32
656.93	659.10
657.27	654.96
657.61	650.43
657.95	646.51
658.29	642.47
658.64	638.49
658.98	634.25
659.32	630.01
659.66	625.93
660.00	621.83
660.34	617.80
660.68	613.67
661.02	609.62
661.36	605.84
661.70	602.14
662.05	598.80
662.39	595.30
662.73	591.70
663.07	588.10
663.41	584.55
663.75	581.02
664.09	577.41
664.43	573.78
664.77	570.60
665.11	567.08
665.45	563.54
665.79	560.04
666.13	556.60
666.47	553.10
666.81	549.60
667.15	546.17
667.49	543.01
667.83	540.08
668.17	536.93
668.51	533.56
668.85	530.58
669.19	527.26
669.53	524.13
669.87	521.08
670.21	518.02
670.55	514.85
670.89	512.27
671.23	509.70
671.57	507.02
671.91	504.21
672.25	501.35
672.58	498.74
672.92	495.92
673.26	493.50
673.60	491.12
673.94	488.70
674.28	486.12
674.62	483.76
674.96	481.21
675.30	478.90
675.64	476.57
675.97	473.98
676.31	471.75
676.65	469.32
676.99	467.03
677.33	464.82
677.67	462.60
678.01	459.97
678.34	457.50
678.68	455.18
679.02	452.96
679.36	450.52
679.70	448.36
680.04	446.46
680.37	444.25
680.71	441.88
681.05	439.72
681.39	437.73
681.73	435.52
682.06	433.47
682.40	431.46
682.74	429.26
683.08	427.41
683.42	425.19
683.75	423.20
684.09	421.19
684.43	418.97
684.77	416.99
685.10	415.10
685.44	413.26
685.78	411.29
686.12	409.38
686.45	407.60
686.79	405.64
687.13	403.59
687.46	401.53
687.80	399.67
688.14	397.83
688.48	396.10
688.81	394.18
689.15	392.31
689.49	390.35
689.82	388.66
690.16	386.74
690.50	385.00
690.83	383.18
691.17	381.33
691.51	379.69
691.84	378.04
692.18	376.36
692.52	374.48
692.85	372.65
693.19	370.93
693.52	369.25
693.86	367.52
694.20	365.90
694.53	364.33
694.87	362.72
695.21	361.01
695.54	359.40
695.88	357.83
696.21	356.14
696.55	354.62
696.88	353.09
697.22	351.59
697.56	350.23
697.89	348.69
698.23	347.38
698.56	346.05
698.90	344.55
699.23	343.07
699.57	341.69
699.90	340.41
700.24	338.89
700.58	337.42
700.91	336.08
701.25	334.80
701.58	333.62
701.92	332.40
702.25	331.07
702.59	329.72
702.92	328.43
703.26	327.21
703.59	326.03
703.93	325.08
704.26	323.95
704.60	322.75
704.93	321.74
705.26	320.48
705.60	319.29
705.93	318.37
706.27	317.32
706.60	316.32
706.94	315.31
707.27	314.29
707.61	313.39
707.94	312.48
708.27	311.33
708.61	310.30
708.94	309.23
709.28	308.41
709.61	307.52
709.94	306.68
710.28	305.80
710.61	304.93
710.95	303.85
711.28	303.03
711.61	302.14
711.95	301.35
712.28	300.54
712.61	299.72
712.95	298.85
713.28	298.06
713.61	297.26
713.95	296.43
714.28	295.86
714.61	295.09
714.95	294.40
715.28	293.72
715.61	292.87
715.95	292.19
716.28	291.38
716.61	290.74
716.95	290.06
717.28	289.38
717.61	288.67
717.94	287.99
718.28	287.20
718.61	286.50
718.94	285.76
719.27	285.10
719.61	284.54
719.94	283.90
720.27	283.29
720.60	282.75
720.94	282.19
721.27	281.59
721.60	281.10
721.93	280.55
722.27	280.16
722.60	279.74
722.93	279.24
723.26	278.87
723.59	278.25
723.93	277.64
724.26	277.20
724.59	276.80
724.92	276.44
725.25	276.08
725.59	275.58
725.92	275.15
726.25	274.70
726.58	274.20
726.91	273.74
727.24	273.30
727.57	272.91
727.91	272.37
728.24	272.03
728.57	271.54
728.90	271.05
729.23	270.49
729.56	270.12
729.89	269.63
730.22	269.22
730.55	268.79
730.89	268.40
731.22	267.88
731.55	267.43
731.88	266.89
732.21	266.41
732.54	266.05
732.87	265.58
733.20	265.23
733.53	264.83
733.86	264.50
734.19	264.09
734.52	263.67
734.85	263.50
735.18	263.08
735.51	262.79
735.84	262.44
736.17	262.18
736.50	261.70
736.83	261.56
737.16	261.03
737.49	260.73
737.82	260.45
738.15	260.19
738.48	259.77
738.81	259.46
739.14	259.08
739.47	258.67
739.80	258.42
740.13	258.04
740.46	257.61
740.79	257.22
741.12	256.96
741.45	256.52
741.78	256.00
742.11	255.57
742.44	255.13
742.77	254.81
743.10	254.33
743.43	254.02
743.75	253.53
744.08	253.40
744.41	253.06
744.74	252.80
745.07	252.40
745.40	252.09
745.73	251.78
746.06	251.54
746.39	251.20
746.71	250.87
747.04	250.63
747.37	250.40
747.70	250.07
748.03	249.60
748.36	249.30
748.68	249.08
749.01	248.73
749.34	248.43
749.67	248.09
750.00	247.90
750.33	247.71
750.65	247.49
750.98	247.13
751.31	246.90
751.64	246.60
751.97	246.45
752.29	246.20
752.62	245.92
752.95	245.70
753.28	245.55
753.60	245.27
753.93	244.98
754.26	244.78
754.59	244.60
754.91	244.43
755.24	244.37
755.57	244.19
755.90	244.00
756.22	243.82
756.55	243.77
756.88	243.63
757.20	243.37
757.53	243.20
757.86	242.92
758.19	242.75
758.51	242.65
758.84	242.43
759.17	242.36
759.49	242.22
759.82	242.15
760.15	242.07
760.47	242.02
760.80	241.82
761.13	241.76
761.45	241.53
761.78	241.47
762.11	241.25
762.43	241.05
762.76	240.96
763.08	240.88
763.41	240.81
763.74	240.58
764.06	240.32
764.39	240.17
764.71	240.17
765.04	240.12
765.37	239.91
765.69	239.86
766.02	239.76
766.34	239.59
766.67	239.44
767.00	239.38
767.32	239.24
767.65	239.36
767.97	239.18
768.30	239.15
768.62	238.94
768.95	238.88
769.27	238.86
769.60	238.83
769.92	238.69
770.25	238.44
770.57	238.36
770.90	238.40
771.22	238.32
771.55	238.27
771.87	238.11
772.20	238.02
772.52	238.09
772.85	238.15
773.17	238.09
773.50	237.89
773.82	237.67
774.15	237.57
774.47	237.39
774.80	237.27
775.12	237.17
775.45	237.25
775.77	237.11
776.09	237.06
776.42	236.94
776.74	237.00
777.07	236.97
777.39	236.93
777.72	236.77
778.04	236.71
778.36	236.55
778.69	236.49
779.01	236.39
779.33	236.10
779.66	235.87
779.98	235.73
780.31	235.73
780.63	235.77
780.95	235.71
781.28	235.63
781.60	235.50
781.92	235.43
782.25	235.28
782.57	235.26
782.89	235.07
783.22	234.90
783.54	234.77
783.86	234.53
784.19	234.43
784.51	234.43
784.83	234.39
785.16	234.41
785.48	234.35
785.80	234.26
786.12	234.10
786.45	233.90
786.77	233.92
787.09	233.77
787.42	233.58
787.74	233.44
788.06	233.25
788.38	233.30
