SpectraSuite Data File
++++++++++++++++++++++++++++++++++++
Date: Fri Feb 01 14:33:54 EST 2013
User: group
Dark Spectrum Present: No
Reference Spectrum Present: No
Number of Sampled Component Spectra: 1
Spectrometers: USB2E7196
Integration Time (usec): 70000 (USB2E7196)
Spectra Averaged: 10 (USB2E7196)
Boxcar Smoothing: 10 (USB2E7196)
Correct for Electrical Dark: No (USB2E7196)
Strobe/Lamp Enabled: No (USB2E7196)
Correct for Detector Non-linearity: No (USB2E7196)
Correct for Stray Light: No (USB2E7196)
Number of Pixels in Processed Spectrum: 2048
>>>>>Begin Processed Spectral Data<<<<<
339.09	0.00
339.48	215.80
339.86	215.50
340.24	219.00
340.63	219.00
341.01	221.40
341.39	223.10
341.78	223.50
342.16	224.30
342.54	226.10
342.93	213.88
343.31	224.67
343.69	225.21
344.07	225.71
344.46	226.15
344.84	226.60
345.22	226.93
345.60	227.14
345.99	227.35
346.37	227.53
346.75	227.70
347.13	227.72
347.52	227.75
347.90	227.84
348.28	227.84
348.66	227.78
349.05	227.75
349.43	227.83
349.81	227.87
350.19	227.99
350.57	228.03
350.96	228.15
351.34	228.32
351.72	228.40
352.10	228.52
352.48	228.56
352.87	228.60
353.25	228.77
353.63	228.97
354.01	229.01
354.39	229.11
354.77	229.15
355.15	229.34
355.54	229.43
355.92	229.56
356.30	229.82
356.68	230.09
357.06	230.23
357.44	230.30
357.82	230.50
358.20	230.59
358.58	230.71
358.97	230.81
359.35	230.86
359.73	230.98
360.11	231.06
360.49	231.25
360.87	231.31
361.25	231.27
361.63	231.26
362.01	231.39
362.39	231.45
362.77	231.52
363.15	231.52
363.53	231.63
363.91	231.64
364.29	231.58
364.67	231.49
365.05	231.46
365.43	231.52
365.81	231.54
366.19	231.59
366.57	231.56
366.95	231.54
367.33	231.48
367.71	231.54
368.09	231.58
368.47	231.47
368.85	231.44
369.23	231.46
369.61	231.46
369.99	231.50
370.37	231.43
370.75	231.39
371.13	231.28
371.51	231.11
371.89	231.02
372.27	230.94
372.65	230.87
373.03	230.86
373.41	230.76
373.78	230.65
374.16	230.48
374.54	230.40
374.92	230.26
375.30	230.20
375.68	230.04
376.06	229.95
376.44	229.87
376.82	229.79
377.19	229.66
377.57	229.60
377.95	229.33
378.33	229.24
378.71	229.12
379.09	229.11
379.47	229.06
379.84	228.94
380.22	228.86
380.60	228.77
380.98	228.68
381.36	228.57
381.73	228.43
382.11	228.41
382.49	228.35
382.87	228.28
383.25	228.27
383.62	228.36
384.00	228.30
384.38	228.18
384.76	228.16
385.13	228.26
385.51	228.13
385.89	228.11
386.27	228.00
386.64	228.03
387.02	227.83
387.40	227.86
387.78	227.89
388.15	227.90
388.53	227.77
388.91	227.69
389.29	227.78
389.66	227.80
390.04	227.79
390.42	227.85
390.79	227.90
391.17	227.87
391.55	227.71
391.92	227.77
392.30	227.88
392.68	227.84
393.05	227.81
393.43	227.81
393.81	227.88
394.18	227.99
394.56	227.97
394.94	228.19
395.31	228.12
395.69	228.29
396.06	228.37
396.44	228.47
396.82	228.60
397.19	228.69
397.57	228.81
397.95	228.85
398.32	228.81
398.70	228.98
399.07	229.09
399.45	229.15
399.82	229.23
400.20	229.32
400.58	229.54
400.95	229.64
401.33	229.81
401.70	230.15
402.08	230.41
402.45	230.59
402.83	230.82
403.20	231.16
403.58	231.28
403.95	231.60
404.33	231.98
404.71	232.31
405.08	232.68
405.46	233.03
405.83	233.53
406.21	234.03
406.58	234.43
406.96	234.89
407.33	235.44
407.70	235.99
408.08	236.67
408.45	237.33
408.83	237.93
409.20	238.68
409.58	239.36
409.95	240.18
410.33	241.00
410.70	241.85
411.08	242.72
411.45	243.80
411.82	244.72
412.20	245.92
412.57	247.19
412.95	248.29
413.32	249.55
413.69	250.92
414.07	252.42
414.44	253.99
414.82	255.64
415.19	257.52
415.56	259.40
415.94	261.37
416.31	263.50
416.68	265.70
417.06	268.25
417.43	270.51
417.81	273.06
418.18	275.79
418.55	278.74
418.93	281.89
419.30	285.00
419.67	288.45
420.04	291.90
420.42	295.56
420.79	299.94
421.16	304.13
421.54	308.47
421.91	312.97
422.28	317.60
422.66	322.61
423.03	327.38
423.40	332.46
423.77	337.92
424.15	343.46
424.52	349.20
424.89	355.32
425.26	361.40
425.64	367.18
426.01	373.34
426.38	379.78
426.75	386.37
427.13	393.51
427.50	400.76
427.87	408.38
428.24	415.88
428.61	422.85
428.99	430.66
429.36	439.20
429.73	447.57
430.10	455.89
430.47	464.45
430.85	473.42
431.22	482.67
431.59	492.55
431.96	501.75
432.33	512.45
432.70	522.45
433.08	534.23
433.45	545.30
433.82	556.70
434.19	569.01
434.56	581.16
434.93	592.38
435.30	603.66
435.68	616.40
436.05	628.60
436.42	641.04
436.79	652.37
437.16	664.69
437.53	677.46
437.90	690.29
438.27	702.82
438.64	715.90
439.01	728.02
439.38	738.64
439.75	749.10
440.13	760.71
440.50	772.20
440.87	781.85
441.24	791.80
441.61	802.30
441.98	810.30
442.35	819.49
442.72	829.24
443.09	838.85
443.46	844.82
443.83	849.18
444.20	853.20
444.57	859.00
444.94	861.91
445.31	865.33
445.68	868.33
446.05	870.59
446.42	870.68
446.79	870.52
447.16	870.41
447.53	870.99
447.90	868.00
448.27	864.76
448.64	859.41
449.01	856.09
449.37	849.43
449.74	842.78
450.11	834.31
450.48	825.00
450.85	815.63
451.22	807.54
451.59	800.10
451.96	792.80
452.33	782.22
452.70	773.14
453.07	761.93
453.43	750.67
453.80	739.47
454.17	728.65
454.54	718.53
454.91	707.40
455.28	696.41
455.65	686.07
456.02	675.42
456.38	666.63
456.75	655.44
457.12	645.89
457.49	636.73
457.86	628.12
458.23	620.37
458.59	611.69
458.96	602.82
459.33	595.31
459.70	587.50
460.07	581.30
460.43	574.00
460.80	566.83
461.17	560.71
461.54	554.48
461.91	548.37
462.27	542.21
462.64	536.95
463.01	531.13
463.38	525.47
463.74	520.03
464.11	515.08
464.48	510.81
464.85	506.28
465.21	502.65
465.58	498.64
465.95	494.14
466.32	490.16
466.68	486.33
467.05	482.41
467.42	478.65
467.78	474.68
468.15	470.71
468.52	468.04
468.88	464.51
469.25	461.05
469.62	458.30
469.98	455.48
470.35	452.76
470.72	450.21
471.08	447.55
471.45	445.11
471.82	442.57
472.18	439.77
472.55	437.85
472.92	435.55
473.28	433.43
473.65	431.35
474.02	429.28
474.38	427.75
474.75	426.32
475.11	424.70
475.48	423.57
475.85	422.74
476.21	421.77
476.58	420.84
476.94	420.17
477.31	419.39
477.67	418.50
478.04	417.84
478.41	417.27
478.77	417.00
479.14	416.58
479.50	416.32
479.87	416.27
480.23	416.19
480.60	415.97
480.96	416.08
481.33	416.34
481.69	416.77
482.06	416.94
482.42	416.91
482.79	417.41
483.15	417.90
483.52	418.68
483.88	419.17
484.25	419.74
484.61	420.64
484.98	421.51
485.34	422.75
485.71	424.02
486.07	425.38
486.44	426.47
486.80	428.17
487.17	429.80
487.53	431.77
487.90	433.72
488.26	436.05
488.62	438.26
488.99	440.25
489.35	442.54
489.72	445.12
490.08	447.94
490.44	450.54
490.81	453.42
491.17	456.07
491.54	459.33
491.90	462.49
492.26	465.76
492.63	469.38
492.99	472.89
493.36	476.45
493.72	480.28
494.08	484.23
494.45	488.11
494.81	492.40
495.17	496.50
495.54	500.88
495.90	505.00
496.26	509.46
496.63	514.36
496.99	519.03
497.35	523.72
497.72	528.68
498.08	533.74
498.44	538.88
498.80	544.61
499.17	549.76
499.53	555.25
499.89	560.61
500.26	565.84
500.62	571.33
500.98	577.30
501.34	583.23
501.71	589.10
502.07	594.93
502.43	600.58
502.79	606.37
503.16	612.19
503.52	618.37
503.88	624.04
504.24	629.80
504.60	635.88
504.97	642.05
505.33	648.14
505.69	654.56
506.05	660.65
506.41	666.33
506.78	672.54
507.14	678.24
507.50	684.36
507.86	690.54
508.22	696.58
508.59	702.30
508.95	708.20
509.31	714.21
509.67	720.40
510.03	726.63
510.39	732.64
510.75	738.52
511.12	743.98
511.48	750.00
511.84	755.62
512.20	761.24
512.56	766.85
512.92	772.31
513.28	777.28
513.64	782.38
514.00	787.67
514.37	792.72
514.73	797.98
515.09	802.62
515.45	807.50
515.81	812.23
516.17	817.10
516.53	821.90
516.89	826.33
517.25	830.40
517.61	834.54
517.97	838.62
518.33	842.40
518.69	846.39
519.05	850.24
519.41	854.50
519.77	858.66
520.13	862.42
520.49	865.93
520.85	869.78
521.21	873.46
521.57	877.09
521.93	880.39
522.29	883.95
522.65	887.43
523.01	890.63
523.37	893.44
523.73	896.43
524.09	899.18
524.45	902.53
524.81	905.74
525.17	909.17
525.53	912.57
525.89	915.89
526.25	919.26
526.61	921.96
526.97	924.72
527.33	927.19
527.68	930.14
528.04	933.06
528.40	935.94
528.76	939.06
529.12	941.99
529.48	945.24
529.84	947.88
530.20	950.65
530.56	954.09
530.91	957.82
531.27	961.00
531.63	963.90
531.99	966.52
532.35	969.16
532.71	971.50
533.07	974.26
533.42	976.84
533.78	979.48
534.14	982.21
534.50	984.79
534.86	987.82
535.21	990.06
535.57	993.04
535.93	995.40
536.29	997.89
536.65	1000.43
537.00	1002.44
537.36	1005.06
537.72	1007.55
538.08	1009.80
538.44	1011.78
538.79	1014.01
539.15	1016.23
539.51	1018.87
539.87	1021.44
540.22	1023.83
540.58	1026.21
540.94	1028.52
541.29	1030.51
541.65	1032.95
542.01	1035.15
542.37	1037.26
542.72	1039.54
543.08	1041.44
543.44	1043.83
543.79	1045.55
544.15	1047.89
544.51	1050.59
544.87	1053.13
545.22	1055.49
545.58	1057.21
545.94	1059.14
546.29	1061.16
546.65	1063.16
547.01	1064.77
547.36	1066.33
547.72	1067.99
548.07	1070.07
548.43	1071.95
548.79	1074.07
549.14	1076.04
549.50	1078.09
549.86	1079.73
550.21	1081.63
550.57	1083.47
550.92	1085.02
551.28	1086.98
551.64	1088.48
551.99	1089.88
552.35	1091.31
552.70	1093.20
553.06	1095.19
553.41	1097.14
553.77	1098.78
554.13	1100.54
554.48	1102.39
554.84	1104.35
555.19	1106.11
555.55	1107.50
555.90	1108.86
556.26	1110.49
556.61	1111.70
556.97	1113.12
557.32	1114.66
557.68	1116.30
558.03	1117.73
558.39	1119.30
558.74	1121.24
559.10	1122.40
559.45	1124.22
559.81	1126.01
560.16	1127.05
560.52	1128.35
560.87	1129.87
561.23	1131.03
561.58	1132.49
561.94	1133.64
562.29	1134.70
562.64	1135.83
563.00	1136.88
563.35	1138.64
563.71	1139.99
564.06	1141.68
564.42	1142.63
564.77	1143.91
565.12	1145.10
565.48	1146.52
565.83	1147.43
566.19	1148.09
566.54	1149.13
566.89	1149.77
567.25	1150.68
567.60	1151.76
567.96	1152.49
568.31	1153.14
568.66	1153.90
569.02	1154.40
569.37	1154.88
569.72	1155.66
570.08	1156.33
570.43	1156.84
570.78	1157.08
571.14	1156.97
571.49	1156.89
571.84	1157.58
572.20	1157.37
572.55	1157.45
572.90	1156.88
573.26	1156.99
573.61	1156.52
573.96	1156.27
574.31	1155.59
574.67	1154.32
575.02	1153.54
575.37	1152.65
575.72	1151.30
576.08	1150.52
576.43	1149.74
576.78	1148.85
577.13	1147.96
577.49	1147.04
577.84	1145.53
578.19	1144.15
578.54	1143.17
578.90	1141.77
579.25	1139.74
579.60	1138.20
579.95	1136.34
580.30	1134.85
580.66	1132.90
581.01	1131.14
581.36	1129.28
581.71	1127.68
582.06	1126.23
582.42	1124.15
582.77	1122.25
583.12	1120.81
583.47	1119.02
583.82	1117.26
584.17	1114.96
584.53	1112.83
584.88	1110.63
585.23	1108.80
585.58	1106.55
585.93	1104.37
586.28	1102.50
586.63	1100.84
586.98	1098.65
587.34	1096.60
587.69	1094.38
588.04	1092.44
588.39	1090.57
588.74	1088.00
589.09	1085.54
589.44	1082.70
589.79	1080.61
590.14	1078.58
590.49	1075.73
590.84	1073.21
591.19	1070.75
591.54	1068.03
591.89	1064.95
592.25	1062.23
592.60	1059.24
592.95	1056.31
593.30	1053.25
593.65	1049.99
594.00	1046.82
594.35	1044.68
594.70	1041.32
595.05	1038.43
595.40	1035.14
595.75	1031.60
596.10	1028.80
596.45	1025.97
596.80	1023.66
597.15	1020.65
597.50	1017.25
597.85	1014.48
598.19	1011.37
598.54	1008.17
598.89	1005.70
599.24	1003.10
599.59	999.97
599.94	997.20
600.29	994.59
600.64	991.58
600.99	988.38
601.34	985.40
601.69	981.50
602.04	978.57
602.39	975.28
602.74	972.42
603.08	969.77
603.43	967.33
603.78	964.26
604.13	960.90
604.48	957.84
604.83	955.12
605.18	952.10
605.53	948.65
605.87	944.82
606.22	941.50
606.57	937.87
606.92	934.67
607.27	931.41
607.62	928.36
607.96	925.27
608.31	922.18
608.66	918.75
609.01	915.59
609.36	911.90
609.70	908.44
610.05	904.69
610.40	901.13
610.75	896.96
611.10	893.04
611.44	888.87
611.79	884.97
612.14	880.87
612.49	876.61
612.83	872.72
613.18	868.96
613.53	865.23
613.88	861.40
614.22	857.62
614.57	853.69
614.92	849.43
615.27	845.72
615.61	842.06
615.96	838.27
616.31	834.48
616.65	831.45
617.00	827.93
617.35	824.24
617.70	820.18
618.04	816.24
618.39	812.56
618.74	809.20
619.08	805.55
619.43	802.02
619.78	798.71
620.12	795.28
620.47	791.88
620.82	787.78
621.16	784.30
621.51	780.77
621.85	777.06
622.20	773.48
622.55	769.93
622.89	766.43
623.24	763.23
623.59	759.92
623.93	756.42
624.28	752.95
624.62	749.71
624.97	746.73
625.32	743.71
625.66	740.58
626.01	737.33
626.35	734.10
626.70	730.70
627.04	727.50
627.39	724.17
627.73	720.92
628.08	717.87
628.43	714.43
628.77	711.10
629.12	707.90
629.46	704.75
629.81	701.06
630.15	697.57
630.50	694.01
630.84	690.56
631.19	686.80
631.53	683.39
631.88	679.70
632.22	675.95
632.57	672.66
632.91	669.09
633.26	665.76
633.60	662.21
633.95	659.15
634.29	656.03
634.64	653.20
634.98	649.96
635.32	647.00
635.67	644.20
636.01	641.33
636.36	638.29
636.70	635.50
637.05	632.90
637.39	630.03
637.73	627.15
638.08	624.73
638.42	622.02
638.77	619.32
639.11	616.61
639.45	613.87
639.80	610.96
640.14	608.26
640.49	605.32
640.83	602.52
641.17	599.73
641.52	596.86
641.86	593.89
642.20	591.53
642.55	588.82
642.89	586.04
643.23	583.05
643.58	580.42
643.92	577.30
644.26	574.45
644.61	572.11
644.95	569.52
645.29	566.20
645.64	563.38
645.98	560.64
646.32	558.16
646.66	555.53
647.01	552.89
647.35	550.32
647.69	547.82
648.04	545.46
648.38	542.67
648.72	539.85
649.06	537.10
649.41	534.24
649.75	531.48
650.09	528.95
650.43	526.34
650.78	523.66
651.12	521.23
651.46	518.73
651.80	516.13
652.14	513.67
652.49	511.27
652.83	508.76
653.17	506.26
653.51	503.63
653.85	501.33
654.20	498.82
654.54	496.30
654.88	493.60
655.22	491.04
655.56	488.63
655.90	486.41
656.25	484.10
656.59	481.55
656.93	479.42
657.27	477.02
657.61	474.79
657.95	472.64
658.29	470.50
658.64	468.24
658.98	465.67
659.32	463.14
659.66	461.00
660.00	458.89
660.34	456.53
660.68	454.16
661.02	451.69
661.36	449.52
661.70	447.41
662.05	445.68
662.39	443.74
662.73	441.61
663.07	439.64
663.41	437.75
663.75	435.86
664.09	433.79
664.43	431.90
664.77	430.10
665.11	428.08
665.45	426.00
665.79	424.04
666.13	422.29
666.47	420.60
666.81	418.75
667.15	416.85
667.49	415.16
667.83	413.62
668.17	412.02
668.51	410.30
668.85	408.58
669.19	406.79
669.53	404.93
669.87	403.38
670.21	401.67
670.55	399.90
670.89	398.60
671.23	397.03
671.57	395.55
671.91	393.86
672.25	392.46
672.58	390.93
672.92	389.34
673.26	387.70
673.60	386.23
673.94	384.77
674.28	383.49
674.62	382.07
674.96	380.60
675.30	379.40
675.64	378.02
675.97	376.70
676.31	375.30
676.65	374.15
676.99	372.93
677.33	371.50
677.67	370.29
678.01	368.81
678.34	367.38
678.68	366.04
679.02	364.80
679.36	363.52
679.70	362.18
680.04	360.87
680.37	359.69
680.71	358.29
681.05	357.15
681.39	355.84
681.73	354.79
682.06	353.75
682.40	352.50
682.74	351.44
683.08	350.35
683.42	349.16
683.75	347.89
684.09	346.60
684.43	345.49
684.77	344.16
685.10	343.05
685.44	342.04
685.78	340.86
686.12	339.79
686.45	338.48
686.79	337.43
687.13	336.40
687.46	335.26
687.80	334.30
688.14	333.09
688.48	332.08
688.81	330.89
689.15	329.70
689.49	328.46
689.82	327.45
690.16	326.27
690.50	325.40
690.83	324.36
691.17	323.35
691.51	322.41
691.84	321.50
692.18	320.50
692.52	319.36
692.85	318.42
693.19	317.34
693.52	316.33
693.86	315.43
694.20	314.56
694.53	313.88
694.87	312.82
695.21	311.91
695.54	310.95
695.88	310.10
696.21	309.23
696.55	308.38
696.88	307.39
697.22	306.58
697.56	305.68
697.89	304.88
698.23	303.99
698.56	303.17
698.90	302.43
699.23	301.53
699.57	300.75
699.90	299.96
700.24	299.18
700.58	298.57
700.91	297.78
701.25	297.16
701.58	296.37
701.92	295.71
702.25	295.01
702.59	294.35
702.92	293.63
703.26	292.95
703.59	292.37
703.93	291.90
704.26	291.29
704.60	290.46
704.93	289.74
705.26	289.20
705.60	288.57
705.93	287.93
706.27	287.37
706.60	286.89
706.94	286.34
707.27	285.76
707.61	285.21
707.94	284.60
708.27	283.89
708.61	283.10
708.94	282.60
709.28	282.10
709.61	281.50
709.94	280.90
710.28	280.41
710.61	279.89
710.95	279.14
711.28	278.70
711.61	278.27
711.95	277.76
712.28	277.04
712.61	276.37
712.95	275.89
713.28	275.42
713.61	274.78
713.95	274.27
714.28	273.81
714.61	273.19
714.95	272.70
715.28	272.20
715.61	271.78
715.95	271.30
716.28	270.73
716.61	270.24
716.95	269.80
717.28	269.30
717.61	268.84
717.94	268.42
718.28	267.79
718.61	267.34
718.94	266.91
719.27	266.59
719.61	266.33
719.94	265.89
720.27	265.38
720.60	265.10
720.94	264.63
721.27	264.21
721.60	264.04
721.93	263.63
722.27	263.35
722.60	263.09
722.93	262.60
723.26	262.31
723.59	262.00
723.93	261.67
724.26	261.35
724.59	260.95
724.92	260.65
725.25	260.36
725.59	259.97
725.92	259.65
726.25	259.31
726.58	259.00
726.91	258.64
727.24	258.56
727.57	258.21
727.91	257.97
728.24	257.73
728.57	257.23
728.90	256.96
729.23	256.72
729.56	256.54
729.89	256.41
730.22	256.12
730.55	255.91
730.89	255.66
731.22	255.30
731.55	255.11
731.88	254.85
732.21	254.66
732.54	254.40
732.87	254.25
733.20	254.01
733.53	253.83
733.86	253.65
734.19	253.14
734.52	252.92
734.85	252.71
735.18	252.43
735.51	252.38
735.84	252.22
736.17	251.94
736.50	251.57
736.83	251.43
737.16	251.20
737.49	250.87
737.82	250.70
738.15	250.60
738.48	250.32
738.81	250.07
739.14	249.72
739.47	249.56
739.80	249.29
740.13	249.16
740.46	248.80
740.79	248.57
741.12	248.49
741.45	248.31
741.78	248.04
742.11	247.83
742.44	247.52
742.77	247.27
743.10	247.03
743.43	246.76
743.75	246.46
744.08	246.49
744.41	246.34
744.74	246.10
745.07	245.80
745.40	245.65
745.73	245.56
746.06	245.47
746.39	245.20
746.71	244.96
747.04	244.68
747.37	244.40
747.70	244.21
748.03	244.00
748.36	243.81
748.68	243.65
749.01	243.48
749.34	243.22
749.67	243.12
750.00	243.02
750.33	243.01
750.65	242.87
750.98	242.38
751.31	242.20
751.64	242.03
751.97	241.95
752.29	241.74
752.62	241.45
752.95	241.29
753.28	241.18
753.60	241.10
753.93	240.99
754.26	240.91
754.59	240.76
754.91	240.67
755.24	240.52
755.57	240.33
755.90	240.22
756.22	240.18
756.55	239.95
756.88	239.74
757.20	239.53
757.53	239.32
757.86	239.26
758.19	239.24
758.51	239.12
758.84	238.88
759.17	238.80
759.49	238.80
759.82	238.80
760.15	238.63
760.47	238.51
760.80	238.44
761.13	238.47
761.45	238.34
761.78	238.15
762.11	238.05
762.43	237.96
762.76	237.94
763.08	237.87
763.41	237.90
763.74	237.84
764.06	237.73
764.39	237.65
764.71	237.56
765.04	237.26
765.37	237.12
765.69	237.11
766.02	237.07
766.34	236.99
766.67	236.76
767.00	236.76
767.32	236.66
767.65	236.74
767.97	236.65
768.30	236.59
768.62	236.53
768.95	236.44
769.27	236.41
769.60	236.24
769.92	236.02
770.25	235.86
770.57	235.76
770.90	235.69
771.22	235.68
771.55	235.65
771.87	235.73
772.20	235.71
772.52	235.88
772.85	236.06
773.17	235.99
773.50	235.90
773.82	235.83
774.15	235.83
774.47	235.67
774.80	235.47
775.12	235.41
775.45	235.44
775.77	235.35
776.09	235.32
776.42	235.24
776.74	235.33
777.07	235.31
777.39	235.35
777.72	235.32
778.04	235.26
778.36	235.19
778.69	235.17
779.01	235.17
779.33	234.88
779.66	234.56
779.98	234.49
780.31	234.53
780.63	234.53
780.95	234.40
781.28	234.30
781.60	234.32
781.92	234.29
782.25	234.11
782.57	234.10
782.89	233.97
783.22	233.85
783.54	233.77
783.86	233.76
784.19	233.62
784.51	233.66
784.83	233.55
785.16	233.45
785.48	233.35
785.80	233.32
786.12	233.36
786.45	233.24
786.77	233.21
787.09	233.14
787.42	233.01
787.74	233.06
788.06	233.02
788.38	232.97
788.71	232.92
789.03	232.95
789.35	232.93
789.67	232.83
789.99	232.86
790.32	232.89
