SpectraSuite Data File
++++++++++++++++++++++++++++++++++++
Date: Fri Feb 01 14:38:51 EST 2013
User: group
Dark Spectrum Present: No
Reference Spectrum Present: No
Number of Sampled Component Spectra: 1
Spectrometers: USB2E7196
Integration Time (usec): 70000 (USB2E7196)
Spectra Averaged: 10 (USB2E7196)
Boxcar Smoothing: 10 (USB2E7196)
Correct for Electrical Dark: No (USB2E7196)
Strobe/Lamp Enabled: No (USB2E7196)
Correct for Detector Non-linearity: No (USB2E7196)
Correct for Stray Light: No (USB2E7196)
Number of Pixels in Processed Spectrum: 2048
>>>>>Begin Processed Spectral Data<<<<<
339.09	0.00
339.48	218.10
339.86	218.70
340.24	220.20
340.63	220.70
341.01	223.60
341.39	224.80
341.78	226.30
342.16	225.40
342.54	228.30
342.93	215.20
343.31	226.06
343.69	226.53
344.07	226.92
344.46	227.35
344.84	227.70
345.22	227.94
345.60	228.10
345.99	228.24
346.37	228.43
346.75	228.44
347.13	228.39
347.52	228.36
347.90	228.41
348.28	228.50
348.66	228.51
349.05	228.40
349.43	228.51
349.81	228.59
350.19	228.55
350.57	228.55
350.96	228.47
351.34	228.56
351.72	228.64
352.10	228.71
352.48	228.69
352.87	228.75
353.25	228.74
353.63	228.81
354.01	228.75
354.39	228.85
354.77	228.82
355.15	228.85
355.54	228.98
355.92	228.92
356.30	229.03
356.68	229.11
357.06	229.25
357.44	229.14
357.82	229.13
358.20	229.21
358.58	229.23
358.97	229.35
359.35	229.25
359.73	229.23
360.11	229.30
360.49	229.25
360.87	229.30
361.25	229.38
361.63	229.40
362.01	229.40
362.39	229.25
362.77	229.27
363.15	229.18
363.53	229.06
363.91	228.96
364.29	228.79
364.67	228.59
365.05	228.53
365.43	228.60
365.81	228.56
366.19	228.65
366.57	228.79
366.95	228.71
367.33	228.76
367.71	228.76
368.09	228.77
368.47	228.75
368.85	228.63
369.23	228.68
369.61	228.57
369.99	228.71
370.37	228.68
370.75	228.80
371.13	228.86
371.51	228.81
371.89	228.97
372.27	228.97
372.65	229.02
373.03	228.91
373.41	228.94
373.78	228.98
374.16	228.83
374.54	228.70
374.92	228.65
375.30	228.57
375.68	228.47
376.06	228.42
376.44	228.41
376.82	228.38
377.19	228.22
377.57	228.20
377.95	228.01
378.33	227.96
378.71	227.66
379.09	227.66
379.47	227.61
379.84	227.42
380.22	227.30
380.60	227.30
380.98	227.32
381.36	227.30
381.73	227.16
382.11	227.08
382.49	227.00
382.87	226.96
383.25	226.88
383.62	227.14
384.00	227.05
384.38	227.04
384.76	227.15
385.13	227.11
385.51	227.12
385.89	227.07
386.27	227.03
386.64	227.17
387.02	227.12
387.40	227.16
387.78	227.29
388.15	227.29
388.53	227.24
388.91	227.26
389.29	227.18
389.66	227.22
390.04	227.30
390.42	227.38
390.79	227.43
391.17	227.55
391.55	227.34
391.92	227.30
392.30	227.30
392.68	227.21
393.05	227.27
393.43	227.27
393.81	227.32
394.18	227.42
394.56	227.39
394.94	227.36
395.31	227.47
395.69	227.43
396.06	227.55
396.44	227.58
396.82	227.58
397.19	227.76
397.57	227.86
397.95	227.95
398.32	227.86
398.70	227.91
399.07	227.94
399.45	227.90
399.82	228.00
400.20	228.06
400.58	228.12
400.95	228.20
401.33	228.26
401.70	228.45
402.08	228.43
402.45	228.61
402.83	228.77
403.20	228.85
403.58	229.01
403.95	229.18
404.33	229.36
404.71	229.49
405.08	229.65
405.46	229.85
405.83	229.92
406.21	230.16
406.58	230.27
406.96	230.47
407.33	230.71
407.70	230.88
408.08	231.24
408.45	231.44
408.83	231.67
409.20	231.92
409.58	232.00
409.95	232.39
410.33	232.56
410.70	232.79
411.08	233.00
411.45	233.26
411.82	233.55
412.20	233.94
412.57	234.39
412.95	234.65
413.32	235.00
413.69	235.46
414.07	235.91
414.44	236.44
414.82	236.93
415.19	237.50
415.56	238.09
415.94	238.66
416.31	239.41
416.68	240.03
417.06	240.70
417.43	241.51
417.81	242.30
418.18	243.27
418.55	244.25
418.93	245.29
419.30	246.24
419.67	247.24
420.04	248.35
420.42	249.38
420.79	250.83
421.16	252.29
421.54	253.70
421.91	255.11
422.28	256.61
422.66	258.14
423.03	259.76
423.40	261.35
423.77	262.95
424.15	264.61
424.52	266.47
424.89	268.49
425.26	270.39
425.64	272.18
426.01	274.10
426.38	276.13
426.75	278.10
427.13	280.32
427.50	282.49
427.87	284.75
428.24	287.08
428.61	288.98
428.99	291.27
429.36	293.79
429.73	296.32
430.10	298.80
430.47	301.50
430.85	304.07
431.22	306.98
431.59	310.01
431.96	312.87
432.33	316.00
432.70	319.05
433.08	322.69
433.45	326.05
433.82	329.30
434.19	333.13
434.56	336.92
434.93	340.24
435.30	343.75
435.68	347.36
436.05	351.10
436.42	354.87
436.79	358.13
437.16	361.62
437.53	365.40
437.90	369.17
438.27	372.72
438.64	376.60
439.01	380.13
439.38	383.20
439.75	386.24
440.13	389.63
440.50	392.83
440.87	395.39
441.24	398.02
441.61	400.99
441.98	403.00
442.35	405.50
442.72	408.16
443.09	410.85
443.46	412.58
443.83	413.68
444.20	414.72
444.57	416.14
444.94	416.92
445.31	417.70
445.68	418.59
446.05	419.02
446.42	418.81
446.79	418.49
447.16	418.19
447.53	418.20
447.90	417.12
448.27	415.93
448.64	414.24
449.01	413.27
449.37	411.10
449.74	408.92
450.11	406.35
450.48	403.45
450.85	400.27
451.22	397.62
451.59	395.23
451.96	392.94
452.33	389.66
452.70	386.80
453.07	383.23
453.43	379.67
453.80	376.22
454.17	372.80
454.54	369.59
454.91	366.20
455.28	362.56
455.65	359.31
456.02	356.40
456.38	353.50
456.75	350.19
457.12	347.46
457.49	344.72
457.86	341.83
458.23	339.61
458.59	337.12
458.96	334.40
459.33	332.08
459.70	329.66
460.07	327.87
460.43	325.67
460.80	323.59
461.17	321.69
461.54	319.69
461.91	317.78
462.27	315.88
462.64	314.21
463.01	312.53
463.38	310.97
463.74	309.04
464.11	307.58
464.48	305.98
464.85	304.39
465.21	303.15
465.58	302.10
465.95	300.59
466.32	299.31
466.68	298.06
467.05	296.82
467.42	295.46
467.78	294.13
468.15	292.80
468.52	291.97
468.88	290.61
469.25	289.56
469.62	288.75
469.98	287.84
470.35	286.97
470.72	286.04
471.08	285.01
471.45	284.19
471.82	283.40
472.18	282.56
472.55	281.84
472.92	281.08
473.28	280.26
473.65	279.39
474.02	278.65
474.38	278.08
474.75	277.54
475.11	276.99
475.48	276.45
475.85	276.03
476.21	275.37
476.58	274.97
476.94	274.55
477.31	274.12
477.67	273.65
478.04	273.29
478.41	273.02
478.77	272.84
479.14	272.43
479.50	272.07
479.87	271.84
480.23	271.62
480.60	271.30
480.96	270.97
481.33	270.95
481.69	270.78
482.06	270.68
482.42	270.28
482.79	270.16
483.15	270.07
483.52	270.03
483.88	270.02
484.25	270.01
484.61	269.95
484.98	269.82
485.34	269.85
485.71	269.85
486.07	269.79
486.44	269.67
486.80	269.70
487.17	269.76
487.53	269.78
487.90	270.00
488.26	270.18
488.62	270.44
488.99	270.45
489.35	270.59
489.72	270.71
490.08	270.99
490.44	271.12
490.81	271.40
491.17	271.60
491.54	271.85
491.90	271.97
492.26	272.20
492.63	272.46
492.99	272.64
493.36	272.86
493.72	273.20
494.08	273.37
494.45	273.60
494.81	273.92
495.17	274.20
495.54	274.36
495.90	274.68
496.26	274.91
496.63	275.33
496.99	275.64
497.35	276.06
497.72	276.42
498.08	276.73
498.44	277.01
498.80	277.32
499.17	277.71
499.53	278.10
499.89	278.47
500.26	278.84
500.62	279.27
500.98	279.66
501.34	279.92
501.71	280.46
502.07	280.94
502.43	281.36
502.79	281.80
503.16	282.29
503.52	282.75
503.88	283.12
504.24	283.51
504.60	284.09
504.97	284.49
505.33	284.96
505.69	285.60
506.05	286.21
506.41	286.78
506.78	287.22
507.14	287.70
507.50	288.44
507.86	289.12
508.22	289.81
508.59	290.48
508.95	291.26
509.31	292.05
509.67	292.89
510.03	293.74
510.39	294.61
510.75	295.49
511.12	296.29
511.48	297.26
511.84	298.34
512.20	299.28
512.56	300.44
512.92	301.60
513.28	302.86
513.64	304.09
514.00	305.46
514.37	306.96
514.73	308.52
515.09	309.94
515.45	311.50
515.81	313.23
516.17	314.99
516.53	316.86
516.89	318.62
517.25	320.51
517.61	322.53
517.97	324.64
518.33	326.78
518.69	329.17
519.05	331.55
519.41	334.11
519.77	336.77
520.13	339.37
520.49	342.11
520.85	344.72
521.21	347.51
521.57	350.45
521.93	353.34
522.29	356.55
522.65	359.70
523.01	362.99
523.37	366.22
523.73	369.50
524.09	372.92
524.45	376.60
524.81	380.28
525.17	384.20
525.53	387.98
525.89	392.01
526.25	396.06
526.61	400.06
526.97	404.04
527.33	408.30
527.68	412.72
528.04	417.05
528.40	421.67
528.76	426.36
529.12	431.23
529.48	436.15
529.84	440.84
530.20	445.86
530.56	451.11
530.91	456.37
531.27	461.67
531.63	466.91
531.99	472.13
532.35	477.51
532.71	482.75
533.07	488.61
533.42	494.43
533.78	500.06
534.14	505.81
534.50	511.51
534.86	517.50
535.21	523.36
535.57	529.37
535.93	535.46
536.29	541.63
536.65	547.67
537.00	553.72
537.36	560.06
537.72	566.07
538.08	572.18
538.44	578.45
538.79	584.87
539.15	591.28
539.51	597.78
539.87	604.40
540.22	610.91
540.58	617.35
540.94	623.36
541.29	630.00
541.65	636.72
542.01	643.55
542.37	650.23
542.72	656.83
543.08	663.51
543.44	669.81
543.79	676.17
544.15	682.93
544.51	689.82
544.87	696.53
545.22	703.57
545.58	710.05
545.94	716.48
546.29	723.00
546.65	729.53
547.01	736.00
547.36	742.22
547.72	748.57
548.07	754.96
548.43	761.42
548.79	767.78
549.14	773.96
549.50	779.96
549.86	785.75
550.21	791.72
550.57	797.94
550.92	804.31
551.28	810.64
551.64	816.41
551.99	822.30
552.35	828.02
552.70	833.74
553.06	839.94
553.41	845.80
553.77	851.75
554.13	857.57
554.48	863.22
554.84	868.91
555.19	874.86
555.55	880.65
555.90	886.37
556.26	891.46
556.61	897.05
556.97	902.50
557.32	907.92
557.68	913.51
558.03	918.94
558.39	924.30
558.74	929.54
559.10	935.03
559.45	940.23
559.81	945.69
560.16	950.77
560.52	955.70
560.87	960.69
561.23	965.60
561.58	970.65
561.94	975.67
562.29	980.52
562.64	985.16
563.00	989.60
563.35	994.50
563.71	999.78
564.06	1004.48
564.42	1009.14
564.77	1013.80
565.12	1018.18
565.48	1022.52
565.83	1026.55
566.19	1030.82
566.54	1034.69
566.89	1038.54
567.25	1042.51
567.60	1046.64
567.96	1050.70
568.31	1054.43
568.66	1058.08
569.02	1061.67
569.37	1065.03
569.72	1068.33
570.08	1071.47
570.43	1074.69
570.78	1077.59
571.14	1080.05
571.49	1082.79
571.84	1086.01
572.20	1088.74
572.55	1091.39
572.90	1093.53
573.26	1096.02
573.61	1098.23
573.96	1100.18
574.31	1102.11
574.67	1103.79
575.02	1104.96
575.37	1106.37
575.72	1107.90
576.08	1109.58
576.43	1110.92
576.78	1112.32
577.13	1114.05
577.49	1115.42
577.84	1116.83
578.19	1117.79
578.54	1118.66
578.90	1119.43
579.25	1119.41
579.60	1119.72
579.95	1120.00
580.30	1120.52
580.66	1120.66
581.01	1120.81
581.36	1121.18
581.71	1121.81
582.06	1122.06
582.42	1122.34
582.77	1122.36
583.12	1122.43
583.47	1122.30
583.82	1122.37
584.17	1122.12
584.53	1121.80
584.88	1121.37
585.23	1120.82
585.58	1120.53
585.93	1120.18
586.28	1119.82
586.63	1120.04
586.98	1119.90
587.34	1119.87
587.69	1119.54
588.04	1119.38
588.39	1118.78
588.74	1117.67
589.09	1116.52
589.44	1115.54
589.79	1114.85
590.14	1113.89
590.49	1112.94
590.84	1111.48
591.19	1110.21
591.54	1108.71
591.89	1106.80
592.25	1105.96
592.60	1103.98
592.95	1102.12
593.30	1100.40
593.65	1098.49
594.00	1096.34
594.35	1095.17
594.70	1092.64
595.05	1090.72
595.40	1088.60
595.75	1086.44
596.10	1084.95
596.45	1083.17
596.80	1081.46
597.15	1079.52
597.50	1077.20
597.85	1075.20
598.19	1073.65
598.54	1071.68
598.89	1069.90
599.24	1068.66
599.59	1066.37
599.94	1064.83
600.29	1062.90
600.64	1061.02
600.99	1058.65
601.34	1056.80
601.69	1053.90
602.04	1052.24
602.39	1049.93
602.74	1047.90
603.08	1045.69
603.43	1043.88
603.78	1041.46
604.13	1038.88
604.48	1036.55
604.83	1034.61
605.18	1032.54
605.53	1029.58
605.87	1026.95
606.22	1024.60
606.57	1021.53
606.92	1018.65
607.27	1015.96
607.62	1013.74
607.96	1011.04
608.31	1008.91
608.66	1005.85
609.01	1002.96
609.36	999.43
609.70	996.07
610.05	992.78
610.40	990.08
610.75	986.48
611.10	983.31
611.44	979.68
611.79	976.22
612.14	972.69
612.49	968.74
612.83	965.66
613.18	962.01
613.53	958.57
613.88	955.01
614.22	951.81
614.57	948.28
614.92	944.31
615.27	940.93
615.61	937.09
615.96	933.39
616.31	930.09
616.65	927.35
617.00	924.17
617.35	920.81
617.70	916.95
618.04	913.49
618.39	910.06
618.74	906.87
619.08	903.47
619.43	900.04
619.78	896.78
620.12	893.34
620.47	890.05
620.82	886.26
621.16	883.02
621.51	879.60
621.85	876.20
622.20	872.70
622.55	869.21
622.89	866.00
623.24	863.20
623.59	859.88
623.93	856.46
624.28	853.18
624.62	849.80
624.97	846.95
625.32	843.78
625.66	840.59
626.01	837.42
626.35	834.20
626.70	830.79
627.04	827.58
627.39	824.05
627.73	820.55
628.08	817.42
628.43	813.90
628.77	810.21
629.12	806.52
629.46	803.26
629.81	799.39
630.15	795.69
630.50	791.78
630.84	787.75
631.19	783.81
631.53	780.14
631.88	776.24
632.22	772.02
632.57	768.37
632.91	764.60
633.26	760.75
633.60	756.90
633.95	753.56
634.29	749.61
634.64	746.17
634.98	742.60
635.32	739.01
635.67	735.69
636.01	732.45
636.36	729.08
636.70	725.67
637.05	722.73
637.39	719.60
637.73	716.25
638.08	713.26
638.42	710.19
638.77	706.82
639.11	703.79
639.45	700.75
639.80	697.30
640.14	694.13
640.49	691.07
640.83	688.01
641.17	684.66
641.52	681.78
641.86	678.52
642.20	675.40
642.55	672.05
642.89	668.72
643.23	665.38
643.58	662.64
643.92	659.43
644.26	656.03
644.61	652.87
644.95	649.86
645.29	646.40
645.64	643.00
645.98	639.97
646.32	637.03
646.66	633.75
647.01	630.40
647.35	627.14
647.69	624.24
648.04	621.15
648.38	618.02
648.72	614.50
649.06	611.13
649.41	607.96
649.75	604.65
650.09	601.48
650.43	598.20
650.78	594.49
651.12	591.34
651.46	588.30
651.80	585.05
652.14	582.00
652.49	579.13
652.83	576.22
653.17	572.98
653.51	569.59
653.85	566.50
654.20	563.75
654.54	560.52
654.88	557.20
655.22	553.98
655.56	550.79
655.90	548.06
656.25	545.29
656.59	542.47
656.93	539.84
657.27	536.98
657.61	534.18
657.95	531.54
658.29	528.69
658.64	525.84
658.98	522.98
659.32	519.85
659.66	517.00
660.00	514.02
660.34	511.52
660.68	508.82
661.02	506.16
661.36	503.39
661.70	500.94
662.05	498.46
662.39	496.12
662.73	493.86
663.07	491.56
663.41	489.11
663.75	486.51
664.09	484.16
664.43	481.82
664.77	479.45
665.11	477.21
665.45	474.86
665.79	472.58
666.13	470.39
666.47	468.22
666.81	465.97
667.15	463.85
667.49	461.55
667.83	459.54
668.17	457.35
668.51	455.13
668.85	452.89
669.19	450.74
669.53	448.43
669.87	446.22
670.21	443.91
670.55	441.88
670.89	440.05
671.23	438.10
671.57	436.01
671.91	434.17
672.25	432.10
672.58	430.19
672.92	428.36
673.26	426.56
673.60	424.71
673.94	422.84
674.28	421.06
674.62	419.41
674.96	417.35
675.30	415.66
675.64	414.07
675.97	412.40
676.31	410.77
676.65	409.12
676.99	407.36
677.33	405.66
677.67	403.85
678.01	402.09
678.34	400.39
678.68	398.78
679.02	397.07
679.36	395.42
679.70	393.89
680.04	392.25
680.37	390.50
680.71	388.89
681.05	387.43
681.39	385.93
681.73	384.32
682.06	382.90
682.40	381.51
682.74	379.96
683.08	378.69
683.42	377.12
683.75	375.71
684.09	374.22
684.43	372.89
684.77	371.45
685.10	370.03
685.44	368.51
685.78	367.04
686.12	365.53
686.45	364.03
686.79	362.35
687.13	360.95
687.46	359.59
687.80	358.22
688.14	356.80
688.48	355.43
688.81	353.95
689.15	352.77
689.49	351.38
689.82	350.10
690.16	348.61
690.50	347.40
690.83	346.15
691.17	344.72
691.51	343.24
691.84	342.05
692.18	340.80
692.52	339.36
692.85	338.21
693.19	337.12
693.52	335.90
693.86	334.84
694.20	333.67
694.53	332.52
694.87	331.15
695.21	329.94
695.54	328.63
695.88	327.26
696.21	326.02
696.55	324.80
696.88	323.62
697.22	322.44
697.56	321.34
697.89	319.99
698.23	319.13
698.56	318.04
698.90	317.03
699.23	315.85
699.57	314.96
699.90	313.79
700.24	312.66
700.58	311.71
700.91	310.80
701.25	309.80
701.58	308.96
701.92	308.20
702.25	307.44
702.59	306.66
702.92	306.04
703.26	305.22
703.59	304.42
703.93	303.82
704.26	303.03
704.60	302.13
704.93	301.51
705.26	300.71
705.60	300.13
705.93	299.28
706.27	298.59
706.60	298.05
706.94	297.47
707.27	296.81
707.61	296.12
707.94	295.36
708.27	294.60
708.61	293.76
708.94	292.99
709.28	292.22
709.61	291.65
709.94	291.09
710.28	290.41
710.61	289.71
710.95	288.81
711.28	288.32
711.61	287.70
711.95	287.02
712.28	286.28
712.61	285.61
712.95	285.02
713.28	284.60
713.61	283.83
713.95	283.22
714.28	282.55
714.61	282.00
714.95	281.60
715.28	281.14
715.61	280.49
715.95	279.98
716.28	279.41
716.61	278.74
716.95	278.16
717.28	277.68
717.61	277.30
717.94	276.86
718.28	276.14
718.61	275.67
718.94	275.14
719.27	274.76
719.61	274.30
719.94	273.89
720.27	273.16
720.60	272.70
720.94	272.30
721.27	271.92
721.60	271.41
721.93	270.88
722.27	270.32
722.60	269.97
722.93	269.59
723.26	269.22
723.59	268.77
723.93	268.40
724.26	267.79
724.59	267.23
724.92	266.86
725.25	266.53
725.59	266.09
725.92	265.77
726.25	265.44
726.58	265.05
726.91	264.62
727.24	264.35
727.57	263.91
727.91	263.36
728.24	262.95
728.57	262.53
728.90	262.16
729.23	261.83
729.56	261.47
729.89	261.15
730.22	260.70
730.55	260.40
730.89	259.90
731.22	259.61
731.55	259.32
731.88	259.00
732.21	258.65
732.54	258.19
732.87	257.94
733.20	257.46
733.53	257.11
733.86	256.80
734.19	256.47
734.52	256.26
734.85	256.09
735.18	255.74
735.51	255.54
735.84	255.07
736.17	254.85
736.50	254.64
736.83	254.63
737.16	254.30
737.49	253.99
737.82	253.70
738.15	253.50
738.48	253.28
738.81	252.91
739.14	252.72
739.47	252.56
739.80	252.16
740.13	251.97
740.46	251.68
740.79	251.42
741.12	251.19
741.45	250.96
741.78	250.66
742.11	250.49
742.44	250.11
742.77	250.03
743.10	249.72
743.43	249.40
743.75	248.84
744.08	248.87
744.41	248.69
744.74	248.55
745.07	248.30
745.40	248.14
745.73	248.06
746.06	247.78
746.39	247.61
746.71	247.39
747.04	247.20
747.37	246.98
747.70	246.73
748.03	246.47
748.36	246.27
748.68	246.04
749.01	245.84
749.34	245.70
749.67	245.45
750.00	245.35
750.33	245.34
750.65	245.30
750.98	244.93
751.31	244.68
751.64	244.58
751.97	244.56
752.29	244.28
752.62	243.90
752.95	243.74
753.28	243.58
753.60	243.50
753.93	243.36
754.26	243.27
754.59	243.11
754.91	242.94
755.24	242.70
755.57	242.53
755.90	242.44
756.22	242.32
756.55	242.22
756.88	242.04
757.20	241.78
757.53	241.47
757.86	241.28
758.19	241.27
758.51	240.99
758.84	240.70
759.17	240.52
759.49	240.47
759.82	240.36
760.15	240.21
760.47	240.01
760.80	239.86
761.13	239.80
761.45	239.64
761.78	239.57
762.11	239.49
762.43	239.37
762.76	239.16
763.08	238.98
763.41	238.80
763.74	238.66
764.06	238.55
764.39	238.46
764.71	238.37
765.04	238.15
765.37	238.11
765.69	238.06
766.02	237.97
766.34	237.86
766.67	237.70
767.00	237.65
767.32	237.61
767.65	237.62
767.97	237.41
768.30	237.45
768.62	237.35
768.95	237.23
769.27	237.19
769.60	237.07
769.92	236.96
770.25	236.82
770.57	236.74
770.90	236.49
771.22	236.40
771.55	236.32
771.87	236.25
772.20	236.18
772.52	236.17
772.85	236.28
773.17	236.20
773.50	236.14
773.82	235.96
774.15	235.88
774.47	235.65
774.80	235.58
775.12	235.33
775.45	235.22
775.77	235.19
776.09	235.09
776.42	235.00
776.74	235.00
777.07	235.00
777.39	234.93
777.72	234.98
778.04	234.87
778.36	234.76
778.69	234.67
779.01	234.58
779.33	234.37
779.66	234.16
779.98	233.99
780.31	233.86
780.63	233.90
780.95	233.79
781.28	233.74
781.60	233.72
781.92	233.76
782.25	233.62
782.57	233.58
782.89	233.54
783.22	233.61
783.54	233.51
783.86	233.41
784.19	233.34
784.51	233.33
784.83	233.38
785.16	233.44
785.48	233.44
785.80	233.30
786.12	233.27
786.45	233.23
786.77	233.17
787.09	233.21
787.42	233.05
787.74	233.03
788.06	232.99
788.38	232.82
788.71	232.75
789.03	232.80
789.35	232.65
789.67	232.56
789.99	232.54
790.32	232.56
790.64	232.56
790.96	232.64
791.28	232.61
791.61	232.49
