SpectraSuite Data File
++++++++++++++++++++++++++++++++++++
Date: Fri Feb 01 14:35:36 EST 2013
User: group
Dark Spectrum Present: No
Reference Spectrum Present: No
Number of Sampled Component Spectra: 1
Spectrometers: USB2E7196
Integration Time (usec): 70000 (USB2E7196)
Spectra Averaged: 10 (USB2E7196)
Boxcar Smoothing: 10 (USB2E7196)
Correct for Electrical Dark: No (USB2E7196)
Strobe/Lamp Enabled: No (USB2E7196)
Correct for Detector Non-linearity: No (USB2E7196)
Correct for Stray Light: No (USB2E7196)
Number of Pixels in Processed Spectrum: 2048
>>>>>Begin Processed Spectral Data<<<<<
339.09	0.00
339.48	217.60
339.86	219.00
340.24	217.90
340.63	220.30
341.01	224.40
341.39	222.70
341.78	227.10
342.16	226.00
342.54	226.70
342.93	215.33
343.31	226.24
343.69	226.66
344.07	227.13
344.46	227.58
344.84	227.90
345.22	228.11
345.60	228.44
345.99	228.49
346.37	228.63
346.75	228.70
347.13	228.76
347.52	228.75
347.90	228.75
348.28	228.73
348.66	228.73
349.05	228.69
349.43	228.70
349.81	228.84
350.19	228.77
350.57	228.80
350.96	228.73
351.34	228.73
351.72	228.77
352.10	228.78
352.48	228.83
352.87	228.92
353.25	228.96
353.63	228.92
354.01	228.92
354.39	228.95
354.77	229.03
355.15	229.08
355.54	229.20
355.92	229.26
356.30	229.37
356.68	229.51
357.06	229.60
357.44	229.74
357.82	229.76
358.20	229.93
358.58	229.88
358.97	230.10
359.35	230.18
359.73	230.31
360.11	230.40
360.49	230.51
360.87	230.60
361.25	230.57
361.63	230.69
362.01	230.82
362.39	230.85
362.77	230.86
363.15	230.88
363.53	230.89
363.91	230.87
364.29	230.83
364.67	230.56
365.05	230.39
365.43	230.35
365.81	230.26
366.19	230.13
366.57	230.21
366.95	230.08
367.33	229.97
367.71	229.97
368.09	229.95
368.47	229.86
368.85	229.73
369.23	229.86
369.61	229.69
369.99	229.62
370.37	229.53
370.75	229.50
371.13	229.38
371.51	229.28
371.89	229.24
372.27	229.20
372.65	229.12
373.03	229.11
373.41	229.00
373.78	228.95
374.16	228.85
374.54	228.71
374.92	228.57
375.30	228.48
375.68	228.29
376.06	228.09
376.44	228.01
376.82	227.95
377.19	227.83
377.57	227.85
377.95	227.73
378.33	227.64
378.71	227.40
379.09	227.36
379.47	227.29
379.84	227.16
380.22	227.12
380.60	227.02
380.98	227.06
381.36	226.98
381.73	226.91
382.11	226.92
382.49	226.80
382.87	226.68
383.25	226.59
383.62	226.87
384.00	226.89
384.38	226.84
384.76	226.88
385.13	226.82
385.51	226.74
385.89	226.71
386.27	226.72
386.64	226.87
387.02	226.81
387.40	226.77
387.78	226.87
388.15	226.82
388.53	226.80
388.91	226.64
389.29	226.68
389.66	226.55
390.04	226.47
390.42	226.57
390.79	226.60
391.17	226.67
391.55	226.41
391.92	226.46
392.30	226.48
392.68	226.47
393.05	226.57
393.43	226.59
393.81	226.55
394.18	226.61
394.56	226.63
394.94	226.76
395.31	226.87
395.69	226.86
396.06	226.99
396.44	227.20
396.82	227.35
397.19	227.59
397.57	227.76
397.95	227.93
398.32	228.01
398.70	228.24
399.07	228.46
399.45	228.55
399.82	228.66
400.20	228.83
400.58	228.92
400.95	228.91
401.33	229.10
401.70	229.45
402.08	229.71
402.45	229.88
402.83	230.10
403.20	230.28
403.58	230.51
403.95	230.76
404.33	230.94
404.71	231.22
405.08	231.48
405.46	231.78
405.83	232.12
406.21	232.39
406.58	232.72
406.96	233.00
407.33	233.40
407.70	233.79
408.08	234.31
408.45	234.82
408.83	235.36
409.20	235.83
409.58	236.20
409.95	236.68
410.33	237.22
410.70	237.72
411.08	238.40
411.45	238.98
411.82	239.58
412.20	240.42
412.57	241.26
412.95	242.04
413.32	242.97
413.69	243.78
414.07	244.96
414.44	246.05
414.82	247.23
415.19	248.56
415.56	249.96
415.94	251.30
416.31	252.80
416.68	254.37
417.06	256.20
417.43	257.93
417.81	259.82
418.18	261.76
418.55	263.93
418.93	266.03
419.30	268.34
419.67	270.64
420.04	273.05
420.42	275.62
420.79	278.62
421.16	281.60
421.54	284.76
421.91	287.74
422.28	291.11
422.66	294.62
423.03	297.96
423.40	301.40
423.77	305.11
424.15	308.89
424.52	312.83
424.89	317.00
425.26	321.20
425.64	325.08
426.01	329.56
426.38	333.99
426.75	338.60
427.13	343.27
427.50	348.38
427.87	353.60
428.24	358.70
428.61	363.48
428.99	368.95
429.36	374.91
429.73	380.82
430.10	386.43
430.47	392.31
430.85	398.55
431.22	405.04
431.59	411.85
431.96	418.31
432.33	425.55
432.70	432.43
433.08	440.59
433.45	448.50
433.82	456.24
434.19	464.88
434.56	473.17
434.93	481.31
435.30	489.26
435.68	498.10
436.05	507.07
436.42	515.70
436.79	523.56
437.16	532.00
437.53	541.00
437.90	550.09
438.27	558.82
438.64	567.75
439.01	576.20
439.38	583.71
439.75	591.09
440.13	599.32
440.50	607.33
440.87	613.98
441.24	620.80
441.61	628.17
441.98	633.72
442.35	640.41
442.72	647.02
443.09	653.61
443.46	657.87
443.83	660.66
444.20	663.33
444.57	667.28
444.94	669.53
445.31	671.71
445.68	673.66
446.05	675.10
446.42	675.15
446.79	674.97
447.16	674.93
447.53	675.24
447.90	673.08
448.27	670.72
448.64	666.99
449.01	664.34
449.37	659.37
449.74	654.74
450.11	648.81
450.48	642.38
450.85	635.65
451.22	630.05
451.59	624.81
451.96	619.87
452.33	612.69
452.70	606.26
453.07	598.49
453.43	590.69
453.80	583.18
454.17	575.63
454.54	568.47
454.91	560.62
455.28	553.03
455.65	546.10
456.02	538.93
456.38	532.93
456.75	525.50
457.12	519.20
457.49	512.66
457.86	506.46
458.23	501.07
458.59	495.05
458.96	488.94
459.33	483.55
459.70	478.13
460.07	473.60
460.43	468.62
460.80	463.62
461.17	459.28
461.54	454.69
461.91	450.51
462.27	446.27
462.64	442.77
463.01	438.62
463.38	434.59
463.74	430.64
464.11	427.24
464.48	424.20
464.85	420.90
465.21	418.29
465.58	415.61
465.95	412.38
466.32	409.63
466.68	406.77
467.05	404.04
467.42	401.40
467.78	398.61
468.15	395.80
468.52	393.78
468.88	391.17
469.25	388.73
469.62	386.85
469.98	384.82
470.35	382.76
470.72	380.88
471.08	378.90
471.45	377.38
471.82	375.35
472.18	373.38
472.55	371.81
472.92	370.11
473.28	368.68
473.65	367.11
474.02	365.73
474.38	364.40
474.75	363.33
475.11	361.99
475.48	360.92
475.85	360.03
476.21	359.16
476.58	358.36
476.94	357.69
477.31	357.00
477.67	356.35
478.04	355.59
478.41	355.09
478.77	354.59
479.14	353.89
479.50	353.63
479.87	353.31
480.23	353.20
480.60	352.99
480.96	352.60
481.33	352.69
481.69	352.79
482.06	352.74
482.42	352.49
482.79	352.68
483.15	353.04
483.52	353.40
483.88	353.71
484.25	354.03
484.61	354.35
484.98	354.69
485.34	355.37
485.71	356.10
486.07	356.71
486.44	357.36
486.80	358.20
487.17	358.92
487.53	360.01
487.90	360.92
488.26	361.99
488.62	363.27
488.99	364.38
489.35	365.35
489.72	366.82
490.08	368.40
490.44	369.59
490.81	370.90
491.17	372.38
491.54	373.85
491.90	375.48
492.26	377.18
492.63	378.98
492.99	380.74
493.36	382.45
493.72	384.60
494.08	386.62
494.45	388.75
494.81	390.96
495.17	392.90
495.54	395.08
495.90	397.33
496.26	399.60
496.63	401.90
496.99	404.37
497.35	406.80
497.72	409.02
498.08	411.63
498.44	414.12
498.80	416.78
499.17	419.37
499.53	421.84
499.89	424.43
500.26	426.90
500.62	429.22
500.98	431.98
501.34	434.42
501.71	437.03
502.07	439.62
502.43	442.02
502.79	444.47
503.16	447.02
503.52	449.38
503.88	451.73
504.24	454.16
504.60	456.58
504.97	459.11
505.33	461.67
505.69	464.21
506.05	466.50
506.41	468.56
506.78	470.96
507.14	473.16
507.50	475.32
507.86	477.50
508.22	479.80
508.59	481.68
508.95	483.59
509.31	485.55
509.67	487.38
510.03	489.24
510.39	491.17
510.75	492.92
511.12	494.74
511.48	496.39
511.84	498.05
512.20	499.70
512.56	501.09
512.92	502.51
513.28	503.90
513.64	505.32
514.00	506.56
514.37	507.68
514.73	508.99
515.09	510.10
515.45	511.14
515.81	512.11
516.17	513.32
516.53	514.53
516.89	515.44
517.25	516.25
517.61	517.31
517.97	518.28
518.33	519.00
518.69	519.75
519.05	520.63
519.41	521.34
519.77	522.21
520.13	523.19
520.49	523.76
520.85	524.28
521.21	525.06
521.57	526.02
521.93	526.63
522.29	527.51
522.65	528.32
523.01	529.07
523.37	529.66
523.73	530.27
524.09	530.80
524.45	531.51
524.81	532.50
525.17	533.48
525.53	534.29
525.89	535.15
526.25	536.07
526.61	536.89
526.97	537.90
527.33	538.79
527.68	539.77
528.04	541.03
528.40	542.23
528.76	543.30
529.12	544.64
529.48	546.26
529.84	547.36
530.20	548.72
530.56	550.44
530.91	552.06
531.27	553.80
531.63	555.31
531.99	557.12
532.35	558.48
532.71	560.02
533.07	561.91
533.42	564.12
533.78	566.22
534.14	568.25
534.50	570.17
534.86	572.39
535.21	574.42
535.57	576.76
535.93	579.04
536.29	581.45
536.65	583.70
537.00	585.86
537.36	588.36
537.72	590.93
538.08	593.10
538.44	595.77
538.79	598.46
539.15	601.16
539.51	603.90
539.87	607.04
540.22	609.92
540.58	612.80
540.94	615.37
541.29	618.19
541.65	621.07
542.01	624.33
542.37	627.27
542.72	630.17
543.08	633.27
543.44	636.45
543.79	639.24
544.15	642.38
544.51	645.82
544.87	649.01
545.22	652.15
545.58	655.40
545.94	658.44
546.29	661.60
546.65	664.98
547.01	668.22
547.36	671.19
547.72	674.63
548.07	678.00
548.43	681.54
548.79	684.86
549.14	688.23
549.50	691.50
549.86	694.81
550.21	698.16
550.57	701.53
550.92	704.99
551.28	708.60
551.64	711.84
551.99	715.40
552.35	718.82
552.70	722.37
553.06	726.12
553.41	729.94
553.77	733.52
554.13	737.12
554.48	740.70
554.84	744.70
555.19	747.93
555.55	751.37
555.90	754.95
556.26	758.60
556.61	762.12
556.97	765.61
557.32	769.23
557.68	772.57
558.03	775.70
558.39	778.81
558.74	782.50
559.10	786.19
559.45	789.24
559.81	792.88
560.16	796.17
560.52	799.41
560.87	802.79
561.23	805.77
561.58	808.92
561.94	812.24
562.29	815.10
562.64	818.45
563.00	821.59
563.35	824.63
563.71	827.76
564.06	830.92
564.42	834.01
564.77	836.98
565.12	840.39
565.48	843.79
565.83	846.89
566.19	849.96
566.54	852.76
566.89	855.72
567.25	858.77
567.60	861.79
567.96	864.54
568.31	867.09
568.66	870.13
569.02	872.82
569.37	874.96
569.72	877.47
570.08	879.80
570.43	882.11
570.78	884.27
571.14	886.55
571.49	888.62
571.84	890.88
572.20	892.79
572.55	894.60
572.90	896.13
573.26	898.21
573.61	899.77
573.96	901.24
574.31	902.75
574.67	903.78
575.02	904.81
575.37	906.03
575.72	906.91
576.08	907.86
576.43	908.95
576.78	910.25
577.13	911.60
577.49	912.74
577.84	913.62
578.19	914.54
578.54	915.05
578.90	915.70
579.25	915.67
579.60	916.21
579.95	916.40
580.30	916.79
580.66	916.82
581.01	916.69
581.36	917.02
581.71	917.01
582.06	917.20
582.42	917.05
582.77	917.04
583.12	917.05
583.47	917.17
583.82	917.11
584.17	916.76
584.53	916.30
584.88	915.89
585.23	915.46
585.58	915.10
585.93	914.69
586.28	914.47
586.63	914.67
586.98	914.31
587.34	914.02
587.69	913.62
588.04	913.38
588.39	913.29
588.74	912.30
589.09	911.73
589.44	910.96
589.79	910.50
590.14	909.91
590.49	909.19
590.84	908.36
591.19	907.50
591.54	906.44
591.89	905.08
592.25	904.09
592.60	902.82
592.95	901.43
593.30	900.30
593.65	898.67
594.00	897.13
594.35	895.95
594.70	894.38
595.05	893.16
595.40	891.33
595.75	889.49
596.10	888.25
596.45	886.86
596.80	885.57
597.15	884.08
597.50	882.53
597.85	881.24
598.19	879.58
598.54	877.90
598.89	876.29
599.24	875.28
599.59	873.63
599.94	872.33
600.29	870.96
600.64	869.20
600.99	867.39
601.34	865.83
601.69	863.68
602.04	861.95
602.39	859.66
602.74	857.80
603.08	856.29
603.43	854.57
603.78	852.64
604.13	850.75
604.48	848.86
604.83	847.08
605.18	845.17
605.53	842.84
605.87	840.71
606.22	838.79
606.57	836.23
606.92	834.19
607.27	832.12
607.62	830.06
607.96	828.05
608.31	826.25
608.66	823.78
609.01	821.44
609.36	819.04
609.70	816.65
610.05	814.14
610.40	811.58
610.75	808.76
611.10	806.02
611.44	802.93
611.79	800.12
612.14	797.14
612.49	793.97
612.83	791.38
613.18	788.62
613.53	785.54
613.88	782.82
614.22	779.52
614.57	776.42
614.92	773.17
615.27	770.20
615.61	767.15
615.96	764.14
616.31	761.60
616.65	759.05
617.00	756.47
617.35	753.96
617.70	750.96
618.04	748.08
618.39	745.30
618.74	742.91
619.08	739.98
619.43	737.27
619.78	734.50
620.12	731.67
620.47	728.79
620.82	726.32
621.16	723.50
621.51	721.35
621.85	718.68
622.20	716.16
622.55	713.51
622.89	710.97
623.24	708.54
623.59	705.84
623.93	703.17
624.28	700.46
624.62	697.75
624.97	695.13
625.32	692.66
625.66	690.33
626.01	687.45
626.35	685.00
626.70	682.37
627.04	680.04
627.39	677.30
627.73	674.69
628.08	672.04
628.43	669.42
628.77	666.53
629.12	663.86
629.46	660.99
629.81	658.22
630.15	655.18
630.50	652.50
630.84	649.60
631.19	646.77
631.53	644.21
631.88	641.37
632.22	638.51
632.57	636.01
632.91	633.10
633.26	630.31
633.60	627.67
633.95	625.01
634.29	622.20
634.64	619.91
634.98	617.38
635.32	615.00
635.67	612.41
636.01	609.81
636.36	607.23
636.70	605.10
637.05	602.81
637.39	600.62
637.73	598.10
638.08	595.95
638.42	593.54
638.77	591.17
639.11	588.90
639.45	586.38
639.80	583.60
640.14	581.16
640.49	578.99
640.83	576.59
641.17	574.18
641.52	571.85
641.86	569.12
642.20	566.76
642.55	563.96
642.89	561.69
643.23	559.31
643.58	557.13
643.92	554.53
644.26	552.06
644.61	549.89
644.95	547.62
645.29	544.73
645.64	542.14
645.98	539.63
646.32	537.10
646.66	535.00
647.01	532.73
647.35	530.57
647.69	528.20
648.04	525.95
648.38	523.45
648.72	521.00
649.06	518.78
649.41	516.46
649.75	514.30
650.09	511.84
650.43	509.43
650.78	506.78
651.12	504.26
651.46	501.98
651.80	499.48
652.14	497.02
652.49	495.03
652.83	492.95
653.17	490.60
653.51	488.35
653.85	486.02
654.20	483.80
654.54	481.25
654.88	478.70
655.22	476.18
655.56	473.92
655.90	471.82
656.25	469.37
656.59	467.12
656.93	465.03
657.27	463.00
657.61	460.80
657.95	458.88
658.29	456.85
658.64	454.55
658.98	452.31
659.32	449.96
659.66	447.63
660.00	445.51
660.34	443.54
660.68	441.53
661.02	439.59
661.36	437.68
661.70	435.84
662.05	434.22
662.39	432.47
662.73	430.72
663.07	428.82
663.41	427.17
663.75	425.30
664.09	423.39
664.43	421.51
664.77	419.86
665.11	418.13
665.45	416.43
665.79	414.76
666.13	412.97
666.47	411.60
666.81	410.03
667.15	408.30
667.49	406.71
667.83	404.91
668.17	403.22
668.51	401.54
668.85	399.84
669.19	398.22
669.53	396.62
669.87	394.95
670.21	393.42
670.55	391.99
670.89	390.68
671.23	389.41
671.57	388.01
671.91	386.65
672.25	385.13
672.58	383.79
672.92	382.26
673.26	381.14
673.60	379.78
673.94	378.48
674.28	377.30
674.62	376.02
674.96	374.85
675.30	373.76
675.64	372.54
675.97	371.42
676.31	370.16
676.65	369.00
676.99	367.88
677.33	366.56
677.67	365.38
678.01	364.05
678.34	362.64
678.68	361.39
679.02	359.97
679.36	358.78
679.70	357.61
680.04	356.53
680.37	355.25
680.71	354.03
681.05	353.04
681.39	351.97
681.73	350.77
682.06	349.71
682.40	348.42
682.74	347.41
683.08	346.36
683.42	345.30
683.75	344.27
684.09	343.06
684.43	341.98
684.77	340.70
685.10	339.56
685.44	338.55
685.78	337.51
686.12	336.55
686.45	335.58
686.79	334.50
687.13	333.40
687.46	332.37
687.80	331.28
688.14	330.09
688.48	328.95
688.81	327.88
689.15	326.91
689.49	325.94
689.82	324.79
690.16	323.57
690.50	322.64
690.83	321.54
691.17	320.51
691.51	319.59
691.84	318.70
692.18	317.89
692.52	316.85
692.85	316.00
693.19	315.19
693.52	314.11
693.86	313.15
694.20	312.30
694.53	311.42
694.87	310.65
695.21	309.71
695.54	308.78
695.88	307.87
696.21	306.86
696.55	306.00
696.88	305.18
697.22	304.49
697.56	303.48
697.89	302.67
698.23	302.02
698.56	301.24
698.90	300.51
699.23	299.49
699.57	298.69
699.90	297.71
700.24	296.79
700.58	296.10
700.91	295.29
701.25	294.52
701.58	293.84
701.92	293.16
702.25	292.41
702.59	291.72
702.92	291.03
703.26	290.57
703.59	289.75
703.93	289.31
704.26	288.68
704.60	288.12
704.93	287.59
705.26	286.81
705.60	286.17
705.93	285.47
706.27	284.99
706.60	284.61
706.94	284.27
707.27	283.69
707.61	283.09
707.94	282.65
708.27	282.17
708.61	281.45
708.94	280.85
709.28	280.59
709.61	280.16
709.94	279.77
710.28	279.16
710.61	278.89
710.95	278.19
711.28	277.78
711.61	277.23
711.95	276.74
712.28	276.25
712.61	275.74
712.95	275.38
713.28	274.99
713.61	274.27
713.95	273.66
714.28	273.29
714.61	272.85
714.95	272.40
715.28	271.97
715.61	271.58
715.95	271.13
716.28	270.52
716.61	270.16
716.95	269.66
717.28	269.27
717.61	268.75
717.94	268.37
718.28	267.92
718.61	267.51
718.94	267.03
719.27	266.70
719.61	266.26
719.94	265.87
720.27	265.42
720.60	265.16
720.94	264.79
721.27	264.33
721.60	264.08
721.93	263.74
722.27	263.34
722.60	263.03
722.93	262.68
723.26	262.35
723.59	261.95
723.93	261.58
724.26	261.21
724.59	260.81
724.92	260.44
725.25	260.07
725.59	259.80
725.92	259.43
726.25	259.08
726.58	258.84
726.91	258.43
727.24	258.18
727.57	257.79
727.91	257.53
728.24	257.27
728.57	256.93
728.90	256.66
729.23	256.35
729.56	256.07
729.89	255.83
730.22	255.45
730.55	255.11
730.89	254.78
731.22	254.45
731.55	254.27
731.88	253.92
732.21	253.58
732.54	253.19
732.87	252.96
733.20	252.73
733.53	252.40
733.86	252.17
734.19	251.90
734.52	251.72
734.85	251.45
735.18	251.17
735.51	250.86
735.84	250.55
736.17	250.27
736.50	249.86
736.83	249.71
737.16	249.58
737.49	249.26
737.82	249.00
738.15	248.76
738.48	248.48
738.81	248.29
739.14	248.08
739.47	247.85
739.80	247.60
740.13	247.27
740.46	247.07
740.79	246.79
741.12	246.46
741.45	246.25
741.78	246.04
742.11	245.78
742.44	245.46
742.77	245.33
743.10	245.15
743.43	245.07
743.75	244.63
744.08	244.69
744.41	244.63
744.74	244.54
745.07	244.23
745.40	244.05
745.73	243.95
746.06	243.75
746.39	243.74
746.71	243.64
747.04	243.54
747.37	243.46
747.70	243.32
748.03	243.23
748.36	243.09
748.68	242.99
749.01	242.92
749.34	242.89
749.67	242.78
750.00	242.68
750.33	242.70
750.65	242.62
750.98	242.23
751.31	242.12
751.64	241.99
751.97	242.10
752.29	241.98
752.62	241.82
752.95	241.83
753.28	241.61
753.60	241.42
753.93	241.41
754.26	241.20
754.59	241.14
754.91	240.92
755.24	240.70
755.57	240.48
755.90	240.33
756.22	240.18
756.55	240.03
756.88	239.91
757.20	239.65
757.53	239.42
757.86	239.39
758.19	239.30
758.51	239.23
758.84	238.98
759.17	238.88
759.49	238.68
759.82	238.55
760.15	238.49
760.47	238.43
760.80	238.25
761.13	238.23
761.45	238.09
761.78	238.00
762.11	238.00
762.43	237.92
762.76	237.87
763.08	237.83
763.41	237.74
763.74	237.63
764.06	237.49
764.39	237.54
764.71	237.46
765.04	237.32
765.37	237.02
765.69	237.03
766.02	237.01
766.34	237.03
766.67	236.89
767.00	236.84
767.32	236.79
767.65	236.87
767.97	236.79
768.30	236.72
768.62	236.76
768.95	236.61
769.27	236.52
769.60	236.45
769.92	236.35
770.25	236.13
770.57	235.95
770.90	235.91
771.22	235.75
771.55	235.58
771.87	235.44
772.20	235.48
772.52	235.51
772.85	235.52
773.17	235.35
773.50	235.16
773.82	235.00
774.15	234.80
774.47	234.59
774.80	234.47
775.12	234.43
775.45	234.31
775.77	234.21
776.09	234.19
776.42	234.11
776.74	234.07
777.07	234.00
777.39	234.00
777.72	233.79
778.04	233.73
778.36	233.73
778.69	233.65
779.01	233.57
779.33	233.23
779.66	233.00
779.98	232.95
780.31	232.88
780.63	232.92
780.95	232.98
781.28	232.80
781.60	232.68
781.92	232.51
782.25	232.45
782.57	232.47
782.89	232.36
783.22	232.15
783.54	232.06
783.86	231.97
784.19	231.96
784.51	232.10
784.83	232.04
785.16	231.92
785.48	231.90
785.80	231.87
786.12	231.90
786.45	231.85
786.77	231.86
787.09	231.91
787.42	231.71
787.74	231.66
788.06	231.67
788.38	231.70
788.71	231.84
789.03	231.86
789.35	231.80
789.67	231.76
789.99	231.86
790.32	231.78
790.64	231.89
790.96	232.05
791.28	232.00
791.61	232.03
791.93	232.02
792.25	232.07
792.57	232.23
792.89	232.17
793.21	232.17
793.54	232.12
793.86	232.08
794.18	232.10
