SpectraSuite Data File
++++++++++++++++++++++++++++++++++++
Date: Fri Feb 01 14:40:25 EST 2013
User: group
Dark Spectrum Present: No
Reference Spectrum Present: No
Number of Sampled Component Spectra: 1
Spectrometers: USB2E7196
Integration Time (usec): 70000 (USB2E7196)
Spectra Averaged: 10 (USB2E7196)
Boxcar Smoothing: 10 (USB2E7196)
Correct for Electrical Dark: No (USB2E7196)
Strobe/Lamp Enabled: No (USB2E7196)
Correct for Detector Non-linearity: No (USB2E7196)
Correct for Stray Light: No (USB2E7196)
Number of Pixels in Processed Spectrum: 2048
>>>>>Begin Processed Spectral Data<<<<<
339.09	0.00
339.48	217.90
339.86	216.00
340.24	217.50
340.63	220.00
341.01	222.50
341.39	222.00
341.78	223.80
342.16	225.60
342.54	226.50
342.93	214.42
343.31	225.26
343.69	225.76
344.07	226.32
344.46	226.82
344.84	227.26
345.22	227.57
345.60	227.86
345.99	227.99
346.37	228.15
346.75	228.18
347.13	228.17
347.52	228.32
347.90	228.47
348.28	228.45
348.66	228.51
349.05	228.40
349.43	228.44
349.81	228.46
350.19	228.52
350.57	228.57
350.96	228.59
351.34	228.63
351.72	228.72
352.10	228.77
352.48	228.87
352.87	228.91
353.25	228.85
353.63	228.92
354.01	229.07
354.39	229.10
354.77	229.29
355.15	229.40
355.54	229.38
355.92	229.37
356.30	229.50
356.68	229.72
357.06	229.83
357.44	229.84
357.82	229.86
358.20	229.90
358.58	229.95
358.97	230.07
359.35	230.11
359.73	230.19
360.11	230.25
360.49	230.28
360.87	230.22
361.25	230.31
361.63	230.46
362.01	230.51
362.39	230.50
362.77	230.53
363.15	230.50
363.53	230.57
363.91	230.62
364.29	230.64
364.67	230.40
365.05	230.37
365.43	230.42
365.81	230.35
366.19	230.44
366.57	230.50
366.95	230.49
367.33	230.50
367.71	230.43
368.09	230.55
368.47	230.57
368.85	230.63
369.23	230.68
369.61	230.50
369.99	230.49
370.37	230.50
370.75	230.52
371.13	230.47
371.51	230.25
371.89	230.12
372.27	229.98
372.65	229.90
373.03	229.87
373.41	229.76
373.78	229.73
374.16	229.54
374.54	229.51
374.92	229.40
375.30	229.31
375.68	229.24
376.06	229.07
376.44	228.87
376.82	228.76
377.19	228.71
377.57	228.67
377.95	228.48
378.33	228.44
378.71	228.22
379.09	228.24
379.47	228.20
379.84	228.16
380.22	228.15
380.60	228.08
380.98	227.98
381.36	227.98
381.73	227.86
382.11	227.81
382.49	227.73
382.87	227.61
383.25	227.53
383.62	227.71
384.00	227.54
384.38	227.61
384.76	227.53
385.13	227.42
385.51	227.32
385.89	227.26
386.27	227.11
386.64	227.14
387.02	227.01
387.40	226.98
387.78	226.92
388.15	226.87
388.53	226.87
388.91	226.86
389.29	226.74
389.66	226.76
390.04	226.72
390.42	226.68
390.79	226.74
391.17	226.65
391.55	226.43
391.92	226.52
392.30	226.40
392.68	226.39
393.05	226.49
393.43	226.46
393.81	226.58
394.18	226.63
394.56	226.50
394.94	226.55
395.31	226.63
395.69	226.78
396.06	226.82
396.44	226.80
396.82	226.87
397.19	227.06
397.57	227.15
397.95	227.20
398.32	227.28
398.70	227.41
399.07	227.60
399.45	227.63
399.82	227.74
400.20	227.82
400.58	227.98
400.95	227.81
401.33	228.12
401.70	228.41
402.08	228.60
402.45	228.80
402.83	228.96
403.20	229.04
403.58	229.06
403.95	229.24
404.33	229.48
404.71	229.67
405.08	229.97
405.46	230.11
405.83	230.29
406.21	230.40
406.58	230.49
406.96	230.67
407.33	230.94
407.70	231.09
408.08	231.48
408.45	231.70
408.83	232.21
409.20	232.46
409.58	232.52
409.95	232.78
410.33	233.12
410.70	233.25
411.08	233.62
411.45	233.86
411.82	234.18
412.20	234.57
412.57	234.96
412.95	235.05
413.32	235.33
413.69	235.73
414.07	236.11
414.44	236.57
414.82	237.02
415.19	237.53
415.56	238.02
415.94	238.56
416.31	239.12
416.68	239.52
417.06	240.10
417.43	240.72
417.81	241.37
418.18	242.07
418.55	242.95
418.93	243.67
419.30	244.62
419.67	245.42
420.04	246.23
420.42	247.16
420.79	248.50
421.16	249.65
421.54	250.88
421.91	252.07
422.28	253.35
422.66	254.57
423.03	255.88
423.40	257.14
423.77	258.50
424.15	259.88
424.52	261.44
424.89	262.88
425.26	264.42
425.64	265.96
426.01	267.49
426.38	269.05
426.75	270.80
427.13	272.49
427.50	274.34
427.87	276.12
428.24	278.04
428.61	279.58
428.99	281.51
429.36	283.47
429.73	285.63
430.10	287.50
430.47	289.63
430.85	291.62
431.22	293.95
431.59	296.32
431.96	298.60
432.33	301.01
432.70	303.45
433.08	306.22
433.45	308.76
433.82	311.39
434.19	314.35
434.56	317.24
434.93	319.90
435.30	322.57
435.68	325.48
436.05	328.27
436.42	331.15
436.79	333.72
437.16	336.48
437.53	339.27
437.90	342.18
438.27	345.03
438.64	347.97
439.01	350.61
439.38	352.76
439.75	354.96
440.13	357.63
440.50	359.99
440.87	361.90
441.24	363.85
441.61	366.06
441.98	367.61
442.35	369.33
442.72	371.32
443.09	373.15
443.46	374.33
443.83	374.86
444.20	375.43
444.57	376.33
444.94	376.57
445.31	376.93
445.68	377.52
446.05	377.49
446.42	376.96
446.79	376.55
447.16	376.19
447.53	375.88
447.90	374.68
448.27	373.60
448.64	372.14
449.01	371.07
449.37	369.09
449.74	367.26
450.11	365.14
450.48	362.59
450.85	359.97
451.22	357.70
451.59	355.81
451.96	353.89
452.33	351.33
452.70	349.08
453.07	346.20
453.43	343.08
453.80	340.34
454.17	337.82
454.54	335.32
454.91	332.58
455.28	329.91
455.65	327.40
456.02	325.08
456.38	322.86
456.75	320.08
457.12	317.88
457.49	315.64
457.86	313.44
458.23	311.65
458.59	309.63
458.96	307.57
459.33	305.70
459.70	303.70
460.07	302.07
460.43	300.36
460.80	298.80
461.17	297.44
461.54	295.94
461.91	294.42
462.27	292.81
462.64	291.60
463.01	290.23
463.38	288.86
463.74	287.14
464.11	285.86
464.48	284.87
464.85	283.64
465.21	282.77
465.58	281.63
465.95	280.42
466.32	279.41
466.68	278.41
467.05	277.30
467.42	276.40
467.78	275.51
468.15	274.57
468.52	273.76
468.88	272.75
469.25	271.90
469.62	271.24
469.98	270.50
470.35	269.70
470.72	268.87
471.08	268.16
471.45	267.60
471.82	266.89
472.18	266.20
472.55	265.63
472.92	264.81
473.28	264.29
473.65	263.73
474.02	263.19
474.38	262.78
474.75	262.40
475.11	261.80
475.48	261.29
475.85	260.84
476.21	260.44
476.58	260.07
476.94	259.61
477.31	259.20
477.67	258.83
478.04	258.40
478.41	258.13
478.77	258.00
479.14	257.71
479.50	257.53
479.87	257.27
480.23	257.11
480.60	256.94
480.96	256.87
481.33	256.64
481.69	256.58
482.06	256.42
482.42	256.39
482.79	256.34
483.15	256.35
483.52	256.46
483.88	256.39
484.25	256.29
484.61	256.39
484.98	256.32
485.34	256.41
485.71	256.56
486.07	256.70
486.44	256.62
486.80	256.78
487.17	256.95
487.53	257.24
487.90	257.40
488.26	257.77
488.62	257.94
488.99	258.16
489.35	258.40
489.72	258.70
490.08	259.00
490.44	259.31
490.81	259.66
491.17	260.00
491.54	260.49
491.90	261.14
492.26	261.68
492.63	262.30
492.99	262.93
493.36	263.57
493.72	264.36
494.08	265.12
494.45	265.89
494.81	266.71
495.17	267.48
495.54	268.50
495.90	269.37
496.26	270.49
496.63	271.66
496.99	272.82
497.35	274.13
497.72	275.33
498.08	276.67
498.44	278.05
498.80	279.56
499.17	281.06
499.53	282.55
499.89	284.21
500.26	285.99
500.62	287.79
500.98	289.82
501.34	291.84
501.71	294.08
502.07	296.26
502.43	298.46
502.79	300.78
503.16	303.23
503.52	305.84
503.88	308.36
504.24	311.18
504.60	314.11
504.97	317.15
505.33	320.37
505.69	323.86
506.05	327.29
506.41	330.82
506.78	334.54
507.14	338.24
507.50	342.20
507.86	346.25
508.22	350.71
508.59	354.91
508.95	359.35
509.31	363.86
509.67	368.70
510.03	373.67
510.39	378.92
510.75	384.05
511.12	389.51
511.48	395.05
511.84	400.67
512.20	406.34
512.56	412.21
512.92	418.40
513.28	424.59
513.64	430.96
514.00	437.44
514.37	444.07
514.73	451.00
515.09	458.00
515.45	464.95
515.81	471.92
516.17	479.44
516.53	486.97
516.89	494.50
517.25	502.32
517.61	510.30
517.97	518.20
518.33	526.27
518.69	534.43
519.05	542.99
519.41	551.76
519.77	560.94
520.13	569.83
520.49	578.69
520.85	587.88
521.21	597.31
521.57	606.90
521.93	616.31
522.29	626.16
522.65	635.79
523.01	645.80
523.37	655.66
523.73	665.72
524.09	675.83
524.45	686.11
524.81	696.60
525.17	707.36
525.53	718.27
525.89	729.23
526.25	740.45
526.61	751.10
526.97	762.04
527.33	773.07
527.68	784.79
528.04	796.06
528.40	807.68
528.76	819.54
529.12	831.33
529.48	843.41
529.84	854.88
530.20	866.85
530.56	879.09
530.91	891.71
531.27	904.04
531.63	916.39
531.99	928.60
532.35	940.67
532.71	952.67
533.07	965.23
533.42	977.77
533.78	989.81
534.14	1002.58
534.50	1014.75
534.86	1026.98
535.21	1038.71
535.57	1051.29
535.93	1063.64
536.29	1075.45
536.65	1087.51
537.00	1099.40
537.36	1111.88
537.72	1124.04
538.08	1136.03
538.44	1147.55
538.79	1159.38
539.15	1171.20
539.51	1183.53
539.87	1195.76
540.22	1207.93
540.58	1219.53
540.94	1230.99
541.29	1242.49
541.65	1253.91
542.01	1266.18
542.37	1278.02
542.72	1289.50
543.08	1300.90
543.44	1312.06
543.79	1322.85
544.15	1334.02
544.51	1345.60
544.87	1356.39
545.22	1367.06
545.58	1377.51
545.94	1387.50
546.29	1397.34
546.65	1407.69
547.01	1417.78
547.36	1427.57
547.72	1436.74
548.07	1446.40
548.43	1455.87
548.79	1465.33
549.14	1474.28
549.50	1482.56
549.86	1490.78
550.21	1499.20
550.57	1507.60
550.92	1516.19
551.28	1524.35
551.64	1532.47
551.99	1540.03
552.35	1547.64
552.70	1555.57
553.06	1563.50
553.41	1571.71
553.77	1579.80
554.13	1587.10
554.48	1594.53
554.84	1601.92
555.19	1609.41
555.55	1616.76
555.90	1623.27
556.26	1630.34
556.61	1637.13
556.97	1643.83
557.32	1650.46
557.68	1656.69
558.03	1662.99
558.39	1668.70
558.74	1675.84
559.10	1681.86
559.45	1687.91
559.81	1694.80
560.16	1700.28
560.52	1705.72
560.87	1711.70
561.23	1716.58
561.58	1722.15
561.94	1726.55
562.29	1730.97
562.64	1735.47
563.00	1739.65
563.35	1745.17
563.71	1749.88
564.06	1755.32
564.42	1760.06
564.77	1764.42
565.12	1769.57
565.48	1774.33
565.83	1778.08
566.19	1781.03
566.54	1784.51
566.89	1787.98
567.25	1790.73
567.60	1794.51
567.96	1798.10
568.31	1801.15
568.66	1804.50
569.02	1807.40
569.37	1810.20
569.72	1812.98
570.08	1815.37
570.43	1818.13
570.78	1819.87
571.14	1821.42
571.49	1822.64
571.84	1824.64
572.20	1825.85
572.55	1826.61
572.90	1826.70
573.26	1828.40
573.61	1829.90
573.96	1830.74
574.31	1830.39
574.67	1829.83
575.02	1829.17
575.37	1828.50
575.72	1827.17
576.08	1826.66
576.43	1825.62
576.78	1825.07
577.13	1824.39
577.49	1824.20
577.84	1822.54
578.19	1821.23
578.54	1819.89
578.90	1818.07
579.25	1815.57
579.60	1813.99
579.95	1812.33
580.30	1810.39
580.66	1807.46
581.01	1804.90
581.36	1802.32
581.71	1800.59
582.06	1799.11
582.42	1796.88
582.77	1794.10
583.12	1791.83
583.47	1789.31
583.82	1787.29
584.17	1784.72
584.53	1782.11
584.88	1779.11
585.23	1776.30
585.58	1773.57
585.93	1770.71
586.28	1768.21
586.63	1765.87
586.98	1763.21
587.34	1760.53
587.69	1757.85
588.04	1755.35
588.39	1752.73
588.74	1748.92
589.09	1745.61
589.44	1741.53
589.79	1738.57
590.14	1735.80
590.49	1732.41
590.84	1728.78
591.19	1724.72
591.54	1720.09
591.89	1715.06
592.25	1710.56
592.60	1705.86
592.95	1701.20
593.30	1696.54
593.65	1691.49
594.00	1686.39
594.35	1682.28
594.70	1676.36
595.05	1671.72
595.40	1666.49
595.75	1660.81
596.10	1656.58
596.45	1652.23
596.80	1648.45
597.15	1643.86
597.50	1639.22
597.85	1635.00
598.19	1630.58
598.54	1626.18
598.89	1622.23
599.24	1619.15
599.59	1614.67
599.94	1610.89
600.29	1606.51
600.64	1601.98
600.99	1596.97
601.34	1592.40
601.69	1587.07
602.04	1583.35
602.39	1578.65
602.74	1574.62
603.08	1570.47
603.43	1566.42
603.78	1561.40
604.13	1556.33
604.48	1551.18
604.83	1546.28
605.18	1541.17
605.53	1535.47
605.87	1529.28
606.22	1524.06
606.57	1517.72
606.92	1512.47
607.27	1506.90
607.62	1502.20
607.96	1496.80
608.31	1492.24
608.66	1486.56
609.01	1480.60
609.36	1474.00
609.70	1466.90
610.05	1459.67
610.40	1453.48
610.75	1446.70
611.10	1440.37
611.44	1433.31
611.79	1426.98
612.14	1420.42
612.49	1413.16
612.83	1406.46
613.18	1400.29
613.53	1393.92
613.88	1387.40
614.22	1380.70
614.57	1373.65
614.92	1367.00
615.27	1360.97
615.61	1354.08
615.96	1347.88
616.31	1341.66
616.65	1336.25
617.00	1330.88
617.35	1325.48
617.70	1319.09
618.04	1312.39
618.39	1305.98
618.74	1299.98
619.08	1293.48
619.43	1287.02
619.78	1281.46
620.12	1275.79
620.47	1269.87
620.82	1263.18
621.16	1257.16
621.51	1251.21
621.85	1245.22
622.20	1238.37
622.55	1231.65
622.89	1225.77
623.24	1219.66
623.59	1213.87
623.93	1207.82
624.28	1201.83
624.62	1195.42
624.97	1189.69
625.32	1184.23
625.66	1178.70
626.01	1172.84
626.35	1166.99
626.70	1161.07
627.04	1155.30
627.39	1149.13
627.73	1143.09
628.08	1137.66
628.43	1131.86
628.77	1125.84
629.12	1120.12
629.46	1114.28
629.81	1108.33
630.15	1101.90
630.50	1095.71
630.84	1089.17
631.19	1082.52
631.53	1076.29
631.88	1070.10
632.22	1063.41
632.57	1057.40
632.91	1051.09
633.26	1045.12
633.60	1038.67
633.95	1032.86
634.29	1026.73
634.64	1020.98
634.98	1014.94
635.32	1009.40
635.67	1003.88
636.01	998.43
636.36	992.73
636.70	987.00
637.05	981.64
637.39	976.41
637.73	971.01
638.08	966.24
638.42	961.29
638.77	956.31
639.11	951.23
639.45	946.14
639.80	940.72
640.14	935.54
640.49	930.35
640.83	925.29
641.17	919.80
641.52	914.43
641.86	909.05
642.20	904.09
642.55	898.39
642.89	892.73
643.23	887.49
643.58	882.52
643.92	877.31
644.26	871.99
644.61	867.14
644.95	862.07
645.29	856.27
645.64	850.62
645.98	845.10
646.32	840.12
646.66	834.86
647.01	829.72
647.35	824.63
647.69	819.57
648.04	814.97
648.38	809.80
648.72	804.53
649.06	799.56
649.41	794.50
649.75	789.19
650.09	784.32
650.43	779.05
650.78	773.43
651.12	768.24
651.46	763.26
651.80	757.96
652.14	753.15
652.49	748.40
652.83	743.77
653.17	738.76
653.51	733.77
653.85	729.26
654.20	724.50
654.54	719.45
654.88	714.42
655.22	709.09
655.56	704.20
655.90	699.65
656.25	694.83
656.59	690.06
656.93	685.49
657.27	680.88
657.61	676.21
657.95	671.89
658.29	667.63
658.64	663.16
658.98	658.64
659.32	653.86
659.66	649.42
660.00	644.90
660.34	640.69
660.68	636.26
661.02	631.61
661.36	627.58
661.70	623.56
662.05	619.73
662.39	616.05
662.73	612.31
663.07	608.45
663.41	604.85
663.75	601.06
664.09	597.39
664.43	593.62
664.77	590.03
665.11	586.64
665.45	582.94
665.79	579.40
666.13	575.80
666.47	572.30
666.81	568.54
667.15	564.90
667.49	561.51
667.83	558.21
668.17	555.00
668.51	551.26
668.85	547.75
669.19	544.22
669.53	540.80
669.87	537.38
670.21	534.31
670.55	531.26
670.89	528.27
671.23	525.30
671.57	522.39
671.91	519.29
672.25	516.24
672.58	513.40
672.92	510.37
673.26	507.61
673.60	504.83
673.94	502.29
674.28	499.89
674.62	497.38
674.96	494.60
675.30	492.27
675.64	489.80
675.97	487.45
676.31	485.13
676.65	482.60
676.99	480.37
677.33	477.67
677.67	474.88
678.01	472.24
678.34	469.72
678.68	467.23
679.02	464.87
679.36	462.46
679.70	460.24
680.04	457.90
680.37	455.35
680.71	453.19
681.05	450.96
681.39	448.71
681.73	446.33
682.06	444.51
682.40	442.17
682.74	440.10
683.08	437.90
683.42	435.64
683.75	433.54
684.09	431.35
684.43	429.29
684.77	427.24
685.10	425.20
685.44	423.13
685.78	421.14
686.12	419.10
686.45	416.80
686.79	414.64
687.13	412.74
687.46	410.87
687.80	408.74
688.14	406.68
688.48	404.73
688.81	402.77
689.15	400.61
689.49	398.53
689.82	396.57
690.16	394.59
690.50	392.84
690.83	391.06
691.17	389.07
691.51	387.20
691.84	385.49
692.18	383.65
692.52	381.90
692.85	380.05
693.19	378.41
693.52	376.91
693.86	375.20
694.20	373.56
694.53	371.87
694.87	370.22
695.21	368.47
695.54	366.74
695.88	365.04
696.21	363.40
696.55	361.88
696.88	360.27
697.22	358.79
697.56	357.17
697.89	355.54
698.23	354.08
698.56	352.57
698.90	351.06
699.23	349.59
699.57	348.06
699.90	346.56
700.24	344.99
700.58	343.57
700.91	342.18
701.25	340.77
701.58	339.49
701.92	338.26
702.25	337.12
702.59	335.77
702.92	334.54
703.26	333.27
703.59	332.07
703.93	330.99
704.26	329.71
704.60	328.47
704.93	327.30
705.26	326.08
705.60	324.93
705.93	323.76
706.27	322.75
706.60	321.74
706.94	320.65
707.27	319.57
707.61	318.45
707.94	317.35
708.27	316.18
708.61	315.04
708.94	313.88
709.28	312.80
709.61	311.82
709.94	310.73
710.28	309.73
710.61	308.67
710.95	307.56
711.28	306.70
711.61	305.73
711.95	304.89
712.28	303.92
712.61	302.80
712.95	301.88
713.28	300.89
713.61	299.94
713.95	299.07
714.28	298.26
714.61	297.32
714.95	296.43
715.28	295.53
715.61	294.85
715.95	294.02
716.28	293.20
716.61	292.41
716.95	291.70
717.28	291.01
717.61	290.39
717.94	289.69
718.28	288.79
718.61	288.11
718.94	287.33
719.27	286.76
719.61	286.33
719.94	285.67
720.27	284.83
720.60	284.10
720.94	283.54
721.27	282.83
721.60	282.39
721.93	281.90
722.27	281.48
722.60	280.82
722.93	280.18
723.26	279.64
723.59	279.14
723.93	278.55
724.26	278.03
724.59	277.38
724.92	276.87
725.25	276.71
725.59	276.16
725.92	275.74
726.25	275.17
726.58	274.63
726.91	274.34
727.24	274.01
727.57	273.68
727.91	273.35
728.24	273.03
728.57	272.46
728.90	272.06
729.23	271.52
729.56	271.19
729.89	270.86
730.22	270.49
730.55	269.98
730.89	269.50
731.22	269.03
731.55	268.63
731.88	268.19
732.21	267.56
732.54	267.09
732.87	266.66
733.20	266.22
733.53	265.93
733.86	265.45
734.19	265.07
734.52	264.63
734.85	264.28
735.18	263.80
735.51	263.55
735.84	263.19
736.17	262.86
736.50	262.39
736.83	262.29
737.16	261.90
737.49	261.67
737.82	261.35
738.15	261.01
738.48	260.71
738.81	260.39
739.14	260.04
739.47	259.78
739.80	259.44
740.13	259.17
740.46	258.79
740.79	258.46
741.12	258.22
741.45	257.85
741.78	257.34
742.11	256.98
742.44	256.58
742.77	256.18
743.10	255.89
743.43	255.54
743.75	254.94
744.08	254.77
744.41	254.41
744.74	254.22
745.07	253.88
745.40	253.58
745.73	253.31
746.06	252.97
746.39	252.67
746.71	252.35
747.04	252.00
747.37	251.65
747.70	251.28
748.03	250.87
748.36	250.65
748.68	250.33
749.01	250.10
749.34	249.97
749.67	249.74
750.00	249.38
750.33	249.19
750.65	248.96
750.98	248.61
751.31	248.29
751.64	247.93
751.97	247.81
752.29	247.54
752.62	247.27
752.95	247.00
753.28	246.74
753.60	246.43
753.93	246.28
754.26	246.09
754.59	245.82
754.91	245.54
755.24	245.27
755.57	245.05
755.90	244.80
756.22	244.43
756.55	244.17
756.88	243.98
757.20	243.68
757.53	243.50
757.86	243.21
758.19	243.11
758.51	242.97
758.84	242.71
759.17	242.59
759.49	242.33
759.82	242.29
760.15	242.10
760.47	242.00
760.80	241.77
761.13	241.61
761.45	241.57
761.78	241.54
762.11	241.33
762.43	241.18
762.76	241.01
763.08	240.88
763.41	240.85
763.74	240.73
764.06	240.62
764.39	240.50
764.71	240.41
765.04	240.21
765.37	240.12
765.69	239.93
766.02	239.83
766.34	239.73
766.67	239.50
767.00	239.61
767.32	239.67
767.65	239.82
767.97	239.69
768.30	239.60
768.62	239.43
768.95	239.39
769.27	239.22
769.60	239.18
769.92	239.10
770.25	238.84
770.57	238.70
770.90	238.54
771.22	238.40
771.55	238.25
771.87	238.20
772.20	238.07
772.52	238.14
772.85	238.32
773.17	238.25
773.50	238.20
773.82	237.96
774.15	237.77
774.47	237.56
774.80	237.46
775.12	237.28
775.45	237.22
775.77	237.19
776.09	237.24
776.42	237.06
776.74	237.06
777.07	237.00
777.39	236.92
777.72	236.90
778.04	236.76
778.36	236.80
778.69	236.75
779.01	236.68
779.33	236.44
779.66	236.04
779.98	235.90
780.31	235.78
780.63	235.70
780.95	235.62
781.28	235.46
781.60	235.38
781.92	235.32
782.25	235.21
782.57	235.12
782.89	234.93
783.22	234.94
783.54	234.78
783.86	234.73
784.19	234.68
784.51	234.70
784.83	234.76
785.16	234.60
785.48	234.49
785.80	234.43
786.12	234.37
786.45	234.29
786.77	234.30
787.09	234.20
787.42	234.08
787.74	234.03
788.06	233.93
