SpectraSuite Data File
++++++++++++++++++++++++++++++++++++
Date: Fri Feb 01 14:34:00 EST 2013
User: group
Dark Spectrum Present: No
Reference Spectrum Present: No
Number of Sampled Component Spectra: 1
Spectrometers: USB2E7196
Integration Time (usec): 70000 (USB2E7196)
Spectra Averaged: 10 (USB2E7196)
Boxcar Smoothing: 10 (USB2E7196)
Correct for Electrical Dark: No (USB2E7196)
Strobe/Lamp Enabled: No (USB2E7196)
Correct for Detector Non-linearity: No (USB2E7196)
Correct for Stray Light: No (USB2E7196)
Number of Pixels in Processed Spectrum: 2048
>>>>>Begin Processed Spectral Data<<<<<
339.09	0.00
339.48	217.00
339.86	217.90
340.24	218.00
340.63	221.30
341.01	224.60
341.39	222.80
341.78	225.90
342.16	227.10
342.54	224.80
342.93	215.06
343.31	225.94
343.69	226.48
344.07	226.98
344.46	227.46
344.84	227.82
345.22	227.99
345.60	228.30
345.99	228.48
346.37	228.47
346.75	228.66
347.13	228.65
347.52	228.65
347.90	228.73
348.28	228.64
348.66	228.73
349.05	228.78
349.43	228.83
349.81	228.80
350.19	228.79
350.57	228.78
350.96	228.80
351.34	228.81
351.72	228.83
352.10	228.97
352.48	229.13
352.87	229.18
353.25	229.25
353.63	229.23
354.01	229.26
354.39	229.37
354.77	229.30
355.15	229.45
355.54	229.46
355.92	229.40
356.30	229.42
356.68	229.64
357.06	229.60
357.44	229.63
357.82	229.80
358.20	229.93
358.58	230.04
358.97	230.07
359.35	230.09
359.73	230.32
360.11	230.25
360.49	230.18
360.87	230.25
361.25	230.25
361.63	230.35
362.01	230.41
362.39	230.43
362.77	230.60
363.15	230.51
363.53	230.60
363.91	230.70
364.29	230.76
364.67	230.45
365.05	230.44
365.43	230.53
365.81	230.49
366.19	230.46
366.57	230.58
366.95	230.61
367.33	230.74
367.71	230.59
368.09	230.55
368.47	230.61
368.85	230.47
369.23	230.49
369.61	230.45
369.99	230.40
370.37	230.36
370.75	230.30
371.13	230.34
371.51	230.19
371.89	230.07
372.27	230.04
372.65	230.10
373.03	230.04
373.41	229.92
373.78	229.88
374.16	229.73
374.54	229.50
374.92	229.46
375.30	229.30
375.68	229.20
376.06	229.19
376.44	229.04
376.82	229.05
377.19	229.05
377.57	228.93
377.95	228.82
378.33	228.78
378.71	228.64
379.09	228.47
379.47	228.40
379.84	228.34
380.22	228.23
380.60	228.15
380.98	228.11
381.36	228.00
381.73	227.98
382.11	227.97
382.49	227.91
382.87	227.74
383.25	227.66
383.62	227.86
384.00	227.80
384.38	227.78
384.76	227.80
385.13	227.72
385.51	227.70
385.89	227.67
386.27	227.69
386.64	227.71
387.02	227.73
387.40	227.85
387.78	227.86
388.15	227.90
388.53	227.85
388.91	227.86
389.29	227.83
389.66	227.78
390.04	227.85
390.42	227.88
390.79	227.86
391.17	227.93
391.55	227.70
391.92	227.74
392.30	227.81
392.68	227.75
393.05	227.78
393.43	227.75
393.81	227.71
394.18	227.74
394.56	227.82
394.94	228.02
395.31	227.93
395.69	228.12
396.06	228.19
396.44	228.30
396.82	228.31
397.19	228.61
397.57	228.67
397.95	228.81
398.32	228.83
398.70	229.08
399.07	229.18
399.45	229.26
399.82	229.43
400.20	229.43
400.58	229.61
400.95	229.72
401.33	229.93
401.70	230.42
402.08	230.68
402.45	230.87
402.83	231.01
403.20	231.45
403.58	231.70
403.95	232.01
404.33	232.29
404.71	232.69
405.08	233.04
405.46	233.38
405.83	233.61
406.21	234.10
406.58	234.52
406.96	235.07
407.33	235.54
407.70	235.98
408.08	236.70
408.45	237.31
408.83	237.99
409.20	238.66
409.58	239.16
409.95	239.88
410.33	240.66
410.70	241.47
411.08	242.23
411.45	243.11
411.82	244.15
412.20	245.30
412.57	246.58
412.95	247.64
413.32	248.89
413.69	250.33
414.07	251.61
414.44	253.13
414.82	254.66
415.19	256.47
415.56	258.43
415.94	260.30
416.31	262.41
416.68	264.51
417.06	266.96
417.43	269.34
417.81	271.90
418.18	274.62
418.55	277.53
418.93	280.57
419.30	283.82
419.67	286.94
420.04	290.30
420.42	293.87
420.79	297.91
421.16	302.12
421.54	306.30
421.91	310.78
422.28	315.42
422.66	320.33
423.03	325.12
423.40	330.08
423.77	335.42
424.15	340.86
424.52	346.55
424.89	352.70
425.26	358.60
425.64	364.22
426.01	370.47
426.38	376.82
426.75	383.32
427.13	389.86
427.50	397.15
427.87	404.55
428.24	411.97
428.61	418.98
428.99	426.67
429.36	435.28
429.73	443.66
430.10	451.86
430.47	460.15
430.85	468.75
431.22	477.84
431.59	487.59
431.96	496.56
432.33	506.90
432.70	516.83
433.08	528.41
433.45	539.37
433.82	550.10
434.19	561.97
434.56	573.68
434.93	585.07
435.30	595.98
435.68	608.34
436.05	620.60
436.42	632.93
436.79	644.17
437.16	655.96
437.53	668.60
437.90	681.18
438.27	693.34
438.64	706.23
439.01	717.94
439.38	728.16
439.75	738.60
440.13	750.28
440.50	761.24
440.87	770.40
441.24	779.80
441.61	790.32
441.98	798.42
442.35	807.74
442.72	817.10
443.09	826.61
443.46	832.75
443.83	836.64
444.20	840.33
444.57	845.65
444.94	848.78
445.31	852.16
445.68	855.07
446.05	857.59
446.42	857.74
446.79	857.79
447.16	857.98
447.53	858.25
447.90	855.01
448.27	851.98
448.64	846.79
449.01	843.79
449.37	836.82
449.74	830.16
450.11	821.75
450.48	812.76
450.85	803.48
451.22	795.27
451.59	788.04
451.96	781.04
452.33	770.66
452.70	761.31
453.07	749.95
453.43	738.71
453.80	727.64
454.17	717.05
454.54	707.03
454.91	696.02
455.28	685.53
455.65	675.45
456.02	665.04
456.38	656.45
456.75	645.47
457.12	636.63
457.49	627.66
457.86	619.19
458.23	611.55
458.59	602.93
458.96	594.46
459.33	586.92
459.70	579.39
460.07	573.34
460.43	566.52
460.80	559.79
461.17	553.83
461.54	547.45
461.91	541.72
462.27	535.57
462.64	530.58
463.01	524.72
463.38	519.29
463.74	514.03
464.11	509.39
464.48	505.10
464.85	500.30
465.21	496.60
465.58	492.90
465.95	488.39
466.32	484.65
466.68	481.02
467.05	477.20
467.42	473.33
467.78	469.44
468.15	465.61
468.52	462.81
468.88	459.24
469.25	456.08
469.62	453.38
469.98	450.79
470.35	447.92
470.72	445.57
471.08	442.96
471.45	440.59
471.82	438.07
472.18	435.56
472.55	433.71
472.92	431.64
473.28	429.58
473.65	427.59
474.02	425.65
474.38	423.92
474.75	422.53
475.11	421.04
475.48	419.91
475.85	419.07
476.21	418.01
476.58	417.22
476.94	416.48
477.31	415.50
477.67	414.51
478.04	413.86
478.41	413.29
478.77	412.90
479.14	412.40
479.50	412.09
479.87	412.05
480.23	412.14
480.60	412.12
480.96	411.91
481.33	412.31
481.69	412.58
482.06	412.95
482.42	413.09
482.79	413.30
483.15	414.02
483.52	414.68
483.88	415.43
484.25	416.03
484.61	416.90
484.98	417.96
485.34	419.30
485.71	420.64
486.07	421.86
486.44	423.07
486.80	424.58
487.17	426.19
487.53	428.06
487.90	429.86
488.26	431.76
488.62	434.00
488.99	436.09
489.35	438.45
489.72	440.77
490.08	443.40
490.44	446.35
490.81	448.77
491.17	451.42
491.54	454.54
491.90	457.50
492.26	460.82
492.63	464.02
492.99	467.29
493.36	470.75
493.72	474.54
494.08	478.20
494.45	482.13
494.81	486.14
495.17	489.93
495.54	494.10
495.90	498.40
496.26	502.61
496.63	507.05
496.99	511.70
497.35	516.48
497.72	521.11
498.08	525.63
498.44	530.75
498.80	536.19
499.17	541.15
499.53	546.40
499.89	551.52
500.26	556.57
500.62	561.86
500.98	567.41
501.34	572.85
501.71	578.63
502.07	584.00
502.43	589.44
502.79	595.23
503.16	600.94
503.52	606.64
503.88	612.34
504.24	617.88
504.60	623.45
504.97	629.16
505.33	635.27
505.69	641.40
506.05	647.34
506.41	652.77
506.78	658.39
507.14	664.24
507.50	669.84
507.86	675.69
508.22	681.53
508.59	687.07
508.95	692.81
509.31	698.36
509.67	704.12
510.03	709.85
510.39	715.28
510.75	720.80
511.12	726.19
511.48	731.71
511.84	737.29
512.20	742.55
512.56	747.83
512.92	752.72
513.28	757.83
513.64	762.58
514.00	767.50
514.37	772.38
514.73	776.89
515.09	781.71
515.45	786.14
515.81	790.50
516.17	795.02
516.53	799.42
516.89	803.69
517.25	807.85
517.61	812.10
517.97	815.93
518.33	819.60
518.69	823.41
519.05	827.13
519.41	830.84
519.77	834.97
520.13	838.52
520.49	841.99
520.85	845.31
521.21	848.63
521.57	852.04
521.93	855.24
522.29	858.92
522.65	862.04
523.01	865.10
523.37	867.75
523.73	870.65
524.09	873.27
524.45	876.14
524.81	878.99
525.17	882.06
525.53	885.34
525.89	888.10
526.25	890.94
526.61	893.29
526.97	895.98
527.33	898.41
527.68	901.38
528.04	903.90
528.40	906.49
528.76	909.50
529.12	912.37
529.48	915.14
529.84	917.31
530.20	920.31
530.56	923.77
530.91	927.08
531.27	929.98
531.63	932.61
531.99	935.30
532.35	937.91
532.71	939.94
533.07	942.48
533.42	945.38
533.78	948.01
534.14	950.89
534.50	953.31
534.86	955.71
535.21	957.80
535.57	960.64
535.93	963.15
536.29	965.61
536.65	967.86
537.00	970.25
537.36	972.83
537.72	975.05
538.08	976.82
538.44	979.06
538.79	981.20
539.15	983.39
539.51	986.03
539.87	988.60
540.22	991.35
540.58	993.80
540.94	996.08
541.29	998.18
541.65	1000.48
542.01	1003.11
542.37	1005.50
542.72	1007.86
543.08	1010.46
543.44	1012.99
543.79	1014.83
544.15	1017.25
544.51	1019.82
544.87	1022.50
545.22	1024.65
545.58	1027.08
545.94	1029.05
546.29	1031.04
546.65	1033.38
547.01	1035.10
547.36	1037.17
547.72	1039.23
548.07	1041.14
548.43	1043.09
548.79	1045.28
549.14	1047.30
549.50	1048.83
549.86	1050.57
550.21	1052.34
550.57	1053.73
550.92	1055.48
551.28	1057.62
551.64	1059.52
551.99	1061.16
552.35	1062.63
552.70	1064.71
553.06	1066.60
553.41	1068.58
553.77	1070.74
554.13	1072.66
554.48	1074.68
554.84	1076.16
555.19	1077.67
555.55	1079.46
555.90	1080.95
556.26	1082.59
556.61	1084.00
556.97	1085.62
557.32	1087.42
557.68	1089.26
558.03	1091.20
558.39	1092.56
558.74	1094.33
559.10	1095.71
559.45	1097.34
559.81	1099.50
560.16	1100.67
560.52	1102.18
560.87	1103.67
561.23	1104.84
561.58	1106.45
561.94	1107.74
562.29	1109.40
562.64	1110.71
563.00	1111.88
563.35	1113.80
563.71	1115.70
564.06	1117.53
564.42	1119.19
564.77	1120.55
565.12	1121.90
565.48	1123.10
565.83	1124.23
566.19	1125.47
566.54	1126.61
566.89	1127.63
567.25	1128.38
567.60	1129.79
567.96	1130.94
568.31	1132.30
568.66	1133.34
569.02	1133.99
569.37	1134.89
569.72	1135.67
570.08	1136.20
570.43	1136.96
570.78	1137.17
571.14	1136.91
571.49	1137.13
571.84	1137.84
572.20	1137.81
572.55	1137.89
572.90	1137.56
573.26	1138.04
573.61	1137.75
573.96	1137.76
574.31	1137.19
574.67	1136.20
575.02	1135.07
575.37	1134.14
575.72	1133.00
576.08	1132.34
576.43	1131.40
576.78	1130.45
577.13	1129.64
577.49	1129.11
577.84	1128.14
578.19	1126.93
578.54	1126.00
578.90	1124.95
579.25	1122.94
579.60	1121.53
579.95	1119.82
580.30	1118.31
580.66	1116.39
581.01	1114.67
581.36	1112.88
581.71	1111.65
582.06	1110.47
582.42	1108.90
582.77	1107.24
583.12	1105.52
583.47	1103.57
583.82	1102.01
584.17	1099.96
584.53	1097.95
584.88	1095.94
585.23	1093.97
585.58	1092.06
585.93	1090.14
586.28	1087.81
586.63	1086.03
586.98	1084.36
587.34	1082.77
587.69	1081.03
588.04	1078.86
588.39	1077.05
588.74	1074.46
589.09	1072.10
589.44	1069.49
589.79	1067.53
590.14	1065.20
590.49	1062.63
590.84	1060.25
591.19	1057.97
591.54	1055.19
591.89	1051.97
592.25	1049.30
592.60	1046.35
592.95	1043.56
593.30	1040.52
593.65	1037.71
594.00	1034.68
594.35	1032.11
594.70	1028.64
595.05	1025.90
595.40	1023.17
595.75	1019.72
596.10	1017.27
596.45	1014.54
596.80	1011.85
597.15	1009.03
597.50	1006.19
597.85	1003.66
598.19	1000.87
598.54	997.84
598.89	995.58
599.24	993.15
599.59	990.20
599.94	987.59
600.29	984.86
600.64	982.03
600.99	978.96
601.34	976.32
601.69	972.59
602.04	969.71
602.39	966.47
602.74	963.70
603.08	961.23
603.43	958.42
603.78	955.22
604.13	952.42
604.48	949.27
604.83	946.06
605.18	942.98
605.53	939.52
605.87	935.78
606.22	932.47
606.57	929.26
606.92	925.98
607.27	922.89
607.62	919.80
607.96	917.02
608.31	914.10
608.66	910.86
609.01	907.70
609.36	904.34
609.70	900.51
610.05	896.55
610.40	892.75
610.75	888.94
611.10	885.52
611.44	881.51
611.79	877.79
612.14	874.20
612.49	870.31
612.83	866.61
613.18	863.28
613.53	859.69
613.88	855.71
614.22	851.90
614.57	847.71
614.92	843.84
615.27	839.89
615.61	835.96
615.96	832.00
616.31	828.50
616.65	825.32
617.00	822.18
617.35	818.97
617.70	815.44
618.04	811.65
618.39	807.72
618.74	804.27
619.08	800.52
619.43	797.09
619.78	793.68
620.12	790.29
620.47	786.72
620.82	782.82
621.16	779.49
621.51	776.30
621.85	773.07
622.20	769.48
622.55	766.11
622.89	762.89
623.24	759.85
623.59	756.68
623.93	753.40
624.28	750.04
624.62	746.63
624.97	743.30
625.32	740.27
625.66	737.45
626.01	734.24
626.35	731.08
626.70	727.60
627.04	724.41
627.39	721.11
627.73	718.05
628.08	714.85
628.43	711.54
628.77	708.36
629.12	704.92
629.46	701.70
629.81	698.07
630.15	694.73
630.50	690.98
630.84	687.38
631.19	683.90
631.53	680.49
631.88	676.89
632.22	673.60
632.57	670.28
632.91	666.64
633.26	663.24
633.60	659.96
633.95	656.82
634.29	653.41
634.64	650.44
634.98	647.09
635.32	644.43
635.67	641.80
636.01	638.78
636.36	635.63
636.70	632.87
637.05	630.16
637.39	627.26
637.73	624.55
638.08	622.08
638.42	619.08
638.77	616.43
639.11	613.81
639.45	610.73
639.80	607.80
640.14	605.19
640.49	602.30
640.83	599.51
641.17	596.82
641.52	594.27
641.86	591.41
642.20	588.80
642.55	585.80
642.89	583.10
643.23	580.18
643.58	577.77
643.92	574.95
644.26	572.18
644.61	569.64
644.95	567.15
645.29	564.19
645.64	561.44
645.98	558.56
646.32	556.01
646.66	553.30
647.01	550.68
647.35	547.86
647.69	545.30
648.04	542.87
648.38	540.07
648.72	537.08
649.06	534.30
649.41	531.68
649.75	528.92
650.09	525.96
650.43	523.22
650.78	520.53
651.12	517.73
651.46	515.30
651.80	512.64
652.14	510.08
652.49	507.72
652.83	505.39
653.17	502.78
653.51	500.12
653.85	497.88
654.20	495.42
654.54	493.02
654.88	490.60
655.22	487.90
655.56	485.53
655.90	483.32
656.25	481.26
656.59	478.97
656.93	476.67
657.27	474.65
657.61	472.40
657.95	470.43
658.29	468.44
658.64	466.20
658.98	463.90
659.32	461.54
659.66	459.09
660.00	456.99
660.34	455.00
660.68	453.03
661.02	450.85
661.36	448.83
661.70	446.73
662.05	444.80
662.39	442.86
662.73	440.93
663.07	439.11
663.41	437.18
663.75	435.30
664.09	433.52
664.43	431.49
664.77	429.82
665.11	427.83
665.45	425.97
665.79	424.07
666.13	422.30
666.47	420.54
666.81	418.77
667.15	416.75
667.49	414.90
667.83	413.01
668.17	411.36
668.51	409.52
668.85	407.82
669.19	406.08
669.53	404.53
669.87	402.91
670.21	401.22
670.55	399.44
670.89	397.77
671.23	396.39
671.57	394.83
671.91	393.11
672.25	391.49
672.58	389.97
672.92	388.51
673.26	387.23
673.60	385.76
673.94	384.37
674.28	383.15
674.62	382.03
674.96	380.58
675.30	379.26
675.64	377.98
675.97	376.71
676.31	375.50
676.65	374.16
676.99	372.75
677.33	371.46
677.67	370.21
678.01	368.86
678.34	367.27
678.68	366.00
679.02	364.75
679.36	363.42
679.70	362.11
680.04	360.80
680.37	359.23
680.71	357.95
681.05	356.84
681.39	355.55
681.73	354.20
682.06	353.25
682.40	352.00
682.74	350.82
683.08	349.70
683.42	348.56
683.75	347.38
684.09	346.26
684.43	345.03
684.77	343.91
685.10	342.83
685.44	341.81
685.78	340.65
686.12	339.53
686.45	338.39
686.79	337.21
687.13	336.11
687.46	335.02
687.80	333.95
688.14	332.76
688.48	331.68
688.81	330.45
689.15	329.40
689.49	328.39
689.82	327.35
690.16	326.13
690.50	325.05
690.83	324.05
691.17	322.94
691.51	322.10
691.84	321.17
692.18	320.20
692.52	319.11
692.85	318.12
693.19	317.24
693.52	316.42
693.86	315.62
694.20	314.69
694.53	313.87
694.87	312.91
695.21	311.90
695.54	310.90
695.88	310.12
696.21	309.16
696.55	308.32
696.88	307.50
697.22	306.61
697.56	305.80
697.89	304.97
698.23	304.29
698.56	303.30
698.90	302.43
699.23	301.63
699.57	300.96
699.90	300.20
700.24	299.37
700.58	298.49
700.91	297.72
701.25	297.08
701.58	296.47
701.92	295.74
702.25	295.17
702.59	294.48
702.92	293.85
703.26	293.19
703.59	292.46
703.93	291.90
704.26	291.40
704.60	290.78
704.93	290.04
705.26	289.28
705.60	288.61
705.93	288.01
706.27	287.47
706.60	286.73
706.94	286.23
707.27	285.71
707.61	285.17
707.94	284.54
708.27	283.87
708.61	283.23
708.94	282.88
709.28	282.33
709.61	281.91
709.94	281.36
710.28	280.80
710.61	280.45
710.95	279.77
711.28	279.32
711.61	278.71
711.95	278.27
712.28	277.76
712.61	277.36
712.95	276.96
713.28	276.42
713.61	276.01
713.95	275.42
714.28	274.85
714.61	274.41
714.95	273.92
715.28	273.41
715.61	272.80
715.95	272.20
716.28	271.67
716.61	271.26
716.95	270.78
717.28	270.27
717.61	269.62
717.94	269.19
718.28	268.69
718.61	268.21
718.94	267.70
719.27	267.36
719.61	266.92
719.94	266.40
720.27	265.92
720.60	265.46
720.94	265.07
721.27	264.80
721.60	264.43
721.93	264.01
722.27	263.77
722.60	263.58
722.93	263.14
723.26	262.73
723.59	262.23
723.93	261.89
724.26	261.62
724.59	261.30
724.92	260.97
725.25	260.72
725.59	260.42
725.92	260.28
726.25	259.85
726.58	259.58
726.91	259.26
727.24	258.99
727.57	258.71
727.91	258.34
728.24	257.95
728.57	257.51
728.90	257.24
729.23	256.77
729.56	256.46
729.89	256.16
730.22	255.88
730.55	255.67
730.89	255.36
731.22	254.92
731.55	254.62
731.88	254.28
732.21	253.90
732.54	253.61
732.87	253.18
733.20	252.93
733.53	252.62
733.86	252.38
734.19	252.04
734.52	251.75
734.85	251.62
735.18	251.37
735.51	251.26
735.84	251.08
736.17	250.98
736.50	250.61
736.83	250.60
737.16	250.35
737.49	250.09
737.82	249.87
738.15	249.70
738.48	249.50
738.81	249.37
739.14	249.13
739.47	248.83
739.80	248.73
740.13	248.62
740.46	248.40
740.79	248.22
741.12	248.06
741.45	247.90
741.78	247.62
742.11	247.43
742.44	247.16
742.77	247.00
743.10	246.77
743.43	246.65
743.75	246.28
744.08	246.41
744.41	246.20
744.74	246.03
745.07	245.91
745.40	245.73
745.73	245.58
746.06	245.40
746.39	245.32
746.71	245.10
747.04	244.80
747.37	244.57
747.70	244.31
748.03	244.23
748.36	244.10
748.68	243.99
749.01	243.71
749.34	243.54
749.67	243.29
750.00	243.11
750.33	243.10
750.65	242.98
750.98	242.63
751.31	242.44
751.64	242.34
751.97	242.27
752.29	242.23
752.62	241.93
752.95	241.78
753.28	241.55
753.60	241.40
753.93	241.34
754.26	241.35
754.59	241.28
754.91	241.01
755.24	240.85
755.57	240.67
755.90	240.66
756.22	240.52
756.55	240.41
756.88	240.19
757.20	239.90
757.53	239.68
757.86	239.51
758.19	239.48
758.51	239.31
758.84	239.12
759.17	238.88
759.49	238.89
759.82	238.79
760.15	238.74
760.47	238.64
760.80	238.42
761.13	238.27
761.45	238.06
761.78	237.90
762.11	237.79
762.43	237.70
762.76	237.51
763.08	237.37
763.41	237.26
763.74	237.19
764.06	236.96
764.39	236.88
764.71	236.72
765.04	236.62
765.37	236.48
765.69	236.39
766.02	236.22
766.34	236.06
766.67	235.92
767.00	235.90
767.32	235.89
767.65	235.91
767.97	235.75
768.30	235.69
768.62	235.58
768.95	235.44
769.27	235.27
769.60	235.23
769.92	235.21
770.25	235.09
770.57	234.95
770.90	234.92
771.22	234.81
771.55	234.75
771.87	234.59
772.20	234.52
772.52	234.48
772.85	234.70
773.17	234.75
773.50	234.76
773.82	234.55
774.15	234.32
774.47	234.25
774.80	234.23
775.12	234.20
775.45	234.19
775.77	234.15
776.09	234.12
776.42	234.04
776.74	234.07
777.07	234.00
777.39	233.99
777.72	233.98
778.04	233.99
778.36	233.86
778.69	233.77
779.01	233.62
779.33	233.48
779.66	233.24
779.98	233.11
780.31	232.96
780.63	233.06
780.95	233.02
781.28	232.95
781.60	232.89
781.92	232.86
782.25	232.86
782.57	232.84
782.89	232.90
783.22	232.87
783.54	232.66
783.86	232.65
784.19	232.70
784.51	232.65
784.83	232.57
785.16	232.58
785.48	232.60
785.80	232.62
786.12	232.61
786.45	232.64
786.77	232.59
787.09	232.65
787.42	232.68
787.74	232.75
788.06	232.86
788.38	232.73
788.71	232.62
789.03	232.63
789.35	232.66
789.67	232.55
789.99	232.64
790.32	232.67
790.64	232.65
790.96	232.65
