SpectraSuite Data File
++++++++++++++++++++++++++++++++++++
Date: Fri Feb 01 14:40:29 EST 2013
User: group
Dark Spectrum Present: No
Reference Spectrum Present: No
Number of Sampled Component Spectra: 1
Spectrometers: USB2E7196
Integration Time (usec): 70000 (USB2E7196)
Spectra Averaged: 10 (USB2E7196)
Boxcar Smoothing: 10 (USB2E7196)
Correct for Electrical Dark: No (USB2E7196)
Strobe/Lamp Enabled: No (USB2E7196)
Correct for Detector Non-linearity: No (USB2E7196)
Correct for Stray Light: No (USB2E7196)
Number of Pixels in Processed Spectrum: 2048
>>>>>Begin Processed Spectral Data<<<<<
339.09	0.00
339.48	217.30
339.86	217.80
340.24	220.20
340.63	221.10
341.01	226.00
341.39	223.10
341.78	224.90
342.16	227.10
342.54	226.80
342.93	215.24
343.31	226.16
343.69	226.66
344.07	227.09
344.46	227.49
344.84	227.79
345.22	227.86
345.60	227.98
345.99	228.30
346.37	228.31
346.75	228.36
347.13	228.37
347.52	228.36
347.90	228.48
348.28	228.50
348.66	228.51
349.05	228.44
349.43	228.41
349.81	228.52
350.19	228.52
350.57	228.55
350.96	228.59
351.34	228.55
351.72	228.60
352.10	228.72
352.48	228.77
352.87	228.86
353.25	229.01
353.63	229.15
354.01	229.05
354.39	229.30
354.77	229.38
355.15	229.52
355.54	229.59
355.92	229.64
356.30	229.62
356.68	229.79
357.06	229.85
357.44	229.81
357.82	229.85
358.20	229.99
358.58	230.10
358.97	230.17
359.35	230.36
359.73	230.48
360.11	230.51
360.49	230.52
360.87	230.60
361.25	230.62
361.63	230.80
362.01	230.87
362.39	230.78
362.77	230.81
363.15	230.81
363.53	230.71
363.91	230.66
364.29	230.64
364.67	230.41
365.05	230.37
365.43	230.41
365.81	230.43
366.19	230.48
366.57	230.60
366.95	230.54
367.33	230.41
367.71	230.38
368.09	230.32
368.47	230.37
368.85	230.22
369.23	230.12
369.61	230.03
369.99	230.00
370.37	229.90
370.75	230.00
371.13	229.84
371.51	229.84
371.89	229.80
372.27	229.79
372.65	229.81
373.03	229.78
373.41	229.71
373.78	229.56
374.16	229.32
374.54	229.12
374.92	229.07
375.30	228.90
375.68	228.79
376.06	228.85
376.44	228.68
376.82	228.73
377.19	228.77
377.57	228.60
377.95	228.43
378.33	228.32
378.71	228.10
379.09	228.14
379.47	228.14
379.84	228.01
380.22	227.94
380.60	227.75
380.98	227.59
381.36	227.57
381.73	227.46
382.11	227.47
382.49	227.31
382.87	227.29
383.25	227.30
383.62	227.53
384.00	227.37
384.38	227.31
384.76	227.20
385.13	227.09
385.51	227.11
385.89	227.09
386.27	227.07
386.64	227.00
387.02	226.92
387.40	226.86
387.78	226.78
388.15	226.70
388.53	226.69
388.91	226.80
389.29	226.65
389.66	226.68
390.04	226.68
390.42	226.79
390.79	226.77
391.17	226.68
391.55	226.35
391.92	226.27
392.30	226.25
392.68	226.20
393.05	226.31
393.43	226.29
393.81	226.27
394.18	226.29
394.56	226.35
394.94	226.41
395.31	226.34
395.69	226.47
396.06	226.68
396.44	226.87
396.82	226.81
397.19	227.00
397.57	227.17
397.95	227.20
398.32	227.15
398.70	227.26
399.07	227.45
399.45	227.52
399.82	227.68
400.20	227.85
400.58	227.93
400.95	227.83
401.33	227.95
401.70	228.25
402.08	228.31
402.45	228.39
402.83	228.50
403.20	228.70
403.58	228.85
403.95	228.82
404.33	228.98
404.71	229.15
405.08	229.37
405.46	229.42
405.83	229.71
406.21	229.91
406.58	230.03
406.96	230.16
407.33	230.40
407.70	230.58
408.08	230.87
408.45	231.19
408.83	231.52
409.20	231.77
409.58	231.90
409.95	232.22
410.33	232.49
410.70	232.67
411.08	232.96
411.45	233.19
411.82	233.61
412.20	233.87
412.57	234.40
412.95	234.69
413.32	235.18
413.69	235.40
414.07	235.81
414.44	236.39
414.82	236.90
415.19	237.44
415.56	237.96
415.94	238.47
416.31	239.11
416.68	239.68
417.06	240.34
417.43	241.00
417.81	241.78
418.18	242.75
418.55	243.59
418.93	244.49
419.30	245.49
419.67	246.25
420.04	247.23
420.42	248.20
420.79	249.37
421.16	250.33
421.54	251.61
421.91	252.89
422.28	254.07
422.66	255.37
423.03	256.77
423.40	258.05
423.77	259.41
424.15	260.66
424.52	262.14
424.89	263.68
425.26	265.17
425.64	266.60
426.01	267.99
426.38	269.60
426.75	271.13
427.13	272.85
427.50	274.67
427.87	276.50
428.24	278.13
428.61	279.80
428.99	281.86
429.36	283.86
429.73	285.85
430.10	287.82
430.47	289.76
430.85	291.78
431.22	294.02
431.59	296.54
431.96	298.97
432.33	301.40
432.70	303.81
433.08	306.74
433.45	309.35
433.82	312.08
434.19	315.00
434.56	317.79
434.93	320.41
435.30	323.23
435.68	326.10
436.05	329.11
436.42	331.91
436.79	334.47
437.16	337.14
437.53	340.03
437.90	342.70
438.27	345.54
438.64	348.38
439.01	351.03
439.38	353.10
439.75	355.12
440.13	357.72
440.50	360.10
440.87	361.86
441.24	363.85
441.61	365.97
441.98	367.55
442.35	369.41
442.72	371.21
443.09	373.01
443.46	373.91
443.83	374.55
444.20	375.05
444.57	375.92
444.94	376.33
445.31	376.68
445.68	377.31
446.05	377.44
446.42	376.97
446.79	376.55
447.16	376.27
447.53	376.11
447.90	375.00
448.27	373.88
448.64	372.34
449.01	371.27
449.37	369.23
449.74	367.36
450.11	365.21
450.48	362.82
450.85	360.20
451.22	358.20
451.59	356.07
451.96	354.13
452.33	351.38
452.70	348.95
453.07	346.12
453.43	343.17
453.80	340.38
454.17	337.87
454.54	335.31
454.91	332.53
455.28	329.78
455.65	327.13
456.02	324.75
456.38	322.75
456.75	320.12
457.12	317.85
457.49	315.65
457.86	313.46
458.23	311.53
458.59	309.57
458.96	307.53
459.33	305.66
459.70	303.77
460.07	302.38
460.43	300.79
460.80	299.20
461.17	297.59
461.54	296.13
461.91	294.48
462.27	293.10
462.64	291.80
463.01	290.44
463.38	289.20
463.74	287.73
464.11	286.40
464.48	285.32
464.85	284.20
465.21	283.34
465.58	282.35
465.95	281.20
466.32	280.10
466.68	279.06
467.05	278.09
467.42	277.00
467.78	275.88
468.15	274.81
468.52	274.01
468.88	273.21
469.25	272.37
469.62	271.83
469.98	270.99
470.35	270.25
470.72	269.47
471.08	268.71
471.45	267.94
471.82	267.29
472.18	266.48
472.55	265.92
472.92	265.14
473.28	264.55
473.65	263.98
474.02	263.38
474.38	262.84
474.75	262.28
475.11	261.84
475.48	261.49
475.85	261.10
476.21	260.66
476.58	260.19
476.94	259.71
477.31	259.23
477.67	258.94
478.04	258.57
478.41	258.31
478.77	258.15
479.14	257.90
479.50	257.58
479.87	257.40
480.23	257.20
480.60	256.93
480.96	256.72
481.33	256.65
481.69	256.65
482.06	256.63
482.42	256.62
482.79	256.58
483.15	256.47
483.52	256.47
483.88	256.51
484.25	256.50
484.61	256.55
484.98	256.55
485.34	256.51
485.71	256.64
486.07	256.76
486.44	256.73
486.80	256.89
487.17	257.02
487.53	257.27
487.90	257.44
488.26	257.76
488.62	258.03
488.99	258.36
489.35	258.63
489.72	258.95
490.08	259.30
490.44	259.68
490.81	260.06
491.17	260.39
491.54	260.85
491.90	261.39
492.26	261.99
492.63	262.65
492.99	263.33
493.36	264.08
493.72	264.88
494.08	265.70
494.45	266.54
494.81	267.54
495.17	268.39
495.54	269.43
495.90	270.40
496.26	271.40
496.63	272.43
496.99	273.62
497.35	274.82
497.72	276.33
498.08	277.77
498.44	279.33
498.80	281.10
499.17	282.73
499.53	284.43
499.89	286.21
500.26	288.15
500.62	290.20
500.98	292.20
501.34	294.19
501.71	296.51
502.07	298.85
502.43	301.27
502.79	303.72
503.16	306.51
503.52	309.38
503.88	312.25
504.24	315.27
504.60	318.60
504.97	321.91
505.33	325.07
505.69	328.71
506.05	332.46
506.41	336.22
506.78	340.14
507.14	344.18
507.50	348.44
507.86	352.90
508.22	357.30
508.59	361.89
508.95	366.76
509.31	371.82
509.67	377.01
510.03	382.26
510.39	387.80
510.75	393.11
511.12	398.89
511.48	404.88
511.84	410.97
512.20	416.90
512.56	423.25
512.92	429.76
513.28	436.44
513.64	443.05
514.00	450.10
514.37	457.14
514.73	464.35
515.09	471.64
515.45	479.04
515.81	486.71
516.17	494.55
516.53	502.60
516.89	510.57
517.25	518.69
517.61	527.23
517.97	535.60
518.33	544.20
518.69	552.92
519.05	561.93
519.41	571.11
519.77	580.73
520.13	590.29
520.49	600.08
520.85	609.49
521.21	619.20
521.57	629.22
521.93	639.05
522.29	649.40
522.65	659.68
523.01	670.08
523.37	680.59
523.73	691.49
524.09	702.25
524.45	713.19
524.81	724.24
525.17	735.29
525.53	746.79
525.89	758.08
526.25	769.46
526.61	780.69
526.97	792.26
527.33	803.63
527.68	815.58
528.04	827.29
528.40	839.58
528.76	852.17
529.12	864.05
529.48	876.57
529.84	888.50
530.20	901.13
530.56	913.78
530.91	926.70
531.27	939.22
531.63	951.79
531.99	964.50
532.35	977.29
532.71	989.45
533.07	1002.33
533.42	1015.36
533.78	1028.12
534.14	1040.94
534.50	1053.28
534.86	1066.04
535.21	1078.48
535.57	1091.52
535.93	1104.15
536.29	1116.47
536.65	1129.28
537.00	1141.61
537.36	1154.47
537.72	1166.65
538.08	1179.28
538.44	1191.23
538.79	1203.45
539.15	1215.60
539.51	1227.85
539.87	1240.37
540.22	1253.30
540.58	1265.46
540.94	1277.44
541.29	1289.62
541.65	1301.96
542.01	1314.22
542.37	1326.21
542.72	1337.72
543.08	1349.14
543.44	1360.33
543.79	1371.06
544.15	1381.95
544.51	1393.77
544.87	1404.80
545.22	1416.11
545.58	1426.65
545.94	1437.24
546.29	1447.79
546.65	1458.11
547.01	1468.07
547.36	1477.80
547.72	1487.28
548.07	1496.75
548.43	1506.57
548.79	1515.86
549.14	1524.52
549.50	1533.04
549.86	1541.88
550.21	1550.71
550.57	1559.28
550.92	1567.94
551.28	1576.71
551.64	1585.41
551.99	1593.48
552.35	1601.58
552.70	1609.29
553.06	1617.03
553.41	1625.21
553.77	1632.89
554.13	1640.71
554.48	1648.45
554.84	1655.42
555.19	1662.27
555.55	1669.35
555.90	1675.60
556.26	1682.17
556.61	1689.11
556.97	1695.98
557.32	1702.32
557.68	1709.11
558.03	1715.53
558.39	1721.88
558.74	1728.35
559.10	1734.53
559.45	1740.45
559.81	1747.11
560.16	1752.39
560.52	1757.88
560.87	1763.47
561.23	1768.65
561.58	1773.93
561.94	1779.27
562.29	1784.23
562.64	1789.08
563.00	1793.65
563.35	1799.08
563.71	1804.24
564.06	1809.50
564.42	1814.24
564.77	1818.83
565.12	1823.02
565.48	1827.26
565.83	1830.83
566.19	1834.66
566.54	1838.48
566.89	1841.90
567.25	1844.43
567.60	1848.62
567.96	1852.00
568.31	1854.77
568.66	1857.80
569.02	1860.82
569.37	1862.94
569.72	1865.77
570.08	1868.58
570.43	1870.88
570.78	1872.34
571.14	1873.65
571.49	1875.01
571.84	1877.24
572.20	1878.29
572.55	1879.10
572.90	1879.72
573.26	1881.01
573.61	1881.80
573.96	1881.66
574.31	1881.26
574.67	1880.89
575.02	1880.18
575.37	1879.82
575.72	1878.89
576.08	1878.57
576.43	1877.27
576.78	1876.40
577.13	1875.55
577.49	1874.75
577.84	1873.59
578.19	1872.78
578.54	1871.52
578.90	1869.41
579.25	1866.55
579.60	1864.66
579.95	1862.43
580.30	1860.00
580.66	1857.40
581.01	1854.52
581.36	1852.16
581.71	1850.44
582.06	1848.53
582.42	1845.59
582.77	1842.95
583.12	1840.24
583.47	1837.30
583.82	1834.78
584.17	1831.97
584.53	1829.07
584.88	1825.71
585.23	1822.79
585.58	1819.40
585.93	1816.44
586.28	1813.74
586.63	1811.08
586.98	1808.01
587.34	1805.14
587.69	1802.30
588.04	1799.64
588.39	1797.06
588.74	1792.91
589.09	1788.97
589.44	1784.77
589.79	1781.50
590.14	1778.18
590.49	1774.60
590.84	1770.43
591.19	1766.80
591.54	1762.06
591.89	1756.79
592.25	1752.46
592.60	1747.10
592.95	1742.32
593.30	1737.40
593.65	1732.30
594.00	1727.27
594.35	1723.00
594.70	1717.87
595.05	1713.06
595.40	1707.72
595.75	1701.93
596.10	1697.56
596.45	1693.02
596.80	1689.17
597.15	1684.36
597.50	1679.08
597.85	1674.57
598.19	1670.31
598.54	1665.27
598.89	1661.02
599.24	1657.29
599.59	1652.30
599.94	1648.16
600.29	1643.63
600.64	1638.75
600.99	1633.20
601.34	1628.40
601.69	1622.76
602.04	1617.87
602.39	1613.06
602.74	1608.42
603.08	1604.31
603.43	1600.10
603.78	1594.70
604.13	1589.14
604.48	1584.15
604.83	1578.89
605.18	1573.80
605.53	1567.65
605.87	1561.70
606.22	1556.27
606.57	1550.30
606.92	1545.01
607.27	1539.67
607.62	1534.20
607.96	1528.87
608.31	1524.38
608.66	1518.45
609.01	1512.37
609.36	1505.99
609.70	1499.30
610.05	1492.49
610.40	1485.89
610.75	1478.78
611.10	1472.04
611.44	1464.90
611.79	1458.47
612.14	1451.87
612.49	1444.19
612.83	1437.18
613.18	1430.68
613.53	1424.12
613.88	1417.31
614.22	1410.52
614.57	1403.67
614.92	1397.29
615.27	1390.67
615.61	1383.60
615.96	1377.17
616.31	1371.28
616.65	1365.52
617.00	1359.37
617.35	1353.06
617.70	1346.54
618.04	1339.76
618.39	1333.93
618.74	1327.85
619.08	1321.25
619.43	1315.05
619.78	1309.21
620.12	1303.44
620.47	1297.27
620.82	1290.60
621.16	1284.33
621.51	1278.31
621.85	1272.08
622.20	1265.10
622.55	1258.66
622.89	1252.40
623.24	1246.32
623.59	1240.19
623.93	1233.93
624.28	1227.74
624.62	1221.76
624.97	1216.10
625.32	1210.63
625.66	1204.88
626.01	1199.07
626.35	1192.58
626.70	1186.55
627.04	1180.93
627.39	1174.55
627.73	1168.19
628.08	1162.43
628.43	1156.50
628.77	1150.31
629.12	1144.03
629.46	1138.08
629.81	1131.55
630.15	1125.03
630.50	1118.43
630.84	1111.57
631.19	1104.86
631.53	1098.70
631.88	1092.04
632.22	1085.03
632.57	1078.56
632.91	1071.60
633.26	1065.16
633.60	1059.11
633.95	1052.81
634.29	1046.33
634.64	1040.78
634.98	1034.56
635.32	1028.57
635.67	1022.93
636.01	1017.20
636.36	1011.26
636.70	1005.61
637.05	1000.38
637.39	995.11
637.73	989.44
638.08	984.44
638.42	979.44
638.77	973.94
639.11	968.45
639.45	963.10
639.80	957.46
640.14	952.30
640.49	946.94
640.83	941.47
641.17	936.07
641.52	930.70
641.86	925.01
642.20	919.92
642.55	914.52
642.89	908.87
643.23	903.30
643.58	898.28
643.92	892.75
644.26	887.17
644.61	881.97
644.95	876.91
645.29	870.89
645.64	864.90
645.98	859.40
646.32	854.51
646.66	849.15
647.01	844.06
647.35	838.73
647.69	833.40
648.04	828.42
648.38	823.02
648.72	817.40
649.06	812.08
649.41	806.97
649.75	801.26
650.09	796.08
650.43	790.68
650.78	785.21
651.12	779.93
651.46	774.78
651.80	769.54
652.14	764.53
652.49	759.84
652.83	755.15
653.17	750.22
653.51	744.96
653.85	740.17
654.20	735.10
654.54	729.81
654.88	724.80
655.22	719.64
655.56	714.65
655.90	710.07
656.25	705.47
656.59	700.54
656.93	696.01
657.27	691.40
657.61	686.69
657.95	682.28
658.29	677.89
658.64	673.41
658.98	668.75
659.32	663.81
659.66	659.28
660.00	654.59
660.34	650.14
660.68	645.72
661.02	641.06
661.36	637.03
661.70	633.02
662.05	629.12
662.39	625.23
662.73	621.34
663.07	617.45
663.41	613.65
663.75	609.86
664.09	606.16
664.43	602.27
664.77	598.64
665.11	595.00
665.45	591.36
665.79	587.53
666.13	583.77
666.47	580.37
666.81	576.72
667.15	573.13
667.49	569.50
667.83	566.31
668.17	563.02
668.51	559.37
668.85	556.10
669.19	552.75
669.53	549.33
669.87	546.00
670.21	542.61
670.55	539.21
670.89	536.16
671.23	533.14
671.57	530.14
671.91	527.03
672.25	523.88
672.58	520.87
672.92	517.89
673.26	515.09
673.60	512.25
673.94	509.51
674.28	506.91
674.62	504.33
674.96	501.41
675.30	498.85
675.64	496.06
675.97	493.30
676.31	490.57
676.65	488.02
676.99	485.51
677.33	482.93
677.67	480.39
678.01	477.74
678.34	475.10
678.68	472.50
679.02	470.04
679.36	467.26
679.70	464.68
680.04	462.25
680.37	459.71
680.71	457.30
681.05	454.95
681.39	452.58
681.73	450.15
682.06	447.95
682.40	445.53
682.74	443.34
683.08	441.14
683.42	438.95
683.75	436.62
684.09	434.12
684.43	431.81
684.77	429.29
685.10	427.02
685.44	424.78
685.78	422.63
686.12	420.49
686.45	418.56
686.79	416.44
687.13	414.54
687.46	412.50
687.80	410.41
688.14	408.15
688.48	406.15
688.81	403.99
689.15	401.93
689.49	399.83
689.82	397.87
690.16	395.87
690.50	393.97
690.83	392.11
691.17	390.37
691.51	388.79
691.84	387.43
692.18	385.55
692.52	383.70
692.85	381.83
693.19	380.06
693.52	378.28
693.86	376.46
694.20	374.60
694.53	372.86
694.87	371.16
695.21	369.47
695.54	367.79
695.88	366.10
696.21	364.35
696.55	362.92
696.88	361.46
697.22	359.87
697.56	358.25
697.89	356.77
698.23	355.10
698.56	353.39
698.90	351.66
699.23	350.13
699.57	348.82
699.90	347.29
700.24	345.75
700.58	344.39
700.91	342.95
701.25	341.71
701.58	340.50
701.92	339.17
702.25	337.84
702.59	336.55
702.92	335.31
703.26	334.04
703.59	332.72
703.93	331.63
704.26	330.42
704.60	329.23
704.93	328.09
705.26	327.07
705.60	326.06
705.93	325.04
706.27	324.03
706.60	322.80
706.94	321.77
707.27	320.67
707.61	319.55
707.94	318.48
708.27	317.25
708.61	316.14
708.94	315.08
709.28	314.21
709.61	313.28
709.94	312.51
710.28	311.60
710.61	310.70
710.95	309.51
711.28	308.73
711.61	307.80
711.95	306.86
712.28	305.90
712.61	304.91
712.95	304.00
713.28	303.19
713.61	302.41
713.95	301.60
714.28	301.00
714.61	300.21
714.95	299.53
715.28	298.69
715.61	297.85
715.95	297.00
716.28	296.08
716.61	295.16
716.95	294.41
717.28	293.74
717.61	293.10
717.94	292.40
718.28	291.48
718.61	290.75
718.94	290.01
719.27	289.40
719.61	288.87
719.94	288.15
720.27	287.30
720.60	286.62
720.94	285.95
721.27	285.10
721.60	284.54
721.93	283.94
722.27	283.60
722.60	283.20
722.93	282.70
723.26	282.34
723.59	281.84
723.93	281.12
724.26	280.57
724.59	279.91
724.92	279.40
725.25	278.85
725.59	278.25
725.92	277.61
726.25	277.00
726.58	276.32
726.91	275.84
727.24	275.43
727.57	274.90
727.91	274.41
728.24	273.98
728.57	273.47
728.90	273.02
729.23	272.40
729.56	271.74
729.89	271.26
730.22	270.60
730.55	270.16
730.89	269.70
731.22	269.19
731.55	268.71
731.88	268.14
732.21	267.77
732.54	267.32
732.87	266.98
733.20	266.63
733.53	266.30
733.86	265.94
734.19	265.50
734.52	265.00
734.85	264.69
735.18	264.29
735.51	263.80
735.84	263.28
736.17	262.84
736.50	262.40
736.83	262.16
737.16	261.78
737.49	261.47
737.82	261.08
738.15	260.74
738.48	260.44
738.81	260.01
739.14	259.60
739.47	259.21
739.80	258.79
740.13	258.41
740.46	257.94
740.79	257.49
741.12	257.13
741.45	256.77
741.78	256.27
742.11	255.93
742.44	255.55
742.77	255.30
743.10	254.98
743.43	254.73
743.75	254.33
744.08	254.21
744.41	253.80
744.74	253.47
745.07	253.17
745.40	252.86
745.73	252.82
746.06	252.60
746.39	252.46
746.71	252.20
747.04	251.93
747.37	251.76
747.70	251.61
748.03	251.30
748.36	251.14
748.68	250.94
749.01	250.64
749.34	250.43
749.67	250.31
750.00	250.02
750.33	249.90
750.65	249.62
750.98	249.30
751.31	249.10
751.64	248.91
751.97	248.82
752.29	248.61
752.62	248.34
752.95	248.14
753.28	247.89
753.60	247.73
753.93	247.62
754.26	247.35
754.59	247.07
754.91	246.88
755.24	246.72
755.57	246.49
755.90	246.46
756.22	246.29
756.55	246.01
756.88	245.92
757.20	245.62
757.53	245.42
757.86	245.22
758.19	245.14
758.51	244.87
758.84	244.63
759.17	244.47
759.49	244.37
759.82	244.26
760.15	244.17
760.47	244.06
760.80	243.82
761.13	243.77
761.45	243.58
761.78	243.56
762.11	243.39
762.43	243.29
762.76	243.10
763.08	243.04
763.41	242.83
763.74	242.67
764.06	242.66
764.39	242.41
764.71	242.32
765.04	242.04
765.37	241.92
765.69	241.66
766.02	241.43
766.34	241.11
766.67	240.87
767.00	240.74
767.32	240.62
767.65	240.63
767.97	240.41
768.30	240.37
768.62	240.07
768.95	239.88
769.27	239.72
769.60	239.52
769.92	239.25
770.25	239.10
770.57	238.94
770.90	238.60
771.22	238.53
771.55	238.30
771.87	238.10
772.20	238.00
772.52	238.11
772.85	238.19
773.17	238.18
773.50	238.09
773.82	237.85
774.15	237.56
774.47	237.26
774.80	237.10
775.12	236.93
775.45	236.94
775.77	236.87
776.09	236.75
776.42	236.65
776.74	236.61
777.07	236.53
777.39	236.43
777.72	236.43
778.04	236.36
778.36	236.36
778.69	236.30
779.01	236.22
779.33	235.83
779.66	235.52
779.98	235.40
780.31	235.36
780.63	235.33
780.95	235.38
781.28	235.30
781.60	235.17
781.92	235.05
782.25	234.90
782.57	234.84
782.89	234.71
783.22	234.62
783.54	234.43
783.86	234.35
784.19	234.22
784.51	234.05
784.83	233.91
785.16	233.76
785.48	233.80
785.80	233.78
786.12	233.82
786.45	233.71
786.77	233.62
787.09	233.40
787.42	233.35
787.74	233.28
788.06	233.21
