SpectraSuite Data File
++++++++++++++++++++++++++++++++++++
Date: Fri Feb 01 14:41:48 EST 2013
User: group
Dark Spectrum Present: No
Reference Spectrum Present: No
Number of Sampled Component Spectra: 1
Spectrometers: USB2E7196
Integration Time (usec): 70000 (USB2E7196)
Spectra Averaged: 10 (USB2E7196)
Boxcar Smoothing: 10 (USB2E7196)
Correct for Electrical Dark: No (USB2E7196)
Strobe/Lamp Enabled: No (USB2E7196)
Correct for Detector Non-linearity: No (USB2E7196)
Correct for Stray Light: No (USB2E7196)
Number of Pixels in Processed Spectrum: 2048
>>>>>Begin Processed Spectral Data<<<<<
339.09	0.00
339.48	215.20
339.86	218.10
340.24	217.70
340.63	220.20
341.01	224.30
341.39	224.30
341.78	223.10
342.16	225.70
342.54	225.40
342.93	214.19
343.31	224.97
343.69	225.56
344.07	225.99
344.46	226.57
344.84	226.92
345.22	227.15
345.60	227.38
345.99	227.61
346.37	227.73
346.75	227.90
347.13	228.02
347.52	228.23
347.90	228.40
348.28	228.38
348.66	228.47
349.05	228.59
349.43	228.64
349.81	228.83
350.19	228.93
350.57	228.91
350.96	229.13
351.34	229.34
351.72	229.41
352.10	229.51
352.48	229.54
352.87	229.67
353.25	229.73
353.63	229.85
354.01	229.97
354.39	230.17
354.77	230.20
355.15	230.40
355.54	230.43
355.92	230.41
356.30	230.57
356.68	230.75
357.06	230.74
357.44	230.87
357.82	230.85
358.20	230.92
358.58	231.08
358.97	231.13
359.35	231.20
359.73	231.38
360.11	231.50
360.49	231.57
360.87	231.69
361.25	231.69
361.63	231.76
362.01	231.78
362.39	231.73
362.77	231.88
363.15	231.83
363.53	231.91
363.91	232.01
364.29	231.97
364.67	231.82
365.05	231.82
365.43	231.83
365.81	231.81
366.19	231.84
366.57	231.87
366.95	231.76
367.33	231.68
367.71	231.60
368.09	231.56
368.47	231.54
368.85	231.49
369.23	231.49
369.61	231.37
369.99	231.50
370.37	231.51
370.75	231.51
371.13	231.45
371.51	231.32
371.89	231.24
372.27	231.33
372.65	231.27
373.03	231.17
373.41	231.12
373.78	231.13
374.16	231.01
374.54	230.85
374.92	230.83
375.30	230.82
375.68	230.65
376.06	230.61
376.44	230.40
376.82	230.30
377.19	230.26
377.57	230.16
377.95	229.90
378.33	229.69
378.71	229.47
379.09	229.50
379.47	229.40
379.84	229.25
380.22	229.13
380.60	229.00
380.98	228.96
381.36	228.78
381.73	228.55
382.11	228.42
382.49	228.35
382.87	228.29
383.25	228.22
383.62	228.48
384.00	228.36
384.38	228.37
384.76	228.29
385.13	228.23
385.51	228.15
385.89	228.10
386.27	228.09
386.64	228.08
387.02	227.90
387.40	227.75
387.78	227.60
388.15	227.48
388.53	227.50
388.91	227.39
389.29	227.34
389.66	227.33
390.04	227.46
390.42	227.47
390.79	227.52
391.17	227.47
391.55	227.23
391.92	227.26
392.30	227.26
392.68	227.13
393.05	227.23
393.43	227.26
393.81	227.30
394.18	227.30
394.56	227.33
394.94	227.48
395.31	227.65
395.69	227.82
396.06	228.00
396.44	228.00
396.82	228.11
397.19	228.29
397.57	228.38
397.95	228.37
398.32	228.46
398.70	228.50
399.07	228.63
399.45	228.71
399.82	228.83
400.20	228.95
400.58	229.17
400.95	229.14
401.33	229.31
401.70	229.48
402.08	229.63
402.45	229.79
402.83	229.95
403.20	230.04
403.58	230.23
403.95	230.36
404.33	230.60
404.71	230.85
405.08	231.18
405.46	231.49
405.83	231.76
406.21	231.92
406.58	232.18
406.96	232.35
407.33	232.62
407.70	232.87
408.08	233.35
408.45	233.71
408.83	234.10
409.20	234.43
409.58	234.76
409.95	235.21
410.33	235.52
410.70	235.89
411.08	236.41
411.45	236.71
411.82	237.16
412.20	237.65
412.57	238.36
412.95	238.62
413.32	239.11
413.69	239.61
414.07	240.27
414.44	240.88
414.82	241.52
415.19	242.37
415.56	243.01
415.94	243.63
416.31	244.54
416.68	245.38
417.06	246.41
417.43	247.41
417.81	248.49
418.18	249.67
418.55	250.76
418.93	251.98
419.30	253.36
419.67	254.62
420.04	255.93
420.42	257.15
420.79	258.95
421.16	260.57
421.54	262.22
421.91	263.97
422.28	265.65
422.66	267.63
423.03	269.42
423.40	271.38
423.77	273.32
424.15	275.25
424.52	277.33
424.89	279.50
425.26	281.75
425.64	283.80
426.01	286.11
426.38	288.43
426.75	290.64
427.13	293.10
427.50	295.60
427.87	298.24
428.24	300.85
428.61	303.34
428.99	306.17
429.36	309.17
429.73	311.99
430.10	314.97
430.47	317.73
430.85	320.50
431.22	323.70
431.59	327.16
431.96	330.35
432.33	333.78
432.70	337.17
433.08	341.04
433.45	344.68
433.82	348.26
434.19	352.50
434.56	356.53
434.93	360.30
435.30	364.12
435.68	368.08
436.05	372.18
436.42	376.05
436.79	379.51
437.16	383.40
437.53	387.50
437.90	391.36
438.27	395.43
438.64	399.46
439.01	403.15
439.38	406.15
439.75	409.14
440.13	412.59
440.50	415.94
440.87	418.49
441.24	421.22
441.61	424.26
441.98	426.30
442.35	428.73
442.72	431.21
443.09	433.63
443.46	435.05
443.83	435.78
444.20	436.52
444.57	437.70
444.94	437.98
445.31	438.36
445.68	438.82
446.05	438.81
446.42	438.42
446.79	437.77
447.16	437.17
447.53	436.72
447.90	435.27
448.27	433.54
448.64	431.32
449.01	429.74
449.37	426.90
449.74	424.05
450.11	421.11
450.48	417.71
450.85	414.10
451.22	411.18
451.59	408.30
451.96	405.51
452.33	401.91
452.70	398.51
453.07	394.56
453.43	390.61
453.80	386.69
454.17	382.84
454.54	379.16
454.91	375.33
455.28	371.67
455.65	368.03
456.02	364.66
456.38	361.70
456.75	357.90
457.12	354.53
457.49	351.32
457.86	348.06
458.23	345.30
458.59	342.48
458.96	339.46
459.33	336.80
459.70	334.08
460.07	331.81
460.43	329.40
460.80	327.09
461.17	325.02
461.54	322.90
461.91	320.77
462.27	318.79
462.64	316.97
463.01	314.96
463.38	313.20
463.74	311.17
464.11	309.35
464.48	307.94
464.85	306.46
465.21	305.33
465.58	304.08
465.95	302.58
466.32	301.27
466.68	299.95
467.05	298.60
467.42	297.34
467.78	295.96
468.15	294.70
468.52	293.69
468.88	292.37
469.25	291.11
469.62	290.29
469.98	289.22
470.35	288.34
470.72	287.48
471.08	286.41
471.45	285.47
471.82	284.60
472.18	283.60
472.55	282.94
472.92	282.12
473.28	281.31
473.65	280.62
474.02	279.93
474.38	279.38
474.75	278.82
475.11	278.18
475.48	277.64
475.85	277.18
476.21	276.70
476.58	276.33
476.94	276.08
477.31	275.71
477.67	275.29
478.04	274.98
478.41	274.59
478.77	274.56
479.14	274.49
479.50	274.43
479.87	274.44
480.23	274.51
480.60	274.49
480.96	274.44
481.33	274.57
481.69	274.56
482.06	274.68
482.42	274.83
482.79	275.02
483.15	275.44
483.52	275.80
483.88	276.06
484.25	276.37
484.61	276.65
484.98	277.01
485.34	277.74
485.71	278.32
486.07	278.93
486.44	279.46
486.80	280.12
487.17	280.92
487.53	281.75
487.90	282.57
488.26	283.62
488.62	284.80
488.99	285.69
489.35	286.94
489.72	288.13
490.08	289.46
490.44	290.91
490.81	292.37
491.17	293.93
491.54	295.67
491.90	297.41
492.26	299.48
492.63	301.46
492.99	303.40
493.36	305.60
493.72	308.11
494.08	310.48
494.45	312.96
494.81	315.81
495.17	318.63
495.54	321.68
495.90	324.72
496.26	328.00
496.63	331.67
496.99	335.21
497.35	339.17
497.72	343.30
498.08	347.48
498.44	351.81
498.80	356.55
499.17	361.37
499.53	366.33
499.89	371.59
500.26	377.10
500.62	382.78
500.98	388.81
501.34	394.88
501.71	401.52
502.07	408.38
502.43	415.06
502.79	422.26
503.16	429.69
503.52	437.31
503.88	445.01
504.24	453.22
504.60	461.88
504.97	470.70
505.33	479.73
505.69	489.09
506.05	498.83
506.41	508.76
506.78	519.05
507.14	529.78
507.50	540.84
507.86	552.20
508.22	563.90
508.59	575.53
508.95	587.89
509.31	600.30
509.67	613.39
510.03	626.74
510.39	640.14
510.75	654.13
511.12	668.45
511.48	683.02
511.84	697.89
512.20	713.02
512.56	728.56
512.92	744.50
513.28	760.91
513.64	777.38
514.00	793.96
514.37	811.17
514.73	828.42
515.09	845.60
515.45	863.26
515.81	881.48
516.17	900.42
516.53	919.15
516.89	937.98
517.25	956.80
517.61	975.89
517.97	995.41
518.33	1014.56
518.69	1034.40
519.05	1054.71
519.41	1075.18
519.77	1095.89
520.13	1116.74
520.49	1137.89
520.85	1158.97
521.21	1180.30
521.57	1202.37
521.93	1223.45
522.29	1245.67
522.65	1267.77
523.01	1289.72
523.37	1311.15
523.73	1333.13
524.09	1355.03
524.45	1377.63
524.81	1400.24
525.17	1423.57
525.53	1446.83
525.89	1470.10
526.25	1493.48
526.61	1516.47
526.97	1539.76
527.33	1563.06
527.68	1586.39
528.04	1608.95
528.40	1632.34
528.76	1656.34
529.12	1679.69
529.48	1703.67
529.84	1726.24
530.20	1749.76
530.56	1773.89
530.91	1798.82
531.27	1822.73
531.63	1846.48
531.99	1870.01
532.35	1892.92
532.71	1915.33
533.07	1938.16
533.42	1961.02
533.78	1983.55
534.14	2006.18
534.50	2027.82
534.86	2050.23
535.21	2071.70
535.57	2094.87
535.93	2116.66
536.29	2137.59
536.65	2158.97
537.00	2179.96
537.36	2201.84
537.72	2222.43
538.08	2242.72
538.44	2261.89
538.79	2281.66
539.15	2300.98
539.51	2320.89
539.87	2341.67
540.22	2361.38
540.58	2381.25
540.94	2400.46
541.29	2419.26
541.65	2437.90
542.01	2457.71
542.37	2476.13
542.72	2494.36
543.08	2511.52
543.44	2528.81
543.79	2545.70
544.15	2562.08
544.51	2579.59
544.87	2596.28
545.22	2612.54
545.58	2628.26
545.94	2643.58
546.29	2658.61
546.65	2674.15
547.01	2688.19
547.36	2701.73
547.72	2715.28
548.07	2728.10
548.43	2741.45
548.79	2754.12
549.14	2766.53
549.50	2777.24
549.86	2788.26
550.21	2799.58
550.57	2811.04
550.92	2822.29
551.28	2832.93
551.64	2843.95
551.99	2853.62
552.35	2863.15
552.70	2873.34
553.06	2883.21
553.41	2893.45
553.77	2902.51
554.13	2911.43
554.48	2920.68
554.84	2929.61
555.19	2938.74
555.55	2947.32
555.90	2954.71
556.26	2963.08
556.61	2970.93
556.97	2978.62
557.32	2986.18
557.68	2993.77
558.03	3000.40
558.39	3007.22
558.74	3015.09
559.10	3021.46
559.45	3028.05
559.81	3035.78
560.16	3041.36
560.52	3047.00
560.87	3053.16
561.23	3058.45
561.58	3063.70
561.94	3068.03
562.29	3071.73
562.64	3075.10
563.00	3078.90
563.35	3084.12
563.71	3088.50
564.06	3093.07
564.42	3097.03
564.77	3101.55
565.12	3104.85
565.48	3108.85
565.83	3111.82
566.19	3114.18
566.54	3116.51
566.89	3118.72
567.25	3119.73
567.60	3122.40
567.96	3124.39
568.31	3125.14
568.66	3126.52
569.02	3127.95
569.37	3128.70
569.72	3129.87
570.08	3130.68
570.43	3131.21
570.78	3130.57
571.14	3129.41
571.49	3128.28
571.84	3128.53
572.20	3126.12
572.55	3124.67
572.90	3121.67
573.26	3119.61
573.61	3117.86
573.96	3115.84
574.31	3112.08
574.67	3107.73
575.02	3103.42
575.37	3099.79
575.72	3094.97
576.08	3091.21
576.43	3086.45
576.78	3082.22
577.13	3078.06
577.49	3073.86
577.84	3069.11
578.19	3064.07
578.54	3058.54
578.90	3052.33
579.25	3045.02
579.60	3039.40
579.95	3032.91
580.30	3026.76
580.66	3019.68
581.01	3011.62
581.36	3004.31
581.71	2998.60
582.06	2992.76
582.42	2985.60
582.77	2977.87
583.12	2970.85
583.47	2963.90
583.82	2957.41
584.17	2950.35
584.53	2943.29
584.88	2935.69
585.23	2928.53
585.58	2921.20
585.93	2914.50
586.28	2907.85
586.63	2901.32
586.98	2894.33
587.34	2887.31
587.69	2880.00
588.04	2873.19
588.39	2866.88
588.74	2857.94
589.09	2849.33
589.44	2839.99
589.79	2832.41
590.14	2825.21
590.49	2817.19
590.84	2808.20
591.19	2799.13
591.54	2789.47
591.89	2778.69
592.25	2769.72
592.60	2759.24
592.95	2749.28
593.30	2738.81
593.65	2728.69
594.00	2718.09
594.35	2708.77
594.70	2698.27
595.05	2688.93
595.40	2678.91
595.75	2667.86
596.10	2659.31
596.45	2650.36
596.80	2642.03
597.15	2632.62
597.50	2622.71
597.85	2613.74
598.19	2604.83
598.54	2595.80
598.89	2587.29
599.24	2579.50
599.59	2570.18
599.94	2561.72
600.29	2552.45
600.64	2543.34
600.99	2533.61
601.34	2524.83
601.69	2514.43
602.04	2505.58
602.39	2495.89
602.74	2486.60
603.08	2478.01
603.43	2468.76
603.78	2458.98
604.13	2448.65
604.48	2438.51
604.83	2428.48
605.18	2418.73
605.53	2408.04
605.87	2396.76
606.22	2386.72
606.57	2375.90
606.92	2365.91
607.27	2355.88
607.62	2346.58
607.96	2336.64
608.31	2327.25
608.66	2316.71
609.01	2305.78
609.36	2294.66
609.70	2282.55
610.05	2270.87
610.40	2259.48
610.75	2248.14
611.10	2236.60
611.44	2224.77
611.79	2213.80
612.14	2202.53
612.49	2190.43
612.83	2178.71
613.18	2167.50
613.53	2156.26
613.88	2144.55
614.22	2132.51
614.57	2120.29
614.92	2108.42
615.27	2097.56
615.61	2085.69
615.96	2074.14
616.31	2063.91
616.65	2053.80
617.00	2044.19
617.35	2033.56
617.70	2022.49
618.04	2010.97
618.39	2000.08
618.74	1990.05
619.08	1979.01
619.43	1968.36
619.78	1958.02
620.12	1947.87
620.47	1937.44
620.82	1926.08
621.16	1915.39
621.51	1905.38
621.85	1895.00
622.20	1883.46
622.55	1872.46
622.89	1862.22
623.24	1852.30
623.59	1842.05
623.93	1831.40
624.28	1821.09
624.62	1810.83
624.97	1800.72
625.32	1791.44
625.66	1781.59
626.01	1771.62
626.35	1761.17
626.70	1750.60
627.04	1740.36
627.39	1729.71
627.73	1719.44
628.08	1709.91
628.43	1700.05
628.77	1690.04
629.12	1679.54
629.46	1669.81
629.81	1658.96
630.15	1648.25
630.50	1637.64
630.84	1626.18
631.19	1615.00
631.53	1604.18
631.88	1593.10
632.22	1582.16
632.57	1571.68
632.91	1560.80
633.26	1549.92
633.60	1539.67
633.95	1529.43
634.29	1519.45
634.64	1509.81
634.98	1499.81
635.32	1489.82
635.67	1480.52
636.01	1470.85
636.36	1461.23
636.70	1451.96
637.05	1442.92
637.39	1434.03
637.73	1424.93
638.08	1416.70
638.42	1408.16
638.77	1399.02
639.11	1390.28
639.45	1381.73
639.80	1372.30
640.14	1363.42
640.49	1354.44
640.83	1345.44
641.17	1337.14
641.52	1328.06
641.86	1318.98
642.20	1310.34
642.55	1301.19
642.89	1292.04
643.23	1282.74
643.58	1274.46
643.92	1265.68
644.26	1256.89
644.61	1248.30
644.95	1239.73
645.29	1230.13
645.64	1220.71
645.98	1211.91
646.32	1203.51
646.66	1194.53
647.01	1186.10
647.35	1177.79
647.69	1169.22
648.04	1161.25
648.38	1152.09
648.72	1143.47
649.06	1134.69
649.41	1126.35
649.75	1117.53
650.09	1108.83
650.43	1100.24
650.78	1091.46
651.12	1082.58
651.46	1074.55
651.80	1066.12
652.14	1057.93
652.49	1050.19
652.83	1042.80
653.17	1034.58
653.51	1026.52
653.85	1018.62
654.20	1010.36
654.54	1001.87
654.88	993.99
655.22	985.42
655.56	977.33
655.90	969.51
656.25	961.99
656.59	953.93
656.93	946.82
657.27	939.53
657.61	931.70
657.95	924.61
658.29	917.63
658.64	909.64
658.98	901.89
659.32	894.29
659.66	887.19
660.00	879.82
660.34	872.87
660.68	865.66
661.02	858.70
661.36	851.99
661.70	845.78
662.05	839.45
662.39	833.24
662.73	826.97
663.07	820.65
663.41	814.70
663.75	808.77
664.09	802.71
664.43	796.42
664.77	790.58
665.11	784.39
665.45	778.32
665.79	772.61
666.13	766.86
666.47	761.19
666.81	754.88
667.15	749.05
667.49	743.54
667.83	738.15
668.17	732.55
668.51	726.88
668.85	721.20
669.19	715.82
669.53	710.50
669.87	704.99
670.21	699.86
670.55	694.56
670.89	689.65
671.23	684.56
671.57	679.48
671.91	674.70
672.25	669.67
672.58	664.95
672.92	660.45
673.26	656.09
673.60	651.42
673.94	647.29
674.28	642.95
674.62	638.62
674.96	634.15
675.30	629.82
675.64	625.81
675.97	621.59
676.31	617.34
676.65	613.22
676.99	609.62
677.33	605.40
677.67	601.39
678.01	597.07
678.34	592.89
678.68	589.19
679.02	585.13
679.36	581.54
679.70	577.77
680.04	573.97
680.37	569.79
680.71	566.06
681.05	562.34
681.39	558.84
681.73	555.14
682.06	551.80
682.40	548.67
682.74	545.15
683.08	541.81
683.42	538.42
683.75	535.12
684.09	531.51
684.43	528.30
684.77	524.78
685.10	521.54
685.44	518.33
685.78	515.10
686.12	512.00
686.45	508.63
686.79	505.22
687.13	501.92
687.46	498.98
687.80	495.84
688.14	492.58
688.48	489.18
688.81	486.05
689.15	482.97
689.49	479.74
689.82	476.78
690.16	473.79
690.50	471.09
690.83	468.08
691.17	465.30
691.51	462.32
691.84	459.78
692.18	456.94
692.52	454.19
692.85	451.29
693.19	448.70
693.52	446.03
693.86	443.40
694.20	440.90
694.53	438.30
694.87	435.60
695.21	433.09
695.54	430.67
695.88	428.07
696.21	425.52
696.55	422.98
696.88	420.44
697.22	417.93
697.56	415.39
697.89	412.98
698.23	410.56
698.56	408.48
698.90	406.03
699.23	403.64
699.57	401.30
699.90	399.17
700.24	396.86
700.58	394.71
700.91	392.62
701.25	390.65
701.58	388.65
701.92	386.59
702.25	384.53
702.59	382.65
702.92	380.83
703.26	378.88
703.59	377.10
703.93	375.45
704.26	373.69
704.60	371.80
704.93	370.06
705.26	368.19
705.60	366.41
705.93	364.89
706.27	363.51
706.60	361.92
706.94	360.35
707.27	358.69
707.61	357.22
707.94	355.75
708.27	354.03
708.61	352.49
708.94	351.07
709.28	349.84
709.61	348.47
709.94	347.13
710.28	345.83
710.61	344.41
710.95	342.78
711.28	341.52
711.61	340.12
711.95	338.81
712.28	337.41
712.61	336.09
712.95	334.79
713.28	333.52
713.61	332.18
713.95	330.83
714.28	329.65
714.61	328.27
714.95	327.07
715.28	325.94
715.61	324.74
715.95	323.68
716.28	322.39
716.61	321.19
716.95	320.06
717.28	318.98
717.61	318.04
717.94	317.13
718.28	315.88
718.61	314.84
718.94	313.83
719.27	313.03
719.61	312.08
719.94	311.10
720.27	310.03
720.60	309.18
720.94	308.45
721.27	307.64
721.60	306.90
721.93	306.19
722.27	305.47
722.60	304.66
722.93	303.77
723.26	303.05
723.59	302.21
723.93	301.35
724.26	300.62
724.59	299.63
724.92	298.90
725.25	298.30
725.59	297.56
725.92	296.88
726.25	296.10
726.58	295.37
726.91	294.55
727.24	293.83
727.57	293.10
727.91	292.29
728.24	291.53
728.57	290.73
728.90	289.89
729.23	289.03
729.56	288.44
729.89	287.72
730.22	286.91
730.55	286.28
730.89	285.88
731.22	285.14
731.55	284.60
731.88	283.95
732.21	283.23
732.54	282.51
732.87	281.91
733.20	281.21
733.53	280.59
733.86	280.05
734.19	279.40
734.52	278.87
734.85	278.32
735.18	277.76
735.51	277.17
735.84	276.68
736.17	276.08
736.50	275.43
736.83	275.06
737.16	274.50
737.49	273.91
737.82	273.19
738.15	272.61
738.48	272.13
738.81	271.51
739.14	270.98
739.47	270.55
739.80	269.97
740.13	269.51
740.46	268.99
740.79	268.48
741.12	267.91
741.45	267.40
741.78	266.93
742.11	266.57
742.44	266.11
742.77	265.61
743.10	265.20
743.43	264.74
743.75	264.12
744.08	263.95
744.41	263.47
744.74	263.08
745.07	262.58
745.40	262.05
745.73	261.70
746.06	261.27
746.39	260.90
746.71	260.37
747.04	260.00
747.37	259.64
747.70	259.21
748.03	258.90
748.36	258.48
748.68	258.06
749.01	257.55
749.34	257.22
749.67	256.86
750.00	256.50
750.33	256.20
750.65	255.89
750.98	255.35
751.31	255.06
751.64	254.74
751.97	254.64
752.29	254.48
752.62	254.22
752.95	253.92
753.28	253.55
753.60	253.36
753.93	253.08
754.26	252.78
754.59	252.48
754.91	252.25
755.24	252.01
755.57	251.74
755.90	251.43
756.22	251.13
756.55	250.93
756.88	250.71
757.20	250.36
757.53	250.09
757.86	249.93
758.19	249.79
758.51	249.48
758.84	249.09
759.17	248.79
759.49	248.59
759.82	248.54
760.15	248.47
760.47	248.24
760.80	247.98
761.13	247.74
761.45	247.60
761.78	247.36
762.11	247.18
762.43	247.01
762.76	246.85
763.08	246.67
763.41	246.49
763.74	246.28
764.06	246.16
764.39	246.02
764.71	245.84
765.04	245.63
765.37	245.51
765.69	245.34
766.02	245.16
766.34	244.89
766.67	244.54
767.00	244.32
767.32	244.22
767.65	244.25
767.97	244.10
768.30	243.85
768.62	243.74
768.95	243.56
769.27	243.43
769.60	243.30
769.92	243.15
770.25	242.95
770.57	242.83
770.90	242.61
771.22	242.40
771.55	242.22
771.87	242.07
772.20	241.91
772.52	242.00
772.85	242.02
773.17	241.90
773.50	241.76
773.82	241.64
774.15	241.40
774.47	241.04
774.80	240.79
775.12	240.57
775.45	240.32
775.77	240.24
776.09	240.01
776.42	239.89
776.74	239.77
777.07	239.55
777.39	239.27
777.72	239.15
778.04	238.95
778.36	238.69
778.69	238.42
779.01	238.18
779.33	237.74
779.66	237.46
779.98	237.30
780.31	237.18
780.63	236.99
780.95	236.92
781.28	236.75
781.60	236.75
781.92	236.80
782.25	236.66
782.57	236.45
782.89	236.36
783.22	236.20
783.54	236.04
783.86	235.91
784.19	235.79
784.51	235.76
784.83	235.68
785.16	235.57
785.48	235.45
785.80	235.49
