SpectraSuite Data File
++++++++++++++++++++++++++++++++++++
Date: Fri Feb 01 14:35:26 EST 2013
User: group
Dark Spectrum Present: No
Reference Spectrum Present: No
Number of Sampled Component Spectra: 1
Spectrometers: USB2E7196
Integration Time (usec): 70000 (USB2E7196)
Spectra Averaged: 10 (USB2E7196)
Boxcar Smoothing: 10 (USB2E7196)
Correct for Electrical Dark: No (USB2E7196)
Strobe/Lamp Enabled: No (USB2E7196)
Correct for Detector Non-linearity: No (USB2E7196)
Correct for Stray Light: No (USB2E7196)
Number of Pixels in Processed Spectrum: 2048
>>>>>Begin Processed Spectral Data<<<<<
339.09	0.00
339.48	216.20
339.86	217.10
340.24	217.50
340.63	219.50
341.01	224.90
341.39	221.70
341.78	225.70
342.16	228.30
342.54	224.80
342.93	214.67
343.31	225.58
343.69	226.19
344.07	226.72
344.46	227.19
344.84	227.64
345.22	227.77
345.60	228.10
345.99	228.28
346.37	228.35
346.75	228.53
347.13	228.58
347.52	228.56
347.90	228.71
348.28	228.71
348.66	228.80
349.05	228.71
349.43	228.74
349.81	228.74
350.19	228.83
350.57	228.92
350.96	228.98
351.34	228.94
351.72	228.99
352.10	229.11
352.48	229.19
352.87	229.27
353.25	229.35
353.63	229.32
354.01	229.38
354.39	229.37
354.77	229.39
355.15	229.55
355.54	229.69
355.92	229.63
356.30	229.78
356.68	229.97
357.06	230.07
357.44	230.05
357.82	230.17
358.20	230.31
358.58	230.40
358.97	230.47
359.35	230.55
359.73	230.57
360.11	230.48
360.49	230.60
360.87	230.53
361.25	230.55
361.63	230.73
362.01	230.76
362.39	230.78
362.77	230.84
363.15	230.76
363.53	230.76
363.91	230.79
364.29	230.70
364.67	230.49
365.05	230.51
365.43	230.58
365.81	230.55
366.19	230.58
366.57	230.62
366.95	230.50
367.33	230.43
367.71	230.43
368.09	230.48
368.47	230.40
368.85	230.41
369.23	230.48
369.61	230.41
369.99	230.38
370.37	230.40
370.75	230.41
371.13	230.33
371.51	230.21
371.89	230.15
372.27	230.16
372.65	230.13
373.03	230.15
373.41	230.07
373.78	230.02
374.16	229.84
374.54	229.80
374.92	229.79
375.30	229.79
375.68	229.64
376.06	229.54
376.44	229.41
376.82	229.32
377.19	229.23
377.57	229.09
377.95	228.98
378.33	228.84
378.71	228.71
379.09	228.72
379.47	228.72
379.84	228.75
380.22	228.65
380.60	228.57
380.98	228.40
381.36	228.33
381.73	228.23
382.11	228.18
382.49	227.96
382.87	227.90
383.25	227.85
383.62	228.07
384.00	228.06
384.38	228.09
384.76	228.14
385.13	228.13
385.51	228.16
385.89	228.15
386.27	228.08
386.64	228.01
387.02	227.95
387.40	227.93
387.78	227.82
388.15	227.70
388.53	227.64
388.91	227.67
389.29	227.60
389.66	227.53
390.04	227.45
390.42	227.52
390.79	227.49
391.17	227.42
391.55	227.22
391.92	227.21
392.30	227.15
392.68	227.09
393.05	227.03
393.43	226.95
393.81	227.06
394.18	227.09
394.56	227.19
394.94	227.18
395.31	227.15
395.69	227.29
396.06	227.45
396.44	227.55
396.82	227.57
397.19	227.71
397.57	227.79
397.95	227.87
398.32	227.88
398.70	228.02
399.07	228.18
399.45	228.28
399.82	228.35
400.20	228.50
400.58	228.64
400.95	228.68
401.33	228.89
401.70	229.05
402.08	229.22
402.45	229.28
402.83	229.65
403.20	229.88
403.58	229.94
403.95	230.12
404.33	230.30
404.71	230.48
405.08	230.75
405.46	231.02
405.83	231.31
406.21	231.72
406.58	231.99
406.96	232.33
407.33	232.63
407.70	233.08
408.08	233.64
408.45	234.08
408.83	234.68
409.20	235.06
409.58	235.40
409.95	235.99
410.33	236.67
410.70	237.06
411.08	237.82
411.45	238.50
411.82	239.27
412.20	240.19
412.57	241.20
412.95	242.00
413.32	243.01
413.69	244.09
414.07	245.04
414.44	246.30
414.82	247.49
415.19	248.84
415.56	250.18
415.94	251.56
416.31	253.19
416.68	254.80
417.06	256.80
417.43	258.68
417.81	260.66
418.18	262.65
418.55	265.00
418.93	267.27
419.30	269.70
419.67	272.22
420.04	274.73
420.42	277.49
420.79	280.60
421.16	283.68
421.54	286.78
421.91	290.22
422.28	293.70
422.66	297.48
423.03	301.12
423.40	304.93
423.77	308.79
424.15	312.86
424.52	317.00
424.89	321.33
425.26	325.63
425.64	329.67
426.01	334.26
426.38	338.86
426.75	343.74
427.13	348.70
427.50	353.91
427.87	359.28
428.24	364.68
428.61	369.77
428.99	375.39
429.36	381.76
429.73	387.74
430.10	393.70
430.47	399.70
430.85	406.13
431.22	412.73
431.59	420.06
431.96	426.71
432.33	434.23
432.70	441.60
433.08	450.17
433.45	458.50
433.82	466.34
434.19	475.46
434.56	484.14
434.93	492.49
435.30	500.71
435.68	509.98
436.05	519.09
436.42	528.25
436.79	536.45
437.16	545.20
437.53	554.37
437.90	563.74
438.27	572.84
438.64	582.61
439.01	591.40
439.38	599.12
439.75	606.90
440.13	615.60
440.50	623.67
440.87	630.58
441.24	637.49
441.61	645.36
441.98	651.06
442.35	657.86
442.72	664.86
443.09	671.86
443.46	676.32
443.83	679.30
444.20	682.10
444.57	686.00
444.94	688.30
445.31	690.91
445.68	693.16
446.05	694.85
446.42	694.38
446.79	694.33
447.16	694.42
447.53	694.60
447.90	692.46
448.27	690.13
448.64	686.12
449.01	683.80
449.37	678.80
449.74	673.87
450.11	667.60
450.48	660.86
450.85	653.73
451.22	647.83
451.59	642.37
451.96	637.08
452.33	629.67
452.70	623.07
453.07	614.83
453.43	606.38
453.80	598.25
454.17	590.45
454.54	583.08
454.91	574.75
455.28	566.80
455.65	559.30
456.02	551.99
456.38	545.76
456.75	537.65
457.12	530.96
457.49	524.12
457.86	517.78
458.23	512.18
458.59	506.08
458.96	499.66
459.33	494.07
459.70	488.40
460.07	483.97
460.43	478.45
460.80	473.35
461.17	469.05
461.54	464.45
461.91	460.07
462.27	455.49
462.64	451.70
463.01	447.44
463.38	443.06
463.74	438.91
464.11	435.38
464.48	432.26
464.85	428.70
465.21	426.10
465.58	423.15
465.95	419.70
466.32	417.00
466.68	414.31
467.05	411.52
467.42	408.70
467.78	405.76
468.15	402.92
468.52	400.89
468.88	398.08
469.25	395.55
469.62	393.79
469.98	391.69
470.35	389.60
470.72	387.59
471.08	385.63
471.45	383.84
471.82	381.88
472.18	379.87
472.55	378.49
472.92	376.82
473.28	375.31
473.65	373.86
474.02	372.07
474.38	370.63
474.75	369.50
475.11	368.33
475.48	367.28
475.85	366.55
476.21	365.71
476.58	364.87
476.94	364.20
477.31	363.31
477.67	362.65
478.04	362.00
478.41	361.60
478.77	361.21
479.14	360.68
479.50	360.34
479.87	360.25
480.23	360.10
480.60	359.88
480.96	359.68
481.33	359.70
481.69	359.77
482.06	359.76
482.42	359.54
482.79	359.47
483.15	359.78
483.52	360.02
483.88	360.22
484.25	360.67
484.61	361.10
484.98	361.43
485.34	361.87
485.71	362.70
486.07	363.48
486.44	364.28
486.80	365.21
487.17	366.21
487.53	367.14
487.90	368.05
488.26	369.21
488.62	370.52
488.99	371.78
489.35	373.20
489.72	374.66
490.08	376.15
490.44	377.76
490.81	379.29
491.17	380.83
491.54	382.57
491.90	384.29
492.26	386.05
492.63	388.07
492.99	390.04
493.36	391.88
493.72	393.92
494.08	396.06
494.45	398.20
494.81	400.50
495.17	402.92
495.54	405.40
495.90	407.85
496.26	410.27
496.63	412.74
496.99	415.26
497.35	417.83
497.72	420.73
498.08	423.40
498.44	426.17
498.80	429.16
499.17	431.88
499.53	434.64
499.89	437.49
500.26	440.34
500.62	443.13
500.98	445.98
501.34	448.73
501.71	451.55
502.07	454.35
502.43	456.96
502.79	459.55
503.16	462.29
503.52	464.85
503.88	467.27
504.24	469.88
504.60	472.53
504.97	475.11
505.33	477.57
505.69	480.28
506.05	482.90
506.41	485.30
506.78	487.73
507.14	490.28
507.50	492.67
507.86	495.00
508.22	497.53
508.59	499.87
508.95	502.15
509.31	504.53
509.67	507.01
510.03	509.29
510.39	511.38
510.75	513.68
511.12	515.78
511.48	517.92
511.84	519.86
512.20	521.80
512.56	523.82
512.92	525.59
513.28	527.36
513.64	528.92
514.00	530.60
514.37	532.21
514.73	533.50
515.09	534.92
515.45	536.46
515.81	537.66
516.17	538.95
516.53	540.29
516.89	541.10
517.25	541.97
517.61	543.25
517.97	544.54
518.33	545.38
518.69	546.41
519.05	547.50
519.41	548.56
519.77	549.65
520.13	550.59
520.49	551.62
520.85	552.43
521.21	553.34
521.57	554.32
521.93	555.18
522.29	556.39
522.65	557.26
523.01	558.01
523.37	558.90
523.73	559.84
524.09	560.66
524.45	561.78
524.81	562.83
525.17	563.91
525.53	564.81
525.89	565.83
526.25	567.00
526.61	568.00
526.97	569.23
527.33	570.18
527.68	571.54
528.04	572.65
528.40	573.88
528.76	575.39
529.12	576.76
529.48	578.37
529.84	579.58
530.20	581.23
530.56	582.92
530.91	584.60
531.27	586.37
531.63	588.05
531.99	589.74
532.35	591.38
532.71	592.87
533.07	594.91
533.42	597.00
533.78	598.94
534.14	601.16
534.50	602.85
534.86	605.15
535.21	606.80
535.57	609.05
535.93	611.25
536.29	613.38
536.65	615.64
537.00	617.54
537.36	620.03
537.72	622.43
538.08	624.63
538.44	627.15
538.79	629.63
539.15	632.18
539.51	634.96
539.87	637.65
540.22	640.49
540.58	643.40
540.94	646.15
541.29	648.78
541.65	651.59
542.01	654.82
542.37	657.49
542.72	660.76
543.08	663.70
543.44	666.73
543.79	669.54
544.15	672.64
544.51	676.27
544.87	679.59
545.22	682.66
545.58	686.07
545.94	689.30
546.29	692.50
546.65	695.61
547.01	698.84
547.36	702.29
547.72	705.40
548.07	708.43
548.43	711.34
548.79	714.67
549.14	717.86
549.50	720.68
549.86	723.82
550.21	726.90
550.57	730.26
550.92	733.54
551.28	736.97
551.64	739.97
551.99	743.26
552.35	746.34
552.70	749.60
553.06	752.89
553.41	756.10
553.77	759.55
554.13	763.10
554.48	766.49
554.84	769.50
555.19	772.79
555.55	776.10
555.90	779.54
556.26	782.95
556.61	786.12
556.97	789.63
557.32	792.95
557.68	796.33
558.03	799.60
558.39	802.87
558.74	806.14
559.10	809.67
559.45	812.80
559.81	816.24
560.16	819.50
560.52	822.66
560.87	826.14
561.23	829.10
561.58	832.42
561.94	835.57
562.29	838.62
562.64	841.61
563.00	844.63
563.35	848.10
563.71	851.27
564.06	854.42
564.42	857.58
564.77	860.99
565.12	864.07
565.48	867.04
565.83	869.78
566.19	872.70
566.54	875.36
566.89	878.13
567.25	880.78
567.60	883.57
567.96	886.39
568.31	888.72
568.66	891.34
569.02	893.40
569.37	895.46
569.72	897.95
570.08	900.27
570.43	902.25
570.78	904.07
571.14	905.82
571.49	907.81
571.84	910.03
572.20	911.77
572.55	913.30
572.90	915.04
573.26	916.79
573.61	918.40
573.96	919.81
574.31	920.84
574.67	921.77
575.02	922.86
575.37	923.64
575.72	924.31
576.08	925.37
576.43	926.40
576.78	927.53
577.13	928.63
577.49	929.44
577.84	930.29
578.19	931.14
578.54	931.58
578.90	931.94
579.25	931.81
579.60	931.80
579.95	931.93
580.30	931.97
580.66	931.97
581.01	931.78
581.36	931.90
581.71	932.08
582.06	932.35
582.42	932.08
582.77	931.95
583.12	932.00
583.47	931.88
583.82	931.90
584.17	931.43
584.53	931.00
584.88	931.04
585.23	930.86
585.58	930.04
585.93	929.94
586.28	929.57
586.63	929.41
586.98	929.22
587.34	929.15
587.69	928.54
588.04	928.31
588.39	928.09
588.74	927.02
589.09	926.21
589.44	925.12
589.79	924.39
590.14	923.61
590.49	922.68
590.84	921.53
591.19	920.54
591.54	919.24
591.89	917.53
592.25	915.98
592.60	914.29
592.95	912.67
593.30	910.93
593.65	909.04
594.00	907.40
594.35	906.22
594.70	904.16
595.05	902.71
595.40	901.01
595.75	898.89
596.10	897.20
596.45	895.70
596.80	894.25
597.15	892.79
597.50	890.96
597.85	889.42
598.19	887.84
598.54	886.06
598.89	884.63
599.24	883.42
599.59	881.64
599.94	880.00
600.29	878.70
600.64	876.70
600.99	874.88
601.34	873.00
601.69	870.47
602.04	868.69
602.39	866.56
602.74	864.73
603.08	863.21
603.43	861.96
603.78	859.88
604.13	857.83
604.48	855.58
604.83	853.69
605.18	851.66
605.53	849.17
605.87	846.64
606.22	844.25
606.57	841.80
606.92	839.54
607.27	837.31
607.62	835.03
607.96	833.28
608.31	831.46
608.66	829.01
609.01	826.51
609.36	823.85
609.70	821.14
610.05	818.25
610.40	815.51
610.75	812.51
611.10	809.89
611.44	806.92
611.79	804.38
612.14	801.48
612.49	798.23
612.83	795.60
613.18	792.87
613.53	790.29
613.88	787.19
614.22	784.15
614.57	781.13
614.92	778.28
615.27	775.34
615.61	772.28
615.96	769.30
616.31	766.60
616.65	764.14
617.00	761.44
617.35	758.68
617.70	755.77
618.04	752.88
618.39	749.90
618.74	747.39
619.08	744.31
619.43	741.60
619.78	739.18
620.12	736.30
620.47	733.40
620.82	730.34
621.16	727.82
621.51	725.28
621.85	722.69
622.20	719.73
622.55	716.99
622.89	714.32
623.24	711.86
623.59	709.19
623.93	706.61
624.28	704.23
624.62	701.50
624.97	699.16
625.32	696.70
625.66	694.22
626.01	691.54
626.35	688.85
626.70	686.15
627.04	683.43
627.39	680.57
627.73	678.00
628.08	675.49
628.43	672.77
628.77	670.20
629.12	667.40
629.46	664.81
629.81	661.86
630.15	658.96
630.50	656.04
630.84	653.10
631.19	650.13
631.53	647.11
631.88	644.37
632.22	641.07
632.57	638.32
632.91	635.34
633.26	632.48
633.60	629.73
633.95	627.10
634.29	624.38
634.64	621.73
634.98	618.97
635.32	616.31
635.67	613.77
636.01	610.90
636.36	608.31
636.70	605.77
637.05	603.35
637.39	600.86
637.73	598.40
638.08	596.15
638.42	593.66
638.77	591.44
639.11	588.89
639.45	586.55
639.80	583.68
640.14	581.26
640.49	578.70
640.83	576.18
641.17	573.82
641.52	571.36
641.86	569.17
642.20	566.84
642.55	564.43
642.89	562.04
643.23	559.66
643.58	557.36
643.92	554.87
644.26	552.35
644.61	550.06
644.95	547.64
645.29	544.81
645.64	542.24
645.98	539.70
646.32	537.35
646.66	534.84
647.01	532.53
647.35	530.22
647.69	528.01
648.04	525.99
648.38	523.51
648.72	521.11
649.06	518.58
649.41	516.12
649.75	513.49
650.09	511.08
650.43	508.61
650.78	506.06
651.12	503.64
651.46	501.42
651.80	499.13
652.14	496.91
652.49	494.97
652.83	492.86
653.17	490.50
653.51	488.18
653.85	485.98
654.20	483.81
654.54	481.32
654.88	478.89
655.22	476.36
655.56	473.90
655.90	471.75
656.25	469.53
656.59	467.45
656.93	465.42
657.27	463.20
657.61	460.93
657.95	459.06
658.29	457.07
658.64	454.75
658.98	452.50
659.32	450.22
659.66	447.98
660.00	445.81
660.34	443.70
660.68	441.72
661.02	439.67
661.36	437.79
661.70	436.01
662.05	434.28
662.39	432.64
662.73	431.17
663.07	429.32
663.41	427.51
663.75	425.69
664.09	423.98
664.43	422.30
664.77	420.72
665.11	418.85
665.45	417.03
665.79	415.55
666.13	413.94
666.47	412.52
666.81	410.85
667.15	409.07
667.49	407.57
667.83	406.05
668.17	404.51
668.51	402.85
668.85	401.22
669.19	399.59
669.53	397.92
669.87	396.05
670.21	394.34
670.55	392.96
670.89	391.62
671.23	390.19
671.57	388.74
671.91	387.41
672.25	385.97
672.58	384.47
672.92	383.10
673.26	381.70
673.60	380.25
673.94	379.20
674.28	378.09
674.62	376.92
674.96	375.60
675.30	374.37
675.64	372.98
675.97	371.86
676.31	370.63
676.65	369.45
676.99	368.35
677.33	367.18
677.67	365.90
678.01	364.65
678.34	363.34
678.68	362.10
679.02	360.88
679.36	359.69
679.70	358.68
680.04	357.26
680.37	355.88
680.71	354.68
681.05	353.44
681.39	352.39
681.73	351.10
682.06	349.90
682.40	348.77
682.74	347.84
683.08	346.70
683.42	345.60
683.75	344.51
684.09	343.31
684.43	342.28
684.77	341.17
685.10	339.96
685.44	338.92
685.78	337.89
686.12	336.78
686.45	335.72
686.79	334.55
687.13	333.64
687.46	332.82
687.80	331.79
688.14	330.66
688.48	329.48
688.81	328.41
689.15	327.43
689.49	326.40
689.82	325.35
690.16	324.30
690.50	323.22
690.83	322.12
691.17	321.10
691.51	320.12
691.84	319.13
692.18	318.12
692.52	317.03
692.85	316.01
693.19	315.13
693.52	314.14
693.86	313.11
694.20	312.19
694.53	311.35
694.87	310.36
695.21	309.39
695.54	308.57
695.88	307.56
696.21	306.56
696.55	305.68
696.88	304.77
697.22	303.95
697.56	303.23
697.89	302.38
698.23	301.75
698.56	300.98
698.90	300.18
699.23	299.47
699.57	298.72
699.90	297.98
700.24	297.23
700.58	296.39
700.91	295.90
701.25	295.29
701.58	294.48
701.92	293.71
702.25	293.01
702.59	292.32
702.92	291.72
703.26	291.29
703.59	290.69
703.93	290.17
704.26	289.55
704.60	288.98
704.93	288.41
705.26	287.63
705.60	287.05
705.93	286.52
706.27	285.90
706.60	285.48
706.94	284.96
707.27	284.30
707.61	283.79
707.94	283.12
708.27	282.57
708.61	282.00
708.94	281.67
709.28	281.33
709.61	280.79
709.94	280.37
710.28	279.64
710.61	279.05
710.95	278.46
711.28	278.09
711.61	277.48
711.95	276.93
712.28	276.50
712.61	275.84
712.95	275.32
713.28	275.05
713.61	274.40
713.95	273.84
714.28	273.32
714.61	273.00
714.95	272.43
715.28	271.83
715.61	271.40
715.95	270.87
716.28	270.39
716.61	269.94
716.95	269.55
717.28	269.20
717.61	268.75
717.94	268.27
718.28	267.67
718.61	267.42
718.94	266.99
719.27	266.53
719.61	266.28
719.94	265.86
720.27	265.35
720.60	264.99
720.94	264.52
721.27	264.17
721.60	263.68
721.93	263.44
722.27	263.25
722.60	262.86
722.93	262.44
723.26	261.88
723.59	261.46
723.93	260.97
724.26	260.62
724.59	260.32
724.92	260.01
725.25	259.67
725.59	259.24
725.92	258.91
726.25	258.56
726.58	258.23
726.91	257.94
727.24	257.56
727.57	257.33
727.91	257.06
728.24	256.78
728.57	256.49
728.90	256.07
729.23	255.63
729.56	255.43
729.89	255.08
730.22	254.89
730.55	254.54
730.89	254.24
731.22	253.90
731.55	253.60
731.88	253.45
732.21	253.20
732.54	252.74
732.87	252.55
733.20	252.33
733.53	251.98
733.86	251.66
734.19	251.31
734.52	251.08
734.85	251.00
735.18	250.77
735.51	250.57
735.84	250.34
736.17	250.07
736.50	249.66
736.83	249.74
737.16	249.47
737.49	249.31
737.82	249.10
738.15	248.93
738.48	248.67
738.81	248.26
739.14	248.12
739.47	247.94
739.80	247.61
740.13	247.43
740.46	247.34
740.79	247.07
741.12	246.91
741.45	246.61
741.78	246.32
742.11	246.10
742.44	245.89
742.77	245.72
743.10	245.54
743.43	245.38
743.75	244.93
744.08	245.09
744.41	244.81
744.74	244.65
745.07	244.49
745.40	244.41
745.73	244.28
746.06	244.05
746.39	243.89
746.71	243.83
747.04	243.71
747.37	243.43
747.70	243.34
748.03	243.18
748.36	243.00
748.68	242.86
749.01	242.71
749.34	242.59
749.67	242.52
750.00	242.47
750.33	242.43
750.65	242.37
750.98	241.96
751.31	241.95
751.64	241.86
751.97	241.75
752.29	241.68
752.62	241.46
752.95	241.31
753.28	241.22
753.60	240.98
753.93	240.83
754.26	240.65
754.59	240.53
754.91	240.42
755.24	240.37
755.57	240.11
755.90	239.86
756.22	239.73
756.55	239.58
756.88	239.44
757.20	239.16
757.53	238.91
757.86	238.86
758.19	238.80
758.51	238.68
758.84	238.56
759.17	238.39
759.49	238.40
759.82	238.34
760.15	238.26
760.47	238.21
760.80	238.05
761.13	238.16
761.45	237.99
761.78	237.85
762.11	237.62
762.43	237.66
762.76	237.71
763.08	237.68
763.41	237.67
763.74	237.58
764.06	237.58
764.39	237.55
764.71	237.41
765.04	237.22
765.37	237.16
765.69	237.05
766.02	236.88
766.34	236.69
766.67	236.56
767.00	236.50
767.32	236.58
767.65	236.63
767.97	236.41
768.30	236.45
768.62	236.38
768.95	236.30
769.27	236.16
769.60	236.09
769.92	235.98
770.25	235.74
770.57	235.51
770.90	235.40
771.22	235.28
771.55	235.18
771.87	235.13
772.20	234.99
772.52	234.95
772.85	235.10
773.17	235.10
773.50	235.03
773.82	234.96
774.15	234.77
774.47	234.56
774.80	234.45
775.12	234.30
775.45	234.24
775.77	234.24
776.09	234.22
776.42	234.23
776.74	234.10
777.07	234.03
777.39	234.05
777.72	233.98
778.04	233.94
778.36	233.82
778.69	233.74
779.01	233.60
779.33	233.58
779.66	233.36
779.98	233.28
780.31	233.25
780.63	233.20
780.95	233.09
781.28	233.06
781.60	233.00
781.92	233.03
782.25	232.94
782.57	232.92
782.89	232.80
783.22	232.69
783.54	232.65
783.86	232.54
784.19	232.48
784.51	232.50
784.83	232.40
785.16	232.42
785.48	232.35
785.80	232.33
786.12	232.21
786.45	232.13
786.77	232.17
787.09	232.10
787.42	232.02
787.74	232.03
788.06	232.03
788.38	231.96
788.71	231.83
789.03	231.86
789.35	231.86
789.67	231.83
789.99	231.79
790.32	231.78
790.64	231.83
790.96	232.10
791.28	231.99
791.61	232.13
791.93	232.14
792.25	232.18
792.57	232.31
792.89	232.20
793.21	232.28
793.54	232.23
793.86	232.27
794.18	232.30
