SpectraSuite Data File
++++++++++++++++++++++++++++++++++++
Date: Fri Feb 01 14:35:35 EST 2013
User: group
Dark Spectrum Present: No
Reference Spectrum Present: No
Number of Sampled Component Spectra: 1
Spectrometers: USB2E7196
Integration Time (usec): 70000 (USB2E7196)
Spectra Averaged: 10 (USB2E7196)
Boxcar Smoothing: 10 (USB2E7196)
Correct for Electrical Dark: No (USB2E7196)
Strobe/Lamp Enabled: No (USB2E7196)
Correct for Detector Non-linearity: No (USB2E7196)
Correct for Stray Light: No (USB2E7196)
Number of Pixels in Processed Spectrum: 2048
>>>>>Begin Processed Spectral Data<<<<<
339.09	0.00
339.48	215.90
339.86	218.50
340.24	217.70
340.63	221.30
341.01	224.90
341.39	223.70
341.78	225.10
342.16	225.90
342.54	227.30
342.93	214.98
343.31	225.91
343.69	226.49
344.07	226.90
344.46	227.43
344.84	227.75
345.22	227.91
345.60	228.23
345.99	228.43
346.37	228.55
346.75	228.62
347.13	228.68
347.52	228.74
347.90	228.80
348.28	228.81
348.66	228.90
349.05	228.83
349.43	228.87
349.81	228.87
350.19	228.83
350.57	228.90
350.96	228.86
351.34	228.85
351.72	228.96
352.10	229.13
352.48	229.15
352.87	229.19
353.25	229.22
353.63	229.18
354.01	229.17
354.39	229.22
354.77	229.32
355.15	229.55
355.54	229.57
355.92	229.60
356.30	229.73
356.68	229.85
357.06	229.86
357.44	229.96
357.82	230.05
358.20	230.21
358.58	230.20
358.97	230.20
359.35	230.32
359.73	230.38
360.11	230.31
360.49	230.34
360.87	230.40
361.25	230.48
361.63	230.54
362.01	230.58
362.39	230.64
362.77	230.61
363.15	230.49
363.53	230.50
363.91	230.42
364.29	230.39
364.67	230.30
365.05	230.38
365.43	230.26
365.81	230.25
366.19	230.27
366.57	230.34
366.95	230.34
367.33	230.27
367.71	230.19
368.09	230.21
368.47	230.23
368.85	230.21
369.23	230.21
369.61	230.28
369.99	230.39
370.37	230.34
370.75	230.40
371.13	230.31
371.51	230.20
371.89	230.22
372.27	230.29
372.65	230.26
373.03	230.20
373.41	230.21
373.78	230.15
374.16	230.03
374.54	229.90
374.92	229.89
375.30	229.79
375.68	229.70
376.06	229.66
376.44	229.54
376.82	229.46
377.19	229.41
377.57	229.14
377.95	228.92
378.33	228.79
378.71	228.50
379.09	228.50
379.47	228.49
379.84	228.40
380.22	228.14
380.60	227.83
380.98	227.77
381.36	227.81
381.73	227.73
382.11	227.60
382.49	227.50
382.87	227.32
383.25	227.31
383.62	227.49
384.00	227.25
384.38	227.17
384.76	227.22
385.13	227.20
385.51	227.17
385.89	227.13
386.27	227.04
386.64	227.03
387.02	227.00
387.40	227.01
387.78	226.97
388.15	227.04
388.53	227.03
388.91	226.98
389.29	226.81
389.66	226.82
390.04	226.73
390.42	226.81
390.79	226.82
391.17	226.81
391.55	226.55
391.92	226.66
392.30	226.68
392.68	226.54
393.05	226.53
393.43	226.58
393.81	226.54
394.18	226.66
394.56	226.70
394.94	226.73
395.31	226.73
395.69	226.86
396.06	226.83
396.44	227.01
396.82	227.12
397.19	227.30
397.57	227.31
397.95	227.56
398.32	227.67
398.70	227.89
399.07	228.03
399.45	228.26
399.82	228.46
400.20	228.63
400.58	228.78
400.95	228.80
401.33	229.04
401.70	229.32
402.08	229.47
402.45	229.73
402.83	229.93
403.20	230.23
403.58	230.50
403.95	230.83
404.33	231.08
404.71	231.21
405.08	231.66
405.46	231.90
405.83	232.21
406.21	232.49
406.58	232.68
406.96	232.88
407.33	233.23
407.70	233.62
408.08	234.20
408.45	234.82
408.83	235.44
409.20	235.85
409.58	236.22
409.95	236.76
410.33	237.41
410.70	237.91
411.08	238.50
411.45	239.10
411.82	239.85
412.20	240.56
412.57	241.65
412.95	242.31
413.32	243.40
413.69	244.29
414.07	245.32
414.44	246.50
414.82	247.67
415.19	248.91
415.56	250.27
415.94	251.54
416.31	252.96
416.68	254.44
417.06	256.24
417.43	258.07
417.81	259.98
418.18	261.78
418.55	263.97
418.93	266.19
419.30	268.49
419.67	270.83
420.04	273.28
420.42	275.79
420.79	278.80
421.16	281.70
421.54	284.88
421.91	288.00
422.28	291.21
422.66	294.73
423.03	298.03
423.40	301.57
423.77	305.28
424.15	309.13
424.52	313.03
424.89	317.30
425.26	321.49
425.64	325.56
426.01	329.90
426.38	334.37
426.75	338.74
427.13	343.39
427.50	348.35
427.87	353.77
428.24	358.93
428.61	363.80
428.99	369.21
429.36	375.23
429.73	381.18
430.10	387.10
430.47	392.95
430.85	399.23
431.22	405.70
431.59	412.51
431.96	418.99
432.33	426.34
432.70	433.36
433.08	441.60
433.45	449.38
433.82	457.14
434.19	465.74
434.56	474.26
434.93	482.40
435.30	490.36
435.68	499.13
436.05	507.86
436.42	516.61
436.79	524.55
437.16	532.96
437.53	541.73
437.90	550.78
438.27	559.71
438.64	568.83
439.01	577.08
439.38	584.68
439.75	592.07
440.13	600.24
440.50	608.28
440.87	614.78
441.24	621.59
441.61	629.33
441.98	634.98
442.35	641.60
442.72	648.41
443.09	655.28
443.46	659.26
443.83	662.14
444.20	664.69
444.57	668.48
444.94	670.76
445.31	673.23
445.68	675.25
446.05	676.67
446.42	676.92
446.79	676.99
447.16	676.81
447.53	677.11
447.90	675.09
448.27	672.75
448.64	669.09
449.01	666.79
449.37	661.85
449.74	657.13
450.11	651.03
450.48	644.36
450.85	637.51
451.22	632.20
451.59	627.13
451.96	622.18
452.33	614.99
452.70	608.45
453.07	600.52
453.43	592.67
453.80	584.96
454.17	577.20
454.54	570.17
454.91	562.59
455.28	554.88
455.65	547.81
456.02	540.47
456.38	534.50
456.75	526.84
457.12	520.24
457.49	513.73
457.86	507.80
458.23	502.57
458.59	496.52
458.96	490.23
459.33	484.69
459.70	479.20
460.07	474.90
460.43	469.70
460.80	464.88
461.17	460.47
461.54	456.04
461.91	451.93
462.27	447.57
462.64	443.70
463.01	439.54
463.38	435.58
463.74	431.70
464.11	428.23
464.48	425.07
464.85	421.77
465.21	419.15
465.58	416.36
465.95	412.93
466.32	410.22
466.68	407.56
467.05	404.80
467.42	401.94
467.78	398.92
468.15	396.28
468.52	394.05
468.88	391.21
469.25	388.83
469.62	386.61
469.98	384.48
470.35	382.47
470.72	380.66
471.08	378.45
471.45	376.85
471.82	374.90
472.18	372.89
472.55	371.50
472.92	369.82
473.28	368.21
473.65	366.70
474.02	365.22
474.38	363.91
474.75	362.80
475.11	361.87
475.48	360.93
475.85	360.03
476.21	359.26
476.58	358.74
476.94	358.16
477.31	357.66
477.67	356.83
478.04	356.26
478.41	355.77
478.77	355.54
479.14	354.92
479.50	354.60
479.87	354.48
480.23	354.19
480.60	353.94
480.96	353.78
481.33	353.97
481.69	353.97
482.06	353.84
482.42	353.79
482.79	353.72
483.15	354.10
483.52	354.44
483.88	354.63
484.25	354.90
484.61	355.16
484.98	355.53
485.34	356.31
485.71	356.93
486.07	357.59
486.44	358.01
486.80	358.94
487.17	359.71
487.53	360.67
487.90	361.73
488.26	362.93
488.62	364.25
488.99	365.25
489.35	366.47
489.72	367.84
490.08	369.25
490.44	370.80
490.81	372.17
491.17	373.68
491.54	375.37
491.90	376.79
492.26	378.36
492.63	380.01
492.99	381.64
493.36	383.56
493.72	385.60
494.08	387.70
494.45	389.55
494.81	391.68
495.17	393.85
495.54	396.03
495.90	398.30
496.26	400.41
496.63	402.76
496.99	405.18
497.35	407.65
497.72	410.00
498.08	412.42
498.44	415.04
498.80	417.63
499.17	420.21
499.53	422.99
499.89	425.74
500.26	428.39
500.62	430.97
500.98	433.54
501.34	436.02
501.71	438.80
502.07	441.38
502.43	443.83
502.79	446.29
503.16	448.68
503.52	451.02
503.88	453.34
504.24	455.80
504.60	458.30
504.97	460.70
505.33	463.25
505.69	465.80
506.05	467.99
506.41	470.16
506.78	472.28
507.14	474.31
507.50	476.38
507.86	478.58
508.22	480.53
508.59	482.60
508.95	484.62
509.31	486.34
509.67	488.27
510.03	490.20
510.39	491.97
510.75	493.85
511.12	495.69
511.48	497.63
511.84	499.32
512.20	500.70
512.56	502.34
512.92	503.90
513.28	505.28
513.64	506.51
514.00	507.81
514.37	509.09
514.73	510.20
515.09	511.33
515.45	512.25
515.81	513.44
516.17	514.60
516.53	515.69
516.89	516.77
517.25	517.78
517.61	518.81
517.97	519.66
518.33	520.56
518.69	521.22
519.05	521.88
519.41	522.55
519.77	523.39
520.13	524.26
520.49	524.69
520.85	525.39
521.21	526.40
521.57	527.22
521.93	527.81
522.29	528.77
522.65	529.57
523.01	530.40
523.37	531.11
523.73	531.71
524.09	532.27
524.45	532.88
524.81	533.63
525.17	534.41
525.53	535.40
525.89	536.31
526.25	537.52
526.61	538.32
526.97	539.34
527.33	540.32
527.68	541.27
528.04	542.54
528.40	543.50
528.76	544.74
529.12	546.23
529.48	547.85
529.84	549.29
530.20	550.69
530.56	552.36
530.91	554.37
531.27	556.11
531.63	557.95
531.99	559.74
532.35	561.69
532.71	563.49
533.07	565.52
533.42	567.25
533.78	569.14
534.14	571.22
534.50	573.31
534.86	575.54
535.21	577.57
535.57	579.79
535.93	582.20
536.29	584.40
536.65	586.49
537.00	588.86
537.36	591.13
537.72	593.71
538.08	596.24
538.44	598.41
538.79	600.75
539.15	603.30
539.51	606.18
539.87	608.90
540.22	611.74
540.58	614.40
540.94	617.28
541.29	620.07
541.65	623.23
542.01	626.32
542.37	629.53
542.72	632.67
543.08	635.86
543.44	638.99
543.79	641.77
544.15	645.05
544.51	648.49
544.87	651.89
545.22	655.17
545.58	658.21
545.94	661.52
546.29	664.91
546.65	668.16
547.01	671.38
547.36	674.68
547.72	678.04
548.07	681.45
548.43	684.96
548.79	688.48
549.14	691.80
549.50	695.03
549.86	698.05
550.21	701.42
550.57	704.76
550.92	708.02
551.28	711.54
551.64	714.76
551.99	718.14
552.35	721.89
552.70	725.28
553.06	728.95
553.41	732.50
553.77	736.16
554.13	739.99
554.48	743.49
554.84	746.99
555.19	750.49
555.55	753.99
555.90	757.16
556.26	760.57
556.61	763.74
556.97	767.20
557.32	770.70
557.68	774.19
558.03	777.54
558.39	780.59
558.74	784.39
559.10	787.87
559.45	791.14
559.81	794.38
560.16	797.45
560.52	800.68
560.87	803.82
561.23	807.02
561.58	810.22
561.94	813.43
562.29	816.16
562.64	819.11
563.00	822.03
563.35	825.90
563.71	829.23
564.06	832.76
564.42	835.74
564.77	838.90
565.12	842.00
565.48	845.32
565.83	848.80
566.19	851.81
566.54	854.76
566.89	857.52
567.25	860.48
567.60	863.81
567.96	866.78
568.31	869.80
568.66	872.65
569.02	875.12
569.37	877.69
569.72	880.50
570.08	883.04
570.43	885.34
570.78	887.19
571.14	889.11
571.49	890.91
571.84	893.58
572.20	895.37
572.55	897.25
572.90	898.44
573.26	900.13
573.61	901.51
573.96	903.11
574.31	904.58
574.67	905.59
575.02	906.56
575.37	907.61
575.72	908.09
576.08	908.99
576.43	909.75
576.78	910.66
577.13	911.90
577.49	912.98
577.84	914.18
578.19	914.82
578.54	915.50
578.90	916.07
579.25	916.22
579.60	916.65
579.95	916.85
580.30	917.47
580.66	917.72
581.01	917.94
581.36	918.25
581.71	918.60
582.06	918.71
582.42	918.75
582.77	918.49
583.12	918.93
583.47	918.90
583.82	919.09
584.17	918.82
584.53	918.45
584.88	918.07
585.23	917.74
585.58	917.64
585.93	917.27
586.28	917.06
586.63	916.72
586.98	916.67
587.34	916.39
587.69	916.19
588.04	915.98
588.39	915.49
588.74	914.51
589.09	913.66
589.44	912.80
589.79	912.17
590.14	911.61
590.49	910.79
590.84	909.84
591.19	908.90
591.54	907.65
591.89	906.07
592.25	905.02
592.60	903.41
592.95	901.65
593.30	900.11
593.65	898.79
594.00	897.38
594.35	896.31
594.70	894.51
595.05	892.80
595.40	890.90
595.75	889.12
596.10	887.66
596.45	886.17
596.80	885.01
597.15	883.35
597.50	881.73
597.85	880.12
598.19	878.60
598.54	876.85
598.89	875.39
599.24	874.35
599.59	872.67
599.94	871.51
600.29	870.10
600.64	868.51
600.99	866.73
601.34	864.69
601.69	862.08
602.04	860.40
602.39	858.45
602.74	857.05
603.08	855.53
603.43	854.00
603.78	852.19
604.13	849.93
604.48	847.98
604.83	846.13
605.18	844.08
605.53	842.10
605.87	839.94
606.22	837.93
606.57	835.64
606.92	833.50
607.27	831.17
607.62	829.34
607.96	827.35
608.31	825.33
608.66	823.43
609.01	821.19
609.36	818.74
609.70	816.17
610.05	813.28
610.40	810.79
610.75	808.06
611.10	805.57
611.44	802.85
611.79	800.23
612.14	797.50
612.49	794.72
612.83	791.66
613.18	789.14
613.53	786.62
613.88	783.85
614.22	780.85
614.57	777.99
614.92	774.70
615.27	771.66
615.61	768.40
615.96	765.35
616.31	762.86
616.65	760.62
617.00	758.08
617.35	755.49
617.70	752.68
618.04	749.78
618.39	746.82
618.74	744.28
619.08	741.45
619.43	738.73
619.78	735.98
620.12	733.30
620.47	730.32
620.82	727.11
621.16	724.35
621.51	721.77
621.85	718.71
622.20	716.04
622.55	713.35
622.89	711.08
623.24	708.59
623.59	705.97
623.93	703.40
624.28	700.67
624.62	698.10
624.97	695.56
625.32	692.99
625.66	690.39
626.01	687.81
626.35	685.37
626.70	682.54
627.04	680.14
627.39	677.42
627.73	674.93
628.08	672.59
628.43	670.05
628.77	667.37
629.12	664.90
629.46	662.25
629.81	659.66
630.15	656.72
630.50	653.84
630.84	650.68
631.19	647.35
631.53	644.83
631.88	641.89
632.22	638.78
632.57	636.06
632.91	633.32
633.26	630.47
633.60	627.54
633.95	625.02
634.29	622.30
634.64	619.78
634.98	617.13
635.32	614.76
635.67	612.10
636.01	609.56
636.36	607.13
636.70	604.72
637.05	602.37
637.39	599.82
637.73	597.42
638.08	595.58
638.42	593.44
638.77	591.04
639.11	588.58
639.45	586.29
639.80	583.85
640.14	581.32
640.49	578.95
640.83	576.67
641.17	574.30
641.52	571.71
641.86	569.20
642.20	567.07
642.55	564.50
642.89	562.11
643.23	559.78
643.58	557.51
643.92	555.14
644.26	552.76
644.61	550.64
644.95	548.27
645.29	545.57
645.64	543.10
645.98	540.57
646.32	538.22
646.66	535.83
647.01	533.47
647.35	531.28
647.69	529.03
648.04	526.72
648.38	524.31
648.72	522.06
649.06	519.63
649.41	517.17
649.75	514.67
650.09	512.30
650.43	509.67
650.78	507.14
651.12	504.82
651.46	502.40
651.80	500.19
652.14	497.81
652.49	495.66
652.83	493.61
653.17	491.40
653.51	489.20
653.85	486.98
654.20	484.74
654.54	482.17
654.88	479.79
655.22	477.26
655.56	474.90
655.90	472.67
656.25	470.75
656.59	468.38
656.93	466.39
657.27	464.19
657.61	462.00
657.95	460.10
658.29	457.87
658.64	455.82
658.98	453.56
659.32	451.47
659.66	449.27
660.00	446.90
660.34	444.80
660.68	442.69
661.02	440.51
661.36	438.70
661.70	436.93
662.05	434.92
662.39	433.32
662.73	431.65
663.07	429.94
663.41	428.06
663.75	426.29
664.09	424.59
664.43	422.83
664.77	421.29
665.11	419.40
665.45	417.70
665.79	416.00
666.13	414.24
666.47	412.56
666.81	410.92
667.15	409.18
667.49	407.56
667.83	405.99
668.17	404.44
668.51	402.80
668.85	401.16
669.19	399.82
669.53	398.10
669.87	396.44
670.21	394.94
670.55	393.46
670.89	392.06
671.23	390.31
671.57	388.92
671.91	387.65
672.25	386.10
672.58	384.82
672.92	383.32
673.26	382.00
673.60	380.78
673.94	379.40
674.28	378.24
674.62	377.02
674.96	375.77
675.30	374.62
675.64	373.21
675.97	372.00
676.31	370.67
676.65	369.55
676.99	368.38
677.33	366.90
677.67	365.56
678.01	364.21
678.34	363.14
678.68	361.88
679.02	360.47
679.36	359.33
679.70	358.06
680.04	356.86
680.37	355.53
680.71	354.20
681.05	353.10
681.39	351.98
681.73	350.69
682.06	349.50
682.40	348.26
682.74	347.11
683.08	346.16
683.42	345.07
683.75	344.02
684.09	342.89
684.43	341.94
684.77	340.94
685.10	339.84
685.44	338.67
685.78	337.69
686.12	336.69
686.45	335.52
686.79	334.45
687.13	333.40
687.46	332.39
687.80	331.33
688.14	330.10
688.48	329.04
688.81	327.93
689.15	327.03
689.49	325.92
689.82	324.94
690.16	323.78
690.50	322.79
690.83	321.66
691.17	320.63
691.51	319.56
691.84	318.57
692.18	317.62
692.52	316.63
692.85	315.51
693.19	314.64
693.52	313.81
693.86	312.85
694.20	311.99
694.53	311.17
694.87	310.25
695.21	309.41
695.54	308.60
695.88	307.95
696.21	306.86
696.55	306.17
696.88	305.31
697.22	304.41
697.56	303.45
697.89	302.66
698.23	301.91
698.56	301.26
698.90	300.42
699.23	299.58
699.57	298.74
699.90	298.00
700.24	297.08
700.58	296.35
700.91	295.60
701.25	294.98
701.58	294.52
701.92	293.91
702.25	293.27
702.59	292.52
702.92	291.80
703.26	291.29
703.59	290.58
703.93	290.17
704.26	289.66
704.60	289.16
704.93	288.40
705.26	287.75
705.60	287.15
705.93	286.56
706.27	286.13
706.60	285.80
706.94	285.28
707.27	284.73
707.61	284.14
707.94	283.51
708.27	282.89
708.61	282.04
708.94	281.49
709.28	281.01
709.61	280.40
709.94	279.85
710.28	279.18
710.61	278.75
710.95	278.03
711.28	277.57
711.61	277.02
711.95	276.60
712.28	276.08
712.61	275.48
712.95	275.09
713.28	274.58
713.61	273.96
713.95	273.47
714.28	272.98
714.61	272.47
714.95	272.10
715.28	271.64
715.61	271.18
715.95	270.79
716.28	270.15
716.61	269.90
716.95	269.45
717.28	269.15
717.61	268.61
717.94	268.25
718.28	267.67
718.61	267.14
718.94	266.80
719.27	266.41
719.61	266.02
719.94	265.49
720.27	264.97
720.60	264.60
720.94	264.17
721.27	263.90
721.60	263.65
721.93	263.35
722.27	262.90
722.60	262.52
722.93	262.10
723.26	261.90
723.59	261.45
723.93	261.09
724.26	260.73
724.59	260.44
724.92	260.03
725.25	259.75
725.59	259.49
725.92	259.17
726.25	258.85
726.58	258.50
726.91	258.24
727.24	258.04
727.57	257.66
727.91	257.42
728.24	257.10
728.57	256.66
728.90	256.28
729.23	255.93
729.56	255.75
729.89	255.40
730.22	255.04
730.55	254.62
730.89	254.37
731.22	253.99
731.55	253.64
731.88	253.37
732.21	253.00
732.54	252.71
732.87	252.27
733.20	251.99
733.53	251.74
733.86	251.39
734.19	251.08
734.52	250.94
734.85	250.66
735.18	250.35
735.51	250.21
735.84	250.03
736.17	250.00
736.50	249.67
736.83	249.77
737.16	249.60
737.49	249.50
737.82	249.28
738.15	249.22
738.48	249.08
738.81	248.93
739.14	248.70
739.47	248.52
739.80	248.48
740.13	248.30
740.46	248.19
740.79	248.06
741.12	247.89
741.45	247.58
741.78	247.50
742.11	247.40
742.44	247.23
742.77	247.00
743.10	246.70
743.43	246.53
743.75	246.13
744.08	246.22
744.41	246.03
744.74	245.86
745.07	245.53
745.40	245.40
745.73	245.30
746.06	245.20
746.39	245.09
746.71	244.86
747.04	244.67
747.37	244.39
747.70	244.30
748.03	244.12
748.36	244.09
748.68	243.90
749.01	243.73
749.34	243.60
749.67	243.50
750.00	243.47
750.33	243.50
750.65	243.31
750.98	242.91
751.31	242.83
751.64	242.68
751.97	242.74
752.29	242.53
752.62	242.29
752.95	242.23
753.28	242.09
753.60	241.97
753.93	241.91
754.26	241.91
754.59	241.60
754.91	241.42
755.24	241.25
755.57	241.09
755.90	240.85
756.22	240.52
756.55	240.28
756.88	240.01
757.20	239.70
757.53	239.56
757.86	239.47
758.19	239.39
758.51	239.20
758.84	238.85
759.17	238.70
759.49	238.53
759.82	238.52
760.15	238.36
760.47	238.24
760.80	237.99
761.13	237.88
761.45	237.85
761.78	237.77
762.11	237.61
762.43	237.43
762.76	237.36
763.08	237.41
763.41	237.46
763.74	237.37
764.06	237.28
764.39	237.11
764.71	236.97
765.04	236.75
765.37	236.71
765.69	236.73
766.02	236.68
766.34	236.61
766.67	236.42
767.00	236.36
767.32	236.35
767.65	236.46
767.97	236.27
768.30	236.11
768.62	236.09
768.95	236.03
769.27	235.91
769.60	235.73
769.92	235.54
770.25	235.40
770.57	235.27
770.90	235.18
771.22	235.16
771.55	235.00
771.87	234.91
772.20	234.83
772.52	234.91
772.85	235.12
773.17	235.06
773.50	234.98
773.82	234.84
774.15	234.66
774.47	234.43
774.80	234.28
775.12	234.24
775.45	234.00
775.77	233.91
776.09	233.87
776.42	233.90
776.74	234.01
777.07	233.93
777.39	233.88
777.72	233.83
778.04	233.77
778.36	233.73
778.69	233.78
779.01	233.72
779.33	233.40
779.66	233.10
779.98	233.01
780.31	233.00
780.63	233.11
780.95	233.13
781.28	233.12
781.60	233.15
781.92	233.26
782.25	233.24
782.57	233.20
782.89	233.17
783.22	233.22
783.54	233.08
783.86	233.04
784.19	232.97
784.51	233.00
784.83	232.90
785.16	232.82
785.48	232.70
785.80	232.71
786.12	232.79
786.45	232.78
786.77	232.76
787.09	232.66
787.42	232.55
787.74	232.59
788.06	232.60
788.38	232.50
788.71	232.43
789.03	232.45
789.35	232.48
789.67	232.47
789.99	232.35
790.32	232.30
790.64	232.27
790.96	232.46
791.28	232.30
791.61	232.24
791.93	232.24
792.25	232.23
792.57	232.26
792.89	232.21
793.21	232.11
793.54	232.03
793.86	232.03
794.18	232.00
