SpectraSuite Data File
++++++++++++++++++++++++++++++++++++
Date: Fri Feb 01 14:40:34 EST 2013
User: group
Dark Spectrum Present: No
Reference Spectrum Present: No
Number of Sampled Component Spectra: 1
Spectrometers: USB2E7196
Integration Time (usec): 70000 (USB2E7196)
Spectra Averaged: 10 (USB2E7196)
Boxcar Smoothing: 10 (USB2E7196)
Correct for Electrical Dark: No (USB2E7196)
Strobe/Lamp Enabled: No (USB2E7196)
Correct for Detector Non-linearity: No (USB2E7196)
Correct for Stray Light: No (USB2E7196)
Number of Pixels in Processed Spectrum: 2048
>>>>>Begin Processed Spectral Data<<<<<
339.09	0.00
339.48	216.50
339.86	218.30
340.24	218.60
340.63	220.70
341.01	224.30
341.39	223.70
341.78	223.50
342.16	225.70
342.54	226.80
342.93	215.06
343.31	225.93
343.69	226.44
344.07	226.84
344.46	227.29
344.84	227.70
345.22	227.91
345.60	228.17
345.99	228.38
346.37	228.60
346.75	228.68
347.13	228.64
347.52	228.73
347.90	228.81
348.28	228.86
348.66	228.91
349.05	228.96
349.43	228.96
349.81	228.91
350.19	228.89
350.57	228.88
350.96	228.92
351.34	229.00
351.72	229.07
352.10	229.19
352.48	229.27
352.87	229.25
353.25	229.20
353.63	229.19
354.01	229.19
354.39	229.23
354.77	229.26
355.15	229.43
355.54	229.43
355.92	229.30
356.30	229.35
356.68	229.48
357.06	229.35
357.44	229.41
357.82	229.40
358.20	229.43
358.58	229.54
358.97	229.66
359.35	229.73
359.73	229.83
360.11	229.90
360.49	229.90
360.87	230.00
361.25	230.14
361.63	230.28
362.01	230.38
362.39	230.40
362.77	230.44
363.15	230.37
363.53	230.43
363.91	230.60
364.29	230.66
364.67	230.42
365.05	230.59
365.43	230.58
365.81	230.64
366.19	230.71
366.57	230.67
366.95	230.57
367.33	230.39
367.71	230.39
368.09	230.40
368.47	230.38
368.85	230.30
369.23	230.29
369.61	230.21
369.99	230.26
370.37	230.15
370.75	230.25
371.13	230.08
371.51	229.94
371.89	229.85
372.27	229.72
372.65	229.72
373.03	229.63
373.41	229.58
373.78	229.51
374.16	229.40
374.54	229.34
374.92	229.34
375.30	229.45
375.68	229.34
376.06	229.20
376.44	229.13
376.82	229.10
377.19	229.03
377.57	228.97
377.95	228.80
378.33	228.72
378.71	228.60
379.09	228.68
379.47	228.71
379.84	228.71
380.22	228.67
380.60	228.63
380.98	228.62
381.36	228.65
381.73	228.62
382.11	228.60
382.49	228.53
382.87	228.33
383.25	228.13
383.62	228.26
384.00	228.25
384.38	228.25
384.76	228.21
385.13	228.12
385.51	228.04
385.89	228.03
386.27	228.03
386.64	228.00
387.02	227.96
387.40	227.87
387.78	227.80
388.15	227.90
388.53	227.82
388.91	227.73
389.29	227.63
389.66	227.63
390.04	227.60
390.42	227.55
390.79	227.60
391.17	227.68
391.55	227.51
391.92	227.44
392.30	227.47
392.68	227.52
393.05	227.63
393.43	227.61
393.81	227.60
394.18	227.56
394.56	227.42
394.94	227.59
395.31	227.62
395.69	227.72
396.06	227.65
396.44	227.83
396.82	227.88
397.19	228.04
397.57	228.09
397.95	228.16
398.32	228.31
398.70	228.35
399.07	228.47
399.45	228.54
399.82	228.58
400.20	228.64
400.58	228.68
400.95	228.63
401.33	228.85
401.70	229.04
402.08	229.14
402.45	229.32
402.83	229.27
403.20	229.36
403.58	229.40
403.95	229.58
404.33	229.62
404.71	229.75
405.08	229.89
405.46	229.91
405.83	229.94
406.21	230.01
406.58	230.30
406.96	230.34
407.33	230.49
407.70	230.73
408.08	231.01
408.45	231.26
408.83	231.39
409.20	231.55
409.58	231.70
409.95	231.92
410.33	232.13
410.70	232.28
411.08	232.65
411.45	233.02
411.82	233.12
412.20	233.52
412.57	233.90
412.95	234.15
413.32	234.64
413.69	235.10
414.07	235.50
414.44	235.91
414.82	236.43
415.19	237.03
415.56	237.60
415.94	238.11
416.31	238.70
416.68	239.52
417.06	240.09
417.43	240.77
417.81	241.54
418.18	242.47
418.55	243.45
418.93	244.24
419.30	245.07
419.67	246.08
420.04	246.96
420.42	247.87
420.79	249.10
421.16	250.10
421.54	251.35
421.91	252.63
422.28	253.84
422.66	255.09
423.03	256.41
423.40	257.78
423.77	259.12
424.15	260.43
424.52	261.90
424.89	263.54
425.26	265.14
425.64	266.51
426.01	267.95
426.38	269.61
426.75	271.30
427.13	272.97
427.50	274.75
427.87	276.58
428.24	278.39
428.61	280.07
428.99	282.10
429.36	284.14
429.73	285.99
430.10	288.02
430.47	290.15
430.85	292.15
431.22	294.41
431.59	296.91
431.96	299.26
432.33	301.83
432.70	304.26
433.08	307.15
433.45	309.93
433.82	312.60
434.19	315.60
434.56	318.46
434.93	321.16
435.30	323.82
435.68	326.79
436.05	329.78
436.42	332.71
436.79	335.30
437.16	338.06
437.53	341.15
437.90	344.05
438.27	346.86
438.64	349.88
439.01	352.41
439.38	354.70
439.75	356.83
440.13	359.32
440.50	361.68
440.87	363.54
441.24	365.51
441.61	367.77
441.98	369.29
442.35	371.11
442.72	373.05
443.09	375.00
443.46	375.91
443.83	376.59
444.20	377.09
444.57	377.95
444.94	378.30
445.31	378.62
445.68	379.17
446.05	379.39
446.42	378.87
446.79	378.40
447.16	377.86
447.53	377.64
447.90	376.47
448.27	375.36
448.64	373.73
449.01	372.62
449.37	370.60
449.74	368.60
450.11	366.46
450.48	364.04
450.85	361.50
451.22	359.56
451.59	357.50
451.96	355.54
452.33	353.00
452.70	350.56
453.07	347.69
453.43	344.59
453.80	341.69
454.17	339.05
454.54	336.70
454.91	333.99
455.28	331.35
455.65	328.72
456.02	326.49
456.38	324.23
456.75	321.48
457.12	319.08
457.49	316.78
457.86	314.30
458.23	312.33
458.59	310.16
458.96	308.00
459.33	305.97
459.70	304.04
460.07	302.42
460.43	300.67
460.80	299.02
461.17	297.45
461.54	295.99
461.91	294.47
462.27	292.86
462.64	291.43
463.01	289.86
463.38	288.63
463.74	286.97
464.11	285.70
464.48	284.70
464.85	283.59
465.21	282.77
465.58	281.84
465.95	280.58
466.32	279.60
466.68	278.61
467.05	277.67
467.42	276.61
467.78	275.49
468.15	274.45
468.52	273.65
468.88	272.69
469.25	271.73
469.62	271.12
469.98	270.50
470.35	269.80
470.72	269.09
471.08	268.21
471.45	267.60
471.82	267.00
472.18	266.16
472.55	265.70
472.92	264.98
473.28	264.44
473.65	263.90
474.02	263.34
474.38	262.80
474.75	262.41
475.11	261.89
475.48	261.58
475.85	261.17
476.21	260.74
476.58	260.47
476.94	260.07
477.31	259.61
477.67	259.06
478.04	258.77
478.41	258.53
478.77	258.39
479.14	257.98
479.50	257.74
479.87	257.66
480.23	257.48
480.60	257.20
480.96	257.04
481.33	256.97
481.69	256.82
482.06	256.70
482.42	256.52
482.79	256.50
483.15	256.36
483.52	256.48
483.88	256.45
484.25	256.51
484.61	256.60
484.98	256.70
485.34	256.89
485.71	257.03
486.07	257.05
486.44	257.03
486.80	257.15
487.17	257.39
487.53	257.54
487.90	257.74
488.26	258.17
488.62	258.44
488.99	258.75
489.35	259.16
489.72	259.61
490.08	260.07
490.44	260.60
490.81	261.15
491.17	261.51
491.54	262.13
491.90	262.66
492.26	263.34
492.63	263.89
492.99	264.52
493.36	265.36
493.72	266.34
494.08	267.30
494.45	268.39
494.81	269.40
495.17	270.48
495.54	271.59
495.90	272.74
496.26	274.10
496.63	275.30
496.99	276.62
497.35	278.07
497.72	279.55
498.08	281.04
498.44	282.65
498.80	284.59
499.17	286.39
499.53	288.25
499.89	290.28
500.26	292.36
500.62	294.54
500.98	296.84
501.34	299.23
501.71	301.74
502.07	304.31
502.43	306.95
502.79	309.74
503.16	312.61
503.52	315.72
503.88	318.82
504.24	322.21
504.60	325.64
504.97	329.26
505.33	332.94
505.69	337.03
506.05	341.05
506.41	345.03
506.78	349.39
507.14	353.78
507.50	358.29
507.86	363.19
508.22	368.12
508.59	372.94
508.95	378.02
509.31	383.43
509.67	388.92
510.03	394.67
510.39	400.47
510.75	406.60
511.12	412.67
511.48	419.13
511.84	425.50
512.20	432.10
512.56	438.87
512.92	446.06
513.28	453.10
513.64	460.35
514.00	468.02
514.37	475.66
514.73	483.30
515.09	491.16
515.45	499.20
515.81	507.47
516.17	515.97
516.53	524.72
516.89	533.46
517.25	542.31
517.61	551.30
517.97	560.44
518.33	569.40
518.69	578.82
519.05	588.53
519.41	598.60
519.77	608.72
520.13	619.10
520.49	629.19
520.85	639.57
521.21	650.19
521.57	661.05
521.93	671.69
522.29	682.80
522.65	693.80
523.01	704.78
523.37	715.84
523.73	727.25
524.09	738.50
524.45	749.87
524.81	761.76
525.17	773.70
525.53	786.07
525.89	798.40
526.25	810.92
526.61	822.54
526.97	834.58
527.33	846.87
527.68	859.13
528.04	871.50
528.40	884.28
528.76	897.21
529.12	909.75
529.48	922.69
529.84	935.53
530.20	948.92
530.56	962.53
530.91	976.12
531.27	989.61
531.63	1002.94
531.99	1016.51
532.35	1029.60
532.71	1042.59
533.07	1055.69
533.42	1068.97
533.78	1082.07
534.14	1095.66
534.50	1108.87
534.86	1122.31
535.21	1135.16
535.57	1148.70
535.93	1162.06
536.29	1175.25
536.65	1188.54
537.00	1201.68
537.36	1214.99
537.72	1227.91
538.08	1240.69
538.44	1253.11
538.79	1265.77
539.15	1278.14
539.51	1290.87
539.87	1304.00
540.22	1316.78
540.58	1329.87
540.94	1342.45
541.29	1354.71
541.65	1367.13
542.01	1379.93
542.37	1392.20
542.72	1404.82
543.08	1416.51
543.44	1428.06
543.79	1439.12
544.15	1450.60
544.51	1462.25
544.87	1473.81
545.22	1484.89
545.58	1495.87
545.94	1506.60
546.29	1517.14
546.65	1527.81
547.01	1538.22
547.36	1548.20
547.72	1558.56
548.07	1567.92
548.43	1577.44
548.79	1586.87
549.14	1596.16
549.50	1604.69
549.86	1613.34
550.21	1622.18
550.57	1631.41
550.92	1640.20
551.28	1648.55
551.64	1656.64
551.99	1665.03
552.35	1673.07
552.70	1681.04
553.06	1689.18
553.41	1697.60
553.77	1705.40
554.13	1713.35
554.48	1720.83
554.84	1728.21
555.19	1735.43
555.55	1742.72
555.90	1749.46
556.26	1756.69
556.61	1763.40
556.97	1770.05
557.32	1776.77
557.68	1782.95
558.03	1789.42
558.39	1795.93
558.74	1803.27
559.10	1809.78
559.45	1815.89
559.81	1822.37
560.16	1827.65
560.52	1832.89
560.87	1838.33
561.23	1843.84
561.58	1849.12
561.94	1854.38
562.29	1858.81
562.64	1863.07
563.00	1867.65
563.35	1873.27
563.71	1878.27
564.06	1883.46
564.42	1888.48
564.77	1892.90
565.12	1897.40
565.48	1901.45
565.83	1904.94
566.19	1908.39
566.54	1911.77
566.89	1914.91
567.25	1917.90
567.60	1921.88
567.96	1924.75
568.31	1927.33
568.66	1929.93
569.02	1932.80
569.37	1935.00
569.72	1937.82
570.08	1940.44
570.43	1942.61
570.78	1943.83
571.14	1944.85
571.49	1946.04
571.84	1947.86
572.20	1948.83
572.55	1949.77
572.90	1949.95
573.26	1951.07
573.61	1951.90
573.96	1952.31
574.31	1951.70
574.67	1950.50
575.02	1949.89
575.37	1949.75
575.72	1949.03
576.08	1948.63
576.43	1947.99
576.78	1947.25
577.13	1946.88
577.49	1945.96
577.84	1944.44
578.19	1943.40
578.54	1941.93
578.90	1939.50
579.25	1936.53
579.60	1934.42
579.95	1931.73
580.30	1929.56
580.66	1926.23
581.01	1923.08
581.36	1920.64
581.71	1918.83
582.06	1917.00
582.42	1914.06
582.77	1911.06
583.12	1908.27
583.47	1905.58
583.82	1902.54
584.17	1899.25
584.53	1895.69
584.88	1892.50
585.23	1889.11
585.58	1885.85
585.93	1882.69
586.28	1880.57
586.63	1878.17
586.98	1875.24
587.34	1872.25
587.69	1868.89
588.04	1866.19
588.39	1862.82
588.74	1858.48
589.09	1854.47
589.44	1849.96
589.79	1846.28
590.14	1842.89
590.49	1838.66
590.84	1833.90
591.19	1829.37
591.54	1824.08
591.89	1818.50
592.25	1813.52
592.60	1808.19
592.95	1802.85
593.30	1797.45
593.65	1791.44
594.00	1785.79
594.35	1780.82
594.70	1775.20
595.05	1770.23
595.40	1764.59
595.75	1759.06
596.10	1754.49
596.45	1749.57
596.80	1745.21
597.15	1740.23
597.50	1734.79
597.85	1730.16
598.19	1725.36
598.54	1720.30
598.89	1715.70
599.24	1711.80
599.59	1706.95
599.94	1702.93
600.29	1698.04
600.64	1693.09
600.99	1687.58
601.34	1682.62
601.69	1676.99
602.04	1672.19
602.39	1666.96
602.74	1662.49
603.08	1657.91
603.43	1652.76
603.78	1647.14
604.13	1641.62
604.48	1635.99
604.83	1630.45
605.18	1624.91
605.53	1619.05
605.87	1612.84
606.22	1607.17
606.57	1600.84
606.92	1594.80
607.27	1588.74
607.62	1582.93
607.96	1577.30
608.31	1571.78
608.66	1565.15
609.01	1558.82
609.36	1551.95
609.70	1544.52
610.05	1537.27
610.40	1530.47
610.75	1523.21
611.10	1516.52
611.44	1509.22
611.79	1503.05
612.14	1495.95
612.49	1488.52
612.83	1481.10
613.18	1474.40
613.53	1468.06
613.88	1461.20
614.22	1453.94
614.57	1446.66
614.92	1439.68
615.27	1432.83
615.61	1425.92
615.96	1419.19
616.31	1413.03
616.65	1406.98
617.00	1401.25
617.35	1394.49
617.70	1387.21
618.04	1380.35
618.39	1373.87
618.74	1367.50
619.08	1359.98
619.43	1353.42
619.78	1347.20
620.12	1340.92
620.47	1334.21
620.82	1326.93
621.16	1320.26
621.51	1313.90
621.85	1307.54
622.20	1300.60
622.55	1294.14
622.89	1287.83
623.24	1281.90
623.59	1275.31
623.93	1269.01
624.28	1262.48
624.62	1256.07
624.97	1250.04
625.32	1244.20
625.66	1237.88
626.01	1231.32
626.35	1225.39
626.70	1218.98
627.04	1212.72
627.39	1206.01
627.73	1199.46
628.08	1193.52
628.43	1186.99
628.77	1180.97
629.12	1174.06
629.46	1167.84
629.81	1160.76
630.15	1154.17
630.50	1147.15
630.84	1139.78
631.19	1132.79
631.53	1126.06
631.88	1119.13
632.22	1112.21
632.57	1105.53
632.91	1098.73
633.26	1092.40
633.60	1085.48
633.95	1079.21
634.29	1072.82
634.64	1067.05
634.98	1060.76
635.32	1054.58
635.67	1048.69
636.01	1042.58
636.36	1036.95
636.70	1031.42
637.05	1025.76
637.39	1020.12
637.73	1014.35
638.08	1009.29
638.42	1003.84
638.77	998.39
639.11	992.89
639.45	987.37
639.80	981.78
640.14	976.28
640.49	970.44
640.83	964.93
641.17	959.11
641.52	953.23
641.86	947.49
642.20	942.37
642.55	936.62
642.89	931.17
643.23	925.53
643.58	920.31
643.92	914.09
644.26	908.56
644.61	903.06
644.95	897.70
645.29	891.57
645.64	885.62
645.98	879.83
646.32	874.50
646.66	868.95
647.01	863.41
647.35	858.13
647.69	852.61
648.04	847.33
648.38	841.81
648.72	836.13
649.06	830.53
649.41	825.08
649.75	819.61
650.09	813.87
650.43	808.20
650.78	802.31
651.12	796.80
651.46	791.49
651.80	786.15
652.14	780.89
652.49	775.91
652.83	770.94
653.17	765.67
653.51	760.45
653.85	755.60
654.20	750.27
654.54	744.65
654.88	739.63
655.22	734.26
655.56	729.38
655.90	724.80
656.25	719.99
656.59	714.87
656.93	710.15
657.27	705.34
657.61	700.45
657.95	696.06
658.29	691.71
658.64	686.94
658.98	682.12
659.32	677.21
659.66	672.49
660.00	667.85
660.34	663.33
660.68	658.74
661.02	653.91
661.36	649.80
661.70	645.54
662.05	641.49
662.39	637.49
662.73	633.25
663.07	629.07
663.41	625.22
663.75	621.44
664.09	617.36
664.43	613.43
664.77	609.54
665.11	605.73
665.45	601.78
665.79	597.72
666.13	593.90
666.47	590.28
666.81	586.47
667.15	582.56
667.49	578.86
667.83	575.51
668.17	572.04
668.51	568.11
668.85	564.71
669.19	561.30
669.53	557.90
669.87	554.40
670.21	551.10
670.55	547.61
670.89	544.40
671.23	541.35
671.57	538.20
671.91	535.23
672.25	531.82
672.58	528.81
672.92	525.99
673.26	523.07
673.60	519.94
673.94	517.18
674.28	514.45
674.62	511.83
674.96	509.04
675.30	506.14
675.64	503.48
675.97	500.70
676.31	497.93
676.65	495.02
676.99	492.59
677.33	489.77
677.67	486.90
678.01	483.90
678.34	480.84
678.68	478.15
679.02	475.37
679.36	472.78
679.70	470.28
680.04	467.66
680.37	464.96
680.71	462.66
681.05	460.19
681.39	457.76
681.73	455.15
682.06	452.67
682.40	450.58
682.74	448.29
683.08	446.02
683.42	443.63
683.75	441.56
684.09	439.23
684.43	436.99
684.77	434.84
685.10	432.69
685.44	430.68
685.78	428.54
686.12	426.41
686.45	424.25
686.79	422.10
687.13	420.00
687.46	417.94
687.80	415.84
688.14	413.76
688.48	411.80
688.81	409.90
689.15	407.75
689.49	405.58
689.82	403.65
690.16	401.55
690.50	399.65
690.83	397.65
691.17	395.56
691.51	393.74
691.84	391.76
692.18	389.85
692.52	388.01
692.85	386.30
693.19	384.48
693.52	382.85
693.86	380.91
694.20	379.12
694.53	377.39
694.87	375.52
695.21	373.69
695.54	371.82
695.88	370.01
696.21	368.34
696.55	366.70
696.88	365.08
697.22	363.52
697.56	361.87
697.89	360.25
698.23	358.80
698.56	357.18
698.90	355.81
699.23	354.27
699.57	352.78
699.90	351.19
700.24	349.55
700.58	347.87
700.91	346.57
701.25	345.28
701.58	343.79
701.92	342.50
702.25	341.20
702.59	339.90
702.92	338.55
703.26	337.40
703.59	336.20
703.93	334.97
704.26	333.79
704.60	332.43
704.93	331.09
705.26	329.84
705.60	328.70
705.93	327.53
706.27	326.45
706.60	325.32
706.94	324.17
707.27	323.19
707.61	322.08
707.94	321.01
708.27	319.87
708.61	318.81
708.94	317.73
709.28	316.79
709.61	315.83
709.94	314.90
710.28	313.73
710.61	312.68
710.95	311.42
711.28	310.43
711.61	309.51
711.95	308.58
712.28	307.61
712.61	306.59
712.95	305.70
713.28	304.88
713.61	303.84
713.95	302.89
714.28	302.05
714.61	301.10
714.95	300.19
715.28	299.32
715.61	298.39
715.95	297.58
716.28	296.65
716.61	295.73
716.95	294.88
717.28	294.11
717.61	293.33
717.94	292.75
718.28	291.90
718.61	291.10
718.94	290.37
719.27	289.64
719.61	288.99
719.94	288.16
720.27	287.20
720.60	286.61
720.94	285.99
721.27	285.23
721.60	284.68
721.93	284.03
722.27	283.49
722.60	283.03
722.93	282.38
723.26	281.91
723.59	281.31
723.93	280.78
724.26	280.25
724.59	279.52
724.92	278.99
725.25	278.40
725.59	277.92
725.92	277.46
726.25	276.86
726.58	276.32
726.91	275.76
727.24	275.38
727.57	274.88
727.91	274.30
728.24	273.77
728.57	273.32
728.90	272.82
729.23	272.33
729.56	271.83
729.89	271.32
730.22	270.76
730.55	270.23
730.89	269.77
731.22	269.41
731.55	269.02
731.88	268.44
732.21	268.00
732.54	267.58
732.87	267.12
733.20	266.73
733.53	266.32
733.86	266.06
734.19	265.65
734.52	265.25
734.85	265.01
735.18	264.66
735.51	264.32
735.84	264.00
736.17	263.53
736.50	263.02
736.83	262.87
737.16	262.47
737.49	262.18
737.82	261.73
738.15	261.25
738.48	260.93
738.81	260.65
739.14	260.29
739.47	259.88
739.80	259.48
740.13	259.26
740.46	258.82
740.79	258.46
741.12	258.08
741.45	257.70
741.78	257.31
742.11	257.05
742.44	256.61
742.77	256.23
743.10	255.87
743.43	255.56
743.75	255.01
744.08	254.99
744.41	254.74
744.74	254.51
745.07	254.08
745.40	253.83
745.73	253.59
746.06	253.35
746.39	253.18
746.71	252.88
747.04	252.42
747.37	252.17
747.70	251.86
748.03	251.60
748.36	251.28
748.68	250.91
749.01	250.60
749.34	250.30
749.67	249.96
750.00	249.75
750.33	249.69
750.65	249.51
750.98	248.97
751.31	248.60
751.64	248.34
751.97	248.29
752.29	247.95
752.62	247.68
752.95	247.34
753.28	247.02
753.60	246.84
753.93	246.69
754.26	246.42
754.59	246.12
754.91	245.89
755.24	245.78
755.57	245.62
755.90	245.37
756.22	245.17
756.55	244.93
756.88	244.70
757.20	244.32
757.53	244.00
757.86	243.79
758.19	243.62
758.51	243.31
758.84	243.16
759.17	242.95
759.49	242.64
759.82	242.58
760.15	242.46
760.47	242.26
760.80	242.07
761.13	241.97
761.45	241.84
761.78	241.80
762.11	241.54
762.43	241.39
762.76	241.23
763.08	241.04
763.41	240.96
763.74	240.80
764.06	240.72
764.39	240.66
764.71	240.61
765.04	240.46
765.37	240.38
765.69	240.13
766.02	240.11
766.34	240.02
766.67	239.86
767.00	239.74
767.32	239.71
767.65	239.78
767.97	239.67
768.30	239.63
768.62	239.36
768.95	239.28
769.27	239.18
769.60	239.11
769.92	239.02
770.25	238.88
770.57	238.82
770.90	238.70
771.22	238.68
771.55	238.48
771.87	238.42
772.20	238.35
772.52	238.41
772.85	238.53
773.17	238.57
773.50	238.43
773.82	238.30
774.15	238.15
774.47	237.84
774.80	237.77
775.12	237.58
775.45	237.60
775.77	237.54
776.09	237.54
776.42	237.43
776.74	237.40
777.07	237.42
777.39	237.33
777.72	237.28
778.04	237.12
778.36	237.08
778.69	237.04
779.01	236.98
779.33	236.78
779.66	236.41
779.98	236.27
780.31	236.22
780.63	236.26
780.95	236.14
781.28	236.02
781.60	235.92
781.92	235.85
782.25	235.70
782.57	235.64
782.89	235.41
783.22	235.34
783.54	235.26
783.86	235.16
784.19	235.07
784.51	235.00
784.83	234.90
785.16	234.86
785.48	234.74
785.80	234.64
786.12	234.56
786.45	234.57
786.77	234.51
787.09	234.44
787.42	234.25
787.74	234.24
