SpectraSuite Data File
++++++++++++++++++++++++++++++++++++
Date: Fri Feb 01 14:34:02 EST 2013
User: group
Dark Spectrum Present: No
Reference Spectrum Present: No
Number of Sampled Component Spectra: 1
Spectrometers: USB2E7196
Integration Time (usec): 70000 (USB2E7196)
Spectra Averaged: 10 (USB2E7196)
Boxcar Smoothing: 10 (USB2E7196)
Correct for Electrical Dark: No (USB2E7196)
Strobe/Lamp Enabled: No (USB2E7196)
Correct for Detector Non-linearity: No (USB2E7196)
Correct for Stray Light: No (USB2E7196)
Number of Pixels in Processed Spectrum: 2048
>>>>>Begin Processed Spectral Data<<<<<
339.09	0.00
339.48	215.80
339.86	215.80
340.24	219.80
340.63	219.90
341.01	223.00
341.39	223.70
341.78	224.40
342.16	225.50
342.54	225.20
342.93	214.13
343.31	224.93
343.69	225.47
344.07	226.01
344.46	226.40
344.84	226.89
345.22	227.20
345.60	227.42
345.99	227.56
346.37	227.76
346.75	227.87
347.13	227.96
347.52	227.94
347.90	228.00
348.28	228.10
348.66	228.20
349.05	228.19
349.43	228.20
349.81	228.32
350.19	228.37
350.57	228.36
350.96	228.40
351.34	228.50
351.72	228.64
352.10	228.71
352.48	228.75
352.87	228.75
353.25	228.80
353.63	228.80
354.01	229.01
354.39	228.96
354.77	229.04
355.15	229.10
355.54	229.19
355.92	229.34
356.30	229.36
356.68	229.55
357.06	229.62
357.44	229.68
357.82	229.74
358.20	229.78
358.58	229.98
358.97	230.11
359.35	230.19
359.73	230.27
360.11	230.42
360.49	230.47
360.87	230.47
361.25	230.44
361.63	230.51
362.01	230.45
362.39	230.52
362.77	230.49
363.15	230.54
363.53	230.53
363.91	230.41
364.29	230.46
364.67	230.33
365.05	230.34
365.43	230.33
365.81	230.20
366.19	230.31
366.57	230.27
366.95	230.25
367.33	230.23
367.71	230.27
368.09	230.23
368.47	230.26
368.85	230.19
369.23	230.26
369.61	230.28
369.99	230.28
370.37	230.30
370.75	230.42
371.13	230.27
371.51	230.27
371.89	230.27
372.27	230.31
372.65	230.19
373.03	230.15
373.41	230.15
373.78	230.10
374.16	229.93
374.54	229.96
374.92	229.90
375.30	229.85
375.68	229.65
376.06	229.64
376.44	229.52
376.82	229.49
377.19	229.40
377.57	229.28
377.95	229.18
378.33	229.13
378.71	228.93
379.09	228.92
379.47	228.82
379.84	228.74
380.22	228.52
380.60	228.49
380.98	228.40
381.36	228.27
381.73	228.22
382.11	228.14
382.49	228.10
382.87	227.98
383.25	227.86
383.62	228.05
384.00	227.92
384.38	227.92
384.76	227.91
385.13	227.91
385.51	227.85
385.89	227.74
386.27	227.63
386.64	227.69
387.02	227.65
387.40	227.65
387.78	227.64
388.15	227.56
388.53	227.62
388.91	227.60
389.29	227.58
389.66	227.54
390.04	227.64
390.42	227.64
390.79	227.62
391.17	227.65
391.55	227.42
391.92	227.40
392.30	227.36
392.68	227.40
393.05	227.40
393.43	227.50
393.81	227.60
394.18	227.69
394.56	227.61
394.94	227.75
395.31	227.87
395.69	227.96
396.06	228.10
396.44	228.04
396.82	228.12
397.19	228.40
397.57	228.68
397.95	228.75
398.32	228.68
398.70	228.88
399.07	229.09
399.45	229.28
399.82	229.31
400.20	229.53
400.58	229.61
400.95	229.72
401.33	229.93
401.70	230.23
402.08	230.33
402.45	230.59
402.83	230.76
403.20	230.99
403.58	231.28
403.95	231.51
404.33	231.85
404.71	232.15
405.08	232.48
405.46	232.74
405.83	233.15
406.21	233.66
406.58	234.11
406.96	234.64
407.33	235.11
407.70	235.85
408.08	236.51
408.45	237.19
408.83	237.82
409.20	238.42
409.58	239.03
409.95	239.82
410.33	240.65
410.70	241.49
411.08	242.31
411.45	243.26
411.82	244.29
412.20	245.36
412.57	246.53
412.95	247.57
413.32	248.80
413.69	250.09
414.07	251.39
414.44	252.80
414.82	254.28
415.19	256.08
415.56	257.88
415.94	259.66
416.31	261.74
416.68	263.95
417.06	266.41
417.43	268.68
417.81	271.34
418.18	274.06
418.55	277.07
418.93	280.19
419.30	283.35
419.67	286.55
420.04	289.98
420.42	293.61
420.79	297.69
421.16	301.97
421.54	306.26
421.91	310.73
422.28	315.39
422.66	320.24
423.03	324.94
423.40	329.87
423.77	335.20
424.15	340.55
424.52	346.10
424.89	352.07
425.26	357.90
425.64	363.33
426.01	369.32
426.38	375.53
426.75	382.04
427.13	388.48
427.50	395.65
427.87	403.14
428.24	410.51
428.61	417.46
428.99	424.91
429.36	433.34
429.73	441.46
430.10	449.59
430.47	457.93
430.85	466.40
431.22	475.37
431.59	484.82
431.96	493.94
432.33	503.83
432.70	513.64
433.08	525.20
433.45	536.11
433.82	546.93
434.19	558.85
434.56	570.37
434.93	581.70
435.30	592.60
435.68	604.57
436.05	616.57
436.42	628.69
436.79	639.98
437.16	651.69
437.53	664.30
437.90	676.62
438.27	688.66
438.64	701.48
439.01	713.28
439.38	723.82
439.75	734.00
440.13	745.87
440.50	757.18
440.87	766.32
441.24	775.94
441.61	786.60
441.98	794.40
442.35	803.66
442.72	813.00
443.09	822.30
443.46	828.19
443.83	832.28
444.20	836.16
444.57	841.24
444.94	844.47
445.31	847.70
445.68	850.83
446.05	853.12
446.42	853.24
446.79	853.25
447.16	853.24
447.53	853.73
447.90	850.46
448.27	846.95
448.64	841.71
449.01	838.64
449.37	831.72
449.74	825.45
450.11	817.18
450.48	808.19
450.85	798.99
451.22	791.22
451.59	784.10
451.96	777.20
452.33	767.18
452.70	758.16
453.07	747.12
453.43	736.07
453.80	725.07
454.17	714.63
454.54	704.80
454.91	693.94
455.28	683.40
455.65	673.68
456.02	663.46
456.38	655.19
456.75	644.23
457.12	635.34
457.49	626.10
457.86	617.70
458.23	610.25
458.59	601.90
458.96	593.54
459.33	586.14
459.70	578.42
460.07	572.44
460.43	565.35
460.80	558.53
461.17	552.50
461.54	546.34
461.91	540.45
462.27	534.25
462.64	529.16
463.01	523.28
463.38	517.77
463.74	512.69
464.11	507.69
464.48	503.36
464.85	498.73
465.21	495.06
465.58	491.15
465.95	486.67
466.32	482.81
466.68	479.04
467.05	474.99
467.42	471.18
467.78	467.20
468.15	463.42
468.52	460.82
468.88	457.20
469.25	453.94
469.62	451.28
469.98	448.49
470.35	445.76
470.72	443.16
471.08	440.50
471.45	438.19
471.82	435.83
472.18	433.23
472.55	431.22
472.92	429.24
473.28	427.18
473.65	425.03
474.02	423.20
474.38	421.47
474.75	420.13
475.11	418.65
475.48	417.42
475.85	416.40
476.21	415.33
476.58	414.52
476.94	413.81
477.31	412.86
477.67	412.09
478.04	411.38
478.41	411.09
478.77	410.69
479.14	409.96
479.50	409.82
479.87	409.96
480.23	409.88
480.60	409.62
480.96	409.51
481.33	409.88
481.69	410.07
482.06	410.53
482.42	410.54
482.79	410.81
483.15	411.51
483.52	412.16
483.88	412.66
484.25	413.29
484.61	414.06
484.98	414.97
485.34	416.22
485.71	417.43
486.07	418.67
486.44	419.79
486.80	421.40
487.17	422.97
487.53	424.70
487.90	426.66
488.26	428.84
488.62	430.98
488.99	433.07
489.35	435.29
489.72	437.63
490.08	440.51
490.44	443.12
490.81	445.69
491.17	448.45
491.54	451.54
491.90	454.47
492.26	457.80
492.63	461.26
492.99	464.41
493.36	467.92
493.72	471.61
494.08	475.35
494.45	479.16
494.81	483.08
495.17	486.93
495.54	490.92
495.90	494.99
496.26	499.16
496.63	503.55
496.99	508.24
497.35	512.85
497.72	517.37
498.08	522.05
498.44	526.99
498.80	532.22
499.17	537.25
499.53	542.50
499.89	547.69
500.26	552.66
500.62	557.66
500.98	563.14
501.34	568.51
501.71	574.22
502.07	579.67
502.43	585.06
502.79	590.65
503.16	596.13
503.52	601.65
503.88	607.34
504.24	612.80
504.60	618.20
504.97	623.61
505.33	629.31
505.69	635.49
506.05	641.13
506.41	646.63
506.78	652.10
507.14	657.57
507.50	663.03
507.86	668.74
508.22	674.71
508.59	680.12
508.95	685.51
509.31	691.00
509.67	696.72
510.03	702.30
510.39	707.70
510.75	713.26
511.12	718.78
511.48	724.20
511.84	729.59
512.20	734.86
512.56	740.37
512.92	745.62
513.28	750.30
513.64	755.30
514.00	759.98
514.37	764.87
514.73	769.51
515.09	773.98
515.45	778.27
515.81	782.40
516.17	786.88
516.53	791.00
516.89	794.87
517.25	798.85
517.61	802.76
517.97	806.57
518.33	810.06
518.69	813.74
519.05	817.38
519.41	820.95
519.77	824.60
520.13	827.97
520.49	831.20
520.85	834.53
521.21	837.73
521.57	840.95
521.93	843.96
522.29	847.29
522.65	850.47
523.01	853.27
523.37	856.26
523.73	858.94
524.09	861.89
524.45	864.93
524.81	867.57
525.17	870.50
525.53	873.61
525.89	876.60
526.25	879.35
526.61	881.44
526.97	884.06
527.33	886.66
527.68	889.47
528.04	892.05
528.40	894.39
528.76	896.97
529.12	899.76
529.48	902.39
529.84	904.70
530.20	907.50
530.56	910.67
530.91	913.49
531.27	916.17
531.63	918.80
531.99	921.46
532.35	923.93
532.71	926.00
533.07	928.70
533.42	931.26
533.78	933.63
534.14	936.67
534.50	939.23
534.86	941.70
535.21	943.48
535.57	946.13
535.93	948.80
536.29	951.40
536.65	953.73
537.00	955.93
537.36	958.66
537.72	960.86
538.08	963.26
538.44	965.47
538.79	967.95
539.15	970.06
539.51	972.41
539.87	974.81
540.22	977.39
540.58	979.89
540.94	982.21
541.29	984.38
541.65	986.76
542.01	989.34
542.37	991.67
542.72	994.10
543.08	996.04
543.44	998.57
543.79	1000.72
544.15	1003.24
544.51	1006.20
544.87	1008.48
545.22	1010.87
545.58	1013.10
545.94	1015.25
546.29	1017.39
546.65	1020.01
547.01	1021.58
547.36	1023.69
547.72	1026.06
548.07	1027.70
548.43	1029.89
548.79	1032.21
549.14	1034.09
549.50	1035.80
549.86	1037.58
550.21	1039.64
550.57	1041.84
550.92	1043.67
551.28	1045.31
551.64	1046.97
551.99	1048.68
552.35	1050.59
552.70	1052.29
553.06	1054.15
553.41	1056.20
553.77	1058.06
554.13	1059.76
554.48	1062.13
554.84	1064.32
555.19	1066.03
555.55	1067.91
555.90	1069.53
556.26	1071.31
556.61	1073.13
556.97	1074.85
557.32	1076.66
557.68	1078.63
558.03	1080.30
558.39	1081.93
558.74	1084.32
559.10	1085.96
559.45	1087.40
559.81	1089.30
560.16	1090.90
560.52	1092.10
560.87	1093.62
561.23	1095.11
561.58	1096.80
561.94	1098.33
562.29	1099.46
562.64	1100.74
563.00	1102.00
563.35	1103.29
563.71	1104.71
564.06	1106.12
564.42	1108.01
564.77	1109.55
565.12	1110.97
565.48	1112.64
565.83	1113.91
566.19	1114.55
566.54	1115.84
566.89	1117.13
567.25	1118.18
567.60	1119.60
567.96	1121.10
568.31	1122.41
568.66	1123.31
569.02	1123.77
569.37	1124.50
569.72	1125.62
570.08	1126.33
570.43	1126.90
570.78	1127.51
571.14	1128.10
571.49	1128.52
571.84	1128.83
572.20	1128.80
572.55	1128.66
572.90	1128.44
573.26	1128.62
573.61	1128.78
573.96	1128.57
574.31	1127.89
574.67	1127.13
575.02	1126.00
575.37	1125.18
575.72	1124.13
576.08	1123.44
576.43	1122.74
576.78	1122.35
577.13	1121.65
577.49	1120.90
577.84	1120.04
578.19	1119.20
578.54	1118.17
578.90	1117.14
579.25	1115.40
579.60	1114.35
579.95	1113.21
580.30	1111.67
580.66	1109.90
581.01	1108.29
581.36	1106.76
581.71	1105.37
582.06	1103.80
582.42	1102.62
582.77	1100.97
583.12	1099.39
583.47	1097.62
583.82	1096.11
584.17	1093.94
584.53	1091.75
584.88	1089.94
585.23	1088.16
585.58	1085.95
585.93	1083.96
586.28	1082.21
586.63	1080.58
586.98	1078.81
587.34	1076.87
587.69	1075.19
588.04	1073.50
588.39	1071.79
588.74	1069.44
589.09	1067.12
589.44	1064.65
589.79	1062.44
590.14	1060.52
590.49	1058.17
590.84	1055.96
591.19	1053.87
591.54	1051.18
591.89	1048.49
592.25	1046.15
592.60	1043.25
592.95	1040.73
593.30	1037.70
593.65	1034.37
594.00	1031.38
594.35	1028.62
594.70	1025.64
595.05	1022.69
595.40	1019.57
595.75	1016.09
596.10	1013.42
596.45	1011.09
596.80	1008.93
597.15	1006.12
597.50	1002.92
597.85	1000.34
598.19	997.72
598.54	994.84
598.89	992.09
599.24	989.61
599.59	986.54
599.94	983.80
600.29	980.82
600.64	977.89
600.99	975.00
601.34	971.98
601.69	968.66
602.04	965.71
602.39	962.59
602.74	959.90
603.08	957.42
603.43	954.78
603.78	951.60
604.13	948.17
604.48	945.30
604.83	942.48
605.18	939.28
605.53	935.81
605.87	932.01
606.22	929.03
606.57	925.21
606.92	922.08
607.27	919.12
607.62	916.38
607.96	913.39
608.31	910.59
608.66	907.24
609.01	903.93
609.36	900.45
609.70	896.69
610.05	892.78
610.40	889.23
610.75	885.34
611.10	881.47
611.44	877.60
611.79	873.74
612.14	870.22
612.49	866.31
612.83	862.65
613.18	859.15
613.53	855.41
613.88	851.90
614.22	848.02
614.57	844.06
614.92	840.11
615.27	836.54
615.61	832.67
615.96	829.08
616.31	825.67
616.65	822.50
617.00	819.18
617.35	815.96
617.70	812.12
618.04	808.40
618.39	805.14
618.74	801.95
619.08	798.32
619.43	794.54
619.78	791.26
620.12	787.76
620.47	784.18
620.82	780.58
621.16	777.36
621.51	774.00
621.85	770.56
622.20	767.22
622.55	763.84
622.89	760.40
623.24	757.26
623.59	753.81
623.93	750.46
624.28	747.26
624.62	743.98
624.97	740.92
625.32	738.04
625.66	734.89
626.01	731.67
626.35	728.42
626.70	725.29
627.04	722.09
627.39	718.92
627.73	715.86
628.08	712.64
628.43	709.47
628.77	706.19
629.12	702.91
629.46	699.43
629.81	695.81
630.15	692.39
630.50	688.84
630.84	685.34
631.19	681.64
631.53	678.42
631.88	674.80
632.22	671.20
632.57	667.89
632.91	664.40
633.26	661.05
633.60	657.70
633.95	654.40
634.29	651.24
634.64	648.07
634.98	644.96
635.32	642.10
635.67	639.21
636.01	636.40
636.36	633.44
636.70	630.78
637.05	628.07
637.39	625.39
637.73	622.58
638.08	620.28
638.42	617.73
638.77	614.98
639.11	612.49
639.45	609.95
639.80	606.93
640.14	604.30
640.49	601.52
640.83	598.89
641.17	596.13
641.52	593.32
641.86	590.58
642.20	587.92
642.55	585.17
642.89	582.22
643.23	579.32
643.58	577.02
643.92	574.09
644.26	571.55
644.61	569.12
644.95	566.61
645.29	563.33
645.64	560.47
645.98	557.70
646.32	554.96
646.66	552.08
647.01	549.60
647.35	546.85
647.69	544.35
648.04	541.92
648.38	539.41
648.72	536.65
649.06	533.99
649.41	531.41
649.75	528.75
650.09	526.15
650.43	523.56
650.78	520.73
651.12	518.25
651.46	515.64
651.80	512.93
652.14	510.46
652.49	508.45
652.83	506.19
653.17	503.61
653.51	501.09
653.85	498.87
654.20	496.34
654.54	493.82
654.88	491.27
655.22	488.88
655.56	486.28
655.90	484.06
656.25	481.75
656.59	479.52
656.93	477.15
657.27	474.83
657.61	472.47
657.95	470.20
658.29	468.17
658.64	466.08
658.98	463.79
659.32	461.43
659.66	459.16
660.00	456.80
660.34	454.69
660.68	452.53
661.02	450.31
661.36	448.44
661.70	446.44
662.05	444.50
662.39	442.44
662.73	440.66
663.07	438.90
663.41	437.13
663.75	435.00
664.09	433.22
664.43	431.50
664.77	429.89
665.11	428.09
665.45	425.98
665.79	424.00
666.13	422.10
666.47	420.34
666.81	418.37
667.15	416.40
667.49	414.65
667.83	412.90
668.17	411.20
668.51	409.28
668.85	407.66
669.19	406.10
669.53	404.31
669.87	402.47
670.21	400.57
670.55	398.87
670.89	397.47
671.23	395.79
671.57	394.13
671.91	392.69
672.25	391.02
672.58	389.54
672.92	387.86
673.26	386.39
673.60	384.99
673.94	383.60
674.28	382.47
674.62	381.16
674.96	379.72
675.30	378.35
675.64	376.99
675.97	375.65
676.31	374.20
676.65	373.00
676.99	371.65
677.33	370.31
677.67	368.94
678.01	367.40
678.34	366.12
678.68	364.83
679.02	363.38
679.36	361.97
679.70	360.70
680.04	359.44
680.37	358.19
680.71	357.01
681.05	355.96
681.39	354.70
681.73	353.52
682.06	352.47
682.40	351.26
682.74	350.00
683.08	348.79
683.42	347.64
683.75	346.49
684.09	345.51
684.43	344.45
684.77	343.31
685.10	342.27
685.44	341.08
685.78	339.93
686.12	338.66
686.45	337.60
686.79	336.50
687.13	335.58
687.46	334.60
687.80	333.44
688.14	332.10
688.48	330.94
688.81	329.79
689.15	328.75
689.49	327.72
689.82	326.81
690.16	325.75
690.50	324.80
690.83	323.75
691.17	322.67
691.51	321.71
691.84	320.78
692.18	319.87
692.52	319.01
692.85	318.09
693.19	317.38
693.52	316.76
693.86	315.92
694.20	315.10
694.53	314.18
694.87	313.20
695.21	312.38
695.54	311.50
695.88	310.59
696.21	309.63
696.55	308.91
696.88	308.14
697.22	307.30
697.56	306.44
697.89	305.68
698.23	304.95
698.56	304.10
698.90	303.38
699.23	302.57
699.57	301.68
699.90	300.89
700.24	299.99
700.58	299.08
700.91	298.26
701.25	297.57
701.58	297.06
701.92	296.46
702.25	295.77
702.59	295.10
702.92	294.50
703.26	294.01
703.59	293.19
703.93	292.58
704.26	292.04
704.60	291.32
704.93	290.65
705.26	289.89
705.60	289.25
705.93	288.58
706.27	287.97
706.60	287.60
706.94	287.06
707.27	286.37
707.61	285.75
707.94	285.27
708.27	284.51
708.61	283.74
708.94	283.20
709.28	282.74
709.61	282.30
709.94	281.69
710.28	280.96
710.61	280.41
710.95	279.64
711.28	279.19
711.61	278.61
711.95	278.13
712.28	277.56
712.61	276.97
712.95	276.40
713.28	275.85
713.61	275.14
713.95	274.52
714.28	274.13
714.61	273.62
714.95	272.97
715.28	272.39
715.61	271.80
715.95	271.31
716.28	270.74
716.61	270.28
716.95	269.87
717.28	269.43
717.61	268.99
717.94	268.63
718.28	268.02
718.61	267.50
718.94	266.95
719.27	266.58
719.61	266.16
719.94	265.80
720.27	265.32
720.60	264.88
720.94	264.49
721.27	264.09
721.60	263.74
721.93	263.50
722.27	263.20
722.60	262.92
722.93	262.51
723.26	262.23
723.59	261.71
723.93	261.34
724.26	260.98
724.59	260.67
724.92	260.30
725.25	260.05
725.59	259.84
725.92	259.54
726.25	259.24
726.58	258.98
726.91	258.69
727.24	258.41
727.57	258.19
727.91	257.91
728.24	257.60
728.57	257.20
728.90	256.92
729.23	256.62
729.56	256.37
729.89	256.06
730.22	255.70
730.55	255.46
730.89	255.14
731.22	254.85
731.55	254.55
731.88	254.36
732.21	253.98
732.54	253.64
732.87	253.41
733.20	253.24
733.53	252.99
733.86	252.86
734.19	252.69
734.52	252.59
734.85	252.44
735.18	252.20
735.51	252.13
735.84	251.84
736.17	251.63
736.50	251.34
736.83	251.32
737.16	251.10
737.49	250.83
737.82	250.67
738.15	250.50
738.48	250.33
738.81	250.06
739.14	249.93
739.47	249.75
739.80	249.60
740.13	249.36
740.46	249.19
740.79	248.78
741.12	248.54
741.45	248.15
741.78	247.74
742.11	247.58
742.44	247.30
742.77	247.11
743.10	246.93
743.43	246.73
743.75	246.34
744.08	246.40
744.41	246.30
744.74	246.03
745.07	245.75
745.40	245.48
745.73	245.39
746.06	245.12
746.39	244.95
746.71	244.67
747.04	244.48
747.37	244.17
747.70	244.08
748.03	243.91
748.36	243.75
748.68	243.65
749.01	243.45
749.34	243.21
749.67	242.99
750.00	242.76
750.33	242.80
750.65	242.62
750.98	242.20
751.31	242.05
751.64	242.02
751.97	242.05
752.29	241.95
752.62	241.63
752.95	241.52
753.28	241.32
753.60	241.14
753.93	241.06
754.26	240.97
754.59	240.75
754.91	240.53
755.24	240.39
755.57	240.30
755.90	240.14
756.22	240.03
756.55	239.97
756.88	239.85
757.20	239.50
757.53	239.37
757.86	239.17
758.19	239.04
758.51	238.80
758.84	238.51
759.17	238.30
759.49	238.16
759.82	238.13
760.15	238.04
760.47	237.94
760.80	237.80
761.13	237.76
761.45	237.73
761.78	237.60
762.11	237.47
762.43	237.23
762.76	237.10
763.08	236.93
763.41	236.88
763.74	236.85
764.06	236.70
764.39	236.63
764.71	236.58
765.04	236.47
765.37	236.30
765.69	236.21
766.02	236.22
766.34	236.14
766.67	235.91
767.00	235.88
767.32	235.94
767.65	235.93
767.97	235.76
768.30	235.59
768.62	235.60
768.95	235.58
769.27	235.59
769.60	235.55
769.92	235.52
770.25	235.36
770.57	235.16
770.90	235.11
771.22	234.96
771.55	234.91
771.87	234.85
772.20	235.00
772.52	235.06
772.85	235.15
773.17	235.16
773.50	235.12
773.82	235.05
774.15	234.90
774.47	234.77
774.80	234.74
775.12	234.80
775.45	234.73
775.77	234.66
776.09	234.64
776.42	234.68
776.74	234.67
777.07	234.65
777.39	234.70
777.72	234.70
778.04	234.68
778.36	234.62
778.69	234.65
779.01	234.45
779.33	234.36
779.66	234.24
779.98	234.16
780.31	234.11
780.63	234.16
780.95	234.18
781.28	234.18
781.60	234.13
781.92	233.99
782.25	233.87
782.57	233.94
782.89	233.86
783.22	233.80
783.54	233.78
783.86	233.64
784.19	233.60
784.51	233.62
784.83	233.58
785.16	233.56
785.48	233.46
785.80	233.44
786.12	233.30
786.45	233.22
786.77	233.17
787.09	233.04
787.42	232.91
787.74	232.77
788.06	232.67
788.38	232.66
788.71	232.54
789.03	232.61
789.35	232.50
789.67	232.40
789.99	232.35
790.32	232.22
790.64	232.32
790.96	232.42
