SpectraSuite Data File
++++++++++++++++++++++++++++++++++++
Date: Fri Feb 01 14:41:35 EST 2013
User: group
Dark Spectrum Present: No
Reference Spectrum Present: No
Number of Sampled Component Spectra: 1
Spectrometers: USB2E7196
Integration Time (usec): 70000 (USB2E7196)
Spectra Averaged: 10 (USB2E7196)
Boxcar Smoothing: 10 (USB2E7196)
Correct for Electrical Dark: No (USB2E7196)
Strobe/Lamp Enabled: No (USB2E7196)
Correct for Detector Non-linearity: No (USB2E7196)
Correct for Stray Light: No (USB2E7196)
Number of Pixels in Processed Spectrum: 2048
>>>>>Begin Processed Spectral Data<<<<<
339.09	0.00
339.48	217.40
339.86	216.80
340.24	218.90
340.63	221.30
341.01	225.30
341.39	224.20
341.78	225.50
342.16	226.80
342.54	227.40
342.93	214.90
343.31	225.72
343.69	226.16
344.07	226.66
344.46	227.15
344.84	227.48
345.22	227.60
345.60	227.89
345.99	227.88
346.37	228.01
346.75	228.05
347.13	228.09
347.52	228.11
347.90	228.26
348.28	228.25
348.66	228.40
349.05	228.27
349.43	228.30
349.81	228.42
350.19	228.46
350.57	228.55
350.96	228.67
351.34	228.76
351.72	228.77
352.10	228.84
352.48	228.87
352.87	228.98
353.25	228.99
353.63	228.97
354.01	229.24
354.39	229.26
354.77	229.41
355.15	229.50
355.54	229.57
355.92	229.58
356.30	229.64
356.68	229.74
357.06	229.81
357.44	229.93
357.82	229.91
358.20	229.98
358.58	230.08
358.97	230.06
359.35	230.19
359.73	230.34
360.11	230.38
360.49	230.31
360.87	230.21
361.25	230.35
361.63	230.39
362.01	230.43
362.39	230.40
362.77	230.38
363.15	230.41
363.53	230.47
363.91	230.40
364.29	230.43
364.67	230.35
365.05	230.44
365.43	230.45
365.81	230.52
366.19	230.61
366.57	230.63
366.95	230.66
367.33	230.62
367.71	230.70
368.09	230.72
368.47	230.83
368.85	230.90
369.23	230.90
369.61	230.91
369.99	230.90
370.37	231.00
370.75	231.10
371.13	231.16
371.51	231.00
371.89	231.05
372.27	230.99
372.65	230.93
373.03	230.96
373.41	230.86
373.78	230.73
374.16	230.62
374.54	230.60
374.92	230.68
375.30	230.62
375.68	230.51
376.06	230.50
376.44	230.40
376.82	230.32
377.19	230.27
377.57	230.17
377.95	230.13
378.33	230.01
378.71	229.86
379.09	229.61
379.47	229.63
379.84	229.52
380.22	229.46
380.60	229.36
380.98	229.15
381.36	229.12
381.73	229.05
382.11	228.93
382.49	228.80
382.87	228.59
383.25	228.52
383.62	228.59
384.00	228.49
384.38	228.45
384.76	228.48
385.13	228.47
385.51	228.40
385.89	228.21
386.27	228.18
386.64	228.07
387.02	228.15
387.40	228.09
387.78	228.14
388.15	228.18
388.53	228.16
388.91	228.25
389.29	228.26
389.66	228.27
390.04	228.28
390.42	228.32
390.79	228.31
391.17	228.27
391.55	228.17
391.92	228.20
392.30	228.21
392.68	228.14
393.05	228.17
393.43	228.20
393.81	228.25
394.18	228.31
394.56	228.34
394.94	228.43
395.31	228.44
395.69	228.54
396.06	228.54
396.44	228.56
396.82	228.45
397.19	228.55
397.57	228.60
397.95	228.73
398.32	228.77
398.70	228.88
399.07	229.00
399.45	228.94
399.82	228.99
400.20	229.07
400.58	229.10
400.95	229.14
401.33	229.36
401.70	229.65
402.08	229.73
402.45	229.90
402.83	230.06
403.20	230.23
403.58	230.20
403.95	230.45
404.33	230.61
404.71	230.82
405.08	231.07
405.46	231.29
405.83	231.48
406.21	231.68
406.58	231.97
406.96	232.16
407.33	232.47
407.70	232.74
408.08	233.15
408.45	233.49
408.83	233.80
409.20	233.98
409.58	234.16
409.95	234.52
410.33	234.93
410.70	235.13
411.08	235.50
411.45	236.06
411.82	236.30
412.20	236.70
412.57	237.32
412.95	237.60
413.32	238.12
413.69	238.67
414.07	239.20
414.44	239.80
414.82	240.44
415.19	241.19
415.56	242.01
415.94	242.73
416.31	243.65
416.68	244.50
417.06	245.46
417.43	246.48
417.81	247.46
418.18	248.38
418.55	249.49
418.93	250.71
419.30	251.81
419.67	253.10
420.04	254.51
420.42	255.78
420.79	257.48
421.16	258.96
421.54	260.66
421.91	262.30
422.28	263.91
422.66	265.75
423.03	267.60
423.40	269.27
423.77	271.10
424.15	272.95
424.52	274.84
424.89	276.99
425.26	278.94
425.64	280.75
426.01	282.80
426.38	284.93
426.75	287.24
427.13	289.47
427.50	291.94
427.87	294.31
428.24	296.77
428.61	299.06
428.99	301.61
429.36	304.24
429.73	306.90
430.10	309.51
430.47	312.22
430.85	314.86
431.22	317.74
431.59	320.93
431.96	323.80
432.33	326.90
432.70	329.91
433.08	333.60
433.45	337.07
433.82	340.51
434.19	344.26
434.56	347.71
434.93	351.20
435.30	354.57
435.68	358.38
436.05	362.12
436.42	365.49
436.79	368.69
437.16	372.02
437.53	375.76
437.90	379.35
438.27	382.95
438.64	386.65
439.01	389.97
439.38	392.80
439.75	395.70
440.13	399.10
440.50	401.96
440.87	404.33
441.24	406.86
441.61	409.63
441.98	411.55
442.35	413.82
442.72	416.14
443.09	418.47
443.46	419.73
443.83	420.47
444.20	421.39
444.57	422.39
444.94	422.78
445.31	423.08
445.68	423.70
446.05	423.67
446.42	423.13
446.79	422.63
447.16	421.85
447.53	421.32
447.90	419.72
448.27	418.35
448.64	416.18
449.01	414.72
449.37	412.00
449.74	409.58
450.11	406.80
450.48	403.53
450.85	400.15
451.22	397.29
451.59	394.57
451.96	391.87
452.33	388.52
452.70	385.45
453.07	381.76
453.43	377.75
453.80	373.90
454.17	370.27
454.54	366.97
454.91	363.69
455.28	360.19
455.65	356.86
456.02	353.72
456.38	350.83
456.75	347.29
457.12	344.56
457.49	341.70
457.86	338.81
458.23	336.45
458.59	333.65
458.96	330.98
459.33	328.46
459.70	325.89
460.07	323.78
460.43	321.64
460.80	319.62
461.17	317.79
461.54	315.90
461.91	314.03
462.27	312.10
462.64	310.29
463.01	308.34
463.38	306.65
463.74	304.69
464.11	303.23
464.48	301.96
464.85	300.30
465.21	299.04
465.58	297.71
465.95	296.17
466.32	295.13
466.68	293.78
467.05	292.58
467.42	291.38
467.78	290.33
468.15	288.93
468.52	287.98
468.88	286.76
469.25	285.75
469.62	284.86
469.98	283.92
470.35	282.96
470.72	282.20
471.08	281.24
471.45	280.45
471.82	279.66
472.18	278.71
472.55	278.09
472.92	277.36
473.28	276.62
473.65	276.01
474.02	275.19
474.38	274.65
474.75	274.18
475.11	273.78
475.48	273.24
475.85	272.93
476.21	272.45
476.58	272.10
476.94	271.77
477.31	271.43
477.67	270.98
478.04	270.70
478.41	270.47
478.77	270.55
479.14	270.32
479.50	270.18
479.87	270.20
480.23	270.26
480.60	270.17
480.96	270.22
481.33	270.24
481.69	270.35
482.06	270.37
482.42	270.36
482.79	270.32
483.15	270.53
483.52	270.81
483.88	271.10
484.25	271.32
484.61	271.65
484.98	271.97
485.34	272.54
485.71	273.08
486.07	273.54
486.44	273.90
486.80	274.46
487.17	275.10
487.53	275.76
487.90	276.40
488.26	277.21
488.62	278.11
488.99	279.02
489.35	280.05
489.72	281.06
490.08	282.22
490.44	283.56
490.81	284.88
491.17	286.06
491.54	287.40
491.90	289.01
492.26	290.67
492.63	292.45
492.99	294.06
493.36	295.81
493.72	297.99
494.08	300.06
494.45	302.50
494.81	304.96
495.17	307.42
495.54	310.11
495.90	312.97
496.26	315.76
496.63	318.90
496.99	322.19
497.35	325.61
497.72	329.20
498.08	332.81
498.44	336.59
498.80	340.66
499.17	344.91
499.53	349.31
499.89	353.82
500.26	358.52
500.62	363.65
500.98	369.05
501.34	374.37
501.71	380.01
502.07	385.66
502.43	391.52
502.79	397.64
503.16	404.19
503.52	411.06
503.88	418.24
504.24	425.39
504.60	432.99
504.97	440.81
505.33	448.86
505.69	457.30
506.05	466.04
506.41	474.79
506.78	483.70
507.14	493.24
507.50	502.98
507.86	513.20
508.22	523.66
508.59	534.09
508.95	544.88
509.31	556.15
509.67	567.91
510.03	579.84
510.39	592.18
510.75	604.48
511.12	616.79
511.48	629.68
511.84	642.93
512.20	656.20
512.56	670.19
512.92	684.38
513.28	698.78
513.64	713.58
514.00	728.47
514.37	744.27
514.73	759.48
515.09	774.99
515.45	790.87
515.81	806.94
516.17	823.53
516.53	840.58
516.89	857.25
517.25	874.01
517.61	891.35
517.97	908.74
518.33	926.03
518.69	944.20
519.05	962.36
519.41	981.24
519.77	1000.21
520.13	1019.13
520.49	1038.02
520.85	1057.10
521.21	1076.00
521.57	1096.08
521.93	1115.04
522.29	1135.28
522.65	1155.21
523.01	1175.13
523.37	1194.78
523.73	1214.87
524.09	1235.00
524.45	1256.03
524.81	1276.79
525.17	1297.88
525.53	1319.01
525.89	1340.15
526.25	1361.24
526.61	1382.04
526.97	1402.97
527.33	1423.90
527.68	1444.96
528.04	1465.96
528.40	1487.43
528.76	1509.39
529.12	1531.06
529.48	1553.09
529.84	1573.54
530.20	1595.50
530.56	1617.52
530.91	1640.42
531.27	1662.33
531.63	1683.53
531.99	1704.85
532.35	1726.04
532.71	1746.24
533.07	1767.42
533.42	1788.81
533.78	1809.89
534.14	1830.73
534.50	1850.75
534.86	1871.41
535.21	1891.57
535.57	1912.52
535.93	1932.70
536.29	1952.36
536.65	1972.13
537.00	1991.30
537.36	2011.75
537.72	2030.80
538.08	2049.62
538.44	2067.58
538.79	2086.07
539.15	2104.70
539.51	2123.35
539.87	2142.62
540.22	2162.05
540.58	2180.75
540.94	2198.46
541.29	2215.70
541.65	2233.63
542.01	2251.92
542.37	2269.00
542.72	2286.01
543.08	2302.55
543.44	2319.23
543.79	2334.55
544.15	2349.99
544.51	2366.73
544.87	2382.44
545.22	2398.05
545.58	2412.89
545.94	2427.30
546.29	2441.78
546.65	2456.04
547.01	2469.44
547.36	2482.27
547.72	2494.64
548.07	2506.97
548.43	2519.64
548.79	2532.44
549.14	2543.85
549.50	2554.93
549.86	2566.24
550.21	2576.90
550.57	2587.47
550.92	2598.25
551.28	2609.14
551.64	2619.52
551.99	2629.18
552.35	2638.51
552.70	2648.42
553.06	2658.98
553.41	2668.48
553.77	2678.05
554.13	2687.10
554.48	2696.32
554.84	2704.72
555.19	2712.96
555.55	2720.85
555.90	2728.48
556.26	2736.02
556.61	2743.97
556.97	2751.02
557.32	2758.27
557.68	2765.66
558.03	2772.86
558.39	2779.27
558.74	2787.21
559.10	2794.35
559.45	2800.60
559.81	2808.39
560.16	2813.52
560.52	2818.05
560.87	2824.66
561.23	2828.93
561.58	2834.26
561.94	2838.68
562.29	2843.25
562.64	2847.91
563.00	2852.29
563.35	2857.81
563.71	2862.64
564.06	2867.72
564.42	2872.10
564.77	2876.36
565.12	2880.76
565.48	2884.94
565.83	2888.30
566.19	2890.61
566.54	2892.53
566.89	2894.56
567.25	2895.90
567.60	2899.18
567.96	2901.90
568.31	2903.25
568.66	2905.32
569.02	2906.58
569.37	2907.66
569.72	2909.28
570.08	2910.03
570.43	2910.61
570.78	2909.94
571.14	2909.11
571.49	2907.94
571.84	2908.65
572.20	2907.56
572.55	2905.88
572.90	2903.61
573.26	2902.30
573.61	2900.84
573.96	2898.94
574.31	2896.04
574.67	2892.13
575.02	2888.35
575.37	2884.92
575.72	2880.44
576.08	2877.24
576.43	2873.75
576.78	2870.33
577.13	2866.53
577.49	2863.15
577.84	2859.07
578.19	2854.66
578.54	2850.13
578.90	2845.01
579.25	2838.31
579.60	2832.89
579.95	2827.50
580.30	2821.83
580.66	2815.14
581.01	2808.20
581.36	2802.48
581.71	2797.46
582.06	2792.78
582.42	2786.54
582.77	2780.39
583.12	2774.31
583.47	2768.12
583.82	2762.16
584.17	2755.43
584.53	2748.68
584.88	2742.01
585.23	2735.22
585.58	2728.76
585.93	2722.22
586.28	2716.02
586.63	2709.76
586.98	2703.10
587.34	2696.50
587.69	2689.85
588.04	2683.75
588.39	2677.93
588.74	2669.92
589.09	2662.32
589.44	2653.92
589.79	2646.73
590.14	2639.83
590.49	2633.05
590.84	2624.84
591.19	2616.49
591.54	2607.98
591.89	2597.95
592.25	2588.85
592.60	2579.40
592.95	2570.39
593.30	2560.94
593.65	2551.62
594.00	2542.79
594.35	2534.49
594.70	2524.53
595.05	2515.80
595.40	2505.82
595.75	2496.19
596.10	2487.93
596.45	2479.38
596.80	2471.55
597.15	2463.41
597.50	2454.27
597.85	2445.37
598.19	2437.53
598.54	2429.62
598.89	2422.19
599.24	2415.84
599.59	2407.57
599.94	2400.21
600.29	2391.72
600.64	2383.76
600.99	2374.41
601.34	2365.74
601.69	2356.53
602.04	2348.85
602.39	2340.28
602.74	2333.00
603.08	2324.86
603.43	2316.57
603.78	2308.02
604.13	2298.67
604.48	2289.22
604.83	2280.11
605.18	2271.04
605.53	2260.89
605.87	2250.50
606.22	2240.70
606.57	2230.27
606.92	2221.27
607.27	2211.94
607.62	2203.28
607.96	2194.21
608.31	2186.05
608.66	2176.24
609.01	2166.15
609.36	2155.49
609.70	2144.42
610.05	2132.93
610.40	2122.69
610.75	2111.80
611.10	2101.42
611.44	2090.47
611.79	2080.26
612.14	2069.66
612.49	2058.20
612.83	2047.42
613.18	2036.54
613.53	2025.97
613.88	2015.41
614.22	2004.44
614.57	1993.31
614.92	1982.07
615.27	1971.21
615.61	1960.20
615.96	1949.57
616.31	1940.01
616.65	1931.05
617.00	1921.82
617.35	1912.24
617.70	1901.76
618.04	1891.26
618.39	1880.79
618.74	1870.99
619.08	1860.38
619.43	1850.37
619.78	1841.39
620.12	1831.85
620.47	1822.32
620.82	1811.97
621.16	1802.38
621.51	1792.97
621.85	1783.49
622.20	1773.45
622.55	1763.86
622.89	1754.28
623.24	1745.28
623.59	1735.66
623.93	1726.01
624.28	1716.24
624.62	1707.04
624.97	1697.94
625.32	1689.29
625.66	1680.34
626.01	1671.33
626.35	1661.94
626.70	1652.61
627.04	1643.35
627.39	1633.68
627.73	1624.16
628.08	1614.83
628.43	1605.21
628.77	1595.71
629.12	1585.54
629.46	1576.23
629.81	1565.88
630.15	1555.83
630.50	1545.67
630.84	1535.18
631.19	1524.65
631.53	1514.76
631.88	1504.41
632.22	1493.79
632.57	1484.00
632.91	1473.82
633.26	1463.89
633.60	1454.13
633.95	1444.09
634.29	1434.27
634.64	1425.41
634.98	1416.10
635.32	1407.00
635.67	1398.32
636.01	1389.25
636.36	1380.59
636.70	1371.74
637.05	1363.52
637.39	1355.30
637.73	1346.83
638.08	1339.09
638.42	1331.41
638.77	1323.22
639.11	1315.08
639.45	1307.08
639.80	1298.35
640.14	1290.09
640.49	1281.95
640.83	1273.66
641.17	1265.69
641.52	1257.54
641.86	1248.80
642.20	1240.75
642.55	1232.48
642.89	1223.93
643.23	1215.28
643.58	1207.31
643.92	1198.80
644.26	1190.49
644.61	1182.39
644.95	1174.52
645.29	1165.25
645.64	1156.40
645.98	1148.29
646.32	1140.42
646.66	1132.16
647.01	1124.24
647.35	1116.14
647.69	1107.72
648.04	1100.17
648.38	1091.95
648.72	1083.68
649.06	1075.70
649.41	1067.71
649.75	1059.43
650.09	1051.63
650.43	1043.70
650.78	1035.43
651.12	1027.80
651.46	1020.13
651.80	1012.40
652.14	1004.54
652.49	997.35
652.83	990.00
653.17	982.04
653.51	974.32
653.85	967.10
654.20	959.63
654.54	952.05
654.88	944.52
655.22	936.61
655.56	928.99
655.90	921.73
656.25	914.78
656.59	907.51
656.93	900.74
657.27	893.79
657.61	886.82
657.95	880.50
658.29	873.67
658.64	866.86
658.98	860.01
659.32	852.90
659.66	846.26
660.00	839.40
660.34	832.80
660.68	826.16
661.02	819.14
661.36	812.93
661.70	806.83
662.05	800.97
662.39	795.36
662.73	789.69
663.07	783.84
663.41	777.85
663.75	772.14
664.09	766.34
664.43	760.51
664.77	754.91
665.11	749.27
665.45	743.91
665.79	738.18
666.13	732.50
666.47	727.23
666.81	721.73
667.15	716.22
667.49	711.01
667.83	705.74
668.17	700.76
668.51	695.24
668.85	690.10
669.19	685.13
669.53	679.98
669.87	674.91
670.21	670.10
670.55	665.39
670.89	661.00
671.23	656.51
671.57	651.87
671.91	647.46
672.25	642.73
672.58	637.98
672.92	633.72
673.26	629.52
673.60	625.44
673.94	621.40
674.28	617.55
674.62	613.64
674.96	609.55
675.30	605.52
675.64	601.59
675.97	597.73
676.31	593.90
676.65	589.98
676.99	586.50
677.33	582.59
677.67	578.69
678.01	574.61
678.34	570.80
678.68	567.15
679.02	563.45
679.36	559.73
679.70	556.29
680.04	552.84
680.37	549.19
680.71	545.76
681.05	542.41
681.39	538.99
681.73	535.68
682.06	532.67
682.40	529.74
682.74	526.62
683.08	523.30
683.42	520.07
683.75	516.98
684.09	513.53
684.43	510.38
684.77	507.27
685.10	504.34
685.44	501.33
685.78	498.39
686.12	495.43
686.45	492.47
686.79	489.45
687.13	486.40
687.46	483.43
687.80	480.30
688.14	477.34
688.48	474.48
688.81	471.49
689.15	468.61
689.49	465.77
689.82	463.06
690.16	460.43
690.50	457.80
690.83	455.04
691.17	452.39
691.51	449.77
691.84	447.09
692.18	444.48
692.52	441.79
692.85	439.09
693.19	436.55
693.52	433.97
693.86	431.50
694.20	429.07
694.53	426.77
694.87	424.32
695.21	421.86
695.54	419.50
695.88	417.15
696.21	414.63
696.55	412.26
696.88	409.99
697.22	407.68
697.56	405.44
697.89	403.30
698.23	401.30
698.56	399.20
698.90	397.30
699.23	395.06
699.57	393.03
699.90	390.83
700.24	388.70
700.58	386.75
700.91	384.70
701.25	382.80
701.58	380.97
701.92	379.21
702.25	377.41
702.59	375.58
702.92	373.74
703.26	372.11
703.59	370.51
703.93	368.80
704.26	367.00
704.60	365.23
704.93	363.44
705.26	361.60
705.60	360.02
705.93	358.45
706.27	356.91
706.60	355.21
706.94	353.83
707.27	352.34
707.61	350.82
707.94	349.46
708.27	347.92
708.61	346.36
708.94	344.92
709.28	343.49
709.61	342.14
709.94	340.89
710.28	339.52
710.61	338.07
710.95	336.60
711.28	335.43
711.61	334.03
711.95	332.73
712.28	331.33
712.61	329.95
712.95	328.66
713.28	327.49
713.61	326.30
713.95	325.00
714.28	323.81
714.61	322.64
714.95	321.50
715.28	320.30
715.61	319.16
715.95	318.10
716.28	317.06
716.61	315.91
716.95	314.64
717.28	313.65
717.61	312.61
717.94	311.64
718.28	310.57
718.61	309.65
718.94	308.76
719.27	308.05
719.61	307.12
719.94	306.19
720.27	305.16
720.60	304.37
720.94	303.53
721.27	302.67
721.60	301.89
721.93	301.06
722.27	300.29
722.60	299.61
722.93	298.79
723.26	298.03
723.59	297.24
723.93	296.73
724.26	295.91
724.59	295.14
724.92	294.48
725.25	293.75
725.59	293.04
725.92	292.35
726.25	291.65
726.58	291.06
726.91	290.34
727.24	289.92
727.57	289.27
727.91	288.66
728.24	288.00
728.57	287.31
728.90	286.73
729.23	286.01
729.56	285.37
729.89	284.80
730.22	284.10
730.55	283.45
730.89	282.78
731.22	282.22
731.55	281.69
731.88	281.10
732.21	280.57
732.54	279.96
732.87	279.31
733.20	278.80
733.53	278.24
733.86	277.86
734.19	277.10
734.52	276.60
734.85	276.24
735.18	275.79
735.51	275.25
735.84	274.80
736.17	274.46
736.50	273.93
736.83	273.53
737.16	273.12
737.49	272.62
737.82	272.09
738.15	271.61
738.48	271.08
738.81	270.53
739.14	270.05
739.47	269.60
739.80	269.21
740.13	268.68
740.46	268.18
740.79	267.52
741.12	267.12
741.45	266.71
741.78	266.14
742.11	265.66
742.44	265.19
742.77	264.56
743.10	264.03
743.43	263.57
743.75	262.90
744.08	262.68
744.41	262.28
744.74	262.00
745.07	261.52
745.40	261.13
745.73	260.86
746.06	260.48
746.39	260.12
746.71	259.67
747.04	259.07
747.37	258.72
747.70	258.37
748.03	257.99
748.36	257.58
748.68	257.21
749.01	256.79
749.34	256.49
749.67	256.28
750.00	256.02
750.33	255.81
750.65	255.53
750.98	254.95
751.31	254.59
751.64	254.16
751.97	254.06
752.29	253.78
752.62	253.31
752.95	252.98
753.28	252.56
753.60	252.26
753.93	252.21
754.26	251.91
754.59	251.60
754.91	251.29
755.24	251.00
755.57	250.68
755.90	250.33
756.22	250.07
756.55	249.82
756.88	249.45
757.20	249.00
757.53	248.69
757.86	248.52
758.19	248.35
758.51	248.16
758.84	247.76
759.17	247.63
759.49	247.45
759.82	247.35
760.15	247.31
760.47	247.20
760.80	246.96
761.13	246.79
761.45	246.58
761.78	246.45
762.11	246.16
762.43	245.89
762.76	245.75
763.08	245.56
763.41	245.36
763.74	245.13
764.06	245.07
764.39	245.04
764.71	244.78
765.04	244.61
765.37	244.40
765.69	244.27
766.02	244.00
766.34	243.90
766.67	243.70
767.00	243.58
767.32	243.49
767.65	243.42
767.97	243.24
768.30	243.18
768.62	242.99
768.95	242.92
769.27	242.86
769.60	242.91
769.92	242.74
770.25	242.68
770.57	242.58
770.90	242.41
771.22	242.12
771.55	242.10
771.87	241.93
772.20	241.76
772.52	241.73
772.85	241.77
773.17	241.52
773.50	241.39
773.82	241.22
774.15	241.02
774.47	240.78
774.80	240.60
775.12	240.50
775.45	240.41
775.77	240.28
776.09	240.24
776.42	240.00
776.74	239.88
777.07	239.62
777.39	239.50
777.72	239.37
778.04	239.31
778.36	239.08
778.69	238.99
779.01	238.87
779.33	238.58
779.66	238.28
779.98	238.24
780.31	238.11
780.63	237.99
780.95	237.82
781.28	237.64
781.60	237.50
781.92	237.30
782.25	237.12
782.57	237.00
782.89	236.74
783.22	236.57
783.54	236.48
783.86	236.29
784.19	236.21
784.51	236.10
784.83	235.93
785.16	235.83
785.48	235.73
785.80	235.66
786.12	235.50
