SpectraSuite Data File
++++++++++++++++++++++++++++++++++++
Date: Fri Feb 01 14:39:39 EST 2013
User: group
Dark Spectrum Present: No
Reference Spectrum Present: No
Number of Sampled Component Spectra: 1
Spectrometers: USB2E7196
Integration Time (usec): 70000 (USB2E7196)
Spectra Averaged: 10 (USB2E7196)
Boxcar Smoothing: 10 (USB2E7196)
Correct for Electrical Dark: No (USB2E7196)
Strobe/Lamp Enabled: No (USB2E7196)
Correct for Detector Non-linearity: No (USB2E7196)
Correct for Stray Light: No (USB2E7196)
Number of Pixels in Processed Spectrum: 2048
>>>>>Begin Processed Spectral Data<<<<<
339.09	0.00
339.48	215.70
339.86	219.00
340.24	220.20
340.63	220.40
341.01	224.30
341.39	222.50
341.78	223.20
342.16	226.30
342.54	224.50
342.93	214.60
343.31	225.46
343.69	226.03
344.07	226.35
344.46	226.75
344.84	227.14
345.22	227.25
345.60	227.47
345.99	227.66
346.37	227.70
346.75	227.86
347.13	227.93
347.52	227.99
347.90	228.05
348.28	228.01
348.66	228.03
349.05	227.93
349.43	227.98
349.81	228.05
350.19	227.93
350.57	227.92
350.96	228.03
351.34	228.06
351.72	228.14
352.10	228.29
352.48	228.38
352.87	228.33
353.25	228.46
353.63	228.58
354.01	228.72
354.39	228.81
354.77	228.84
355.15	228.94
355.54	228.91
355.92	228.95
356.30	228.94
356.68	229.09
357.06	229.13
357.44	229.10
357.82	229.19
358.20	229.40
358.58	229.50
358.97	229.54
359.35	229.66
359.73	229.70
360.11	229.73
360.49	229.64
360.87	229.70
361.25	229.85
361.63	229.96
362.01	230.00
362.39	230.12
362.77	230.21
363.15	230.17
363.53	230.28
363.91	230.27
364.29	230.31
364.67	230.08
365.05	230.18
365.43	230.19
365.81	230.16
366.19	230.10
366.57	230.16
366.95	230.22
367.33	230.09
367.71	230.08
368.09	230.10
368.47	230.10
368.85	230.14
369.23	230.00
369.61	229.92
369.99	229.86
370.37	229.75
370.75	229.80
371.13	229.75
371.51	229.67
371.89	229.65
372.27	229.65
372.65	229.66
373.03	229.57
373.41	229.43
373.78	229.32
374.16	229.24
374.54	229.05
374.92	228.86
375.30	228.84
375.68	228.73
376.06	228.66
376.44	228.58
376.82	228.51
377.19	228.48
377.57	228.29
377.95	228.17
378.33	228.08
378.71	227.83
379.09	227.83
379.47	227.84
379.84	227.77
380.22	227.66
380.60	227.58
380.98	227.43
381.36	227.49
381.73	227.44
382.11	227.35
382.49	227.26
382.87	227.22
383.25	227.17
383.62	227.32
384.00	227.19
384.38	227.09
384.76	226.99
385.13	226.94
385.51	226.89
385.89	226.80
386.27	226.74
386.64	226.70
387.02	226.61
387.40	226.55
387.78	226.51
388.15	226.56
388.53	226.49
388.91	226.50
389.29	226.37
389.66	226.26
390.04	226.21
390.42	226.23
390.79	226.23
391.17	226.16
391.55	226.01
391.92	226.10
392.30	226.17
392.68	226.17
393.05	226.23
393.43	226.36
393.81	226.35
394.18	226.37
394.56	226.52
394.94	226.49
395.31	226.46
395.69	226.45
396.06	226.40
396.44	226.48
396.82	226.46
397.19	226.62
397.57	226.80
397.95	226.93
398.32	227.03
398.70	227.04
399.07	227.28
399.45	227.26
399.82	227.33
400.20	227.42
400.58	227.52
400.95	227.51
401.33	227.51
401.70	227.73
402.08	227.79
402.45	227.80
402.83	228.00
403.20	228.14
403.58	228.28
403.95	228.46
404.33	228.69
404.71	228.95
405.08	229.21
405.46	229.19
405.83	229.36
406.21	229.52
406.58	229.78
406.96	229.81
407.33	230.00
407.70	230.11
408.08	230.40
408.45	230.56
408.83	230.81
409.20	231.09
409.58	231.26
409.95	231.55
410.33	231.84
410.70	232.08
411.08	232.39
411.45	232.57
411.82	232.87
412.20	233.16
412.57	233.53
412.95	233.70
413.32	234.29
413.69	234.60
414.07	234.99
414.44	235.38
414.82	235.90
415.19	236.48
415.56	237.12
415.94	237.60
416.31	238.28
416.68	238.84
417.06	239.38
417.43	240.11
417.81	240.96
418.18	241.70
418.55	242.60
418.93	243.38
419.30	244.46
419.67	245.40
420.04	246.30
420.42	247.18
420.79	248.40
421.16	249.45
421.54	250.70
421.91	251.88
422.28	253.17
422.66	254.51
423.03	255.77
423.40	257.11
423.77	258.51
424.15	259.91
424.52	261.44
424.89	263.23
425.26	264.69
425.64	266.10
426.01	267.71
426.38	269.35
426.75	271.21
427.13	272.95
427.50	274.80
427.87	276.83
428.24	278.80
428.61	280.46
428.99	282.55
429.36	284.69
429.73	286.88
430.10	288.94
430.47	291.03
430.85	293.18
431.22	295.56
431.59	298.14
431.96	300.70
432.33	303.35
432.70	305.92
433.08	309.00
433.45	311.77
433.82	314.59
434.19	317.60
434.56	320.64
434.93	323.46
435.30	326.43
435.68	329.52
436.05	332.69
436.42	335.79
436.79	338.50
437.16	341.43
437.53	344.60
437.90	347.78
438.27	350.86
438.64	354.22
439.01	357.03
439.38	359.50
439.75	361.80
440.13	364.68
440.50	367.31
440.87	369.62
441.24	371.88
441.61	374.42
441.98	376.18
442.35	378.26
442.72	380.46
443.09	382.53
443.46	383.75
443.83	384.40
444.20	385.16
444.57	386.30
444.94	386.87
445.31	387.44
445.68	388.16
446.05	388.46
446.42	388.16
446.79	387.94
447.16	387.64
447.53	387.54
447.90	386.48
448.27	385.44
448.64	383.70
449.01	382.74
449.37	380.73
449.74	378.87
450.11	376.69
450.48	374.05
450.85	371.43
451.22	369.32
451.59	367.39
451.96	365.49
452.33	362.79
452.70	360.39
453.07	357.27
453.43	354.12
453.80	351.21
454.17	348.40
454.54	345.68
454.91	342.77
455.28	339.72
455.65	337.14
456.02	334.59
456.38	332.40
456.75	329.50
457.12	327.03
457.49	324.61
457.86	322.06
458.23	320.18
458.59	317.95
458.96	315.69
459.33	313.60
459.70	311.52
460.07	309.80
460.43	307.84
460.80	306.20
461.17	304.54
461.54	302.82
461.91	301.05
462.27	299.39
462.64	298.06
463.01	296.72
463.38	295.09
463.74	293.36
464.11	291.96
464.48	290.76
464.85	289.47
465.21	288.59
465.58	287.57
465.95	286.30
466.32	285.15
466.68	283.88
467.05	282.86
467.42	281.73
467.78	280.61
468.15	279.70
468.52	278.87
468.88	277.79
469.25	276.75
469.62	276.09
469.98	275.28
470.35	274.50
470.72	273.71
471.08	272.89
471.45	272.26
471.82	271.58
472.18	270.80
472.55	270.21
472.92	269.46
473.28	268.84
473.65	268.15
474.02	267.51
474.38	267.14
474.75	266.68
475.11	266.15
475.48	265.69
475.85	265.17
476.21	264.68
476.58	264.36
476.94	264.26
477.31	263.90
477.67	263.46
478.04	263.06
478.41	262.80
478.77	262.73
479.14	262.32
479.50	262.03
479.87	261.84
480.23	261.66
480.60	261.36
480.96	261.02
481.33	260.94
481.69	260.86
482.06	260.70
482.42	260.55
482.79	260.45
483.15	260.36
483.52	260.31
483.88	260.18
484.25	260.13
484.61	259.84
484.98	259.79
485.34	259.88
485.71	259.89
486.07	259.84
486.44	259.67
486.80	259.82
487.17	259.84
487.53	259.82
487.90	259.82
488.26	260.10
488.62	260.29
488.99	260.24
489.35	260.37
489.72	260.63
490.08	260.75
490.44	260.92
490.81	261.28
491.17	261.40
491.54	261.73
491.90	261.95
492.26	262.39
492.63	262.57
492.99	262.83
493.36	263.18
493.72	263.59
494.08	263.87
494.45	264.10
494.81	264.52
495.17	265.02
495.54	265.57
495.90	265.90
496.26	266.38
496.63	266.99
496.99	267.49
497.35	267.86
497.72	268.45
498.08	268.90
498.44	269.32
498.80	270.09
499.17	270.71
499.53	271.37
499.89	272.09
500.26	272.96
500.62	273.68
500.98	274.48
501.34	275.25
501.71	276.28
502.07	277.22
502.43	278.20
502.79	279.17
503.16	280.10
503.52	281.27
503.88	282.30
504.24	283.60
504.60	284.92
504.97	286.31
505.33	287.60
505.69	289.18
506.05	290.66
506.41	292.19
506.78	293.67
507.14	295.37
507.50	296.93
507.86	298.66
508.22	300.58
508.59	302.50
508.95	304.52
509.31	306.65
509.67	308.90
510.03	311.22
510.39	313.59
510.75	316.06
511.12	318.63
511.48	321.33
511.84	323.89
512.20	326.56
512.56	329.47
512.92	332.55
513.28	335.70
513.64	338.89
514.00	342.07
514.37	345.52
514.73	349.03
515.09	352.76
515.45	356.33
515.81	360.01
516.17	363.93
516.53	367.89
516.89	371.78
517.25	376.11
517.61	380.28
517.97	384.61
518.33	389.13
518.69	393.60
519.05	398.39
519.41	403.17
519.77	408.03
520.13	413.02
520.49	418.06
520.85	423.22
521.21	428.57
521.57	434.15
521.93	439.51
522.29	445.08
522.65	450.71
523.01	456.56
523.37	462.27
523.73	468.22
524.09	474.15
524.45	480.26
524.81	486.33
525.17	492.83
525.53	499.32
525.89	505.79
526.25	512.57
526.61	519.27
526.97	526.18
527.33	533.30
527.68	540.54
528.04	547.45
528.40	554.78
528.76	562.20
529.12	569.62
529.48	577.26
529.84	584.51
530.20	592.25
530.56	600.22
530.91	608.43
531.27	616.45
531.63	624.52
531.99	632.75
532.35	640.68
532.71	648.80
533.07	657.00
533.42	665.61
533.78	673.79
534.14	682.14
534.50	690.50
534.86	698.70
535.21	706.76
535.57	715.46
535.93	723.90
536.29	732.49
536.65	740.89
537.00	749.40
537.36	758.19
537.72	766.40
538.08	774.88
538.44	783.31
538.79	791.84
539.15	800.30
539.51	809.01
539.87	817.87
540.22	826.49
540.58	835.35
540.94	843.48
541.29	852.08
541.65	860.50
542.01	869.17
542.37	877.87
542.72	886.25
543.08	894.78
543.44	903.42
543.79	911.39
544.15	919.82
544.51	928.17
544.87	936.69
545.22	945.32
545.58	953.50
545.94	961.36
546.29	969.30
546.65	977.58
547.01	985.04
547.36	992.76
547.72	1000.41
548.07	1007.98
548.43	1015.63
548.79	1023.37
549.14	1030.90
549.50	1038.13
549.86	1045.30
550.21	1052.66
550.57	1060.22
550.92	1067.27
551.28	1074.40
551.64	1081.25
551.99	1088.30
552.35	1095.14
552.70	1102.02
553.06	1108.91
553.41	1115.73
553.77	1122.72
554.13	1128.89
554.48	1135.42
554.84	1141.92
555.19	1148.27
555.55	1154.86
555.90	1161.29
556.26	1167.32
556.61	1173.04
556.97	1179.04
557.32	1185.08
557.68	1191.10
558.03	1196.48
558.39	1202.05
558.74	1208.24
559.10	1214.07
559.45	1219.95
559.81	1225.79
560.16	1231.06
560.52	1236.27
560.87	1242.07
561.23	1246.85
561.58	1252.66
561.94	1257.97
562.29	1262.65
562.64	1267.69
563.00	1271.82
563.35	1277.06
563.71	1282.28
564.06	1287.58
564.42	1292.17
564.77	1296.67
565.12	1301.28
565.48	1305.97
565.83	1310.11
566.19	1314.16
566.54	1318.20
566.89	1321.94
567.25	1325.51
567.60	1329.45
567.96	1333.36
568.31	1336.66
568.66	1340.14
569.02	1343.10
569.37	1346.37
569.72	1349.83
570.08	1352.55
570.43	1355.93
570.78	1358.22
571.14	1360.08
571.49	1362.53
571.84	1365.14
572.20	1367.42
572.55	1369.61
572.90	1371.12
573.26	1373.43
573.61	1375.12
573.96	1376.55
574.31	1377.38
574.67	1378.20
575.02	1379.10
575.37	1380.09
575.72	1380.49
576.08	1381.40
576.43	1382.06
576.78	1382.71
577.13	1383.38
577.49	1384.17
577.84	1384.05
578.19	1384.51
578.54	1384.70
578.90	1384.37
579.25	1383.85
579.60	1383.43
579.95	1382.70
580.30	1382.18
580.66	1381.01
581.01	1379.96
581.36	1379.18
581.71	1379.15
582.06	1378.56
582.42	1377.72
582.77	1376.40
583.12	1375.67
583.47	1374.98
583.82	1374.49
584.17	1373.18
584.53	1371.78
584.88	1370.68
585.23	1369.80
585.58	1368.32
585.93	1367.22
586.28	1365.87
586.63	1364.86
586.98	1363.97
587.34	1362.70
587.69	1361.43
588.04	1360.37
588.39	1359.48
588.74	1357.58
589.09	1355.32
589.44	1353.21
589.79	1351.39
590.14	1349.73
590.49	1347.77
590.84	1345.06
591.19	1342.74
591.54	1340.38
591.89	1337.76
592.25	1335.42
592.60	1332.53
592.95	1329.36
593.30	1326.44
593.65	1323.76
594.00	1320.79
594.35	1318.14
594.70	1315.00
595.05	1311.80
595.40	1308.23
595.75	1304.81
596.10	1302.22
596.45	1299.79
596.80	1297.39
597.15	1294.22
597.50	1291.26
597.85	1288.53
598.19	1286.37
598.54	1283.28
598.89	1280.50
599.24	1278.25
599.59	1275.13
599.94	1272.53
600.29	1270.07
600.64	1266.92
600.99	1263.34
601.34	1260.31
601.69	1256.77
602.04	1253.70
602.39	1251.03
602.74	1248.43
603.08	1245.52
603.43	1242.36
603.78	1238.70
604.13	1235.40
604.48	1232.36
604.83	1228.76
605.18	1225.31
605.53	1220.98
605.87	1217.03
606.22	1213.22
606.57	1209.02
606.92	1205.31
607.27	1201.54
607.62	1198.16
607.96	1194.54
608.31	1191.27
608.66	1187.01
609.01	1182.90
609.36	1178.29
609.70	1173.56
610.05	1169.07
610.40	1164.59
610.75	1160.28
611.10	1155.98
611.44	1151.13
611.79	1146.82
612.14	1142.31
612.49	1137.61
612.83	1133.21
613.18	1128.78
613.53	1124.75
613.88	1119.74
614.22	1114.77
614.57	1109.87
614.92	1104.88
615.27	1100.40
615.61	1095.68
615.96	1091.32
616.31	1087.04
616.65	1083.53
617.00	1079.53
617.35	1075.22
617.70	1070.57
618.04	1065.66
618.39	1061.23
618.74	1057.07
619.08	1052.28
619.43	1047.94
619.78	1043.59
620.12	1039.41
620.47	1034.89
620.82	1029.90
621.16	1025.94
621.51	1021.91
621.85	1017.47
622.20	1012.60
622.55	1008.23
622.89	1003.81
623.24	999.73
623.59	995.27
623.93	990.92
624.28	986.41
624.62	982.00
624.97	978.00
625.32	973.96
625.66	969.78
626.01	965.16
626.35	960.84
626.70	956.66
627.04	952.41
627.39	947.67
627.73	943.30
628.08	939.01
628.43	934.72
628.77	930.23
629.12	925.74
629.46	921.40
629.81	916.53
630.15	912.11
630.50	907.43
630.84	902.23
631.19	897.15
631.53	892.44
631.88	887.48
632.22	882.54
632.57	878.15
632.91	873.26
633.26	868.82
633.60	864.19
633.95	859.57
634.29	854.91
634.64	850.72
634.98	846.28
635.32	842.10
635.67	837.81
636.01	833.20
636.36	828.90
636.70	824.81
637.05	820.94
637.39	816.95
637.73	812.83
638.08	809.54
638.42	805.96
638.77	802.26
639.11	798.37
639.45	794.35
639.80	790.23
640.14	786.46
640.49	782.49
640.83	778.48
641.17	774.30
641.52	770.22
641.86	766.27
642.20	762.38
642.55	758.33
642.89	754.30
643.23	750.48
643.58	747.00
643.92	742.90
644.26	738.84
644.61	734.82
644.95	730.98
645.29	726.43
645.64	721.90
645.98	717.76
646.32	713.98
646.66	710.03
647.01	705.99
647.35	702.02
647.69	698.10
648.04	694.25
648.38	690.43
648.72	686.34
649.06	682.11
649.41	678.25
649.75	674.21
650.09	670.14
650.43	666.21
650.78	661.99
651.12	658.17
651.46	654.30
651.80	650.42
652.14	646.52
652.49	643.07
652.83	639.47
653.17	635.55
653.51	631.70
653.85	628.04
654.20	624.20
654.54	620.38
654.88	616.56
655.22	612.65
655.56	608.90
655.90	605.51
656.25	602.17
656.59	598.54
656.93	595.11
657.27	591.70
657.61	588.22
657.95	584.82
658.29	581.45
658.64	578.11
658.98	574.70
659.32	570.99
659.66	567.48
660.00	564.14
660.34	560.69
660.68	557.47
661.02	554.25
661.36	551.18
661.70	548.13
662.05	545.23
662.39	542.63
662.73	539.63
663.07	536.78
663.41	533.88
663.75	531.00
664.09	528.09
664.43	525.30
664.77	522.52
665.11	519.76
665.45	517.14
665.79	514.41
666.13	511.52
666.47	508.93
666.81	506.26
667.15	503.38
667.49	500.84
667.83	498.20
668.17	495.46
668.51	492.84
668.85	490.14
669.19	487.60
669.53	484.80
669.87	482.28
670.21	479.67
670.55	477.05
670.89	474.73
671.23	472.52
671.57	470.04
671.91	467.65
672.25	465.17
672.58	462.80
672.92	460.42
673.26	458.36
673.60	456.07
673.94	453.87
674.28	451.85
674.62	449.79
674.96	447.70
675.30	445.65
675.64	443.56
675.97	441.57
676.31	439.51
676.65	437.53
676.99	435.60
677.33	433.53
677.67	431.43
678.01	429.14
678.34	426.83
678.68	424.82
679.02	422.77
679.36	420.86
679.70	418.90
680.04	416.89
680.37	414.87
680.71	413.09
681.05	411.25
681.39	409.49
681.73	407.76
682.06	406.08
682.40	404.32
682.74	402.52
683.08	400.64
683.42	398.73
683.75	397.03
684.09	395.35
684.43	393.68
684.77	392.16
685.10	390.38
685.44	388.67
685.78	386.94
686.12	385.22
686.45	383.62
686.79	381.99
687.13	380.55
687.46	378.86
687.80	377.22
688.14	375.46
688.48	374.02
688.81	372.34
689.15	370.54
689.49	368.94
689.82	367.48
690.16	365.99
690.50	364.64
690.83	363.16
691.17	361.57
691.51	359.99
691.84	358.45
692.18	357.14
692.52	355.74
692.85	354.44
693.19	353.10
693.52	351.73
693.86	350.26
694.20	348.82
694.53	347.53
694.87	346.16
695.21	344.89
695.54	343.33
695.88	341.77
696.21	340.50
696.55	339.20
696.88	337.80
697.22	336.58
697.56	335.22
697.89	333.78
698.23	332.43
698.56	331.21
698.90	330.03
699.23	328.56
699.57	327.30
699.90	326.06
700.24	324.88
700.58	323.64
700.91	322.53
701.25	321.43
701.58	320.36
701.92	319.30
702.25	318.18
702.59	317.05
702.92	316.19
703.26	315.07
703.59	314.08
703.93	313.25
704.26	312.29
704.60	311.26
704.93	310.43
705.26	309.51
705.60	308.69
705.93	307.82
706.27	307.06
706.60	306.27
706.94	305.53
707.27	304.68
707.61	303.92
707.94	303.02
708.27	302.24
708.61	301.40
708.94	300.66
709.28	299.91
709.61	299.23
709.94	298.56
710.28	297.95
710.61	297.23
710.95	296.31
711.28	295.57
711.61	294.80
711.95	294.03
712.28	293.29
712.61	292.51
712.95	291.85
713.28	291.44
713.61	290.82
713.95	289.98
714.28	289.24
714.61	288.47
714.95	287.79
715.28	286.96
715.61	286.36
715.95	285.70
716.28	285.04
716.61	284.60
716.95	283.89
717.28	283.25
717.61	282.50
717.94	281.90
718.28	281.23
718.61	280.70
718.94	280.25
719.27	279.75
719.61	279.25
719.94	278.61
720.27	277.97
720.60	277.45
720.94	277.07
721.27	276.65
721.60	276.23
721.93	275.82
722.27	275.40
722.60	274.92
722.93	274.40
723.26	273.99
723.59	273.36
723.93	273.00
724.26	272.62
724.59	272.30
724.92	271.97
725.25	271.49
725.59	271.00
725.92	270.59
726.25	270.17
726.58	269.69
726.91	269.30
727.24	268.89
727.57	268.42
727.91	267.90
728.24	267.53
728.57	266.95
728.90	266.50
729.23	266.08
729.56	265.72
729.89	265.22
730.22	264.82
730.55	264.40
730.89	263.92
731.22	263.51
731.55	263.02
731.88	262.60
732.21	262.30
732.54	261.90
732.87	261.39
733.20	260.98
733.53	260.60
733.86	260.20
734.19	259.78
734.52	259.42
734.85	259.12
735.18	258.72
735.51	258.50
735.84	258.18
736.17	257.84
736.50	257.40
736.83	257.34
737.16	256.98
737.49	256.62
737.82	256.20
738.15	255.97
738.48	255.63
738.81	255.27
739.14	254.96
739.47	254.66
739.80	254.35
740.13	254.06
740.46	253.73
740.79	253.44
741.12	253.07
741.45	252.78
741.78	252.38
742.11	251.95
742.44	251.67
742.77	251.32
743.10	250.98
743.43	250.64
743.75	250.07
744.08	249.97
744.41	249.72
744.74	249.60
745.07	249.22
745.40	249.09
745.73	248.88
746.06	248.56
746.39	248.39
746.71	248.16
747.04	247.92
747.37	247.67
747.70	247.39
748.03	247.22
748.36	247.00
748.68	246.77
749.01	246.61
749.34	246.38
749.67	246.19
750.00	246.04
750.33	246.03
750.65	245.92
750.98	245.61
751.31	245.37
751.64	245.15
751.97	245.01
752.29	244.80
752.62	244.55
752.95	244.29
753.28	244.05
753.60	243.91
753.93	243.79
754.26	243.65
754.59	243.46
754.91	243.30
755.24	243.17
755.57	243.03
755.90	242.96
756.22	242.79
756.55	242.66
756.88	242.51
757.20	242.20
757.53	242.00
757.86	241.82
758.19	241.72
758.51	241.57
758.84	241.41
759.17	241.27
759.49	241.17
759.82	241.22
760.15	241.20
760.47	241.04
760.80	240.84
761.13	240.89
761.45	240.88
761.78	240.77
762.11	240.70
762.43	240.65
762.76	240.48
763.08	240.45
763.41	240.42
763.74	240.31
764.06	240.18
764.39	240.06
764.71	239.90
765.04	239.85
765.37	239.87
765.69	239.70
766.02	239.59
766.34	239.45
766.67	239.29
767.00	239.23
767.32	239.22
767.65	239.24
767.97	239.01
768.30	238.99
768.62	238.84
768.95	238.68
769.27	238.52
769.60	238.43
769.92	238.17
770.25	237.99
770.57	237.94
770.90	237.92
771.22	237.83
771.55	237.72
771.87	237.57
772.20	237.34
772.52	237.29
772.85	237.44
773.17	237.30
773.50	237.16
773.82	236.88
774.15	236.73
774.47	236.48
774.80	236.27
775.12	235.99
775.45	235.80
775.77	235.63
776.09	235.51
776.42	235.36
776.74	235.37
777.07	235.35
777.39	235.13
777.72	234.93
778.04	234.80
778.36	234.70
778.69	234.66
779.01	234.63
779.33	234.40
779.66	234.04
779.98	233.96
780.31	233.77
780.63	233.72
780.95	233.62
781.28	233.54
781.60	233.41
781.92	233.39
782.25	233.28
782.57	233.18
782.89	233.00
783.22	232.94
783.54	232.82
783.86	232.68
784.19	232.52
784.51	232.53
784.83	232.52
785.16	232.42
785.48	232.29
785.80	232.14
786.12	232.15
786.45	232.05
786.77	232.00
787.09	232.09
787.42	232.05
787.74	231.89
788.06	231.88
788.38	231.94
788.71	231.88
789.03	231.90
789.35	231.89
789.67	231.89
