SpectraSuite Data File
++++++++++++++++++++++++++++++++++++
Date: Fri Feb 01 14:37:04 EST 2013
User: group
Dark Spectrum Present: No
Reference Spectrum Present: No
Number of Sampled Component Spectra: 1
Spectrometers: USB2E7196
Integration Time (usec): 70000 (USB2E7196)
Spectra Averaged: 10 (USB2E7196)
Boxcar Smoothing: 10 (USB2E7196)
Correct for Electrical Dark: No (USB2E7196)
Strobe/Lamp Enabled: No (USB2E7196)
Correct for Detector Non-linearity: No (USB2E7196)
Correct for Stray Light: No (USB2E7196)
Number of Pixels in Processed Spectrum: 2048
>>>>>Begin Processed Spectral Data<<<<<
339.09	0.00
339.48	216.20
339.86	219.10
340.24	218.00
340.63	220.20
341.01	224.00
341.39	221.60
341.78	226.50
342.16	227.00
342.54	224.90
342.93	214.64
343.31	225.46
343.69	225.97
344.07	226.39
344.46	226.86
344.84	227.22
345.22	227.39
345.60	227.68
345.99	227.73
346.37	227.73
346.75	227.86
347.13	227.79
347.52	227.69
347.90	227.68
348.28	227.62
348.66	227.64
349.05	227.68
349.43	227.67
349.81	227.65
350.19	227.59
350.57	227.55
350.96	227.58
351.34	227.70
351.72	227.73
352.10	227.77
352.48	227.82
352.87	227.94
353.25	228.01
353.63	228.14
354.01	228.19
354.39	228.28
354.77	228.32
355.15	228.51
355.54	228.63
355.92	228.77
356.30	228.96
356.68	229.14
357.06	229.20
357.44	229.23
357.82	229.32
358.20	229.54
358.58	229.68
358.97	229.90
359.35	229.88
359.73	230.04
360.11	230.13
360.49	230.20
360.87	230.25
361.25	230.32
361.63	230.40
362.01	230.51
362.39	230.60
362.77	230.63
363.15	230.70
363.53	230.66
363.91	230.66
364.29	230.54
364.67	230.42
365.05	230.43
365.43	230.63
365.81	230.65
366.19	230.77
366.57	230.79
366.95	230.78
367.33	230.81
367.71	230.67
368.09	230.68
368.47	230.67
368.85	230.62
369.23	230.64
369.61	230.47
369.99	230.57
370.37	230.57
370.75	230.70
371.13	230.59
371.51	230.63
371.89	230.64
372.27	230.69
372.65	230.66
373.03	230.61
373.41	230.41
373.78	230.36
374.16	230.10
374.54	229.96
374.92	229.80
375.30	229.71
375.68	229.67
376.06	229.60
376.44	229.54
376.82	229.46
377.19	229.35
377.57	229.33
377.95	229.05
378.33	228.91
378.71	228.73
379.09	228.76
379.47	228.67
379.84	228.43
380.22	228.39
380.60	228.20
380.98	228.15
381.36	228.07
381.73	228.00
382.11	228.01
382.49	227.98
382.87	227.93
383.25	227.80
383.62	228.01
384.00	227.87
384.38	227.74
384.76	227.70
385.13	227.70
385.51	227.75
385.89	227.70
386.27	227.65
386.64	227.59
387.02	227.52
387.40	227.45
387.78	227.49
388.15	227.44
388.53	227.43
388.91	227.30
389.29	227.17
389.66	227.02
390.04	226.98
390.42	226.92
390.79	226.83
391.17	226.80
391.55	226.55
391.92	226.55
392.30	226.64
392.68	226.58
393.05	226.63
393.43	226.56
393.81	226.61
394.18	226.59
394.56	226.58
394.94	226.61
395.31	226.56
395.69	226.59
396.06	226.56
396.44	226.56
396.82	226.64
397.19	226.88
397.57	226.91
397.95	226.91
398.32	226.98
398.70	227.12
399.07	227.23
399.45	227.41
399.82	227.43
400.20	227.40
400.58	227.51
400.95	227.45
401.33	227.56
401.70	227.70
402.08	227.92
402.45	228.04
402.83	228.14
403.20	228.44
403.58	228.70
403.95	228.92
404.33	229.17
404.71	229.38
405.08	229.60
405.46	229.87
405.83	230.16
406.21	230.35
406.58	230.61
406.96	230.87
407.33	231.00
407.70	231.34
408.08	231.88
408.45	232.24
408.83	232.59
409.20	232.91
409.58	233.30
409.95	233.70
410.33	234.17
410.70	234.57
411.08	234.93
411.45	235.33
411.82	235.86
412.20	236.44
412.57	237.13
412.95	237.64
413.32	238.38
413.69	239.10
414.07	239.90
414.44	240.70
414.82	241.55
415.19	242.48
415.56	243.47
415.94	244.33
416.31	245.45
416.68	246.70
417.06	247.86
417.43	249.06
417.81	250.33
418.18	251.86
418.55	253.38
418.93	255.01
419.30	256.78
419.67	258.48
420.04	260.22
420.42	262.10
420.79	264.34
421.16	266.51
421.54	268.75
421.91	271.03
422.28	273.56
422.66	276.15
423.03	278.85
423.40	281.53
423.77	284.11
424.15	286.91
424.52	289.70
424.89	292.96
425.26	296.08
425.64	299.08
426.01	302.12
426.38	305.41
426.75	308.79
427.13	312.16
427.50	315.79
427.87	319.47
428.24	323.27
428.61	326.76
428.99	330.74
429.36	335.03
429.73	339.19
430.10	343.08
430.47	347.19
430.85	351.53
431.22	355.97
431.59	361.04
431.96	365.61
432.33	370.80
432.70	375.89
433.08	381.69
433.45	387.03
433.82	392.68
434.19	398.78
434.56	404.58
434.93	410.23
435.30	415.74
435.68	422.17
436.05	428.28
436.42	434.46
436.79	440.02
437.16	445.84
437.53	452.11
437.90	458.43
438.27	464.58
438.64	470.76
439.01	476.74
439.38	482.01
439.75	487.05
440.13	492.71
440.50	498.02
440.87	502.45
441.24	507.22
441.61	512.19
441.98	516.07
442.35	520.73
442.72	525.35
443.09	530.10
443.46	532.92
443.83	535.12
444.20	536.84
444.57	539.24
444.94	540.69
445.31	542.22
445.68	543.83
446.05	544.86
446.42	545.13
446.79	545.00
447.16	544.84
447.53	545.04
447.90	543.53
448.27	541.83
448.64	539.15
449.01	537.52
449.37	534.13
449.74	530.70
450.11	526.43
450.48	521.74
450.85	516.72
451.22	512.80
451.59	508.83
451.96	505.20
452.33	500.16
452.70	495.63
453.07	490.03
453.43	484.13
453.80	478.56
454.17	473.02
454.54	468.12
454.91	462.55
455.28	457.11
455.65	452.08
456.02	447.06
456.38	442.95
456.75	437.41
457.12	432.84
457.49	428.25
457.86	423.86
458.23	420.15
458.59	415.96
458.96	411.45
459.33	407.50
459.70	403.63
460.07	400.66
460.43	397.27
460.80	393.92
461.17	391.10
461.54	388.06
461.91	385.03
462.27	381.82
462.64	379.19
463.01	376.19
463.38	373.33
463.74	370.61
464.11	368.02
464.48	365.89
464.85	363.40
465.21	361.62
465.58	359.60
465.95	357.25
466.32	355.50
466.68	353.60
467.05	351.60
467.42	349.67
467.78	347.43
468.15	345.22
468.52	343.68
468.88	341.68
469.25	339.96
469.62	338.59
469.98	337.09
470.35	335.76
470.72	334.47
471.08	333.19
471.45	331.86
471.82	330.52
472.18	329.10
472.55	328.11
472.92	326.90
473.28	325.94
473.65	324.75
474.02	323.59
474.38	322.57
474.75	321.90
475.11	321.04
475.48	320.29
475.85	319.66
476.21	319.00
476.58	318.36
476.94	317.74
477.31	316.91
477.67	316.30
478.04	315.62
478.41	315.16
478.77	314.82
479.14	314.32
479.50	313.96
479.87	313.70
480.23	313.43
480.60	313.15
480.96	312.71
481.33	312.63
481.69	312.55
482.06	312.42
482.42	312.08
482.79	311.95
483.15	311.92
483.52	311.95
483.88	311.85
484.25	311.85
484.61	311.93
484.98	312.11
485.34	312.28
485.71	312.60
486.07	312.85
486.44	312.85
486.80	313.10
487.17	313.50
487.53	313.80
487.90	314.07
488.26	314.55
488.62	314.97
488.99	315.32
489.35	315.63
489.72	316.21
490.08	316.80
490.44	317.38
490.81	318.14
491.17	318.86
491.54	319.55
491.90	320.31
492.26	321.07
492.63	321.87
492.99	322.66
493.36	323.39
493.72	324.22
494.08	325.03
494.45	326.05
494.81	327.03
495.17	328.07
495.54	329.18
495.90	330.00
496.26	331.09
496.63	332.23
496.99	333.35
497.35	334.32
497.72	335.38
498.08	336.37
498.44	337.35
498.80	338.29
499.17	339.27
499.53	340.32
499.89	341.22
500.26	342.27
500.62	343.11
500.98	344.14
501.34	345.05
501.71	346.13
502.07	346.99
502.43	347.80
502.79	348.57
503.16	349.50
503.52	350.44
503.88	351.23
504.24	352.04
504.60	352.77
504.97	353.66
505.33	354.56
505.69	355.49
506.05	356.17
506.41	356.88
506.78	357.69
507.14	358.34
507.50	359.10
507.86	359.68
508.22	360.26
508.59	360.74
508.95	361.40
509.31	361.82
509.67	362.28
510.03	362.64
510.39	363.00
510.75	363.25
511.12	363.51
511.48	363.83
511.84	364.13
512.20	364.34
512.56	364.35
512.92	364.46
513.28	364.51
513.64	364.46
514.00	364.50
514.37	364.66
514.73	364.80
515.09	364.78
515.45	364.85
515.81	364.89
516.17	365.04
516.53	365.03
516.89	365.16
517.25	365.31
517.61	365.45
517.97	365.66
518.33	365.82
518.69	365.95
519.05	366.17
519.41	366.25
519.77	366.63
520.13	367.12
520.49	367.31
520.85	367.59
521.21	368.08
521.57	368.42
521.93	368.66
522.29	368.84
522.65	369.26
523.01	369.67
523.37	370.33
523.73	370.88
524.09	371.38
524.45	371.95
524.81	372.57
525.17	373.34
525.53	374.19
525.89	374.92
526.25	375.86
526.61	376.62
526.97	377.53
527.33	378.49
527.68	379.80
528.04	381.07
528.40	382.35
528.76	383.73
529.12	385.33
529.48	386.99
529.84	388.79
530.20	390.59
530.56	392.44
530.91	394.35
531.27	396.41
531.63	398.35
531.99	400.47
532.35	402.51
532.71	404.58
533.07	407.00
533.42	409.62
533.78	412.03
534.14	414.50
534.50	417.27
534.86	420.03
535.21	422.48
535.57	425.44
535.93	428.17
536.29	431.29
536.65	434.34
537.00	437.23
537.36	440.44
537.72	443.64
538.08	447.01
538.44	450.19
538.79	453.36
539.15	456.82
539.51	460.12
539.87	463.89
540.22	467.52
540.58	471.19
540.94	474.68
541.29	478.54
541.65	482.31
542.01	486.31
542.37	490.39
542.72	494.35
543.08	498.08
543.44	502.59
543.79	506.24
544.15	510.15
544.51	514.49
544.87	518.61
545.22	522.80
545.58	526.95
545.94	531.23
546.29	535.59
546.65	540.10
547.01	544.88
547.36	549.21
547.72	553.57
548.07	557.80
548.43	562.35
548.79	566.92
549.14	571.51
549.50	575.88
549.86	580.24
550.21	584.69
550.57	589.48
550.92	593.64
551.28	598.50
551.64	603.21
551.99	607.66
552.35	612.13
552.70	616.60
553.06	621.27
553.41	625.78
553.77	630.40
554.13	634.97
554.48	639.24
554.84	643.72
555.19	648.34
555.55	653.17
555.90	657.48
556.26	661.83
556.61	666.26
556.97	670.70
557.32	675.09
557.68	679.62
558.03	683.84
558.39	688.10
558.74	692.66
559.10	697.09
559.45	701.49
559.81	706.11
560.16	710.48
560.52	714.70
560.87	719.43
561.23	723.55
561.58	727.86
561.94	732.05
562.29	736.21
562.64	740.22
563.00	744.02
563.35	748.46
563.71	752.54
564.06	756.88
564.42	760.85
564.77	764.92
565.12	768.83
565.48	772.95
565.83	777.03
566.19	780.75
566.54	784.29
566.89	788.05
567.25	791.78
567.60	795.68
567.96	799.47
568.31	802.50
568.66	805.77
569.02	808.91
569.37	812.06
569.72	815.17
570.08	818.47
570.43	821.42
570.78	824.05
571.14	826.85
571.49	829.45
571.84	832.40
572.20	834.77
572.55	837.32
572.90	839.75
573.26	842.33
573.61	844.56
573.96	846.66
574.31	848.53
574.67	850.31
575.02	851.81
575.37	853.40
575.72	855.10
576.08	857.25
576.43	859.00
576.78	860.79
577.13	862.49
577.49	863.93
577.84	865.56
578.19	867.06
578.54	868.50
578.90	869.79
579.25	870.61
579.60	871.74
579.95	872.68
580.30	873.17
580.66	873.75
581.01	874.57
581.36	875.66
581.71	876.56
582.06	877.19
582.42	878.09
582.77	878.62
583.12	879.27
583.47	879.50
583.82	880.15
584.17	880.52
584.53	880.87
584.88	881.09
585.23	881.41
585.58	881.65
585.93	881.79
586.28	882.15
586.63	882.53
586.98	883.00
587.34	883.12
587.69	883.55
588.04	883.56
588.39	883.59
588.74	883.28
589.09	882.96
589.44	882.39
589.79	882.08
590.14	882.03
590.49	881.60
590.84	881.34
591.19	880.90
591.54	880.12
591.89	879.35
592.25	879.18
592.60	878.28
592.95	877.38
593.30	876.41
593.65	875.31
594.00	874.10
594.35	873.40
594.70	872.34
595.05	871.50
595.40	870.34
595.75	869.30
596.10	868.30
596.45	867.67
596.80	867.17
597.15	866.11
597.50	864.94
597.85	864.03
598.19	863.33
598.54	862.44
598.89	861.78
599.24	861.03
599.59	859.50
599.94	858.77
600.29	857.75
600.64	856.87
600.99	855.58
601.34	854.69
601.69	853.02
602.04	851.80
602.39	850.23
602.74	849.38
603.08	848.09
603.43	847.04
603.78	845.73
604.13	844.16
604.48	842.85
604.83	841.17
605.18	839.83
605.53	837.76
605.87	835.70
606.22	833.78
606.57	831.85
606.92	830.44
607.27	828.57
607.62	827.15
607.96	825.28
608.31	823.77
608.66	821.62
609.01	819.59
609.36	817.63
609.70	815.40
610.05	812.82
610.40	810.73
610.75	808.22
611.10	805.78
611.44	803.30
611.79	801.00
612.14	798.95
612.49	796.18
612.83	793.65
613.18	791.01
613.53	788.79
613.88	786.21
614.22	783.50
614.57	780.70
614.92	777.86
615.27	775.59
615.61	772.86
615.96	770.36
616.31	767.93
616.65	765.82
617.00	763.40
617.35	761.07
617.70	758.10
618.04	755.24
618.39	752.45
618.74	750.02
619.08	747.02
619.43	744.33
619.78	741.90
620.12	739.43
620.47	737.31
620.82	734.30
621.16	731.83
621.51	729.41
621.85	726.73
622.20	723.94
622.55	721.00
622.89	718.42
623.24	716.09
623.59	713.81
623.93	711.08
624.28	708.71
624.62	706.40
624.97	704.13
625.32	702.01
625.66	699.75
626.01	697.21
626.35	694.99
626.70	692.27
627.04	689.88
627.39	687.03
627.73	684.35
628.08	682.03
628.43	679.35
628.77	676.73
629.12	674.23
629.46	671.78
629.81	669.19
630.15	666.47
630.50	663.52
630.84	660.21
631.19	657.15
631.53	654.41
631.88	651.45
632.22	648.60
632.57	646.20
632.91	643.30
633.26	640.53
633.60	637.61
633.95	635.15
634.29	632.46
634.64	630.30
634.98	627.48
635.32	625.28
635.67	622.97
636.01	620.25
636.36	617.85
636.70	615.33
637.05	612.90
637.39	610.48
637.73	608.30
638.08	606.54
638.42	604.49
638.77	602.25
639.11	599.88
639.45	597.50
639.80	594.91
640.14	592.61
640.49	590.59
640.83	588.40
641.17	586.04
641.52	583.74
641.86	581.14
642.20	579.12
642.55	576.58
642.89	574.09
643.23	571.76
643.58	569.57
643.92	567.09
644.26	564.90
644.61	562.81
644.95	560.50
645.29	557.55
645.64	555.08
645.98	552.56
646.32	550.39
646.66	548.02
647.01	545.53
647.35	543.23
647.69	540.58
648.04	538.52
648.38	535.97
648.72	533.53
649.06	531.19
649.41	528.75
649.75	526.15
650.09	523.80
650.43	521.46
650.78	518.76
651.12	516.45
651.46	513.96
651.80	511.30
652.14	508.95
652.49	506.90
652.83	504.68
653.17	502.30
653.51	499.90
653.85	497.75
654.20	495.47
654.54	492.98
654.88	490.73
655.22	488.09
655.56	485.97
655.90	483.58
656.25	481.35
656.59	478.80
656.93	476.63
657.27	474.59
657.61	472.42
657.95	470.27
658.29	468.07
658.64	465.77
658.98	463.66
659.32	461.32
659.66	459.09
660.00	456.87
660.34	454.86
660.68	452.65
661.02	450.51
661.36	448.50
661.70	446.63
662.05	444.60
662.39	442.76
662.73	440.79
663.07	439.01
663.41	437.23
663.75	435.56
664.09	433.77
664.43	431.50
664.77	429.64
665.11	428.02
665.45	426.34
665.79	424.68
666.13	422.78
666.47	420.86
666.81	419.04
667.15	417.05
667.49	415.31
667.83	413.65
668.17	411.79
668.51	409.98
668.85	408.14
669.19	406.59
669.53	404.90
669.87	403.09
670.21	401.46
670.55	399.82
670.89	398.26
671.23	396.80
671.57	395.39
671.91	393.72
672.25	392.04
672.58	390.47
672.92	388.84
673.26	387.44
673.60	386.26
673.94	384.88
674.28	383.63
674.62	382.21
674.96	380.72
675.30	379.51
675.64	378.16
675.97	377.00
676.31	375.56
676.65	374.12
676.99	372.90
677.33	371.46
677.67	370.09
678.01	368.66
678.34	367.22
678.68	366.08
679.02	364.87
679.36	363.67
679.70	362.52
680.04	361.28
680.37	360.15
680.71	358.88
681.05	357.81
681.39	356.63
681.73	355.54
682.06	354.47
682.40	353.33
682.74	352.30
683.08	351.30
683.42	350.16
683.75	349.11
684.09	348.02
684.43	347.00
684.77	345.69
685.10	344.50
685.44	343.34
685.78	342.16
686.12	341.09
686.45	339.92
686.79	338.79
687.13	337.91
687.46	336.76
687.80	335.63
688.14	334.40
688.48	333.39
688.81	332.07
689.15	331.10
689.49	329.99
689.82	328.82
690.16	327.63
690.50	326.71
690.83	325.71
691.17	324.64
691.51	323.66
691.84	322.87
692.18	322.00
692.52	321.08
692.85	320.13
693.19	319.24
693.52	318.36
693.86	317.40
694.20	316.24
694.53	315.31
694.87	314.30
695.21	313.45
695.54	312.49
695.88	311.64
696.21	310.48
696.55	309.64
696.88	308.74
697.22	307.72
697.56	306.79
697.89	305.86
698.23	305.09
698.56	304.20
698.90	303.33
699.23	302.33
699.57	301.47
699.90	300.67
700.24	299.68
700.58	298.95
700.91	298.03
701.25	297.48
701.58	296.92
701.92	296.32
702.25	295.56
702.59	294.75
702.92	294.13
703.26	293.58
703.59	292.80
703.93	292.31
704.26	291.65
704.60	290.94
704.93	290.38
705.26	289.58
705.60	288.99
705.93	288.40
706.27	287.96
706.60	287.37
706.94	286.70
707.27	286.22
707.61	285.56
707.94	285.15
708.27	284.34
708.61	283.53
708.94	282.89
709.28	282.27
709.61	281.76
709.94	281.15
710.28	280.56
710.61	279.97
710.95	279.28
711.28	278.90
711.61	278.35
711.95	277.74
712.28	277.16
712.61	276.53
712.95	275.99
713.28	275.49
713.61	274.95
713.95	274.38
714.28	273.88
714.61	273.26
714.95	272.71
715.28	272.31
715.61	271.86
715.95	271.32
716.28	270.81
716.61	270.44
716.95	270.00
717.28	269.64
717.61	269.24
717.94	268.85
718.28	268.37
718.61	267.93
718.94	267.55
719.27	267.26
719.61	266.83
719.94	266.34
720.27	265.95
720.60	265.51
720.94	265.24
721.27	264.90
721.60	264.64
721.93	264.28
722.27	263.90
722.60	263.56
722.93	263.30
723.26	263.04
723.59	262.75
723.93	262.44
724.26	262.17
724.59	261.98
724.92	261.70
725.25	261.38
725.59	261.11
725.92	260.80
726.25	260.51
726.58	260.30
726.91	260.08
727.24	259.77
727.57	259.52
727.91	259.15
728.24	258.81
728.57	258.60
728.90	258.30
729.23	258.02
729.56	257.85
729.89	257.54
730.22	257.25
730.55	256.84
730.89	256.59
731.22	256.22
731.55	255.85
731.88	255.62
732.21	255.35
732.54	255.04
732.87	254.82
733.20	254.50
733.53	254.28
733.86	254.10
734.19	253.90
734.52	253.72
734.85	253.64
735.18	253.36
735.51	253.07
735.84	252.94
736.17	252.74
736.50	252.27
736.83	252.30
737.16	252.00
737.49	251.78
737.82	251.45
738.15	251.29
738.48	250.99
738.81	250.64
739.14	250.36
739.47	250.23
739.80	249.95
740.13	249.68
740.46	249.41
740.79	249.08
741.12	248.69
741.45	248.37
741.78	248.09
742.11	247.89
742.44	247.51
742.77	247.25
743.10	247.00
743.43	246.90
743.75	246.49
744.08	246.63
744.41	246.39
744.74	246.19
745.07	245.87
745.40	245.73
745.73	245.62
746.06	245.38
746.39	245.14
746.71	244.81
747.04	244.62
747.37	244.35
747.70	244.21
748.03	244.06
748.36	243.92
748.68	243.57
749.01	243.31
749.34	243.17
749.67	242.94
750.00	242.72
750.33	242.76
750.65	242.54
750.98	242.06
751.31	242.00
751.64	241.86
751.97	241.86
752.29	241.67
752.62	241.39
752.95	241.30
753.28	241.09
753.60	241.05
753.93	240.97
754.26	240.88
754.59	240.64
754.91	240.50
755.24	240.32
755.57	240.33
755.90	240.25
756.22	240.21
756.55	240.04
756.88	239.92
757.20	239.62
757.53	239.40
757.86	239.21
758.19	239.07
758.51	238.96
758.84	238.83
759.17	238.76
759.49	238.74
759.82	238.65
760.15	238.52
760.47	238.36
760.80	238.30
761.13	238.20
761.45	238.13
761.78	238.03
762.11	237.92
762.43	237.70
762.76	237.65
763.08	237.59
763.41	237.61
763.74	237.55
764.06	237.45
764.39	237.49
764.71	237.58
765.04	237.47
765.37	237.42
765.69	237.24
766.02	237.13
766.34	237.00
766.67	236.95
767.00	237.06
767.32	237.15
767.65	237.14
767.97	237.19
768.30	237.18
768.62	237.10
768.95	237.09
769.27	237.29
769.60	237.23
769.92	237.15
770.25	237.07
770.57	237.06
770.90	237.04
771.22	236.97
771.55	236.81
771.87	236.71
772.20	236.58
772.52	236.72
772.85	236.90
773.17	236.75
773.50	236.71
773.82	236.60
774.15	236.50
774.47	236.32
774.80	236.26
775.12	236.14
775.45	236.19
775.77	236.10
776.09	235.87
776.42	235.82
776.74	235.80
777.07	235.69
777.39	235.61
777.72	235.51
778.04	235.42
778.36	235.44
778.69	235.44
779.01	235.34
779.33	235.13
779.66	234.80
779.98	234.80
780.31	234.74
780.63	234.70
780.95	234.59
781.28	234.49
781.60	234.29
781.92	234.29
782.25	234.15
782.57	234.04
782.89	233.97
783.22	233.87
783.54	233.70
783.86	233.50
784.19	233.37
784.51	233.41
784.83	233.29
785.16	233.05
785.48	232.94
785.80	232.94
786.12	232.74
786.45	232.64
786.77	232.52
787.09	232.40
787.42	232.28
787.74	232.19
788.06	232.12
788.38	232.06
788.71	231.98
789.03	231.94
789.35	231.89
789.67	231.79
789.99	231.67
790.32	231.53
790.64	231.59
790.96	231.65
791.28	231.41
791.61	231.40
791.93	231.34
792.25	231.26
792.57	231.24
792.89	231.13
793.21	231.18
793.54	231.20
793.86	231.07
794.18	231.02
