SpectraSuite Data File
++++++++++++++++++++++++++++++++++++
Date: Fri Feb 01 14:35:29 EST 2013
User: group
Dark Spectrum Present: No
Reference Spectrum Present: No
Number of Sampled Component Spectra: 1
Spectrometers: USB2E7196
Integration Time (usec): 70000 (USB2E7196)
Spectra Averaged: 10 (USB2E7196)
Boxcar Smoothing: 10 (USB2E7196)
Correct for Electrical Dark: No (USB2E7196)
Strobe/Lamp Enabled: No (USB2E7196)
Correct for Detector Non-linearity: No (USB2E7196)
Correct for Stray Light: No (USB2E7196)
Number of Pixels in Processed Spectrum: 2048
>>>>>Begin Processed Spectral Data<<<<<
339.09	0.00
339.48	215.00
339.86	218.20
340.24	218.10
340.63	219.50
341.01	225.70
341.39	222.70
341.78	224.40
342.16	226.00
342.54	224.60
342.93	214.95
343.31	225.71
343.69	226.36
344.07	226.75
344.46	227.27
344.84	227.72
345.22	227.73
345.60	228.01
345.99	228.21
346.37	228.33
346.75	228.56
347.13	228.58
347.52	228.46
347.90	228.49
348.28	228.52
348.66	228.67
349.05	228.57
349.43	228.49
349.81	228.47
350.19	228.50
350.57	228.51
350.96	228.51
351.34	228.60
351.72	228.67
352.10	228.73
352.48	228.81
352.87	228.77
353.25	229.03
353.63	229.05
354.01	229.09
354.39	229.19
354.77	229.20
355.15	229.45
355.54	229.60
355.92	229.62
356.30	229.61
356.68	229.70
357.06	229.74
357.44	229.76
357.82	229.84
358.20	229.90
358.58	229.84
358.97	229.91
359.35	230.00
359.73	230.04
360.11	230.22
360.49	230.26
360.87	230.41
361.25	230.40
361.63	230.56
362.01	230.60
362.39	230.56
362.77	230.58
363.15	230.52
363.53	230.43
363.91	230.50
364.29	230.59
364.67	230.46
365.05	230.37
365.43	230.39
365.81	230.42
366.19	230.50
366.57	230.53
366.95	230.55
367.33	230.55
367.71	230.56
368.09	230.62
368.47	230.57
368.85	230.40
369.23	230.33
369.61	230.11
369.99	230.11
370.37	230.02
370.75	230.17
371.13	230.11
371.51	230.07
371.89	229.93
372.27	229.77
372.65	229.68
373.03	229.69
373.41	229.61
373.78	229.56
374.16	229.35
374.54	229.31
374.92	229.16
375.30	229.05
375.68	228.91
376.06	228.70
376.44	228.60
376.82	228.63
377.19	228.54
377.57	228.63
377.95	228.49
378.33	228.40
378.71	228.11
379.09	227.94
379.47	227.92
379.84	227.75
380.22	227.70
380.60	227.54
380.98	227.54
381.36	227.50
381.73	227.37
382.11	227.35
382.49	227.26
382.87	227.05
383.25	227.06
383.62	227.19
384.00	227.10
384.38	226.95
384.76	226.83
385.13	226.84
385.51	226.69
385.89	226.75
386.27	226.87
386.64	226.80
387.02	226.76
387.40	226.75
387.78	226.90
388.15	226.95
388.53	227.00
388.91	227.02
389.29	226.92
389.66	226.98
390.04	226.91
390.42	226.94
390.79	227.09
391.17	227.05
391.55	226.99
391.92	227.02
392.30	227.07
392.68	227.12
393.05	227.13
393.43	227.13
393.81	227.07
394.18	227.01
394.56	227.10
394.94	227.30
395.31	227.32
395.69	227.37
396.06	227.38
396.44	227.38
396.82	227.42
397.19	227.63
397.57	227.67
397.95	227.92
398.32	228.07
398.70	228.29
399.07	228.38
399.45	228.33
399.82	228.48
400.20	228.71
400.58	228.87
400.95	228.97
401.33	229.22
401.70	229.60
402.08	229.85
402.45	230.07
402.83	230.20
403.20	230.47
403.58	230.61
403.95	230.91
404.33	231.22
404.71	231.41
405.08	231.86
405.46	232.16
405.83	232.34
406.21	232.63
406.58	232.80
406.96	233.20
407.33	233.65
407.70	234.00
408.08	234.54
408.45	235.01
408.83	235.54
409.20	235.92
409.58	236.25
409.95	236.83
410.33	237.43
410.70	238.02
411.08	238.63
411.45	239.40
411.82	240.14
412.20	240.99
412.57	241.99
412.95	242.72
413.32	243.73
413.69	244.71
414.07	245.72
414.44	246.98
414.82	248.08
415.19	249.38
415.56	250.72
415.94	252.10
416.31	253.68
416.68	255.26
417.06	257.04
417.43	258.72
417.81	260.56
418.18	262.52
418.55	264.62
418.93	266.87
419.30	269.16
419.67	271.54
420.04	273.98
420.42	276.54
420.79	279.48
421.16	282.47
421.54	285.65
421.91	288.98
422.28	292.25
422.66	295.90
423.03	299.36
423.40	303.05
423.77	306.90
424.15	310.80
424.52	314.85
424.89	319.44
425.26	323.75
425.64	327.75
426.01	332.25
426.38	337.12
426.75	341.80
427.13	346.77
427.50	351.94
427.87	357.32
428.24	362.69
428.61	367.77
428.99	373.28
429.36	379.44
429.73	385.36
430.10	391.32
430.47	397.34
430.85	403.76
431.22	410.40
431.59	417.43
431.96	424.04
432.33	431.62
432.70	438.69
433.08	447.23
433.45	455.48
433.82	463.40
434.19	472.25
434.56	481.00
434.93	489.05
435.30	497.17
435.68	506.25
436.05	515.13
436.42	524.13
436.79	532.50
437.16	541.12
437.53	550.16
437.90	559.36
438.27	568.28
438.64	577.87
439.01	586.42
439.38	593.96
439.75	601.58
440.13	609.91
440.50	617.89
440.87	624.60
441.24	631.41
441.61	639.02
441.98	644.63
442.35	651.25
442.72	658.29
443.09	665.32
443.46	669.60
443.83	672.53
444.20	675.17
444.57	678.89
444.94	681.21
445.31	683.52
445.68	685.92
446.05	687.68
446.42	687.43
446.79	687.41
447.16	687.40
447.53	687.69
447.90	685.58
448.27	683.59
448.64	679.75
449.01	677.49
449.37	672.65
449.74	667.82
450.11	661.67
450.48	655.07
450.85	647.97
451.22	642.25
451.59	636.91
451.96	631.86
452.33	624.58
452.70	618.05
453.07	610.17
453.43	601.70
453.80	593.53
454.17	585.79
454.54	578.57
454.91	570.63
455.28	562.87
455.65	555.57
456.02	547.89
456.38	541.44
456.75	533.31
457.12	526.51
457.49	519.89
457.86	513.77
458.23	508.28
458.59	502.17
458.96	496.06
459.33	490.52
459.70	485.01
460.07	480.55
460.43	475.20
460.80	470.29
461.17	465.96
461.54	461.69
461.91	457.20
462.27	452.53
462.64	448.80
463.01	444.35
463.38	440.27
463.74	436.29
464.11	432.99
464.48	430.00
464.85	426.79
465.21	424.03
465.58	421.17
465.95	417.70
466.32	414.82
466.68	411.81
467.05	409.01
467.42	406.09
467.78	403.00
468.15	400.14
468.52	397.91
468.88	395.25
469.25	392.57
469.62	390.71
469.98	388.74
470.35	386.51
470.72	384.68
471.08	382.62
471.45	380.90
471.82	378.94
472.18	376.84
472.55	375.24
472.92	373.55
473.28	371.93
473.65	370.41
474.02	368.99
474.38	367.74
474.75	366.62
475.11	365.38
475.48	364.48
475.85	363.79
476.21	363.08
476.58	362.39
476.94	361.70
477.31	360.96
477.67	360.34
478.04	359.80
478.41	359.36
478.77	358.99
479.14	358.40
479.50	358.08
479.87	358.02
480.23	357.88
480.60	357.55
480.96	357.33
481.33	357.26
481.69	357.29
482.06	357.29
482.42	357.14
482.79	357.20
483.15	357.58
483.52	357.90
483.88	358.00
484.25	358.20
484.61	358.57
484.98	358.94
485.34	359.49
485.71	360.30
486.07	360.97
486.44	361.56
486.80	362.38
487.17	363.30
487.53	364.23
487.90	365.37
488.26	366.60
488.62	367.79
488.99	369.00
489.35	370.23
489.72	371.63
490.08	373.30
490.44	374.85
490.81	376.28
491.17	377.76
491.54	379.49
491.90	381.19
492.26	383.10
492.63	385.01
492.99	386.90
493.36	388.75
493.72	390.89
494.08	393.09
494.45	395.35
494.81	397.54
495.17	399.76
495.54	401.80
495.90	404.19
496.26	406.51
496.63	409.00
496.99	411.48
497.35	413.94
497.72	416.34
498.08	418.87
498.44	421.45
498.80	424.12
499.17	426.88
499.53	429.69
499.89	432.32
500.26	434.92
500.62	437.59
500.98	440.32
501.34	442.97
501.71	445.60
502.07	448.26
502.43	451.02
502.79	453.64
503.16	456.40
503.52	459.12
503.88	461.59
504.24	464.04
504.60	466.68
504.97	469.34
505.33	471.96
505.69	474.62
506.05	477.20
506.41	479.66
506.78	481.93
507.14	484.35
507.50	486.70
507.86	489.07
508.22	491.35
508.59	493.52
508.95	495.76
509.31	497.90
509.67	500.18
510.03	502.13
510.39	504.03
510.75	506.08
511.12	507.96
511.48	510.08
511.84	511.91
512.20	513.57
512.56	515.30
512.92	517.20
513.28	518.84
513.64	520.30
514.00	521.80
514.37	523.29
514.73	524.62
515.09	525.89
515.45	527.19
515.81	528.47
516.17	529.85
516.53	530.92
516.89	531.99
517.25	533.03
517.61	534.27
517.97	535.38
518.33	536.09
518.69	537.06
519.05	537.99
519.41	539.22
519.77	540.24
520.13	541.17
520.49	541.79
520.85	542.65
521.21	543.54
521.57	544.50
521.93	545.20
522.29	546.18
522.65	547.09
523.01	547.96
523.37	548.56
523.73	549.26
524.09	550.13
524.45	551.17
524.81	552.15
525.17	553.10
525.53	554.07
525.89	555.45
526.25	556.43
526.61	557.40
526.97	558.28
527.33	559.28
527.68	560.61
528.04	561.88
528.40	563.02
528.76	564.36
529.12	565.74
529.48	567.38
529.84	568.50
530.20	570.09
530.56	571.70
530.91	573.63
531.27	575.27
531.63	577.04
531.99	578.62
532.35	580.11
532.71	581.80
533.07	583.91
533.42	585.74
533.78	587.53
534.14	589.53
534.50	591.56
534.86	593.89
535.21	595.70
535.57	597.85
535.93	599.98
536.29	602.12
536.65	604.26
537.00	606.50
537.36	609.00
537.72	611.33
538.08	613.74
538.44	616.06
538.79	618.74
539.15	620.98
539.51	623.76
539.87	626.65
540.22	629.31
540.58	632.10
540.94	634.82
541.29	637.56
541.65	640.29
542.01	643.29
542.37	646.17
542.72	649.10
543.08	652.10
543.44	655.14
543.79	657.96
544.15	661.33
544.51	664.62
544.87	667.93
545.22	671.29
545.58	674.30
545.94	677.64
546.29	680.58
546.65	684.01
547.01	687.10
547.36	690.34
547.72	693.78
548.07	697.00
548.43	700.21
548.79	703.95
549.14	707.44
549.50	710.76
549.86	713.78
550.21	717.22
550.57	720.58
550.92	724.11
551.28	727.67
551.64	730.58
551.99	733.83
552.35	737.17
552.70	740.38
553.06	743.96
553.41	747.08
553.77	750.66
554.13	754.25
554.48	757.86
554.84	761.14
555.19	764.23
555.55	767.70
555.90	770.86
556.26	773.96
556.61	777.11
556.97	780.29
557.32	784.15
557.68	787.41
558.03	790.79
558.39	793.84
558.74	797.38
559.10	800.72
559.45	804.07
559.81	807.54
560.16	810.97
560.52	814.38
560.87	817.89
561.23	821.07
561.58	824.32
561.94	827.24
562.29	830.55
562.64	833.56
563.00	836.32
563.35	839.68
563.71	843.33
564.06	846.87
564.42	849.87
564.77	852.64
565.12	855.82
565.48	858.82
565.83	861.64
566.19	864.48
566.54	867.45
566.89	870.28
567.25	873.16
567.60	875.97
567.96	878.59
568.31	881.11
568.66	883.79
569.02	886.20
569.37	888.72
569.72	891.16
570.08	893.73
570.43	896.15
570.78	898.20
571.14	899.50
571.49	901.16
571.84	903.56
572.20	905.55
572.55	907.30
572.90	908.86
573.26	910.93
573.61	912.40
573.96	913.93
574.31	915.16
574.67	915.73
575.02	916.54
575.37	917.77
575.72	918.70
576.08	919.80
576.43	920.45
576.78	921.60
577.13	922.41
577.49	923.30
577.84	924.03
578.19	924.87
578.54	925.62
578.90	926.19
579.25	926.34
579.60	926.44
579.95	926.65
580.30	926.95
580.66	926.90
581.01	926.84
581.36	926.84
581.71	926.98
582.06	927.23
582.42	927.34
582.77	926.95
583.12	926.85
583.47	926.44
583.82	926.61
584.17	925.89
584.53	925.39
584.88	924.93
585.23	924.44
585.58	923.89
585.93	923.45
586.28	923.30
586.63	922.90
586.98	922.44
587.34	921.96
587.69	921.60
588.04	921.10
588.39	920.59
588.74	919.53
589.09	918.60
589.44	918.06
589.79	917.43
590.14	916.88
590.49	916.02
590.84	915.06
591.19	914.18
591.54	912.89
591.89	911.68
592.25	910.61
592.60	909.18
592.95	907.82
593.30	906.40
593.65	904.65
594.00	903.29
594.35	902.27
594.70	900.33
595.05	898.47
595.40	896.68
595.75	894.99
596.10	893.62
596.45	892.22
596.80	890.36
597.15	888.61
597.50	886.80
597.85	885.40
598.19	883.84
598.54	882.26
598.89	880.93
599.24	879.70
599.59	877.90
599.94	876.41
600.29	874.80
600.64	873.04
600.99	871.09
601.34	869.22
601.69	866.92
602.04	865.41
602.39	863.58
602.74	862.05
603.08	860.53
603.43	859.20
603.78	857.22
604.13	855.29
604.48	853.05
604.83	851.12
605.18	849.08
605.53	846.93
605.87	844.29
606.22	842.20
606.57	839.70
606.92	837.45
607.27	835.77
607.62	833.77
607.96	831.72
608.31	829.80
608.66	827.27
609.01	824.85
609.36	822.27
609.70	819.64
610.05	816.78
610.40	814.19
610.75	811.33
611.10	808.66
611.44	805.56
611.79	803.11
612.14	800.41
612.49	797.17
612.83	794.23
613.18	791.51
613.53	788.73
613.88	785.88
614.22	782.88
614.57	779.33
614.92	776.27
615.27	773.43
615.61	770.37
615.96	767.69
616.31	764.81
616.65	762.24
617.00	759.69
617.35	757.11
617.70	753.94
618.04	750.88
618.39	747.91
618.74	745.45
619.08	742.59
619.43	739.82
619.78	737.29
620.12	734.62
620.47	731.85
620.82	728.74
621.16	725.86
621.51	723.32
621.85	720.61
622.20	717.71
622.55	714.96
622.89	712.12
623.24	709.30
623.59	707.06
623.93	704.72
624.28	701.98
624.62	699.52
624.97	696.98
625.32	694.48
625.66	692.12
626.01	689.35
626.35	686.68
626.70	683.80
627.04	681.22
627.39	678.40
627.73	675.82
628.08	673.43
628.43	670.93
628.77	668.45
629.12	665.81
629.46	663.12
629.81	660.17
630.15	657.54
630.50	654.85
630.84	651.73
631.19	648.57
631.53	645.67
631.88	642.40
632.22	639.50
632.57	636.71
632.91	633.63
633.26	631.12
633.60	628.28
633.95	625.48
634.29	622.93
634.64	620.64
634.98	617.79
635.32	615.39
635.67	612.87
636.01	610.21
636.36	607.60
636.70	605.10
637.05	602.74
637.39	600.40
637.73	597.89
638.08	595.75
638.42	593.38
638.77	591.26
639.11	589.01
639.45	586.76
639.80	584.30
640.14	582.05
640.49	579.64
640.83	577.17
641.17	574.86
641.52	572.21
641.86	569.62
642.20	567.53
642.55	564.99
642.89	562.40
643.23	559.97
643.58	557.88
643.92	555.49
644.26	553.10
644.61	550.88
644.95	548.60
645.29	545.79
645.64	543.20
645.98	540.70
646.32	538.34
646.66	535.86
647.01	533.36
647.35	531.10
647.69	528.72
648.04	526.64
648.38	524.35
648.72	521.94
649.06	519.45
649.41	517.01
649.75	514.58
650.09	512.26
650.43	509.90
650.78	507.20
651.12	504.85
651.46	502.48
651.80	500.02
652.14	497.81
652.49	495.66
652.83	493.72
653.17	491.36
653.51	489.05
653.85	486.97
654.20	484.81
654.54	482.37
654.88	479.91
655.22	477.44
655.56	475.21
655.90	473.10
656.25	470.90
656.59	468.65
656.93	466.63
657.27	464.47
657.61	462.16
657.95	460.08
658.29	458.12
658.64	455.96
658.98	453.67
659.32	451.25
659.66	449.11
660.00	446.74
660.34	444.77
660.68	442.68
661.02	440.60
661.36	438.61
661.70	436.73
662.05	434.99
662.39	433.25
662.73	431.35
663.07	429.53
663.41	427.85
663.75	426.00
664.09	424.06
664.43	422.38
664.77	420.61
665.11	419.04
665.45	417.20
665.79	415.67
666.13	413.99
666.47	412.42
666.81	410.65
667.15	408.87
667.49	407.13
667.83	405.70
668.17	403.98
668.51	402.25
668.85	400.60
669.19	399.17
669.53	397.55
669.87	395.94
670.21	394.24
670.55	392.63
670.89	391.24
671.23	389.83
671.57	388.23
671.91	386.80
672.25	385.28
672.58	383.93
672.92	382.36
673.26	381.04
673.60	379.77
673.94	378.52
674.28	377.46
674.62	376.27
674.96	374.79
675.30	373.50
675.64	372.38
675.97	371.21
676.31	369.86
676.65	368.54
676.99	367.30
677.33	366.18
677.67	364.94
678.01	363.61
678.34	362.38
678.68	361.19
679.02	359.99
679.36	358.79
679.70	357.51
680.04	356.43
680.37	355.26
680.71	353.96
681.05	352.92
681.39	351.77
681.73	350.64
682.06	349.64
682.40	348.53
682.74	347.45
683.08	346.33
683.42	345.09
683.75	344.00
684.09	342.84
684.43	341.81
684.77	340.79
685.10	339.70
685.44	338.62
685.78	337.63
686.12	336.52
686.45	335.51
686.79	334.46
687.13	333.44
687.46	332.32
687.80	331.29
688.14	330.16
688.48	329.02
688.81	327.87
689.15	326.80
689.49	325.83
689.82	324.81
690.16	323.70
690.50	322.79
690.83	321.83
691.17	320.89
691.51	319.90
691.84	318.82
692.18	317.83
692.52	316.82
692.85	315.76
693.19	315.00
693.52	314.00
693.86	313.01
694.20	312.04
694.53	311.18
694.87	310.22
695.21	309.40
695.54	308.52
695.88	307.58
696.21	306.70
696.55	305.79
696.88	304.98
697.22	304.22
697.56	303.36
697.89	302.50
698.23	301.71
698.56	300.80
698.90	300.01
699.23	299.27
699.57	298.45
699.90	297.75
700.24	296.80
700.58	296.15
700.91	295.43
701.25	294.88
701.58	294.27
701.92	293.76
702.25	293.03
702.59	292.32
702.92	291.65
703.26	290.83
703.59	290.17
703.93	289.62
704.26	288.98
704.60	288.40
704.93	287.84
705.26	287.27
705.60	286.82
705.93	286.20
706.27	285.66
706.60	285.05
706.94	284.40
707.27	283.85
707.61	283.20
707.94	282.73
708.27	282.05
708.61	281.32
708.94	280.76
709.28	280.21
709.61	279.71
709.94	279.23
710.28	278.79
710.61	278.32
710.95	277.60
711.28	277.15
711.61	276.50
711.95	275.83
712.28	275.21
712.61	274.53
712.95	274.19
713.28	273.79
713.61	273.32
713.95	272.94
714.28	272.49
714.61	272.09
714.95	271.55
715.28	271.03
715.61	270.66
715.95	270.10
716.28	269.64
716.61	269.24
716.95	268.86
717.28	268.49
717.61	268.06
717.94	267.69
718.28	267.21
718.61	266.88
718.94	266.63
719.27	266.26
719.61	265.93
719.94	265.43
720.27	264.90
720.60	264.56
720.94	264.27
721.27	263.95
721.60	263.57
721.93	263.29
722.27	262.92
722.60	262.56
722.93	262.23
723.26	261.97
723.59	261.68
723.93	261.31
724.26	260.92
724.59	260.59
724.92	260.32
725.25	260.12
725.59	259.82
725.92	259.47
726.25	259.20
726.58	258.90
726.91	258.64
727.24	258.43
727.57	258.11
727.91	257.70
728.24	257.48
728.57	257.11
728.90	256.77
729.23	256.53
729.56	256.38
729.89	256.02
730.22	255.59
730.55	255.37
730.89	255.09
731.22	254.84
731.55	254.55
731.88	254.22
732.21	253.84
732.54	253.59
732.87	253.31
733.20	253.06
733.53	252.87
733.86	252.57
734.19	252.20
734.52	251.95
734.85	251.79
735.18	251.45
735.51	251.34
735.84	251.10
736.17	250.79
736.50	250.41
736.83	250.47
737.16	250.35
737.49	249.97
737.82	249.75
738.15	249.57
738.48	249.26
738.81	249.03
739.14	248.70
739.47	248.37
739.80	248.29
740.13	248.11
740.46	247.76
740.79	247.58
741.12	247.38
741.45	247.24
741.78	246.96
742.11	246.82
742.44	246.45
742.77	246.23
743.10	246.02
743.43	245.79
743.75	245.40
744.08	245.29
744.41	245.06
744.74	244.86
745.07	244.60
745.40	244.50
745.73	244.45
746.06	244.34
746.39	244.30
746.71	244.05
747.04	243.82
747.37	243.76
747.70	243.54
748.03	243.39
748.36	243.14
748.68	243.03
749.01	242.85
749.34	242.78
749.67	242.64
750.00	242.57
750.33	242.50
750.65	242.40
750.98	242.14
751.31	242.03
751.64	241.94
751.97	241.89
752.29	241.72
752.62	241.50
752.95	241.29
753.28	241.09
753.60	240.87
753.93	240.82
754.26	240.70
754.59	240.59
754.91	240.41
755.24	240.33
755.57	240.27
755.90	240.24
756.22	240.15
756.55	240.08
756.88	239.94
757.20	239.88
757.53	239.77
757.86	239.67
758.19	239.64
758.51	239.64
758.84	239.59
759.17	239.53
759.49	239.46
759.82	239.61
760.15	239.60
760.47	239.61
760.80	239.47
761.13	239.38
761.45	239.39
761.78	239.33
762.11	239.24
762.43	239.10
762.76	238.85
763.08	238.77
763.41	238.68
763.74	238.59
764.06	238.45
764.39	238.37
764.71	238.30
765.04	238.17
765.37	237.93
765.69	237.78
766.02	237.61
766.34	237.38
766.67	237.10
767.00	236.97
767.32	237.02
767.65	236.96
767.97	236.85
768.30	236.75
768.62	236.72
768.95	236.63
769.27	236.39
769.60	236.24
769.92	236.11
770.25	235.88
770.57	235.81
770.90	235.65
771.22	235.55
771.55	235.38
771.87	235.30
772.20	235.18
772.52	235.20
772.85	235.39
773.17	235.35
773.50	235.27
773.82	235.20
774.15	234.96
774.47	234.80
774.80	234.61
775.12	234.49
775.45	234.38
775.77	234.23
776.09	234.16
776.42	234.19
776.74	234.13
777.07	234.12
777.39	233.95
777.72	233.91
778.04	233.72
778.36	233.65
778.69	233.57
779.01	233.53
779.33	233.27
779.66	232.94
779.98	232.80
780.31	232.65
780.63	232.68
780.95	232.65
781.28	232.51
781.60	232.50
781.92	232.36
782.25	232.26
782.57	232.16
782.89	232.16
783.22	232.01
783.54	231.89
783.86	231.78
784.19	231.69
784.51	231.63
784.83	231.53
785.16	231.48
785.48	231.46
785.80	231.41
786.12	231.38
786.45	231.38
786.77	231.36
787.09	231.35
787.42	231.20
787.74	231.11
788.06	231.15
788.38	231.15
788.71	231.18
789.03	231.17
789.35	231.28
789.67	231.19
789.99	231.21
790.32	231.20
790.64	231.30
790.96	231.46
791.28	231.36
791.61	231.35
791.93	231.35
792.25	231.21
792.57	231.31
792.89	231.25
793.21	231.27
793.54	231.30
793.86	231.27
794.18	231.29
