SpectraSuite Data File
++++++++++++++++++++++++++++++++++++
Date: Fri Feb 01 14:36:18 EST 2013
User: group
Dark Spectrum Present: No
Reference Spectrum Present: No
Number of Sampled Component Spectra: 1
Spectrometers: USB2E7196
Integration Time (usec): 70000 (USB2E7196)
Spectra Averaged: 10 (USB2E7196)
Boxcar Smoothing: 10 (USB2E7196)
Correct for Electrical Dark: No (USB2E7196)
Strobe/Lamp Enabled: No (USB2E7196)
Correct for Detector Non-linearity: No (USB2E7196)
Correct for Stray Light: No (USB2E7196)
Number of Pixels in Processed Spectrum: 2048
>>>>>Begin Processed Spectral Data<<<<<
339.09	0.00
339.48	215.60
339.86	218.20
340.24	220.10
340.63	220.80
341.01	223.90
341.39	222.60
341.78	224.50
342.16	224.60
342.54	223.80
342.93	214.41
343.31	225.20
343.69	225.68
344.07	226.21
344.46	226.62
344.84	226.94
345.22	227.11
345.60	227.41
345.99	227.61
346.37	227.72
346.75	227.96
347.13	227.99
347.52	228.06
347.90	228.22
348.28	228.27
348.66	228.33
349.05	228.17
349.43	228.21
349.81	228.23
350.19	228.29
350.57	228.30
350.96	228.33
351.34	228.53
351.72	228.67
352.10	228.66
352.48	228.72
352.87	228.87
353.25	228.97
353.63	229.05
354.01	229.10
354.39	229.20
354.77	229.22
355.15	229.45
355.54	229.56
355.92	229.54
356.30	229.66
356.68	229.89
357.06	230.04
357.44	230.12
357.82	230.17
358.20	230.30
358.58	230.40
358.97	230.50
359.35	230.57
359.73	230.76
360.11	230.78
360.49	230.72
360.87	230.78
361.25	230.84
361.63	230.90
362.01	230.92
362.39	231.05
362.77	231.16
363.15	231.00
363.53	230.96
363.91	231.03
364.29	230.94
364.67	230.73
365.05	230.70
365.43	230.69
365.81	230.77
366.19	230.85
366.57	230.90
366.95	230.90
367.33	230.72
367.71	230.65
368.09	230.71
368.47	230.74
368.85	230.49
369.23	230.49
369.61	230.30
369.99	230.36
370.37	230.24
370.75	230.25
371.13	230.25
371.51	230.15
371.89	230.03
372.27	230.05
372.65	229.99
373.03	229.93
373.41	229.84
373.78	229.75
374.16	229.56
374.54	229.36
374.92	229.10
375.30	229.11
375.68	228.96
376.06	228.84
376.44	228.76
376.82	228.68
377.19	228.61
377.57	228.55
377.95	228.27
378.33	228.19
378.71	227.89
379.09	227.80
379.47	227.79
379.84	227.73
380.22	227.66
380.60	227.56
380.98	227.46
381.36	227.47
381.73	227.34
382.11	227.20
382.49	227.21
382.87	227.16
383.25	227.01
383.62	227.07
384.00	226.96
384.38	226.88
384.76	227.01
385.13	227.00
385.51	226.93
385.89	227.02
386.27	226.96
386.64	227.05
387.02	226.92
387.40	226.82
387.78	226.78
388.15	226.75
388.53	226.70
388.91	226.65
389.29	226.55
389.66	226.66
390.04	226.70
390.42	226.64
390.79	226.69
391.17	226.77
391.55	226.70
391.92	226.80
392.30	226.86
392.68	226.79
393.05	226.78
393.43	226.85
393.81	226.83
394.18	226.90
394.56	227.00
394.94	227.10
395.31	227.13
395.69	227.15
396.06	227.18
396.44	227.27
396.82	227.30
397.19	227.39
397.57	227.38
397.95	227.48
398.32	227.50
398.70	227.63
399.07	227.71
399.45	227.75
399.82	227.77
400.20	227.86
400.58	227.90
400.95	227.96
401.33	228.15
401.70	228.35
402.08	228.48
402.45	228.56
402.83	228.67
403.20	228.86
403.58	229.10
403.95	229.31
404.33	229.51
404.71	229.76
405.08	230.23
405.46	230.50
405.83	230.74
406.21	231.08
406.58	231.24
406.96	231.50
407.33	231.75
407.70	232.04
408.08	232.54
408.45	233.07
408.83	233.45
409.20	233.74
409.58	234.08
409.95	234.56
410.33	235.08
410.70	235.61
411.08	236.15
411.45	236.69
411.82	237.33
412.20	237.97
412.57	238.81
412.95	239.27
413.32	240.03
413.69	240.90
414.07	241.80
414.44	242.82
414.82	243.77
415.19	244.87
415.56	246.07
415.94	247.20
416.31	248.46
416.68	249.75
417.06	251.40
417.43	252.86
417.81	254.47
418.18	256.17
418.55	257.99
418.93	259.89
419.30	261.78
419.67	263.77
420.04	265.93
420.42	268.17
420.79	270.71
421.16	273.24
421.54	275.73
421.91	278.22
422.28	280.96
422.66	283.90
423.03	286.78
423.40	289.80
423.77	293.01
424.15	296.26
424.52	299.71
424.89	303.30
425.26	306.87
425.64	310.23
426.01	313.78
426.38	317.72
426.75	321.55
427.13	325.62
427.50	329.81
427.87	334.28
428.24	338.70
428.61	342.84
428.99	347.53
429.36	352.67
429.73	357.68
430.10	362.66
430.47	367.67
430.85	372.91
431.22	378.42
431.59	384.11
431.96	389.69
432.33	395.73
432.70	401.57
433.08	408.59
433.45	415.20
433.82	421.76
434.19	429.07
434.56	436.29
434.93	443.06
435.30	449.86
435.68	457.11
436.05	464.34
436.42	471.68
436.79	478.26
437.16	485.32
437.53	492.79
437.90	500.23
438.27	507.69
438.64	515.24
439.01	522.26
439.38	528.69
439.75	534.74
440.13	541.81
440.50	548.48
440.87	553.92
441.24	559.70
441.61	566.11
441.98	570.75
442.35	576.20
442.72	581.91
443.09	587.44
443.46	591.04
443.83	593.51
444.20	595.85
444.57	599.22
444.94	600.99
445.31	602.84
445.68	604.63
446.05	605.80
446.42	605.91
446.79	605.77
447.16	605.66
447.53	606.13
447.90	604.18
448.27	602.18
448.64	598.92
449.01	596.90
449.37	592.64
449.74	588.53
450.11	583.51
450.48	578.02
450.85	572.30
451.22	567.60
451.59	563.06
451.96	558.95
452.33	552.57
452.70	547.41
453.07	541.01
453.43	534.51
453.80	527.96
454.17	521.71
454.54	515.69
454.91	509.18
455.28	502.46
455.65	496.41
456.02	490.32
456.38	485.22
456.75	478.73
457.12	473.30
457.49	468.04
457.86	462.79
458.23	458.29
458.59	453.19
458.96	447.95
459.33	443.44
459.70	438.63
460.07	435.07
460.43	430.49
460.80	426.21
461.17	422.45
461.54	418.62
461.91	415.07
462.27	411.40
462.64	407.93
463.01	404.52
463.38	401.24
463.74	397.98
464.11	395.10
464.48	392.41
464.85	389.40
465.21	387.07
465.58	384.72
465.95	381.69
466.32	379.36
466.68	377.07
467.05	374.69
467.42	372.34
467.78	369.76
468.15	367.53
468.52	365.84
468.88	363.49
469.25	361.54
469.62	359.80
469.98	358.05
470.35	356.51
470.72	354.84
471.08	353.00
471.45	351.55
471.82	350.00
472.18	348.33
472.55	347.16
472.92	345.56
473.28	344.29
473.65	343.17
474.02	341.79
474.38	340.60
474.75	339.72
475.11	338.66
475.48	337.88
475.85	337.19
476.21	336.38
476.58	335.67
476.94	335.02
477.31	334.36
477.67	333.61
478.04	332.99
478.41	332.52
478.77	332.25
479.14	331.67
479.50	331.30
479.87	331.14
480.23	331.09
480.60	330.97
480.96	330.68
481.33	330.56
481.69	330.70
482.06	330.55
482.42	330.37
482.79	330.27
483.15	330.40
483.52	330.52
483.88	330.64
484.25	330.94
484.61	331.22
484.98	331.41
485.34	331.93
485.71	332.44
486.07	332.94
486.44	333.29
486.80	333.76
487.17	334.38
487.53	335.11
487.90	335.73
488.26	336.41
488.62	337.22
488.99	337.96
489.35	338.79
489.72	339.90
490.08	340.90
490.44	341.99
490.81	342.97
491.17	343.75
491.54	344.98
491.90	346.06
492.26	347.30
492.63	348.59
492.99	349.84
493.36	351.09
493.72	352.46
494.08	353.90
494.45	355.45
494.81	356.81
495.17	358.01
495.54	359.40
495.90	360.96
496.26	362.44
496.63	363.95
496.99	365.42
497.35	366.97
497.72	368.75
498.08	370.27
498.44	371.92
498.80	374.03
499.17	375.60
499.53	377.18
499.89	378.70
500.26	380.22
500.62	381.74
500.98	383.43
501.34	385.01
501.71	386.59
502.07	388.14
502.43	389.77
502.79	391.40
503.16	392.98
503.52	394.34
503.88	395.69
504.24	397.21
504.60	398.52
504.97	399.93
505.33	401.19
505.69	402.80
506.05	404.26
506.41	405.27
506.78	406.45
507.14	407.66
507.50	408.91
507.86	410.26
508.22	411.37
508.59	412.46
508.95	413.45
509.31	414.50
509.67	415.56
510.03	416.26
510.39	417.21
510.75	417.90
511.12	418.67
511.48	419.44
511.84	420.20
512.20	421.02
512.56	421.44
512.92	421.87
513.28	422.34
513.64	422.56
514.00	422.90
514.37	423.52
514.73	423.90
515.09	424.15
515.45	424.29
515.81	424.66
516.17	424.92
516.53	425.10
516.89	425.28
517.25	425.31
517.61	425.79
517.97	426.04
518.33	426.34
518.69	426.61
519.05	426.90
519.41	427.12
519.77	427.54
520.13	428.04
520.49	428.34
520.85	428.50
521.21	428.92
521.57	429.49
521.93	429.59
522.29	429.97
522.65	430.29
523.01	430.81
523.37	431.15
523.73	431.65
524.09	432.30
524.45	432.74
524.81	433.32
525.17	433.93
525.53	434.36
525.89	435.20
526.25	435.96
526.61	436.77
526.97	437.60
527.33	438.33
527.68	439.34
528.04	440.36
528.40	441.46
528.76	442.75
529.12	443.95
529.48	445.48
529.84	446.85
530.20	448.42
530.56	449.90
530.91	451.61
531.27	453.37
531.63	454.96
531.99	456.87
532.35	458.82
532.71	460.73
533.07	462.89
533.42	465.01
533.78	467.32
534.14	469.59
534.50	471.61
534.86	474.05
535.21	476.20
535.57	478.92
535.93	481.46
536.29	483.95
536.65	486.35
537.00	488.82
537.36	491.58
537.72	494.38
538.08	497.03
538.44	499.73
538.79	502.45
539.15	505.44
539.51	508.40
539.87	511.38
540.22	514.49
540.58	517.87
540.94	521.01
541.29	524.13
541.65	527.10
542.01	530.85
542.37	534.33
542.72	537.90
543.08	541.19
543.44	544.72
543.79	548.09
544.15	551.83
544.51	555.62
544.87	559.24
545.22	562.92
545.58	566.75
545.94	570.47
546.29	574.11
546.65	577.93
547.01	581.84
547.36	585.77
547.72	589.70
548.07	593.28
548.43	597.02
548.79	600.86
549.14	604.80
549.50	608.50
549.86	612.29
550.21	615.93
550.57	619.80
550.92	623.71
551.28	627.64
551.64	631.41
551.99	635.37
552.35	639.36
552.70	643.27
553.06	647.32
553.41	651.40
553.77	655.54
554.13	659.76
554.48	663.67
554.84	667.77
555.19	671.79
555.55	675.85
555.90	679.76
556.26	683.80
556.61	687.85
556.97	691.57
557.32	695.45
557.68	699.72
558.03	703.80
558.39	707.78
558.74	712.07
559.10	716.14
559.45	719.89
559.81	723.77
560.16	727.70
560.52	731.46
560.87	735.47
561.23	739.20
561.58	742.87
561.94	746.50
562.29	750.24
562.64	753.65
563.00	757.32
563.35	761.21
563.71	765.08
564.06	768.90
564.42	772.60
564.77	776.14
565.12	779.61
565.48	783.26
565.83	786.45
566.19	789.66
566.54	792.90
566.89	796.42
567.25	799.92
567.60	803.12
567.96	806.64
568.31	809.79
568.66	812.91
569.02	815.57
569.37	818.62
569.72	821.41
570.08	824.40
570.43	827.10
570.78	829.57
571.14	831.83
571.49	834.28
571.84	837.17
572.20	839.64
572.55	842.03
572.90	844.20
573.26	846.85
573.61	848.98
573.96	851.04
574.31	852.79
574.67	854.47
575.02	856.08
575.37	857.31
575.72	858.74
576.08	860.37
576.43	862.23
576.78	863.62
577.13	865.17
577.49	866.54
577.84	868.09
578.19	869.70
578.54	870.73
578.90	871.76
579.25	872.46
579.60	873.35
579.95	874.06
580.30	874.70
580.66	875.02
581.01	875.73
581.36	876.55
581.71	877.13
582.06	877.72
582.42	878.30
582.77	879.09
583.12	879.50
583.47	880.15
583.82	880.56
584.17	880.84
584.53	880.90
584.88	880.94
585.23	880.86
585.58	880.83
585.93	881.20
586.28	881.66
586.63	881.95
586.98	882.06
587.34	882.34
587.69	882.27
588.04	882.32
588.39	882.43
588.74	881.90
589.09	881.71
589.44	881.28
589.79	880.99
590.14	880.50
590.49	879.99
590.84	878.99
591.19	878.60
591.54	877.85
591.89	876.87
592.25	876.49
592.60	875.65
592.95	874.49
593.30	873.29
593.65	872.04
594.00	870.62
594.35	869.88
594.70	868.40
595.05	867.22
595.40	865.83
595.75	863.91
596.10	862.78
596.45	861.67
596.80	860.68
597.15	859.45
597.50	858.03
597.85	857.05
598.19	856.19
598.54	854.80
598.89	853.79
599.24	853.01
599.59	851.35
599.94	850.03
600.29	848.38
600.64	847.07
600.99	845.49
601.34	844.25
601.69	842.31
602.04	840.67
602.39	839.05
602.74	837.65
603.08	836.67
603.43	835.63
603.78	834.21
604.13	832.39
604.48	830.74
604.83	829.29
605.18	827.73
605.53	825.47
605.87	823.37
606.22	821.58
606.57	819.55
606.92	817.79
607.27	815.97
607.62	814.60
607.96	812.94
608.31	811.19
608.66	808.91
609.01	806.95
609.36	805.12
609.70	802.82
610.05	800.56
610.40	798.38
610.75	795.81
611.10	793.27
611.44	790.70
611.79	788.33
612.14	785.95
612.49	782.97
612.83	780.50
613.18	777.83
613.53	775.40
613.88	772.47
614.22	769.92
614.57	767.21
614.92	764.43
615.27	761.90
615.61	759.22
615.96	756.82
616.31	754.27
616.65	752.06
617.00	749.95
617.35	747.69
617.70	744.95
618.04	742.27
618.39	739.63
618.74	737.22
619.08	734.53
619.43	732.06
619.78	729.82
620.12	727.53
620.47	725.27
620.82	722.37
621.16	720.15
621.51	717.64
621.85	715.10
622.20	712.54
622.55	710.06
622.89	707.54
623.24	705.14
623.59	702.77
623.93	700.30
624.28	697.87
624.62	695.47
624.97	693.15
625.32	690.84
625.66	688.50
626.01	686.13
626.35	683.86
626.70	681.21
627.04	678.85
627.39	676.42
627.73	673.89
628.08	671.70
628.43	669.25
628.77	666.93
629.12	664.48
629.46	662.12
629.81	659.31
630.15	656.63
630.50	653.94
630.84	651.19
631.19	648.08
631.53	645.20
631.88	642.29
632.22	639.38
632.57	636.88
632.91	634.20
633.26	631.47
633.60	628.61
633.95	626.06
634.29	623.26
634.64	620.71
634.98	618.20
635.32	615.71
635.67	613.40
636.01	610.91
636.36	608.50
636.70	606.30
637.05	604.00
637.39	601.80
637.73	599.50
638.08	597.46
638.42	595.41
638.77	593.29
639.11	591.04
639.45	588.75
639.80	586.08
640.14	583.80
640.49	581.50
640.83	579.42
641.17	577.11
641.52	574.87
641.86	572.43
642.20	570.18
642.55	567.69
642.89	565.18
643.23	562.56
643.58	560.43
643.92	557.66
644.26	555.16
644.61	553.10
644.95	550.88
645.29	548.28
645.64	545.68
645.98	543.33
646.32	540.92
646.66	538.43
647.01	536.35
647.35	533.90
647.69	531.62
648.04	529.31
648.38	526.97
648.72	524.46
649.06	521.97
649.41	519.41
649.75	516.90
650.09	514.46
650.43	512.25
650.78	509.51
651.12	507.30
651.46	504.96
651.80	502.39
652.14	499.90
652.49	497.59
652.83	495.44
653.17	492.95
653.51	490.58
653.85	488.50
654.20	485.92
654.54	483.55
654.88	481.18
655.22	478.69
655.56	476.32
655.90	474.09
656.25	471.92
656.59	469.82
656.93	467.92
657.27	465.85
657.61	463.49
657.95	461.49
658.29	459.41
658.64	457.37
658.98	455.12
659.32	453.03
659.66	450.92
660.00	448.77
660.34	446.69
660.68	444.63
661.02	442.53
661.36	440.72
661.70	438.97
662.05	437.19
662.39	435.40
662.73	433.77
663.07	431.92
663.41	430.26
663.75	428.27
664.09	426.54
664.43	424.57
664.77	422.92
665.11	421.17
665.45	419.40
665.79	417.63
666.13	415.97
666.47	414.25
666.81	412.35
667.15	410.54
667.49	408.91
667.83	407.43
668.17	405.94
668.51	404.30
668.85	402.57
669.19	400.99
669.53	399.37
669.87	397.57
670.21	396.05
670.55	394.49
670.89	393.29
671.23	391.72
671.57	390.26
671.91	388.69
672.25	387.30
672.58	385.87
672.92	384.48
673.26	383.19
673.60	381.82
673.94	380.62
674.28	379.40
674.62	378.13
674.96	376.75
675.30	375.35
675.64	374.05
675.97	372.73
676.31	371.56
676.65	370.40
676.99	369.29
677.33	368.00
677.67	366.64
678.01	365.17
678.34	363.88
678.68	362.75
679.02	361.53
679.36	360.27
679.70	359.12
680.04	357.92
680.37	356.58
680.71	355.56
681.05	354.45
681.39	353.31
681.73	352.23
682.06	351.25
682.40	350.17
682.74	348.99
683.08	347.98
683.42	346.80
683.75	345.77
684.09	344.48
684.43	343.46
684.77	342.52
685.10	341.53
685.44	340.31
685.78	339.30
686.12	338.34
686.45	337.34
686.79	336.11
687.13	335.17
687.46	334.04
687.80	332.92
688.14	331.80
688.48	330.89
688.81	329.76
689.15	328.69
689.49	327.59
689.82	326.67
690.16	325.65
690.50	324.69
690.83	323.58
691.17	322.70
691.51	321.77
691.84	320.66
692.18	319.67
692.52	318.80
692.85	317.88
693.19	316.90
693.52	315.87
693.86	315.03
694.20	314.09
694.53	313.37
694.87	312.40
695.21	311.52
695.54	310.45
695.88	309.54
696.21	308.59
696.55	307.85
696.88	306.90
697.22	306.01
697.56	305.17
697.89	304.37
698.23	303.46
698.56	302.60
698.90	301.82
699.23	300.91
699.57	300.06
699.90	299.11
700.24	298.32
700.58	297.49
700.91	296.77
701.25	296.09
701.58	295.33
701.92	294.67
702.25	293.98
702.59	293.25
702.92	292.58
703.26	291.93
703.59	291.14
703.93	290.68
704.26	290.01
704.60	289.30
704.93	288.52
705.26	287.90
705.60	287.15
705.93	286.53
706.27	286.07
706.60	285.55
706.94	284.94
707.27	284.23
707.61	283.73
707.94	283.17
708.27	282.56
708.61	281.91
708.94	281.33
709.28	280.65
709.61	280.10
709.94	279.63
710.28	279.04
710.61	278.55
710.95	277.90
711.28	277.57
711.61	277.07
711.95	276.64
712.28	276.07
712.61	275.65
712.95	275.19
713.28	274.66
713.61	274.07
713.95	273.60
714.28	273.15
714.61	272.68
714.95	272.10
715.28	271.51
715.61	271.14
715.95	270.58
716.28	270.18
716.61	269.86
716.95	269.36
717.28	268.87
717.61	268.50
717.94	268.04
718.28	267.37
718.61	266.82
718.94	266.39
719.27	266.00
719.61	265.50
719.94	265.14
720.27	264.70
720.60	264.37
720.94	264.00
721.27	263.66
721.60	263.30
721.93	262.93
722.27	262.65
722.60	262.23
722.93	262.00
723.26	261.73
723.59	261.29
723.93	260.89
724.26	260.62
724.59	260.19
724.92	259.85
725.25	259.61
725.59	259.31
725.92	259.01
726.25	258.69
726.58	258.46
726.91	258.13
727.24	257.99
727.57	257.63
727.91	257.40
728.24	257.12
728.57	256.85
728.90	256.64
729.23	256.33
729.56	256.06
729.89	255.74
730.22	255.40
730.55	255.17
730.89	255.06
731.22	254.81
731.55	254.56
731.88	254.35
732.21	254.06
732.54	253.86
732.87	253.61
733.20	253.42
733.53	253.27
733.86	253.05
734.19	252.72
734.52	252.55
734.85	252.34
735.18	252.12
735.51	251.86
735.84	251.62
736.17	251.38
736.50	251.20
736.83	251.18
737.16	250.98
737.49	250.80
737.82	250.48
738.15	250.23
738.48	250.10
738.81	249.80
739.14	249.50
739.47	249.25
739.80	249.05
740.13	248.96
740.46	248.67
740.79	248.38
741.12	248.21
741.45	247.95
741.78	247.73
742.11	247.65
742.44	247.36
742.77	247.20
743.10	246.97
743.43	246.73
743.75	246.37
744.08	246.49
744.41	246.30
744.74	246.13
745.07	246.00
745.40	245.75
745.73	245.62
746.06	245.44
746.39	245.20
746.71	244.96
747.04	244.63
747.37	244.44
747.70	244.37
748.03	244.05
748.36	243.91
748.68	243.64
749.01	243.30
749.34	243.13
749.67	242.87
750.00	242.77
750.33	242.71
750.65	242.54
750.98	242.10
751.31	241.85
751.64	241.74
751.97	241.67
752.29	241.54
752.62	241.30
752.95	241.26
753.28	241.13
753.60	240.94
753.93	240.74
754.26	240.56
754.59	240.28
754.91	240.21
755.24	240.09
755.57	239.92
755.90	239.82
756.22	239.66
756.55	239.53
756.88	239.28
757.20	239.13
757.53	238.98
757.86	238.77
758.19	238.72
758.51	238.45
758.84	238.26
759.17	238.02
759.49	237.98
759.82	237.87
760.15	237.86
760.47	237.88
760.80	237.84
761.13	237.80
761.45	237.72
761.78	237.52
762.11	237.39
762.43	237.34
762.76	237.28
763.08	237.23
763.41	237.07
763.74	237.00
764.06	236.74
764.39	236.57
764.71	236.53
765.04	236.31
765.37	236.28
765.69	236.12
766.02	236.14
766.34	235.97
766.67	235.91
767.00	235.85
767.32	235.71
767.65	235.73
767.97	235.64
768.30	235.59
768.62	235.55
768.95	235.50
769.27	235.37
769.60	235.38
769.92	235.34
770.25	235.25
770.57	235.06
770.90	235.05
771.22	235.01
771.55	234.91
771.87	234.95
772.20	234.83
772.52	234.91
772.85	234.90
773.17	234.95
773.50	234.86
773.82	234.64
774.15	234.58
774.47	234.45
774.80	234.34
775.12	234.28
775.45	234.23
775.77	234.23
776.09	234.28
776.42	234.15
776.74	234.03
777.07	233.93
777.39	233.94
777.72	233.85
778.04	233.79
778.36	233.75
778.69	233.70
779.01	233.67
779.33	233.43
779.66	233.37
779.98	233.20
780.31	233.11
780.63	233.19
780.95	233.17
781.28	233.05
781.60	233.02
781.92	233.02
782.25	233.01
782.57	232.90
782.89	232.89
783.22	232.85
783.54	232.87
783.86	232.97
784.19	233.06
784.51	233.00
784.83	232.95
785.16	232.93
785.48	232.90
785.80	232.95
786.12	233.06
786.45	232.86
786.77	232.83
787.09	232.75
787.42	232.73
787.74	232.66
788.06	232.64
788.38	232.54
788.71	232.39
789.03	232.27
789.35	232.22
789.67	232.10
789.99	232.00
790.32	231.98
790.64	231.96
790.96	231.92
791.28	231.94
791.61	231.98
791.93	231.90
792.25	231.84
792.57	231.88
792.89	231.75
793.21	231.87
793.54	231.91
793.86	231.83
794.18	231.81
