SpectraSuite Data File
++++++++++++++++++++++++++++++++++++
Date: Fri Feb 01 14:35:06 EST 2013
User: group
Dark Spectrum Present: No
Reference Spectrum Present: No
Number of Sampled Component Spectra: 1
Spectrometers: USB2E7196
Integration Time (usec): 70000 (USB2E7196)
Spectra Averaged: 10 (USB2E7196)
Boxcar Smoothing: 10 (USB2E7196)
Correct for Electrical Dark: No (USB2E7196)
Strobe/Lamp Enabled: No (USB2E7196)
Correct for Detector Non-linearity: No (USB2E7196)
Correct for Stray Light: No (USB2E7196)
Number of Pixels in Processed Spectrum: 2048
>>>>>Begin Processed Spectral Data<<<<<
339.09	0.00
339.48	217.90
339.86	218.00
340.24	219.50
340.63	219.70
341.01	224.70
341.39	221.80
341.78	222.70
342.16	227.40
342.54	225.50
342.93	214.30
343.31	225.14
343.69	225.61
344.07	226.00
344.46	226.37
344.84	226.80
345.22	226.95
345.60	227.32
345.99	227.56
346.37	227.58
346.75	227.64
347.13	227.73
347.52	227.63
347.90	227.73
348.28	227.73
348.66	227.78
349.05	227.90
349.43	227.83
349.81	227.95
350.19	228.01
350.57	228.10
350.96	228.14
351.34	228.23
351.72	228.26
352.10	228.34
352.48	228.32
352.87	228.35
353.25	228.43
353.63	228.34
354.01	228.40
354.39	228.46
354.77	228.60
355.15	228.72
355.54	228.73
355.92	228.74
356.30	228.80
356.68	229.07
357.06	228.99
357.44	229.08
357.82	229.12
358.20	229.21
358.58	229.30
358.97	229.42
359.35	229.54
359.73	229.71
360.11	229.72
360.49	229.89
360.87	229.90
361.25	229.93
361.63	230.14
362.01	230.23
362.39	230.30
362.77	230.30
363.15	230.27
363.53	230.36
363.91	230.29
364.29	230.34
364.67	230.10
365.05	230.14
365.43	230.16
365.81	230.25
366.19	230.33
366.57	230.33
366.95	230.23
367.33	230.26
367.71	230.20
368.09	230.31
368.47	230.40
368.85	230.45
369.23	230.50
369.61	230.32
369.99	230.34
370.37	230.42
370.75	230.58
371.13	230.53
371.51	230.50
371.89	230.62
372.27	230.58
372.65	230.56
373.03	230.56
373.41	230.50
373.78	230.41
374.16	230.30
374.54	230.30
374.92	230.28
375.30	230.14
375.68	230.09
376.06	229.99
376.44	229.90
376.82	229.80
377.19	229.75
377.57	229.82
377.95	229.70
378.33	229.47
378.71	229.18
379.09	229.19
379.47	229.17
379.84	229.08
380.22	229.03
380.60	229.02
380.98	229.03
381.36	228.90
381.73	228.76
382.11	228.81
382.49	228.68
382.87	228.64
383.25	228.50
383.62	228.65
384.00	228.64
384.38	228.56
384.76	228.56
385.13	228.51
385.51	228.37
385.89	228.30
386.27	228.40
386.64	228.49
387.02	228.50
387.40	228.46
387.78	228.40
388.15	228.49
388.53	228.44
388.91	228.37
389.29	228.31
389.66	228.38
390.04	228.30
390.42	228.22
390.79	228.17
391.17	228.22
391.55	228.03
391.92	228.07
392.30	228.00
392.68	227.90
393.05	228.00
393.43	228.07
393.81	228.09
394.18	228.01
394.56	227.93
394.94	227.96
395.31	227.98
395.69	228.06
396.06	228.00
396.44	228.00
396.82	227.99
397.19	228.22
397.57	228.30
397.95	228.31
398.32	228.34
398.70	228.42
399.07	228.47
399.45	228.56
399.82	228.48
400.20	228.60
400.58	228.67
400.95	228.64
401.33	228.74
401.70	228.98
402.08	229.13
402.45	229.33
402.83	229.51
403.20	229.74
403.58	229.97
403.95	230.20
404.33	230.53
404.71	230.81
405.08	231.14
405.46	231.35
405.83	231.75
406.21	232.13
406.58	232.49
406.96	232.90
407.33	233.23
407.70	233.79
408.08	234.39
408.45	235.00
408.83	235.58
409.20	236.10
409.58	236.56
409.95	237.14
410.33	237.92
410.70	238.55
411.08	239.20
411.45	239.97
411.82	240.77
412.20	241.64
412.57	242.77
412.95	243.62
413.32	244.74
413.69	245.68
414.07	246.85
414.44	248.09
414.82	249.50
415.19	251.05
415.56	252.58
415.94	254.06
416.31	255.78
416.68	257.44
417.06	259.48
417.43	261.42
417.81	263.64
418.18	265.73
418.55	268.05
418.93	270.53
419.30	273.07
419.67	275.89
420.04	278.68
420.42	281.57
420.79	284.89
421.16	288.23
421.54	291.64
421.91	295.25
422.28	299.02
422.66	302.83
423.03	306.71
423.40	310.61
423.77	314.74
424.15	319.09
424.52	323.62
424.89	328.47
425.26	333.36
425.64	337.76
426.01	342.72
426.38	347.99
426.75	353.15
427.13	358.54
427.50	364.15
427.87	370.01
428.24	375.84
428.61	381.47
428.99	387.54
429.36	394.41
429.73	401.16
430.10	407.77
430.47	414.42
430.85	421.16
431.22	428.33
431.59	436.18
431.96	443.48
432.33	451.80
432.70	459.67
433.08	468.95
433.45	477.87
433.82	486.62
434.19	496.16
434.56	505.62
434.93	514.83
435.30	523.81
435.68	533.77
436.05	543.68
436.42	553.47
436.79	562.46
437.16	571.72
437.53	581.76
437.90	591.66
438.27	601.28
438.64	611.50
439.01	621.14
439.38	629.76
439.75	637.86
440.13	647.14
440.50	656.00
440.87	663.26
441.24	670.68
441.61	679.15
441.98	685.63
442.35	693.11
442.72	700.41
443.09	707.66
443.46	712.30
443.83	715.60
444.20	718.54
444.57	722.93
444.94	725.75
445.31	728.15
445.68	730.63
446.05	732.65
446.42	732.94
446.79	732.98
447.16	732.65
447.53	733.10
447.90	730.47
448.27	727.83
448.64	723.45
449.01	721.01
449.37	715.40
449.74	709.94
450.11	703.30
450.48	696.05
450.85	688.43
451.22	682.23
451.59	676.17
451.96	670.81
452.33	662.63
452.70	655.34
453.07	646.38
453.43	637.35
453.80	628.61
454.17	620.00
454.54	611.97
454.91	603.40
455.28	594.72
455.65	586.62
456.02	578.51
456.38	571.78
456.75	563.00
457.12	555.81
457.49	548.58
457.86	541.64
458.23	535.58
458.59	529.14
458.96	522.30
459.33	516.40
459.70	510.11
460.07	505.17
460.43	499.35
460.80	493.84
461.17	489.20
461.54	484.10
461.91	479.47
462.27	474.47
462.64	470.39
463.01	465.84
463.38	461.63
463.74	457.27
464.11	453.34
464.48	450.08
464.85	446.25
465.21	443.44
465.58	440.27
465.95	436.50
466.32	433.29
466.68	430.18
467.05	427.00
467.42	423.78
467.78	420.57
468.15	417.45
468.52	415.36
468.88	412.31
469.25	409.74
469.62	407.42
469.98	405.16
470.35	402.64
470.72	400.58
471.08	398.27
471.45	396.49
471.82	394.59
472.18	392.36
472.55	390.75
472.92	388.72
473.28	387.14
473.65	385.66
474.02	384.07
474.38	382.55
474.75	381.40
475.11	380.40
475.48	379.29
475.85	378.57
476.21	377.71
476.58	376.83
476.94	376.16
477.31	375.42
477.67	374.73
478.04	374.26
478.41	373.89
478.77	373.59
479.14	373.01
479.50	372.69
479.87	372.45
480.23	372.37
480.60	372.19
480.96	372.04
481.33	372.23
481.69	372.37
482.06	372.46
482.42	372.34
482.79	372.23
483.15	372.59
483.52	373.16
483.88	373.41
484.25	374.04
484.61	374.51
484.98	375.05
485.34	375.87
485.71	376.76
486.07	377.54
486.44	378.42
486.80	379.59
487.17	380.68
487.53	381.91
487.90	383.27
488.26	384.74
488.62	386.23
488.99	387.48
489.35	389.07
489.72	390.75
490.08	392.60
490.44	394.36
490.81	396.27
491.17	397.88
491.54	399.91
491.90	401.75
492.26	403.74
492.63	405.92
492.99	408.27
493.36	410.39
493.72	412.87
494.08	415.38
494.45	417.84
494.81	420.55
495.17	423.20
495.54	425.76
495.90	428.58
496.26	431.34
496.63	434.36
496.99	437.27
497.35	440.22
497.72	443.26
498.08	446.49
498.44	449.61
498.80	453.16
499.17	456.52
499.53	459.85
499.89	463.40
500.26	466.72
500.62	469.74
500.98	473.37
501.34	476.67
501.71	480.09
502.07	483.29
502.43	486.52
502.79	489.88
503.16	493.13
503.52	496.30
503.88	499.46
504.24	502.70
504.60	506.17
504.97	509.41
505.33	512.65
505.69	516.10
506.05	519.45
506.41	522.38
506.78	525.60
507.14	528.80
507.50	531.78
507.86	535.10
508.22	538.41
508.59	541.29
508.95	544.49
509.31	547.38
509.67	550.47
510.03	553.57
510.39	556.53
510.75	559.48
511.12	562.37
511.48	565.20
511.84	567.94
512.20	570.51
512.56	573.37
512.92	576.20
513.28	578.52
513.64	580.67
514.00	583.16
514.37	585.23
514.73	587.37
515.09	589.60
515.45	591.52
515.81	593.48
516.17	595.55
516.53	597.15
516.89	599.00
517.25	600.85
517.61	602.59
517.97	604.11
518.33	605.73
518.69	607.39
519.05	609.00
519.41	610.56
519.77	612.21
520.13	613.64
520.49	614.91
520.85	616.18
521.21	617.81
521.57	619.23
521.93	620.47
522.29	621.93
522.65	623.27
523.01	624.62
523.37	625.68
523.73	626.94
524.09	628.34
524.45	629.69
524.81	630.98
525.17	632.38
525.53	634.01
525.89	635.33
526.25	636.59
526.61	637.83
526.97	639.15
527.33	640.35
527.68	641.90
528.04	643.30
528.40	645.07
528.76	646.69
529.12	648.22
529.48	650.10
529.84	651.62
530.20	653.25
530.56	655.13
530.91	657.14
531.27	658.88
531.63	660.82
531.99	662.55
532.35	664.40
532.71	665.92
533.07	667.81
533.42	669.91
533.78	671.96
534.14	673.98
534.50	675.96
534.86	678.18
535.21	679.74
535.57	682.08
535.93	684.13
536.29	686.09
536.65	688.16
537.00	689.98
537.36	692.53
537.72	694.77
538.08	696.95
538.44	699.26
538.79	701.55
539.15	703.60
539.51	706.33
539.87	708.76
540.22	711.60
540.58	714.30
540.94	716.52
541.29	719.11
541.65	721.63
542.01	724.48
542.37	727.22
542.72	730.22
543.08	732.72
543.44	735.73
543.79	738.58
544.15	741.45
544.51	744.91
544.87	747.64
545.22	750.71
545.58	753.59
545.94	756.30
546.29	759.32
546.65	762.59
547.01	765.36
547.36	768.57
547.72	771.62
548.07	774.28
548.43	777.49
548.79	780.51
549.14	783.51
549.50	786.51
549.86	789.23
550.21	792.10
550.57	795.24
550.92	798.02
551.28	800.91
551.64	803.80
551.99	806.62
552.35	809.71
552.70	812.81
553.06	815.99
553.41	819.15
553.77	822.25
554.13	825.11
554.48	828.25
554.84	831.29
555.19	834.04
555.55	837.32
555.90	840.15
556.26	843.44
556.61	846.60
556.97	849.55
557.32	852.66
557.68	855.79
558.03	858.56
558.39	861.35
558.74	864.63
559.10	867.67
559.45	870.66
559.81	873.64
560.16	876.03
560.52	879.07
560.87	882.22
561.23	885.02
561.58	888.01
561.94	890.55
562.29	893.05
562.64	895.55
563.00	897.84
563.35	900.77
563.71	903.46
564.06	906.29
564.42	908.88
564.77	911.80
565.12	914.66
565.48	917.62
565.83	920.20
566.19	922.56
566.54	925.08
566.89	927.47
567.25	929.73
567.60	932.86
567.96	934.92
568.31	937.04
568.66	939.09
569.02	941.30
569.37	943.32
569.72	945.33
570.08	947.34
570.43	949.56
570.78	951.28
571.14	952.61
571.49	953.81
571.84	955.89
572.20	957.28
572.55	958.59
572.90	959.53
573.26	961.10
573.61	962.50
573.96	963.73
574.31	964.49
574.67	965.03
575.02	965.30
575.37	966.12
575.72	966.34
576.08	967.24
576.43	967.57
576.78	968.18
577.13	968.76
577.49	969.21
577.84	969.68
578.19	970.26
578.54	970.40
578.90	970.96
579.25	970.25
579.60	969.72
579.95	969.53
580.30	969.34
580.66	968.85
581.01	968.42
581.36	967.81
581.71	967.72
582.06	967.70
582.42	967.06
582.77	966.77
583.12	966.20
583.47	965.48
583.82	964.95
584.17	964.42
584.53	963.60
584.88	962.91
585.23	962.06
585.58	961.19
585.93	960.65
586.28	959.80
586.63	959.53
586.98	959.03
587.34	958.15
587.69	957.46
588.04	956.54
588.39	955.77
588.74	954.72
589.09	953.25
589.44	951.74
589.79	950.81
590.14	949.82
590.49	948.93
590.84	947.56
591.19	946.05
591.54	944.24
591.89	942.53
592.25	941.04
592.60	939.18
592.95	937.29
593.30	935.44
593.65	933.58
594.00	931.24
594.35	929.77
594.70	927.77
595.05	925.72
595.40	923.81
595.75	921.44
596.10	919.40
596.45	917.79
596.80	916.19
597.15	914.24
597.50	911.72
597.85	909.76
598.19	907.96
598.54	906.23
598.89	904.48
599.24	903.23
599.59	901.18
599.94	899.55
600.29	897.37
600.64	895.19
600.99	892.86
601.34	890.91
601.69	888.40
602.04	886.26
602.39	884.30
602.74	882.58
603.08	880.75
603.43	879.18
603.78	877.02
604.13	874.88
604.48	872.76
604.83	870.69
605.18	868.52
605.53	866.22
605.87	863.76
606.22	861.51
606.57	858.63
606.92	856.35
607.27	853.91
607.62	851.89
607.96	849.55
608.31	847.50
608.66	844.99
609.01	842.24
609.36	839.56
609.70	836.41
610.05	833.19
610.40	830.46
610.75	827.39
611.10	824.34
611.44	821.13
611.79	818.20
612.14	815.18
612.49	811.87
612.83	808.69
613.18	805.61
613.53	802.50
613.88	799.23
614.22	796.10
614.57	792.72
614.92	789.60
615.27	786.52
615.61	783.54
615.96	780.47
616.31	777.70
616.65	775.02
617.00	772.37
617.35	769.57
617.70	766.28
618.04	763.16
618.39	760.24
618.74	757.51
619.08	754.40
619.43	751.26
619.78	748.72
620.12	745.70
620.47	742.85
620.82	739.68
621.16	736.86
621.51	734.18
621.85	731.40
622.20	728.16
622.55	725.32
622.89	722.11
623.24	719.43
623.59	716.75
623.93	714.17
624.28	711.29
624.62	708.55
624.97	705.89
625.32	703.14
625.66	700.60
626.01	697.84
626.35	695.10
626.70	692.51
627.04	689.63
627.39	686.95
627.73	684.24
628.08	681.81
628.43	679.21
628.77	676.25
629.12	673.47
629.46	670.85
629.81	667.87
630.15	665.11
630.50	661.94
630.84	658.59
631.19	655.40
631.53	652.57
631.88	649.27
632.22	646.00
632.57	643.31
632.91	640.10
633.26	637.17
633.60	634.15
633.95	631.34
634.29	628.62
634.64	626.09
634.98	623.31
635.32	620.43
635.67	617.68
636.01	615.04
636.36	612.16
636.70	609.58
637.05	607.23
637.39	604.60
637.73	602.29
638.08	600.09
638.42	597.59
638.77	595.18
639.11	592.68
639.45	590.48
639.80	587.77
640.14	585.34
640.49	582.86
640.83	580.50
641.17	578.00
641.52	575.38
641.86	572.65
642.20	570.23
642.55	567.72
642.89	565.37
643.23	562.89
643.58	560.67
643.92	558.23
644.26	555.80
644.61	553.54
644.95	551.02
645.29	548.31
645.64	545.65
645.98	543.13
646.32	540.93
646.66	538.33
647.01	536.00
647.35	533.71
647.69	531.47
648.04	529.47
648.38	526.90
648.72	524.34
649.06	521.83
649.41	519.25
649.75	516.78
650.09	514.09
650.43	511.66
650.78	509.00
651.12	506.40
651.46	504.00
651.80	501.53
652.14	499.34
652.49	497.23
652.83	495.05
653.17	492.57
653.51	490.14
653.85	488.04
654.20	485.63
654.54	483.19
654.88	480.64
655.22	477.93
655.56	475.73
655.90	473.61
656.25	471.59
656.59	469.45
656.93	467.41
657.27	465.50
657.61	463.32
657.95	461.41
658.29	459.58
658.64	457.33
658.98	455.36
659.32	453.06
659.66	450.85
660.00	448.76
660.34	446.92
660.68	444.91
661.02	442.65
661.36	440.65
661.70	438.74
662.05	436.83
662.39	435.13
662.73	433.30
663.07	431.41
663.41	429.45
663.75	427.58
664.09	425.78
664.43	423.94
664.77	422.30
665.11	420.59
665.45	418.81
665.79	417.14
666.13	415.16
666.47	413.51
666.81	411.73
667.15	409.89
667.49	408.14
667.83	406.60
668.17	405.00
668.51	403.36
668.85	401.70
669.19	400.28
669.53	398.67
669.87	397.03
670.21	395.47
670.55	394.02
670.89	392.63
671.23	391.05
671.57	389.46
671.91	387.89
672.25	386.25
672.58	384.70
672.92	383.21
673.26	382.12
673.60	380.75
673.94	379.47
674.28	378.11
674.62	376.98
674.96	375.63
675.30	374.45
675.64	373.19
675.97	371.96
676.31	370.65
676.65	369.36
676.99	368.21
677.33	366.91
677.67	365.58
678.01	364.19
678.34	363.00
678.68	361.74
679.02	360.50
679.36	359.30
679.70	358.15
680.04	356.93
680.37	355.46
680.71	354.31
681.05	353.20
681.39	352.16
681.73	350.81
682.06	349.68
682.40	348.65
682.74	347.40
683.08	346.24
683.42	344.90
683.75	343.82
684.09	342.57
684.43	341.45
684.77	340.26
685.10	339.12
685.44	338.07
685.78	337.11
686.12	336.15
686.45	334.99
686.79	333.89
687.13	332.87
687.46	331.72
687.80	330.58
688.14	329.36
688.48	328.45
688.81	327.38
689.15	326.28
689.49	325.16
689.82	324.39
690.16	323.39
690.50	322.56
690.83	321.53
691.17	320.54
691.51	319.73
691.84	318.93
692.18	318.00
692.52	316.96
692.85	316.02
693.19	315.08
693.52	314.40
693.86	313.50
694.20	312.57
694.53	311.81
694.87	310.87
695.21	309.96
695.54	308.98
695.88	308.12
696.21	307.25
696.55	306.33
696.88	305.34
697.22	304.59
697.56	303.70
697.89	302.79
698.23	302.15
698.56	301.22
698.90	300.52
699.23	299.67
699.57	298.94
699.90	298.16
700.24	297.28
700.58	296.37
700.91	295.59
701.25	294.93
701.58	294.41
701.92	293.91
702.25	293.36
702.59	292.58
702.92	291.96
703.26	291.33
703.59	290.82
703.93	290.32
704.26	289.62
704.60	288.98
704.93	288.47
705.26	287.66
705.60	287.10
705.93	286.45
706.27	285.98
706.60	285.48
706.94	284.84
707.27	284.22
707.61	283.66
707.94	283.06
708.27	282.41
708.61	281.64
708.94	281.05
709.28	280.52
709.61	280.06
709.94	279.60
710.28	278.98
710.61	278.42
710.95	277.81
711.28	277.40
711.61	276.90
711.95	276.24
712.28	275.73
712.61	275.22
712.95	274.64
713.28	274.24
713.61	273.59
713.95	273.02
714.28	272.56
714.61	272.01
714.95	271.63
715.28	271.18
715.61	270.67
715.95	270.25
716.28	269.68
716.61	269.32
716.95	268.76
717.28	268.43
717.61	267.93
717.94	267.44
718.28	266.88
718.61	266.54
718.94	266.19
719.27	265.87
719.61	265.54
719.94	265.12
720.27	264.56
720.60	264.24
720.94	263.93
721.27	263.64
721.60	263.34
721.93	262.91
722.27	262.62
722.60	262.31
722.93	261.93
723.26	261.70
723.59	261.22
723.93	260.97
724.26	260.61
724.59	260.25
724.92	259.98
725.25	259.64
725.59	259.23
725.92	258.95
726.25	258.61
726.58	258.21
726.91	257.91
727.24	257.60
727.57	257.30
727.91	257.07
728.24	256.73
728.57	256.48
728.90	256.27
729.23	255.90
729.56	255.76
729.89	255.39
730.22	255.06
730.55	254.76
730.89	254.36
731.22	254.10
731.55	253.80
731.88	253.52
732.21	253.22
732.54	252.95
732.87	252.64
733.20	252.44
733.53	252.25
733.86	252.05
734.19	251.88
734.52	251.55
734.85	251.31
735.18	251.10
735.51	250.88
735.84	250.64
736.17	250.39
736.50	250.06
736.83	250.06
737.16	249.88
737.49	249.73
737.82	249.58
738.15	249.44
738.48	249.32
738.81	249.20
739.14	249.09
739.47	248.84
739.80	248.66
740.13	248.47
740.46	248.19
740.79	247.93
741.12	247.67
741.45	247.60
741.78	247.37
742.11	247.18
742.44	246.90
742.77	246.76
743.10	246.59
743.43	246.37
743.75	246.05
744.08	245.99
744.41	245.78
744.74	245.60
745.07	245.42
745.40	245.20
745.73	244.96
746.06	244.69
746.39	244.54
746.71	244.34
747.04	244.12
747.37	243.94
747.70	243.91
748.03	243.71
748.36	243.48
748.68	243.30
749.01	243.12
749.34	243.08
749.67	242.81
750.00	242.74
750.33	242.76
750.65	242.57
750.98	242.20
751.31	242.00
751.64	241.83
751.97	241.72
752.29	241.56
752.62	241.48
752.95	241.32
753.28	241.25
753.60	241.18
753.93	241.03
754.26	240.85
754.59	240.52
754.91	240.45
755.24	240.30
755.57	240.10
755.90	239.96
756.22	239.72
756.55	239.59
756.88	239.39
757.20	239.16
757.53	239.10
757.86	239.07
758.19	239.07
758.51	239.05
758.84	238.81
759.17	238.77
759.49	238.54
759.82	238.55
760.15	238.39
760.47	238.26
760.80	238.24
761.13	238.16
761.45	238.02
761.78	237.93
762.11	237.86
762.43	237.85
762.76	237.72
763.08	237.54
763.41	237.46
763.74	237.40
764.06	237.20
764.39	237.07
764.71	236.93
765.04	236.74
765.37	236.46
765.69	236.33
766.02	236.14
766.34	236.15
766.67	236.00
767.00	236.00
767.32	236.02
767.65	235.90
767.97	235.87
768.30	235.86
768.62	235.77
768.95	235.69
769.27	235.65
769.60	235.67
769.92	235.66
770.25	235.53
770.57	235.32
770.90	235.30
771.22	235.16
771.55	235.08
771.87	235.07
772.20	235.06
772.52	235.18
772.85	235.34
773.17	235.14
773.50	235.04
773.82	234.83
774.15	234.61
774.47	234.48
774.80	234.39
775.12	234.34
775.45	234.23
775.77	234.20
776.09	234.16
776.42	234.00
776.74	233.95
777.07	233.87
777.39	233.89
777.72	233.85
778.04	233.90
778.36	233.82
778.69	233.80
779.01	233.71
779.33	233.53
779.66	233.26
779.98	233.19
780.31	233.21
780.63	233.31
780.95	233.29
781.28	233.24
781.60	233.15
781.92	233.13
782.25	233.13
782.57	233.08
782.89	232.96
783.22	232.99
783.54	232.99
783.86	232.94
784.19	232.96
784.51	232.94
784.83	232.79
785.16	232.79
785.48	232.78
785.80	232.77
786.12	232.76
786.45	232.81
786.77	232.89
787.09	232.84
787.42	232.71
787.74	232.66
788.06	232.69
788.38	232.70
788.71	232.56
789.03	232.50
789.35	232.46
789.67	232.40
789.99	232.39
790.32	232.31
790.64	232.30
790.96	232.38
791.28	232.30
791.61	232.26
791.93	232.25
792.25	232.10
792.57	232.08
792.89	231.96
793.21	231.87
793.54	231.76
793.86	231.64
794.18	231.64
