SpectraSuite Data File
++++++++++++++++++++++++++++++++++++
Date: Fri Feb 01 14:37:42 EST 2013
User: group
Dark Spectrum Present: No
Reference Spectrum Present: No
Number of Sampled Component Spectra: 1
Spectrometers: USB2E7196
Integration Time (usec): 70000 (USB2E7196)
Spectra Averaged: 10 (USB2E7196)
Boxcar Smoothing: 10 (USB2E7196)
Correct for Electrical Dark: No (USB2E7196)
Strobe/Lamp Enabled: No (USB2E7196)
Correct for Detector Non-linearity: No (USB2E7196)
Correct for Stray Light: No (USB2E7196)
Number of Pixels in Processed Spectrum: 2048
>>>>>Begin Processed Spectral Data<<<<<
339.09	0.00
339.48	214.80
339.86	218.30
340.24	219.10
340.63	219.80
341.01	224.90
341.39	222.70
341.78	224.20
342.16	227.60
342.54	225.60
342.93	215.04
343.31	225.90
343.69	226.52
344.07	226.97
344.46	227.45
344.84	227.79
345.22	227.94
345.60	228.23
345.99	228.45
346.37	228.54
346.75	228.65
347.13	228.69
347.52	228.62
347.90	228.79
348.28	228.73
348.66	228.86
349.05	228.65
349.43	228.63
349.81	228.68
350.19	228.68
350.57	228.65
350.96	228.63
351.34	228.70
351.72	228.79
352.10	228.89
352.48	228.81
352.87	228.93
353.25	229.02
353.63	229.02
354.01	229.01
354.39	228.97
354.77	228.97
355.15	229.14
355.54	229.24
355.92	229.23
356.30	229.34
356.68	229.42
357.06	229.56
357.44	229.59
357.82	229.60
358.20	229.64
358.58	229.67
358.97	229.68
359.35	229.73
359.73	229.66
360.11	229.62
360.49	229.74
360.87	229.73
361.25	229.81
361.63	229.92
362.01	229.99
362.39	229.94
362.77	230.04
363.15	230.00
363.53	229.93
363.91	229.90
364.29	229.88
364.67	229.73
365.05	229.63
365.43	229.68
365.81	229.76
366.19	229.77
366.57	229.87
366.95	229.78
367.33	229.78
367.71	229.85
368.09	229.90
368.47	229.83
368.85	229.77
369.23	229.74
369.61	229.63
369.99	229.58
370.37	229.69
370.75	229.74
371.13	229.64
371.51	229.54
371.89	229.58
372.27	229.47
372.65	229.42
373.03	229.39
373.41	229.27
373.78	229.17
374.16	229.00
374.54	228.74
374.92	228.68
375.30	228.52
375.68	228.38
376.06	228.28
376.44	228.17
376.82	228.18
377.19	228.00
377.57	227.89
377.95	227.79
378.33	227.65
378.71	227.50
379.09	227.41
379.47	227.49
379.84	227.37
380.22	227.34
380.60	227.25
380.98	227.20
381.36	227.17
381.73	227.04
382.11	227.11
382.49	227.16
382.87	227.11
383.25	227.02
383.62	227.17
384.00	227.12
384.38	227.13
384.76	227.13
385.13	227.14
385.51	227.12
385.89	227.02
386.27	226.96
386.64	226.92
387.02	226.94
387.40	226.80
387.78	226.75
388.15	226.64
388.53	226.68
388.91	226.69
389.29	226.64
389.66	226.58
390.04	226.53
390.42	226.53
390.79	226.54
391.17	226.55
391.55	226.33
391.92	226.33
392.30	226.38
392.68	226.28
393.05	226.34
393.43	226.40
393.81	226.52
394.18	226.55
394.56	226.57
394.94	226.59
395.31	226.62
395.69	226.69
396.06	226.86
396.44	226.91
396.82	226.93
397.19	227.15
397.57	227.27
397.95	227.31
398.32	227.36
398.70	227.40
399.07	227.61
399.45	227.81
399.82	227.91
400.20	228.00
400.58	228.08
400.95	228.19
401.33	228.37
401.70	228.61
402.08	228.66
402.45	228.78
402.83	228.98
403.20	229.12
403.58	229.25
403.95	229.35
404.33	229.50
404.71	229.63
405.08	229.81
405.46	229.98
405.83	230.11
406.21	230.32
406.58	230.60
406.96	230.69
407.33	230.87
407.70	231.00
408.08	231.30
408.45	231.61
408.83	231.86
409.20	232.10
409.58	232.27
409.95	232.64
410.33	233.03
410.70	233.33
411.08	233.76
411.45	234.10
411.82	234.55
412.20	234.96
412.57	235.60
412.95	235.92
413.32	236.53
413.69	237.11
414.07	237.73
414.44	238.33
414.82	238.99
415.19	239.71
415.56	240.68
415.94	241.47
416.31	242.48
416.68	243.39
417.06	244.37
417.43	245.41
417.81	246.62
418.18	247.78
418.55	249.07
418.93	250.28
419.30	251.68
419.67	253.16
420.04	254.66
420.42	256.12
420.79	258.10
421.16	259.84
421.54	261.74
421.91	263.60
422.28	265.80
422.66	268.07
423.03	270.29
423.40	272.30
423.77	274.56
424.15	276.83
424.52	279.25
424.89	281.90
425.26	284.42
425.64	286.80
426.01	289.41
426.38	292.20
426.75	295.10
427.13	298.08
427.50	301.04
427.87	304.24
428.24	307.50
428.61	310.40
428.99	313.72
429.36	317.42
429.73	321.02
430.10	324.40
430.47	327.93
430.85	331.43
431.22	335.37
431.59	339.53
431.96	343.38
432.33	347.77
432.70	352.02
433.08	357.01
433.45	361.81
433.82	366.45
434.19	371.52
434.56	376.53
434.93	381.23
435.30	386.15
435.68	391.34
436.05	396.41
436.42	401.62
436.79	406.32
437.16	411.34
437.53	416.54
437.90	421.81
438.27	427.04
438.64	432.60
439.01	437.50
439.38	441.90
439.75	446.25
440.13	451.07
440.50	455.87
440.87	459.70
441.24	463.53
441.61	467.95
441.98	471.19
442.35	475.09
442.72	479.05
443.09	482.72
443.46	485.30
443.83	487.01
444.20	488.42
444.57	490.60
444.94	491.55
445.31	492.88
445.68	494.17
446.05	494.72
446.42	494.48
446.79	494.45
447.16	494.24
447.53	494.20
447.90	492.80
448.27	491.16
448.64	488.87
449.01	487.30
449.37	484.29
449.74	481.38
450.11	477.69
450.48	473.60
450.85	469.52
451.22	466.01
451.59	462.66
451.96	459.56
452.33	455.06
452.70	451.28
453.07	446.54
453.43	441.57
453.80	436.93
454.17	432.41
454.54	428.03
454.91	423.40
455.28	418.83
455.65	414.58
456.02	410.22
456.38	406.32
456.75	401.64
457.12	397.62
457.49	393.72
457.86	390.05
458.23	386.91
458.59	383.27
458.96	379.53
459.33	376.29
459.70	373.05
460.07	370.65
460.43	367.68
460.80	364.71
461.17	362.10
461.54	359.50
461.91	357.02
462.27	354.44
462.64	352.19
463.01	349.69
463.38	347.09
463.74	344.63
464.11	342.54
464.48	340.84
464.85	338.77
465.21	336.96
465.58	335.22
465.95	333.10
466.32	331.42
466.68	329.71
467.05	328.04
467.42	326.24
467.78	324.30
468.15	322.53
468.52	321.36
468.88	319.69
469.25	318.18
469.62	316.95
469.98	315.66
470.35	314.34
470.72	313.10
471.08	312.01
471.45	310.97
471.82	309.90
472.18	308.69
472.55	307.90
472.92	307.02
473.28	306.03
473.65	305.07
474.02	304.13
474.38	303.43
474.75	302.75
475.11	302.04
475.48	301.42
475.85	300.84
476.21	300.19
476.58	299.60
476.94	299.18
477.31	298.58
477.67	297.96
478.04	297.43
478.41	297.22
478.77	296.96
479.14	296.53
479.50	296.23
479.87	295.86
480.23	295.53
480.60	295.21
480.96	294.98
481.33	294.95
481.69	294.89
482.06	294.67
482.42	294.48
482.79	294.30
483.15	294.21
483.52	294.27
483.88	294.21
484.25	294.34
484.61	294.28
484.98	294.28
485.34	294.62
485.71	294.86
486.07	294.91
486.44	294.98
486.80	295.22
487.17	295.45
487.53	295.90
487.90	296.25
488.26	296.70
488.62	297.08
488.99	297.34
489.35	297.67
489.72	298.02
490.08	298.55
490.44	299.07
490.81	299.58
491.17	299.90
491.54	300.42
491.90	300.81
492.26	301.25
492.63	301.85
492.99	302.25
493.36	302.76
493.72	303.30
494.08	303.85
494.45	304.56
494.81	305.12
495.17	305.60
495.54	306.20
495.90	306.87
496.26	307.44
496.63	308.05
496.99	308.55
497.35	309.23
497.72	309.80
498.08	310.33
498.44	310.92
498.80	311.61
499.17	312.25
499.53	312.94
499.89	313.65
500.26	314.25
500.62	314.79
500.98	315.40
501.34	315.96
501.71	316.52
502.07	316.89
502.43	317.36
502.79	317.56
503.16	317.80
503.52	318.13
503.88	318.41
504.24	318.77
504.60	319.16
504.97	319.43
505.33	319.80
505.69	320.23
506.05	320.57
506.41	320.85
506.78	321.14
507.14	321.32
507.50	321.58
507.86	321.73
508.22	321.93
508.59	321.97
508.95	322.18
509.31	322.30
509.67	322.48
510.03	322.62
510.39	323.08
510.75	323.37
511.12	323.49
511.48	323.54
511.84	323.65
512.20	323.69
512.56	323.81
512.92	323.87
513.28	323.95
513.64	323.90
514.00	324.03
514.37	323.98
514.73	324.11
515.09	324.32
515.45	324.33
515.81	324.51
516.17	324.81
516.53	324.91
516.89	325.17
517.25	325.40
517.61	325.83
517.97	325.99
518.33	326.54
518.69	326.80
519.05	327.38
519.41	327.93
519.77	328.68
520.13	329.32
520.49	329.88
520.85	330.43
521.21	331.33
521.57	331.95
521.93	332.79
522.29	333.70
522.65	334.54
523.01	335.51
523.37	336.40
523.73	337.53
524.09	338.79
524.45	339.97
524.81	341.27
525.17	342.71
525.53	344.27
525.89	345.66
526.25	347.43
526.61	348.90
526.97	350.40
527.33	352.24
527.68	354.23
528.04	356.28
528.40	358.47
528.76	360.70
529.12	363.06
529.48	365.43
529.84	367.81
530.20	370.41
530.56	373.18
530.91	376.11
531.27	378.96
531.63	381.83
531.99	384.60
532.35	387.60
532.71	390.36
533.07	393.48
533.42	396.66
533.78	399.89
534.14	403.46
534.50	406.93
534.86	410.48
535.21	413.87
535.57	417.77
535.93	421.41
536.29	425.23
536.65	429.19
537.00	433.13
537.36	437.16
537.72	441.00
538.08	445.11
538.44	449.06
538.79	453.11
539.15	457.25
539.51	461.81
539.87	466.10
540.22	470.69
540.58	475.17
540.94	479.81
541.29	484.22
541.65	488.77
542.01	493.66
542.37	498.38
542.72	503.10
543.08	507.52
543.44	512.31
543.79	516.74
544.15	521.34
544.51	526.32
544.87	531.15
545.22	536.20
545.58	541.07
545.94	545.98
546.29	550.83
546.65	555.60
547.01	560.40
547.36	565.47
547.72	570.30
548.07	575.21
548.43	580.05
548.79	585.22
549.14	590.04
549.50	594.75
549.86	599.50
550.21	604.32
550.57	609.36
550.92	614.20
551.28	619.19
551.64	624.46
551.99	629.28
552.35	634.01
552.70	638.84
553.06	643.79
553.41	648.72
553.77	653.90
554.13	659.09
554.48	664.16
554.84	668.98
555.19	673.91
555.55	678.99
555.90	684.15
556.26	688.76
556.61	693.59
556.97	698.40
557.32	703.14
557.68	708.04
558.03	712.79
558.39	717.48
558.74	722.34
559.10	726.79
559.45	731.39
559.81	736.21
560.16	740.79
560.52	745.28
560.87	749.86
561.23	753.88
561.58	758.53
561.94	762.55
562.29	766.65
562.64	770.92
563.00	774.81
563.35	778.79
563.71	783.45
564.06	787.84
564.42	791.90
564.77	796.05
565.12	800.28
565.48	804.53
565.83	808.59
566.19	812.70
566.54	816.48
566.89	820.23
567.25	824.19
567.60	828.33
567.96	832.27
568.31	836.08
568.66	840.06
569.02	843.16
569.37	846.85
569.72	850.48
570.08	853.89
570.43	857.35
570.78	860.44
571.14	863.07
571.49	865.90
571.84	869.35
572.20	872.26
572.55	874.73
572.90	877.17
573.26	879.82
573.61	882.20
573.96	884.62
574.31	886.85
574.67	888.83
575.02	890.42
575.37	891.99
575.72	893.51
576.08	895.44
576.43	897.39
576.78	899.20
577.13	901.15
577.49	902.69
577.84	904.28
578.19	905.83
578.54	907.03
578.90	908.53
579.25	909.20
579.60	910.45
579.95	911.68
580.30	912.50
580.66	913.64
581.01	914.40
581.36	915.50
581.71	916.57
582.06	917.51
582.42	918.39
582.77	919.30
583.12	920.10
583.47	920.69
583.82	921.33
584.17	921.69
584.53	921.99
584.88	922.44
585.23	922.85
585.58	923.24
585.93	923.91
586.28	924.26
586.63	924.78
586.98	924.87
587.34	925.01
587.69	925.15
588.04	925.31
588.39	925.43
588.74	925.08
589.09	924.60
589.44	923.91
589.79	923.74
590.14	923.86
590.49	923.52
590.84	923.12
591.19	922.61
591.54	921.81
591.89	920.63
592.25	919.97
592.60	918.62
592.95	917.64
593.30	916.42
593.65	914.85
594.00	913.72
594.35	913.08
594.70	911.88
595.05	911.24
595.40	909.79
595.75	908.40
596.10	907.40
596.45	906.48
596.80	905.72
597.15	904.46
597.50	902.87
597.85	901.73
598.19	900.45
598.54	899.61
598.89	898.51
599.24	897.88
599.59	896.62
599.94	896.05
600.29	894.64
600.64	893.48
600.99	892.44
601.34	891.30
601.69	889.55
602.04	888.12
602.39	886.45
602.74	885.32
603.08	884.00
603.43	882.48
603.78	880.72
604.13	879.17
604.48	877.66
604.83	876.26
605.18	874.73
605.53	872.92
605.87	870.48
606.22	868.74
606.57	866.68
606.92	864.80
607.27	862.84
607.62	861.36
607.96	859.71
608.31	857.95
608.66	855.70
609.01	853.41
609.36	851.09
609.70	848.37
610.05	845.46
610.40	843.38
610.75	841.18
611.10	838.89
611.44	836.04
611.79	833.61
612.14	830.90
612.49	828.08
612.83	825.38
613.18	822.88
613.53	820.31
613.88	817.65
614.22	815.11
614.57	811.99
614.92	808.94
615.27	806.36
615.61	803.45
615.96	800.80
616.31	798.69
616.65	796.59
617.00	794.35
617.35	791.74
617.70	788.71
618.04	785.51
618.39	782.82
618.74	780.42
619.08	777.65
619.43	774.86
619.78	772.16
620.12	769.90
620.47	767.47
620.82	764.74
621.16	762.10
621.51	759.54
621.85	757.10
622.20	754.39
622.55	751.46
622.89	748.88
623.24	746.49
623.59	743.67
623.93	741.13
624.28	738.63
624.62	736.26
624.97	734.20
625.32	732.04
625.66	729.70
626.01	727.18
626.35	724.39
626.70	721.90
627.04	719.44
627.39	716.60
627.73	713.79
628.08	711.33
628.43	708.54
628.77	705.83
629.12	703.06
629.46	700.34
629.81	697.53
630.15	694.60
630.50	691.60
630.84	688.32
631.19	684.98
631.53	681.74
631.88	678.78
632.22	675.37
632.57	672.45
632.91	669.49
633.26	666.59
633.60	663.64
633.95	660.82
634.29	657.89
634.64	655.05
634.98	652.12
635.32	649.38
635.67	646.83
636.01	643.97
636.36	641.12
636.70	638.70
637.05	636.24
637.39	633.96
637.73	631.39
638.08	629.15
638.42	626.93
638.77	624.80
639.11	622.49
639.45	620.09
639.80	617.48
640.14	614.93
640.49	612.19
640.83	609.64
641.17	607.18
641.52	604.68
641.86	601.84
642.20	599.48
642.55	596.78
642.89	594.37
643.23	591.60
643.58	589.37
643.92	586.57
644.26	583.96
644.61	581.31
644.95	578.82
645.29	575.86
645.64	572.88
645.98	570.00
646.32	567.34
646.66	564.80
647.01	562.29
647.35	559.81
647.69	557.48
648.04	555.26
648.38	552.50
648.72	549.82
649.06	547.31
649.41	544.76
649.75	541.93
650.09	539.09
650.43	536.52
650.78	533.87
651.12	531.44
651.46	528.96
651.80	526.26
652.14	523.76
652.49	521.55
652.83	519.35
653.17	516.93
653.51	514.40
653.85	511.98
654.20	509.63
654.54	506.81
654.88	504.16
655.22	501.43
655.56	498.85
655.90	496.69
656.25	494.47
656.59	492.15
656.93	490.00
657.27	487.75
657.61	485.46
657.95	483.30
658.29	480.91
658.64	478.57
658.98	476.46
659.32	474.16
659.66	471.91
660.00	469.42
660.34	467.31
660.68	465.27
661.02	462.85
661.36	460.54
661.70	458.60
662.05	456.59
662.39	454.73
662.73	452.88
663.07	450.80
663.41	448.70
663.75	446.66
664.09	444.63
664.43	442.60
664.77	440.96
665.11	438.92
665.45	437.03
665.79	435.25
666.13	433.24
666.47	431.24
666.81	429.37
667.15	427.55
667.49	425.74
667.83	423.94
668.17	422.23
668.51	420.30
668.85	418.61
669.19	416.98
669.53	415.20
669.87	413.49
670.21	411.82
670.55	410.32
670.89	408.73
671.23	407.36
671.57	405.80
671.91	404.10
672.25	402.58
672.58	401.14
672.92	399.32
673.26	397.97
673.60	396.43
673.94	395.02
674.28	393.77
674.62	392.33
674.96	390.80
675.30	389.42
675.64	388.21
675.97	386.74
676.31	385.29
676.65	383.89
676.99	382.64
677.33	381.05
677.67	379.53
678.01	378.03
678.34	376.52
678.68	375.19
679.02	373.61
679.36	372.23
679.70	370.78
680.04	369.57
680.37	367.99
680.71	366.70
681.05	365.27
681.39	363.91
681.73	362.43
682.06	361.17
682.40	359.84
682.74	358.49
683.08	357.30
683.42	355.97
683.75	354.73
684.09	353.32
684.43	352.11
684.77	350.88
685.10	349.62
685.44	348.30
685.78	347.01
686.12	345.92
686.45	344.60
686.79	343.35
687.13	342.22
687.46	341.16
687.80	340.02
688.14	338.92
688.48	337.79
688.81	336.60
689.15	335.43
689.49	334.38
689.82	333.31
690.16	331.98
690.50	330.89
690.83	329.79
691.17	328.64
691.51	327.63
691.84	326.60
692.18	325.59
692.52	324.59
692.85	323.59
693.19	322.58
693.52	321.63
693.86	320.68
694.20	319.60
694.53	318.71
694.87	317.72
695.21	316.57
695.54	315.49
695.88	314.57
696.21	313.46
696.55	312.44
696.88	311.29
697.22	310.52
697.56	309.64
697.89	308.73
698.23	308.00
698.56	307.16
698.90	306.27
699.23	305.30
699.57	304.47
699.90	303.62
700.24	302.76
700.58	301.89
700.91	301.07
701.25	300.40
701.58	299.68
701.92	298.82
702.25	298.18
702.59	297.44
702.92	296.70
703.26	296.08
703.59	295.40
703.93	294.99
704.26	294.24
704.60	293.69
704.93	293.01
705.26	292.42
705.60	291.79
705.93	291.27
706.27	290.92
706.60	290.28
706.94	289.81
707.27	289.12
707.61	288.61
707.94	287.89
708.27	287.26
708.61	286.44
708.94	286.05
709.28	285.38
709.61	284.89
709.94	284.48
710.28	283.96
710.61	283.40
710.95	282.78
711.28	282.38
711.61	281.65
711.95	281.10
712.28	280.38
712.61	279.74
712.95	279.16
713.28	278.56
713.61	278.03
713.95	277.48
714.28	277.01
714.61	276.34
714.95	275.94
715.28	275.26
715.61	274.80
715.95	274.17
716.28	273.70
716.61	273.25
716.95	272.62
717.28	272.09
717.61	271.63
717.94	271.09
718.28	270.45
718.61	270.10
718.94	269.71
719.27	269.33
719.61	268.92
719.94	268.35
720.27	267.73
720.60	267.37
720.94	266.79
721.27	266.34
721.60	266.03
721.93	265.65
722.27	265.42
722.60	265.08
722.93	264.67
723.26	264.27
723.59	263.88
723.93	263.53
724.26	263.17
724.59	262.62
724.92	262.25
725.25	261.95
725.59	261.59
725.92	261.14
726.25	260.66
726.58	260.27
726.91	259.95
727.24	259.66
727.57	259.19
727.91	258.87
728.24	258.61
728.57	258.19
728.90	257.82
729.23	257.24
729.56	256.95
729.89	256.56
730.22	256.25
730.55	255.81
730.89	255.52
731.22	255.23
731.55	255.10
731.88	254.77
732.21	254.37
732.54	253.96
732.87	253.61
733.20	253.38
733.53	253.10
733.86	252.88
734.19	252.53
734.52	252.30
734.85	252.10
735.18	251.68
735.51	251.51
735.84	251.23
736.17	251.15
736.50	250.80
736.83	250.77
737.16	250.47
737.49	250.15
737.82	249.92
738.15	249.73
738.48	249.40
738.81	249.25
739.14	249.10
739.47	248.96
739.80	248.83
740.13	248.67
740.46	248.49
740.79	248.21
741.12	248.05
741.45	247.90
741.78	247.64
742.11	247.51
742.44	247.18
742.77	246.99
743.10	246.84
743.43	246.61
743.75	246.26
744.08	246.34
744.41	246.31
744.74	246.05
745.07	245.89
745.40	245.70
745.73	245.58
746.06	245.48
746.39	245.26
746.71	245.06
747.04	244.79
747.37	244.56
747.70	244.42
748.03	244.29
748.36	244.21
748.68	244.18
749.01	244.08
749.34	244.00
749.67	243.95
750.00	243.83
750.33	243.92
750.65	243.82
750.98	243.44
751.31	243.25
751.64	243.15
751.97	243.10
752.29	243.11
752.62	242.96
752.95	242.83
753.28	242.68
753.60	242.61
753.93	242.56
754.26	242.43
754.59	242.35
754.91	242.25
755.24	242.05
755.57	241.91
755.90	241.82
756.22	241.66
756.55	241.58
756.88	241.32
757.20	241.12
757.53	241.01
757.86	241.01
758.19	240.97
758.51	240.95
758.84	240.62
759.17	240.54
759.49	240.33
759.82	240.20
760.15	240.14
760.47	239.95
760.80	239.92
761.13	239.84
761.45	239.62
761.78	239.48
762.11	239.30
762.43	239.11
762.76	238.90
763.08	238.87
763.41	238.81
763.74	238.80
764.06	238.62
764.39	238.54
764.71	238.34
765.04	238.18
765.37	238.00
765.69	237.95
766.02	237.69
766.34	237.55
766.67	237.31
767.00	237.17
767.32	237.20
767.65	237.10
767.97	236.93
768.30	236.86
768.62	236.81
768.95	236.71
769.27	236.57
769.60	236.47
769.92	236.33
770.25	236.07
770.57	235.78
770.90	235.68
771.22	235.42
771.55	235.39
771.87	235.28
772.20	235.05
772.52	235.08
772.85	235.22
773.17	235.10
773.50	234.97
773.82	234.88
774.15	234.56
774.47	234.40
774.80	234.28
775.12	234.10
775.45	233.98
775.77	233.90
776.09	233.86
776.42	233.73
776.74	233.67
777.07	233.47
777.39	233.39
777.72	233.30
778.04	233.27
778.36	233.10
778.69	233.08
779.01	233.07
779.33	232.83
779.66	232.55
779.98	232.57
780.31	232.56
780.63	232.55
780.95	232.56
781.28	232.51
781.60	232.56
781.92	232.60
782.25	232.50
782.57	232.47
782.89	232.38
783.22	232.45
783.54	232.32
783.86	232.35
784.19	232.35
784.51	232.38
784.83	232.33
785.16	232.31
785.48	232.25
785.80	232.26
786.12	232.30
786.45	232.37
786.77	232.37
787.09	232.36
787.42	232.27
787.74	232.31
788.06	232.18
788.38	232.08
788.71	232.01
789.03	232.00
789.35	232.00
789.67	232.00
789.99	231.99
790.32	232.00
790.64	231.97
790.96	232.17
791.28	232.03
791.61	232.06
791.93	231.95
792.25	231.88
792.57	231.98
792.89	231.89
793.21	231.75
793.54	231.62
793.86	231.58
794.18	231.58
