SpectraSuite Data File
++++++++++++++++++++++++++++++++++++
Date: Fri Feb 01 14:34:39 EST 2013
User: group
Dark Spectrum Present: No
Reference Spectrum Present: No
Number of Sampled Component Spectra: 1
Spectrometers: USB2E7196
Integration Time (usec): 70000 (USB2E7196)
Spectra Averaged: 10 (USB2E7196)
Boxcar Smoothing: 10 (USB2E7196)
Correct for Electrical Dark: No (USB2E7196)
Strobe/Lamp Enabled: No (USB2E7196)
Correct for Detector Non-linearity: No (USB2E7196)
Correct for Stray Light: No (USB2E7196)
Number of Pixels in Processed Spectrum: 2048
>>>>>Begin Processed Spectral Data<<<<<
339.09	0.00
339.48	215.50
339.86	218.90
340.24	219.40
340.63	220.50
341.01	224.50
341.39	223.70
341.78	224.00
342.16	228.20
342.54	226.20
342.93	215.01
343.31	225.98
343.69	226.67
344.07	227.07
344.46	227.50
344.84	227.97
345.22	228.18
345.60	228.41
345.99	228.69
346.37	228.71
346.75	228.79
347.13	228.81
347.52	228.95
347.90	228.99
348.28	229.06
348.66	229.11
349.05	229.05
349.43	229.10
349.81	229.10
350.19	229.10
350.57	229.11
350.96	229.14
351.34	229.02
351.72	229.11
352.10	229.30
352.48	229.36
352.87	229.32
353.25	229.44
353.63	229.55
354.01	229.58
354.39	229.74
354.77	229.79
355.15	229.98
355.54	230.00
355.92	230.04
356.30	230.15
356.68	230.33
357.06	230.43
357.44	230.47
357.82	230.49
358.20	230.53
358.58	230.59
358.97	230.80
359.35	231.08
359.73	231.06
360.11	231.02
360.49	231.07
360.87	231.08
361.25	231.09
361.63	231.20
362.01	231.21
362.39	231.17
362.77	231.24
363.15	231.26
363.53	231.34
363.91	231.39
364.29	231.36
364.67	231.19
365.05	231.22
365.43	231.17
365.81	231.16
366.19	231.30
366.57	231.31
366.95	231.10
367.33	230.97
367.71	230.90
368.09	230.93
368.47	230.85
368.85	230.83
369.23	230.78
369.61	230.70
369.99	230.78
370.37	230.74
370.75	230.82
371.13	230.74
371.51	230.72
371.89	230.62
372.27	230.55
372.65	230.52
373.03	230.45
373.41	230.39
373.78	230.30
374.16	230.15
374.54	230.13
374.92	230.19
375.30	230.10
375.68	229.99
376.06	229.92
376.44	229.90
376.82	229.90
377.19	229.78
377.57	229.61
377.95	229.37
378.33	229.27
378.71	229.04
379.09	228.99
379.47	228.84
379.84	228.74
380.22	228.66
380.60	228.61
380.98	228.52
381.36	228.44
381.73	228.32
382.11	228.19
382.49	228.07
382.87	227.90
383.25	227.87
383.62	228.09
384.00	227.96
384.38	227.90
384.76	227.77
385.13	227.77
385.51	227.69
385.89	227.67
386.27	227.57
386.64	227.46
387.02	227.43
387.40	227.37
387.78	227.30
388.15	227.24
388.53	227.02
388.91	227.02
389.29	227.00
389.66	227.10
390.04	227.08
390.42	227.10
390.79	227.06
391.17	227.03
391.55	226.76
391.92	226.78
392.30	226.77
392.68	226.82
393.05	226.85
393.43	226.90
393.81	226.90
394.18	226.95
394.56	227.04
394.94	227.13
395.31	227.13
395.69	227.24
396.06	227.34
396.44	227.59
396.82	227.71
397.19	227.88
397.57	227.86
397.95	227.96
398.32	227.94
398.70	228.04
399.07	228.13
399.45	228.30
399.82	228.40
400.20	228.50
400.58	228.66
400.95	228.71
401.33	228.91
401.70	229.15
402.08	229.39
402.45	229.62
402.83	229.85
403.20	230.05
403.58	230.25
403.95	230.47
404.33	230.69
404.71	230.91
405.08	231.27
405.46	231.62
405.83	232.01
406.21	232.37
406.58	232.87
406.96	233.29
407.33	233.77
407.70	234.27
408.08	234.87
408.45	235.42
408.83	236.13
409.20	236.65
409.58	237.23
409.95	237.87
410.33	238.57
410.70	239.24
411.08	240.16
411.45	241.11
411.82	242.05
412.20	242.98
412.57	244.08
412.95	244.96
413.32	246.17
413.69	247.37
414.07	248.61
414.44	249.85
414.82	251.31
415.19	252.82
415.56	254.50
415.94	256.30
416.31	258.10
416.68	259.96
417.06	262.20
417.43	264.22
417.81	266.49
418.18	268.95
418.55	271.50
418.93	274.10
419.30	276.90
419.67	279.86
420.04	283.03
420.42	286.15
420.79	289.94
421.16	293.54
421.54	297.37
421.91	301.37
422.28	305.54
422.66	309.79
423.03	313.91
423.40	318.31
423.77	323.00
424.15	327.87
424.52	332.74
424.89	338.18
425.26	343.46
425.64	348.37
426.01	353.71
426.38	359.55
426.75	365.27
427.13	371.13
427.50	377.57
427.87	383.87
428.24	390.46
428.61	396.55
428.99	403.26
429.36	410.67
429.73	418.06
430.10	425.38
430.47	432.89
430.85	440.70
431.22	448.56
431.59	456.94
431.96	464.96
432.33	474.10
432.70	482.80
433.08	492.95
433.45	502.76
433.82	512.23
434.19	522.64
434.56	533.06
434.93	543.06
435.30	552.82
435.68	563.80
436.05	574.56
436.42	585.08
436.79	594.91
437.16	605.31
437.53	616.36
437.90	627.08
438.27	637.83
438.64	649.19
439.01	659.69
439.38	669.17
439.75	678.05
440.13	688.28
440.50	698.08
440.87	706.35
441.24	714.76
441.61	724.19
441.98	730.78
442.35	739.00
442.72	747.10
443.09	755.06
443.46	760.14
443.83	763.89
444.20	767.68
444.57	772.48
444.94	775.15
445.31	777.70
445.68	780.47
446.05	782.44
446.42	782.29
446.79	782.43
447.16	782.30
447.53	782.88
447.90	780.04
448.27	777.17
448.64	772.53
449.01	769.79
449.37	763.70
449.74	758.16
450.11	750.70
450.48	742.81
450.85	734.77
451.22	728.12
451.59	721.42
451.96	715.06
452.33	706.01
452.70	698.08
453.07	688.30
453.43	678.52
453.80	668.70
454.17	659.44
454.54	650.33
454.91	640.53
455.28	630.91
455.65	622.14
456.02	613.08
456.38	605.46
456.75	595.70
457.12	587.79
457.49	579.85
457.86	572.35
458.23	565.57
458.59	558.18
458.96	550.60
459.33	544.06
459.70	537.22
460.07	532.06
460.43	525.98
460.80	520.08
461.17	514.88
461.54	509.39
461.91	504.15
462.27	499.09
462.64	494.70
463.01	489.76
463.38	484.90
463.74	480.05
464.11	475.70
464.48	471.92
464.85	467.75
465.21	464.63
465.58	461.19
465.95	457.34
466.32	453.78
466.68	450.21
467.05	446.80
467.42	443.40
467.78	439.74
468.15	436.33
468.52	434.04
468.88	430.76
469.25	427.89
469.62	425.65
469.98	423.12
470.35	420.52
470.72	418.30
471.08	415.93
471.45	413.96
471.82	411.97
472.18	409.58
472.55	407.94
472.92	406.06
473.28	404.31
473.65	402.47
474.02	400.84
474.38	399.42
474.75	398.18
475.11	396.98
475.48	395.96
475.85	394.91
476.21	393.90
476.58	393.04
476.94	392.38
477.31	391.46
477.67	390.43
478.04	389.95
478.41	389.39
478.77	389.07
479.14	388.54
479.50	388.38
479.87	388.37
480.23	388.29
480.60	387.98
480.96	387.73
481.33	387.90
481.69	387.97
482.06	388.26
482.42	388.11
482.79	388.22
483.15	388.63
483.52	389.36
483.88	389.93
484.25	390.50
484.61	391.11
484.98	391.83
485.34	392.82
485.71	393.76
486.07	395.05
486.44	395.90
486.80	397.02
487.17	398.17
487.53	399.78
487.90	401.33
488.26	403.07
488.62	404.88
488.99	406.59
489.35	408.48
489.72	410.35
490.08	412.56
490.44	414.61
490.81	416.79
491.17	418.89
491.54	421.08
491.90	423.42
492.26	426.06
492.63	428.81
492.99	431.48
493.36	434.11
493.72	436.97
494.08	440.03
494.45	443.14
494.81	446.30
495.17	449.14
495.54	452.20
495.90	455.51
496.26	458.95
496.63	462.50
496.99	465.87
497.35	469.51
497.72	473.19
498.08	477.00
498.44	480.81
498.80	485.00
499.17	489.10
499.53	493.15
499.89	497.25
500.26	501.16
500.62	505.37
500.98	509.78
501.34	513.91
501.71	518.12
502.07	522.25
502.43	526.30
502.79	530.65
503.16	534.97
503.52	539.26
503.88	543.45
504.24	547.59
504.60	551.97
504.97	556.36
505.33	560.74
505.69	565.19
506.05	569.50
506.41	573.42
506.78	577.50
507.14	581.57
507.50	585.58
507.86	589.76
508.22	593.68
508.59	597.42
508.95	601.42
509.31	605.38
509.67	609.37
510.03	613.41
510.39	617.43
510.75	621.30
511.12	625.02
511.48	628.72
511.84	632.30
512.20	635.81
512.56	639.38
512.92	642.66
513.28	646.10
513.64	649.37
514.00	652.53
514.37	655.50
514.73	658.76
515.09	661.62
515.45	664.44
515.81	667.39
516.17	670.42
516.53	673.25
516.89	676.05
517.25	678.63
517.61	681.05
517.97	683.40
518.33	685.46
518.69	687.83
519.05	690.23
519.41	692.72
519.77	695.20
520.13	697.26
520.49	699.40
520.85	701.40
521.21	703.37
521.57	705.55
521.93	707.63
522.29	709.70
522.65	711.54
523.01	713.39
523.37	715.02
523.73	716.79
524.09	718.40
524.45	720.15
524.81	722.17
525.17	724.44
525.53	726.45
525.89	728.69
526.25	730.45
526.61	732.05
526.97	733.80
527.33	735.62
527.68	737.73
528.04	739.71
528.40	741.50
528.76	743.62
529.12	745.71
529.48	747.85
529.84	749.60
530.20	751.88
530.56	754.29
530.91	757.02
531.27	759.26
531.63	761.44
531.99	763.47
532.35	765.20
532.71	767.01
533.07	769.07
533.42	771.19
533.78	773.46
534.14	775.80
534.50	777.78
534.86	779.69
535.21	781.67
535.57	783.93
535.93	786.08
536.29	788.43
536.65	790.48
537.00	792.55
537.36	794.90
537.72	797.23
538.08	799.28
538.44	801.22
538.79	803.29
539.15	805.42
539.51	807.96
539.87	810.63
540.22	813.17
540.58	816.02
540.94	818.22
541.29	820.56
541.65	822.63
542.01	825.78
542.37	828.65
542.72	831.26
543.08	833.72
543.44	836.58
543.79	838.73
544.15	841.50
544.51	844.47
544.87	847.38
545.22	850.35
545.58	853.20
545.94	855.91
546.29	858.80
546.65	861.48
547.01	863.97
547.36	866.72
547.72	869.30
548.07	871.60
548.43	874.46
548.79	877.15
549.14	880.19
549.50	882.24
549.86	884.53
550.21	886.88
550.57	889.52
550.92	892.12
551.28	894.81
551.64	897.40
551.99	899.85
552.35	902.36
552.70	904.81
553.06	907.30
553.41	909.92
553.77	912.66
554.13	915.55
554.48	918.35
554.84	920.94
555.19	923.40
555.55	926.03
555.90	928.25
556.26	931.00
556.61	933.49
556.97	935.93
557.32	938.52
557.68	941.28
558.03	944.04
558.39	946.19
558.74	949.00
559.10	951.45
559.45	953.89
559.81	956.63
560.16	958.51
560.52	961.07
560.87	963.82
561.23	966.10
561.58	968.37
561.94	970.50
562.29	972.50
562.64	974.57
563.00	976.50
563.35	979.30
563.71	981.80
564.06	984.37
564.42	986.73
564.77	989.20
565.12	991.31
565.48	993.50
565.83	995.70
566.19	997.60
566.54	999.52
566.89	1001.65
567.25	1003.33
567.60	1005.74
567.96	1007.56
568.31	1009.02
568.66	1010.59
569.02	1012.29
569.37	1013.83
569.72	1015.59
570.08	1017.37
570.43	1018.81
570.78	1019.63
571.14	1020.29
571.49	1021.12
571.84	1022.50
572.20	1023.05
572.55	1024.01
572.90	1024.48
573.26	1025.60
573.61	1026.77
573.96	1027.34
574.31	1027.39
574.67	1027.42
575.02	1027.31
575.37	1027.30
575.72	1026.95
576.08	1027.27
576.43	1027.22
576.78	1027.45
577.13	1027.71
577.49	1027.44
577.84	1027.54
578.19	1027.61
578.54	1027.46
578.90	1027.14
579.25	1026.34
579.60	1025.93
579.95	1025.29
580.30	1024.48
580.66	1023.46
581.01	1022.23
581.36	1021.42
581.71	1020.98
582.06	1020.28
582.42	1019.40
582.77	1018.45
583.12	1017.91
583.47	1016.60
583.82	1015.67
584.17	1014.13
584.53	1012.79
584.88	1011.59
585.23	1010.43
585.58	1009.38
585.93	1008.30
586.28	1007.37
586.63	1006.21
586.98	1005.15
587.34	1003.90
587.69	1002.97
588.04	1001.77
588.39	1000.53
588.74	998.96
589.09	997.19
589.44	995.53
589.79	994.20
590.14	992.95
590.49	991.45
590.84	989.92
591.19	988.34
591.54	986.43
591.89	983.95
592.25	982.02
592.60	979.85
592.95	977.62
593.30	975.50
593.65	973.14
594.00	970.90
594.35	968.97
594.70	966.40
595.05	964.14
595.40	961.77
595.75	959.26
596.10	957.22
596.45	955.04
596.80	952.91
597.15	950.70
597.50	948.11
597.85	945.92
598.19	943.85
598.54	941.54
598.89	939.62
599.24	937.82
599.59	935.71
599.94	933.47
600.29	931.09
600.64	928.69
600.99	925.87
601.34	923.69
601.69	920.75
602.04	918.59
602.39	915.97
602.74	913.54
603.08	911.16
603.43	908.67
603.78	906.42
604.13	903.91
604.48	901.36
604.83	899.09
605.18	896.37
605.53	893.38
605.87	890.30
606.22	887.61
606.57	884.88
606.92	882.36
607.27	879.88
607.62	877.30
607.96	874.62
608.31	872.33
608.66	869.27
609.01	866.20
609.36	863.05
609.70	859.90
610.05	856.68
610.40	853.60
610.75	850.52
611.10	847.25
611.44	843.90
611.79	840.75
612.14	837.22
612.49	833.47
612.83	830.27
613.18	827.19
613.53	823.80
613.88	820.42
614.22	816.87
614.57	813.17
614.92	809.44
615.27	806.05
615.61	802.53
615.96	799.37
616.31	796.45
616.65	793.80
617.00	790.84
617.35	787.90
617.70	784.50
618.04	781.05
618.39	777.80
618.74	774.59
619.08	771.14
619.43	768.28
619.78	765.22
620.12	761.93
620.47	758.65
620.82	755.54
621.16	752.56
621.51	749.56
621.85	746.58
622.20	743.59
622.55	740.61
622.89	737.61
623.24	734.64
623.59	731.70
623.93	728.51
624.28	725.40
624.62	722.30
624.97	719.62
625.32	716.68
625.66	713.70
626.01	710.80
626.35	708.00
626.70	704.77
627.04	702.01
627.39	698.90
627.73	695.71
628.08	692.73
628.43	689.78
628.77	686.69
629.12	683.39
629.46	680.32
629.81	676.92
630.15	673.81
630.50	670.66
630.84	667.30
631.19	663.72
631.53	660.65
631.88	657.33
632.22	654.03
632.57	651.10
632.91	648.06
633.26	645.13
633.60	641.94
633.95	638.96
634.29	636.08
634.64	633.53
634.98	630.63
635.32	627.90
635.67	625.05
636.01	622.41
636.36	619.84
636.70	617.43
637.05	614.86
637.39	612.05
637.73	609.50
638.08	607.36
638.42	605.32
638.77	602.67
639.11	599.94
639.45	597.35
639.80	594.78
640.14	592.11
640.49	589.35
640.83	586.91
641.17	584.39
641.52	581.82
641.86	578.97
642.20	576.63
642.55	573.87
642.89	571.33
643.23	568.63
643.58	566.30
643.92	563.75
644.26	561.25
644.61	559.23
644.95	556.66
645.29	553.82
645.64	550.96
645.98	548.48
646.32	546.39
646.66	544.01
647.01	541.52
647.35	539.23
647.69	536.95
648.04	534.71
648.38	532.21
648.72	529.55
649.06	527.16
649.41	524.90
649.75	522.60
650.09	520.12
650.43	517.60
650.78	514.95
651.12	512.46
651.46	509.91
651.80	507.20
652.14	504.96
652.49	502.71
652.83	500.47
653.17	498.28
653.51	495.84
653.85	493.49
654.20	491.04
654.54	488.62
654.88	486.19
655.22	483.50
655.56	481.06
655.90	478.85
656.25	476.63
656.59	474.26
656.93	472.10
657.27	469.88
657.61	467.64
657.95	465.59
658.29	463.41
658.64	461.50
658.98	459.11
659.32	456.78
659.66	454.54
660.00	452.41
660.34	450.14
660.68	448.06
661.02	445.81
661.36	443.79
661.70	441.64
662.05	439.66
662.39	438.02
662.73	436.37
663.07	434.57
663.41	432.75
663.75	430.89
664.09	428.93
664.43	426.99
664.77	425.13
665.11	423.21
665.45	421.28
665.79	419.35
666.13	417.67
666.47	415.87
666.81	414.09
667.15	412.17
667.49	410.54
667.83	408.81
668.17	407.06
668.51	405.38
668.85	403.69
669.19	402.25
669.53	400.45
669.87	398.58
670.21	396.97
670.55	395.28
670.89	393.77
671.23	392.26
671.57	390.80
671.91	389.43
672.25	387.92
672.58	386.67
672.92	385.21
673.26	383.91
673.60	382.55
673.94	381.13
674.28	379.87
674.62	378.63
674.96	377.24
675.30	375.96
675.64	374.63
675.97	373.39
676.31	372.01
676.65	370.58
676.99	369.52
677.33	368.13
677.67	366.82
678.01	365.36
678.34	364.04
678.68	362.80
679.02	361.51
679.36	360.20
679.70	358.73
680.04	357.54
680.37	356.20
680.71	354.95
681.05	353.87
681.39	352.63
681.73	351.29
682.06	350.22
682.40	349.15
682.74	348.04
683.08	347.00
683.42	345.68
683.75	344.70
684.09	343.40
684.43	342.17
684.77	341.24
685.10	340.18
685.44	339.07
685.78	337.89
686.12	336.75
686.45	335.81
686.79	334.63
687.13	333.56
687.46	332.54
687.80	331.61
688.14	330.49
688.48	329.59
688.81	328.50
689.15	327.36
689.49	326.45
689.82	325.50
690.16	324.41
690.50	323.58
690.83	322.53
691.17	321.64
691.51	320.65
691.84	319.63
692.18	318.75
692.52	317.82
692.85	316.92
693.19	316.10
693.52	315.14
693.86	314.47
694.20	313.51
694.53	312.63
694.87	311.67
695.21	310.75
695.54	309.76
695.88	308.91
696.21	308.08
696.55	307.26
696.88	306.37
697.22	305.57
697.56	304.68
697.89	303.77
698.23	302.94
698.56	302.30
698.90	301.66
699.23	300.71
699.57	299.87
699.90	299.07
700.24	298.20
700.58	297.52
700.91	296.68
701.25	296.14
701.58	295.59
701.92	294.88
702.25	294.25
702.59	293.56
702.92	292.87
703.26	292.31
703.59	291.53
703.93	291.08
704.26	290.51
704.60	289.95
704.93	289.38
705.26	288.82
705.60	288.23
705.93	287.49
706.27	287.05
706.60	286.71
706.94	286.27
707.27	285.66
707.61	284.98
707.94	284.44
708.27	283.77
708.61	283.07
708.94	282.49
709.28	281.88
709.61	281.33
709.94	280.88
710.28	280.29
710.61	279.73
710.95	278.97
711.28	278.49
711.61	278.03
711.95	277.56
712.28	276.98
712.61	276.36
712.95	275.95
713.28	275.57
713.61	274.89
713.95	274.30
714.28	273.89
714.61	273.30
714.95	272.78
715.28	272.20
715.61	271.57
715.95	271.25
716.28	270.84
716.61	270.40
716.95	269.96
717.28	269.46
717.61	269.04
717.94	268.63
718.28	268.04
718.61	267.49
718.94	267.06
719.27	266.62
719.61	266.27
719.94	265.75
720.27	265.15
720.60	264.74
720.94	264.36
721.27	263.99
721.60	263.82
721.93	263.48
722.27	263.16
722.60	262.95
722.93	262.42
723.26	262.08
723.59	261.64
723.93	261.16
724.26	260.83
724.59	260.42
724.92	260.02
725.25	259.71
725.59	259.36
725.92	258.97
726.25	258.55
726.58	258.15
726.91	257.90
727.24	257.58
727.57	257.31
727.91	256.99
728.24	256.73
728.57	256.28
728.90	256.01
729.23	255.67
729.56	255.33
729.89	255.00
730.22	254.57
730.55	254.27
730.89	254.07
731.22	253.71
731.55	253.50
731.88	253.16
732.21	252.84
732.54	252.51
732.87	252.37
733.20	252.18
733.53	252.00
733.86	251.71
734.19	251.46
734.52	251.31
734.85	251.21
735.18	250.89
735.51	250.73
735.84	250.44
736.17	250.33
736.50	250.14
736.83	250.23
737.16	250.04
737.49	249.83
737.82	249.59
738.15	249.49
738.48	249.27
738.81	249.18
739.14	248.93
739.47	248.79
739.80	248.57
740.13	248.43
740.46	248.28
740.79	248.15
741.12	248.09
741.45	247.83
741.78	247.56
742.11	247.41
742.44	247.15
742.77	247.16
743.10	247.06
743.43	246.86
743.75	246.44
744.08	246.49
744.41	246.49
744.74	246.37
745.07	246.21
745.40	246.09
745.73	246.05
746.06	245.95
746.39	245.84
746.71	245.66
747.04	245.41
747.37	245.24
747.70	244.99
748.03	244.76
748.36	244.58
748.68	244.37
749.01	244.24
749.34	244.12
749.67	243.88
750.00	243.72
750.33	243.68
750.65	243.55
750.98	243.24
751.31	243.00
751.64	242.82
751.97	242.75
752.29	242.49
752.62	242.20
752.95	242.15
753.28	242.00
753.60	241.74
753.93	241.68
754.26	241.54
754.59	241.37
754.91	241.19
755.24	240.99
755.57	240.83
755.90	240.56
756.22	240.40
756.55	240.18
756.88	239.86
757.20	239.61
757.53	239.46
757.86	239.38
758.19	239.20
758.51	239.04
758.84	238.75
759.17	238.62
759.49	238.55
759.82	238.37
760.15	238.30
760.47	238.18
760.80	238.01
761.13	237.84
761.45	237.72
761.78	237.57
762.11	237.50
762.43	237.33
762.76	237.17
763.08	237.05
763.41	237.00
763.74	236.90
764.06	236.79
764.39	236.58
764.71	236.42
765.04	236.37
765.37	236.30
765.69	236.24
766.02	236.19
766.34	236.07
766.67	235.92
767.00	235.80
767.32	235.90
767.65	235.91
767.97	235.73
768.30	235.70
768.62	235.59
768.95	235.38
769.27	235.35
769.60	235.35
769.92	235.26
770.25	235.13
770.57	235.12
770.90	235.03
771.22	234.91
771.55	234.72
771.87	234.69
772.20	234.59
772.52	234.66
772.85	234.84
773.17	234.72
773.50	234.64
773.82	234.51
774.15	234.44
774.47	234.31
774.80	234.39
775.12	234.22
775.45	234.24
775.77	234.30
776.09	234.18
776.42	234.12
776.74	234.22
777.07	234.13
777.39	234.10
777.72	234.02
778.04	233.99
778.36	234.07
778.69	234.05
779.01	233.98
779.33	233.77
779.66	233.51
779.98	233.49
780.31	233.47
780.63	233.57
780.95	233.41
781.28	233.34
781.60	233.32
781.92	233.38
782.25	233.32
782.57	233.28
782.89	233.27
783.22	233.17
783.54	233.07
783.86	233.03
784.19	232.93
784.51	233.02
784.83	233.14
785.16	233.12
785.48	233.00
785.80	232.99
786.12	232.99
786.45	232.91
786.77	232.90
787.09	232.79
787.42	232.76
787.74	232.78
788.06	232.81
788.38	232.75
788.71	232.71
789.03	232.75
789.35	232.70
789.67	232.71
789.99	232.80
790.32	232.73
790.64	232.78
790.96	232.92
791.28	232.80
791.61	232.75
791.93	232.70
792.25	232.74
792.57	232.83
792.89	232.76
