SpectraSuite Data File
++++++++++++++++++++++++++++++++++++
Date: Fri Feb 01 14:35:03 EST 2013
User: group
Dark Spectrum Present: No
Reference Spectrum Present: No
Number of Sampled Component Spectra: 1
Spectrometers: USB2E7196
Integration Time (usec): 70000 (USB2E7196)
Spectra Averaged: 10 (USB2E7196)
Boxcar Smoothing: 10 (USB2E7196)
Correct for Electrical Dark: No (USB2E7196)
Strobe/Lamp Enabled: No (USB2E7196)
Correct for Detector Non-linearity: No (USB2E7196)
Correct for Stray Light: No (USB2E7196)
Number of Pixels in Processed Spectrum: 2048
>>>>>Begin Processed Spectral Data<<<<<
339.09	0.00
339.48	216.80
339.86	218.40
340.24	217.00
340.63	220.30
341.01	225.00
341.39	222.70
341.78	223.70
342.16	225.80
342.54	226.30
342.93	214.62
343.31	225.45
343.69	226.04
344.07	226.39
344.46	226.88
344.84	227.28
345.22	227.38
345.60	227.59
345.99	227.83
346.37	227.83
346.75	227.90
347.13	228.01
347.52	228.05
347.90	228.11
348.28	228.00
348.66	228.11
349.05	228.05
349.43	228.10
349.81	228.10
350.19	228.10
350.57	228.09
350.96	228.16
351.34	228.27
351.72	228.28
352.10	228.42
352.48	228.54
352.87	228.60
353.25	228.70
353.63	228.90
354.01	228.92
354.39	229.00
354.77	229.07
355.15	229.22
355.54	229.24
355.92	229.26
356.30	229.31
356.68	229.39
357.06	229.40
357.44	229.41
357.82	229.50
358.20	229.70
358.58	229.80
358.97	229.83
359.35	229.95
359.73	229.98
360.11	229.97
360.49	230.05
360.87	230.08
361.25	230.16
361.63	230.15
362.01	230.23
362.39	230.24
362.77	230.28
363.15	230.24
363.53	230.33
363.91	230.36
364.29	230.53
364.67	230.41
365.05	230.56
365.43	230.63
365.81	230.72
366.19	230.72
366.57	230.78
366.95	230.76
367.33	230.60
367.71	230.69
368.09	230.78
368.47	230.66
368.85	230.56
369.23	230.53
369.61	230.39
369.99	230.40
370.37	230.52
370.75	230.54
371.13	230.44
371.51	230.32
371.89	230.22
372.27	230.05
372.65	230.05
373.03	229.97
373.41	229.80
373.78	229.76
374.16	229.56
374.54	229.41
374.92	229.39
375.30	229.40
375.68	229.14
376.06	229.02
376.44	228.91
376.82	228.94
377.19	228.81
377.57	228.78
377.95	228.56
378.33	228.52
378.71	228.33
379.09	228.24
379.47	228.22
379.84	228.16
380.22	228.16
380.60	227.99
380.98	227.86
381.36	227.78
381.73	227.52
382.11	227.48
382.49	227.47
382.87	227.32
383.25	227.27
383.62	227.47
384.00	227.36
384.38	227.40
384.76	227.37
385.13	227.47
385.51	227.41
385.89	227.42
386.27	227.30
386.64	227.32
387.02	227.28
387.40	227.11
387.78	227.08
388.15	226.94
388.53	226.95
388.91	226.95
389.29	226.91
389.66	226.94
390.04	226.89
390.42	226.79
390.79	226.76
391.17	226.75
391.55	226.56
391.92	226.53
392.30	226.47
392.68	226.30
393.05	226.14
393.43	226.21
393.81	226.13
394.18	226.11
394.56	226.09
394.94	226.21
395.31	226.30
395.69	226.46
396.06	226.61
396.44	226.71
396.82	226.80
397.19	227.06
397.57	227.17
397.95	227.30
398.32	227.48
398.70	227.61
399.07	227.71
399.45	227.84
399.82	228.00
400.20	228.12
400.58	228.40
400.95	228.52
401.33	228.66
401.70	229.09
402.08	229.32
402.45	229.52
402.83	229.72
403.20	229.96
403.58	230.09
403.95	230.30
404.33	230.50
404.71	230.74
405.08	230.98
405.46	231.34
405.83	231.74
406.21	231.97
406.58	232.38
406.96	232.71
407.33	233.09
407.70	233.61
408.08	234.22
408.45	234.76
408.83	235.36
409.20	235.80
409.58	236.19
409.95	236.80
410.33	237.48
410.70	238.16
411.08	238.87
411.45	239.78
411.82	240.59
412.20	241.56
412.57	242.66
412.95	243.58
413.32	244.67
413.69	245.70
414.07	246.89
414.44	248.16
414.82	249.47
415.19	250.93
415.56	252.50
415.94	254.06
416.31	255.86
416.68	257.52
417.06	259.58
417.43	261.62
417.81	263.89
418.18	266.06
418.55	268.34
418.93	270.92
419.30	273.38
419.67	276.21
420.04	278.93
420.42	281.80
420.79	285.12
421.16	288.36
421.54	291.75
421.91	295.36
422.28	298.98
422.66	302.93
423.03	306.90
423.40	310.88
423.77	315.32
424.15	319.65
424.52	324.31
424.89	329.40
425.26	334.24
425.64	338.68
426.01	343.79
426.38	349.10
426.75	354.11
427.13	359.56
427.50	365.29
427.87	371.32
428.24	377.30
428.61	383.03
428.99	389.42
429.36	396.35
429.73	403.00
430.10	409.64
430.47	416.55
430.85	423.56
431.22	430.82
431.59	438.52
431.96	445.97
432.33	454.16
432.70	461.89
433.08	471.17
433.45	479.97
433.82	488.51
434.19	498.20
434.56	507.98
434.93	517.29
435.30	526.12
435.68	536.36
436.05	546.27
436.42	556.12
436.79	564.93
437.16	574.64
437.53	584.82
437.90	595.06
438.27	604.69
438.64	615.12
439.01	624.71
439.38	633.14
439.75	641.28
440.13	650.98
440.50	660.31
440.87	667.83
441.24	675.72
441.61	684.46
441.98	690.87
442.35	698.39
442.72	705.79
443.09	713.34
443.46	717.83
443.83	721.25
444.20	724.21
444.57	728.61
444.94	731.09
445.31	733.51
445.68	735.74
446.05	737.86
446.42	737.82
446.79	737.98
447.16	738.15
447.53	738.80
447.90	735.97
448.27	733.27
448.64	729.04
449.01	726.57
449.37	721.00
449.74	715.76
450.11	708.82
450.48	701.50
450.85	693.90
451.22	687.70
451.59	681.82
451.96	676.31
452.33	668.16
452.70	660.86
453.07	652.03
453.43	643.17
453.80	634.24
454.17	625.64
454.54	617.34
454.91	608.37
455.28	599.52
455.65	591.48
456.02	583.00
456.38	576.00
456.75	567.08
457.12	559.80
457.49	552.30
457.86	545.47
458.23	539.39
458.59	532.77
458.96	525.83
459.33	519.58
459.70	513.48
460.07	508.46
460.43	502.67
460.80	497.34
461.17	492.46
461.54	487.39
461.91	482.53
462.27	477.59
462.64	473.39
463.01	468.78
463.38	464.37
463.74	460.08
464.11	456.24
464.48	452.78
464.85	448.87
465.21	446.11
465.58	442.97
465.95	439.23
466.32	435.98
466.68	432.89
467.05	429.60
467.42	426.36
467.78	423.08
468.15	419.94
468.52	417.76
468.88	414.96
469.25	412.40
469.62	410.54
469.98	408.38
470.35	406.16
470.72	404.00
471.08	401.70
471.45	399.81
471.82	397.76
472.18	395.47
472.55	394.05
472.92	392.11
473.28	390.47
473.65	388.75
474.02	387.24
474.38	385.71
474.75	384.72
475.11	383.43
475.48	382.46
475.85	381.83
476.21	380.68
476.58	379.83
476.94	379.00
477.31	378.05
477.67	377.27
478.04	376.61
478.41	376.30
478.77	376.01
479.14	375.47
479.50	375.13
479.87	375.00
480.23	374.90
480.60	374.61
480.96	374.36
481.33	374.54
481.69	374.64
482.06	374.79
482.42	374.57
482.79	374.75
483.15	375.15
483.52	375.47
483.88	376.02
484.25	376.46
484.61	376.93
484.98	377.59
485.34	378.24
485.71	379.02
486.07	379.77
486.44	380.63
486.80	381.71
487.17	382.75
487.53	383.93
487.90	385.09
488.26	386.54
488.62	388.05
488.99	389.46
489.35	390.99
489.72	392.75
490.08	394.68
490.44	396.33
490.81	398.11
491.17	399.89
491.54	401.85
491.90	403.99
492.26	406.31
492.63	408.49
492.99	410.88
493.36	413.31
493.72	415.64
494.08	417.98
494.45	420.53
494.81	423.30
495.17	426.14
495.54	428.96
495.90	431.73
496.26	434.60
496.63	437.74
496.99	440.89
497.35	444.00
497.72	447.15
498.08	450.43
498.44	453.85
498.80	457.45
499.17	460.86
499.53	463.94
499.89	467.32
500.26	470.50
500.62	473.89
500.98	477.42
501.34	481.11
501.71	484.95
502.07	488.51
502.43	491.86
502.79	495.12
503.16	498.43
503.52	502.07
503.88	505.33
504.24	508.74
504.60	512.18
504.97	515.48
505.33	519.07
505.69	522.50
506.05	525.88
506.41	529.04
506.78	532.21
507.14	535.55
507.50	538.77
507.86	542.32
508.22	545.76
508.59	548.88
508.95	551.96
509.31	554.97
509.67	558.10
510.03	561.20
510.39	564.38
510.75	567.47
511.12	570.22
511.48	573.02
511.84	575.63
512.20	578.30
512.56	581.11
512.92	583.65
513.28	586.41
513.64	588.85
514.00	591.13
514.37	593.34
514.73	595.74
515.09	597.80
515.45	599.61
515.81	601.43
516.17	603.40
516.53	605.51
516.89	607.26
517.25	608.79
517.61	610.61
517.97	612.42
518.33	613.97
518.69	615.39
519.05	617.35
519.41	619.09
519.77	620.90
520.13	622.56
520.49	624.01
520.85	625.28
521.21	626.63
521.57	628.24
521.93	629.81
522.29	631.26
522.65	632.57
523.01	634.04
523.37	635.34
523.73	636.72
524.09	637.60
524.45	639.07
524.81	640.56
525.17	642.07
525.53	643.27
525.89	644.87
526.25	646.60
526.61	647.89
526.97	649.33
527.33	650.26
527.68	651.66
528.04	653.04
528.40	654.56
528.76	656.16
529.12	657.77
529.48	659.55
529.84	660.90
530.20	662.84
530.56	664.79
530.91	666.62
531.27	668.44
531.63	670.42
531.99	672.21
532.35	674.32
532.71	676.18
533.07	678.41
533.42	680.34
533.78	682.47
534.14	684.60
534.50	686.55
534.86	688.97
535.21	690.86
535.57	692.99
535.93	695.34
536.29	697.60
536.65	699.72
537.00	701.59
537.36	704.12
537.72	706.47
538.08	708.69
538.44	711.11
538.79	713.46
539.15	715.89
539.51	718.41
539.87	721.04
540.22	723.68
540.58	726.33
540.94	728.95
541.29	731.35
541.65	733.93
542.01	736.63
542.37	739.38
542.72	742.10
543.08	745.07
543.44	747.70
543.79	750.23
544.15	753.28
544.51	756.53
544.87	759.59
545.22	762.44
545.58	765.18
545.94	767.99
546.29	770.99
546.65	773.95
547.01	776.64
547.36	779.30
547.72	782.32
548.07	785.44
548.43	788.36
548.79	791.34
549.14	794.25
549.50	797.47
549.86	800.36
550.21	803.43
550.57	806.18
550.92	809.11
551.28	811.92
551.64	814.70
551.99	817.50
552.35	820.29
552.70	823.26
553.06	826.52
553.41	829.55
553.77	832.61
554.13	835.84
554.48	839.25
554.84	842.34
555.19	845.13
555.55	847.94
555.90	850.70
556.26	853.67
556.61	856.56
556.97	859.18
557.32	862.18
557.68	864.90
558.03	867.88
558.39	870.86
558.74	874.35
559.10	877.19
559.45	880.08
559.81	883.11
560.16	885.84
560.52	888.48
560.87	891.45
561.23	893.85
561.58	896.61
561.94	899.30
562.29	902.03
562.64	904.36
563.00	906.73
563.35	909.67
563.71	912.70
564.06	915.41
564.42	918.21
564.77	920.93
565.12	923.73
565.48	926.59
565.83	928.98
566.19	931.33
566.54	933.79
566.89	936.13
567.25	938.59
567.60	941.20
567.96	943.66
568.31	945.80
568.66	948.15
569.02	950.20
569.37	952.09
569.72	953.98
570.08	956.11
570.43	957.95
570.78	959.55
571.14	960.59
571.49	962.19
571.84	963.78
572.20	965.08
572.55	966.39
572.90	967.37
573.26	968.73
573.61	969.86
573.96	970.93
574.31	971.50
574.67	971.80
575.02	972.12
575.37	972.74
575.72	972.95
576.08	973.60
576.43	973.84
576.78	974.32
577.13	974.93
577.49	975.67
577.84	975.88
578.19	976.24
578.54	976.70
578.90	976.70
579.25	976.47
579.60	976.14
579.95	976.01
580.30	975.57
580.66	975.04
581.01	974.62
581.36	974.43
581.71	974.50
582.06	974.13
582.42	973.69
582.77	973.00
583.12	972.61
583.47	972.13
583.82	971.42
584.17	970.53
584.53	969.67
584.88	968.42
585.23	967.67
585.58	966.80
585.93	965.96
586.28	965.17
586.63	964.47
586.98	963.88
587.34	962.93
587.69	962.24
588.04	961.49
588.39	960.42
588.74	958.80
589.09	957.52
589.44	956.30
589.79	955.20
590.14	954.21
590.49	953.25
590.84	951.72
591.19	950.87
591.54	949.56
591.89	947.35
592.25	945.95
592.60	944.30
592.95	942.34
593.30	940.36
593.65	938.48
594.00	936.41
594.35	934.62
594.70	932.43
595.05	930.47
595.40	928.21
595.75	926.17
596.10	924.59
596.45	923.06
596.80	921.48
597.15	919.49
597.50	917.21
597.85	915.24
598.19	913.37
598.54	911.23
598.89	909.38
599.24	908.07
599.59	906.05
599.94	903.93
600.29	902.05
600.64	900.15
600.99	897.90
601.34	895.75
601.69	893.13
602.04	891.08
602.39	888.96
602.74	887.36
603.08	885.47
603.43	883.44
603.78	880.90
604.13	878.45
604.48	876.32
604.83	874.32
605.18	872.02
605.53	869.51
605.87	866.88
606.22	864.19
606.57	861.70
606.92	859.36
607.27	857.45
607.62	855.21
607.96	852.71
608.31	850.46
608.66	847.92
609.01	845.26
609.36	842.63
609.70	839.70
610.05	836.37
610.40	833.32
610.75	830.00
611.10	827.14
611.44	823.83
611.79	820.79
612.14	817.56
612.49	814.16
612.83	810.74
613.18	807.61
613.53	804.61
613.88	801.37
614.22	798.03
614.57	794.33
614.92	791.10
615.27	788.03
615.61	784.59
615.96	781.70
616.31	779.05
616.65	776.26
617.00	773.58
617.35	770.71
617.70	767.67
618.04	764.70
618.39	761.83
618.74	759.06
619.08	755.98
619.43	753.29
619.78	750.39
620.12	747.89
620.47	745.08
620.82	741.72
621.16	738.80
621.51	736.01
621.85	733.15
622.20	729.89
622.55	726.92
622.89	724.47
623.24	721.74
623.59	718.72
623.93	715.90
624.28	713.00
624.62	710.38
624.97	707.75
625.32	705.12
625.66	702.33
626.01	699.62
626.35	696.96
626.70	693.92
627.04	691.42
627.39	688.65
627.73	685.77
628.08	683.44
628.43	680.70
628.77	677.89
629.12	675.09
629.46	672.46
629.81	669.62
630.15	666.24
630.50	663.11
630.84	659.97
631.19	656.80
631.53	653.76
631.88	650.49
632.22	647.39
632.57	644.57
632.91	641.57
633.26	638.67
633.60	635.66
633.95	632.66
634.29	629.66
634.64	626.80
634.98	623.86
635.32	621.17
635.67	618.36
636.01	615.84
636.36	613.04
636.70	610.61
637.05	607.99
637.39	605.90
637.73	603.37
638.08	601.08
638.42	598.74
638.77	596.27
639.11	593.94
639.45	591.36
639.80	588.60
640.14	585.92
640.49	583.52
640.83	581.02
641.17	578.69
641.52	576.27
641.86	573.66
642.20	571.52
642.55	568.95
642.89	566.43
643.23	563.90
643.58	561.75
643.92	559.08
644.26	556.59
644.61	554.10
644.95	551.69
645.29	549.10
645.64	546.31
645.98	543.84
646.32	541.41
646.66	538.97
647.01	536.59
647.35	534.35
647.69	531.93
648.04	529.85
648.38	527.47
648.72	524.78
649.06	522.38
649.41	519.66
649.75	517.26
650.09	514.91
650.43	512.21
650.78	509.46
651.12	507.14
651.46	504.78
651.80	502.43
652.14	500.09
652.49	497.87
652.83	495.58
653.17	493.11
653.51	490.66
653.85	488.48
654.20	486.19
654.54	483.72
654.88	481.17
655.22	478.60
655.56	476.24
655.90	474.01
656.25	471.72
656.59	469.49
656.93	467.26
657.27	465.05
657.61	462.93
657.95	460.98
658.29	458.83
658.64	456.70
658.98	454.31
659.32	452.00
659.66	449.70
660.00	447.76
660.34	445.76
660.68	443.65
661.02	441.48
661.36	439.57
661.70	437.53
662.05	436.04
662.39	434.26
662.73	432.33
663.07	430.66
663.41	428.87
663.75	427.17
664.09	425.43
664.43	423.58
664.77	421.81
665.11	419.97
665.45	418.13
665.79	416.44
666.13	414.68
666.47	413.10
666.81	411.54
667.15	409.57
667.49	407.88
667.83	406.35
668.17	404.63
668.51	402.89
668.85	401.33
669.19	399.53
669.53	397.80
669.87	396.31
670.21	394.60
670.55	392.99
670.89	391.48
671.23	389.78
671.57	388.29
671.91	386.85
672.25	385.32
672.58	383.85
672.92	382.33
673.26	381.11
673.60	379.78
673.94	378.29
674.28	377.19
674.62	375.89
674.96	374.59
675.30	373.45
675.64	372.23
675.97	370.86
676.31	369.62
676.65	368.35
676.99	367.15
677.33	365.90
677.67	364.65
678.01	363.37
678.34	362.07
678.68	360.96
679.02	359.78
679.36	358.65
679.70	357.53
680.04	356.31
680.37	354.90
680.71	353.67
681.05	352.62
681.39	351.50
681.73	350.29
682.06	349.22
682.40	348.13
682.74	346.97
683.08	346.04
683.42	344.90
683.75	343.76
684.09	342.50
684.43	341.42
684.77	340.35
685.10	339.19
685.44	338.25
685.78	337.11
686.12	335.98
686.45	334.84
686.79	333.72
687.13	332.71
687.46	331.81
687.80	330.85
688.14	329.72
688.48	328.73
688.81	327.68
689.15	326.63
689.49	325.55
689.82	324.67
690.16	323.53
690.50	322.57
690.83	321.64
691.17	320.71
691.51	319.73
691.84	319.00
692.18	318.24
692.52	317.29
692.85	316.33
693.19	315.44
693.52	314.68
693.86	313.74
694.20	312.89
694.53	311.90
694.87	310.89
695.21	310.09
695.54	309.22
695.88	308.44
696.21	307.56
696.55	306.81
696.88	305.87
697.22	304.98
697.56	304.26
697.89	303.43
698.23	302.61
698.56	301.89
698.90	300.96
699.23	300.08
699.57	299.30
699.90	298.47
700.24	297.67
700.58	296.82
700.91	296.02
701.25	295.37
701.58	294.86
701.92	294.28
702.25	293.58
702.59	292.81
702.92	292.08
703.26	291.49
703.59	290.74
703.93	290.22
704.26	289.76
704.60	289.04
704.93	288.47
705.26	287.93
705.60	287.35
705.93	286.71
706.27	286.14
706.60	285.65
706.94	285.19
707.27	284.61
707.61	283.97
707.94	283.52
708.27	282.88
708.61	282.26
708.94	281.64
709.28	281.05
709.61	280.51
709.94	280.10
710.28	279.52
710.61	278.99
710.95	278.34
711.28	277.83
711.61	277.32
711.95	276.82
712.28	276.26
712.61	275.68
712.95	275.29
713.28	274.89
713.61	274.39
713.95	273.91
714.28	273.31
714.61	272.88
714.95	272.45
715.28	271.90
715.61	271.24
715.95	270.74
716.28	270.25
716.61	269.81
716.95	269.39
717.28	268.83
717.61	268.38
717.94	267.90
718.28	267.33
718.61	266.81
718.94	266.23
719.27	265.71
719.61	265.39
719.94	264.81
720.27	264.25
720.60	263.86
720.94	263.42
721.27	263.17
721.60	262.86
721.93	262.44
722.27	262.17
722.60	261.89
722.93	261.53
723.26	261.19
723.59	260.84
723.93	260.44
724.26	260.12
724.59	259.79
724.92	259.48
725.25	259.29
725.59	258.94
725.92	258.76
726.25	258.55
726.58	258.26
726.91	257.99
727.24	257.70
727.57	257.37
727.91	257.06
728.24	256.78
728.57	256.32
728.90	256.00
729.23	255.66
729.56	255.44
729.89	255.13
730.22	254.82
730.55	254.62
730.89	254.39
731.22	254.23
731.55	254.02
731.88	253.74
732.21	253.40
732.54	253.17
732.87	252.87
733.20	252.62
733.53	252.33
733.86	252.10
734.19	251.91
734.52	251.63
734.85	251.51
735.18	251.24
735.51	251.15
735.84	250.98
736.17	250.82
736.50	250.50
736.83	250.65
737.16	250.57
737.49	250.31
737.82	250.13
738.15	249.80
738.48	249.57
738.81	249.46
739.14	249.36
739.47	249.16
739.80	249.14
740.13	248.96
740.46	248.76
740.79	248.57
741.12	248.37
741.45	248.20
741.78	247.97
742.11	247.86
742.44	247.71
742.77	247.51
743.10	247.23
743.43	247.14
743.75	246.64
744.08	246.72
744.41	246.49
744.74	246.23
745.07	246.17
745.40	246.01
745.73	245.91
746.06	245.63
746.39	245.54
746.71	245.27
747.04	245.17
747.37	245.04
747.70	245.06
748.03	245.00
748.36	244.91
748.68	244.76
749.01	244.58
749.34	244.45
749.67	244.40
750.00	244.34
750.33	244.24
750.65	244.12
750.98	243.60
751.31	243.45
751.64	243.29
751.97	243.23
752.29	243.09
752.62	242.88
752.95	242.75
753.28	242.52
753.60	242.37
753.93	242.16
754.26	241.98
754.59	241.67
754.91	241.31
755.24	241.16
755.57	241.01
755.90	240.90
756.22	240.72
756.55	240.43
756.88	240.20
757.20	240.03
757.53	240.00
757.86	239.98
758.19	239.83
758.51	239.70
758.84	239.45
759.17	239.27
759.49	239.05
759.82	239.05
760.15	238.98
760.47	238.81
760.80	238.54
761.13	238.39
761.45	238.30
761.78	238.27
762.11	238.02
762.43	237.79
762.76	237.66
763.08	237.54
763.41	237.44
763.74	237.40
764.06	237.17
764.39	236.98
764.71	236.75
765.04	236.59
765.37	236.54
765.69	236.44
766.02	236.37
766.34	236.27
766.67	236.04
767.00	235.90
767.32	235.80
767.65	235.86
767.97	235.76
768.30	235.54
768.62	235.44
768.95	235.40
769.27	235.37
769.60	235.30
769.92	235.14
770.25	235.13
770.57	235.02
770.90	235.00
771.22	234.87
771.55	234.84
771.87	234.82
772.20	234.65
772.52	234.70
772.85	234.80
773.17	234.70
773.50	234.62
773.82	234.55
774.15	234.47
774.47	234.36
774.80	234.32
775.12	234.31
775.45	234.16
775.77	234.08
776.09	234.08
776.42	233.96
776.74	233.93
777.07	233.81
777.39	233.70
777.72	233.64
778.04	233.57
778.36	233.47
778.69	233.50
779.01	233.48
779.33	233.24
779.66	233.10
779.98	233.02
780.31	233.05
780.63	233.03
780.95	233.10
781.28	233.01
781.60	232.91
781.92	232.89
782.25	232.90
782.57	232.98
782.89	232.94
783.22	232.91
783.54	232.83
783.86	232.82
784.19	232.81
784.51	232.85
784.83	232.84
785.16	232.83
785.48	232.74
785.80	232.75
786.12	232.73
786.45	232.56
786.77	232.65
787.09	232.54
787.42	232.41
787.74	232.27
788.06	232.27
788.38	232.30
788.71	232.15
789.03	232.08
789.35	231.99
789.67	231.91
789.99	231.88
790.32	231.98
790.64	231.97
790.96	232.07
791.28	231.99
791.61	231.97
791.93	231.94
792.25	231.80
792.57	231.90
792.89	231.83
793.21	231.90
793.54	231.74
793.86	231.65
794.18	231.68
