SpectraSuite Data File
++++++++++++++++++++++++++++++++++++
Date: Fri Feb 01 14:33:31 EST 2013
User: group
Dark Spectrum Present: No
Reference Spectrum Present: No
Number of Sampled Component Spectra: 1
Spectrometers: USB2E7196
Integration Time (usec): 70000 (USB2E7196)
Spectra Averaged: 10 (USB2E7196)
Boxcar Smoothing: 10 (USB2E7196)
Correct for Electrical Dark: No (USB2E7196)
Strobe/Lamp Enabled: No (USB2E7196)
Correct for Detector Non-linearity: No (USB2E7196)
Correct for Stray Light: No (USB2E7196)
Number of Pixels in Processed Spectrum: 2048
>>>>>Begin Processed Spectral Data<<<<<
339.09	0.00
339.48	215.40
339.86	218.10
340.24	218.30
340.63	221.60
341.01	224.40
341.39	223.70
341.78	224.70
342.16	225.60
342.54	225.20
342.93	214.66
343.31	225.44
343.69	226.02
344.07	226.53
344.46	227.05
344.84	227.46
345.22	227.68
345.60	227.92
345.99	228.14
346.37	228.31
346.75	228.45
347.13	228.65
347.52	228.65
347.90	228.82
348.28	228.87
348.66	228.90
349.05	228.89
349.43	228.97
349.81	228.97
350.19	228.97
350.57	229.02
350.96	229.18
351.34	229.37
351.72	229.49
352.10	229.57
352.48	229.61
352.87	229.54
353.25	229.65
353.63	229.68
354.01	229.74
354.39	229.77
354.77	229.82
355.15	229.84
355.54	229.94
355.92	229.92
356.30	230.00
356.68	230.16
357.06	230.19
357.44	230.24
357.82	230.34
358.20	230.32
358.58	230.47
358.97	230.59
359.35	230.63
359.73	230.69
360.11	230.70
360.49	230.83
360.87	230.95
361.25	230.96
361.63	231.09
362.01	231.21
362.39	231.20
362.77	231.31
363.15	231.48
363.53	231.56
363.91	231.54
364.29	231.51
364.67	231.37
365.05	231.44
365.43	231.59
365.81	231.61
366.19	231.80
366.57	231.84
366.95	231.80
367.33	231.74
367.71	231.84
368.09	231.89
368.47	231.80
368.85	231.79
369.23	231.79
369.61	231.77
369.99	231.80
370.37	231.81
370.75	231.84
371.13	231.60
371.51	231.51
371.89	231.44
372.27	231.40
372.65	231.43
373.03	231.36
373.41	231.27
373.78	231.20
374.16	231.01
374.54	230.86
374.92	230.85
375.30	230.80
375.68	230.65
376.06	230.58
376.44	230.50
376.82	230.45
377.19	230.43
377.57	230.39
377.95	230.20
378.33	230.13
378.71	230.02
379.09	230.00
379.47	229.94
379.84	229.88
380.22	229.80
380.60	229.60
380.98	229.44
381.36	229.34
381.73	229.24
382.11	229.15
382.49	229.12
382.87	228.93
383.25	228.91
383.62	228.95
384.00	228.84
384.38	228.78
384.76	228.71
385.13	228.56
385.51	228.39
385.89	228.32
386.27	228.34
386.64	228.22
387.02	228.20
387.40	228.11
387.78	228.09
388.15	228.02
388.53	228.03
388.91	227.99
389.29	227.90
389.66	227.84
390.04	227.85
390.42	227.83
390.79	227.81
391.17	227.74
391.55	227.57
391.92	227.52
392.30	227.56
392.68	227.61
393.05	227.69
393.43	227.76
393.81	227.77
394.18	227.68
394.56	227.76
394.94	227.79
395.31	227.96
395.69	228.11
396.06	228.30
396.44	228.39
396.82	228.57
397.19	228.72
397.57	228.85
397.95	229.01
398.32	229.16
398.70	229.32
399.07	229.51
399.45	229.68
399.82	229.90
400.20	229.97
400.58	230.13
400.95	230.17
401.33	230.44
401.70	230.76
402.08	231.10
402.45	231.35
402.83	231.66
403.20	231.88
403.58	232.19
403.95	232.51
404.33	232.90
404.71	233.19
405.08	233.68
405.46	234.05
405.83	234.41
406.21	234.82
406.58	235.41
406.96	235.99
407.33	236.56
407.70	237.16
408.08	237.96
408.45	238.54
408.83	239.35
409.20	240.02
409.58	240.70
409.95	241.54
410.33	242.48
410.70	243.30
411.08	244.26
411.45	245.28
411.82	246.26
412.20	247.38
412.57	248.83
412.95	250.06
413.32	251.64
413.69	253.20
414.07	254.75
414.44	256.41
414.82	258.15
415.19	260.21
415.56	262.29
415.94	264.53
416.31	267.05
416.68	269.47
417.06	272.23
417.43	274.70
417.81	277.70
418.18	280.85
418.55	284.36
418.93	287.94
419.30	291.51
419.67	295.29
420.04	299.28
420.42	303.46
420.79	308.05
421.16	312.75
421.54	317.46
421.91	322.65
422.28	327.91
422.66	333.51
423.03	338.90
423.40	344.67
423.77	350.53
424.15	356.57
424.52	362.93
424.89	369.83
425.26	376.77
425.64	383.01
426.01	390.09
426.38	397.28
426.75	404.57
427.13	412.29
427.50	420.44
427.87	428.85
428.24	437.09
428.61	445.34
428.99	453.94
429.36	463.69
429.73	473.08
430.10	482.28
430.47	491.80
430.85	501.58
431.22	511.72
431.59	522.58
431.96	533.22
432.33	544.87
432.70	556.04
433.08	569.10
433.45	581.64
433.82	593.61
434.19	607.18
434.56	620.65
434.93	633.41
435.30	646.25
435.68	660.42
436.05	674.32
436.42	688.01
436.79	700.66
437.16	714.05
437.53	728.27
437.90	742.39
438.27	756.44
438.64	771.10
439.01	784.55
439.38	796.88
439.75	808.35
440.13	821.70
440.50	834.34
440.87	845.05
441.24	855.85
441.61	868.22
441.98	877.31
442.35	887.81
442.72	898.56
443.09	909.08
443.46	915.73
443.83	920.48
444.20	924.83
444.57	931.00
444.94	934.57
445.31	938.32
445.68	941.92
446.05	944.30
446.42	944.57
446.79	944.80
447.16	944.57
447.53	945.34
447.90	941.68
448.27	938.31
448.64	932.40
449.01	929.16
449.37	921.17
449.74	913.62
450.11	903.95
450.48	893.57
450.85	883.04
451.22	874.06
451.59	865.75
451.96	857.73
452.33	846.21
452.70	836.10
453.07	823.58
453.43	810.83
453.80	798.45
454.17	786.28
454.54	774.80
454.91	762.40
455.28	750.04
455.65	738.86
456.02	726.79
456.38	716.97
456.75	704.23
457.12	694.14
457.49	683.93
457.86	674.24
458.23	665.70
458.59	655.98
458.96	646.45
459.33	637.78
459.70	629.17
460.07	622.40
460.43	614.34
460.80	606.47
461.17	599.85
461.54	592.73
461.91	586.18
462.27	579.40
462.64	573.52
463.01	567.08
463.38	561.04
463.74	555.24
464.11	549.80
464.48	545.23
464.85	539.71
465.21	535.70
465.58	531.52
465.95	526.47
466.32	522.31
466.68	517.89
467.05	513.55
467.42	509.25
467.78	504.71
468.15	500.34
468.52	497.39
468.88	493.30
469.25	489.85
469.62	486.80
469.98	483.52
470.35	480.59
470.72	477.63
471.08	474.20
471.45	471.52
471.82	468.76
472.18	465.56
472.55	463.57
472.92	461.05
473.28	458.82
473.65	456.55
474.02	454.26
474.38	452.40
474.75	450.91
475.11	449.29
475.48	448.00
475.85	447.03
476.21	445.85
476.58	444.76
476.94	443.95
477.31	442.99
477.67	442.14
478.04	441.33
478.41	440.96
478.77	440.75
479.14	440.15
479.50	439.94
479.87	440.08
480.23	439.99
480.60	439.84
480.96	439.86
481.33	440.24
481.69	440.78
482.06	441.25
482.42	441.34
482.79	441.80
483.15	442.57
483.52	443.48
483.88	444.29
484.25	445.27
484.61	446.05
484.98	447.05
485.34	448.46
485.71	450.13
486.07	451.77
486.44	453.33
486.80	455.36
487.17	457.51
487.53	459.84
487.90	462.23
488.26	464.79
488.62	467.44
488.99	470.02
489.35	472.60
489.72	475.63
490.08	479.08
490.44	482.29
490.81	485.60
491.17	489.01
491.54	492.79
491.90	496.61
492.26	500.72
492.63	505.05
492.99	509.19
493.36	513.50
493.72	518.11
494.08	522.85
494.45	527.72
494.81	532.68
495.17	537.59
495.54	542.75
495.90	548.10
496.26	553.50
496.63	559.21
496.99	565.23
497.35	571.13
497.72	577.17
498.08	583.33
498.44	589.80
498.80	596.48
499.17	603.10
499.53	609.59
499.89	616.45
500.26	623.16
500.62	630.13
500.98	637.45
501.34	644.65
501.71	651.97
502.07	659.32
502.43	666.60
502.79	674.11
503.16	681.89
503.52	689.39
503.88	696.97
504.24	704.61
504.60	712.15
504.97	719.80
505.33	727.52
505.69	735.57
506.05	743.29
506.41	750.72
506.78	758.07
507.14	766.00
507.50	773.75
507.86	781.89
508.22	789.73
508.59	797.21
508.95	805.01
509.31	812.90
509.67	820.95
510.03	828.80
510.39	836.86
510.75	844.53
511.12	852.21
511.48	859.90
511.84	867.42
512.20	875.11
512.56	882.63
512.92	890.32
513.28	897.70
513.64	905.02
514.00	912.18
514.37	919.50
514.73	926.70
515.09	933.34
515.45	939.80
515.81	946.57
516.17	953.41
516.53	959.97
516.89	966.32
517.25	972.20
517.61	978.39
517.97	984.32
518.33	990.05
518.69	995.98
519.05	1001.49
519.41	1007.35
519.77	1013.30
520.13	1018.90
520.49	1024.17
520.85	1029.20
521.21	1034.24
521.57	1039.93
521.93	1045.00
522.29	1050.04
522.65	1055.00
523.01	1059.94
523.37	1064.53
523.73	1069.14
524.09	1073.45
524.45	1078.04
524.81	1082.60
525.17	1087.35
525.53	1091.89
525.89	1096.07
526.25	1100.51
526.61	1104.69
526.97	1108.95
527.33	1112.80
527.68	1116.64
528.04	1120.22
528.40	1124.17
528.76	1128.44
529.12	1132.14
529.48	1136.28
529.84	1139.49
530.20	1143.62
530.56	1147.85
530.91	1151.97
531.27	1155.84
531.63	1159.19
531.99	1162.65
532.35	1165.89
532.71	1168.79
533.07	1171.92
533.42	1175.27
533.78	1178.40
534.14	1181.70
534.50	1184.17
534.86	1186.93
535.21	1189.68
535.57	1193.15
535.93	1196.26
536.29	1199.10
536.65	1201.77
537.00	1203.98
537.36	1207.11
537.72	1209.65
538.08	1211.70
538.44	1214.03
538.79	1216.41
539.15	1218.77
539.51	1221.13
539.87	1224.01
540.22	1226.57
540.58	1228.86
540.94	1231.11
541.29	1233.00
541.65	1234.97
542.01	1237.58
542.37	1239.81
542.72	1242.05
543.08	1244.02
543.44	1246.01
543.79	1247.22
544.15	1248.94
544.51	1251.71
544.87	1253.78
545.22	1255.58
545.58	1257.10
545.94	1258.48
546.29	1259.63
546.65	1261.27
547.01	1262.55
547.36	1263.28
547.72	1264.16
548.07	1265.35
548.43	1266.58
548.79	1268.02
549.14	1269.25
549.50	1269.94
549.86	1270.64
550.21	1271.49
550.57	1272.09
550.92	1272.72
551.28	1273.69
551.64	1274.34
551.99	1274.55
552.35	1274.85
552.70	1275.39
553.06	1276.11
553.41	1276.84
553.77	1277.74
554.13	1278.51
554.48	1279.28
554.84	1280.00
555.19	1280.66
555.55	1281.06
555.90	1281.30
556.26	1281.56
556.61	1281.83
556.97	1282.19
557.32	1282.94
557.68	1283.64
558.03	1284.20
558.39	1284.59
558.74	1285.20
559.10	1285.80
559.45	1286.18
559.81	1286.96
560.16	1287.18
560.52	1288.12
560.87	1288.54
561.23	1288.47
561.58	1288.57
561.94	1288.79
562.29	1288.86
562.64	1289.07
563.00	1289.24
563.35	1289.75
563.71	1290.22
564.06	1290.65
564.42	1290.90
564.77	1290.99
565.12	1291.12
565.48	1291.39
565.83	1291.38
566.19	1291.70
566.54	1291.49
566.89	1291.03
567.25	1290.83
567.60	1291.02
567.96	1290.45
568.31	1289.88
568.66	1289.88
569.02	1289.15
569.37	1288.34
569.72	1287.90
570.08	1287.35
570.43	1286.74
570.78	1285.78
571.14	1284.63
571.49	1283.46
571.84	1282.96
572.20	1281.93
572.55	1280.60
572.90	1278.96
573.26	1277.76
573.61	1276.13
573.96	1274.50
574.31	1272.56
574.67	1270.14
575.02	1267.68
575.37	1265.53
575.72	1263.56
576.08	1261.04
576.43	1259.20
576.78	1257.67
577.13	1255.57
577.49	1253.57
577.84	1251.47
578.19	1249.64
578.54	1247.11
578.90	1244.56
579.25	1241.28
579.60	1238.32
579.95	1235.80
580.30	1233.37
580.66	1230.69
581.01	1227.51
581.36	1224.84
581.71	1222.87
582.06	1220.36
582.42	1217.69
582.77	1214.88
583.12	1211.97
583.47	1209.73
583.82	1207.50
584.17	1203.95
584.53	1201.08
584.88	1197.83
585.23	1194.69
585.58	1191.30
585.93	1188.53
586.28	1186.11
586.63	1183.90
586.98	1181.56
587.34	1178.60
587.69	1175.60
588.04	1172.61
588.39	1170.25
588.74	1166.81
589.09	1163.51
589.44	1160.08
589.79	1157.34
590.14	1154.52
590.49	1151.35
590.84	1147.90
591.19	1144.37
591.54	1141.02
591.89	1137.32
592.25	1134.44
592.60	1130.84
592.95	1127.12
593.30	1123.39
593.65	1119.60
594.00	1115.58
594.35	1111.93
594.70	1107.76
595.05	1104.10
595.40	1100.13
595.75	1095.97
596.10	1092.80
596.45	1089.46
596.80	1086.20
597.15	1082.40
597.50	1078.38
597.85	1075.01
598.19	1071.48
598.54	1068.00
598.89	1064.48
599.24	1061.66
599.59	1057.69
599.94	1054.26
600.29	1050.74
600.64	1047.39
600.99	1043.30
601.34	1039.76
601.69	1035.45
602.04	1031.96
602.39	1028.02
602.74	1024.68
603.08	1021.12
603.43	1017.88
603.78	1013.66
604.13	1010.07
604.48	1006.16
604.83	1002.92
605.18	999.06
605.53	995.04
605.87	990.87
606.22	987.22
606.57	983.10
606.92	979.20
607.27	975.61
607.62	972.32
607.96	968.59
608.31	965.38
608.66	961.37
609.01	957.33
609.36	953.40
609.70	949.22
610.05	944.87
610.40	940.83
610.75	936.32
611.10	932.20
611.44	927.63
611.79	923.72
612.14	919.20
612.49	914.42
612.83	909.90
613.18	905.51
613.53	901.34
613.88	896.90
614.22	892.53
614.57	887.71
614.92	883.12
615.27	878.92
615.61	874.21
615.96	870.41
616.31	866.78
616.65	863.16
617.00	859.42
617.35	855.60
617.70	851.22
618.04	847.00
618.39	842.94
618.74	839.13
619.08	834.98
619.43	831.00
619.78	827.50
620.12	823.87
620.47	820.27
620.82	816.18
621.16	812.16
621.51	808.55
621.85	804.70
622.20	800.83
622.55	796.72
622.89	793.28
623.24	789.47
623.59	785.35
623.93	781.57
624.28	777.80
624.62	774.11
624.97	770.94
625.32	767.40
625.66	764.20
626.01	760.89
626.35	757.28
626.70	753.60
627.04	750.08
627.39	746.20
627.73	742.61
628.08	739.12
628.43	735.70
628.77	732.02
629.12	728.50
629.46	725.05
629.81	721.40
630.15	717.46
630.50	713.55
630.84	709.97
631.19	706.11
631.53	702.46
631.88	698.62
632.22	694.65
632.57	691.24
632.91	687.28
633.26	683.64
633.60	679.82
633.95	676.41
634.29	673.05
634.64	670.17
634.98	666.40
635.32	663.07
635.67	659.92
636.01	656.73
636.36	653.59
636.70	650.51
637.05	647.47
637.39	644.65
637.73	641.85
638.08	639.23
638.42	636.33
638.77	633.57
639.11	630.60
639.45	627.64
639.80	624.62
640.14	621.86
640.49	618.83
640.83	616.01
641.17	613.02
641.52	609.96
641.86	606.73
642.20	604.13
642.55	601.35
642.89	598.39
643.23	595.69
643.58	593.09
643.92	589.93
644.26	587.02
644.61	584.33
644.95	581.36
645.29	578.35
645.64	575.30
645.98	572.24
646.32	569.53
646.66	566.82
647.01	563.95
647.35	561.15
647.69	558.36
648.04	555.76
648.38	553.09
648.72	550.36
649.06	547.64
649.41	544.83
649.75	541.90
650.09	539.05
650.43	536.16
650.78	533.11
651.12	530.47
651.46	527.90
651.80	525.20
652.14	522.59
652.49	519.95
652.83	517.48
653.17	514.75
653.51	512.23
653.85	509.51
654.20	506.75
654.54	504.07
654.88	501.26
655.22	498.66
655.56	495.88
655.90	493.37
656.25	490.82
656.59	488.33
656.93	485.97
657.27	483.70
657.61	481.29
657.95	479.10
658.29	476.80
658.64	474.38
658.98	471.74
659.32	469.10
659.66	466.75
660.00	464.27
660.34	462.15
660.68	459.62
661.02	457.41
661.36	455.31
661.70	453.13
662.05	451.19
662.39	449.20
662.73	447.10
663.07	445.17
663.41	443.42
663.75	441.30
664.09	439.38
664.43	437.25
664.77	435.20
665.11	433.25
665.45	431.26
665.79	429.33
666.13	427.54
666.47	425.67
666.81	423.61
667.15	421.68
667.49	419.75
667.83	417.89
668.17	416.04
668.51	414.09
668.85	412.33
669.19	410.55
669.53	408.77
669.87	406.93
670.21	405.02
670.55	403.22
670.89	401.84
671.23	400.10
671.57	398.42
671.91	396.82
672.25	395.01
672.58	393.44
672.92	391.92
673.26	390.55
673.60	389.25
673.94	387.85
674.28	386.69
674.62	385.37
674.96	384.12
675.30	382.80
675.64	381.45
675.97	380.10
676.31	378.58
676.65	377.11
676.99	376.09
677.33	374.71
677.67	373.43
678.01	371.85
678.34	370.32
678.68	369.09
679.02	367.79
679.36	366.60
679.70	365.37
680.04	364.06
680.37	362.62
680.71	361.22
681.05	360.05
681.39	358.66
681.73	357.34
682.06	356.27
682.40	355.24
682.74	354.14
683.08	352.94
683.42	351.82
683.75	350.70
684.09	349.31
684.43	348.21
684.77	346.92
685.10	345.95
685.44	344.94
685.78	343.88
686.12	342.80
686.45	341.74
686.79	340.68
687.13	339.64
687.46	338.57
687.80	337.66
688.14	336.55
688.48	335.40
688.81	334.33
689.15	333.20
689.49	332.02
689.82	331.03
690.16	330.00
690.50	329.12
690.83	328.16
691.17	327.14
691.51	326.13
691.84	325.12
692.18	324.01
692.52	323.10
692.85	321.91
693.19	320.84
693.52	319.79
693.86	318.74
694.20	317.74
694.53	316.72
694.87	315.57
695.21	314.49
695.54	313.52
695.88	312.52
696.21	311.43
696.55	310.41
696.88	309.39
697.22	308.49
697.56	307.48
697.89	306.50
698.23	305.80
698.56	304.91
698.90	304.03
699.23	303.26
699.57	302.33
699.90	301.52
700.24	300.78
700.58	300.04
700.91	299.20
701.25	298.63
701.58	298.01
701.92	297.27
702.25	296.58
702.59	295.88
702.92	295.26
703.26	294.62
703.59	294.01
703.93	293.57
704.26	292.81
704.60	292.24
704.93	291.55
705.26	290.78
705.60	290.15
705.93	289.48
706.27	288.77
706.60	288.19
706.94	287.66
707.27	286.92
707.61	286.22
707.94	285.57
708.27	284.72
708.61	283.96
708.94	283.46
709.28	282.91
709.61	282.42
709.94	281.90
710.28	281.38
710.61	280.82
710.95	279.90
711.28	279.43
711.61	278.78
711.95	278.24
712.28	277.66
712.61	277.07
712.95	276.64
713.28	276.23
713.61	275.67
713.95	275.05
714.28	274.56
714.61	273.98
714.95	273.57
715.28	273.08
715.61	272.54
715.95	271.99
716.28	271.57
716.61	271.07
716.95	270.53
717.28	269.97
717.61	269.44
717.94	269.06
718.28	268.50
718.61	268.06
718.94	267.60
719.27	267.18
719.61	266.88
719.94	266.38
720.27	265.84
720.60	265.47
720.94	265.21
721.27	264.87
721.60	264.63
721.93	264.20
722.27	264.01
722.60	263.75
722.93	263.39
723.26	262.95
723.59	262.61
723.93	262.29
724.26	262.05
724.59	261.70
724.92	261.50
725.25	261.37
725.59	261.05
725.92	260.68
726.25	260.32
726.58	259.98
726.91	259.74
727.24	259.60
727.57	259.23
727.91	258.86
728.24	258.50
728.57	258.18
728.90	258.00
729.23	257.59
729.56	257.45
729.89	257.21
730.22	256.98
730.55	256.63
730.89	256.40
731.22	256.10
731.55	255.90
731.88	255.63
732.21	255.24
732.54	254.92
732.87	254.70
733.20	254.56
733.53	254.26
733.86	254.04
734.19	253.58
734.52	253.46
734.85	253.31
735.18	253.04
735.51	252.78
735.84	252.52
736.17	252.30
736.50	251.82
736.83	251.86
737.16	251.57
737.49	251.45
737.82	251.10
738.15	250.80
738.48	250.50
738.81	250.20
739.14	250.00
739.47	249.82
739.80	249.70
740.13	249.43
740.46	249.19
740.79	248.85
741.12	248.76
741.45	248.52
741.78	248.19
742.11	248.02
742.44	247.80
742.77	247.50
743.10	247.27
743.43	247.15
743.75	246.69
744.08	246.81
744.41	246.51
744.74	246.37
745.07	246.28
745.40	246.22
745.73	246.12
746.06	245.91
746.39	245.71
746.71	245.44
747.04	245.30
747.37	245.11
747.70	244.96
748.03	244.80
748.36	244.58
748.68	244.49
749.01	244.26
749.34	244.19
749.67	244.10
750.00	243.87
750.33	243.82
750.65	243.63
750.98	243.08
751.31	243.01
751.64	242.83
751.97	242.70
752.29	242.44
752.62	242.30
752.95	242.03
753.28	241.92
753.60	241.78
753.93	241.61
754.26	241.50
754.59	241.34
754.91	241.08
755.24	240.95
755.57	240.79
755.90	240.81
756.22	240.65
756.55	240.47
756.88	240.32
757.20	239.95
757.53	239.88
757.86	239.86
758.19	239.75
758.51	239.70
758.84	239.42
759.17	239.39
759.49	239.23
759.82	239.30
760.15	239.17
760.47	239.09
760.80	238.95
761.13	238.90
761.45	238.79
761.78	238.80
762.11	238.70
762.43	238.55
762.76	238.43
763.08	238.16
763.41	238.13
763.74	238.00
764.06	237.94
764.39	237.80
764.71	237.66
765.04	237.49
765.37	237.34
765.69	237.39
766.02	237.19
766.34	237.05
766.67	236.86
767.00	236.85
767.32	236.86
767.65	236.90
767.97	236.78
768.30	236.72
768.62	236.56
768.95	236.41
769.27	236.41
769.60	236.27
769.92	236.23
770.25	236.02
770.57	236.01
770.90	235.98
771.22	235.80
771.55	235.75
771.87	235.73
772.20	235.63
772.52	235.64
772.85	235.81
773.17	235.69
773.50	235.63
773.82	235.59
774.15	235.39
774.47	235.17
774.80	235.10
775.12	235.06
775.45	234.96
775.77	234.90
776.09	234.82
776.42	234.73
776.74	234.75
777.07	234.69
777.39	234.74
777.72	234.70
778.04	234.74
778.36	234.72
778.69	234.63
779.01	234.53
779.33	234.33
779.66	234.03
779.98	233.96
780.31	233.96
780.63	233.86
780.95	233.75
781.28	233.62
781.60	233.42
781.92	233.30
782.25	233.24
782.57	233.22
782.89	233.10
783.22	233.13
783.54	233.01
783.86	232.97
784.19	232.71
784.51	232.75
784.83	232.69
785.16	232.68
785.48	232.60
785.80	232.59
786.12	232.56
786.45	232.54
786.77	232.62
787.09	232.49
787.42	232.37
787.74	232.37
788.06	232.43
788.38	232.44
788.71	232.40
789.03	232.45
