SpectraSuite Data File
++++++++++++++++++++++++++++++++++++
Date: Fri Feb 01 14:33:51 EST 2013
User: group
Dark Spectrum Present: No
Reference Spectrum Present: No
Number of Sampled Component Spectra: 1
Spectrometers: USB2E7196
Integration Time (usec): 70000 (USB2E7196)
Spectra Averaged: 10 (USB2E7196)
Boxcar Smoothing: 10 (USB2E7196)
Correct for Electrical Dark: No (USB2E7196)
Strobe/Lamp Enabled: No (USB2E7196)
Correct for Detector Non-linearity: No (USB2E7196)
Correct for Stray Light: No (USB2E7196)
Number of Pixels in Processed Spectrum: 2048
>>>>>Begin Processed Spectral Data<<<<<
339.09	0.00
339.48	217.90
339.86	218.70
340.24	222.10
340.63	219.40
341.01	224.30
341.39	222.80
341.78	226.90
342.16	228.10
342.54	228.80
342.93	215.58
343.31	226.38
343.69	226.86
344.07	227.24
344.46	227.60
344.84	228.12
345.22	228.34
345.60	228.61
345.99	228.67
346.37	228.79
346.75	228.81
347.13	228.87
347.52	228.90
347.90	228.98
348.28	229.00
348.66	228.97
349.05	228.90
349.43	228.77
349.81	228.81
350.19	228.80
350.57	228.81
350.96	228.79
351.34	229.03
351.72	228.99
352.10	229.20
352.48	229.15
352.87	229.11
353.25	229.07
353.63	229.11
354.01	229.20
354.39	229.15
354.77	229.21
355.15	229.30
355.54	229.40
355.92	229.42
356.30	229.57
356.68	229.74
357.06	229.75
357.44	229.83
357.82	229.93
358.20	229.95
358.58	230.10
358.97	230.15
359.35	230.23
359.73	230.40
360.11	230.41
360.49	230.43
360.87	230.42
361.25	230.49
361.63	230.52
362.01	230.49
362.39	230.53
362.77	230.51
363.15	230.48
363.53	230.35
363.91	230.34
364.29	230.24
364.67	230.12
365.05	230.24
365.43	230.16
365.81	229.97
366.19	230.06
366.57	230.03
366.95	229.93
367.33	229.80
367.71	229.74
368.09	229.67
368.47	229.66
368.85	229.56
369.23	229.56
369.61	229.50
369.99	229.50
370.37	229.44
370.75	229.46
371.13	229.34
371.51	229.40
371.89	229.34
372.27	229.31
372.65	229.15
373.03	229.00
373.41	228.99
373.78	228.99
374.16	228.80
374.54	228.75
374.92	228.70
375.30	228.57
375.68	228.49
376.06	228.38
376.44	228.26
376.82	228.33
377.19	228.32
377.57	228.18
377.95	228.07
378.33	227.97
378.71	227.81
379.09	227.82
379.47	227.74
379.84	227.61
380.22	227.47
380.60	227.46
380.98	227.39
381.36	227.33
381.73	227.30
382.11	227.33
382.49	227.23
382.87	227.32
383.25	227.31
383.62	227.53
384.00	227.47
384.38	227.52
384.76	227.47
385.13	227.44
385.51	227.53
385.89	227.48
386.27	227.48
386.64	227.45
387.02	227.36
387.40	227.42
387.78	227.48
388.15	227.52
388.53	227.50
388.91	227.54
389.29	227.56
389.66	227.66
390.04	227.71
390.42	227.80
390.79	227.80
391.17	227.78
391.55	227.63
391.92	227.72
392.30	227.70
392.68	227.72
393.05	227.81
393.43	227.81
393.81	227.93
394.18	227.92
394.56	228.15
394.94	228.40
395.31	228.39
395.69	228.53
396.06	228.67
396.44	228.83
396.82	228.92
397.19	229.19
397.57	229.28
397.95	229.40
398.32	229.49
398.70	229.56
399.07	229.72
399.45	229.90
399.82	230.07
400.20	230.27
400.58	230.45
400.95	230.50
401.33	230.79
401.70	231.13
402.08	231.46
402.45	231.52
402.83	231.73
403.20	231.96
403.58	232.20
403.95	232.47
404.33	232.78
404.71	233.14
405.08	233.42
405.46	233.68
405.83	234.09
406.21	234.44
406.58	234.86
406.96	235.26
407.33	235.52
407.70	236.05
408.08	236.79
408.45	237.32
408.83	237.98
409.20	238.51
409.58	238.97
409.95	239.64
410.33	240.46
410.70	241.23
411.08	242.18
411.45	243.15
411.82	244.03
412.20	245.06
412.57	246.28
412.95	247.33
413.32	248.69
413.69	249.98
414.07	251.47
414.44	253.09
414.82	254.68
415.19	256.65
415.56	258.36
415.94	260.13
416.31	262.36
416.68	264.53
417.06	267.08
417.43	269.37
417.81	272.06
418.18	274.85
418.55	277.80
418.93	280.89
419.30	284.10
419.67	287.72
420.04	291.20
420.42	294.95
420.79	299.14
421.16	303.48
421.54	307.72
421.91	312.18
422.28	317.00
422.66	322.16
423.03	326.95
423.40	332.19
423.77	337.86
424.15	343.43
424.52	349.16
424.89	355.44
425.26	361.66
425.64	367.48
426.01	373.85
426.38	380.48
426.75	387.16
427.13	394.15
427.50	401.42
427.87	409.10
428.24	416.67
428.61	424.02
428.99	431.85
429.36	440.60
429.73	449.01
430.10	457.28
430.47	465.93
430.85	474.95
431.22	484.34
431.59	494.15
431.96	503.56
432.33	514.06
432.70	524.13
433.08	536.32
433.45	547.59
433.82	558.72
434.19	571.25
434.56	583.45
434.93	595.10
435.30	606.63
435.68	619.55
436.05	632.23
436.42	644.79
436.79	656.17
437.16	668.49
437.53	681.72
437.90	694.95
438.27	707.64
438.64	720.90
439.01	733.00
439.38	743.95
439.75	754.74
440.13	766.89
440.50	778.59
440.87	788.23
441.24	798.03
441.61	809.27
441.98	817.39
442.35	827.14
442.72	836.75
443.09	846.33
443.46	852.44
443.83	856.82
444.20	861.08
444.57	866.92
444.94	870.26
445.31	873.46
445.68	876.31
446.05	878.67
446.42	879.05
446.79	879.28
447.16	879.30
447.53	879.60
447.90	876.39
448.27	873.17
448.64	867.44
449.01	864.28
449.37	857.00
449.74	850.25
450.11	841.47
450.48	832.01
450.85	822.35
451.22	814.09
451.59	806.30
451.96	798.85
452.33	788.18
452.70	778.64
453.07	767.21
453.43	755.77
453.80	744.21
454.17	733.04
454.54	722.59
454.91	711.01
455.28	699.94
455.65	689.67
456.02	678.85
456.38	670.33
456.75	659.04
457.12	649.44
457.49	640.29
457.86	631.38
458.23	623.87
458.59	615.01
458.96	606.21
459.33	598.63
459.70	590.61
460.07	584.57
460.43	577.42
460.80	570.43
461.17	564.36
461.54	557.83
461.91	551.75
462.27	545.57
462.64	540.48
463.01	534.57
463.38	528.85
463.74	523.31
464.11	518.16
464.48	513.80
464.85	509.16
465.21	505.20
465.58	501.28
465.95	496.29
466.32	492.47
466.68	488.51
467.05	484.36
467.42	480.50
467.78	476.27
468.15	472.25
468.52	469.40
468.88	465.58
469.25	462.35
469.62	459.49
469.98	456.58
470.35	453.72
470.72	451.11
471.08	448.43
471.45	446.06
471.82	443.46
472.18	440.76
472.55	438.72
472.92	436.50
473.28	434.40
473.65	432.46
474.02	430.38
474.38	428.80
474.75	427.35
475.11	425.76
475.48	424.59
475.85	423.63
476.21	422.57
476.58	421.84
476.94	421.21
477.31	420.47
477.67	419.66
478.04	418.91
478.41	418.49
478.77	418.22
479.14	417.77
479.50	417.75
479.87	417.72
480.23	417.90
480.60	417.78
480.96	417.76
481.33	418.20
481.69	418.67
482.06	418.86
482.42	419.00
482.79	419.34
483.15	420.03
483.52	420.81
483.88	421.53
484.25	422.12
484.61	423.10
484.98	424.05
485.34	425.40
485.71	426.99
486.07	428.46
486.44	429.71
486.80	431.48
487.17	433.21
487.53	435.19
487.90	437.09
488.26	439.18
488.62	441.50
488.99	443.60
489.35	445.84
489.72	448.50
490.08	451.49
490.44	454.27
490.81	457.10
491.17	459.92
491.54	463.11
491.90	466.33
492.26	469.56
492.63	472.94
492.99	476.30
493.36	479.82
493.72	483.67
494.08	487.65
494.45	491.57
494.81	495.64
495.17	499.82
495.54	504.29
495.90	508.71
496.26	513.12
496.63	517.90
496.99	523.09
497.35	528.04
497.72	532.91
498.08	538.00
498.44	543.22
498.80	548.98
499.17	554.48
499.53	560.10
499.89	565.76
500.26	571.52
500.62	577.14
500.98	583.21
501.34	588.87
501.71	594.82
502.07	600.74
502.43	606.50
502.79	612.44
503.16	618.46
503.52	624.60
503.88	630.67
504.24	636.79
504.60	642.74
504.97	649.15
505.33	655.43
505.69	662.09
506.05	668.21
506.41	674.10
506.78	680.08
507.14	686.11
507.50	692.31
507.86	698.39
508.22	704.77
508.59	710.51
508.95	716.63
509.31	722.73
509.67	729.02
510.03	735.23
510.39	741.38
510.75	747.34
511.12	752.98
511.48	758.82
511.84	764.45
512.20	769.87
512.56	775.50
512.92	781.18
513.28	786.55
513.64	791.85
514.00	797.02
514.37	802.47
514.73	807.62
515.09	812.59
515.45	817.61
515.81	822.31
516.17	827.45
516.53	832.32
516.89	837.00
517.25	841.15
517.61	845.66
517.97	849.92
518.33	853.87
518.69	858.24
519.05	862.29
519.41	866.40
519.77	871.03
520.13	875.06
520.49	878.92
520.85	882.66
521.21	886.41
521.57	890.54
521.93	893.90
522.29	897.62
522.65	900.94
523.01	904.24
523.37	907.32
523.73	910.37
524.09	913.50
524.45	916.68
524.81	920.04
525.17	923.30
525.53	926.44
525.89	929.92
526.25	933.10
526.61	936.11
526.97	939.27
527.33	941.83
527.68	944.75
528.04	947.50
528.40	950.22
528.76	953.52
529.12	956.40
529.48	959.63
529.84	962.26
530.20	965.36
530.56	968.87
530.91	972.55
531.27	975.80
531.63	978.60
531.99	981.50
532.35	984.44
532.71	987.00
533.07	990.13
533.42	992.74
533.78	995.37
534.14	998.30
534.50	1000.77
534.86	1003.57
535.21	1005.75
535.57	1008.43
535.93	1011.23
536.29	1013.69
536.65	1015.96
537.00	1018.18
537.36	1021.03
537.72	1023.50
538.08	1025.54
538.44	1027.64
538.79	1029.72
539.15	1031.91
539.51	1034.26
539.87	1036.77
540.22	1039.03
540.58	1041.57
540.94	1043.89
541.29	1046.24
541.65	1048.68
542.01	1051.50
542.37	1054.04
542.72	1056.40
543.08	1058.65
543.44	1060.74
543.79	1062.40
544.15	1065.03
544.51	1067.79
544.87	1069.91
545.22	1071.86
545.58	1073.98
545.94	1075.74
546.29	1077.90
546.65	1080.08
547.01	1081.77
547.36	1083.40
547.72	1085.68
548.07	1087.00
548.43	1089.13
548.79	1090.97
549.14	1092.42
549.50	1093.70
549.86	1095.20
550.21	1096.93
550.57	1098.86
550.92	1100.41
551.28	1102.08
551.64	1103.31
551.99	1104.68
552.35	1106.13
552.70	1107.92
553.06	1109.52
553.41	1111.30
553.77	1112.83
554.13	1114.25
554.48	1116.01
554.84	1117.77
555.19	1119.15
555.55	1120.94
555.90	1121.97
556.26	1123.40
556.61	1124.74
556.97	1126.16
557.32	1127.50
557.68	1128.82
558.03	1130.23
558.39	1131.90
558.74	1133.64
559.10	1135.29
559.45	1136.57
559.81	1138.12
560.16	1139.25
560.52	1140.24
560.87	1141.73
561.23	1142.79
561.58	1144.37
561.94	1145.31
562.29	1146.09
562.64	1146.88
563.00	1147.69
563.35	1149.14
563.71	1151.04
564.06	1152.46
564.42	1153.71
564.77	1155.12
565.12	1156.62
565.48	1157.33
565.83	1157.95
566.19	1159.08
566.54	1159.92
566.89	1160.64
567.25	1161.30
567.60	1162.58
567.96	1163.48
568.31	1164.15
568.66	1164.99
569.02	1165.40
569.37	1165.86
569.72	1166.72
570.08	1167.30
570.43	1167.94
570.78	1168.22
571.14	1167.34
571.49	1167.33
571.84	1167.63
572.20	1167.51
572.55	1167.06
572.90	1166.94
573.26	1166.79
573.61	1166.34
573.96	1165.60
574.31	1164.89
574.67	1163.85
575.02	1162.35
575.37	1161.66
575.72	1160.14
576.08	1159.10
576.43	1158.00
576.78	1157.19
577.13	1156.00
577.49	1154.85
577.84	1153.50
578.19	1152.04
578.54	1151.11
578.90	1149.71
579.25	1147.88
579.60	1145.94
579.95	1144.53
580.30	1142.77
580.66	1140.93
581.01	1138.95
581.36	1137.39
581.71	1135.73
582.06	1134.21
582.42	1132.59
582.77	1130.92
583.12	1129.42
583.47	1127.76
583.82	1125.96
584.17	1123.91
584.53	1122.06
584.88	1120.26
585.23	1117.99
585.58	1115.82
585.93	1113.62
586.28	1111.73
586.63	1109.90
586.98	1107.95
587.34	1105.53
587.69	1103.54
588.04	1101.78
588.39	1099.67
588.74	1096.40
589.09	1094.02
589.44	1091.27
589.79	1088.96
590.14	1086.27
590.49	1083.75
590.84	1080.73
591.19	1078.38
591.54	1075.39
591.89	1071.80
592.25	1069.04
592.60	1066.14
592.95	1063.03
593.30	1059.67
593.65	1056.46
594.00	1053.25
594.35	1050.57
594.70	1046.99
595.05	1043.85
595.40	1040.27
595.75	1036.92
596.10	1034.61
596.45	1031.55
596.80	1028.98
597.15	1025.85
597.50	1022.70
597.85	1019.69
598.19	1016.89
598.54	1013.77
598.89	1010.82
599.24	1008.34
599.59	1005.21
599.94	1002.31
600.29	999.21
600.64	996.50
600.99	993.01
601.34	990.10
601.69	986.33
602.04	983.48
602.39	980.11
602.74	977.40
603.08	974.46
603.43	971.37
603.78	968.16
604.13	964.88
604.48	961.77
604.83	958.58
605.18	955.33
605.53	951.57
605.87	947.98
606.22	944.80
606.57	941.17
606.92	937.64
607.27	934.54
607.62	931.70
607.96	928.31
608.31	925.41
608.66	921.58
609.01	918.09
609.36	914.31
609.70	910.60
610.05	906.88
610.40	903.21
610.75	899.33
611.10	895.21
611.44	890.99
611.79	887.01
612.14	883.23
612.49	878.92
612.83	875.28
613.18	871.21
613.53	867.37
613.88	863.34
614.22	859.27
614.57	855.11
614.92	850.90
615.27	847.20
615.61	843.27
615.96	839.60
616.31	836.13
616.65	833.09
617.00	829.51
617.35	825.56
617.70	821.89
618.04	818.06
618.39	814.79
618.74	811.55
619.08	808.04
619.43	804.42
619.78	801.01
620.12	797.35
620.47	794.02
620.82	790.36
621.16	787.19
621.51	784.01
621.85	780.14
622.20	776.56
622.55	772.96
622.89	769.51
623.24	766.05
623.59	762.62
623.93	758.97
624.28	755.40
624.62	752.26
624.97	748.85
625.32	745.78
625.66	742.52
626.01	738.93
626.35	735.62
626.70	732.22
627.04	729.06
627.39	725.80
627.73	722.41
628.08	719.32
628.43	715.91
628.77	712.85
629.12	709.84
629.46	706.71
629.81	703.28
630.15	699.78
630.50	696.59
630.84	692.79
631.19	689.25
631.53	686.01
631.88	682.27
632.22	678.85
632.57	675.51
632.91	672.05
633.26	668.73
633.60	665.30
633.95	661.93
634.29	658.67
634.64	655.61
634.98	652.37
635.32	649.18
635.67	646.50
636.01	643.26
636.36	640.04
636.70	637.02
637.05	634.00
637.39	631.17
637.73	628.07
638.08	625.56
638.42	622.99
638.77	620.24
639.11	617.57
639.45	614.86
639.80	611.97
640.14	609.09
640.49	606.22
640.83	603.34
641.17	600.75
641.52	597.98
641.86	594.97
642.20	592.31
642.55	589.45
642.89	586.44
643.23	583.22
643.58	580.70
643.92	577.77
644.26	575.14
644.61	572.60
644.95	569.70
645.29	566.81
645.64	563.89
645.98	561.02
646.32	558.40
646.66	555.37
647.01	552.49
647.35	549.88
647.69	547.36
648.04	544.93
648.38	542.15
648.72	539.29
649.06	536.74
649.41	534.10
649.75	531.37
650.09	528.53
650.43	526.20
650.78	523.23
651.12	520.69
651.46	518.09
651.80	515.42
652.14	513.13
652.49	510.55
652.83	508.14
653.17	505.50
653.51	502.72
653.85	500.48
654.20	498.08
654.54	495.69
654.88	492.98
655.22	490.25
655.56	487.54
655.90	485.02
656.25	482.61
656.59	480.20
656.93	478.00
657.27	475.84
657.61	473.30
657.95	471.15
658.29	468.89
658.64	466.50
658.98	464.00
659.32	461.63
659.66	459.53
660.00	457.10
660.34	455.09
660.68	453.18
661.02	450.73
661.36	448.71
661.70	446.64
662.05	445.00
662.39	443.26
662.73	441.50
663.07	439.91
663.41	437.92
663.75	435.94
664.09	433.92
664.43	431.98
664.77	430.16
665.11	428.42
665.45	426.62
665.79	424.81
666.13	423.10
666.47	421.24
666.81	419.39
667.15	417.51
667.49	415.74
667.83	413.92
668.17	412.45
668.51	410.62
668.85	408.74
669.19	407.12
669.53	405.29
669.87	403.60
670.21	402.00
670.55	400.46
670.89	399.17
671.23	397.67
671.57	396.11
671.91	394.62
672.25	393.15
672.58	391.66
672.92	390.17
673.26	388.70
673.60	387.33
673.94	386.01
674.28	384.74
674.62	383.46
674.96	382.06
675.30	380.74
675.64	379.34
675.97	378.10
676.31	376.61
676.65	375.39
676.99	374.12
677.33	372.73
677.67	371.38
678.01	369.82
678.34	368.40
678.68	367.13
679.02	365.86
679.36	364.48
679.70	363.07
680.04	361.74
680.37	360.52
680.71	359.21
681.05	357.90
681.39	356.67
681.73	355.50
682.06	354.35
682.40	353.04
682.74	351.97
683.08	350.82
683.42	349.52
683.75	348.25
684.09	347.07
684.43	345.77
684.77	344.64
685.10	343.54
685.44	342.48
685.78	341.23
686.12	340.03
686.45	338.81
686.79	337.73
687.13	336.83
687.46	335.70
687.80	334.56
688.14	333.41
688.48	332.41
688.81	331.09
689.15	330.00
689.49	328.91
689.82	327.88
690.16	326.67
690.50	325.78
690.83	324.70
691.17	323.65
691.51	322.79
691.84	321.75
692.18	320.62
692.52	319.51
692.85	318.55
693.19	317.67
693.52	316.73
693.86	315.70
694.20	314.64
694.53	313.63
694.87	312.69
695.21	311.72
695.54	310.82
695.88	309.99
696.21	309.03
696.55	308.22
696.88	307.39
697.22	306.49
697.56	305.47
697.89	304.70
698.23	303.78
698.56	302.83
698.90	302.13
699.23	301.25
699.57	300.46
699.90	299.58
700.24	298.80
700.58	298.18
700.91	297.52
701.25	296.90
701.58	296.33
701.92	295.77
702.25	295.09
702.59	294.45
702.92	293.82
703.26	293.10
703.59	292.41
703.93	291.84
704.26	291.34
704.60	290.79
704.93	290.13
705.26	289.55
705.60	289.06
705.93	288.40
706.27	287.96
706.60	287.47
706.94	287.15
707.27	286.45
707.61	285.90
707.94	285.19
708.27	284.41
708.61	283.70
708.94	283.09
709.28	282.48
709.61	281.87
709.94	281.33
710.28	280.80
710.61	280.31
710.95	279.63
711.28	279.10
711.61	278.60
711.95	278.06
712.28	277.44
712.61	276.79
712.95	276.35
713.28	275.98
713.61	275.41
713.95	274.72
714.28	274.36
714.61	273.75
714.95	273.35
715.28	272.81
715.61	272.31
715.95	271.78
716.28	271.31
716.61	270.95
716.95	270.45
717.28	270.11
717.61	269.60
717.94	269.19
718.28	268.75
718.61	268.27
718.94	267.90
719.27	267.57
719.61	267.19
719.94	266.61
720.27	265.95
720.60	265.53
720.94	265.20
721.27	264.74
721.60	264.38
721.93	264.08
722.27	263.82
722.60	263.50
722.93	263.07
723.26	262.70
723.59	262.30
723.93	261.90
724.26	261.57
724.59	261.30
724.92	260.97
725.25	260.53
725.59	260.20
725.92	259.89
726.25	259.51
726.58	259.14
726.91	258.91
727.24	258.68
727.57	258.34
727.91	257.93
728.24	257.59
728.57	257.25
728.90	256.95
729.23	256.58
729.56	256.42
729.89	256.19
730.22	256.01
730.55	255.70
730.89	255.57
731.22	255.18
731.55	254.72
731.88	254.57
732.21	254.33
732.54	253.92
732.87	253.71
733.20	253.45
733.53	253.32
733.86	253.05
734.19	252.83
734.52	252.79
734.85	252.70
735.18	252.56
735.51	252.41
735.84	252.10
736.17	251.93
736.50	251.59
736.83	251.59
737.16	251.30
737.49	250.99
737.82	250.61
738.15	250.34
738.48	250.23
738.81	249.84
739.14	249.57
739.47	249.49
739.80	249.18
740.13	249.16
740.46	248.92
740.79	248.71
741.12	248.52
741.45	248.22
741.78	248.04
742.11	247.84
742.44	247.62
742.77	247.51
743.10	247.32
743.43	247.13
743.75	246.69
744.08	246.75
744.41	246.63
744.74	246.47
745.07	246.44
745.40	246.28
745.73	246.23
746.06	246.10
746.39	245.94
746.71	245.76
747.04	245.48
747.37	245.31
747.70	245.06
748.03	244.92
748.36	244.79
748.68	244.51
749.01	244.24
749.34	244.08
749.67	243.90
750.00	243.80
750.33	243.70
750.65	243.60
750.98	243.29
751.31	243.06
751.64	242.94
751.97	242.81
752.29	242.67
752.62	242.40
752.95	242.21
753.28	242.17
753.60	241.98
753.93	241.96
754.26	241.77
754.59	241.72
754.91	241.48
755.24	241.23
755.57	241.06
755.90	241.06
756.22	240.93
756.55	240.81
756.88	240.63
757.20	240.47
757.53	240.23
757.86	239.99
758.19	239.91
758.51	239.79
758.84	239.50
759.17	239.38
759.49	239.30
759.82	239.24
760.15	238.93
760.47	238.84
760.80	238.57
761.13	238.50
761.45	238.29
761.78	238.19
762.11	238.10
762.43	238.03
762.76	237.88
763.08	237.71
763.41	237.56
763.74	237.43
764.06	237.28
764.39	237.21
764.71	237.17
765.04	237.02
765.37	236.85
765.69	236.76
766.02	236.66
766.34	236.50
766.67	236.38
767.00	236.42
767.32	236.42
767.65	236.49
767.97	236.35
768.30	236.30
768.62	236.20
768.95	236.03
769.27	235.99
769.60	235.79
769.92	235.72
770.25	235.60
770.57	235.48
770.90	235.39
771.22	235.26
771.55	235.27
771.87	235.18
772.20	235.15
772.52	235.29
772.85	235.38
773.17	235.24
773.50	235.10
773.82	234.98
774.15	234.77
774.47	234.60
774.80	234.45
775.12	234.42
775.45	234.41
775.77	234.46
776.09	234.40
776.42	234.52
776.74	234.47
777.07	234.47
777.39	234.41
777.72	234.42
778.04	234.46
778.36	234.32
778.69	234.30
779.01	234.27
779.33	234.04
779.66	233.87
779.98	233.82
780.31	233.78
780.63	233.82
780.95	233.86
781.28	233.74
781.60	233.83
781.92	233.73
782.25	233.64
782.57	233.64
782.89	233.55
783.22	233.48
783.54	233.46
783.86	233.47
784.19	233.47
784.51	233.44
784.83	233.38
785.16	233.32
785.48	233.30
785.80	233.27
786.12	233.30
786.45	233.24
786.77	233.40
787.09	233.42
787.42	233.38
787.74	233.38
788.06	233.41
788.38	233.41
788.71	233.39
789.03	233.32
789.35	233.32
789.67	233.29
789.99	233.26
790.32	233.25
