SpectraSuite Data File
++++++++++++++++++++++++++++++++++++
Date: Fri Feb 01 14:37:16 EST 2013
User: group
Dark Spectrum Present: No
Reference Spectrum Present: No
Number of Sampled Component Spectra: 1
Spectrometers: USB2E7196
Integration Time (usec): 70000 (USB2E7196)
Spectra Averaged: 10 (USB2E7196)
Boxcar Smoothing: 10 (USB2E7196)
Correct for Electrical Dark: No (USB2E7196)
Strobe/Lamp Enabled: No (USB2E7196)
Correct for Detector Non-linearity: No (USB2E7196)
Correct for Stray Light: No (USB2E7196)
Number of Pixels in Processed Spectrum: 2048
>>>>>Begin Processed Spectral Data<<<<<
339.09	0.00
339.48	216.40
339.86	216.30
340.24	218.50
340.63	218.60
341.01	225.60
341.39	221.10
341.78	226.50
342.16	225.90
342.54	227.70
342.93	214.62
343.31	225.45
343.69	225.98
344.07	226.56
344.46	227.00
344.84	227.52
345.22	227.59
345.60	227.93
345.99	227.99
346.37	228.10
346.75	228.05
347.13	228.02
347.52	228.19
347.90	228.26
348.28	228.33
348.66	228.41
349.05	228.30
349.43	228.50
349.81	228.46
350.19	228.40
350.57	228.50
350.96	228.53
351.34	228.65
351.72	228.68
352.10	228.76
352.48	228.80
352.87	228.75
353.25	228.80
353.63	228.83
354.01	228.91
354.39	229.02
354.77	229.10
355.15	229.24
355.54	229.12
355.92	229.05
356.30	229.10
356.68	229.30
357.06	229.36
357.44	229.30
357.82	229.41
358.20	229.48
358.58	229.52
358.97	229.61
359.35	229.69
359.73	229.84
360.11	229.80
360.49	229.95
360.87	230.02
361.25	230.19
361.63	230.35
362.01	230.40
362.39	230.32
362.77	230.36
363.15	230.39
363.53	230.34
363.91	230.31
364.29	230.32
364.67	230.20
365.05	230.20
365.43	230.18
365.81	230.16
366.19	230.32
366.57	230.39
366.95	230.25
367.33	230.17
367.71	230.07
368.09	230.12
368.47	230.00
368.85	229.98
369.23	229.89
369.61	229.75
369.99	229.75
370.37	229.81
370.75	229.90
371.13	229.84
371.51	229.84
371.89	229.92
372.27	229.90
372.65	229.81
373.03	229.68
373.41	229.67
373.78	229.56
374.16	229.27
374.54	229.09
374.92	228.98
375.30	228.84
375.68	228.78
376.06	228.69
376.44	228.68
376.82	228.61
377.19	228.61
377.57	228.50
377.95	228.37
378.33	228.19
378.71	228.00
379.09	227.96
379.47	227.92
379.84	227.71
380.22	227.68
380.60	227.55
380.98	227.48
381.36	227.45
381.73	227.36
382.11	227.33
382.49	227.31
382.87	227.25
383.25	227.28
383.62	227.37
384.00	227.30
384.38	227.27
384.76	227.23
385.13	227.22
385.51	227.08
385.89	226.97
386.27	227.00
386.64	226.98
387.02	226.85
387.40	226.83
387.78	226.91
388.15	226.77
388.53	226.74
388.91	226.81
389.29	226.70
389.66	226.72
390.04	226.81
390.42	226.83
390.79	226.89
391.17	226.81
391.55	226.61
391.92	226.61
392.30	226.51
392.68	226.50
393.05	226.56
393.43	226.71
393.81	226.90
394.18	226.95
394.56	227.01
394.94	227.08
395.31	227.16
395.69	227.19
396.06	227.36
396.44	227.39
396.82	227.38
397.19	227.54
397.57	227.67
397.95	227.69
398.32	227.67
398.70	227.76
399.07	227.88
399.45	228.04
399.82	228.09
400.20	228.22
400.58	228.25
400.95	228.21
401.33	228.30
401.70	228.47
402.08	228.53
402.45	228.60
402.83	228.87
403.20	228.98
403.58	229.18
403.95	229.34
404.33	229.64
404.71	229.78
405.08	230.10
405.46	230.23
405.83	230.41
406.21	230.72
406.58	230.90
406.96	231.14
407.33	231.50
407.70	231.68
408.08	232.11
408.45	232.49
408.83	232.82
409.20	233.07
409.58	233.26
409.95	233.72
410.33	234.12
410.70	234.34
411.08	234.79
411.45	235.24
411.82	235.70
412.20	236.14
412.57	236.84
412.95	237.17
413.32	237.85
413.69	238.52
414.07	239.16
414.44	240.00
414.82	240.81
415.19	241.62
415.56	242.67
415.94	243.62
416.31	244.66
416.68	245.64
417.06	246.86
417.43	247.99
417.81	249.19
418.18	250.56
418.55	252.17
418.93	253.65
419.30	255.18
419.67	256.71
420.04	258.37
420.42	260.10
420.79	262.29
421.16	264.39
421.54	266.58
421.91	268.74
422.28	270.98
422.66	273.30
423.03	275.62
423.40	278.10
423.77	280.54
424.15	283.15
424.52	286.03
424.89	289.00
425.26	291.96
425.64	294.70
426.01	297.61
426.38	300.65
426.75	303.74
427.13	307.06
427.50	310.56
427.87	314.12
428.24	317.71
428.61	321.08
428.99	324.76
429.36	328.70
429.73	332.70
430.10	336.53
430.47	340.59
430.85	344.67
431.22	348.96
431.59	353.67
431.96	358.17
432.33	362.85
432.70	367.64
433.08	373.16
433.45	378.30
433.82	383.50
434.19	389.04
434.56	394.73
434.93	400.05
435.30	405.43
435.68	411.38
436.05	417.13
436.42	422.69
436.79	427.99
437.16	433.66
437.53	439.58
437.90	445.58
438.27	451.37
438.64	457.47
439.01	463.15
439.38	467.99
439.75	472.64
440.13	478.26
440.50	483.55
440.87	487.79
441.24	492.33
441.61	497.20
441.98	501.10
442.35	505.41
442.72	509.81
443.09	514.14
443.46	516.79
443.83	518.69
444.20	520.60
444.57	522.96
444.94	524.39
445.31	525.87
445.68	527.26
446.05	528.01
446.42	527.99
446.79	527.81
447.16	527.65
447.53	527.74
447.90	526.16
448.27	524.45
448.64	521.92
449.01	520.27
449.37	516.93
449.74	513.72
450.11	509.76
450.48	505.34
450.85	500.92
451.22	497.28
451.59	493.56
451.96	490.00
452.33	485.14
452.70	480.62
453.07	475.32
453.43	469.72
453.80	464.66
454.17	459.40
454.54	454.54
454.91	449.35
455.28	444.35
455.65	439.57
456.02	434.70
456.38	430.48
456.75	425.29
457.12	420.99
457.49	416.52
457.86	412.12
458.23	408.50
458.59	404.24
458.96	400.01
459.33	396.54
459.70	392.78
460.07	389.74
460.43	386.46
460.80	383.10
461.17	380.31
461.54	377.29
461.91	374.53
462.27	371.61
462.64	369.05
463.01	366.24
463.38	363.45
463.74	360.60
464.11	358.27
464.48	356.11
464.85	353.81
465.21	352.12
465.58	350.39
465.95	348.10
466.32	346.25
466.68	344.32
467.05	342.33
467.42	340.72
467.78	338.88
468.15	336.90
468.52	335.58
468.88	333.82
469.25	332.06
469.62	330.68
469.98	329.22
470.35	327.83
470.72	326.52
471.08	325.20
471.45	324.10
471.82	322.90
472.18	321.61
472.55	320.70
472.92	319.36
473.28	318.24
473.65	317.17
474.02	316.06
474.38	315.18
474.75	314.29
475.11	313.38
475.48	312.58
475.85	312.00
476.21	311.20
476.58	310.53
476.94	309.99
477.31	309.34
477.67	308.76
478.04	308.21
478.41	307.96
478.77	307.64
479.14	307.22
479.50	306.87
479.87	306.65
480.23	306.31
480.60	306.09
480.96	305.74
481.33	305.60
481.69	305.47
482.06	305.45
482.42	305.42
482.79	305.26
483.15	305.39
483.52	305.46
483.88	305.50
484.25	305.60
484.61	305.81
484.98	306.06
485.34	306.38
485.71	306.63
486.07	306.79
486.44	306.90
486.80	307.25
487.17	307.58
487.53	307.93
487.90	308.52
488.26	309.07
488.62	309.70
488.99	310.27
489.35	310.82
489.72	311.28
490.08	311.88
490.44	312.39
490.81	312.79
491.17	313.29
491.54	314.00
491.90	314.59
492.26	315.32
492.63	315.97
492.99	316.55
493.36	317.38
493.72	318.15
494.08	318.90
494.45	319.70
494.81	320.46
495.17	321.27
495.54	321.94
495.90	322.70
496.26	323.64
496.63	324.40
496.99	325.29
497.35	326.20
497.72	327.00
498.08	327.92
498.44	328.82
498.80	329.85
499.17	330.67
499.53	331.61
499.89	332.33
500.26	333.17
500.62	334.05
500.98	334.86
501.34	335.49
501.71	336.36
502.07	337.06
502.43	337.88
502.79	338.58
503.16	339.26
503.52	339.94
503.88	340.55
504.24	341.27
504.60	341.87
504.97	342.42
505.33	342.93
505.69	343.61
506.05	344.23
506.41	344.47
506.78	344.85
507.14	345.22
507.50	345.76
507.86	346.14
508.22	346.35
508.59	346.52
508.95	346.81
509.31	347.11
509.67	347.30
510.03	347.37
510.39	347.58
510.75	347.77
511.12	347.94
511.48	347.90
511.84	347.94
512.20	348.00
512.56	347.91
512.92	348.02
513.28	348.02
513.64	347.94
514.00	348.14
514.37	348.26
514.73	348.32
515.09	348.29
515.45	348.28
515.81	348.31
516.17	348.43
516.53	348.56
516.89	348.42
517.25	348.64
517.61	348.92
517.97	349.00
518.33	349.14
518.69	349.26
519.05	349.59
519.41	349.74
519.77	350.15
520.13	350.51
520.49	350.82
520.85	351.00
521.21	351.53
521.57	351.91
521.93	352.32
522.29	352.93
522.65	353.41
523.01	354.05
523.37	354.75
523.73	355.50
524.09	356.23
524.45	357.24
524.81	358.03
525.17	359.02
525.53	360.02
525.89	361.06
526.25	362.32
526.61	363.52
526.97	364.86
527.33	366.10
527.68	367.68
528.04	369.18
528.40	370.79
528.76	372.48
529.12	374.18
529.48	375.99
529.84	377.77
530.20	379.72
530.56	381.91
530.91	384.19
531.27	386.22
531.63	388.44
531.99	390.67
532.35	393.35
532.71	395.65
533.07	398.23
533.42	401.16
533.78	403.91
534.14	406.64
534.50	409.44
534.86	412.39
535.21	415.38
535.57	418.57
535.93	421.69
536.29	425.00
536.65	428.46
537.00	431.78
537.36	435.31
537.72	438.89
538.08	442.20
538.44	445.58
538.79	449.27
539.15	453.09
539.51	456.97
539.87	460.62
540.22	464.61
540.58	468.55
540.94	472.19
541.29	475.95
541.65	480.10
542.01	484.33
542.37	488.46
542.72	492.58
543.08	496.71
543.44	501.08
543.79	504.92
544.15	509.24
544.51	513.75
544.87	518.02
545.22	522.49
545.58	526.82
545.94	531.34
546.29	535.86
546.65	540.27
547.01	544.76
547.36	549.33
547.72	553.94
548.07	558.73
548.43	563.28
548.79	567.99
549.14	572.47
549.50	576.84
549.86	581.34
550.21	586.02
550.57	590.63
550.92	595.13
551.28	599.80
551.64	604.42
551.99	609.11
552.35	613.57
552.70	618.08
553.06	622.83
553.41	627.42
553.77	632.25
554.13	637.00
554.48	641.53
554.84	646.21
555.19	650.79
555.55	655.37
555.90	659.97
556.26	664.61
556.61	669.09
556.97	673.75
557.32	678.34
557.68	682.79
558.03	687.32
558.39	691.59
558.74	696.51
559.10	700.94
559.45	705.15
559.81	709.73
560.16	714.04
560.52	718.43
560.87	723.03
561.23	727.11
561.58	731.50
561.94	735.89
562.29	739.74
562.64	743.80
563.00	747.68
563.35	751.93
563.71	756.09
564.06	760.52
564.42	764.71
564.77	768.90
565.12	772.97
565.48	777.01
565.83	781.10
566.19	784.93
566.54	788.58
566.89	792.43
567.25	796.43
567.60	800.30
567.96	804.10
568.31	807.87
568.66	811.53
569.02	814.98
569.37	818.32
569.72	821.95
570.08	825.19
570.43	828.46
570.78	831.56
571.14	834.40
571.49	837.21
571.84	840.24
572.20	843.20
572.55	845.83
572.90	848.47
573.26	851.58
573.61	853.95
573.96	856.46
574.31	858.72
574.67	860.58
575.02	862.46
575.37	864.42
575.72	865.88
576.08	867.79
576.43	869.33
576.78	870.87
577.13	872.85
577.49	874.78
577.84	876.45
578.19	877.89
578.54	879.50
578.90	880.61
579.25	881.48
579.60	882.10
579.95	883.17
580.30	884.13
580.66	884.69
581.01	885.33
581.36	886.22
581.71	887.06
582.06	887.93
582.42	888.74
582.77	889.35
583.12	889.97
583.47	890.65
583.82	891.46
584.17	891.88
584.53	892.20
584.88	892.42
585.23	892.62
585.58	892.97
585.93	893.04
586.28	893.56
586.63	893.96
586.98	894.44
587.34	894.74
587.69	894.85
588.04	895.08
588.39	895.49
588.74	895.00
589.09	894.97
589.44	894.60
589.79	894.38
590.14	894.30
590.49	893.85
590.84	893.32
591.19	892.80
591.54	891.90
591.89	890.79
592.25	890.18
592.60	889.15
592.95	888.13
593.30	887.46
593.65	886.40
594.00	885.38
594.35	884.94
594.70	883.38
595.05	882.19
595.40	881.06
595.75	879.47
596.10	878.88
596.45	877.73
596.80	876.91
597.15	875.98
597.50	874.58
597.85	873.73
598.19	872.70
598.54	871.56
598.89	871.04
599.24	870.07
599.59	868.80
599.94	867.99
600.29	866.88
600.64	865.44
600.99	863.95
601.34	862.54
601.69	860.64
602.04	859.58
602.39	858.36
602.74	856.94
603.08	855.88
603.43	854.50
603.78	853.04
604.13	851.48
604.48	849.81
604.83	848.49
605.18	846.96
605.53	845.06
605.87	843.00
606.22	841.33
606.57	839.59
606.92	837.90
607.27	836.09
607.62	834.54
607.96	832.92
608.31	831.49
608.66	829.61
609.01	827.43
609.36	825.48
609.70	822.96
610.05	820.72
610.40	818.77
610.75	816.43
611.10	814.18
611.44	811.53
611.79	809.39
612.14	806.89
612.49	804.25
612.83	801.88
613.18	799.55
613.53	796.91
613.88	794.31
614.22	791.68
614.57	788.94
614.92	786.27
615.27	783.78
615.61	780.90
615.96	778.50
616.31	776.20
616.65	773.74
617.00	771.68
617.35	769.25
617.70	766.26
618.04	763.39
618.39	760.80
618.74	758.49
619.08	755.65
619.43	753.19
619.78	750.66
620.12	747.90
620.47	745.52
620.82	743.03
621.16	740.48
621.51	738.08
621.85	735.61
622.20	732.80
622.55	730.15
622.89	727.58
623.24	725.05
623.59	722.72
623.93	720.12
624.28	717.52
624.62	715.06
624.97	712.86
625.32	710.65
625.66	708.15
626.01	705.63
626.35	703.13
626.70	700.58
627.04	698.20
627.39	695.64
627.73	692.93
628.08	690.54
628.43	688.13
628.77	685.43
629.12	682.83
629.46	680.26
629.81	677.35
630.15	674.57
630.50	671.67
630.84	668.61
631.19	665.72
631.53	662.77
631.88	659.71
632.22	656.44
632.57	653.68
632.91	650.71
633.26	647.87
633.60	645.08
633.95	642.31
634.29	639.59
634.64	637.04
634.98	634.46
635.32	631.64
635.67	629.15
636.01	626.65
636.36	623.99
636.70	621.77
637.05	619.54
637.39	617.36
637.73	615.07
638.08	613.01
638.42	610.76
638.77	608.61
639.11	606.15
639.45	604.02
639.80	601.53
640.14	599.40
640.49	597.14
640.83	594.72
641.17	592.34
641.52	589.89
641.86	587.33
642.20	584.90
642.55	582.60
642.89	580.11
643.23	577.62
643.58	575.41
643.92	572.81
644.26	570.18
644.61	567.73
644.95	565.48
645.29	562.52
645.64	560.07
645.98	557.43
646.32	555.11
646.66	552.67
647.01	550.19
647.35	547.80
647.69	545.37
648.04	543.10
648.38	540.56
648.72	538.01
649.06	535.74
649.41	533.35
649.75	530.53
650.09	528.02
650.43	525.56
650.78	522.93
651.12	520.49
651.46	518.22
651.80	515.83
652.14	513.29
652.49	511.20
652.83	508.90
653.17	506.70
653.51	504.30
653.85	501.81
654.20	499.50
654.54	497.00
654.88	494.50
655.22	492.09
655.56	489.74
655.90	487.47
656.25	485.29
656.59	483.02
656.93	480.97
657.27	478.65
657.61	476.20
657.95	474.20
658.29	471.91
658.64	469.76
658.98	467.42
659.32	464.98
659.66	462.78
660.00	460.62
660.34	458.38
660.68	456.26
661.02	454.32
661.36	452.23
661.70	450.07
662.05	448.03
662.39	446.11
662.73	444.17
663.07	442.30
663.41	440.34
663.75	438.39
664.09	436.37
664.43	434.39
664.77	432.76
665.11	430.94
665.45	429.20
665.79	427.32
666.13	425.55
666.47	423.80
666.81	421.82
667.15	419.88
667.49	418.10
667.83	416.49
668.17	414.52
668.51	412.67
668.85	410.99
669.19	409.49
669.53	407.72
669.87	406.00
670.21	404.25
670.55	402.59
670.89	401.08
671.23	399.60
671.57	398.19
671.91	396.59
672.25	394.88
672.58	393.23
672.92	391.76
673.26	390.26
673.60	388.85
673.94	387.36
674.28	386.01
674.62	384.72
674.96	383.27
675.30	382.11
675.64	380.87
675.97	379.69
676.31	378.41
676.65	377.01
676.99	375.83
677.33	374.58
677.67	373.33
678.01	371.90
678.34	370.72
678.68	369.35
679.02	368.13
679.36	366.85
679.70	365.57
680.04	364.15
680.37	362.97
680.71	361.78
681.05	360.79
681.39	359.64
681.73	358.25
682.06	357.15
682.40	355.95
682.74	354.85
683.08	353.68
683.42	352.34
683.75	351.24
684.09	349.93
684.43	348.89
684.77	347.62
685.10	346.49
685.44	345.23
685.78	344.20
686.12	343.07
686.45	341.91
686.79	340.89
687.13	339.92
687.46	338.81
687.80	337.77
688.14	336.69
688.48	335.64
688.81	334.60
689.15	333.48
689.49	332.32
689.82	331.19
690.16	330.10
690.50	329.18
690.83	328.20
691.17	327.16
691.51	325.96
691.84	324.92
692.18	323.92
692.52	322.84
692.85	321.86
693.19	320.93
693.52	319.99
693.86	318.99
694.20	318.02
694.53	317.03
694.87	316.03
695.21	314.98
695.54	313.91
695.88	312.97
696.21	311.99
696.55	311.05
696.88	310.19
697.22	309.23
697.56	308.35
697.89	307.37
698.23	306.56
698.56	305.70
698.90	304.97
699.23	304.05
699.57	303.15
699.90	302.25
700.24	301.37
700.58	300.53
700.91	299.71
701.25	298.90
701.58	298.21
701.92	297.43
702.25	296.70
702.59	295.97
702.92	295.27
703.26	294.55
703.59	293.97
703.93	293.38
704.26	292.60
704.60	291.86
704.93	291.29
705.26	290.56
705.60	290.05
705.93	289.36
706.27	288.88
706.60	288.41
706.94	287.82
707.27	287.13
707.61	286.60
707.94	286.01
708.27	285.40
708.61	284.66
708.94	284.16
709.28	283.51
709.61	282.96
709.94	282.40
710.28	281.85
710.61	281.26
710.95	280.45
711.28	280.03
711.61	279.50
711.95	278.82
712.28	278.27
712.61	277.51
712.95	277.03
713.28	276.46
713.61	275.90
713.95	275.33
714.28	274.70
714.61	274.04
714.95	273.49
715.28	272.94
715.61	272.37
715.95	271.83
716.28	271.29
716.61	270.82
716.95	270.25
717.28	269.70
717.61	269.28
717.94	268.93
718.28	268.37
718.61	267.89
718.94	267.50
719.27	267.13
719.61	266.77
719.94	266.30
720.27	265.88
720.60	265.44
720.94	265.06
721.27	264.86
721.60	264.70
721.93	264.38
722.27	264.03
722.60	263.78
722.93	263.28
723.26	263.05
723.59	262.64
723.93	262.46
724.26	262.19
724.59	261.72
724.92	261.30
725.25	261.03
725.59	260.69
725.92	260.31
726.25	259.95
726.58	259.66
726.91	259.32
727.24	259.04
727.57	258.76
727.91	258.32
728.24	257.99
728.57	257.49
728.90	257.24
729.23	256.84
729.56	256.54
729.89	256.29
730.22	255.97
730.55	255.74
730.89	255.47
731.22	255.21
731.55	255.04
731.88	254.90
732.21	254.55
732.54	254.29
732.87	254.17
733.20	253.85
733.53	253.61
733.86	253.43
734.19	253.00
734.52	252.84
734.85	252.92
735.18	252.66
735.51	252.55
735.84	252.23
736.17	252.07
736.50	251.80
736.83	251.84
737.16	251.66
737.49	251.37
737.82	251.02
738.15	250.75
738.48	250.53
738.81	250.22
739.14	250.04
739.47	249.81
739.80	249.44
740.13	249.31
740.46	249.08
740.79	248.84
741.12	248.72
741.45	248.48
741.78	248.07
742.11	247.90
742.44	247.64
742.77	247.59
743.10	247.44
743.43	247.28
743.75	246.90
744.08	246.89
744.41	246.73
744.74	246.67
745.07	246.50
745.40	246.31
745.73	246.25
746.06	246.09
746.39	245.91
746.71	245.76
747.04	245.53
747.37	245.37
747.70	245.23
748.03	244.97
748.36	244.84
748.68	244.67
749.01	244.50
749.34	244.32
749.67	244.06
750.00	243.90
750.33	243.83
750.65	243.65
750.98	243.23
751.31	243.12
751.64	242.84
751.97	242.70
752.29	242.49
752.62	242.16
752.95	241.94
753.28	241.75
753.60	241.60
753.93	241.59
754.26	241.32
754.59	241.10
754.91	240.97
755.24	240.80
755.57	240.67
755.90	240.43
756.22	240.23
756.55	240.04
756.88	239.83
757.20	239.60
757.53	239.49
757.86	239.33
758.19	239.25
758.51	239.18
758.84	239.03
759.17	238.91
759.49	238.81
759.82	238.74
760.15	238.64
760.47	238.61
760.80	238.29
761.13	238.27
761.45	238.18
761.78	238.08
762.11	237.96
762.43	237.86
762.76	237.80
763.08	237.66
763.41	237.59
763.74	237.47
764.06	237.31
764.39	237.13
764.71	237.05
765.04	236.78
765.37	236.65
765.69	236.54
766.02	236.44
766.34	236.43
766.67	236.33
767.00	236.30
767.32	236.29
767.65	236.34
767.97	236.20
768.30	236.07
768.62	235.99
768.95	235.96
769.27	235.92
769.60	235.67
769.92	235.59
770.25	235.45
770.57	235.25
770.90	235.18
771.22	235.15
771.55	235.01
771.87	234.97
772.20	234.84
772.52	234.88
772.85	235.09
773.17	234.94
773.50	234.86
773.82	234.75
774.15	234.59
774.47	234.49
774.80	234.44
775.12	234.49
775.45	234.48
775.77	234.37
776.09	234.19
776.42	234.33
776.74	234.37
777.07	234.32
777.39	234.42
777.72	234.42
778.04	234.36
778.36	234.34
778.69	234.30
779.01	234.29
779.33	234.17
779.66	233.87
779.98	233.74
780.31	233.68
780.63	233.66
780.95	233.59
781.28	233.58
781.60	233.48
781.92	233.37
782.25	233.30
782.57	233.19
782.89	233.13
783.22	233.07
783.54	232.91
783.86	232.86
784.19	232.75
784.51	232.68
784.83	232.57
785.16	232.50
785.48	232.38
785.80	232.30
786.12	232.09
786.45	232.05
786.77	232.08
787.09	232.02
787.42	231.98
787.74	231.95
788.06	231.88
788.38	231.94
788.71	231.91
789.03	231.81
789.35	231.83
789.67	231.80
789.99	231.70
790.32	231.83
790.64	231.85
790.96	232.00
791.28	231.95
791.61	231.97
791.93	231.96
792.25	232.03
792.57	232.17
792.89	232.28
793.21	232.25
793.54	232.22
793.86	232.19
794.18	232.14
