SpectraSuite Data File
++++++++++++++++++++++++++++++++++++
Date: Fri Feb 01 14:41:44 EST 2013
User: group
Dark Spectrum Present: No
Reference Spectrum Present: No
Number of Sampled Component Spectra: 1
Spectrometers: USB2E7196
Integration Time (usec): 70000 (USB2E7196)
Spectra Averaged: 10 (USB2E7196)
Boxcar Smoothing: 10 (USB2E7196)
Correct for Electrical Dark: No (USB2E7196)
Strobe/Lamp Enabled: No (USB2E7196)
Correct for Detector Non-linearity: No (USB2E7196)
Correct for Stray Light: No (USB2E7196)
Number of Pixels in Processed Spectrum: 2048
>>>>>Begin Processed Spectral Data<<<<<
339.09	0.00
339.48	215.90
339.86	216.80
340.24	219.80
340.63	220.30
341.01	226.10
341.39	222.80
341.78	225.00
342.16	226.40
342.54	226.80
342.93	215.11
343.31	225.98
343.69	226.53
344.07	227.10
344.46	227.47
344.84	227.96
345.22	228.07
345.60	228.32
345.99	228.53
346.37	228.71
346.75	228.82
347.13	228.83
347.52	228.95
347.90	229.05
348.28	229.04
348.66	229.10
349.05	229.04
349.43	229.12
349.81	229.20
350.19	229.30
350.57	229.42
350.96	229.56
351.34	229.67
351.72	229.67
352.10	229.79
352.48	229.89
352.87	229.91
353.25	230.02
353.63	230.13
354.01	230.14
354.39	230.16
354.77	230.17
355.15	230.37
355.54	230.32
355.92	230.28
356.30	230.40
356.68	230.60
357.06	230.69
357.44	230.79
357.82	230.83
358.20	230.72
358.58	230.77
358.97	230.80
359.35	230.81
359.73	231.00
360.11	230.90
360.49	230.98
360.87	230.95
361.25	231.01
361.63	231.05
362.01	231.10
362.39	231.19
362.77	231.30
363.15	231.17
363.53	231.21
363.91	231.22
364.29	231.11
364.67	230.88
365.05	230.89
365.43	230.81
365.81	230.77
366.19	230.84
366.57	230.82
366.95	230.80
367.33	230.80
367.71	230.79
368.09	230.88
368.47	230.86
368.85	230.91
369.23	230.91
369.61	230.76
369.99	230.80
370.37	230.78
370.75	230.67
371.13	230.60
371.51	230.50
371.89	230.52
372.27	230.54
372.65	230.52
373.03	230.43
373.41	230.40
373.78	230.37
374.16	230.18
374.54	230.03
374.92	229.87
375.30	229.76
375.68	229.65
376.06	229.52
376.44	229.39
376.82	229.20
377.19	229.14
377.57	229.15
377.95	229.05
378.33	228.83
378.71	228.79
379.09	228.80
379.47	228.75
379.84	228.62
380.22	228.50
380.60	228.43
380.98	228.29
381.36	228.31
381.73	228.16
382.11	228.23
382.49	228.19
382.87	228.13
383.25	228.07
383.62	228.14
384.00	228.07
384.38	228.04
384.76	228.13
385.13	228.02
385.51	227.97
385.89	227.86
386.27	227.70
386.64	227.69
387.02	227.55
387.40	227.40
387.78	227.45
388.15	227.51
388.53	227.51
388.91	227.53
389.29	227.36
389.66	227.35
390.04	227.29
390.42	227.32
390.79	227.35
391.17	227.36
391.55	227.21
391.92	227.14
392.30	227.13
392.68	227.03
393.05	227.09
393.43	227.09
393.81	226.99
394.18	227.14
394.56	227.19
394.94	227.29
395.31	227.30
395.69	227.39
396.06	227.34
396.44	227.36
396.82	227.37
397.19	227.53
397.57	227.71
397.95	227.80
398.32	227.91
398.70	228.03
399.07	228.15
399.45	228.20
399.82	228.48
400.20	228.64
400.58	228.69
400.95	228.77
401.33	228.98
401.70	229.36
402.08	229.56
402.45	229.60
402.83	229.92
403.20	230.24
403.58	230.41
403.95	230.65
404.33	230.89
404.71	231.06
405.08	231.40
405.46	231.47
405.83	231.73
406.21	231.89
406.58	232.14
406.96	232.41
407.33	232.68
407.70	232.88
408.08	233.25
408.45	233.71
408.83	234.04
409.20	234.31
409.58	234.51
409.95	234.86
410.33	235.30
410.70	235.53
411.08	235.92
411.45	236.30
411.82	236.77
412.20	237.24
412.57	237.90
412.95	238.22
413.32	238.88
413.69	239.49
414.07	240.03
414.44	240.60
414.82	241.19
415.19	241.96
415.56	242.70
415.94	243.46
416.31	244.24
416.68	245.09
417.06	246.14
417.43	247.08
417.81	248.08
418.18	249.08
418.55	250.24
418.93	251.38
419.30	252.55
419.67	253.77
420.04	255.17
420.42	256.56
420.79	258.21
421.16	259.68
421.54	261.43
421.91	263.21
422.28	265.01
422.66	266.95
423.03	268.82
423.40	270.60
423.77	272.51
424.15	274.48
424.52	276.69
424.89	278.75
425.26	280.81
425.64	282.82
426.01	285.08
426.38	287.35
426.75	289.69
427.13	292.03
427.50	294.59
427.87	297.11
428.24	299.61
428.61	301.95
428.99	304.73
429.36	307.37
429.73	310.18
430.10	312.94
430.47	315.74
430.85	318.66
431.22	321.84
431.59	325.25
431.96	328.22
432.33	331.54
432.70	334.88
433.08	338.89
433.45	342.50
433.82	346.10
434.19	350.13
434.56	354.08
434.93	357.71
435.30	361.31
435.68	365.21
436.05	369.14
436.42	373.10
436.79	376.56
437.16	380.29
437.53	384.07
437.90	388.00
438.27	391.90
438.64	395.92
439.01	399.40
439.38	402.37
439.75	405.50
440.13	408.80
440.50	412.19
440.87	414.68
441.24	417.41
441.61	420.35
441.98	422.39
442.35	424.80
442.72	427.45
443.09	429.87
443.46	431.08
443.83	431.73
444.20	432.25
444.57	433.30
444.94	433.74
445.31	434.23
445.68	434.67
446.05	434.61
446.42	433.86
446.79	433.38
447.16	432.54
447.53	432.00
447.90	430.51
448.27	428.71
448.64	426.49
449.01	424.97
449.37	422.36
449.74	419.57
450.11	416.47
450.48	413.12
450.85	409.64
451.22	406.85
451.59	404.23
451.96	401.67
452.33	398.15
452.70	394.93
453.07	391.12
453.43	387.12
453.80	383.25
454.17	379.60
454.54	376.00
454.91	372.39
455.28	368.81
455.65	365.35
456.02	362.13
456.38	359.21
456.75	355.37
457.12	352.04
457.49	349.02
457.86	346.00
458.23	343.30
458.59	340.48
458.96	337.55
459.33	334.90
459.70	332.30
460.07	330.20
460.43	327.79
460.80	325.50
461.17	323.39
461.54	321.37
461.91	319.30
462.27	317.29
462.64	315.51
463.01	313.55
463.38	311.62
463.74	309.60
464.11	307.91
464.48	306.49
464.85	304.90
465.21	303.70
465.58	302.32
465.95	300.84
466.32	299.57
466.68	298.27
467.05	296.98
467.42	295.58
467.78	294.20
468.15	292.78
468.52	291.84
468.88	290.62
469.25	289.33
469.62	288.48
469.98	287.48
470.35	286.66
470.72	285.59
471.08	284.67
471.45	283.79
471.82	282.90
472.18	282.03
472.55	281.40
472.92	280.55
473.28	279.87
473.65	279.10
474.02	278.32
474.38	277.72
474.75	277.20
475.11	276.67
475.48	276.13
475.85	275.80
476.21	275.33
476.58	275.00
476.94	274.84
477.31	274.43
477.67	274.10
478.04	273.80
478.41	273.76
478.77	273.67
479.14	273.45
479.50	273.35
479.87	273.38
480.23	273.44
480.60	273.44
480.96	273.36
481.33	273.42
481.69	273.50
482.06	273.60
482.42	273.68
482.79	273.86
483.15	274.18
483.52	274.41
483.88	274.65
484.25	274.92
484.61	275.22
484.98	275.59
485.34	276.07
485.71	276.58
486.07	277.15
486.44	277.70
486.80	278.32
487.17	279.01
487.53	279.85
487.90	280.73
488.26	281.67
488.62	282.75
488.99	283.75
489.35	284.87
489.72	286.11
490.08	287.31
490.44	288.58
490.81	289.92
491.17	291.52
491.54	293.33
491.90	295.04
492.26	296.84
492.63	298.70
492.99	300.70
493.36	302.86
493.72	305.01
494.08	307.30
494.45	309.71
494.81	312.40
495.17	315.05
495.54	317.91
495.90	321.08
496.26	324.31
496.63	327.74
496.99	331.33
497.35	335.12
497.72	339.14
498.08	343.17
498.44	347.55
498.80	352.14
499.17	356.64
499.53	361.30
499.89	366.44
500.26	371.83
500.62	377.36
500.98	383.16
501.34	389.21
501.71	395.46
502.07	402.01
502.43	408.63
502.79	415.58
503.16	422.66
503.52	429.97
503.88	437.48
504.24	445.52
504.60	453.85
504.97	462.40
505.33	471.17
505.69	480.63
506.05	490.04
506.41	499.52
506.78	509.53
507.14	520.02
507.50	530.55
507.86	541.51
508.22	552.67
508.59	563.77
508.95	575.59
509.31	587.76
509.67	600.22
510.03	612.99
510.39	625.77
510.75	639.61
511.12	653.29
511.48	667.71
511.84	681.90
512.20	696.28
512.56	711.35
512.92	726.66
513.28	742.40
513.64	758.23
514.00	774.65
514.37	791.15
514.73	807.87
515.09	825.02
515.45	842.25
515.81	859.72
516.17	877.92
516.53	896.10
516.89	914.52
517.25	933.19
517.61	951.90
517.97	971.07
518.33	989.59
518.69	1008.97
519.05	1028.41
519.41	1048.64
519.77	1069.54
520.13	1090.32
520.49	1110.74
520.85	1131.09
521.21	1151.72
521.57	1173.02
521.93	1193.85
522.29	1215.47
522.65	1236.64
523.01	1257.84
523.37	1279.02
523.73	1300.74
524.09	1322.40
524.45	1344.26
524.81	1366.11
525.17	1388.58
525.53	1411.16
525.89	1433.61
526.25	1456.24
526.61	1478.50
526.97	1500.99
527.33	1523.22
527.68	1545.39
528.04	1568.10
528.40	1590.58
528.76	1614.13
529.12	1636.88
529.48	1660.07
529.84	1682.30
530.20	1705.70
530.56	1729.28
530.91	1753.65
531.27	1777.03
531.63	1799.93
531.99	1822.85
532.35	1845.48
532.71	1867.52
533.07	1890.03
533.42	1912.62
533.78	1934.88
534.14	1957.47
534.50	1978.30
534.86	1999.13
535.21	2020.26
535.57	2042.62
535.93	2064.30
536.29	2084.82
536.65	2105.50
537.00	2126.41
537.36	2147.76
537.72	2167.80
538.08	2187.57
538.44	2206.60
538.79	2225.87
539.15	2244.94
539.51	2264.41
539.87	2284.63
540.22	2303.91
540.58	2323.32
540.94	2342.18
541.29	2360.31
541.65	2378.18
542.01	2397.87
542.37	2416.72
542.72	2435.12
543.08	2451.84
543.44	2469.27
543.79	2485.63
544.15	2501.93
544.51	2519.06
544.87	2535.58
545.22	2551.39
545.58	2567.21
545.94	2581.80
546.29	2596.57
546.65	2611.33
547.01	2625.09
547.36	2638.50
547.72	2652.10
548.07	2665.06
548.43	2677.64
548.79	2690.57
549.14	2702.26
549.50	2713.17
549.86	2724.20
550.21	2735.00
550.57	2746.10
550.92	2756.88
551.28	2767.67
551.64	2778.32
551.99	2788.34
552.35	2797.80
552.70	2807.73
553.06	2817.59
553.41	2827.90
553.77	2837.55
554.13	2846.99
554.48	2856.23
554.84	2865.14
555.19	2874.10
555.55	2882.13
555.90	2889.84
556.26	2897.82
556.61	2905.63
556.97	2913.28
557.32	2921.45
557.68	2928.69
558.03	2936.29
558.39	2943.02
558.74	2950.95
559.10	2957.72
559.45	2963.75
559.81	2970.94
560.16	2976.69
560.52	2981.96
560.87	2987.63
561.23	2992.27
561.58	2997.72
561.94	3002.46
562.29	3006.30
562.64	3009.72
563.00	3014.02
563.35	3019.60
563.71	3024.65
564.06	3029.78
564.42	3034.35
564.77	3038.29
565.12	3042.35
565.48	3045.75
565.83	3048.54
566.19	3051.60
566.54	3054.19
566.89	3056.19
567.25	3057.65
567.60	3061.20
567.96	3063.66
568.31	3064.70
568.66	3066.32
569.02	3067.57
569.37	3067.57
569.72	3068.71
570.08	3069.57
570.43	3070.19
570.78	3068.84
571.14	3067.17
571.49	3066.35
571.84	3066.44
572.20	3064.90
572.55	3063.39
572.90	3060.66
573.26	3059.78
573.61	3057.20
573.96	3054.49
574.31	3050.84
574.67	3046.34
575.02	3041.01
575.37	3037.28
575.72	3033.11
576.08	3029.66
576.43	3025.04
576.78	3021.44
577.13	3017.18
577.49	3013.32
577.84	3008.44
578.19	3004.08
578.54	2999.17
578.90	2993.52
579.25	2986.18
579.60	2980.18
579.95	2973.60
580.30	2967.60
580.66	2960.30
581.01	2953.13
581.36	2947.16
581.71	2941.75
582.06	2936.33
582.42	2929.83
582.77	2922.47
583.12	2915.43
583.47	2908.31
583.82	2902.54
584.17	2895.57
584.53	2888.86
584.88	2881.78
585.23	2874.25
585.58	2867.41
585.93	2859.99
586.28	2853.60
586.63	2847.28
586.98	2840.44
587.34	2833.66
587.69	2826.47
588.04	2819.86
588.39	2812.98
588.74	2804.00
589.09	2795.76
589.44	2787.11
589.79	2779.44
590.14	2772.56
590.49	2765.07
590.84	2756.51
591.19	2747.68
591.54	2738.39
591.89	2728.05
592.25	2718.86
592.60	2708.85
592.95	2698.86
593.30	2689.62
593.65	2679.41
594.00	2669.40
594.35	2659.88
594.70	2649.76
595.05	2640.48
595.40	2629.63
595.75	2619.35
596.10	2610.85
596.45	2601.98
596.80	2593.94
597.15	2584.96
597.50	2574.83
597.85	2565.85
598.19	2557.62
598.54	2548.28
598.89	2540.45
599.24	2532.84
599.59	2523.65
599.94	2515.73
600.29	2506.94
600.64	2497.90
600.99	2487.92
601.34	2478.76
601.69	2469.17
602.04	2460.57
602.39	2451.42
602.74	2443.30
603.08	2434.81
603.43	2426.06
603.78	2416.85
604.13	2406.83
604.48	2397.36
604.83	2388.02
605.18	2378.78
605.53	2368.24
605.87	2357.48
606.22	2347.36
606.57	2336.86
606.92	2327.01
607.27	2317.15
607.62	2307.94
607.96	2298.20
608.31	2289.27
608.66	2278.93
609.01	2267.82
609.36	2256.61
609.70	2244.59
610.05	2232.73
610.40	2221.55
610.75	2209.77
611.10	2198.13
611.44	2186.23
611.79	2175.39
612.14	2164.25
612.49	2151.77
612.83	2140.13
613.18	2129.26
613.53	2117.99
613.88	2106.49
614.22	2095.31
614.57	2083.40
614.92	2071.82
615.27	2060.76
615.61	2049.07
615.96	2037.92
616.31	2028.03
616.65	2018.33
617.00	2008.83
617.35	1998.68
617.70	1987.67
618.04	1976.42
618.39	1966.06
618.74	1956.27
619.08	1944.99
619.43	1934.39
619.78	1924.45
620.12	1914.18
620.47	1903.65
620.82	1892.88
621.16	1882.35
621.51	1872.14
621.85	1862.00
622.20	1851.20
622.55	1840.87
622.89	1831.15
623.24	1821.50
623.59	1811.45
623.93	1800.86
624.28	1790.35
624.62	1780.36
624.97	1770.98
625.32	1761.90
625.66	1752.28
626.01	1741.87
626.35	1732.05
626.70	1721.86
627.04	1712.58
627.39	1702.70
627.73	1692.85
628.08	1683.10
628.43	1673.61
628.77	1663.64
629.12	1653.28
629.46	1643.19
629.81	1632.18
630.15	1621.29
630.50	1610.60
630.84	1599.87
631.19	1589.11
631.53	1578.77
631.88	1568.00
632.22	1556.77
632.57	1546.79
632.91	1536.27
633.26	1526.30
633.60	1516.02
633.95	1506.11
634.29	1496.04
634.64	1486.39
634.98	1476.41
635.32	1466.94
635.67	1457.68
636.01	1447.99
636.36	1438.69
636.70	1429.79
637.05	1421.45
637.39	1412.99
637.73	1404.38
638.08	1396.09
638.42	1387.96
638.77	1379.37
639.11	1370.82
639.45	1362.57
639.80	1353.29
640.14	1344.25
640.49	1335.32
640.83	1326.45
641.17	1317.76
641.52	1308.82
641.86	1300.04
642.20	1291.74
642.55	1282.68
642.89	1273.72
643.23	1264.94
643.58	1256.78
643.92	1247.71
644.26	1238.80
644.61	1229.98
644.95	1221.35
645.29	1211.85
645.64	1202.32
645.98	1193.91
646.32	1185.48
646.66	1176.61
647.01	1168.27
647.35	1160.10
647.69	1151.95
648.04	1144.19
648.38	1135.68
648.72	1127.01
649.06	1118.54
649.41	1110.09
649.75	1101.61
650.09	1093.01
650.43	1084.60
650.78	1075.75
651.12	1067.48
651.46	1059.36
651.80	1051.62
652.14	1043.48
652.49	1035.59
652.83	1028.01
653.17	1019.71
653.51	1011.44
653.85	1003.77
654.20	995.79
654.54	987.55
654.88	979.33
655.22	970.70
655.56	962.83
655.90	955.52
656.25	947.90
656.59	940.12
656.93	933.17
657.27	925.98
657.61	918.47
657.95	911.68
658.29	904.63
658.64	897.55
658.98	889.90
659.32	882.60
659.66	875.76
660.00	868.66
660.34	861.57
660.68	854.92
661.02	847.79
661.36	841.20
661.70	834.89
662.05	828.59
662.39	822.74
662.73	816.25
663.07	809.95
663.41	804.24
663.75	798.33
664.09	792.05
664.43	786.01
664.77	780.50
665.11	774.84
665.45	768.99
665.79	763.07
666.13	757.47
666.47	751.61
666.81	745.65
667.15	740.10
667.49	734.85
667.83	729.40
668.17	724.07
668.51	718.79
668.85	713.36
669.19	708.23
669.53	703.04
669.87	697.79
670.21	692.77
670.55	687.37
670.89	682.68
671.23	678.08
671.57	673.12
671.91	667.90
672.25	663.01
672.58	658.25
672.92	653.56
673.26	649.15
673.60	645.02
673.94	640.77
674.28	636.52
674.62	632.23
674.96	628.10
675.30	624.24
675.64	620.05
675.97	615.97
676.31	611.80
676.65	607.61
676.99	603.90
677.33	599.46
677.67	595.47
678.01	591.03
678.34	586.80
678.68	583.16
679.02	579.52
679.36	575.60
679.70	572.00
680.04	568.43
680.37	564.49
680.71	560.84
681.05	557.35
681.39	553.62
681.73	549.99
682.06	546.45
682.40	542.95
682.74	539.32
683.08	536.03
683.42	532.56
683.75	529.03
684.09	525.58
684.43	522.50
684.77	519.10
685.10	515.87
685.44	512.58
685.78	509.19
686.12	505.96
686.45	502.60
686.79	499.24
687.13	496.06
687.46	492.92
687.80	489.58
688.14	486.30
688.48	483.42
688.81	480.48
689.15	477.48
689.49	474.55
689.82	471.85
690.16	468.85
690.50	466.13
690.83	463.57
691.17	460.67
691.51	457.87
691.84	455.09
692.18	452.35
692.52	449.54
692.85	447.00
693.19	444.46
693.52	441.97
693.86	439.41
694.20	436.91
694.53	434.29
694.87	431.71
695.21	429.28
695.54	426.66
695.88	424.18
696.21	421.72
696.55	419.22
696.88	416.80
697.22	414.42
697.56	412.09
697.89	409.55
698.23	407.31
698.56	405.06
698.90	402.97
699.23	400.61
699.57	398.56
699.90	396.22
700.24	393.91
700.58	391.74
700.91	389.76
701.25	387.72
701.58	385.94
701.92	384.05
702.25	382.10
702.59	380.22
702.92	378.31
703.26	376.49
703.59	374.71
703.93	373.01
704.26	371.25
704.60	369.47
704.93	367.90
705.26	366.28
705.60	364.67
705.93	363.04
706.27	361.75
706.60	360.16
706.94	358.71
707.27	357.25
707.61	355.78
707.94	354.30
708.27	352.72
708.61	351.15
708.94	349.79
709.28	348.41
709.61	347.10
709.94	345.90
710.28	344.56
710.61	343.18
710.95	341.61
711.28	340.36
711.61	339.10
711.95	337.72
712.28	336.25
712.61	334.90
712.95	333.66
713.28	332.35
713.61	331.11
713.95	329.80
714.28	328.64
714.61	327.36
714.95	326.29
715.28	325.03
715.61	323.91
715.95	322.69
716.28	321.57
716.61	320.42
716.95	319.27
717.28	318.20
717.61	317.13
717.94	316.11
718.28	314.82
718.61	313.79
718.94	312.90
719.27	312.05
719.61	311.07
719.94	310.06
720.27	309.10
720.60	308.30
720.94	307.45
721.27	306.54
721.60	305.70
721.93	304.75
722.27	304.13
722.60	303.29
722.93	302.53
723.26	301.73
723.59	300.87
723.93	299.95
724.26	299.07
724.59	298.21
724.92	297.37
725.25	296.70
725.59	296.00
725.92	295.11
726.25	294.32
726.58	293.52
726.91	292.74
727.24	292.02
727.57	291.25
727.91	290.44
728.24	289.81
728.57	289.07
728.90	288.36
729.23	287.49
729.56	286.85
729.89	286.07
730.22	285.29
730.55	284.62
730.89	283.97
731.22	283.33
731.55	282.82
731.88	282.09
732.21	281.43
732.54	280.57
732.87	279.92
733.20	279.13
733.53	278.60
733.86	277.90
734.19	277.25
734.52	276.57
734.85	276.08
735.18	275.34
735.51	274.85
735.84	274.31
736.17	273.78
736.50	273.08
736.83	272.73
737.16	272.31
737.49	271.77
737.82	271.22
738.15	270.73
738.48	270.12
738.81	269.62
739.14	269.15
739.47	268.69
739.80	268.21
740.13	267.83
740.46	267.40
740.79	267.01
741.12	266.60
741.45	266.16
741.78	265.76
742.11	265.40
742.44	264.91
742.77	264.47
743.10	264.01
743.43	263.51
743.75	262.97
744.08	262.81
744.41	262.45
744.74	262.20
745.07	261.84
745.40	261.60
745.73	261.39
746.06	261.05
746.39	260.82
746.71	260.46
747.04	260.21
747.37	259.76
747.70	259.44
748.03	259.03
748.36	258.80
748.68	258.40
749.01	258.05
749.34	257.76
749.67	257.50
750.00	257.32
750.33	257.22
750.65	256.95
750.98	256.36
751.31	256.13
751.64	255.83
751.97	255.50
752.29	255.10
752.62	254.78
752.95	254.52
753.28	254.21
753.60	253.94
753.93	253.76
754.26	253.55
754.59	253.26
754.91	253.00
755.24	252.70
755.57	252.39
755.90	252.12
756.22	251.88
756.55	251.55
756.88	251.18
757.20	250.70
757.53	250.29
757.86	250.07
758.19	249.80
758.51	249.45
758.84	249.20
759.17	248.89
759.49	248.68
759.82	248.46
760.15	248.23
760.47	248.09
760.80	247.69
761.13	247.48
761.45	247.25
761.78	247.07
762.11	246.80
762.43	246.70
762.76	246.47
763.08	246.28
763.41	246.07
763.74	245.90
764.06	245.78
764.39	245.73
764.71	245.46
765.04	245.23
765.37	245.08
765.69	244.95
766.02	244.84
766.34	244.51
766.67	244.22
767.00	244.12
767.32	244.00
767.65	243.98
767.97	243.79
768.30	243.60
768.62	243.30
768.95	243.06
769.27	242.80
769.60	242.78
769.92	242.50
770.25	242.29
770.57	242.10
770.90	241.95
771.22	241.70
771.55	241.61
771.87	241.40
772.20	241.19
772.52	240.98
772.85	241.01
773.17	240.94
773.50	240.76
773.82	240.43
774.15	240.15
774.47	239.83
774.80	239.59
775.12	239.53
775.45	239.43
775.77	239.31
776.09	239.12
776.42	238.83
776.74	238.77
777.07	238.66
777.39	238.52
777.72	238.28
778.04	238.16
778.36	237.87
778.69	237.73
779.01	237.54
779.33	237.41
779.66	237.06
779.98	236.97
780.31	236.92
780.63	236.90
780.95	236.78
781.28	236.61
781.60	236.57
781.92	236.35
782.25	236.28
782.57	236.34
782.89	236.28
783.22	236.28
783.54	236.18
783.86	236.04
784.19	235.96
784.51	236.00
784.83	235.90
785.16	235.93
785.48	235.84
785.80	235.74
786.12	235.64
