SpectraSuite Data File
++++++++++++++++++++++++++++++++++++
Date: Fri Feb 01 14:42:08 EST 2013
User: group
Dark Spectrum Present: No
Reference Spectrum Present: No
Number of Sampled Component Spectra: 1
Spectrometers: USB2E7196
Integration Time (usec): 70000 (USB2E7196)
Spectra Averaged: 10 (USB2E7196)
Boxcar Smoothing: 10 (USB2E7196)
Correct for Electrical Dark: No (USB2E7196)
Strobe/Lamp Enabled: No (USB2E7196)
Correct for Detector Non-linearity: No (USB2E7196)
Correct for Stray Light: No (USB2E7196)
Number of Pixels in Processed Spectrum: 2048
>>>>>Begin Processed Spectral Data<<<<<
339.09	0.00
339.48	216.50
339.86	217.40
340.24	219.30
340.63	220.10
341.01	225.50
341.39	220.70
341.78	226.30
342.16	226.10
342.54	225.80
342.93	214.30
343.31	225.19
343.69	225.68
344.07	226.25
344.46	226.59
344.84	226.99
345.22	227.15
345.60	227.53
345.99	227.62
346.37	227.75
346.75	227.86
347.13	227.89
347.52	227.89
347.90	228.20
348.28	228.35
348.66	228.40
349.05	228.29
349.43	228.38
349.81	228.46
350.19	228.55
350.57	228.55
350.96	228.61
351.34	228.63
351.72	228.72
352.10	228.73
352.48	228.83
352.87	228.94
353.25	228.97
353.63	228.97
354.01	229.00
354.39	229.17
354.77	229.30
355.15	229.50
355.54	229.54
355.92	229.56
356.30	229.61
356.68	229.93
357.06	230.00
357.44	230.02
357.82	230.11
358.20	230.21
358.58	230.39
358.97	230.46
359.35	230.56
359.73	230.70
360.11	230.70
360.49	230.83
360.87	230.78
361.25	230.86
361.63	231.03
362.01	231.14
362.39	231.10
362.77	231.09
363.15	230.97
363.53	230.97
363.91	231.03
364.29	231.05
364.67	230.82
365.05	230.98
365.43	231.07
365.81	231.07
366.19	231.21
366.57	231.19
366.95	231.19
367.33	231.19
367.71	231.14
368.09	231.25
368.47	231.23
368.85	231.37
369.23	231.41
369.61	231.33
369.99	231.40
370.37	231.35
370.75	231.49
371.13	231.51
371.51	231.50
371.89	231.43
372.27	231.45
372.65	231.48
373.03	231.33
373.41	231.31
373.78	231.25
374.16	231.04
374.54	230.91
374.92	230.80
375.30	230.71
375.68	230.63
376.06	230.58
376.44	230.52
376.82	230.37
377.19	230.24
377.57	230.10
377.95	229.90
378.33	229.81
378.71	229.57
379.09	229.53
379.47	229.48
379.84	229.37
380.22	229.21
380.60	228.98
380.98	228.94
381.36	228.75
381.73	228.65
382.11	228.60
382.49	228.60
382.87	228.59
383.25	228.58
383.62	228.66
384.00	228.54
384.38	228.49
384.76	228.53
385.13	228.50
385.51	228.50
385.89	228.47
386.27	228.45
386.64	228.45
387.02	228.31
387.40	228.18
387.78	228.12
388.15	228.17
388.53	228.29
388.91	228.27
389.29	228.34
389.66	228.35
390.04	228.24
390.42	228.25
390.79	228.24
391.17	228.17
391.55	228.05
391.92	228.04
392.30	228.07
392.68	228.02
393.05	228.14
393.43	228.21
393.81	228.30
394.18	228.26
394.56	228.31
394.94	228.48
395.31	228.59
395.69	228.76
396.06	228.75
396.44	228.71
396.82	228.77
397.19	228.86
397.57	228.91
397.95	229.10
398.32	229.13
398.70	229.26
399.07	229.47
399.45	229.53
399.82	229.61
400.20	229.75
400.58	229.81
400.95	229.74
401.33	229.85
401.70	230.04
402.08	230.21
402.45	230.30
402.83	230.52
403.20	230.74
403.58	230.91
403.95	231.12
404.33	231.44
404.71	231.71
405.08	232.03
405.46	232.23
405.83	232.43
406.21	232.66
406.58	232.78
406.96	232.95
407.33	233.28
407.70	233.63
408.08	233.95
408.45	234.46
408.83	234.87
409.20	235.14
409.58	235.28
409.95	235.80
410.33	236.27
410.70	236.68
411.08	237.13
411.45	237.58
411.82	238.02
412.20	238.49
412.57	239.14
412.95	239.56
413.32	240.09
413.69	240.70
414.07	241.46
414.44	242.21
414.82	243.09
415.19	243.87
415.56	244.76
415.94	245.71
416.31	246.52
416.68	247.50
417.06	248.77
417.43	250.02
417.81	251.15
418.18	252.32
418.55	253.57
418.93	254.97
419.30	256.24
419.67	257.75
420.04	259.36
420.42	260.90
420.79	262.84
421.16	264.73
421.54	266.70
421.91	268.64
422.28	270.77
422.66	272.84
423.03	274.93
423.40	276.92
423.77	279.19
424.15	281.51
424.52	283.92
424.89	286.46
425.26	288.78
425.64	291.14
426.01	293.70
426.38	296.31
426.75	299.01
427.13	301.89
427.50	304.78
427.87	307.78
428.24	310.63
428.61	313.26
428.99	316.37
429.36	319.75
429.73	323.03
430.10	326.17
430.47	329.40
430.85	332.84
431.22	336.57
431.59	340.23
431.96	343.90
432.33	347.77
432.70	351.50
433.08	356.10
433.45	360.27
433.82	364.45
434.19	368.94
434.56	373.38
434.93	377.44
435.30	381.63
435.68	386.21
436.05	390.75
436.42	395.17
436.79	399.17
437.16	403.37
437.53	407.81
437.90	412.40
438.27	416.78
438.64	421.30
439.01	425.36
439.38	429.03
439.75	432.36
440.13	436.43
440.50	440.11
440.87	442.98
441.24	446.17
441.61	449.50
441.98	451.92
442.35	454.78
442.72	457.96
443.09	460.84
443.46	462.33
443.83	463.43
444.20	464.24
444.57	465.70
444.94	466.22
445.31	466.69
445.68	467.13
446.05	467.21
446.42	466.41
446.79	465.86
447.16	465.06
447.53	464.59
447.90	462.66
448.27	460.70
448.64	458.21
449.01	456.36
449.37	453.22
449.74	450.16
450.11	446.50
450.48	442.36
450.85	438.25
451.22	434.78
451.59	431.25
451.96	428.09
452.33	423.76
452.70	419.96
453.07	415.47
453.43	410.91
453.80	406.52
454.17	402.32
454.54	398.12
454.91	393.86
455.28	389.46
455.65	385.48
456.02	381.71
456.38	378.29
456.75	373.90
457.12	370.41
457.49	366.88
457.86	363.36
458.23	360.60
458.59	357.30
458.96	354.12
459.33	351.22
459.70	348.39
460.07	345.97
460.43	343.20
460.80	340.65
461.17	338.31
461.54	335.80
461.91	333.52
462.27	331.08
462.64	328.93
463.01	326.75
463.38	324.63
463.74	322.46
464.11	320.45
464.48	318.81
464.85	316.96
465.21	315.63
465.58	314.18
465.95	312.21
466.32	310.80
466.68	309.18
467.05	307.65
467.42	306.24
467.78	304.70
468.15	303.31
468.52	302.20
468.88	300.73
469.25	299.43
469.62	298.35
469.98	297.38
470.35	296.34
470.72	295.31
471.08	294.20
471.45	293.22
471.82	292.47
472.18	291.37
472.55	290.61
472.92	289.64
473.28	288.92
473.65	288.27
474.02	287.49
474.38	286.89
474.75	286.41
475.11	285.70
475.48	285.38
475.85	284.85
476.21	284.34
476.58	283.98
476.94	283.79
477.31	283.48
477.67	283.10
478.04	282.84
478.41	282.80
478.77	282.85
479.14	282.65
479.50	282.50
479.87	282.60
480.23	282.70
480.60	282.73
480.96	282.76
481.33	282.95
481.69	283.14
482.06	283.30
482.42	283.60
482.79	283.81
483.15	284.02
483.52	284.50
483.88	284.96
484.25	285.40
484.61	285.88
484.98	286.52
485.34	287.23
485.71	288.00
486.07	288.71
486.44	289.32
486.80	290.26
487.17	291.21
487.53	292.28
487.90	293.36
488.26	294.59
488.62	295.78
488.99	297.02
489.35	298.51
489.72	300.00
490.08	301.53
490.44	303.42
490.81	305.42
491.17	307.30
491.54	309.30
491.90	311.50
492.26	313.77
492.63	316.27
492.99	318.94
493.36	321.66
493.72	324.50
494.08	327.60
494.45	330.88
494.81	334.31
495.17	337.66
495.54	341.39
495.90	345.25
496.26	349.29
496.63	353.47
496.99	357.81
497.35	362.60
497.72	367.61
498.08	372.60
498.44	377.92
498.80	383.67
499.17	389.60
499.53	395.60
499.89	402.07
500.26	408.50
500.62	415.00
500.98	422.08
501.34	429.56
501.71	437.08
502.07	444.81
502.43	453.02
502.79	461.75
503.16	470.44
503.52	479.50
503.88	489.00
504.24	498.72
504.60	509.12
504.97	519.65
505.33	530.39
505.69	542.01
506.05	553.54
506.41	565.30
506.78	577.51
507.14	590.00
507.50	602.95
507.86	616.48
508.22	630.27
508.59	644.33
508.95	658.63
509.31	673.52
509.67	688.94
510.03	704.50
510.39	720.33
510.75	737.09
511.12	753.87
511.48	771.02
511.84	788.53
512.20	806.11
512.56	824.48
512.92	843.02
513.28	861.75
513.64	880.87
514.00	900.09
514.37	919.97
514.73	940.42
515.09	960.64
515.45	981.46
515.81	1002.72
516.17	1024.27
516.53	1046.10
516.89	1068.34
517.25	1090.42
517.61	1112.92
517.97	1135.69
518.33	1157.97
518.69	1180.94
519.05	1204.30
519.41	1227.68
519.77	1251.96
520.13	1276.18
520.49	1300.55
520.85	1324.69
521.21	1348.90
521.57	1374.52
521.93	1398.82
522.29	1423.98
522.65	1449.05
523.01	1473.62
523.37	1498.42
523.73	1523.46
524.09	1548.58
524.45	1573.75
524.81	1599.67
525.17	1626.00
525.53	1652.28
525.89	1678.66
526.25	1704.60
526.61	1729.97
526.97	1756.66
527.33	1782.18
527.68	1807.88
528.04	1833.54
528.40	1859.72
528.76	1887.03
529.12	1913.25
529.48	1940.07
529.84	1965.61
530.20	1992.03
530.56	2019.46
530.91	2047.14
531.27	2074.13
531.63	2100.50
531.99	2126.87
532.35	2152.26
532.71	2177.08
533.07	2202.79
533.42	2227.61
533.78	2252.80
534.14	2278.60
534.50	2302.14
534.86	2327.20
535.21	2351.08
535.57	2376.00
535.93	2400.49
536.29	2423.57
536.65	2446.97
537.00	2469.88
537.36	2493.91
537.72	2516.59
538.08	2538.56
538.44	2559.76
538.79	2581.13
539.15	2602.46
539.51	2624.22
539.87	2646.58
540.22	2668.21
540.58	2689.72
540.94	2711.14
541.29	2731.95
541.65	2752.20
542.01	2773.90
542.37	2793.75
542.72	2813.83
543.08	2832.50
543.44	2851.77
543.79	2869.43
544.15	2887.73
544.51	2907.11
544.87	2925.07
545.22	2942.79
545.58	2959.75
545.94	2976.00
546.29	2993.17
546.65	3009.11
547.01	3024.37
547.36	3039.02
547.72	3053.82
548.07	3067.29
548.43	3080.97
548.79	3094.80
549.14	3107.72
549.50	3119.87
549.86	3131.75
550.21	3143.62
550.57	3156.05
550.92	3166.95
551.28	3178.60
551.64	3189.57
551.99	3200.09
552.35	3210.29
552.70	3220.47
553.06	3230.98
553.41	3241.52
553.77	3250.54
554.13	3260.90
554.48	3270.83
554.84	3279.81
555.19	3288.34
555.55	3296.95
555.90	3304.73
556.26	3312.49
556.61	3320.31
556.97	3327.94
557.32	3335.99
557.68	3343.99
558.03	3350.88
558.39	3358.00
558.74	3365.88
559.10	3372.26
559.45	3378.16
559.81	3385.41
560.16	3391.35
560.52	3396.52
560.87	3402.35
561.23	3406.72
561.58	3411.53
561.94	3415.51
562.29	3419.29
562.64	3423.01
563.00	3426.66
563.35	3431.49
563.71	3436.56
564.06	3441.34
564.42	3445.32
564.77	3448.90
565.12	3452.28
565.48	3455.86
565.83	3457.87
566.19	3460.31
566.54	3462.26
566.89	3463.90
567.25	3464.69
567.60	3466.77
567.96	3468.44
568.31	3468.89
568.66	3470.19
569.02	3470.92
569.37	3470.79
569.72	3471.22
570.08	3471.92
570.43	3471.94
570.78	3471.06
571.14	3468.67
571.49	3466.77
571.84	3465.77
572.20	3463.45
572.55	3461.09
572.90	3457.74
573.26	3455.78
573.61	3452.82
573.96	3449.47
574.31	3445.41
574.67	3440.00
575.02	3434.66
575.37	3429.95
575.72	3424.80
576.08	3420.47
576.43	3415.00
576.78	3410.11
577.13	3404.85
577.49	3399.16
577.84	3393.23
578.19	3387.13
578.54	3380.92
578.90	3373.81
579.25	3365.44
579.60	3357.99
579.95	3349.79
580.30	3341.99
580.66	3333.46
581.01	3324.56
581.36	3316.81
581.71	3309.74
582.06	3302.44
582.42	3294.09
582.77	3285.40
583.12	3276.69
583.47	3268.59
583.82	3260.88
584.17	3252.44
584.53	3244.52
584.88	3236.06
585.23	3227.11
585.58	3218.55
585.93	3209.82
586.28	3202.16
586.63	3195.09
586.98	3187.45
587.34	3179.70
587.69	3171.19
588.04	3163.28
588.39	3155.49
588.74	3145.30
589.09	3135.75
589.44	3125.77
589.79	3117.13
590.14	3108.90
590.49	3100.21
590.84	3089.69
591.19	3079.68
591.54	3068.95
591.89	3057.20
592.25	3046.91
592.60	3035.77
592.95	3024.74
593.30	3013.86
593.65	3002.23
594.00	2990.56
594.35	2979.44
594.70	2966.98
595.05	2956.77
595.40	2945.23
595.75	2933.08
596.10	2923.54
596.45	2912.92
596.80	2903.18
597.15	2893.00
597.50	2881.30
597.85	2870.89
598.19	2861.10
598.54	2850.65
598.89	2840.97
599.24	2832.28
599.59	2821.50
599.94	2812.37
600.29	2801.96
600.64	2791.92
600.99	2780.66
601.34	2769.93
601.69	2758.83
602.04	2748.82
602.39	2737.45
602.74	2727.38
603.08	2718.29
603.43	2707.79
603.78	2696.84
604.13	2686.10
604.48	2675.04
604.83	2664.67
605.18	2653.95
605.53	2641.75
605.87	2629.32
606.22	2618.09
606.57	2605.55
606.92	2593.85
607.27	2582.19
607.62	2571.64
607.96	2560.52
608.31	2550.00
608.66	2538.20
609.01	2526.30
609.36	2513.73
609.70	2500.79
610.05	2487.71
610.40	2474.50
610.75	2461.92
611.10	2449.41
611.44	2435.69
611.79	2423.52
612.14	2410.57
612.49	2396.57
612.83	2384.18
613.18	2371.40
613.53	2358.55
613.88	2345.46
614.22	2333.45
614.57	2320.08
614.92	2306.74
615.27	2293.90
615.61	2281.33
615.96	2268.83
616.31	2256.93
616.65	2245.98
617.00	2234.91
617.35	2223.37
617.70	2210.91
618.04	2197.97
618.39	2185.58
618.74	2174.46
619.08	2161.51
619.43	2149.68
619.78	2138.77
620.12	2127.03
620.47	2115.87
620.82	2103.51
621.16	2092.34
621.51	2080.06
621.85	2068.75
622.20	2056.62
622.55	2044.92
622.89	2033.36
623.24	2022.38
623.59	2010.81
623.93	1999.46
624.28	1988.30
624.62	1976.54
624.97	1965.90
625.32	1955.37
625.66	1944.27
626.01	1933.00
626.35	1922.36
626.70	1910.80
627.04	1899.65
627.39	1887.78
627.73	1876.27
628.08	1865.57
628.43	1854.05
628.77	1843.00
629.12	1831.26
629.46	1820.13
629.81	1808.14
630.15	1796.20
630.50	1784.40
630.84	1772.22
631.19	1759.80
631.53	1747.84
631.88	1735.95
632.22	1723.56
632.57	1712.22
632.91	1700.60
633.26	1688.95
633.60	1676.82
633.95	1665.59
634.29	1654.38
634.64	1644.20
634.98	1633.10
635.32	1622.25
635.67	1612.12
636.01	1602.00
636.36	1591.45
636.70	1581.25
637.05	1571.24
637.39	1561.49
637.73	1551.32
638.08	1542.01
638.42	1532.64
638.77	1523.04
639.11	1513.32
639.45	1503.86
639.80	1493.56
640.14	1483.90
640.49	1473.93
640.83	1464.20
641.17	1454.41
641.52	1444.23
641.86	1434.07
642.20	1424.53
642.55	1414.66
642.89	1404.60
643.23	1393.96
643.58	1385.12
643.92	1374.94
644.26	1365.27
644.61	1355.74
644.95	1346.10
645.29	1335.14
645.64	1324.78
645.98	1314.86
646.32	1305.56
646.66	1295.66
647.01	1286.28
647.35	1276.97
647.69	1267.67
648.04	1258.57
648.38	1248.76
648.72	1238.73
649.06	1228.94
649.41	1219.58
649.75	1209.61
650.09	1200.04
650.43	1190.74
650.78	1180.36
651.12	1171.17
651.46	1162.06
651.80	1152.90
652.14	1143.93
652.49	1135.56
652.83	1127.20
653.17	1117.88
653.51	1108.76
653.85	1099.97
654.20	1091.02
654.54	1081.70
654.88	1072.90
655.22	1063.40
655.56	1054.37
655.90	1046.26
656.25	1037.61
656.59	1029.10
656.93	1020.92
657.27	1012.62
657.61	1004.09
657.95	995.98
658.29	987.81
658.64	979.49
658.98	970.58
659.32	961.87
659.66	953.96
660.00	945.56
660.34	937.76
660.68	929.91
661.02	922.04
661.36	914.44
661.70	907.40
662.05	900.30
662.39	893.64
662.73	886.91
663.07	879.94
663.41	873.30
663.75	866.17
664.09	859.45
664.43	852.74
664.77	846.04
665.11	839.73
665.45	833.33
665.79	826.73
666.13	820.49
666.47	814.20
666.81	807.50
667.15	801.00
667.49	794.79
667.83	788.83
668.17	782.82
668.51	776.38
668.85	769.94
669.19	763.94
669.53	757.97
669.87	752.05
670.21	746.39
670.55	740.37
670.89	735.00
671.23	729.59
671.57	724.03
671.91	718.75
672.25	713.38
672.58	708.08
672.92	703.10
673.26	698.18
673.60	693.23
673.94	688.47
674.28	683.98
674.62	679.33
674.96	674.35
675.30	669.75
675.64	665.40
675.97	660.99
676.31	656.25
676.65	651.67
676.99	647.45
677.33	642.60
677.67	638.07
678.01	633.33
678.34	628.79
678.68	624.46
679.02	620.25
679.36	615.89
679.70	611.64
680.04	607.19
680.37	602.75
680.71	598.64
681.05	594.69
681.39	590.63
681.73	586.55
682.06	582.72
682.40	578.70
682.74	574.83
683.08	571.00
683.42	567.12
683.75	563.24
684.09	559.32
684.43	555.64
684.77	552.19
685.10	548.60
685.44	544.81
685.78	541.04
686.12	537.32
686.45	533.78
686.79	530.13
687.13	526.81
687.46	523.32
687.80	519.70
688.14	516.17
688.48	512.84
688.81	509.37
689.15	506.09
689.49	502.65
689.82	499.37
690.16	496.04
690.50	492.97
690.83	490.02
691.17	486.93
691.51	483.82
691.84	480.85
692.18	477.94
692.52	475.02
692.85	472.11
693.19	469.14
693.52	466.20
693.86	463.26
694.20	460.04
694.53	457.35
694.87	454.58
695.21	451.83
695.54	448.88
695.88	446.09
696.21	443.20
696.55	440.71
696.88	438.00
697.22	435.32
697.56	432.65
697.89	429.99
698.23	427.39
698.56	424.92
698.90	422.27
699.23	419.40
699.57	416.87
699.90	414.39
700.24	412.08
700.58	409.73
700.91	407.37
701.25	405.44
701.58	403.24
701.92	401.06
702.25	398.81
702.59	396.70
702.92	394.66
703.26	392.72
703.59	390.71
703.93	388.85
704.26	386.98
704.60	384.99
704.93	382.89
705.26	380.88
705.60	378.83
705.93	377.14
706.27	375.58
706.60	373.93
706.94	372.31
707.27	370.50
707.61	368.71
707.94	367.03
708.27	365.13
708.61	363.37
708.94	361.80
709.28	360.28
709.61	358.72
709.94	357.07
710.28	355.49
710.61	354.00
710.95	352.21
711.28	350.75
711.61	349.33
711.95	347.97
712.28	346.50
712.61	345.21
712.95	343.73
713.28	342.31
713.61	340.97
713.95	339.49
714.28	338.10
714.61	336.74
714.95	335.51
715.28	334.27
715.61	332.91
715.95	331.64
716.28	330.30
716.61	329.03
716.95	327.95
717.28	326.68
717.61	325.45
717.94	324.41
718.28	323.01
718.61	321.72
718.94	320.47
719.27	319.35
719.61	318.35
719.94	317.35
720.27	316.20
720.60	315.10
720.94	314.14
721.27	313.36
721.60	312.45
721.93	311.53
722.27	310.63
722.60	309.77
722.93	308.86
723.26	308.04
723.59	307.00
723.93	306.12
724.26	305.32
724.59	304.39
724.92	303.53
725.25	302.91
725.59	302.11
725.92	301.30
726.25	300.50
726.58	299.65
726.91	298.88
727.24	298.16
727.57	297.29
727.91	296.52
728.24	295.64
728.57	294.87
728.90	294.07
729.23	293.23
729.56	292.51
729.89	291.80
730.22	291.00
730.55	290.42
730.89	289.68
731.22	288.94
731.55	288.22
731.88	287.54
732.21	286.68
732.54	285.94
732.87	285.38
733.20	284.64
733.53	283.99
733.86	283.38
734.19	282.77
734.52	282.24
734.85	281.71
735.18	281.06
735.51	280.40
735.84	279.87
736.17	279.31
736.50	278.59
736.83	278.13
737.16	277.50
737.49	276.94
737.82	276.36
738.15	275.71
738.48	275.24
738.81	274.56
739.14	274.08
739.47	273.49
739.80	272.92
740.13	272.50
740.46	271.93
740.79	271.38
741.12	270.94
741.45	270.40
741.78	269.77
742.11	269.36
742.44	268.91
742.77	268.34
743.10	267.85
743.43	267.29
743.75	266.61
744.08	266.43
744.41	265.96
744.74	265.45
745.07	265.10
745.40	264.70
745.73	264.32
746.06	263.95
746.39	263.60
746.71	263.13
747.04	262.66
747.37	262.29
747.70	261.82
748.03	261.31
748.36	260.92
748.68	260.58
749.01	260.09
749.34	259.70
749.67	259.30
750.00	258.89
750.33	258.82
750.65	258.48
750.98	257.86
751.31	257.45
751.64	257.16
751.97	256.85
752.29	256.40
752.62	256.08
752.95	255.65
753.28	255.25
753.60	255.00
753.93	254.83
754.26	254.45
754.59	254.10
754.91	253.85
755.24	253.54
755.57	253.12
755.90	252.71
756.22	252.40
756.55	252.14
756.88	251.83
757.20	251.50
757.53	251.23
757.86	251.09
758.19	250.90
758.51	250.66
758.84	250.38
759.17	250.06
759.49	249.86
759.82	249.70
760.15	249.58
760.47	249.35
760.80	249.05
761.13	248.84
761.45	248.53
761.78	248.20
762.11	247.98
762.43	247.82
762.76	247.65
763.08	247.47
763.41	247.31
763.74	247.14
764.06	246.83
764.39	246.71
764.71	246.44
765.04	246.26
765.37	246.06
765.69	245.71
766.02	245.59
766.34	245.32
766.67	245.05
767.00	244.90
767.32	244.78
767.65	244.74
767.97	244.66
768.30	244.54
768.62	244.42
768.95	244.16
769.27	243.96
769.60	243.86
769.92	243.54
770.25	243.25
770.57	242.97
770.90	242.80
771.22	242.58
771.55	242.40
771.87	242.21
772.20	241.92
772.52	241.98
772.85	242.11
773.17	242.08
773.50	241.93
773.82	241.69
774.15	241.45
774.47	241.14
774.80	240.89
775.12	240.82
775.45	240.66
775.77	240.59
776.09	240.49
776.42	240.32
776.74	240.40
777.07	240.29
777.39	240.15
777.72	239.97
778.04	239.69
778.36	239.69
778.69	239.55
779.01	239.54
779.33	239.23
779.66	238.84
779.98	238.52
780.31	238.50
780.63	238.49
780.95	238.45
781.28	238.29
781.60	238.22
781.92	238.07
782.25	238.03
782.57	237.91
782.89	237.70
783.22	237.70
783.54	237.45
783.86	237.36
784.19	237.43
784.51	237.38
784.83	237.31
785.16	236.96
785.48	236.86
