SpectraSuite Data File
++++++++++++++++++++++++++++++++++++
Date: Fri Feb 01 14:36:42 EST 2013
User: group
Dark Spectrum Present: No
Reference Spectrum Present: No
Number of Sampled Component Spectra: 1
Spectrometers: USB2E7196
Integration Time (usec): 70000 (USB2E7196)
Spectra Averaged: 10 (USB2E7196)
Boxcar Smoothing: 10 (USB2E7196)
Correct for Electrical Dark: No (USB2E7196)
Strobe/Lamp Enabled: No (USB2E7196)
Correct for Detector Non-linearity: No (USB2E7196)
Correct for Stray Light: No (USB2E7196)
Number of Pixels in Processed Spectrum: 2048
>>>>>Begin Processed Spectral Data<<<<<
339.09	0.00
339.48	218.20
339.86	218.80
340.24	221.10
340.63	221.40
341.01	224.60
341.39	222.70
341.78	224.30
342.16	225.70
342.54	227.60
342.93	215.34
343.31	226.30
343.69	226.87
344.07	227.30
344.46	227.67
344.84	228.02
345.22	228.16
345.60	228.37
345.99	228.53
346.37	228.70
346.75	228.83
347.13	229.02
347.52	229.00
347.90	229.10
348.28	229.06
348.66	229.08
349.05	229.03
349.43	229.06
349.81	229.04
350.19	229.15
350.57	229.15
350.96	229.08
351.34	229.07
351.72	228.98
352.10	229.00
352.48	229.00
352.87	229.07
353.25	229.08
353.63	229.18
354.01	229.20
354.39	229.21
354.77	229.19
355.15	229.23
355.54	229.28
355.92	229.18
356.30	229.27
356.68	229.36
357.06	229.44
357.44	229.51
357.82	229.51
358.20	229.50
358.58	229.50
358.97	229.60
359.35	229.65
359.73	229.70
360.11	229.83
360.49	229.90
360.87	229.89
361.25	229.98
361.63	230.09
362.01	230.21
362.39	230.24
362.77	230.25
363.15	230.21
363.53	230.22
363.91	230.27
364.29	230.21
364.67	230.07
365.05	230.11
365.43	229.94
365.81	230.02
366.19	230.07
366.57	230.21
366.95	230.13
367.33	230.05
367.71	230.09
368.09	230.01
368.47	229.98
368.85	229.85
369.23	229.81
369.61	229.74
369.99	229.70
370.37	229.69
370.75	229.69
371.13	229.56
371.51	229.40
371.89	229.47
372.27	229.49
372.65	229.45
373.03	229.31
373.41	229.32
373.78	229.19
374.16	229.03
374.54	228.86
374.92	228.86
375.30	228.74
375.68	228.65
376.06	228.58
376.44	228.44
376.82	228.53
377.19	228.55
377.57	228.40
377.95	228.22
378.33	228.10
378.71	227.97
379.09	227.97
379.47	228.05
379.84	227.90
380.22	227.81
380.60	227.70
380.98	227.55
381.36	227.53
381.73	227.45
382.11	227.36
382.49	227.28
382.87	227.06
383.25	227.04
383.62	227.10
384.00	227.01
384.38	226.99
384.76	226.85
385.13	226.72
385.51	226.70
385.89	226.71
386.27	226.67
386.64	226.67
387.02	226.55
387.40	226.39
387.78	226.37
388.15	226.30
388.53	226.21
388.91	226.19
389.29	226.17
389.66	226.19
390.04	226.13
390.42	226.08
390.79	226.08
391.17	226.00
391.55	225.86
391.92	225.88
392.30	225.83
392.68	225.85
393.05	225.96
393.43	225.94
393.81	225.99
394.18	226.04
394.56	225.97
394.94	226.10
395.31	226.15
395.69	226.18
396.06	226.25
396.44	226.32
396.82	226.49
397.19	226.58
397.57	226.62
397.95	226.70
398.32	226.82
398.70	226.94
399.07	227.10
399.45	227.15
399.82	227.16
400.20	227.22
400.58	227.35
400.95	227.30
401.33	227.41
401.70	227.60
402.08	227.69
402.45	227.91
402.83	228.13
403.20	228.26
403.58	228.37
403.95	228.67
404.33	228.87
404.71	229.02
405.08	229.37
405.46	229.62
405.83	229.85
406.21	230.14
406.58	230.45
406.96	230.74
407.33	231.04
407.70	231.36
408.08	231.89
408.45	232.20
408.83	232.66
409.20	233.05
409.58	233.31
409.95	233.72
410.33	234.19
410.70	234.55
411.08	235.08
411.45	235.76
411.82	236.26
412.20	237.02
412.57	237.78
412.95	238.31
413.32	239.13
413.69	239.91
414.07	240.71
414.44	241.68
414.82	242.57
415.19	243.62
415.56	244.80
415.94	245.80
416.31	247.02
416.68	248.21
417.06	249.71
417.43	251.15
417.81	252.67
418.18	254.09
418.55	255.77
418.93	257.46
419.30	259.07
419.67	260.89
420.04	262.70
420.42	264.57
420.79	266.91
421.16	269.24
421.54	271.83
421.91	274.28
422.28	276.74
422.66	279.45
423.03	282.17
423.40	284.86
423.77	287.89
424.15	290.89
424.52	294.11
424.89	297.48
425.26	300.57
425.64	303.64
426.01	307.13
426.38	310.60
426.75	314.24
427.13	318.07
427.50	321.97
427.87	326.18
428.24	330.42
428.61	334.20
428.99	338.36
429.36	342.90
429.73	347.49
430.10	351.91
430.47	356.54
430.85	361.21
431.22	366.19
431.59	371.51
431.96	376.58
432.33	382.04
432.70	387.38
433.08	393.82
433.45	399.67
433.82	405.62
434.19	412.47
434.56	418.80
434.93	424.90
435.30	431.10
435.68	437.63
436.05	444.35
436.42	450.82
436.79	456.85
437.16	463.20
437.53	470.12
437.90	476.91
438.27	483.64
438.64	490.58
439.01	496.99
439.38	502.54
439.75	508.01
440.13	514.26
440.50	520.18
440.87	524.97
441.24	530.36
441.61	536.00
441.98	540.20
442.35	545.36
442.72	550.52
443.09	555.43
443.46	558.79
443.83	560.84
444.20	562.93
444.57	565.77
444.94	567.45
445.31	568.85
445.68	570.66
446.05	571.64
446.42	571.70
446.79	571.57
447.16	571.62
447.53	571.72
447.90	570.01
448.27	568.21
448.64	565.42
449.01	563.63
449.37	559.92
449.74	555.96
450.11	551.27
450.48	546.10
450.85	540.91
451.22	536.49
451.59	532.37
451.96	528.65
452.33	523.10
452.70	518.03
453.07	512.04
453.43	505.78
453.80	499.88
454.17	493.93
454.54	488.47
454.91	482.33
455.28	476.46
455.65	471.16
456.02	465.62
456.38	460.92
456.75	454.86
457.12	449.81
457.49	445.06
457.86	440.40
458.23	436.31
458.59	431.74
458.96	426.94
459.33	422.78
459.70	418.52
460.07	415.09
460.43	411.24
460.80	407.45
461.17	404.18
461.54	400.60
461.91	397.42
462.27	394.02
462.64	391.18
463.01	388.17
463.38	385.05
463.74	381.95
464.11	379.32
464.48	376.96
464.85	374.48
465.21	372.33
465.58	370.22
465.95	367.67
466.32	365.57
466.68	363.50
467.05	361.45
467.42	359.32
467.78	357.12
468.15	355.17
468.52	353.68
468.88	351.78
469.25	349.97
469.62	348.45
469.98	346.95
470.35	345.39
470.72	343.79
471.08	342.13
471.45	340.95
471.82	339.64
472.18	338.26
472.55	337.01
472.92	335.80
473.28	334.49
473.65	333.34
474.02	332.19
474.38	331.26
474.75	330.45
475.11	329.50
475.48	328.72
475.85	327.89
476.21	327.21
476.58	326.53
476.94	326.10
477.31	325.55
477.67	324.89
478.04	324.55
478.41	324.28
478.77	324.04
479.14	323.49
479.50	323.00
479.87	322.59
480.23	322.42
480.60	322.02
480.96	321.77
481.33	321.61
481.69	321.50
482.06	321.23
482.42	321.06
482.79	321.05
483.15	321.12
483.52	321.22
483.88	321.22
484.25	321.15
484.61	321.13
484.98	321.17
485.34	321.45
485.71	321.58
486.07	321.87
486.44	322.06
486.80	322.41
487.17	322.88
487.53	323.44
487.90	323.80
488.26	324.44
488.62	325.13
488.99	325.69
489.35	326.30
489.72	327.00
490.08	327.50
490.44	328.22
490.81	328.95
491.17	329.56
491.54	330.43
491.90	331.26
492.26	332.25
492.63	333.08
492.99	333.99
493.36	335.15
493.72	336.06
494.08	337.05
494.45	338.18
494.81	339.31
495.17	340.49
495.54	341.68
495.90	342.83
496.26	344.05
496.63	345.26
496.99	346.40
497.35	347.67
497.72	349.16
498.08	350.45
498.44	351.71
498.80	353.23
499.17	354.51
499.53	355.84
499.89	357.09
500.26	358.47
500.62	359.81
500.98	361.07
501.34	362.37
501.71	363.72
502.07	364.90
502.43	366.10
502.79	367.10
503.16	368.20
503.52	369.40
503.88	370.24
504.24	371.33
504.60	372.45
504.97	373.55
505.33	374.50
505.69	375.50
506.05	376.45
506.41	377.31
506.78	378.09
507.14	378.89
507.50	379.67
507.86	380.52
508.22	381.17
508.59	381.59
508.95	382.29
509.31	382.94
509.67	383.60
510.03	384.16
510.39	384.83
510.75	385.31
511.12	385.71
511.48	386.30
511.84	386.72
512.20	386.96
512.56	387.30
512.92	387.61
513.28	387.82
513.64	388.14
514.00	388.34
514.37	388.51
514.73	388.96
515.09	389.09
515.45	389.28
515.81	389.36
516.17	389.58
516.53	389.62
516.89	389.70
517.25	389.73
517.61	389.82
517.97	389.91
518.33	390.08
518.69	390.12
519.05	390.14
519.41	390.38
519.77	390.73
520.13	390.85
520.49	390.96
520.85	391.06
521.21	391.36
521.57	391.68
521.93	392.02
522.29	392.27
522.65	392.68
523.01	392.92
523.37	393.31
523.73	393.95
524.09	394.42
524.45	394.96
524.81	395.66
525.17	396.50
525.53	397.35
525.89	398.04
526.25	399.03
526.61	399.94
526.97	400.78
527.33	401.70
527.68	402.75
528.04	403.97
528.40	405.26
528.76	406.56
529.12	407.77
529.48	409.21
529.84	410.42
530.20	411.83
530.56	413.63
530.91	415.61
531.27	417.38
531.63	419.10
531.99	421.02
532.35	422.88
532.71	424.79
533.07	426.88
533.42	429.25
533.78	431.54
534.14	433.84
534.50	436.22
534.86	438.83
535.21	441.37
535.57	443.84
535.93	446.48
536.29	449.10
536.65	452.07
537.00	454.96
537.36	457.96
537.72	461.05
538.08	463.99
538.44	467.01
538.79	470.03
539.15	473.25
539.51	476.56
539.87	480.04
540.22	483.47
540.58	486.89
540.94	490.34
541.29	493.59
541.65	497.32
542.01	501.07
542.37	504.68
542.72	508.43
543.08	512.24
543.44	516.09
543.79	519.67
544.15	523.36
544.51	527.34
544.87	531.39
545.22	535.51
545.58	539.45
545.94	543.24
546.29	547.30
546.65	551.72
547.01	555.62
547.36	559.82
547.72	563.83
548.07	567.97
548.43	571.91
548.79	576.32
549.14	580.35
549.50	584.41
549.86	588.55
550.21	592.67
550.57	597.04
550.92	601.27
551.28	605.69
551.64	610.09
551.99	614.27
552.35	618.41
552.70	622.63
553.06	627.07
553.41	631.59
553.77	635.99
554.13	640.18
554.48	644.72
554.84	648.92
555.19	653.31
555.55	657.57
555.90	662.10
556.26	666.19
556.61	670.70
556.97	674.93
557.32	679.25
557.68	683.69
558.03	687.99
558.39	692.23
558.74	696.55
559.10	700.88
559.45	705.19
559.81	709.78
560.16	713.83
560.52	717.98
560.87	721.99
561.23	725.82
561.58	729.92
561.94	733.75
562.29	737.55
562.64	741.26
563.00	745.13
563.35	748.93
563.71	753.14
564.06	757.09
564.42	760.75
564.77	764.63
565.12	768.46
565.48	772.29
565.83	775.52
566.19	779.18
566.54	782.68
566.89	786.02
567.25	789.17
567.60	792.79
567.96	796.17
568.31	799.64
568.66	803.00
569.02	805.95
569.37	809.17
569.72	812.57
570.08	815.59
570.43	818.56
570.78	821.39
571.14	824.07
571.49	826.53
571.84	829.74
572.20	832.50
572.55	835.00
572.90	836.93
573.26	839.89
573.61	842.31
573.96	844.41
574.31	846.46
574.67	848.14
575.02	849.83
575.37	851.48
575.72	852.77
576.08	854.52
576.43	856.29
576.78	858.16
577.13	859.65
577.49	861.40
577.84	862.78
578.19	864.22
578.54	865.40
578.90	866.61
579.25	867.29
579.60	867.86
579.95	868.60
580.30	869.42
580.66	869.99
581.01	870.66
581.36	871.32
581.71	872.01
582.06	873.21
582.42	873.76
582.77	874.30
583.12	874.92
583.47	875.36
583.82	875.97
584.17	876.09
584.53	876.25
584.88	876.34
585.23	876.79
585.58	877.00
585.93	877.19
586.28	877.57
586.63	877.98
586.98	878.08
587.34	878.34
587.69	878.79
588.04	878.80
588.39	878.76
588.74	878.47
589.09	878.45
589.44	877.91
589.79	877.64
590.14	877.73
590.49	877.48
590.84	877.02
591.19	876.48
591.54	875.64
591.89	874.76
592.25	874.14
592.60	873.07
592.95	872.05
593.30	870.97
593.65	869.81
594.00	868.76
594.35	868.42
594.70	867.09
595.05	865.85
595.40	864.78
595.75	863.68
596.10	862.85
596.45	862.01
596.80	861.03
597.15	860.26
597.50	858.69
597.85	857.76
598.19	856.78
598.54	855.78
598.89	854.87
599.24	854.14
599.59	852.88
599.94	852.07
600.29	850.83
600.64	849.68
600.99	847.87
601.34	846.65
601.69	844.83
602.04	843.47
602.39	842.01
602.74	840.90
603.08	839.65
603.43	838.30
603.78	836.46
604.13	835.06
604.48	833.36
604.83	832.18
605.18	830.71
605.53	828.88
605.87	826.44
606.22	824.64
606.57	822.89
606.92	821.08
607.27	819.43
607.62	818.02
607.96	816.36
608.31	815.27
608.66	813.02
609.01	810.88
609.36	808.83
609.70	806.66
610.05	804.17
610.40	801.81
610.75	799.51
611.10	797.28
611.44	794.60
611.79	792.54
612.14	789.84
612.49	787.10
612.83	784.70
613.18	782.90
613.53	780.35
613.88	777.67
614.22	775.28
614.57	772.11
614.92	769.39
615.27	767.02
615.61	763.99
615.96	761.53
616.31	759.23
616.65	757.16
617.00	754.75
617.35	752.55
617.70	750.02
618.04	747.33
618.39	744.87
618.74	742.75
619.08	739.58
619.43	737.33
619.78	734.93
620.12	732.44
620.47	729.59
620.82	726.93
621.16	724.36
621.51	721.94
621.85	719.63
622.20	717.08
622.55	714.33
622.89	712.04
623.24	709.77
623.59	707.13
623.93	704.68
624.28	702.52
624.62	699.94
624.97	697.68
625.32	695.40
625.66	692.95
626.01	690.14
626.35	687.90
626.70	685.28
627.04	682.90
627.39	680.30
627.73	677.86
628.08	675.50
628.43	672.96
628.77	670.20
629.12	667.55
629.46	664.96
629.81	662.28
630.15	659.68
630.50	656.91
630.84	654.14
631.19	651.16
631.53	648.19
631.88	645.20
632.22	642.14
632.57	639.53
632.91	636.79
633.26	634.20
633.60	631.58
633.95	628.93
634.29	626.19
634.64	623.86
634.98	621.20
635.32	618.58
635.67	616.33
636.01	613.99
636.36	611.50
636.70	609.15
637.05	606.92
637.39	604.50
637.73	602.32
638.08	600.34
638.42	598.18
638.77	595.96
639.11	593.70
639.45	591.41
639.80	588.84
640.14	586.54
640.49	584.11
640.83	581.82
641.17	579.53
641.52	577.38
641.86	574.76
642.20	572.82
642.55	570.57
642.89	568.16
643.23	565.85
643.58	563.71
643.92	561.22
644.26	558.71
644.61	556.46
644.95	554.06
645.29	551.37
645.64	548.90
645.98	546.52
646.32	544.26
646.66	541.91
647.01	539.53
647.35	537.30
647.69	535.13
648.04	532.94
648.38	530.66
648.72	528.07
649.06	525.67
649.41	523.09
649.75	520.71
650.09	518.53
650.43	516.11
650.78	513.50
651.12	511.30
651.46	509.12
651.80	506.80
652.14	504.46
652.49	502.36
652.83	500.13
653.17	497.90
653.51	495.59
653.85	493.38
654.20	491.35
654.54	488.81
654.88	486.47
655.22	484.07
655.56	481.62
655.90	479.31
656.25	477.41
656.59	475.17
656.93	473.24
657.27	470.94
657.61	468.78
657.95	467.20
658.29	464.97
658.64	462.85
658.98	460.60
659.32	458.40
659.66	456.42
660.00	454.28
660.34	452.09
660.68	450.06
661.02	447.83
661.36	445.76
661.70	443.92
662.05	442.16
662.39	440.31
662.73	438.57
663.07	436.92
663.41	434.89
663.75	433.15
664.09	431.26
664.43	429.15
664.77	427.49
665.11	425.27
665.45	423.50
665.79	421.67
666.13	419.90
666.47	418.07
666.81	415.95
667.15	414.06
667.49	412.31
667.83	410.66
668.17	409.00
668.51	407.22
668.85	405.42
669.19	403.70
669.53	401.94
669.87	400.12
670.21	398.53
670.55	396.83
670.89	395.36
671.23	393.70
671.57	392.31
671.91	390.67
672.25	389.15
672.58	387.76
672.92	386.27
673.26	384.96
673.60	383.68
673.94	382.51
674.28	381.36
674.62	380.22
674.96	378.74
675.30	377.51
675.64	376.21
675.97	374.99
676.31	373.60
676.65	372.35
676.99	371.17
677.33	369.73
677.67	368.59
678.01	367.05
678.34	365.80
678.68	364.56
679.02	363.35
679.36	362.09
679.70	360.90
680.04	359.65
680.37	358.36
680.71	357.03
681.05	355.88
681.39	354.53
681.73	353.33
682.06	352.22
682.40	351.04
682.74	350.00
683.08	349.04
683.42	347.78
683.75	346.74
684.09	345.64
684.43	344.60
684.77	343.46
685.10	342.49
685.44	341.47
685.78	340.37
686.12	339.32
686.45	338.42
686.79	337.36
687.13	336.41
687.46	335.31
687.80	334.37
688.14	333.13
688.48	332.12
688.81	330.95
689.15	329.98
689.49	329.02
689.82	327.86
690.16	326.79
690.50	326.04
690.83	325.00
691.17	324.01
691.51	322.91
691.84	321.95
692.18	320.97
692.52	319.85
692.85	318.95
693.19	318.04
693.52	317.00
693.86	315.87
694.20	314.86
694.53	313.99
694.87	312.98
695.21	312.19
695.54	311.24
695.88	310.35
696.21	309.50
696.55	308.56
696.88	307.80
697.22	306.95
697.56	306.07
697.89	305.29
698.23	304.26
698.56	303.46
698.90	302.68
699.23	301.80
699.57	301.10
699.90	300.07
700.24	299.15
700.58	298.26
700.91	297.50
701.25	296.85
701.58	296.30
701.92	295.65
702.25	294.86
702.59	294.25
702.92	293.66
703.26	292.93
703.59	292.36
703.93	291.80
704.26	291.10
704.60	290.32
704.93	289.45
705.26	289.06
705.60	288.48
705.93	287.83
706.27	287.27
706.60	286.74
706.94	286.30
707.27	285.68
707.61	285.18
707.94	284.72
708.27	283.96
708.61	283.13
708.94	282.60
709.28	282.04
709.61	281.52
709.94	280.95
710.28	280.45
710.61	279.86
710.95	279.16
711.28	278.67
711.61	278.13
711.95	277.77
712.28	277.10
712.61	276.62
712.95	276.15
713.28	275.71
713.61	275.07
713.95	274.56
714.28	274.10
714.61	273.61
714.95	273.08
715.28	272.47
715.61	272.06
715.95	271.52
716.28	271.13
716.61	270.62
716.95	270.17
717.28	269.62
717.61	269.20
717.94	268.78
718.28	268.20
718.61	267.91
718.94	267.45
719.27	266.99
719.61	266.49
719.94	266.08
720.27	265.54
720.60	265.26
720.94	264.93
721.27	264.51
721.60	264.22
721.93	263.77
722.27	263.70
722.60	263.30
722.93	262.89
723.26	262.54
723.59	262.18
723.93	261.87
724.26	261.62
724.59	261.32
724.92	261.00
725.25	260.70
725.59	260.22
725.92	259.89
726.25	259.61
726.58	259.31
726.91	259.04
727.24	258.85
727.57	258.58
727.91	258.17
728.24	257.90
728.57	257.53
728.90	257.31
729.23	256.90
729.56	256.69
729.89	256.42
730.22	256.04
730.55	255.71
730.89	255.37
731.22	254.99
731.55	254.66
731.88	254.30
732.21	254.02
732.54	253.82
732.87	253.46
733.20	253.18
733.53	252.83
733.86	252.48
734.19	252.16
734.52	251.75
734.85	251.59
735.18	251.27
735.51	251.17
735.84	250.91
736.17	250.72
736.50	250.34
736.83	250.37
737.16	250.10
737.49	249.83
737.82	249.52
738.15	249.26
738.48	248.84
738.81	248.62
739.14	248.36
739.47	247.97
739.80	247.80
740.13	247.68
740.46	247.52
740.79	247.25
741.12	247.02
741.45	246.90
741.78	246.58
742.11	246.45
742.44	246.04
742.77	245.85
743.10	245.55
743.43	245.29
743.75	244.68
744.08	244.85
744.41	244.70
744.74	244.53
745.07	244.34
745.40	244.16
745.73	244.06
746.06	244.00
746.39	244.01
746.71	243.84
747.04	243.61
747.37	243.40
747.70	243.23
748.03	243.06
748.36	242.87
748.68	242.78
749.01	242.60
749.34	242.50
749.67	242.27
750.00	242.12
750.33	242.23
750.65	242.22
750.98	241.72
751.31	241.63
751.64	241.40
751.97	241.42
752.29	241.47
752.62	241.31
752.95	241.04
753.28	240.90
753.60	240.84
753.93	240.78
754.26	240.73
754.59	240.64
754.91	240.50
755.24	240.34
755.57	240.14
755.90	239.94
756.22	239.79
756.55	239.70
756.88	239.49
757.20	239.23
757.53	239.04
757.86	238.98
758.19	238.89
758.51	238.83
758.84	238.63
759.17	238.52
759.49	238.47
759.82	238.54
760.15	238.48
760.47	238.41
760.80	238.15
761.13	238.09
761.45	237.97
761.78	237.92
762.11	237.90
762.43	237.96
762.76	237.98
763.08	237.95
763.41	237.92
763.74	237.99
764.06	238.01
764.39	237.93
764.71	237.92
765.04	237.82
765.37	237.78
765.69	237.71
766.02	237.62
766.34	237.55
766.67	237.43
767.00	237.45
767.32	237.35
767.65	237.43
767.97	237.39
768.30	237.34
768.62	237.24
768.95	237.08
769.27	236.80
769.60	236.67
769.92	236.61
770.25	236.46
770.57	236.32
770.90	236.19
771.22	236.20
771.55	236.04
771.87	235.85
772.20	235.73
772.52	235.79
772.85	235.90
773.17	235.75
773.50	235.59
773.82	235.35
774.15	235.17
774.47	235.05
774.80	234.94
775.12	234.86
775.45	234.80
775.77	234.70
776.09	234.77
776.42	234.67
776.74	234.65
777.07	234.57
777.39	234.49
777.72	234.43
778.04	234.37
778.36	234.38
778.69	234.33
779.01	234.32
779.33	234.10
779.66	233.86
779.98	233.67
780.31	233.56
780.63	233.56
780.95	233.53
781.28	233.48
781.60	233.37
781.92	233.25
782.25	233.24
782.57	233.28
782.89	233.18
783.22	233.16
783.54	233.09
783.86	233.13
784.19	233.05
784.51	232.99
784.83	232.85
785.16	232.71
785.48	232.68
785.80	232.58
786.12	232.53
786.45	232.37
786.77	232.41
787.09	232.32
787.42	232.25
787.74	232.27
788.06	232.17
788.38	232.07
788.71	232.05
789.03	231.99
789.35	231.99
789.67	231.86
789.99	231.82
790.32	231.69
790.64	231.61
790.96	231.77
791.28	231.65
791.61	231.66
791.93	231.60
792.25	231.59
792.57	231.76
792.89	231.49
793.21	231.59
793.54	231.55
793.86	231.53
794.18	231.56
