SpectraSuite Data File
++++++++++++++++++++++++++++++++++++
Date: Fri Feb 01 14:38:50 EST 2013
User: group
Dark Spectrum Present: No
Reference Spectrum Present: No
Number of Sampled Component Spectra: 1
Spectrometers: USB2E7196
Integration Time (usec): 70000 (USB2E7196)
Spectra Averaged: 10 (USB2E7196)
Boxcar Smoothing: 10 (USB2E7196)
Correct for Electrical Dark: No (USB2E7196)
Strobe/Lamp Enabled: No (USB2E7196)
Correct for Detector Non-linearity: No (USB2E7196)
Correct for Stray Light: No (USB2E7196)
Number of Pixels in Processed Spectrum: 2048
>>>>>Begin Processed Spectral Data<<<<<
339.09	0.00
339.48	216.90
339.86	216.90
340.24	220.20
340.63	219.40
341.01	224.50
341.39	221.70
341.78	224.70
342.16	226.50
342.54	226.20
342.93	214.65
343.31	225.48
343.69	226.01
344.07	226.52
344.46	226.81
344.84	227.25
345.22	227.44
345.60	227.73
345.99	227.93
346.37	228.00
346.75	228.02
347.13	228.04
347.52	227.98
347.90	228.08
348.28	227.92
348.66	227.91
349.05	227.77
349.43	227.71
349.81	227.83
350.19	227.81
350.57	227.92
350.96	228.04
351.34	228.09
351.72	228.19
352.10	228.23
352.48	228.37
352.87	228.33
353.25	228.39
353.63	228.42
354.01	228.41
354.39	228.48
354.77	228.59
355.15	228.70
355.54	228.73
355.92	228.70
356.30	228.80
356.68	229.01
357.06	229.11
357.44	229.19
357.82	229.14
358.20	229.27
358.58	229.33
358.97	229.34
359.35	229.36
359.73	229.32
360.11	229.35
360.49	229.35
360.87	229.41
361.25	229.48
361.63	229.62
362.01	229.76
362.39	229.84
362.77	229.96
363.15	229.97
363.53	230.04
363.91	230.09
364.29	230.17
364.67	230.04
365.05	230.10
365.43	230.16
365.81	230.20
366.19	230.25
366.57	230.30
366.95	230.33
367.33	230.29
367.71	230.30
368.09	230.38
368.47	230.50
368.85	230.55
369.23	230.50
369.61	230.39
369.99	230.33
370.37	230.25
370.75	230.27
371.13	230.19
371.51	230.08
371.89	230.10
372.27	230.09
372.65	230.01
373.03	229.96
373.41	229.86
373.78	229.82
374.16	229.67
374.54	229.52
374.92	229.40
375.30	229.40
375.68	229.34
376.06	229.18
376.44	229.00
376.82	228.87
377.19	228.72
377.57	228.67
377.95	228.51
378.33	228.37
378.71	228.17
379.09	228.18
379.47	228.15
379.84	228.11
380.22	227.98
380.60	227.93
380.98	227.76
381.36	227.59
381.73	227.42
382.11	227.33
382.49	227.30
382.87	227.20
383.25	227.18
383.62	227.27
384.00	227.16
384.38	227.08
384.76	227.04
385.13	227.14
385.51	227.07
385.89	226.99
386.27	226.96
386.64	226.89
387.02	226.80
387.40	226.68
387.78	226.52
388.15	226.45
388.53	226.32
388.91	226.32
389.29	226.23
389.66	226.35
390.04	226.34
390.42	226.31
390.79	226.26
391.17	226.16
391.55	225.89
391.92	225.94
392.30	225.90
392.68	225.87
393.05	225.71
393.43	225.74
393.81	225.77
394.18	225.69
394.56	225.73
394.94	225.68
395.31	225.73
395.69	225.85
396.06	225.91
396.44	226.03
396.82	226.16
397.19	226.43
397.57	226.40
397.95	226.50
398.32	226.50
398.70	226.57
399.07	226.72
399.45	226.92
399.82	226.97
400.20	226.96
400.58	227.00
400.95	227.03
401.33	227.10
401.70	227.32
402.08	227.53
402.45	227.50
402.83	227.67
403.20	227.71
403.58	227.83
403.95	227.95
404.33	228.07
404.71	228.21
405.08	228.40
405.46	228.58
405.83	228.68
406.21	228.90
406.58	229.14
406.96	229.38
407.33	229.53
407.70	229.78
408.08	230.24
408.45	230.60
408.83	231.05
409.20	231.27
409.58	231.49
409.95	231.78
410.33	232.21
410.70	232.51
411.08	232.90
411.45	233.23
411.82	233.54
412.20	233.98
412.57	234.40
412.95	234.70
413.32	235.08
413.69	235.55
414.07	236.06
414.44	236.53
414.82	237.03
415.19	237.58
415.56	238.21
415.94	238.92
416.31	239.60
416.68	240.24
417.06	241.11
417.43	241.90
417.81	242.79
418.18	243.77
418.55	244.62
418.93	245.68
419.30	246.65
419.67	247.76
420.04	248.86
420.42	250.00
420.79	251.47
421.16	252.85
421.54	254.25
421.91	255.66
422.28	257.23
422.66	258.83
423.03	260.59
423.40	262.16
423.77	263.77
424.15	265.55
424.52	267.35
424.89	269.25
425.26	271.06
425.64	272.84
426.01	274.78
426.38	276.87
426.75	278.93
427.13	281.13
427.50	283.39
427.87	285.59
428.24	288.03
428.61	290.16
428.99	292.69
429.36	295.27
429.73	297.89
430.10	300.48
430.47	303.02
430.85	305.54
431.22	308.47
431.59	311.49
431.96	314.37
432.33	317.53
432.70	320.59
433.08	324.19
433.45	327.63
433.82	331.04
434.19	334.71
434.56	338.15
434.93	341.47
435.30	344.94
435.68	348.73
436.05	352.27
436.42	355.81
436.79	358.93
437.16	362.58
437.53	366.22
437.90	369.90
438.27	373.58
438.64	377.30
439.01	380.64
439.38	383.60
439.75	386.49
440.13	389.71
440.50	392.85
440.87	395.69
441.24	398.30
441.61	401.25
441.98	403.50
442.35	406.10
442.72	408.80
443.09	411.25
443.46	412.84
443.83	413.84
444.20	414.82
444.57	416.45
444.94	416.90
445.31	417.71
445.68	418.52
446.05	418.94
446.42	418.74
446.79	418.65
447.16	418.52
447.53	418.34
447.90	417.26
448.27	416.10
448.64	414.06
449.01	412.94
449.37	410.56
449.74	408.40
450.11	406.05
450.48	403.13
450.85	400.26
451.22	397.84
451.59	395.60
451.96	393.31
452.33	389.91
452.70	387.22
453.07	383.73
453.43	380.08
453.80	376.61
454.17	373.39
454.54	370.17
454.91	366.65
455.28	363.29
455.65	360.20
456.02	357.26
456.38	354.56
456.75	351.20
457.12	348.43
457.49	345.61
457.86	342.73
458.23	340.50
458.59	337.93
458.96	335.25
459.33	332.72
459.70	330.38
460.07	328.59
460.43	326.37
460.80	324.18
461.17	322.37
461.54	320.37
461.91	318.50
462.27	316.61
462.64	314.90
463.01	313.16
463.38	311.44
463.74	309.57
464.11	308.12
464.48	306.73
464.85	305.31
465.21	304.11
465.58	302.71
465.95	301.20
466.32	299.89
466.68	298.54
467.05	297.44
467.42	296.21
467.78	294.96
468.15	293.84
468.52	293.09
468.88	291.90
469.25	290.92
469.62	290.00
469.98	289.06
470.35	288.20
470.72	287.28
471.08	286.29
471.45	285.42
471.82	284.60
472.18	283.63
472.55	282.89
472.92	282.10
473.28	281.41
473.65	280.63
474.02	279.99
474.38	279.47
474.75	278.96
475.11	278.41
475.48	277.86
475.85	277.38
476.21	276.79
476.58	276.21
476.94	275.91
477.31	275.42
477.67	274.93
478.04	274.55
478.41	274.24
478.77	274.11
479.14	273.70
479.50	273.41
479.87	273.19
480.23	272.85
480.60	272.55
480.96	272.29
481.33	272.18
481.69	271.91
482.06	271.63
482.42	271.32
482.79	271.06
483.15	270.87
483.52	270.72
483.88	270.61
484.25	270.53
484.61	270.21
484.98	270.19
485.34	270.22
485.71	270.29
486.07	270.22
486.44	269.98
486.80	269.99
487.17	270.04
487.53	270.22
487.90	270.39
488.26	270.43
488.62	270.58
488.99	270.67
489.35	270.62
489.72	270.80
490.08	271.01
490.44	271.23
490.81	271.45
491.17	271.51
491.54	271.59
491.90	271.80
492.26	272.09
492.63	272.26
492.99	272.50
493.36	272.62
493.72	273.01
494.08	273.30
494.45	273.73
494.81	273.94
495.17	274.10
495.54	274.40
495.90	274.84
496.26	275.16
496.63	275.39
496.99	275.82
497.35	276.18
497.72	276.55
498.08	276.75
498.44	277.17
498.80	277.58
499.17	277.99
499.53	278.36
499.89	278.69
500.26	279.09
500.62	279.40
500.98	279.86
501.34	280.15
501.71	280.66
502.07	280.93
502.43	281.25
502.79	281.64
503.16	281.99
503.52	282.36
503.88	282.83
504.24	283.32
504.60	283.79
504.97	284.18
505.33	284.61
505.69	285.40
506.05	285.85
506.41	286.43
506.78	286.92
507.14	287.42
507.50	288.14
507.86	288.69
508.22	289.35
508.59	289.97
508.95	290.77
509.31	291.53
509.67	292.43
510.03	293.27
510.39	294.14
510.75	295.13
511.12	296.11
511.48	297.00
511.84	297.97
512.20	299.16
512.56	300.26
512.92	301.35
513.28	302.42
513.64	303.68
514.00	305.08
514.37	306.58
514.73	308.05
515.09	309.57
515.45	311.21
515.81	312.97
516.17	314.78
516.53	316.59
516.89	318.34
517.25	320.30
517.61	322.40
517.97	324.50
518.33	326.64
518.69	328.84
519.05	331.18
519.41	333.66
519.77	336.16
520.13	338.75
520.49	341.32
520.85	343.94
521.21	346.99
521.57	349.92
521.93	352.89
522.29	355.98
522.65	359.13
523.01	362.32
523.37	365.33
523.73	368.67
524.09	371.95
524.45	375.41
524.81	378.98
525.17	382.72
525.53	386.57
525.89	390.47
526.25	394.45
526.61	398.40
526.97	402.62
527.33	406.88
527.68	411.41
528.04	415.84
528.40	420.37
528.76	424.69
529.12	429.38
529.48	434.09
529.84	438.93
530.20	443.72
530.56	448.89
530.91	454.32
531.27	459.55
531.63	464.91
531.99	470.29
532.35	475.45
532.71	480.66
533.07	486.26
533.42	491.88
533.78	497.40
534.14	503.34
534.50	508.95
534.86	514.50
535.21	520.20
535.57	526.27
535.93	532.14
536.29	538.45
536.65	544.39
537.00	550.70
537.36	556.82
537.72	562.98
538.08	569.00
538.44	575.06
538.79	581.48
539.15	587.74
539.51	594.02
539.87	600.72
540.22	607.08
540.58	613.44
540.94	619.71
541.29	626.15
541.65	632.48
542.01	639.03
542.37	645.85
542.72	652.27
543.08	658.79
543.44	665.40
543.79	671.61
544.15	678.36
544.51	684.92
544.87	691.58
545.22	698.30
545.58	704.99
545.94	711.37
546.29	717.72
546.65	724.10
547.01	730.71
547.36	736.97
547.72	743.52
548.07	749.90
548.43	756.24
548.79	762.64
549.14	768.87
549.50	774.85
549.86	780.65
550.21	786.55
550.57	792.59
550.92	798.54
551.28	804.86
551.64	810.83
551.99	816.81
552.35	822.60
552.70	828.46
553.06	834.37
553.41	840.52
553.77	846.65
554.13	852.81
554.48	858.75
554.84	864.70
555.19	870.40
555.55	876.05
555.90	881.80
556.26	887.27
556.61	892.82
556.97	898.35
557.32	904.00
557.68	909.79
558.03	915.25
558.39	920.76
558.74	926.17
559.10	931.42
559.45	936.52
559.81	942.06
560.16	947.15
560.52	952.00
560.87	957.09
561.23	961.63
561.58	966.64
561.94	971.13
562.29	975.53
562.64	980.28
563.00	984.74
563.35	989.61
563.71	994.48
564.06	999.16
564.42	1003.87
564.77	1008.40
565.12	1013.13
565.48	1017.62
565.83	1021.98
566.19	1025.91
566.54	1029.85
566.89	1033.75
567.25	1037.59
567.60	1041.73
567.96	1045.88
568.31	1049.60
568.66	1053.07
569.02	1056.47
569.37	1059.83
569.72	1063.44
570.08	1066.47
570.43	1069.99
570.78	1072.87
571.14	1075.68
571.49	1078.34
571.84	1081.48
572.20	1084.12
572.55	1086.39
572.90	1088.93
573.26	1091.19
573.61	1093.42
573.96	1095.41
574.31	1097.00
574.67	1098.63
575.02	1100.04
575.37	1101.80
575.72	1103.09
576.08	1104.66
576.43	1105.82
576.78	1107.50
577.13	1108.73
577.49	1110.36
577.84	1111.61
578.19	1112.43
578.54	1113.12
578.90	1113.90
579.25	1113.99
579.60	1114.80
579.95	1115.20
580.30	1115.12
580.66	1115.34
581.01	1115.52
581.36	1116.07
581.71	1116.85
582.06	1116.98
582.42	1117.03
582.77	1116.65
583.12	1116.43
583.47	1116.83
583.82	1116.90
584.17	1116.66
584.53	1116.55
584.88	1116.15
585.23	1115.55
585.58	1115.49
585.93	1115.12
586.28	1114.91
586.63	1114.84
586.98	1114.29
587.34	1114.20
587.69	1113.70
588.04	1113.30
588.39	1113.21
588.74	1112.08
589.09	1111.08
589.44	1109.93
589.79	1109.31
590.14	1108.64
590.49	1107.90
590.84	1106.52
591.19	1105.31
591.54	1103.97
591.89	1102.01
592.25	1100.93
592.60	1099.09
592.95	1097.24
593.30	1095.48
593.65	1093.65
594.00	1091.89
594.35	1090.40
594.70	1087.95
595.05	1086.42
595.40	1084.42
595.75	1081.83
596.10	1080.27
596.45	1078.55
596.80	1077.33
597.15	1075.61
597.50	1073.39
597.85	1071.77
598.19	1070.00
598.54	1068.11
598.89	1066.04
599.24	1064.90
599.59	1062.75
599.94	1061.01
600.29	1058.84
600.64	1057.12
600.99	1054.71
601.34	1052.39
601.69	1049.88
602.04	1047.96
602.39	1045.92
602.74	1044.00
603.08	1042.28
603.43	1040.31
603.78	1038.34
604.13	1035.77
604.48	1033.09
604.83	1031.16
605.18	1028.59
605.53	1026.03
605.87	1023.31
606.22	1021.15
606.57	1018.21
606.92	1015.63
607.27	1013.37
607.62	1011.30
607.96	1008.83
608.31	1006.43
608.66	1003.90
609.01	1000.82
609.36	997.63
609.70	994.06
610.05	990.70
610.40	987.54
610.75	984.08
611.10	980.54
611.44	977.00
611.79	974.09
612.14	970.67
612.49	966.85
612.83	963.36
613.18	959.76
613.53	956.10
613.88	952.44
614.22	948.86
614.57	945.04
614.92	941.12
615.27	937.76
615.61	934.42
615.96	930.62
616.31	927.72
616.65	925.04
617.00	922.15
617.35	918.95
617.70	915.35
618.04	911.80
618.39	908.47
618.74	905.26
619.08	901.53
619.43	897.98
619.78	895.07
620.12	891.70
620.47	888.64
620.82	884.96
621.16	881.66
621.51	878.49
621.85	874.77
622.20	871.35
622.55	867.63
622.89	864.31
623.24	861.14
623.59	857.57
623.93	854.00
624.28	850.46
624.62	846.97
624.97	843.67
625.32	840.38
625.66	837.07
626.01	833.74
626.35	830.32
626.70	826.98
627.04	823.64
627.39	819.95
627.73	816.40
628.08	813.24
628.43	809.89
628.77	806.31
629.12	803.05
629.46	799.79
629.81	796.10
630.15	792.29
630.50	788.58
630.84	784.47
631.19	780.50
631.53	776.95
631.88	773.30
632.22	769.46
632.57	766.03
632.91	762.05
633.26	758.49
633.60	754.90
633.95	751.41
634.29	747.73
634.64	744.49
634.98	740.77
635.32	737.48
635.67	734.24
636.01	730.77
636.36	727.35
636.70	723.89
637.05	720.88
637.39	717.85
637.73	714.52
638.08	711.79
638.42	708.81
638.77	705.60
639.11	702.37
639.45	699.40
639.80	695.98
640.14	693.09
640.49	689.95
640.83	686.52
641.17	683.27
641.52	679.90
641.86	676.58
642.20	673.87
642.55	670.52
642.89	667.17
643.23	663.81
643.58	661.12
643.92	657.88
644.26	654.59
644.61	651.32
644.95	648.52
645.29	644.91
645.64	641.52
645.98	638.42
646.32	635.34
646.66	631.89
647.01	628.88
647.35	625.71
647.69	622.60
648.04	619.79
648.38	616.48
648.72	613.16
649.06	609.97
649.41	606.59
649.75	603.37
650.09	600.22
650.43	597.08
650.78	593.56
651.12	590.32
651.46	587.47
651.80	584.58
652.14	581.47
652.49	578.71
652.83	575.88
653.17	572.66
653.51	569.49
653.85	566.81
654.20	563.68
654.54	560.51
654.88	557.21
655.22	553.88
655.56	550.88
655.90	548.19
656.25	545.45
656.59	542.70
656.93	539.95
657.27	537.18
657.61	534.49
657.95	531.73
658.29	529.03
658.64	526.18
658.98	523.08
659.32	520.01
659.66	517.19
660.00	514.38
660.34	511.59
660.68	509.01
661.02	505.96
661.36	503.47
661.70	500.86
662.05	498.51
662.39	496.30
662.73	493.82
663.07	491.40
663.41	488.83
663.75	486.30
664.09	483.73
664.43	481.30
664.77	478.80
665.11	476.45
665.45	474.22
665.79	471.76
666.13	469.47
666.47	467.19
666.81	464.91
667.15	462.54
667.49	460.30
667.83	458.06
668.17	455.95
668.51	453.65
668.85	451.54
669.19	449.40
669.53	447.26
669.87	445.13
670.21	442.93
670.55	440.90
670.89	438.97
671.23	437.04
671.57	435.01
671.91	433.08
672.25	431.11
672.58	429.06
672.92	427.05
673.26	425.24
673.60	423.42
673.94	421.65
674.28	419.80
674.62	418.22
674.96	416.30
675.30	414.68
675.64	412.99
675.97	411.30
676.31	409.51
676.65	407.69
676.99	406.18
677.33	404.51
677.67	402.76
678.01	400.98
678.34	399.32
678.68	397.70
679.02	396.00
679.36	394.33
679.70	392.75
680.04	391.03
680.37	389.38
680.71	387.76
681.05	386.09
681.39	384.63
681.73	382.87
682.06	381.45
682.40	379.95
682.74	378.38
683.08	376.92
683.42	375.33
683.75	373.90
684.09	372.15
684.43	370.65
684.77	369.17
685.10	367.70
685.44	366.33
685.78	364.81
686.12	363.46
686.45	361.88
686.79	360.41
687.13	359.18
687.46	357.79
687.80	356.45
688.14	355.16
688.48	353.74
688.81	352.32
689.15	351.14
689.49	349.83
689.82	348.63
690.16	347.25
690.50	346.16
690.83	344.88
691.17	343.71
691.51	342.46
691.84	341.38
692.18	340.20
692.52	338.79
692.85	337.67
693.19	336.46
693.52	335.38
693.86	334.17
694.20	333.05
694.53	332.04
694.87	330.97
695.21	329.89
695.54	328.74
695.88	327.61
696.21	326.40
696.55	325.24
696.88	324.04
697.22	322.93
697.56	321.94
697.89	320.87
698.23	319.86
698.56	318.88
698.90	317.92
699.23	316.77
699.57	315.80
699.90	314.81
700.24	313.96
700.58	313.08
700.91	312.28
701.25	311.41
701.58	310.51
701.92	309.65
702.25	308.69
702.59	307.98
702.92	307.30
703.26	306.44
703.59	305.62
703.93	305.00
704.26	304.31
704.60	303.45
704.93	302.67
705.26	301.90
705.60	301.14
705.93	300.38
706.27	299.71
706.60	299.06
706.94	298.28
707.27	297.44
707.61	296.71
707.94	295.86
708.27	295.01
708.61	294.23
708.94	293.51
709.28	292.77
709.61	292.07
709.94	291.40
710.28	290.78
710.61	290.24
710.95	289.36
711.28	288.80
711.61	287.98
711.95	287.38
712.28	286.60
712.61	285.85
712.95	285.06
713.28	284.54
713.61	283.84
713.95	283.17
714.28	282.52
714.61	281.89
714.95	281.34
715.28	280.71
715.61	280.08
715.95	279.52
716.28	278.99
716.61	278.42
716.95	277.73
717.28	277.16
717.61	276.50
717.94	275.95
718.28	275.26
718.61	274.71
718.94	274.06
719.27	273.72
719.61	273.38
719.94	273.01
720.27	272.43
720.60	271.93
720.94	271.46
721.27	271.04
721.60	270.63
721.93	270.15
722.27	269.80
722.60	269.43
722.93	268.84
723.26	268.40
723.59	267.86
723.93	267.49
724.26	267.08
724.59	266.60
724.92	266.20
725.25	265.85
725.59	265.49
725.92	265.32
726.25	264.84
726.58	264.36
726.91	263.94
727.24	263.53
727.57	263.10
727.91	262.75
728.24	262.44
728.57	262.04
728.90	261.84
729.23	261.46
729.56	261.04
729.89	260.83
730.22	260.51
730.55	260.15
730.89	259.87
731.22	259.52
731.55	259.27
731.88	259.00
732.21	258.56
732.54	258.25
732.87	257.76
733.20	257.43
733.53	257.12
733.86	256.80
734.19	256.52
734.52	256.34
734.85	256.20
735.18	255.72
735.51	255.49
735.84	255.10
736.17	254.77
736.50	254.43
736.83	254.43
737.16	254.13
737.49	254.00
737.82	253.70
738.15	253.43
738.48	253.13
738.81	252.84
739.14	252.72
739.47	252.50
739.80	252.25
740.13	252.08
740.46	251.89
740.79	251.58
741.12	251.27
741.45	251.02
741.78	250.72
742.11	250.64
742.44	250.31
742.77	250.12
743.10	249.98
743.43	249.77
743.75	249.28
744.08	249.30
744.41	248.91
744.74	248.70
745.07	248.49
745.40	248.27
745.73	248.06
746.06	247.76
746.39	247.57
746.71	247.45
747.04	247.21
747.37	246.97
747.70	246.76
748.03	246.50
748.36	246.26
748.68	246.04
749.01	245.71
749.34	245.45
749.67	245.25
750.00	245.04
750.33	245.02
750.65	244.78
750.98	244.36
751.31	244.27
751.64	244.04
751.97	243.87
752.29	243.72
752.62	243.52
752.95	243.36
753.28	243.18
753.60	242.87
753.93	242.68
754.26	242.43
754.59	242.28
754.91	242.14
755.24	241.96
755.57	241.69
755.90	241.54
756.22	241.49
756.55	241.30
756.88	241.02
757.20	240.73
757.53	240.55
757.86	240.39
758.19	240.19
758.51	240.01
758.84	239.81
759.17	239.62
759.49	239.40
759.82	239.31
760.15	239.10
760.47	239.02
760.80	238.88
761.13	238.81
761.45	238.69
761.78	238.67
762.11	238.62
762.43	238.46
762.76	238.37
763.08	238.24
763.41	238.11
763.74	238.00
764.06	237.86
764.39	237.83
764.71	237.70
765.04	237.64
765.37	237.54
765.69	237.42
766.02	237.33
766.34	237.20
766.67	236.96
767.00	236.98
767.32	236.96
767.65	236.97
767.97	236.83
768.30	236.65
768.62	236.50
768.95	236.44
769.27	236.37
769.60	236.39
769.92	236.26
770.25	236.13
770.57	236.10
770.90	236.03
771.22	235.83
771.55	235.82
771.87	235.73
772.20	235.62
772.52	235.67
772.85	235.84
773.17	235.92
773.50	235.89
773.82	235.88
774.15	235.70
774.47	235.48
774.80	235.44
775.12	235.45
775.45	235.46
775.77	235.33
776.09	235.32
776.42	235.18
776.74	235.19
777.07	235.16
777.39	235.11
777.72	235.10
778.04	235.06
778.36	235.01
778.69	234.97
779.01	234.95
779.33	234.82
779.66	234.53
779.98	234.50
780.31	234.53
780.63	234.48
780.95	234.47
781.28	234.45
781.60	234.41
781.92	234.42
782.25	234.28
782.57	234.16
782.89	234.10
783.22	234.11
783.54	234.05
783.86	234.07
784.19	233.94
784.51	233.96
784.83	233.93
785.16	233.69
785.48	233.54
785.80	233.58
786.12	233.64
786.45	233.53
786.77	233.39
787.09	233.26
787.42	233.14
787.74	233.17
788.06	233.19
788.38	233.19
788.71	232.97
789.03	232.97
789.35	232.96
789.67	232.92
789.99	232.84
790.32	232.73
790.64	232.64
790.96	232.68
791.28	232.47
791.61	232.55
