SpectraSuite Data File
++++++++++++++++++++++++++++++++++++
Date: Fri Feb 01 14:42:02 EST 2013
User: group
Dark Spectrum Present: No
Reference Spectrum Present: No
Number of Sampled Component Spectra: 1
Spectrometers: USB2E7196
Integration Time (usec): 70000 (USB2E7196)
Spectra Averaged: 10 (USB2E7196)
Boxcar Smoothing: 10 (USB2E7196)
Correct for Electrical Dark: No (USB2E7196)
Strobe/Lamp Enabled: No (USB2E7196)
Correct for Detector Non-linearity: No (USB2E7196)
Correct for Stray Light: No (USB2E7196)
Number of Pixels in Processed Spectrum: 2048
>>>>>Begin Processed Spectral Data<<<<<
339.09	0.00
339.48	217.00
339.86	218.50
340.24	218.90
340.63	219.80
341.01	224.50
341.39	222.00
341.78	222.60
342.16	224.70
342.54	226.80
342.93	214.26
343.31	225.04
343.69	225.50
344.07	225.94
344.46	226.33
344.84	226.82
345.22	227.03
345.60	227.34
345.99	227.60
346.37	227.76
346.75	227.91
347.13	228.04
347.52	228.20
347.90	228.40
348.28	228.48
348.66	228.60
349.05	228.70
349.43	228.80
349.81	228.85
350.19	228.91
350.57	229.02
350.96	229.04
351.34	229.24
351.72	229.33
352.10	229.47
352.48	229.71
352.87	229.76
353.25	229.87
353.63	229.90
354.01	230.08
354.39	230.27
354.77	230.40
355.15	230.60
355.54	230.60
355.92	230.52
356.30	230.56
356.68	230.77
357.06	230.81
357.44	230.85
357.82	230.87
358.20	231.02
358.58	231.07
358.97	231.10
359.35	231.20
359.73	231.30
360.11	231.26
360.49	231.22
360.87	231.22
361.25	231.29
361.63	231.42
362.01	231.44
362.39	231.37
362.77	231.24
363.15	231.21
363.53	231.27
363.91	231.33
364.29	231.42
364.67	231.29
365.05	231.28
365.43	231.28
365.81	231.39
366.19	231.43
366.57	231.51
366.95	231.49
367.33	231.47
367.71	231.58
368.09	231.69
368.47	231.73
368.85	231.69
369.23	231.56
369.61	231.50
369.99	231.51
370.37	231.53
370.75	231.61
371.13	231.53
371.51	231.35
371.89	231.38
372.27	231.36
372.65	231.30
373.03	231.28
373.41	231.21
373.78	231.07
374.16	230.85
374.54	230.70
374.92	230.62
375.30	230.45
375.68	230.20
376.06	230.10
376.44	229.83
376.82	229.70
377.19	229.67
377.57	229.56
377.95	229.34
378.33	229.26
378.71	229.07
379.09	228.99
379.47	229.03
379.84	228.80
380.22	228.72
380.60	228.62
380.98	228.47
381.36	228.42
381.73	228.30
382.11	228.27
382.49	228.30
382.87	228.26
383.25	228.23
383.62	228.33
384.00	228.28
384.38	228.30
384.76	228.35
385.13	228.33
385.51	228.26
385.89	228.20
386.27	228.15
386.64	228.17
387.02	228.02
387.40	227.98
387.78	228.10
388.15	228.07
388.53	228.03
388.91	228.02
389.29	228.07
389.66	228.19
390.04	228.18
390.42	228.21
390.79	228.16
391.17	228.17
391.55	228.09
391.92	228.17
392.30	228.27
392.68	228.31
393.05	228.39
393.43	228.47
393.81	228.55
394.18	228.55
394.56	228.59
394.94	228.71
395.31	228.84
395.69	228.86
396.06	228.84
396.44	228.85
396.82	228.93
397.19	229.01
397.57	229.05
397.95	229.11
398.32	229.10
398.70	229.30
399.07	229.53
399.45	229.65
399.82	229.70
400.20	229.87
400.58	229.93
400.95	229.98
401.33	230.18
401.70	230.35
402.08	230.55
402.45	230.79
402.83	230.98
403.20	231.04
403.58	231.16
403.95	231.31
404.33	231.68
404.71	231.98
405.08	232.27
405.46	232.50
405.83	232.75
406.21	233.04
406.58	233.23
406.96	233.39
407.33	233.64
407.70	233.95
408.08	234.27
408.45	234.57
408.83	234.98
409.20	235.22
409.58	235.54
409.95	235.97
410.33	236.36
410.70	236.77
411.08	237.19
411.45	237.64
411.82	238.17
412.20	238.59
412.57	239.16
412.95	239.60
413.32	240.16
413.69	240.85
414.07	241.45
414.44	242.17
414.82	242.78
415.19	243.51
415.56	244.34
415.94	245.16
416.31	246.10
416.68	247.01
417.06	248.20
417.43	249.34
417.81	250.39
418.18	251.55
418.55	252.82
418.93	254.22
419.30	255.63
419.67	257.04
420.04	258.49
420.42	260.00
420.79	261.82
421.16	263.55
421.54	265.31
421.91	267.01
422.28	268.86
422.66	270.91
423.03	272.94
423.40	275.01
423.77	277.21
424.15	279.36
424.52	281.67
424.89	284.06
425.26	286.36
425.64	288.56
426.01	290.96
426.38	293.47
426.75	295.97
427.13	298.70
427.50	301.54
427.87	304.46
428.24	307.28
428.61	310.00
428.99	312.89
429.36	316.06
429.73	319.34
430.10	322.47
430.47	325.67
430.85	328.92
431.22	332.26
431.59	335.78
431.96	339.27
432.33	342.96
432.70	346.68
433.08	350.94
433.45	355.00
433.82	358.96
434.19	363.34
434.56	367.67
434.93	371.53
435.30	375.45
435.68	379.83
436.05	384.13
436.42	388.36
436.79	392.33
437.16	396.47
437.53	400.81
437.90	405.18
438.27	409.25
438.64	413.60
439.01	417.47
439.38	420.96
439.75	424.31
440.13	428.14
440.50	431.63
440.87	434.45
441.24	437.28
441.61	440.61
441.98	442.96
442.35	445.61
442.72	448.41
443.09	451.20
443.46	452.81
443.83	453.79
444.20	454.43
444.57	455.74
444.94	456.14
445.31	456.56
445.68	457.06
446.05	457.14
446.42	456.38
446.79	455.64
447.16	454.88
447.53	454.22
447.90	452.26
448.27	450.40
448.64	447.98
449.01	446.26
449.37	443.17
449.74	440.17
450.11	436.71
450.48	433.17
450.85	429.28
451.22	425.77
451.59	422.47
451.96	419.69
452.33	415.69
452.70	412.03
453.07	407.77
453.43	403.41
453.80	399.38
454.17	395.33
454.54	391.52
454.91	387.39
455.28	383.37
455.65	379.72
456.02	376.07
456.38	372.71
456.75	368.75
457.12	365.30
457.49	361.71
457.86	358.40
458.23	355.35
458.59	352.07
458.96	348.96
459.33	346.20
459.70	343.14
460.07	340.74
460.43	338.08
460.80	335.47
461.17	333.08
461.54	330.69
461.91	328.52
462.27	326.24
462.64	324.17
463.01	322.07
463.38	320.08
463.74	317.84
464.11	315.95
464.48	314.32
464.85	312.54
465.21	311.35
465.58	309.85
465.95	308.17
466.32	306.77
466.68	305.33
467.05	303.82
467.42	302.36
467.78	300.82
468.15	299.50
468.52	298.51
468.88	297.10
469.25	295.80
469.62	294.80
469.98	293.84
470.35	292.99
470.72	292.06
471.08	291.02
471.45	290.14
471.82	289.30
472.18	288.33
472.55	287.56
472.92	286.66
473.28	286.01
473.65	285.25
474.02	284.51
474.38	283.86
474.75	283.37
475.11	282.78
475.48	282.30
475.85	281.87
476.21	281.39
476.58	281.20
476.94	280.98
477.31	280.54
477.67	280.16
478.04	279.91
478.41	279.78
478.77	279.76
479.14	279.66
479.50	279.61
479.87	279.63
480.23	279.75
480.60	279.81
480.96	279.84
481.33	280.11
481.69	280.41
482.06	280.60
482.42	280.76
482.79	281.12
483.15	281.50
483.52	282.03
483.88	282.47
484.25	282.90
484.61	283.33
484.98	283.90
485.34	284.68
485.71	285.26
486.07	285.89
486.44	286.53
486.80	287.37
487.17	288.20
487.53	289.20
487.90	290.09
488.26	291.29
488.62	292.59
488.99	293.71
489.35	294.99
489.72	296.33
490.08	297.94
490.44	299.50
490.81	301.30
491.17	302.92
491.54	304.74
491.90	306.70
492.26	308.80
492.63	311.28
492.99	313.48
493.36	316.00
493.72	318.79
494.08	321.63
494.45	324.52
494.81	327.76
495.17	331.01
495.54	334.43
495.90	337.87
496.26	341.51
496.63	345.73
496.99	349.89
497.35	354.35
497.72	358.80
498.08	363.49
498.44	368.40
498.80	373.82
499.17	379.45
499.53	385.18
499.89	391.42
500.26	397.48
500.62	403.90
500.98	410.58
501.34	417.37
501.71	424.47
502.07	432.07
502.43	439.79
502.79	447.87
503.16	456.35
503.52	465.21
503.88	474.00
504.24	483.12
504.60	492.79
504.97	502.74
505.33	512.99
505.69	523.90
506.05	534.83
506.41	545.77
506.78	557.21
507.14	569.20
507.50	581.32
507.86	594.20
508.22	607.42
508.59	620.65
508.95	634.49
509.31	648.59
509.67	663.16
510.03	678.04
510.39	693.12
510.75	708.59
511.12	724.28
511.48	740.67
511.84	756.83
512.20	773.68
512.56	790.98
512.92	808.81
513.28	826.80
513.64	845.28
514.00	863.88
514.37	883.15
514.73	902.17
515.09	921.30
515.45	940.94
515.81	960.75
516.17	981.58
516.53	1002.34
516.89	1023.20
517.25	1044.08
517.61	1065.00
517.97	1086.55
518.33	1107.87
518.69	1129.76
519.05	1152.36
519.41	1175.73
519.77	1198.69
520.13	1221.96
520.49	1245.10
520.85	1268.44
521.21	1291.66
521.57	1316.30
521.93	1339.50
522.29	1363.42
522.65	1387.56
523.01	1411.40
523.37	1435.14
523.73	1459.19
524.09	1483.11
524.45	1507.58
524.81	1532.39
525.17	1557.80
525.53	1582.85
525.89	1608.10
526.25	1633.87
526.61	1658.08
526.97	1682.89
527.33	1708.14
527.68	1733.49
528.04	1758.40
528.40	1783.02
528.76	1808.95
529.12	1833.64
529.48	1859.30
529.84	1884.24
530.20	1909.83
530.56	1936.10
530.91	1962.56
531.27	1988.57
531.63	2013.82
531.99	2039.20
532.35	2063.75
532.71	2087.58
533.07	2112.20
533.42	2136.73
533.78	2160.75
534.14	2185.36
534.50	2208.72
534.86	2232.26
535.21	2255.14
535.57	2279.32
535.93	2303.35
536.29	2325.85
536.65	2348.79
537.00	2371.49
537.36	2394.60
537.72	2416.62
538.08	2437.96
538.44	2458.96
538.79	2479.73
539.15	2500.55
539.51	2521.90
539.87	2544.00
540.22	2565.64
540.58	2587.66
540.94	2608.49
541.29	2627.91
541.65	2647.70
542.01	2668.67
542.37	2688.70
542.72	2707.84
543.08	2726.07
543.44	2744.42
543.79	2761.85
544.15	2779.38
544.51	2797.60
544.87	2815.11
545.22	2832.52
545.58	2849.39
545.94	2865.07
546.29	2880.65
546.65	2896.83
547.01	2911.38
547.36	2925.20
547.72	2939.25
548.07	2952.24
548.43	2965.78
548.79	2979.27
549.14	2992.32
549.50	3003.23
549.86	3014.55
550.21	3026.41
550.57	3038.74
550.92	3050.16
551.28	3061.41
551.64	3072.53
551.99	3082.63
552.35	3092.60
552.70	3102.44
553.06	3112.89
553.41	3123.87
553.77	3134.32
554.13	3144.21
554.48	3154.00
554.84	3162.90
555.19	3171.78
555.55	3180.23
555.90	3187.58
556.26	3196.05
556.61	3203.49
556.97	3211.40
557.32	3218.98
557.68	3226.63
558.03	3233.29
558.39	3240.22
558.74	3248.58
559.10	3255.25
559.45	3262.20
559.81	3269.50
560.16	3275.62
560.52	3280.42
560.87	3285.96
561.23	3289.75
561.58	3294.65
561.94	3298.89
562.29	3302.83
562.64	3306.37
563.00	3309.90
563.35	3315.30
563.71	3320.09
564.06	3325.13
564.42	3329.25
564.77	3333.23
565.12	3337.19
565.48	3340.36
565.83	3342.64
566.19	3344.59
566.54	3346.00
566.89	3346.74
567.25	3348.06
567.60	3349.94
567.96	3351.26
568.31	3351.61
568.66	3352.96
569.02	3353.25
569.37	3353.28
569.72	3354.68
570.08	3355.22
570.43	3355.51
570.78	3354.18
571.14	3352.03
571.49	3350.48
571.84	3350.30
572.20	3347.64
572.55	3345.10
572.90	3341.71
573.26	3339.93
573.61	3336.85
573.96	3334.13
574.31	3330.37
574.67	3325.50
575.02	3320.83
575.37	3317.40
575.72	3312.30
576.08	3308.42
576.43	3303.82
576.78	3299.86
577.13	3294.48
577.49	3289.61
577.84	3283.99
578.19	3278.39
578.54	3272.88
578.90	3266.03
579.25	3257.77
579.60	3251.30
579.95	3243.88
580.30	3237.10
580.66	3229.21
581.01	3221.75
581.36	3214.43
581.71	3208.20
582.06	3201.02
582.42	3193.27
582.77	3184.89
583.12	3177.60
583.47	3169.32
583.82	3161.82
584.17	3153.01
584.53	3144.99
584.88	3136.78
585.23	3128.53
585.58	3120.78
585.93	3112.32
586.28	3104.74
586.63	3097.53
586.98	3090.18
587.34	3082.30
587.69	3074.23
588.04	3066.16
588.39	3057.76
588.74	3048.29
589.09	3038.51
589.44	3029.04
589.79	3020.45
590.14	3012.41
590.49	3003.02
590.84	2993.92
591.19	2984.47
591.54	2974.18
591.89	2963.00
592.25	2952.99
592.60	2941.70
592.95	2930.65
593.30	2919.93
593.65	2908.60
594.00	2897.46
594.35	2887.04
594.70	2875.36
595.05	2865.56
595.40	2854.15
595.75	2842.65
596.10	2833.31
596.45	2823.51
596.80	2813.95
597.15	2804.05
597.50	2792.52
597.85	2783.09
598.19	2773.71
598.54	2763.76
598.89	2754.77
599.24	2746.05
599.59	2735.91
599.94	2726.86
600.29	2716.92
600.64	2707.09
600.99	2696.24
601.34	2686.50
601.69	2675.35
602.04	2665.74
602.39	2655.03
602.74	2646.44
603.08	2637.66
603.43	2627.60
603.78	2617.45
604.13	2607.10
604.48	2595.90
604.83	2585.84
605.18	2575.16
605.53	2562.99
605.87	2550.56
606.22	2539.42
606.57	2527.46
606.92	2516.64
607.27	2505.80
607.62	2495.95
607.96	2485.21
608.31	2475.52
608.66	2463.45
609.01	2451.99
609.36	2440.30
609.70	2427.20
610.05	2413.94
610.40	2401.61
610.75	2388.96
611.10	2376.56
611.44	2363.44
611.79	2351.86
612.14	2339.61
612.49	2325.98
612.83	2313.02
613.18	2301.21
613.53	2289.01
613.88	2276.78
614.22	2264.02
614.57	2250.96
614.92	2237.85
615.27	2225.84
615.61	2213.04
615.96	2201.46
616.31	2190.19
616.65	2179.53
617.00	2169.10
617.35	2157.72
617.70	2145.51
618.04	2133.30
618.39	2121.79
618.74	2110.86
619.08	2098.87
619.43	2087.38
619.78	2077.17
620.12	2066.45
620.47	2054.99
620.82	2042.85
621.16	2031.80
621.51	2020.76
621.85	2009.91
622.20	1997.80
622.55	1985.74
622.89	1974.78
623.24	1963.81
623.59	1952.86
623.93	1941.32
624.28	1930.27
624.62	1918.72
624.97	1908.07
625.32	1897.99
625.66	1887.03
626.01	1876.16
626.35	1865.22
626.70	1854.17
627.04	1843.46
627.39	1832.19
627.73	1821.37
628.08	1811.17
628.43	1800.12
628.77	1789.32
629.12	1778.26
629.46	1767.57
629.81	1756.85
630.15	1745.43
630.50	1734.08
630.84	1721.99
631.19	1710.45
631.53	1699.06
631.88	1687.73
632.22	1676.08
632.57	1664.91
632.91	1653.66
633.26	1642.50
633.60	1630.98
633.95	1619.82
634.29	1608.45
634.64	1598.89
634.98	1587.83
635.32	1577.24
635.67	1567.50
636.01	1557.19
636.36	1546.76
636.70	1537.12
637.05	1526.62
637.39	1517.06
637.73	1507.31
638.08	1498.36
638.42	1489.09
638.77	1479.85
639.11	1470.62
639.45	1461.40
639.80	1451.57
640.14	1442.24
640.49	1432.57
640.83	1423.19
641.17	1413.90
641.52	1404.42
641.86	1394.08
642.20	1385.15
642.55	1375.71
642.89	1366.30
643.23	1356.49
643.58	1347.65
643.92	1337.71
644.26	1328.59
644.61	1319.49
644.95	1310.18
645.29	1299.75
645.64	1289.52
645.98	1279.82
646.32	1270.73
646.66	1261.11
647.01	1251.70
647.35	1242.25
647.69	1233.08
648.04	1224.59
648.38	1215.20
648.72	1206.00
649.06	1196.87
649.41	1187.68
649.75	1178.44
650.09	1168.78
650.43	1159.72
650.78	1150.11
651.12	1141.12
651.46	1132.38
651.80	1123.42
652.14	1114.70
652.49	1106.46
652.83	1098.04
653.17	1089.08
653.51	1080.22
653.85	1071.71
654.20	1063.11
654.54	1054.22
654.88	1045.60
655.22	1036.28
655.56	1027.38
655.90	1019.05
656.25	1010.62
656.59	1002.34
656.93	994.37
657.27	986.49
657.61	978.41
657.95	970.93
658.29	963.37
658.64	955.23
658.98	946.99
659.32	938.78
659.66	931.15
660.00	923.34
660.34	915.70
660.68	908.22
661.02	900.67
661.36	893.52
661.70	886.74
662.05	879.93
662.39	873.33
662.73	867.00
663.07	860.47
663.41	854.04
663.75	847.55
664.09	840.40
664.43	833.79
664.77	827.48
665.11	821.01
665.45	814.72
665.79	808.51
666.13	802.38
666.47	796.27
666.81	789.90
667.15	783.70
667.49	777.69
667.83	771.81
668.17	766.01
668.51	759.92
668.85	753.95
669.19	748.25
669.53	742.61
669.87	736.67
670.21	730.80
670.55	725.29
670.89	720.02
671.23	715.06
671.57	709.94
671.91	704.70
672.25	699.28
672.58	694.04
672.92	689.13
673.26	684.34
673.60	679.64
673.94	674.95
674.28	670.58
674.62	666.18
674.96	661.49
675.30	657.11
675.64	652.88
675.97	648.25
676.31	643.60
676.65	639.21
676.99	635.11
677.33	630.67
677.67	626.30
678.01	621.58
678.34	616.96
678.68	612.50
679.02	608.06
679.36	604.18
679.70	600.13
680.04	596.08
680.37	591.82
680.71	587.71
681.05	583.82
681.39	579.85
681.73	576.08
682.06	572.28
682.40	568.45
682.74	564.59
683.08	561.01
683.42	557.40
683.75	553.65
684.09	549.79
684.43	546.24
684.77	542.80
685.10	539.38
685.44	536.12
685.78	532.60
686.12	529.34
686.45	525.67
686.79	522.24
687.13	518.78
687.46	515.44
687.80	511.92
688.14	508.28
688.48	505.09
688.81	501.49
689.15	498.34
689.49	495.11
689.82	491.98
690.16	488.86
690.50	485.70
690.83	482.61
691.17	479.52
691.51	476.59
691.84	473.63
692.18	470.65
692.52	467.64
692.85	464.78
693.19	461.77
693.52	459.00
693.86	456.06
694.20	453.54
694.53	450.82
694.87	448.13
695.21	445.71
695.54	442.87
695.88	440.17
696.21	437.37
696.55	434.81
696.88	432.07
697.22	429.67
697.56	427.31
697.89	424.85
698.23	422.35
698.56	420.10
698.90	417.64
699.23	414.96
699.57	412.50
699.90	410.22
700.24	407.86
700.58	405.46
700.91	403.21
701.25	400.84
701.58	398.62
701.92	396.55
702.25	394.25
702.59	392.21
702.92	390.33
703.26	388.51
703.59	386.53
703.93	384.80
704.26	382.63
704.60	380.60
704.93	378.64
705.26	376.75
705.60	374.78
705.93	373.00
706.27	371.55
706.60	369.88
706.94	368.13
707.27	366.38
707.61	364.70
707.94	363.11
708.27	361.44
708.61	359.80
708.94	358.22
709.28	356.80
709.61	355.22
709.94	353.81
710.28	352.21
710.61	350.68
710.95	349.07
711.28	347.75
711.61	346.30
711.95	344.98
712.28	343.59
712.61	342.14
712.95	340.80
713.28	339.34
713.61	338.00
713.95	336.78
714.28	335.59
714.61	334.35
714.95	333.07
715.28	331.61
715.61	330.35
715.95	329.07
716.28	327.88
716.61	326.73
716.95	325.45
717.28	324.33
717.61	323.08
717.94	321.95
718.28	320.70
718.61	319.55
718.94	318.45
719.27	317.40
719.61	316.32
719.94	315.21
720.27	314.26
720.60	313.23
720.94	312.18
721.27	311.20
721.60	310.21
721.93	309.30
722.27	308.56
722.60	307.88
722.93	307.04
723.26	306.06
723.59	305.12
723.93	304.24
724.26	303.41
724.59	302.59
724.92	301.76
725.25	300.96
725.59	299.95
725.92	299.10
726.25	298.27
726.58	297.50
726.91	296.74
727.24	295.98
727.57	295.21
727.91	294.35
728.24	293.72
728.57	293.01
728.90	292.35
729.23	291.47
729.56	290.62
729.89	289.80
730.22	289.05
730.55	288.50
730.89	287.73
731.22	287.04
731.55	286.41
731.88	285.64
732.21	284.93
732.54	284.34
732.87	283.66
733.20	283.18
733.53	282.60
733.86	281.95
734.19	281.27
734.52	280.70
734.85	280.20
735.18	279.39
735.51	278.66
735.84	277.90
736.17	277.38
736.50	276.75
736.83	276.49
737.16	276.02
737.49	275.30
737.82	274.80
738.15	274.18
738.48	273.68
738.81	273.13
739.14	272.67
739.47	272.25
739.80	271.71
740.13	271.06
740.46	270.47
740.79	269.97
741.12	269.47
741.45	268.94
741.78	268.36
742.11	268.00
742.44	267.57
742.77	267.19
743.10	266.72
743.43	266.30
743.75	265.56
744.08	265.23
744.41	264.84
744.74	264.38
745.07	263.94
745.40	263.49
745.73	263.23
746.06	262.80
746.39	262.39
746.71	262.08
747.04	261.73
747.37	261.40
747.70	261.05
748.03	260.70
748.36	260.41
748.68	260.08
749.01	259.52
749.34	259.22
749.67	258.85
750.00	258.55
750.33	258.24
750.65	257.96
750.98	257.35
751.31	257.06
751.64	256.73
751.97	256.53
752.29	256.21
752.62	255.81
752.95	255.54
753.28	255.28
753.60	254.95
753.93	254.74
754.26	254.35
754.59	254.02
754.91	253.70
755.24	253.35
755.57	252.95
755.90	252.72
756.22	252.40
756.55	252.17
756.88	251.83
757.20	251.46
757.53	251.14
757.86	251.04
758.19	250.80
758.51	250.58
758.84	250.20
759.17	249.95
759.49	249.75
759.82	249.49
760.15	249.25
760.47	249.07
760.80	248.81
761.13	248.72
761.45	248.42
761.78	248.23
762.11	247.99
762.43	247.96
762.76	247.84
763.08	247.69
763.41	247.41
763.74	247.32
764.06	247.14
764.39	247.00
764.71	246.62
765.04	246.37
765.37	246.18
765.69	245.90
766.02	245.75
766.34	245.49
766.67	245.37
767.00	245.20
767.32	245.06
767.65	244.97
767.97	244.70
768.30	244.55
768.62	244.29
768.95	244.22
769.27	244.02
769.60	243.80
769.92	243.63
770.25	243.47
770.57	243.20
770.90	242.97
771.22	242.77
771.55	242.72
771.87	242.60
772.20	242.46
772.52	242.47
772.85	242.44
773.17	242.26
773.50	242.04
773.82	241.83
774.15	241.60
774.47	241.31
774.80	241.15
775.12	241.00
775.45	240.92
775.77	240.73
776.09	240.53
776.42	240.42
776.74	240.36
777.07	240.19
777.39	240.07
777.72	239.93
778.04	239.79
778.36	239.61
778.69	239.42
779.01	239.26
779.33	239.10
779.66	238.79
779.98	238.65
780.31	238.49
780.63	238.48
780.95	238.35
781.28	238.18
781.60	237.99
781.92	237.86
782.25	237.67
782.57	237.57
782.89	237.39
783.22	237.19
783.54	236.93
783.86	236.85
784.19	236.71
784.51	236.81
784.83	236.69
785.16	236.61
785.48	236.51
785.80	236.43
