SpectraSuite Data File
++++++++++++++++++++++++++++++++++++
Date: Fri Feb 01 14:38:25 EST 2013
User: group
Dark Spectrum Present: No
Reference Spectrum Present: No
Number of Sampled Component Spectra: 1
Spectrometers: USB2E7196
Integration Time (usec): 70000 (USB2E7196)
Spectra Averaged: 10 (USB2E7196)
Boxcar Smoothing: 10 (USB2E7196)
Correct for Electrical Dark: No (USB2E7196)
Strobe/Lamp Enabled: No (USB2E7196)
Correct for Detector Non-linearity: No (USB2E7196)
Correct for Stray Light: No (USB2E7196)
Number of Pixels in Processed Spectrum: 2048
>>>>>Begin Processed Spectral Data<<<<<
339.09	0.00
339.48	216.50
339.86	218.50
340.24	218.40
340.63	222.30
341.01	225.60
341.39	223.40
341.78	223.00
342.16	225.50
342.54	227.30
342.93	214.67
343.31	225.56
343.69	226.10
344.07	226.47
344.46	226.92
344.84	227.18
345.22	227.22
345.60	227.51
345.99	227.77
346.37	227.80
346.75	227.93
347.13	228.03
347.52	228.02
347.90	228.06
348.28	228.12
348.66	228.14
349.05	228.12
349.43	228.20
349.81	228.20
350.19	228.24
350.57	228.26
350.96	228.34
351.34	228.39
351.72	228.47
352.10	228.57
352.48	228.57
352.87	228.59
353.25	228.66
353.63	228.69
354.01	228.71
354.39	228.87
354.77	228.80
355.15	228.81
355.54	228.85
355.92	228.85
356.30	228.92
356.68	229.12
357.06	229.26
357.44	229.26
357.82	229.30
358.20	229.48
358.58	229.46
358.97	229.49
359.35	229.54
359.73	229.60
360.11	229.61
360.49	229.71
360.87	229.83
361.25	229.89
361.63	229.90
362.01	229.90
362.39	229.89
362.77	229.94
363.15	229.99
363.53	229.97
363.91	230.10
364.29	230.07
364.67	229.91
365.05	229.72
365.43	229.63
365.81	229.68
366.19	229.61
366.57	229.65
366.95	229.65
367.33	229.65
367.71	229.50
368.09	229.58
368.47	229.50
368.85	229.43
369.23	229.45
369.61	229.40
369.99	229.48
370.37	229.45
370.75	229.52
371.13	229.41
371.51	229.33
371.89	229.22
372.27	229.19
372.65	229.04
373.03	229.10
373.41	229.08
373.78	229.10
374.16	228.93
374.54	228.81
374.92	228.74
375.30	228.46
375.68	228.40
376.06	228.26
376.44	228.20
376.82	228.13
377.19	228.08
377.57	227.96
377.95	227.87
378.33	227.82
378.71	227.67
379.09	227.65
379.47	227.64
379.84	227.55
380.22	227.51
380.60	227.34
380.98	227.25
381.36	227.20
381.73	227.14
382.11	227.12
382.49	227.18
382.87	227.13
383.25	227.17
383.62	227.38
384.00	227.31
384.38	227.29
384.76	227.28
385.13	227.31
385.51	227.25
385.89	227.07
386.27	227.04
386.64	226.96
387.02	226.93
387.40	226.88
387.78	226.96
388.15	226.87
388.53	226.95
388.91	226.92
389.29	226.98
389.66	226.83
390.04	226.87
390.42	226.94
390.79	226.92
391.17	226.93
391.55	226.70
391.92	226.65
392.30	226.63
392.68	226.61
393.05	226.55
393.43	226.57
393.81	226.67
394.18	226.67
394.56	226.71
394.94	226.77
395.31	226.86
395.69	226.83
396.06	226.91
396.44	227.04
396.82	227.15
397.19	227.26
397.57	227.33
397.95	227.38
398.32	227.33
398.70	227.46
399.07	227.58
399.45	227.71
399.82	227.90
400.20	228.03
400.58	228.16
400.95	228.20
401.33	228.37
401.70	228.55
402.08	228.75
402.45	228.83
402.83	228.98
403.20	229.00
403.58	229.15
403.95	229.30
404.33	229.36
404.71	229.47
405.08	229.63
405.46	229.81
405.83	229.99
406.21	230.17
406.58	230.32
406.96	230.51
407.33	230.68
407.70	230.92
408.08	231.26
408.45	231.41
408.83	231.67
409.20	231.96
409.58	232.19
409.95	232.36
410.33	232.68
410.70	232.89
411.08	233.34
411.45	233.60
411.82	233.96
412.20	234.44
412.57	235.00
412.95	235.32
413.32	235.77
413.69	236.24
414.07	236.74
414.44	237.22
414.82	237.79
415.19	238.47
415.56	239.07
415.94	239.64
416.31	240.37
416.68	241.17
417.06	241.90
417.43	242.65
417.81	243.63
418.18	244.63
418.55	245.64
418.93	246.63
419.30	247.76
419.67	248.89
420.04	250.04
420.42	251.35
420.79	252.87
421.16	254.40
421.54	256.01
421.91	257.49
422.28	259.24
422.66	260.99
423.03	262.70
423.40	264.41
423.77	266.39
424.15	268.29
424.52	270.22
424.89	272.32
425.26	274.52
425.64	276.52
426.01	278.69
426.38	281.04
426.75	283.26
427.13	285.66
427.50	288.18
427.87	290.88
428.24	293.21
428.61	295.59
428.99	298.31
429.36	301.11
429.73	304.10
430.10	306.93
430.47	309.86
430.85	312.94
431.22	316.14
431.59	319.53
431.96	322.81
432.33	326.36
432.70	329.85
433.08	333.85
433.45	337.65
433.82	341.40
434.19	345.54
434.56	349.70
434.93	353.50
435.30	357.41
435.68	361.47
436.05	365.66
436.42	369.75
436.79	373.50
437.16	377.53
437.53	381.70
437.90	385.85
438.27	390.01
438.64	394.14
439.01	398.02
439.38	401.41
439.75	404.66
440.13	408.43
440.50	412.24
440.87	415.13
441.24	418.07
441.61	421.36
441.98	423.88
442.35	426.85
442.72	430.01
443.09	432.92
443.46	434.84
443.83	436.18
444.20	437.34
444.57	438.92
444.94	439.75
445.31	440.79
445.68	441.78
446.05	442.32
446.42	442.07
446.79	441.98
447.16	441.74
447.53	441.95
447.90	440.80
448.27	439.42
448.64	437.83
449.01	436.83
449.37	434.47
449.74	432.17
450.11	429.21
450.48	425.79
450.85	422.43
451.22	419.65
451.59	416.98
451.96	414.43
452.33	410.95
452.70	407.85
453.07	403.80
453.43	399.79
453.80	396.11
454.17	392.56
454.54	389.12
454.91	385.39
455.28	381.46
455.65	377.97
456.02	374.53
456.38	371.30
456.75	367.41
457.12	364.27
457.49	361.05
457.86	358.08
458.23	355.62
458.59	352.74
458.96	349.72
459.33	347.08
459.70	344.51
460.07	342.33
460.43	339.86
460.80	337.58
461.17	335.49
461.54	333.17
461.91	331.17
462.27	328.97
462.64	327.03
463.01	325.07
463.38	323.07
463.74	321.06
464.11	319.30
464.48	317.79
464.85	315.99
465.21	314.71
465.58	313.36
465.95	311.61
466.32	310.26
466.68	308.95
467.05	307.51
467.42	306.11
467.78	304.60
468.15	303.23
468.52	302.23
468.88	300.84
469.25	299.57
469.62	298.38
469.98	297.31
470.35	296.40
470.72	295.40
471.08	294.39
471.45	293.49
471.82	292.58
472.18	291.53
472.55	290.87
472.92	289.92
473.28	289.00
473.65	288.16
474.02	287.36
474.38	286.59
474.75	285.95
475.11	285.27
475.48	284.79
475.85	284.29
476.21	283.73
476.58	283.30
476.94	282.85
477.31	282.51
477.67	281.93
478.04	281.36
478.41	281.00
478.77	280.86
479.14	280.35
479.50	280.08
479.87	279.82
480.23	279.56
480.60	279.17
480.96	278.91
481.33	278.79
481.69	278.59
482.06	278.32
482.42	278.17
482.79	277.98
483.15	277.72
483.52	277.52
483.88	277.26
484.25	277.12
484.61	277.13
484.98	276.91
485.34	277.02
485.71	277.10
486.07	277.02
486.44	276.91
486.80	277.02
487.17	277.01
487.53	277.11
487.90	277.23
488.26	277.51
488.62	277.66
488.99	277.71
489.35	277.73
489.72	277.94
490.08	278.09
490.44	278.21
490.81	278.44
491.17	278.64
491.54	278.97
491.90	279.27
492.26	279.44
492.63	279.77
492.99	280.12
493.36	280.25
493.72	280.79
494.08	281.13
494.45	281.52
494.81	281.91
495.17	282.30
495.54	282.62
495.90	282.90
496.26	283.23
496.63	283.71
496.99	284.22
497.35	284.58
497.72	285.01
498.08	285.44
498.44	285.93
498.80	286.43
499.17	286.95
499.53	287.30
499.89	287.77
500.26	288.15
500.62	288.38
500.98	288.92
501.34	289.18
501.71	289.61
502.07	289.84
502.43	290.16
502.79	290.42
503.16	290.72
503.52	291.02
503.88	291.29
504.24	291.60
504.60	291.93
504.97	292.42
505.33	292.81
505.69	293.24
506.05	293.47
506.41	293.86
506.78	294.06
507.14	294.31
507.50	294.61
507.86	294.98
508.22	295.30
508.59	295.55
508.95	295.90
509.31	296.30
509.67	296.73
510.03	297.24
510.39	297.74
510.75	298.28
511.12	298.83
511.48	299.50
511.84	300.00
512.20	300.38
512.56	300.75
512.92	301.41
513.28	302.05
513.64	302.72
514.00	303.35
514.37	304.21
514.73	305.02
515.09	305.84
515.45	306.78
515.81	307.72
516.17	308.88
516.53	309.80
516.89	310.71
517.25	311.85
517.61	313.08
517.97	314.24
518.33	315.52
518.69	316.80
519.05	318.08
519.41	319.67
519.77	321.50
520.13	323.21
520.49	324.76
520.85	326.42
521.21	328.39
521.57	330.34
521.93	332.22
522.29	334.31
522.65	336.33
523.01	338.46
523.37	340.70
523.73	342.85
524.09	345.30
524.45	347.84
524.81	350.53
525.17	353.05
525.53	355.87
525.89	358.66
526.25	361.67
526.61	364.56
526.97	367.48
527.33	370.51
527.68	374.02
528.04	377.40
528.40	380.80
528.76	384.33
529.12	387.91
529.48	391.57
529.84	395.31
530.20	399.18
530.56	403.08
530.91	407.40
531.27	411.66
531.63	415.97
531.99	420.30
532.35	424.56
532.71	428.95
533.07	433.42
533.42	438.35
533.78	443.08
534.14	447.98
534.50	452.70
534.86	457.56
535.21	462.05
535.57	467.14
535.93	472.22
536.29	477.42
536.65	482.49
537.00	487.71
537.36	493.00
537.72	498.30
538.08	503.64
538.44	508.79
538.79	514.14
539.15	519.40
539.51	524.90
539.87	530.47
540.22	536.09
540.58	541.90
540.94	547.21
541.29	552.88
541.65	558.44
542.01	564.39
542.37	569.97
542.72	575.90
543.08	581.57
543.44	587.36
543.79	592.81
544.15	598.68
544.51	604.59
544.87	610.44
545.22	616.32
545.58	622.18
545.94	628.01
546.29	633.61
546.65	639.55
547.01	645.40
547.36	651.10
547.72	656.60
548.07	662.32
548.43	667.96
548.79	673.62
549.14	679.36
549.50	684.74
549.86	690.46
550.21	696.02
550.57	701.65
550.92	707.33
551.28	713.02
551.64	718.84
551.99	724.41
552.35	729.98
552.70	735.52
553.06	740.96
553.41	746.62
553.77	752.26
554.13	757.65
554.48	762.82
554.84	768.47
555.19	774.16
555.55	779.73
555.90	785.07
556.26	790.34
556.61	795.53
556.97	801.13
557.32	806.44
557.68	811.62
558.03	817.00
558.39	822.15
558.74	827.51
559.10	832.46
559.45	837.28
559.81	842.21
560.16	847.08
560.52	852.10
560.87	857.02
561.23	861.84
561.58	867.08
561.94	871.97
562.29	876.53
562.64	881.09
563.00	885.23
563.35	890.07
563.71	894.52
564.06	899.20
564.42	903.34
564.77	907.87
565.12	912.62
565.48	916.86
565.83	920.99
566.19	925.09
566.54	928.90
566.89	933.10
567.25	937.49
567.60	941.66
567.96	945.63
568.31	949.39
568.66	953.40
569.02	956.61
569.37	959.98
569.72	963.53
570.08	967.03
570.43	970.33
570.78	973.50
571.14	976.55
571.49	979.68
571.84	983.15
572.20	985.72
572.55	988.00
572.90	990.53
573.26	993.21
573.61	995.38
573.96	997.91
574.31	1000.08
574.67	1001.54
575.02	1003.04
575.37	1004.76
575.72	1006.09
576.08	1007.71
576.43	1009.32
576.78	1011.18
577.13	1012.66
577.49	1013.88
577.84	1015.35
578.19	1016.66
578.54	1017.98
578.90	1018.59
579.25	1019.19
579.60	1020.16
579.95	1021.11
580.30	1021.66
580.66	1021.98
581.01	1022.91
581.36	1023.48
581.71	1024.03
582.06	1024.69
582.42	1025.11
582.77	1025.40
583.12	1025.90
583.47	1026.07
583.82	1026.76
584.17	1026.52
584.53	1026.61
584.88	1026.92
585.23	1026.93
585.58	1026.69
585.93	1026.65
586.28	1027.06
586.63	1027.14
586.98	1027.18
587.34	1027.16
587.69	1027.01
588.04	1027.00
588.39	1026.75
588.74	1025.82
589.09	1024.98
589.44	1024.12
589.79	1023.70
590.14	1023.33
590.49	1022.66
590.84	1021.74
591.19	1020.55
591.54	1019.29
591.89	1017.65
592.25	1016.65
592.60	1015.10
592.95	1013.70
593.30	1011.90
593.65	1010.44
594.00	1008.84
594.35	1007.69
594.70	1005.70
595.05	1004.32
595.40	1002.59
595.75	1000.72
596.10	999.62
596.45	998.39
596.80	997.55
597.15	996.16
597.50	994.58
597.85	993.30
598.19	991.93
598.54	990.43
598.89	989.51
599.24	988.68
599.59	986.91
599.94	985.57
600.29	984.04
600.64	982.69
600.99	980.50
601.34	978.90
601.69	976.60
602.04	975.18
602.39	973.40
602.74	971.91
603.08	970.23
603.43	968.58
603.78	966.90
604.13	964.82
604.48	963.07
604.83	961.02
605.18	958.98
605.53	956.51
605.87	954.07
606.22	951.65
606.57	948.95
606.92	946.57
607.27	944.60
607.62	942.77
607.96	940.54
608.31	938.71
608.66	936.10
609.01	933.58
609.36	930.82
609.70	928.01
610.05	924.98
610.40	922.30
610.75	919.53
611.10	916.30
611.44	912.90
611.79	909.92
612.14	906.83
612.49	903.26
612.83	900.29
613.18	897.40
613.53	894.68
613.88	891.88
614.22	888.75
614.57	885.26
614.92	881.83
615.27	878.77
615.61	875.45
615.96	872.57
616.31	869.74
616.65	867.24
617.00	864.47
617.35	861.69
617.70	858.20
618.04	854.41
618.39	851.65
618.74	849.04
619.08	845.70
619.43	842.92
619.78	840.32
620.12	837.59
620.47	834.54
620.82	831.27
621.16	827.88
621.51	825.10
621.85	822.13
622.20	818.86
622.55	815.80
622.89	812.83
623.24	809.62
623.59	806.59
623.93	803.22
624.28	800.08
624.62	796.80
624.97	794.30
625.32	791.80
625.66	788.66
626.01	785.50
626.35	782.52
626.70	779.30
627.04	776.27
627.39	773.09
627.73	769.90
628.08	767.11
628.43	764.05
628.77	760.76
629.12	757.58
629.46	754.45
629.81	751.13
630.15	747.76
630.50	744.36
630.84	740.95
631.19	737.32
631.53	733.74
631.88	730.27
632.22	726.60
632.57	723.45
632.91	720.19
633.26	716.75
633.60	713.56
633.95	710.42
634.29	707.15
634.64	704.09
634.98	700.89
635.32	697.50
635.67	694.88
636.01	692.00
636.36	688.88
636.70	686.02
637.05	683.22
637.39	680.47
637.73	677.64
638.08	674.75
638.42	672.17
638.77	669.48
639.11	666.86
639.45	663.99
639.80	660.91
640.14	658.10
640.49	655.24
640.83	652.12
641.17	649.32
641.52	646.45
641.86	643.47
642.20	640.90
642.55	638.00
642.89	634.97
643.23	632.01
643.58	629.64
643.92	626.67
644.26	623.59
644.61	620.97
644.95	618.22
645.29	615.30
645.64	612.40
645.98	609.48
646.32	606.63
646.66	603.77
647.01	600.90
647.35	598.02
647.69	595.35
648.04	592.75
648.38	589.60
648.72	586.54
649.06	583.35
649.41	580.26
649.75	577.26
650.09	574.33
650.43	571.45
650.78	568.18
651.12	565.31
651.46	562.54
651.80	559.50
652.14	556.53
652.49	553.82
652.83	551.12
653.17	548.30
653.51	545.44
653.85	542.64
654.20	540.00
654.54	537.02
654.88	534.16
655.22	531.13
655.56	528.37
655.90	525.62
656.25	523.12
656.59	520.66
656.93	518.08
657.27	515.42
657.61	512.54
657.95	509.96
658.29	507.56
658.64	504.97
658.98	502.34
659.32	499.73
659.66	497.07
660.00	494.30
660.34	491.72
660.68	489.16
661.02	486.68
661.36	484.27
661.70	481.95
662.05	479.67
662.39	477.74
662.73	475.67
663.07	473.50
663.41	471.34
663.75	468.99
664.09	466.75
664.43	464.49
664.77	462.52
665.11	460.39
665.45	457.95
665.79	455.84
666.13	453.54
666.47	451.44
666.81	449.34
667.15	447.20
667.49	445.31
667.83	443.48
668.17	441.35
668.51	439.19
668.85	437.29
669.19	435.19
669.53	432.99
669.87	430.90
670.21	429.05
670.55	427.02
670.89	425.31
671.23	423.60
671.57	421.59
671.91	419.69
672.25	417.85
672.58	416.14
672.92	414.30
673.26	412.67
673.60	411.11
673.94	409.39
674.28	408.02
674.62	406.26
674.96	404.53
675.30	403.12
675.64	401.46
675.97	399.68
676.31	398.17
676.65	396.54
676.99	395.09
677.33	393.25
677.67	391.72
678.01	389.86
678.34	388.27
678.68	386.98
679.02	385.59
679.36	384.06
679.70	382.50
680.04	381.00
680.37	379.39
680.71	377.85
681.05	376.58
681.39	375.08
681.73	373.82
682.06	372.49
682.40	371.15
682.74	369.85
683.08	368.61
683.42	367.18
683.75	365.89
684.09	364.41
684.43	363.07
684.77	361.79
685.10	360.45
685.44	359.11
685.78	357.69
686.12	356.22
686.45	354.80
686.79	353.66
687.13	352.45
687.46	351.22
687.80	350.05
688.14	348.65
688.48	347.26
688.81	345.84
689.15	344.61
689.49	343.30
689.82	342.19
690.16	340.91
690.50	339.86
690.83	338.70
691.17	337.47
691.51	336.44
691.84	335.28
692.18	334.19
692.52	333.05
692.85	332.06
693.19	331.00
693.52	330.03
693.86	328.81
694.20	327.72
694.53	326.82
694.87	325.61
695.21	324.51
695.54	323.53
695.88	322.46
696.21	321.30
696.55	320.25
696.88	319.12
697.22	318.15
697.56	317.01
697.89	316.02
698.23	315.05
698.56	314.10
698.90	313.20
699.23	312.23
699.57	311.27
699.90	310.24
700.24	309.21
700.58	308.30
700.91	307.60
701.25	306.78
701.58	305.89
701.92	305.20
702.25	304.35
702.59	303.61
702.92	302.87
703.26	302.11
703.59	301.32
703.93	300.64
704.26	299.85
704.60	299.10
704.93	298.25
705.26	297.59
705.60	296.96
705.93	296.13
706.27	295.55
706.60	294.88
706.94	294.20
707.27	293.50
707.61	292.76
707.94	291.97
708.27	291.11
708.61	290.35
708.94	289.50
709.28	288.88
709.61	288.14
709.94	287.55
710.28	286.89
710.61	286.28
710.95	285.53
711.28	285.01
711.61	284.41
711.95	283.74
712.28	283.05
712.61	282.26
712.95	281.71
713.28	280.97
713.61	280.26
713.95	279.56
714.28	278.99
714.61	278.40
714.95	277.72
715.28	277.23
715.61	276.74
715.95	276.23
716.28	275.72
716.61	275.10
716.95	274.35
717.28	273.80
717.61	273.22
717.94	272.77
718.28	272.11
718.61	271.49
718.94	271.05
719.27	270.56
719.61	270.07
719.94	269.65
720.27	269.09
720.60	268.65
720.94	268.32
721.27	268.02
721.60	267.67
721.93	267.33
722.27	267.03
722.60	266.55
722.93	266.11
723.26	265.66
723.59	265.34
723.93	265.07
724.26	264.72
724.59	264.35
724.92	263.93
725.25	263.76
725.59	263.46
725.92	263.05
726.25	262.67
726.58	262.36
726.91	262.00
727.24	261.77
727.57	261.51
727.91	261.10
728.24	260.70
728.57	260.37
728.90	259.94
729.23	259.44
729.56	259.30
729.89	259.03
730.22	258.65
730.55	258.48
730.89	258.26
731.22	257.93
731.55	257.71
731.88	257.49
732.21	257.18
732.54	256.97
732.87	256.84
733.20	256.50
733.53	256.26
733.86	255.91
734.19	255.65
734.52	255.32
734.85	255.25
735.18	254.97
735.51	254.67
735.84	254.60
736.17	254.40
736.50	254.02
736.83	254.08
737.16	253.86
737.49	253.55
737.82	253.14
738.15	253.00
738.48	252.61
738.81	252.28
739.14	251.89
739.47	251.62
739.80	251.40
740.13	251.16
740.46	250.85
740.79	250.63
741.12	250.44
741.45	250.21
741.78	249.91
742.11	249.73
742.44	249.46
742.77	249.24
743.10	249.00
743.43	248.67
743.75	248.05
744.08	248.09
744.41	247.79
744.74	247.67
745.07	247.42
745.40	247.21
745.73	247.03
746.06	246.84
746.39	246.53
746.71	246.22
747.04	246.03
747.37	245.88
747.70	245.71
748.03	245.46
748.36	245.31
748.68	244.98
749.01	244.70
749.34	244.52
749.67	244.26
750.00	244.04
750.33	243.94
750.65	243.92
750.98	243.57
751.31	243.39
751.64	243.14
751.97	243.03
752.29	242.97
752.62	242.79
752.95	242.57
753.28	242.43
753.60	242.29
753.93	242.12
754.26	241.95
754.59	241.74
754.91	241.59
755.24	241.37
755.57	241.19
755.90	241.11
756.22	240.89
756.55	240.64
756.88	240.54
757.20	240.38
757.53	240.06
757.86	239.84
758.19	239.75
758.51	239.75
758.84	239.52
759.17	239.39
759.49	239.34
759.82	239.33
760.15	239.31
760.47	239.13
760.80	239.05
761.13	238.94
761.45	238.82
761.78	238.69
762.11	238.54
762.43	238.47
762.76	238.27
763.08	238.39
763.41	238.36
763.74	238.32
764.06	238.09
764.39	238.09
764.71	238.10
765.04	237.94
765.37	237.82
765.69	237.70
766.02	237.62
766.34	237.51
766.67	237.36
767.00	237.27
767.32	237.30
767.65	237.30
767.97	237.24
768.30	237.10
768.62	236.98
768.95	237.00
769.27	237.00
769.60	236.96
769.92	236.80
770.25	236.76
770.57	236.55
770.90	236.64
771.22	236.63
771.55	236.55
771.87	236.44
772.20	236.41
772.52	236.50
772.85	236.58
773.17	236.42
773.50	236.47
773.82	236.40
774.15	236.29
774.47	236.16
774.80	236.13
775.12	236.17
775.45	236.09
775.77	235.95
776.09	235.85
776.42	235.80
776.74	235.74
777.07	235.63
777.39	235.52
777.72	235.34
778.04	235.25
778.36	235.21
778.69	235.16
779.01	235.01
779.33	234.80
779.66	234.50
779.98	234.45
780.31	234.28
780.63	234.29
780.95	234.21
781.28	234.05
781.60	233.90
781.92	233.78
782.25	233.77
782.57	233.79
782.89	233.69
783.22	233.59
783.54	233.46
783.86	233.37
784.19	233.39
784.51	233.36
784.83	233.25
785.16	233.09
785.48	233.03
785.80	232.91
786.12	232.89
786.45	232.80
786.77	232.74
787.09	232.61
787.42	232.42
787.74	232.35
788.06	232.45
788.38	232.31
788.71	232.21
789.03	232.13
789.35	232.04
789.67	231.98
789.99	232.01
790.32	231.91
790.64	231.97
790.96	232.01
791.28	232.03
791.61	231.87
791.93	231.85
792.25	231.85
792.57	232.02
792.89	231.84
