SpectraSuite Data File
++++++++++++++++++++++++++++++++++++
Date: Fri Feb 01 14:41:01 EST 2013
User: group
Dark Spectrum Present: No
Reference Spectrum Present: No
Number of Sampled Component Spectra: 1
Spectrometers: USB2E7196
Integration Time (usec): 70000 (USB2E7196)
Spectra Averaged: 10 (USB2E7196)
Boxcar Smoothing: 10 (USB2E7196)
Correct for Electrical Dark: No (USB2E7196)
Strobe/Lamp Enabled: No (USB2E7196)
Correct for Detector Non-linearity: No (USB2E7196)
Correct for Stray Light: No (USB2E7196)
Number of Pixels in Processed Spectrum: 2048
>>>>>Begin Processed Spectral Data<<<<<
339.09	0.00
339.48	215.60
339.86	218.20
340.24	218.90
340.63	219.70
341.01	223.60
341.39	222.10
341.78	223.00
342.16	224.60
342.54	228.10
342.93	214.52
343.31	225.42
343.69	225.97
344.07	226.42
344.46	226.80
344.84	227.16
345.22	227.37
345.60	227.69
345.99	227.95
346.37	228.20
346.75	228.21
347.13	228.23
347.52	228.29
347.90	228.42
348.28	228.50
348.66	228.54
349.05	228.41
349.43	228.43
349.81	228.42
350.19	228.27
350.57	228.35
350.96	228.40
351.34	228.41
351.72	228.59
352.10	228.67
352.48	228.79
352.87	228.90
353.25	229.00
353.63	229.01
354.01	229.06
354.39	229.07
354.77	229.14
355.15	229.15
355.54	229.26
355.92	229.20
356.30	229.20
356.68	229.40
357.06	229.48
357.44	229.58
357.82	229.66
358.20	229.84
358.58	229.87
358.97	229.99
359.35	230.13
359.73	230.05
360.11	230.13
360.49	230.25
360.87	230.28
361.25	230.27
361.63	230.44
362.01	230.56
362.39	230.66
362.77	230.70
363.15	230.78
363.53	230.76
363.91	230.87
364.29	230.91
364.67	230.70
365.05	230.68
365.43	230.67
365.81	230.65
366.19	230.75
366.57	230.76
366.95	230.65
367.33	230.58
367.71	230.70
368.09	230.71
368.47	230.57
368.85	230.50
369.23	230.54
369.61	230.32
369.99	230.30
370.37	230.28
370.75	230.27
371.13	230.22
371.51	230.21
371.89	230.11
372.27	230.15
372.65	230.13
373.03	230.21
373.41	230.17
373.78	230.18
374.16	230.00
374.54	229.96
374.92	230.00
375.30	229.81
375.68	229.60
376.06	229.50
376.44	229.47
376.82	229.56
377.19	229.46
377.57	229.47
377.95	229.34
378.33	229.13
378.71	229.00
379.09	228.93
379.47	228.89
379.84	228.86
380.22	228.84
380.60	228.84
380.98	228.70
381.36	228.75
381.73	228.53
382.11	228.51
382.49	228.47
382.87	228.34
383.25	228.39
383.62	228.60
384.00	228.46
384.38	228.35
384.76	228.28
385.13	228.34
385.51	228.32
385.89	228.20
386.27	228.12
386.64	228.17
387.02	228.16
387.40	228.08
387.78	228.01
388.15	227.93
388.53	227.71
388.91	227.64
389.29	227.50
389.66	227.65
390.04	227.60
390.42	227.58
390.79	227.59
391.17	227.55
391.55	227.30
391.92	227.34
392.30	227.49
392.68	227.49
393.05	227.39
393.43	227.29
393.81	227.32
394.18	227.44
394.56	227.43
394.94	227.40
395.31	227.42
395.69	227.53
396.06	227.52
396.44	227.68
396.82	227.78
397.19	227.90
397.57	227.91
397.95	227.92
398.32	227.92
398.70	228.03
399.07	228.10
399.45	228.20
399.82	228.20
400.20	228.15
400.58	228.20
400.95	228.31
401.33	228.50
401.70	228.71
402.08	228.86
402.45	228.89
402.83	229.10
403.20	229.27
403.58	229.33
403.95	229.44
404.33	229.65
404.71	229.79
405.08	230.10
405.46	230.11
405.83	230.33
406.21	230.56
406.58	230.74
406.96	230.97
407.33	231.25
407.70	231.50
408.08	231.93
408.45	232.15
408.83	232.40
409.20	232.56
409.58	232.79
409.95	233.14
410.33	233.53
410.70	233.73
411.08	234.11
411.45	234.43
411.82	234.78
412.20	235.11
412.57	235.60
412.95	235.86
413.32	236.34
413.69	236.85
414.07	237.38
414.44	237.87
414.82	238.34
415.19	238.95
415.56	239.63
415.94	240.15
416.31	240.86
416.68	241.51
417.06	242.41
417.43	243.12
417.81	243.89
418.18	244.64
418.55	245.56
418.93	246.54
419.30	247.60
419.67	248.79
420.04	249.89
420.42	250.94
420.79	252.10
421.16	253.53
421.54	254.77
421.91	256.04
422.28	257.28
422.66	258.85
423.03	260.27
423.40	261.67
423.77	263.16
424.15	264.69
424.52	266.36
424.89	268.06
425.26	269.78
425.64	271.38
426.01	273.26
426.38	275.02
426.75	276.76
427.13	278.60
427.50	280.47
427.87	282.49
428.24	284.58
428.61	286.65
428.99	288.66
429.36	290.97
429.73	293.22
430.10	295.62
430.47	297.86
430.85	300.09
431.22	302.55
431.59	305.35
431.96	307.79
432.33	310.36
432.70	312.95
433.08	315.99
433.45	318.82
433.82	321.56
434.19	324.90
434.56	328.08
434.93	331.07
435.30	333.84
435.68	336.98
436.05	340.14
436.42	343.13
436.79	345.82
437.16	348.74
437.53	351.86
437.90	354.99
438.27	357.95
438.64	361.02
439.01	363.79
439.38	366.05
439.75	368.56
440.13	371.27
440.50	373.91
440.87	376.00
441.24	378.04
441.61	380.38
441.98	381.99
442.35	383.81
442.72	385.72
443.09	387.72
443.46	388.85
443.83	389.19
444.20	389.62
444.57	390.43
444.94	390.65
445.31	390.96
445.68	391.40
446.05	391.47
446.42	391.03
446.79	390.71
447.16	390.19
447.53	389.65
447.90	388.48
448.27	387.21
448.64	385.43
449.01	384.32
449.37	382.20
449.74	380.06
450.11	377.67
450.48	374.84
450.85	371.98
451.22	369.52
451.59	367.36
451.96	365.25
452.33	362.53
452.70	360.10
453.07	357.04
453.43	353.59
453.80	350.46
454.17	347.42
454.54	344.46
454.91	341.63
455.28	338.70
455.65	335.95
456.02	333.33
456.38	330.97
456.75	327.96
457.12	325.46
457.49	322.90
457.86	320.46
458.23	318.60
458.59	316.39
458.96	314.14
459.33	312.10
459.70	310.09
460.07	308.44
460.43	306.51
460.80	304.72
461.17	303.22
461.54	301.51
461.91	299.99
462.27	298.40
462.64	296.94
463.01	295.53
463.38	294.15
463.74	292.48
464.11	291.08
464.48	289.92
464.85	288.67
465.21	287.75
465.58	286.69
465.95	285.44
466.32	284.42
466.68	283.35
467.05	282.39
467.42	281.31
467.78	280.23
468.15	279.24
468.52	278.33
468.88	277.19
469.25	276.36
469.62	275.75
469.98	274.95
470.35	274.17
470.72	273.32
471.08	272.50
471.45	271.87
471.82	271.29
472.18	270.52
472.55	269.96
472.92	269.34
473.28	268.64
473.65	267.99
474.02	267.42
474.38	266.87
474.75	266.40
475.11	265.90
475.48	265.52
475.85	265.06
476.21	264.68
476.58	264.49
476.94	264.20
477.31	263.75
477.67	263.40
478.04	263.08
478.41	262.81
478.77	262.71
479.14	262.40
479.50	262.16
479.87	262.08
480.23	261.96
480.60	261.68
480.96	261.63
481.33	261.69
481.69	261.52
482.06	261.62
482.42	261.60
482.79	261.59
483.15	261.62
483.52	261.70
483.88	261.85
484.25	261.78
484.61	261.85
484.98	262.05
485.34	262.40
485.71	262.63
486.07	262.89
486.44	262.93
486.80	263.23
487.17	263.45
487.53	263.84
487.90	264.22
488.26	264.76
488.62	265.25
488.99	265.71
489.35	266.39
489.72	266.87
490.08	267.54
490.44	268.20
490.81	268.97
491.17	269.70
491.54	270.58
491.90	271.58
492.26	272.54
492.63	273.64
492.99	274.65
493.36	275.86
493.72	277.13
494.08	278.57
494.45	280.08
494.81	281.72
495.17	283.27
495.54	285.03
495.90	286.67
496.26	288.63
496.63	290.56
496.99	292.59
497.35	294.79
497.72	297.00
498.08	299.49
498.44	302.01
498.80	304.83
499.17	307.47
499.53	310.28
499.89	313.36
500.26	316.46
500.62	319.85
500.98	323.33
501.34	327.04
501.71	330.90
502.07	334.76
502.43	338.70
502.79	342.82
503.16	347.22
503.52	351.84
503.88	356.40
504.24	361.33
504.60	366.62
504.97	371.86
505.33	377.32
505.69	383.21
506.05	389.08
506.41	394.92
506.78	401.27
507.14	407.94
507.50	414.70
507.86	421.62
508.22	428.66
508.59	435.73
508.95	443.37
509.31	451.15
509.67	459.22
510.03	467.45
510.39	475.89
510.75	484.55
511.12	493.44
511.48	502.60
511.84	511.85
512.20	521.27
512.56	531.18
512.92	541.15
513.28	551.07
513.64	561.40
514.00	572.05
514.37	582.89
514.73	593.60
515.09	604.36
515.45	615.80
515.81	627.20
516.17	639.34
516.53	651.07
516.89	663.01
517.25	675.35
517.61	687.67
517.97	700.34
518.33	713.06
518.69	726.10
519.05	739.28
519.41	752.81
519.77	766.58
520.13	780.30
520.49	794.17
520.85	808.20
521.21	822.23
521.57	836.86
521.93	851.00
522.29	865.78
522.65	880.76
523.01	895.40
523.37	910.27
523.73	925.02
524.09	939.97
524.45	955.18
524.81	970.63
525.17	986.66
525.53	1002.55
525.89	1018.28
526.25	1034.36
526.61	1050.23
526.97	1066.32
527.33	1082.38
527.68	1098.51
528.04	1114.83
528.40	1131.25
528.76	1148.15
529.12	1164.61
529.48	1181.50
529.84	1197.61
530.20	1214.62
530.56	1231.83
530.91	1249.62
531.27	1266.93
531.63	1284.13
531.99	1301.01
532.35	1317.98
532.71	1333.95
533.07	1350.72
533.42	1367.69
533.78	1384.20
534.14	1400.95
534.50	1417.04
534.86	1433.21
535.21	1449.63
535.57	1466.50
535.93	1482.85
536.29	1498.89
536.65	1515.01
537.00	1530.86
537.36	1547.17
537.72	1562.67
538.08	1578.15
538.44	1593.19
538.79	1608.41
539.15	1623.22
539.51	1639.24
539.87	1654.65
540.22	1670.55
540.58	1685.76
540.94	1700.15
541.29	1714.79
541.65	1729.21
542.01	1744.46
542.37	1759.22
542.72	1773.36
543.08	1787.36
543.44	1801.46
543.79	1814.40
544.15	1827.81
544.51	1842.12
544.87	1855.60
545.22	1868.63
545.58	1881.43
545.94	1893.21
546.29	1905.32
546.65	1917.88
547.01	1929.45
547.36	1940.49
547.72	1951.40
548.07	1962.32
548.43	1973.71
548.79	1984.50
549.14	1994.97
549.50	2004.46
549.86	2013.90
550.21	2023.50
550.57	2032.88
550.92	2042.22
551.28	2051.65
551.64	2060.80
551.99	2069.35
552.35	2078.35
552.70	2087.19
553.06	2095.73
553.41	2104.73
553.77	2113.07
554.13	2121.50
554.48	2129.84
554.84	2138.09
555.19	2146.34
555.55	2153.94
555.90	2160.88
556.26	2168.28
556.61	2175.87
556.97	2182.86
557.32	2190.04
557.68	2197.35
558.03	2203.96
558.39	2209.90
558.74	2217.15
559.10	2223.84
559.45	2230.23
559.81	2236.66
560.16	2242.11
560.52	2247.89
560.87	2253.94
561.23	2259.00
561.58	2264.40
561.94	2268.94
562.29	2273.12
562.64	2277.28
563.00	2281.53
563.35	2287.09
563.71	2292.50
564.06	2297.14
564.42	2301.84
564.77	2306.50
565.12	2311.09
565.48	2315.50
565.83	2319.80
566.19	2323.55
566.54	2326.28
566.89	2329.20
567.25	2331.98
567.60	2336.04
567.96	2338.98
568.31	2341.42
568.66	2344.39
569.02	2346.32
569.37	2347.81
569.72	2350.08
570.08	2352.02
570.43	2353.69
570.78	2354.28
571.14	2354.06
571.49	2354.74
571.84	2356.21
572.20	2356.25
572.55	2355.76
572.90	2354.84
573.26	2354.89
573.61	2353.98
573.96	2353.69
574.31	2351.95
574.67	2350.40
575.02	2347.71
575.37	2346.12
575.72	2343.33
576.08	2341.45
576.43	2339.21
576.78	2337.75
577.13	2336.20
577.49	2333.92
577.84	2331.69
578.19	2328.94
578.54	2326.26
578.90	2322.50
579.25	2318.10
579.60	2314.44
579.95	2310.61
580.30	2307.20
580.66	2302.98
581.01	2298.69
581.36	2294.68
581.71	2291.12
582.06	2287.05
582.42	2283.63
582.77	2279.33
583.12	2275.75
583.47	2271.35
583.82	2267.60
584.17	2263.00
584.53	2257.80
584.88	2253.50
585.23	2248.80
585.58	2244.60
585.93	2240.23
586.28	2236.01
586.63	2231.91
586.98	2227.79
587.34	2223.41
587.69	2218.82
588.04	2214.27
588.39	2210.03
588.74	2203.90
589.09	2198.24
589.44	2192.10
589.79	2186.65
590.14	2181.28
590.49	2175.78
590.84	2170.06
591.19	2164.03
591.54	2157.20
591.89	2150.41
592.25	2143.81
592.60	2136.74
592.95	2129.40
593.30	2122.27
593.65	2115.30
594.00	2108.00
594.35	2101.80
594.70	2094.27
595.05	2087.73
595.40	2080.36
595.75	2072.99
596.10	2067.07
596.45	2061.03
596.80	2055.40
597.15	2048.97
597.50	2042.50
597.85	2036.14
598.19	2029.96
598.54	2023.70
598.89	2017.93
599.24	2012.69
599.59	2006.23
599.94	2000.65
600.29	1994.73
600.64	1988.39
600.99	1981.27
601.34	1974.40
601.69	1966.41
602.04	1959.81
602.39	1952.77
602.74	1946.39
603.08	1940.35
603.43	1933.93
603.78	1927.03
604.13	1919.97
604.48	1913.08
604.83	1905.53
605.18	1898.28
605.53	1890.25
605.87	1882.00
606.22	1874.90
606.57	1866.90
606.92	1859.81
607.27	1852.57
607.62	1845.50
607.96	1838.29
608.31	1831.80
608.66	1824.58
609.01	1816.88
609.36	1809.02
609.70	1800.29
610.05	1791.58
610.40	1782.96
610.75	1774.34
611.10	1765.96
611.44	1756.74
611.79	1748.51
612.14	1740.41
612.49	1731.14
612.83	1723.06
613.18	1715.12
613.53	1706.70
613.88	1698.14
614.22	1689.43
614.57	1680.14
614.92	1671.14
615.27	1663.00
615.61	1653.89
615.96	1645.27
616.31	1637.70
616.65	1630.44
617.00	1622.66
617.35	1615.07
617.70	1606.88
618.04	1598.57
618.39	1590.43
618.74	1583.20
619.08	1574.38
619.43	1566.27
619.78	1558.84
620.12	1550.68
620.47	1542.65
620.82	1534.33
621.16	1526.21
621.51	1518.19
621.85	1510.24
622.20	1501.90
622.55	1493.55
622.89	1486.25
623.24	1478.99
623.59	1471.35
623.93	1463.27
624.28	1455.85
624.62	1447.60
624.97	1440.08
625.32	1432.43
625.66	1424.84
626.01	1417.10
626.35	1409.35
626.70	1401.59
627.04	1393.95
627.39	1386.20
627.73	1378.29
628.08	1370.60
628.43	1362.95
628.77	1354.98
629.12	1347.32
629.46	1339.92
629.81	1331.59
630.15	1323.13
630.50	1314.79
630.84	1305.90
631.19	1297.23
631.53	1288.76
631.88	1281.03
632.22	1272.40
632.57	1264.72
632.91	1256.84
633.26	1248.91
633.60	1241.10
633.95	1233.38
634.29	1225.58
634.64	1218.22
634.98	1210.43
635.32	1203.02
635.67	1196.19
636.01	1189.40
636.36	1181.94
636.70	1174.78
637.05	1168.04
637.39	1161.38
637.73	1154.43
638.08	1148.01
638.42	1141.84
638.77	1135.60
639.11	1128.79
639.45	1122.22
639.80	1115.10
640.14	1107.78
640.49	1100.98
640.83	1093.89
641.17	1087.01
641.52	1080.33
641.86	1073.13
642.20	1066.81
642.55	1059.96
642.89	1052.90
643.23	1045.70
643.58	1039.57
643.92	1032.76
644.26	1026.08
644.61	1019.55
644.95	1012.84
645.29	1005.76
645.64	998.60
645.98	991.63
646.32	985.20
646.66	978.41
647.01	972.04
647.35	965.70
647.69	958.81
648.04	952.69
648.38	946.00
648.72	939.14
649.06	932.58
649.41	925.87
649.75	919.20
650.09	912.39
650.43	905.96
650.78	898.90
651.12	892.30
651.46	885.95
651.80	879.51
652.14	873.47
652.49	867.33
652.83	861.50
653.17	854.95
653.51	848.43
653.85	842.30
654.20	835.91
654.54	829.83
654.88	823.79
655.22	817.51
655.56	811.19
655.90	805.68
656.25	800.00
656.59	794.00
656.93	788.34
657.27	782.73
657.61	776.87
657.95	771.59
658.29	766.17
658.64	760.45
658.98	754.78
659.32	748.91
659.66	743.57
660.00	737.77
660.34	732.54
660.68	727.33
661.02	722.16
661.36	717.27
661.70	712.39
662.05	707.55
662.39	703.00
662.73	698.29
663.07	693.33
663.41	688.78
663.75	684.19
664.09	679.43
664.43	674.84
664.77	670.60
665.11	665.98
665.45	661.57
665.79	657.10
666.13	652.60
666.47	648.35
666.81	643.59
667.15	639.02
667.49	634.85
667.83	630.79
668.17	626.51
668.51	622.08
668.85	617.82
669.19	613.79
669.53	609.60
669.87	605.49
670.21	601.40
670.55	597.40
670.89	593.78
671.23	590.18
671.57	586.35
671.91	582.48
672.25	578.63
672.58	574.89
672.92	571.18
673.26	567.71
673.60	564.30
673.94	561.06
674.28	558.07
674.62	554.87
674.96	551.31
675.30	548.14
675.64	544.89
675.97	541.56
676.31	538.31
676.65	535.02
676.99	532.16
677.33	528.89
677.67	525.58
678.01	522.10
678.34	518.87
678.68	515.82
679.02	512.53
679.36	509.60
679.70	506.52
680.04	503.57
680.37	500.35
680.71	497.36
681.05	494.59
681.39	491.59
681.73	488.61
682.06	486.09
682.40	483.51
682.74	480.78
683.08	478.12
683.42	475.45
683.75	472.72
684.09	469.83
684.43	467.42
684.77	464.89
685.10	462.37
685.44	459.85
685.78	457.44
686.12	455.16
686.45	452.73
686.79	450.26
687.13	447.80
687.46	445.56
687.80	443.03
688.14	440.59
688.48	438.19
688.81	435.73
689.15	433.18
689.49	430.67
689.82	428.44
690.16	426.20
690.50	423.97
690.83	421.75
691.17	419.47
691.51	417.12
691.84	414.96
692.18	412.61
692.52	410.32
692.85	407.99
693.19	405.80
693.52	403.66
693.86	401.58
694.20	399.68
694.53	397.64
694.87	395.53
695.21	393.45
695.54	391.35
695.88	389.28
696.21	387.35
696.55	385.38
696.88	383.47
697.22	381.53
697.56	379.69
697.89	377.91
698.23	376.23
698.56	374.42
698.90	372.57
699.23	370.79
699.57	369.04
699.90	367.41
700.24	365.58
700.58	363.70
700.91	362.01
701.25	360.37
701.58	358.84
701.92	357.42
702.25	355.89
702.59	354.48
702.92	353.06
703.26	351.63
703.59	350.12
703.93	348.78
704.26	347.27
704.60	345.77
704.93	344.26
705.26	342.73
705.60	341.46
705.93	340.22
706.27	339.10
706.60	337.84
706.94	336.49
707.27	335.15
707.61	334.00
707.94	332.80
708.27	331.53
708.61	330.18
708.94	328.89
709.28	327.87
709.61	326.78
709.94	325.73
710.28	324.57
710.61	323.46
710.95	322.28
711.28	321.29
711.61	320.14
711.95	319.10
712.28	317.95
712.61	316.94
712.95	315.88
713.28	314.90
713.61	313.79
713.95	312.75
714.28	311.87
714.61	310.88
714.95	309.98
715.28	308.95
715.61	307.94
715.95	306.88
716.28	305.78
716.61	304.76
716.95	303.85
717.28	303.03
717.61	302.13
717.94	301.23
718.28	300.31
718.61	299.51
718.94	298.70
719.27	297.97
719.61	297.10
719.94	296.36
720.27	295.41
720.60	294.67
720.94	293.96
721.27	293.24
721.60	292.50
721.93	291.74
722.27	291.14
722.60	290.50
722.93	289.98
723.26	289.37
723.59	288.70
723.93	287.99
724.26	287.20
724.59	286.60
724.92	285.84
725.25	285.21
725.59	284.54
725.92	283.90
726.25	283.32
726.58	282.73
726.91	282.13
727.24	281.57
727.57	280.93
727.91	280.30
728.24	279.80
728.57	279.20
728.90	278.61
729.23	277.95
729.56	277.61
729.89	277.00
730.22	276.45
730.55	275.83
730.89	275.26
731.22	274.79
731.55	274.22
731.88	273.75
732.21	273.17
732.54	272.68
732.87	272.14
733.20	271.54
733.53	271.10
733.86	270.50
734.19	269.98
734.52	269.57
734.85	269.20
735.18	268.61
735.51	268.26
735.84	267.80
736.17	267.50
736.50	266.73
736.83	266.49
737.16	266.03
737.49	265.66
737.82	265.37
738.15	264.96
738.48	264.56
738.81	264.16
739.14	263.70
739.47	263.44
739.80	263.08
740.13	262.79
740.46	262.27
740.79	261.96
741.12	261.68
741.45	261.30
741.78	260.91
742.11	260.64
742.44	260.28
742.77	260.00
743.10	259.54
743.43	259.25
743.75	258.79
744.08	258.68
744.41	258.37
744.74	257.91
745.07	257.53
745.40	257.23
745.73	256.95
746.06	256.66
746.39	256.14
746.71	255.74
747.04	255.40
747.37	255.09
747.70	254.71
748.03	254.39
748.36	254.07
748.68	253.72
749.01	253.30
749.34	252.90
749.67	252.48
750.00	252.21
750.33	252.14
750.65	251.81
750.98	251.44
751.31	251.25
751.64	250.92
751.97	250.72
752.29	250.49
752.62	250.20
752.95	249.98
753.28	249.81
753.60	249.66
753.93	249.40
754.26	249.27
754.59	248.97
754.91	248.75
755.24	248.55
755.57	248.33
755.90	248.13
756.22	247.94
756.55	247.82
756.88	247.54
757.20	247.12
757.53	246.81
757.86	246.49
758.19	246.26
758.51	246.14
758.84	245.96
759.17	245.69
759.49	245.49
759.82	245.34
760.15	245.04
760.47	244.89
760.80	244.77
761.13	244.55
761.45	244.50
761.78	244.33
762.11	244.08
762.43	243.91
762.76	243.83
763.08	243.65
763.41	243.49
763.74	243.30
764.06	243.15
764.39	243.10
764.71	242.91
765.04	242.70
765.37	242.48
765.69	242.22
766.02	242.11
766.34	242.01
766.67	241.81
767.00	241.68
767.32	241.55
767.65	241.47
767.97	241.34
768.30	241.26
768.62	240.99
768.95	240.85
769.27	240.60
769.60	240.48
769.92	240.35
770.25	240.12
770.57	239.95
770.90	239.75
771.22	239.57
771.55	239.36
771.87	239.19
772.20	239.05
772.52	239.03
772.85	239.09
773.17	238.96
773.50	238.80
773.82	238.75
774.15	238.52
774.47	238.17
774.80	237.95
775.12	237.65
775.45	237.63
775.77	237.50
776.09	237.44
776.42	237.30
776.74	237.26
777.07	237.14
777.39	237.08
777.72	237.01
778.04	237.01
778.36	236.86
778.69	236.74
779.01	236.73
779.33	236.50
779.66	236.18
779.98	236.03
780.31	235.87
780.63	235.92
780.95	235.80
781.28	235.66
781.60	235.58
781.92	235.48
782.25	235.31
782.57	235.26
782.89	235.12
783.22	235.01
783.54	234.86
783.86	234.77
784.19	234.62
784.51	234.61
784.83	234.45
785.16	234.40
785.48	234.43
785.80	234.32
786.12	234.30
786.45	234.20
786.77	234.13
787.09	234.14
