SpectraSuite Data File
++++++++++++++++++++++++++++++++++++
Date: Fri Feb 01 14:39:33 EST 2013
User: group
Dark Spectrum Present: No
Reference Spectrum Present: No
Number of Sampled Component Spectra: 1
Spectrometers: USB2E7196
Integration Time (usec): 70000 (USB2E7196)
Spectra Averaged: 10 (USB2E7196)
Boxcar Smoothing: 10 (USB2E7196)
Correct for Electrical Dark: No (USB2E7196)
Strobe/Lamp Enabled: No (USB2E7196)
Correct for Detector Non-linearity: No (USB2E7196)
Correct for Stray Light: No (USB2E7196)
Number of Pixels in Processed Spectrum: 2048
>>>>>Begin Processed Spectral Data<<<<<
339.09	0.00
339.48	217.00
339.86	217.30
340.24	218.50
340.63	219.70
341.01	224.80
341.39	223.70
341.78	225.20
342.16	226.60
342.54	225.30
342.93	214.85
343.31	225.67
343.69	226.16
344.07	226.70
344.46	227.17
344.84	227.58
345.22	227.77
345.60	227.95
345.99	228.06
346.37	228.10
346.75	228.20
347.13	228.31
347.52	228.40
347.90	228.45
348.28	228.49
348.66	228.41
349.05	228.32
349.43	228.31
349.81	228.29
350.19	228.30
350.57	228.30
350.96	228.42
351.34	228.55
351.72	228.67
352.10	228.76
352.48	228.84
352.87	229.00
353.25	229.04
353.63	229.12
354.01	229.25
354.39	229.41
354.77	229.53
355.15	229.74
355.54	229.89
355.92	229.94
356.30	229.93
356.68	230.25
357.06	230.30
357.44	230.40
357.82	230.53
358.20	230.62
358.58	230.72
358.97	230.69
359.35	230.69
359.73	230.80
360.11	230.80
360.49	230.80
360.87	230.79
361.25	230.94
361.63	231.03
362.01	231.05
362.39	231.03
362.77	231.08
363.15	231.10
363.53	231.00
363.91	231.03
364.29	231.09
364.67	230.93
365.05	230.92
365.43	230.92
365.81	230.90
366.19	230.96
366.57	231.09
366.95	231.10
367.33	231.09
367.71	230.96
368.09	230.95
368.47	230.96
368.85	230.87
369.23	230.79
369.61	230.80
369.99	230.82
370.37	230.79
370.75	230.82
371.13	230.62
371.51	230.60
371.89	230.47
372.27	230.40
372.65	230.31
373.03	230.26
373.41	230.13
373.78	230.05
374.16	229.94
374.54	229.74
374.92	229.69
375.30	229.63
375.68	229.58
376.06	229.47
376.44	229.34
376.82	229.23
377.19	229.08
377.57	228.90
377.95	228.70
378.33	228.66
378.71	228.46
379.09	228.43
379.47	228.39
379.84	228.34
380.22	228.35
380.60	228.18
380.98	228.21
381.36	228.10
381.73	228.03
382.11	227.95
382.49	227.90
382.87	227.78
383.25	227.68
383.62	227.84
384.00	227.76
384.38	227.69
384.76	227.72
385.13	227.78
385.51	227.75
385.89	227.75
386.27	227.62
386.64	227.60
387.02	227.57
387.40	227.50
387.78	227.44
388.15	227.47
388.53	227.39
388.91	227.36
389.29	227.35
389.66	227.24
390.04	227.24
390.42	227.21
390.79	227.18
391.17	227.21
391.55	226.94
391.92	226.94
392.30	227.03
392.68	227.00
393.05	227.00
393.43	227.00
393.81	226.99
394.18	227.02
394.56	227.03
394.94	227.14
395.31	227.03
395.69	227.16
396.06	227.10
396.44	227.25
396.82	227.14
397.19	227.32
397.57	227.43
397.95	227.51
398.32	227.55
398.70	227.61
399.07	227.70
399.45	227.77
399.82	227.79
400.20	227.82
400.58	227.86
400.95	227.90
401.33	228.11
401.70	228.46
402.08	228.60
402.45	228.74
402.83	228.83
403.20	229.05
403.58	229.19
403.95	229.35
404.33	229.50
404.71	229.69
405.08	229.86
405.46	230.10
405.83	230.18
406.21	230.24
406.58	230.45
406.96	230.64
407.33	230.92
407.70	231.24
408.08	231.56
408.45	231.77
408.83	231.94
409.20	232.05
409.58	232.03
409.95	232.22
410.33	232.57
410.70	232.83
411.08	233.13
411.45	233.29
411.82	233.56
412.20	233.90
412.57	234.39
412.95	234.62
413.32	234.91
413.69	235.37
414.07	235.80
414.44	236.20
414.82	236.58
415.19	237.12
415.56	237.72
415.94	238.19
416.31	238.89
416.68	239.60
417.06	240.34
417.43	241.00
417.81	241.74
418.18	242.40
418.55	243.17
418.93	243.98
419.30	245.01
419.67	245.89
420.04	246.78
420.42	247.65
420.79	248.90
421.16	250.09
421.54	251.26
421.91	252.67
422.28	253.95
422.66	255.36
423.03	256.80
423.40	258.04
423.77	259.45
424.15	260.86
424.52	262.40
424.89	263.98
425.26	265.64
425.64	267.18
426.01	268.86
426.38	270.66
426.75	272.56
427.13	274.29
427.50	276.20
427.87	278.10
428.24	280.13
428.61	281.80
428.99	283.88
429.36	286.08
429.73	288.23
430.10	290.48
430.47	292.62
430.85	294.74
431.22	297.12
431.59	299.71
431.96	302.18
432.33	304.76
432.70	307.30
433.08	310.48
433.45	313.37
433.82	316.11
434.19	319.10
434.56	322.09
434.93	325.00
435.30	327.85
435.68	331.14
436.05	334.23
436.42	337.41
436.79	340.22
437.16	343.19
437.53	346.38
437.90	349.43
438.27	352.60
438.64	355.74
439.01	358.56
439.38	361.07
439.75	363.47
440.13	366.36
440.50	369.01
440.87	371.13
441.24	373.38
441.61	375.84
441.98	377.61
442.35	379.60
442.72	381.80
443.09	383.98
443.46	385.10
443.83	385.80
444.20	386.53
444.57	387.52
444.94	388.18
445.31	388.59
445.68	389.33
446.05	389.62
446.42	389.36
446.79	389.31
447.16	389.05
447.53	388.97
447.90	387.84
448.27	386.99
448.64	385.27
449.01	384.29
449.37	382.50
449.74	380.67
450.11	378.53
450.48	376.01
450.85	373.43
451.22	371.23
451.59	369.37
451.96	367.44
452.33	364.78
452.70	362.28
453.07	359.38
453.43	356.19
453.80	353.20
454.17	350.42
454.54	347.70
454.91	344.83
455.28	341.73
455.65	339.08
456.02	336.51
456.38	334.25
456.75	331.26
457.12	328.80
457.49	326.42
457.86	323.82
458.23	321.89
458.59	319.72
458.96	317.59
459.33	315.52
459.70	313.45
460.07	311.86
460.43	309.87
460.80	308.05
461.17	306.41
461.54	304.63
461.91	303.05
462.27	301.38
462.64	299.90
463.01	298.60
463.38	297.13
463.74	295.36
464.11	294.05
464.48	292.89
464.85	291.69
465.21	290.64
465.58	289.81
465.95	288.48
466.32	287.45
466.68	286.46
467.05	285.39
467.42	284.23
467.78	283.02
468.15	282.00
468.52	281.27
468.88	280.24
469.25	279.36
469.62	278.59
469.98	277.69
470.35	276.93
470.72	276.10
471.08	275.37
471.45	274.79
471.82	274.07
472.18	273.28
472.55	272.54
472.92	271.90
473.28	271.09
473.65	270.47
474.02	269.71
474.38	269.05
474.75	268.53
475.11	267.99
475.48	267.57
475.85	267.07
476.21	266.51
476.58	266.10
476.94	265.74
477.31	265.27
477.67	264.92
478.04	264.48
478.41	264.20
478.77	263.92
479.14	263.46
479.50	263.33
479.87	263.06
480.23	262.80
480.60	262.47
480.96	262.26
481.33	262.06
481.69	261.90
482.06	261.79
482.42	261.58
482.79	261.41
483.15	261.24
483.52	261.19
483.88	261.14
484.25	261.07
484.61	260.99
484.98	260.90
485.34	260.94
485.71	260.99
486.07	261.00
486.44	260.85
486.80	260.83
487.17	260.71
487.53	260.83
487.90	260.91
488.26	261.04
488.62	261.21
488.99	261.20
489.35	261.41
489.72	261.40
490.08	261.49
490.44	261.77
490.81	261.95
491.17	262.15
491.54	262.34
491.90	262.42
492.26	262.60
492.63	262.93
492.99	263.10
493.36	263.23
493.72	263.50
494.08	263.84
494.45	264.16
494.81	264.52
495.17	264.85
495.54	265.22
495.90	265.60
496.26	266.11
496.63	266.51
496.99	266.91
497.35	267.52
497.72	268.05
498.08	268.50
498.44	269.03
498.80	269.63
499.17	270.13
499.53	270.85
499.89	271.65
500.26	272.23
500.62	272.88
500.98	273.81
501.34	274.53
501.71	275.41
502.07	276.25
502.43	277.08
502.79	277.97
503.16	278.90
503.52	279.93
503.88	280.88
504.24	282.06
504.60	283.05
504.97	284.22
505.33	285.49
505.69	287.00
506.05	288.45
506.41	289.82
506.78	291.38
507.14	292.79
507.50	294.31
507.86	295.95
508.22	297.79
508.59	299.48
508.95	301.48
509.31	303.49
509.67	305.53
510.03	307.60
510.39	309.67
510.75	312.03
511.12	314.25
511.48	316.70
511.84	319.07
512.20	321.80
512.56	324.41
512.92	327.06
513.28	329.66
513.64	332.38
514.00	335.39
514.37	338.47
514.73	341.92
515.09	345.18
515.45	348.70
515.81	352.07
516.17	355.63
516.53	359.08
516.89	362.63
517.25	366.61
517.61	370.69
517.97	374.65
518.33	378.60
518.69	382.99
519.05	387.32
519.41	391.80
519.77	396.55
520.13	401.38
520.49	406.21
520.85	411.00
521.21	416.14
521.57	421.35
521.93	426.37
522.29	431.57
522.65	436.86
523.01	442.13
523.37	447.64
523.73	453.20
524.09	458.91
524.45	464.57
524.81	470.17
525.17	476.09
525.53	482.23
525.89	488.50
526.25	494.81
526.61	500.90
526.97	507.48
527.33	513.68
527.68	520.35
528.04	527.13
528.40	533.87
528.76	540.89
529.12	547.78
529.48	554.97
529.84	561.80
530.20	569.14
530.56	576.72
530.91	584.49
531.27	592.20
531.63	599.75
531.99	607.55
532.35	615.60
532.71	623.30
533.07	631.38
533.42	639.43
533.78	647.13
534.14	655.29
534.50	663.13
534.86	671.31
535.21	679.03
535.57	687.31
535.93	695.68
536.29	703.64
536.65	711.80
537.00	720.06
537.36	728.31
537.72	736.23
538.08	744.10
538.44	752.02
538.79	760.00
539.15	768.21
539.51	776.53
539.87	784.83
540.22	793.04
540.58	801.30
540.94	809.54
541.29	817.59
541.65	825.81
542.01	834.31
542.37	842.77
542.72	850.94
543.08	859.01
543.44	867.17
543.79	875.20
544.15	883.59
544.51	891.87
544.87	900.26
545.22	908.53
545.58	916.53
545.94	924.22
546.29	932.20
546.65	940.04
547.01	947.75
547.36	955.23
547.72	962.88
548.07	970.63
548.43	977.58
548.79	985.14
549.14	992.13
549.50	999.19
549.86	1005.96
550.21	1013.16
550.57	1020.03
550.92	1027.11
551.28	1033.91
551.64	1040.24
551.99	1047.08
552.35	1053.43
552.70	1060.11
553.06	1067.03
553.41	1073.86
553.77	1080.31
554.13	1086.98
554.48	1093.28
554.84	1099.38
555.19	1105.70
555.55	1111.44
555.90	1117.82
556.26	1123.88
556.61	1130.44
556.97	1136.12
557.32	1142.18
557.68	1148.11
558.03	1153.93
558.39	1159.48
558.74	1165.66
559.10	1171.36
559.45	1176.83
559.81	1183.05
560.16	1188.40
560.52	1193.45
560.87	1199.04
561.23	1204.49
561.58	1209.72
561.94	1214.53
562.29	1219.47
562.64	1224.20
563.00	1229.21
563.35	1234.58
563.71	1240.10
564.06	1244.79
564.42	1249.76
564.77	1254.47
565.12	1258.73
565.48	1263.29
565.83	1267.59
566.19	1271.85
566.54	1275.93
566.89	1279.94
567.25	1283.35
567.60	1287.63
567.96	1291.74
568.31	1295.03
568.66	1298.18
569.02	1301.35
569.37	1304.54
569.72	1308.12
570.08	1310.76
570.43	1313.57
570.78	1315.81
571.14	1317.59
571.49	1320.08
571.84	1323.08
572.20	1324.91
572.55	1327.20
572.90	1328.68
573.26	1330.64
573.61	1332.37
573.96	1334.35
574.31	1335.04
574.67	1335.75
575.02	1336.56
575.37	1337.30
575.72	1337.99
576.08	1339.43
576.43	1340.30
576.78	1341.64
577.13	1342.25
577.49	1343.52
577.84	1343.89
578.19	1344.38
578.54	1344.62
578.90	1344.39
579.25	1343.47
579.60	1343.18
579.95	1342.84
580.30	1342.83
580.66	1342.38
581.01	1341.49
581.36	1340.84
581.71	1341.01
582.06	1341.07
582.42	1340.27
582.77	1339.18
583.12	1338.55
583.47	1337.55
583.82	1336.70
584.17	1335.42
584.53	1334.20
584.88	1333.21
585.23	1332.02
585.58	1331.03
585.93	1330.06
586.28	1329.23
586.63	1328.30
586.98	1327.53
587.34	1326.51
587.69	1325.30
588.04	1323.91
588.39	1322.73
588.74	1320.68
589.09	1318.88
589.44	1316.92
589.79	1315.39
590.14	1314.30
590.49	1312.50
590.84	1310.29
591.19	1308.18
591.54	1305.70
591.89	1302.80
592.25	1300.33
592.60	1297.65
592.95	1294.61
593.30	1291.91
593.65	1288.95
594.00	1286.13
594.35	1283.67
594.70	1280.39
595.05	1277.50
595.40	1274.53
595.75	1271.25
596.10	1268.88
596.45	1266.10
596.80	1263.54
597.15	1260.70
597.50	1257.34
597.85	1254.60
598.19	1252.14
598.54	1249.67
598.89	1247.30
599.24	1245.50
599.59	1242.89
599.94	1240.77
600.29	1237.99
600.64	1235.13
600.99	1231.63
601.34	1228.70
601.69	1225.20
602.04	1222.59
602.39	1219.70
602.74	1217.05
603.08	1214.61
603.43	1211.83
603.78	1208.72
604.13	1205.56
604.48	1202.22
604.83	1199.62
605.18	1196.20
605.53	1192.60
605.87	1188.61
606.22	1185.09
606.57	1181.32
606.92	1177.72
607.27	1174.23
607.62	1170.87
607.96	1167.40
608.31	1164.61
608.66	1160.91
609.01	1157.03
609.36	1152.83
609.70	1148.41
610.05	1143.99
610.40	1139.79
610.75	1135.29
611.10	1131.03
611.44	1126.40
611.79	1122.50
612.14	1117.91
612.49	1113.25
612.83	1108.46
613.18	1104.19
613.53	1099.64
613.88	1095.00
614.22	1090.06
614.57	1085.05
614.92	1080.64
615.27	1076.23
615.61	1071.60
615.96	1067.23
616.31	1063.48
616.65	1059.80
617.00	1055.87
617.35	1051.70
617.70	1047.20
618.04	1042.82
618.39	1038.31
618.74	1034.32
619.08	1029.52
619.43	1025.18
619.78	1021.05
620.12	1017.02
620.47	1012.75
620.82	1008.45
621.16	1004.22
621.51	1000.27
621.85	996.01
622.20	991.40
622.55	987.17
622.89	982.78
623.24	978.73
623.59	974.25
623.93	969.92
624.28	965.49
624.62	961.28
624.97	957.17
625.32	953.08
625.66	949.19
626.01	944.77
626.35	940.56
626.70	936.41
627.04	932.33
627.39	927.98
627.73	923.79
628.08	919.62
628.43	915.64
628.77	911.51
629.12	907.38
629.46	903.40
629.81	898.70
630.15	894.43
630.50	889.76
630.84	884.96
631.19	880.27
631.53	875.86
631.88	871.23
632.22	866.50
632.57	862.14
632.91	857.52
633.26	853.20
633.60	848.92
633.95	844.60
634.29	840.20
634.64	836.22
634.98	831.59
635.32	827.54
635.67	823.50
636.01	819.22
636.36	814.97
636.70	811.10
637.05	807.39
637.39	803.61
637.73	799.71
638.08	796.36
638.42	792.53
638.77	788.82
639.11	784.91
639.45	780.83
639.80	776.90
640.14	773.21
640.49	769.37
640.83	765.36
641.17	761.44
641.52	757.67
641.86	753.46
642.20	749.87
642.55	745.92
642.89	741.81
643.23	737.84
643.58	734.29
643.92	730.24
644.26	726.31
644.61	722.51
644.95	718.93
645.29	714.71
645.64	710.46
645.98	706.60
646.32	702.89
646.66	699.43
647.01	695.43
647.35	691.56
647.69	688.08
648.04	684.52
648.38	680.53
648.72	676.55
649.06	673.04
649.41	669.20
649.75	664.93
650.09	660.97
650.43	657.22
650.78	653.15
651.12	649.07
651.46	645.40
651.80	641.70
652.14	637.79
652.49	634.11
652.83	630.91
653.17	627.15
653.51	623.56
653.85	619.90
654.20	616.36
654.54	612.47
654.88	608.37
655.22	604.49
655.56	600.80
655.90	597.32
656.25	593.73
656.59	590.36
656.93	587.39
657.27	584.07
657.61	580.51
657.95	577.26
658.29	574.19
658.64	570.82
658.98	567.21
659.32	563.73
659.66	560.38
660.00	556.90
660.34	553.58
660.68	550.38
661.02	547.22
661.36	544.26
661.70	541.48
662.05	538.68
662.39	535.89
662.73	533.00
663.07	530.27
663.41	527.44
663.75	524.42
664.09	521.64
664.43	518.70
664.77	515.97
665.11	513.19
665.45	510.51
665.79	507.80
666.13	505.19
666.47	502.64
666.81	500.05
667.15	497.26
667.49	494.69
667.83	492.04
668.17	489.28
668.51	486.49
668.85	483.79
669.19	481.34
669.53	478.89
669.87	476.45
670.21	473.80
670.55	471.15
670.89	468.89
671.23	466.48
671.57	464.28
671.91	462.05
672.25	459.76
672.58	457.36
672.92	455.15
673.26	452.90
673.60	450.64
673.94	448.58
674.28	446.75
674.62	444.88
674.96	442.83
675.30	440.91
675.64	438.91
675.97	436.97
676.31	435.04
676.65	432.97
676.99	431.15
677.33	429.30
677.67	427.45
678.01	425.49
678.34	423.50
678.68	421.47
679.02	419.36
679.36	417.56
679.70	415.86
680.04	413.82
680.37	411.87
680.71	410.02
681.05	408.20
681.39	406.25
681.73	404.44
682.06	402.79
682.40	401.09
682.74	399.40
683.08	397.76
683.42	395.76
683.75	394.20
684.09	392.43
684.43	390.76
684.77	389.09
685.10	387.31
685.44	385.75
685.78	384.25
686.12	382.81
686.45	381.10
686.79	379.33
687.13	377.86
687.46	376.28
687.80	374.73
688.14	373.14
688.48	371.74
688.81	370.09
689.15	368.40
689.49	366.80
689.82	365.28
690.16	363.72
690.50	362.45
690.83	360.84
691.17	359.22
691.51	357.88
691.84	356.56
692.18	355.29
692.52	353.75
692.85	352.32
693.19	351.01
693.52	349.75
693.86	348.25
694.20	346.89
694.53	345.67
694.87	344.38
695.21	342.96
695.54	341.65
695.88	340.32
696.21	339.08
696.55	337.90
696.88	336.56
697.22	335.31
697.56	334.03
697.89	332.79
698.23	331.74
698.56	330.40
698.90	329.12
699.23	327.86
699.57	326.69
699.90	325.36
700.24	324.13
700.58	322.87
700.91	321.93
701.25	320.80
701.58	319.78
701.92	318.69
702.25	317.73
702.59	316.70
702.92	315.65
703.26	314.75
703.59	313.63
703.93	312.83
704.26	311.86
704.60	310.90
704.93	310.00
705.26	308.93
705.60	308.01
705.93	307.10
706.27	306.32
706.60	305.50
706.94	304.91
707.27	303.93
707.61	303.07
707.94	302.23
708.27	301.43
708.61	300.56
708.94	299.77
709.28	298.96
709.61	297.99
709.94	297.32
710.28	296.37
710.61	295.63
710.95	294.81
711.28	294.03
711.61	293.26
711.95	292.49
712.28	291.74
712.61	290.94
712.95	290.24
713.28	289.41
713.61	288.62
713.95	287.84
714.28	287.26
714.61	286.54
714.95	285.84
715.28	285.17
715.61	284.40
715.95	283.84
716.28	283.22
716.61	282.64
716.95	282.00
717.28	281.51
717.61	281.02
717.94	280.28
718.28	279.72
718.61	279.09
718.94	278.57
719.27	278.08
719.61	277.59
719.94	277.03
720.27	276.47
720.60	275.91
720.94	275.36
721.27	274.88
721.60	274.52
721.93	274.00
722.27	273.53
722.60	273.17
722.93	272.68
723.26	272.30
723.59	271.91
723.93	271.38
724.26	270.93
724.59	270.40
724.92	270.00
725.25	269.54
725.59	269.11
725.92	268.62
726.25	268.25
726.58	267.97
726.91	267.65
727.24	267.30
727.57	266.94
727.91	266.54
728.24	266.23
728.57	265.78
728.90	265.39
729.23	264.93
729.56	264.63
729.89	264.13
730.22	263.65
730.55	263.20
730.89	262.94
731.22	262.53
731.55	262.29
731.88	262.04
732.21	261.71
732.54	261.35
732.87	261.20
733.20	260.88
733.53	260.48
733.86	260.09
734.19	259.81
734.52	259.55
734.85	259.40
735.18	258.90
735.51	258.68
735.84	258.29
736.17	258.01
736.50	257.68
736.83	257.67
737.16	257.24
737.49	257.00
737.82	256.69
738.15	256.46
738.48	256.12
738.81	255.76
739.14	255.44
739.47	255.22
739.80	254.88
740.13	254.59
740.46	254.30
740.79	254.02
741.12	253.67
741.45	253.36
741.78	252.97
742.11	252.75
742.44	252.46
742.77	252.40
743.10	252.21
743.43	251.85
743.75	251.30
744.08	251.32
744.41	251.03
744.74	250.70
745.07	250.39
745.40	250.09
745.73	249.87
746.06	249.64
746.39	249.32
746.71	249.01
747.04	248.75
747.37	248.47
747.70	248.18
748.03	247.88
748.36	247.67
748.68	247.46
749.01	247.31
749.34	247.04
749.67	246.70
750.00	246.50
750.33	246.50
750.65	246.40
750.98	246.11
751.31	245.84
751.64	245.63
751.97	245.50
752.29	245.23
752.62	244.92
752.95	244.66
753.28	244.54
753.60	244.24
753.93	244.18
754.26	243.93
754.59	243.70
754.91	243.63
755.24	243.40
755.57	243.17
755.90	242.86
756.22	242.60
756.55	242.28
756.88	242.06
757.20	241.66
757.53	241.46
757.86	241.31
758.19	241.24
758.51	241.06
758.84	240.76
759.17	240.59
759.49	240.53
759.82	240.46
760.15	240.38
760.47	240.27
760.80	239.95
761.13	239.89
761.45	239.73
761.78	239.58
762.11	239.50
762.43	239.34
762.76	239.20
763.08	239.17
763.41	239.17
763.74	238.97
764.06	238.82
764.39	238.65
764.71	238.50
765.04	238.34
765.37	238.35
765.69	238.26
766.02	238.16
766.34	238.05
766.67	237.95
767.00	237.79
767.32	237.99
767.65	238.10
767.97	238.07
768.30	238.11
768.62	238.06
768.95	237.96
769.27	237.79
769.60	237.79
769.92	237.48
770.25	237.38
770.57	237.33
770.90	237.33
771.22	237.24
771.55	237.03
771.87	237.03
772.20	236.90
772.52	237.12
772.85	237.35
773.17	237.21
773.50	237.11
773.82	236.96
774.15	236.54
774.47	236.26
774.80	236.12
775.12	235.97
775.45	235.83
775.77	235.71
776.09	235.77
776.42	235.69
776.74	235.80
777.07	235.78
777.39	235.67
777.72	235.53
778.04	235.50
778.36	235.45
778.69	235.40
779.01	235.30
779.33	234.91
779.66	234.54
779.98	234.55
780.31	234.51
780.63	234.58
780.95	234.65
781.28	234.62
781.60	234.54
781.92	234.55
782.25	234.47
782.57	234.46
782.89	234.30
783.22	234.14
783.54	234.05
783.86	233.96
784.19	233.87
784.51	233.93
784.83	233.72
785.16	233.68
785.48	233.50
785.80	233.45
786.12	233.51
786.45	233.47
786.77	233.30
787.09	233.21
787.42	233.06
787.74	233.07
788.06	233.00
788.38	232.93
788.71	232.83
789.03	232.83
789.35	232.66
789.67	232.70
789.99	232.82
