SpectraSuite Data File
++++++++++++++++++++++++++++++++++++
Date: Fri Feb 01 14:36:46 EST 2013
User: group
Dark Spectrum Present: No
Reference Spectrum Present: No
Number of Sampled Component Spectra: 1
Spectrometers: USB2E7196
Integration Time (usec): 70000 (USB2E7196)
Spectra Averaged: 10 (USB2E7196)
Boxcar Smoothing: 10 (USB2E7196)
Correct for Electrical Dark: No (USB2E7196)
Strobe/Lamp Enabled: No (USB2E7196)
Correct for Detector Non-linearity: No (USB2E7196)
Correct for Stray Light: No (USB2E7196)
Number of Pixels in Processed Spectrum: 2048
>>>>>Begin Processed Spectral Data<<<<<
339.09	0.00
339.48	218.40
339.86	218.70
340.24	219.80
340.63	220.60
341.01	224.90
341.39	224.00
341.78	224.70
342.16	228.30
342.54	225.10
342.93	215.24
343.31	226.02
343.69	226.55
344.07	226.89
344.46	227.25
344.84	227.59
345.22	227.73
345.60	227.92
345.99	228.08
346.37	228.04
346.75	228.24
347.13	228.15
347.52	228.27
347.90	228.36
348.28	228.32
348.66	228.35
349.05	228.37
349.43	228.32
349.81	228.40
350.19	228.42
350.57	228.39
350.96	228.42
351.34	228.49
351.72	228.48
352.10	228.67
352.48	228.76
352.87	228.80
353.25	228.84
353.63	228.85
354.01	228.94
354.39	229.06
354.77	229.04
355.15	229.15
355.54	229.12
355.92	229.02
356.30	229.13
356.68	229.26
357.06	229.37
357.44	229.37
357.82	229.46
358.20	229.56
358.58	229.59
358.97	229.55
359.35	229.68
359.73	229.74
360.11	229.72
360.49	229.74
360.87	229.80
361.25	229.85
361.63	230.07
362.01	230.17
362.39	230.16
362.77	230.19
363.15	230.23
363.53	230.27
363.91	230.21
364.29	230.23
364.67	230.04
365.05	230.08
365.43	230.08
365.81	230.01
366.19	230.04
366.57	230.11
366.95	230.13
367.33	230.06
367.71	230.02
368.09	230.02
368.47	229.92
368.85	229.86
369.23	229.93
369.61	229.75
369.99	229.64
370.37	229.54
370.75	229.60
371.13	229.51
371.51	229.42
371.89	229.45
372.27	229.40
372.65	229.35
373.03	229.15
373.41	229.19
373.78	229.10
374.16	229.00
374.54	228.90
374.92	228.84
375.30	228.75
375.68	228.58
376.06	228.50
376.44	228.47
376.82	228.40
377.19	228.26
377.57	228.15
377.95	227.95
378.33	227.90
378.71	227.71
379.09	227.55
379.47	227.49
379.84	227.36
380.22	227.22
380.60	227.14
380.98	227.05
381.36	226.83
381.73	226.82
382.11	226.70
382.49	226.68
382.87	226.60
383.25	226.57
383.62	226.79
384.00	226.64
384.38	226.55
384.76	226.52
385.13	226.56
385.51	226.50
385.89	226.54
386.27	226.46
386.64	226.41
387.02	226.43
387.40	226.33
387.78	226.37
388.15	226.31
388.53	226.23
388.91	226.24
389.29	226.34
389.66	226.33
390.04	226.27
390.42	226.24
390.79	226.23
391.17	226.18
391.55	225.94
391.92	226.03
392.30	226.19
392.68	226.20
393.05	226.13
393.43	226.16
393.81	226.10
394.18	226.10
394.56	226.16
394.94	226.30
395.31	226.34
395.69	226.48
396.06	226.53
396.44	226.70
396.82	226.78
397.19	226.87
397.57	226.84
397.95	226.96
398.32	226.99
398.70	227.18
399.07	227.28
399.45	227.39
399.82	227.47
400.20	227.45
400.58	227.50
400.95	227.54
401.33	227.71
401.70	228.10
402.08	228.28
402.45	228.43
402.83	228.67
403.20	228.89
403.58	228.97
403.95	229.22
404.33	229.36
404.71	229.56
405.08	229.91
405.46	230.19
405.83	230.44
406.21	230.63
406.58	230.87
406.96	231.12
407.33	231.51
407.70	231.87
408.08	232.40
408.45	232.84
408.83	233.31
409.20	233.69
409.58	233.89
409.95	234.38
410.33	234.89
410.70	235.33
411.08	235.78
411.45	236.35
411.82	236.97
412.20	237.63
412.57	238.34
412.95	238.78
413.32	239.50
413.69	240.12
414.07	240.98
414.44	241.80
414.82	242.76
415.19	243.63
415.56	244.57
415.94	245.60
416.31	246.72
416.68	247.79
417.06	249.18
417.43	250.48
417.81	251.96
418.18	253.36
418.55	254.89
418.93	256.64
419.30	258.33
419.67	260.01
420.04	261.88
420.42	263.88
420.79	266.19
421.16	268.52
421.54	270.98
421.91	273.42
422.28	275.85
422.66	278.42
423.03	281.03
423.40	283.71
423.77	286.50
424.15	289.47
424.52	292.62
424.89	295.88
425.26	299.11
425.64	302.08
426.01	305.36
426.38	308.77
426.75	312.28
427.13	315.98
427.50	319.84
427.87	323.62
428.24	327.60
428.61	331.52
428.99	335.75
429.36	340.21
429.73	344.75
430.10	349.25
430.47	353.76
430.85	358.55
431.22	363.47
431.59	368.69
431.96	373.72
432.33	379.34
432.70	384.61
433.08	390.87
433.45	396.72
433.82	402.52
434.19	409.17
434.56	415.66
434.93	421.61
435.30	427.63
435.68	434.65
436.05	441.30
436.42	447.83
436.79	453.77
437.16	460.29
437.53	466.84
437.90	473.27
438.27	479.85
438.64	486.42
439.01	492.70
439.38	498.29
439.75	503.58
440.13	509.58
440.50	515.48
440.87	520.43
441.24	525.68
441.61	531.45
441.98	535.63
442.35	540.30
442.72	545.31
443.09	550.21
443.46	553.00
443.83	555.04
444.20	556.78
444.57	559.65
444.94	561.30
445.31	563.04
445.68	565.01
446.05	566.37
446.42	566.58
446.79	566.65
447.16	566.64
447.53	566.92
447.90	565.22
448.27	563.54
448.64	560.89
449.01	559.10
449.37	555.36
449.74	551.76
450.11	547.47
450.48	542.50
450.85	537.65
451.22	533.54
451.59	529.44
451.96	525.76
452.33	520.11
452.70	515.07
453.07	509.20
453.43	503.10
453.80	497.00
454.17	491.31
454.54	485.86
454.91	479.93
455.28	474.10
455.65	468.83
456.02	463.39
456.38	458.62
456.75	452.82
457.12	447.98
457.49	442.97
457.86	438.10
458.23	434.18
458.59	429.55
458.96	425.05
459.33	421.09
459.70	416.98
460.07	413.72
460.43	409.92
460.80	406.26
461.17	402.97
461.54	399.58
461.91	396.30
462.27	393.00
462.64	390.08
463.01	387.00
463.38	384.00
463.74	380.99
464.11	378.23
464.48	375.57
464.85	372.86
465.21	370.91
465.58	368.73
465.95	366.08
466.32	363.90
466.68	361.52
467.05	359.30
467.42	357.07
467.78	354.82
468.15	352.74
468.52	351.18
468.88	349.05
469.25	347.15
469.62	345.64
469.98	343.98
470.35	342.48
470.72	340.97
471.08	339.37
471.45	337.89
471.82	336.50
472.18	335.22
472.55	334.11
472.92	332.71
473.28	331.65
473.65	330.46
474.02	329.27
474.38	328.42
474.75	327.65
475.11	326.72
475.48	325.87
475.85	325.02
476.21	324.26
476.58	323.66
476.94	323.22
477.31	322.59
477.67	321.95
478.04	321.43
478.41	321.02
478.77	320.57
479.14	320.14
479.50	319.75
479.87	319.43
480.23	319.19
480.60	318.86
480.96	318.46
481.33	318.40
481.69	318.30
482.06	318.03
482.42	317.79
482.79	317.76
483.15	317.82
483.52	318.00
483.88	318.00
484.25	318.10
484.61	318.16
484.98	318.18
485.34	318.65
485.71	318.90
486.07	319.19
486.44	319.56
486.80	320.02
487.17	320.41
487.53	321.08
487.90	321.62
488.26	322.32
488.62	323.00
488.99	323.64
489.35	324.21
489.72	324.97
490.08	325.76
490.44	326.41
490.81	327.26
491.17	328.04
491.54	328.93
491.90	329.79
492.26	330.73
492.63	331.84
492.99	332.65
493.36	333.62
493.72	334.60
494.08	335.66
494.45	336.69
494.81	337.91
495.17	338.97
495.54	340.07
495.90	341.27
496.26	342.39
496.63	343.60
496.99	344.85
497.35	346.14
497.72	347.41
498.08	348.83
498.44	350.10
498.80	351.44
499.17	352.59
499.53	353.77
499.89	355.01
500.26	356.18
500.62	357.40
500.98	358.73
501.34	359.93
501.71	361.12
502.07	362.25
502.43	363.37
502.79	364.28
503.16	365.36
503.52	366.45
503.88	367.47
504.24	368.38
504.60	369.34
504.97	370.25
505.33	371.09
505.69	372.02
506.05	372.99
506.41	373.66
506.78	374.36
507.14	375.07
507.50	375.87
507.86	376.58
508.22	377.31
508.59	377.92
508.95	378.39
509.31	378.97
509.67	379.49
510.03	379.90
510.39	380.29
510.75	380.71
511.12	381.04
511.48	381.37
511.84	381.59
512.20	381.89
512.56	382.13
512.92	382.41
513.28	382.59
513.64	382.61
514.00	382.82
514.37	383.11
514.73	383.23
515.09	383.22
515.45	383.26
515.81	383.25
516.17	383.33
516.53	383.59
516.89	383.60
517.25	383.70
517.61	383.84
517.97	383.98
518.33	384.02
518.69	384.04
519.05	384.19
519.41	384.50
519.77	384.78
520.13	384.97
520.49	385.17
520.85	385.22
521.21	385.49
521.57	385.91
521.93	386.15
522.29	386.66
522.65	387.00
523.01	387.37
523.37	387.67
523.73	388.19
524.09	388.77
524.45	389.34
524.81	390.04
525.17	390.77
525.53	391.70
525.89	392.62
526.25	393.67
526.61	394.57
526.97	395.64
527.33	396.67
527.68	398.04
528.04	399.22
528.40	400.57
528.76	401.91
529.12	403.18
529.48	404.76
529.84	406.10
530.20	407.69
530.56	409.59
530.91	411.52
531.27	413.30
531.63	415.19
531.99	417.14
532.35	419.14
532.71	421.03
533.07	423.14
533.42	425.47
533.78	427.69
534.14	430.19
534.50	432.59
534.86	435.26
535.21	437.66
535.57	440.30
535.93	442.84
536.29	445.85
536.65	448.71
537.00	451.46
537.36	454.66
537.72	457.89
538.08	461.03
538.44	464.11
538.79	467.17
539.15	470.17
539.51	473.43
539.87	476.97
540.22	480.61
540.58	484.21
540.94	487.67
541.29	491.18
541.65	494.86
542.01	498.61
542.37	502.12
542.72	505.78
543.08	509.67
543.44	513.65
543.79	517.14
544.15	521.09
544.51	525.28
544.87	529.38
545.22	533.33
545.58	537.29
545.94	541.51
546.29	545.70
546.65	550.00
547.01	554.20
547.36	558.14
547.72	562.20
548.07	566.30
548.43	570.49
548.79	574.65
549.14	578.74
549.50	582.74
549.86	587.11
550.21	591.34
550.57	595.57
550.92	599.66
551.28	604.08
551.64	608.52
551.99	612.53
552.35	616.58
552.70	620.80
553.06	625.10
553.41	629.24
553.77	633.67
554.13	638.08
554.48	642.57
554.84	646.98
555.19	651.10
555.55	655.40
555.90	659.56
556.26	663.84
556.61	668.13
556.97	672.40
557.32	676.57
557.68	680.86
558.03	684.97
558.39	689.23
558.74	693.61
559.10	697.54
559.45	701.74
559.81	706.28
560.16	710.42
560.52	714.44
560.87	718.80
561.23	722.64
561.58	726.77
561.94	730.68
562.29	734.46
562.64	738.60
563.00	742.63
563.35	746.81
563.71	750.96
564.06	754.97
564.42	758.94
564.77	762.81
565.12	766.57
565.48	770.50
565.83	774.14
566.19	777.74
566.54	781.47
566.89	785.12
567.25	788.54
567.60	792.12
567.96	795.52
568.31	798.73
568.66	802.14
569.02	805.14
569.37	808.49
569.72	811.71
570.08	814.62
570.43	817.33
570.78	820.09
571.14	822.53
571.49	824.91
571.84	827.79
572.20	830.40
572.55	832.95
572.90	835.43
573.26	837.99
573.61	840.07
573.96	842.29
574.31	844.39
574.67	845.98
575.02	847.71
575.37	849.53
575.72	851.16
576.08	852.98
576.43	854.89
576.78	856.25
577.13	857.91
577.49	859.82
577.84	861.40
578.19	862.79
578.54	864.15
578.90	865.76
579.25	866.65
579.60	867.64
579.95	868.73
580.30	869.38
580.66	870.16
581.01	870.90
581.36	871.86
581.71	872.81
582.06	873.55
582.42	874.23
582.77	875.12
583.12	875.47
583.47	876.11
583.82	876.54
584.17	876.88
584.53	877.32
584.88	877.50
585.23	877.91
585.58	878.39
585.93	878.89
586.28	878.99
586.63	879.10
586.98	879.20
587.34	879.19
587.69	879.57
588.04	879.64
588.39	879.78
588.74	879.28
589.09	878.92
589.44	878.63
589.79	878.64
590.14	878.44
590.49	878.42
590.84	877.81
591.19	877.31
591.54	876.55
591.89	875.47
592.25	874.80
592.60	874.01
592.95	872.91
593.30	871.93
593.65	871.07
594.00	870.33
594.35	869.92
594.70	868.80
595.05	867.74
595.40	866.47
595.75	865.11
596.10	864.30
596.45	863.65
596.80	862.99
597.15	862.02
597.50	860.66
597.85	859.62
598.19	858.74
598.54	857.59
598.89	856.80
599.24	856.43
599.59	855.31
599.94	854.14
600.29	852.85
600.64	851.35
600.99	849.67
601.34	848.41
601.69	846.30
602.04	845.23
602.39	843.50
602.74	842.53
603.08	841.54
603.43	840.11
603.78	838.21
604.13	836.81
604.48	835.03
604.83	833.63
605.18	832.00
605.53	829.94
605.87	828.10
606.22	826.43
606.57	823.98
606.92	822.18
607.27	820.40
607.62	818.95
607.96	817.53
608.31	816.10
608.66	814.10
609.01	812.31
609.36	810.16
609.70	808.00
610.05	805.52
610.40	803.30
610.75	801.12
611.10	799.02
611.44	796.06
611.79	793.86
612.14	791.50
612.49	788.83
612.83	786.34
613.18	783.86
613.53	781.33
613.88	779.03
614.22	776.51
614.57	773.73
614.92	770.99
615.27	768.40
615.61	765.80
615.96	763.15
616.31	760.84
616.65	758.60
617.00	756.43
617.35	754.03
617.70	751.56
618.04	748.87
618.39	746.07
618.74	743.60
619.08	740.74
619.43	738.23
619.78	735.95
620.12	733.65
620.47	731.10
620.82	728.31
621.16	725.81
621.51	723.33
621.85	721.00
622.20	718.31
622.55	715.62
622.89	712.98
623.24	710.54
623.59	707.93
623.93	705.25
624.28	702.66
624.62	700.32
624.97	697.78
625.32	695.32
625.66	692.95
626.01	690.73
626.35	688.16
626.70	685.50
627.04	682.93
627.39	680.30
627.73	677.97
628.08	675.56
628.43	673.16
628.77	670.50
629.12	667.79
629.46	665.35
629.81	662.60
630.15	660.02
630.50	657.30
630.84	654.47
631.19	651.44
631.53	648.70
631.88	645.81
632.22	642.90
632.57	640.40
632.91	637.61
633.26	634.98
633.60	632.44
633.95	629.78
634.29	627.40
634.64	625.09
634.98	622.40
635.32	619.86
635.67	617.37
636.01	615.01
636.36	612.42
636.70	610.13
637.05	607.99
637.39	605.72
637.73	603.34
638.08	601.24
638.42	599.21
638.77	596.95
639.11	594.61
639.45	592.45
639.80	589.97
640.14	587.76
640.49	585.26
640.83	582.97
641.17	580.82
641.52	578.34
641.86	575.93
642.20	573.70
642.55	571.26
642.89	568.65
643.23	566.15
643.58	564.15
643.92	561.58
644.26	559.16
644.61	556.77
644.95	554.57
645.29	551.91
645.64	549.40
645.98	546.99
646.32	544.82
646.66	542.47
647.01	540.09
647.35	537.75
647.69	535.59
648.04	533.36
648.38	530.82
648.72	528.12
649.06	525.73
649.41	523.35
649.75	520.88
650.09	518.67
650.43	516.20
650.78	513.57
651.12	511.20
651.46	508.95
651.80	506.67
652.14	504.25
652.49	502.00
652.83	499.97
653.17	497.61
653.51	495.27
653.85	493.04
654.20	490.76
654.54	488.50
654.88	486.06
655.22	483.66
655.56	481.22
655.90	479.20
656.25	476.84
656.59	474.78
656.93	472.73
657.27	470.61
657.61	468.49
657.95	466.62
658.29	464.46
658.64	462.25
658.98	459.85
659.32	457.57
659.66	455.52
660.00	453.36
660.34	451.43
660.68	449.36
661.02	447.07
661.36	445.10
661.70	443.15
662.05	441.35
662.39	439.55
662.73	437.84
663.07	436.14
663.41	434.37
663.75	432.51
664.09	430.80
664.43	428.88
664.77	427.21
665.11	425.36
665.45	423.82
665.79	422.09
666.13	420.41
666.47	418.81
666.81	417.05
667.15	415.18
667.49	413.42
667.83	411.84
668.17	410.19
668.51	408.38
668.85	406.59
669.19	405.15
669.53	403.63
669.87	402.00
670.21	400.25
670.55	398.63
670.89	397.03
671.23	395.54
671.57	394.12
671.91	392.58
672.25	391.04
672.58	389.61
672.92	388.10
673.26	386.77
673.60	385.48
673.94	384.07
674.28	382.79
674.62	381.65
674.96	380.26
675.30	379.00
675.64	377.79
675.97	376.57
676.31	375.05
676.65	373.57
676.99	372.35
677.33	371.13
677.67	369.93
678.01	368.48
678.34	367.16
678.68	365.83
679.02	364.47
679.36	363.29
679.70	361.87
680.04	360.52
680.37	359.21
680.71	357.94
681.05	356.92
681.39	355.68
681.73	354.36
682.06	353.12
682.40	352.03
682.74	350.94
683.08	349.79
683.42	348.59
683.75	347.56
684.09	346.35
684.43	345.06
684.77	343.87
685.10	342.76
685.44	341.63
685.78	340.57
686.12	339.53
686.45	338.29
686.79	337.11
687.13	336.06
687.46	335.08
687.80	334.07
688.14	332.92
688.48	332.02
688.81	330.93
689.15	329.93
689.49	328.82
689.82	327.73
690.16	326.83
690.50	325.98
690.83	324.85
691.17	323.68
691.51	322.75
691.84	321.73
692.18	320.71
692.52	319.70
692.85	318.64
693.19	317.78
693.52	316.83
693.86	315.90
694.20	315.00
694.53	313.97
694.87	312.96
695.21	311.92
695.54	310.86
695.88	309.89
696.21	308.88
696.55	308.00
696.88	307.17
697.22	306.19
697.56	305.35
697.89	304.60
698.23	303.83
698.56	303.06
698.90	302.29
699.23	301.54
699.57	300.66
699.90	299.80
700.24	298.90
700.58	298.15
700.91	297.36
701.25	296.82
701.58	296.09
701.92	295.34
702.25	294.69
702.59	293.81
702.92	293.20
703.26	292.53
703.59	291.81
703.93	291.18
704.26	290.45
704.60	289.66
704.93	288.84
705.26	288.16
705.60	287.56
705.93	286.96
706.27	286.39
706.60	286.02
706.94	285.64
707.27	284.96
707.61	284.43
707.94	283.84
708.27	283.13
708.61	282.62
708.94	281.98
709.28	281.45
709.61	281.07
709.94	280.43
710.28	279.99
710.61	279.45
710.95	278.76
711.28	278.40
711.61	277.82
711.95	277.41
712.28	276.92
712.61	276.42
712.95	275.90
713.28	275.41
713.61	274.78
713.95	274.09
714.28	273.77
714.61	273.23
714.95	272.85
715.28	272.35
715.61	271.85
715.95	271.45
716.28	270.90
716.61	270.49
716.95	270.12
717.28	269.64
717.61	269.27
717.94	268.91
718.28	268.30
718.61	267.88
718.94	267.44
719.27	267.03
719.61	266.59
719.94	266.17
720.27	265.70
720.60	265.36
720.94	264.96
721.27	264.51
721.60	264.18
721.93	263.81
722.27	263.53
722.60	263.17
722.93	262.88
723.26	262.65
723.59	262.23
723.93	261.92
724.26	261.61
724.59	261.26
724.92	260.92
725.25	260.66
725.59	260.34
725.92	260.10
726.25	259.91
726.58	259.63
726.91	259.35
727.24	259.17
727.57	258.84
727.91	258.58
728.24	258.37
728.57	258.07
728.90	257.87
729.23	257.45
729.56	257.26
729.89	256.91
730.22	256.65
730.55	256.32
730.89	255.99
731.22	255.61
731.55	255.32
731.88	255.08
732.21	254.77
732.54	254.61
732.87	254.27
733.20	253.92
733.53	253.64
733.86	253.30
734.19	252.96
734.52	252.61
734.85	252.56
735.18	252.12
735.51	251.78
735.84	251.37
736.17	251.16
736.50	250.78
736.83	250.78
737.16	250.44
737.49	250.28
737.82	249.96
738.15	249.75
738.48	249.47
738.81	249.11
739.14	248.95
739.47	248.60
739.80	248.25
740.13	247.98
740.46	247.64
740.79	247.40
741.12	247.25
741.45	247.14
741.78	246.71
742.11	246.66
742.44	246.48
742.77	246.29
743.10	246.09
743.43	245.97
743.75	245.46
744.08	245.51
744.41	245.24
744.74	245.10
745.07	244.94
745.40	244.80
745.73	244.78
746.06	244.56
746.39	244.34
746.71	244.24
747.04	244.03
747.37	243.90
747.70	243.90
748.03	243.68
748.36	243.51
748.68	243.41
749.01	243.08
749.34	242.92
749.67	242.74
750.00	242.52
750.33	242.34
750.65	242.29
750.98	241.91
751.31	241.76
751.64	241.57
751.97	241.42
752.29	241.31
752.62	241.07
752.95	240.87
753.28	240.80
753.60	240.63
753.93	240.61
754.26	240.56
754.59	240.29
754.91	240.05
755.24	239.87
755.57	239.70
755.90	239.62
756.22	239.57
756.55	239.52
756.88	239.41
757.20	239.28
757.53	239.08
757.86	238.89
758.19	238.83
758.51	238.75
758.84	238.59
759.17	238.37
759.49	238.30
759.82	238.32
760.15	238.23
760.47	238.14
760.80	238.01
761.13	237.94
761.45	237.83
761.78	237.85
762.11	237.72
762.43	237.60
762.76	237.55
763.08	237.44
763.41	237.33
763.74	237.29
764.06	237.14
764.39	237.06
764.71	237.12
765.04	237.03
765.37	236.98
765.69	236.93
766.02	236.96
766.34	236.82
766.67	236.72
767.00	236.66
767.32	236.71
767.65	236.73
767.97	236.55
768.30	236.50
768.62	236.41
768.95	236.33
769.27	236.40
769.60	236.29
769.92	236.13
770.25	236.00
770.57	235.82
770.90	235.78
771.22	235.79
771.55	235.57
771.87	235.44
772.20	235.35
772.52	235.42
772.85	235.43
773.17	235.25
773.50	235.11
773.82	234.85
774.15	234.60
774.47	234.44
774.80	234.40
775.12	234.29
775.45	234.15
775.77	234.12
776.09	233.95
776.42	233.96
776.74	234.01
777.07	233.93
777.39	233.94
777.72	233.82
778.04	233.76
778.36	233.67
778.69	233.55
779.01	233.43
779.33	233.15
779.66	232.91
779.98	232.95
780.31	232.77
780.63	232.96
780.95	232.96
781.28	232.84
781.60	232.65
781.92	232.61
782.25	232.56
782.57	232.43
782.89	232.34
783.22	232.27
783.54	232.09
783.86	232.08
784.19	232.01
784.51	232.10
784.83	231.95
785.16	231.91
785.48	231.97
785.80	232.00
786.12	231.95
786.45	232.01
786.77	231.87
787.09	231.94
787.42	231.80
787.74	231.79
788.06	231.75
788.38	231.82
788.71	231.81
789.03	231.79
789.35	231.79
789.67	231.73
789.99	231.76
790.32	231.72
790.64	231.71
790.96	231.80
791.28	231.69
791.61	231.65
791.93	231.73
792.25	231.76
792.57	231.87
792.89	231.95
793.21	231.92
793.54	231.99
793.86	231.90
794.18	231.98
