SpectraSuite Data File
++++++++++++++++++++++++++++++++++++
Date: Fri Feb 01 14:35:16 EST 2013
User: group
Dark Spectrum Present: No
Reference Spectrum Present: No
Number of Sampled Component Spectra: 1
Spectrometers: USB2E7196
Integration Time (usec): 70000 (USB2E7196)
Spectra Averaged: 10 (USB2E7196)
Boxcar Smoothing: 10 (USB2E7196)
Correct for Electrical Dark: No (USB2E7196)
Strobe/Lamp Enabled: No (USB2E7196)
Correct for Detector Non-linearity: No (USB2E7196)
Correct for Stray Light: No (USB2E7196)
Number of Pixels in Processed Spectrum: 2048
>>>>>Begin Processed Spectral Data<<<<<
339.09	0.00
339.48	215.80
339.86	218.60
340.24	219.40
340.63	221.80
341.01	223.90
341.39	222.20
341.78	225.10
342.16	227.30
342.54	225.40
342.93	214.79
343.31	225.60
343.69	226.09
344.07	226.52
344.46	227.01
344.84	227.38
345.22	227.63
345.60	227.92
345.99	228.06
346.37	228.22
346.75	228.31
347.13	228.40
347.52	228.46
347.90	228.50
348.28	228.46
348.66	228.50
349.05	228.53
349.43	228.56
349.81	228.52
350.19	228.62
350.57	228.65
350.96	228.66
351.34	228.80
351.72	228.99
352.10	229.13
352.48	229.10
352.87	229.08
353.25	229.09
353.63	229.20
354.01	229.37
354.39	229.32
354.77	229.41
355.15	229.45
355.54	229.63
355.92	229.71
356.30	229.78
356.68	229.99
357.06	230.10
357.44	230.20
357.82	230.37
358.20	230.38
358.58	230.56
358.97	230.61
359.35	230.75
359.73	230.86
360.11	230.85
360.49	230.92
360.87	231.01
361.25	231.12
361.63	231.09
362.01	231.03
362.39	230.98
362.77	231.02
363.15	231.15
363.53	231.13
363.91	231.10
364.29	231.13
364.67	230.90
365.05	230.87
365.43	230.83
365.81	230.77
366.19	230.79
366.57	230.72
366.95	230.82
367.33	230.70
367.71	230.61
368.09	230.57
368.47	230.51
368.85	230.39
369.23	230.37
369.61	230.33
369.99	230.32
370.37	230.40
370.75	230.44
371.13	230.37
371.51	230.17
371.89	230.10
372.27	230.14
372.65	230.23
373.03	230.16
373.41	230.09
373.78	230.01
374.16	230.01
374.54	229.92
374.92	229.86
375.30	229.84
375.68	229.67
376.06	229.59
376.44	229.55
376.82	229.62
377.19	229.48
377.57	229.44
377.95	229.34
378.33	229.23
378.71	229.05
379.09	228.98
379.47	228.92
379.84	228.89
380.22	228.69
380.60	228.56
380.98	228.49
381.36	228.36
381.73	228.20
382.11	228.05
382.49	227.97
382.87	227.80
383.25	227.71
383.62	227.91
384.00	227.83
384.38	227.81
384.76	227.62
385.13	227.63
385.51	227.60
385.89	227.51
386.27	227.49
386.64	227.49
387.02	227.33
387.40	227.45
387.78	227.43
388.15	227.29
388.53	227.20
388.91	227.11
389.29	227.10
389.66	227.20
390.04	227.22
390.42	227.29
390.79	227.22
391.17	227.11
391.55	226.88
391.92	226.96
392.30	226.90
392.68	226.88
393.05	226.80
393.43	226.72
393.81	226.73
394.18	226.76
394.56	226.79
394.94	226.96
395.31	226.80
395.69	226.87
396.06	227.00
396.44	227.04
396.82	227.05
397.19	227.25
397.57	227.22
397.95	227.33
398.32	227.35
398.70	227.47
399.07	227.65
399.45	227.80
399.82	227.88
400.20	227.94
400.58	228.06
400.95	228.25
401.33	228.44
401.70	228.67
402.08	228.82
402.45	228.90
402.83	229.15
403.20	229.54
403.58	229.66
403.95	230.00
404.33	230.12
404.71	230.40
405.08	230.70
405.46	231.08
405.83	231.33
406.21	231.70
406.58	232.14
406.96	232.53
407.33	232.92
407.70	233.41
408.08	234.00
408.45	234.51
408.83	235.03
409.20	235.55
409.58	236.10
409.95	236.69
410.33	237.42
410.70	237.87
411.08	238.58
411.45	239.40
411.82	240.14
412.20	241.17
412.57	242.26
412.95	242.97
413.32	243.90
413.69	244.97
414.07	245.94
414.44	247.11
414.82	248.32
415.19	249.74
415.56	251.20
415.94	252.75
416.31	254.42
416.68	256.11
417.06	257.95
417.43	259.76
417.81	261.82
418.18	263.90
418.55	266.28
418.93	268.66
419.30	271.13
419.67	273.76
420.04	276.46
420.42	279.12
420.79	282.49
421.16	285.78
421.54	289.07
421.91	292.71
422.28	296.38
422.66	300.26
423.03	304.07
423.40	307.92
423.77	311.93
424.15	316.22
424.52	320.49
424.89	325.33
425.26	330.03
425.64	334.51
426.01	339.41
426.38	344.47
426.75	349.43
427.13	354.64
427.50	359.98
427.87	365.71
428.24	371.66
428.61	377.02
428.99	383.05
429.36	389.60
429.73	395.97
430.10	402.12
430.47	408.51
430.85	415.17
431.22	422.10
431.59	429.62
431.96	436.87
432.33	444.80
432.70	452.40
433.08	461.13
433.45	469.32
433.82	477.62
434.19	486.81
434.56	495.89
434.93	504.65
435.30	513.50
435.68	523.04
436.05	532.50
436.42	541.87
436.79	550.25
437.16	559.44
437.53	569.06
437.90	578.86
438.27	588.24
438.64	598.19
439.01	607.27
439.38	615.21
439.75	622.93
440.13	632.05
440.50	640.51
440.87	647.69
441.24	655.34
441.61	663.55
441.98	669.64
442.35	676.84
442.72	683.99
443.09	691.10
443.46	695.67
443.83	698.74
444.20	701.83
444.57	706.04
444.94	708.50
445.31	710.80
445.68	713.21
446.05	715.19
446.42	715.22
446.79	715.21
447.16	715.39
447.53	715.77
447.90	713.37
448.27	711.00
448.64	707.03
449.01	704.52
449.37	699.20
449.74	694.11
450.11	687.72
450.48	680.74
450.85	673.31
451.22	667.28
451.59	661.48
451.96	656.01
452.33	648.27
452.70	641.14
453.07	632.77
453.43	623.87
453.80	615.16
454.17	606.85
454.54	599.24
454.91	590.76
455.28	582.34
455.65	574.71
456.02	566.87
456.38	560.19
456.75	551.69
457.12	544.58
457.49	537.71
457.86	531.10
458.23	525.25
458.59	518.92
458.96	512.30
459.33	506.45
459.70	500.44
460.07	495.82
460.43	490.44
460.80	485.22
461.17	480.83
461.54	476.13
461.91	471.56
462.27	466.85
462.64	462.80
463.01	458.45
463.38	453.99
463.74	449.90
464.11	446.26
464.48	442.87
464.85	439.19
465.21	436.41
465.58	433.39
465.95	429.82
466.32	426.64
466.68	423.57
467.05	420.67
467.42	417.70
467.78	414.56
468.15	411.65
468.52	409.40
468.88	406.58
469.25	403.95
469.62	401.97
469.98	399.72
470.35	397.64
470.72	395.70
471.08	393.66
471.45	391.56
471.82	389.53
472.18	387.41
472.55	386.03
472.92	384.17
473.28	382.50
473.65	380.89
474.02	379.55
474.38	378.07
474.75	376.91
475.11	375.70
475.48	374.58
475.85	373.48
476.21	372.58
476.58	371.68
476.94	371.05
477.31	370.15
477.67	369.40
478.04	368.74
478.41	368.20
478.77	367.71
479.14	367.28
479.50	366.98
479.87	366.95
480.23	366.77
480.60	366.44
480.96	366.20
481.33	366.43
481.69	366.35
482.06	366.42
482.42	366.22
482.79	366.26
483.15	366.61
483.52	367.14
483.88	367.35
484.25	367.78
484.61	368.10
484.98	368.53
485.34	369.30
485.71	370.10
486.07	370.77
486.44	371.60
486.80	372.46
487.17	373.54
487.53	374.65
487.90	375.71
488.26	377.02
488.62	378.49
488.99	379.66
489.35	381.07
489.72	382.72
490.08	384.51
490.44	386.30
490.81	388.04
491.17	389.81
491.54	391.74
491.90	393.55
492.26	395.65
492.63	397.77
492.99	399.75
493.36	401.90
493.72	404.22
494.08	406.45
494.45	408.99
494.81	411.52
495.17	413.96
495.54	416.71
495.90	419.42
496.26	422.10
496.63	424.86
496.99	427.80
497.35	430.71
497.72	433.70
498.08	436.59
498.44	439.50
498.80	442.57
499.17	445.52
499.53	448.62
499.89	451.75
500.26	454.83
500.62	457.85
500.98	460.93
501.34	464.19
501.71	467.44
502.07	470.43
502.43	473.41
502.79	476.60
503.16	479.39
503.52	482.24
503.88	485.12
504.24	488.22
504.60	491.32
504.97	494.60
505.33	497.38
505.69	500.46
506.05	503.49
506.41	506.36
506.78	509.36
507.14	512.34
507.50	515.25
507.86	518.23
508.22	521.20
508.59	523.97
508.95	526.53
509.31	529.10
509.67	532.11
510.03	534.56
510.39	537.10
510.75	539.96
511.12	542.56
511.48	544.97
511.84	547.25
512.20	549.25
512.56	551.26
512.92	553.59
513.28	555.52
513.64	557.41
514.00	559.38
514.37	561.07
514.73	562.69
515.09	564.23
515.45	565.93
515.81	567.55
516.17	569.14
516.53	570.74
516.89	572.23
517.25	573.24
517.61	574.87
517.97	576.12
518.33	577.33
518.69	578.32
519.05	579.56
519.41	580.91
519.77	582.55
520.13	583.70
520.49	584.64
520.85	585.83
521.21	587.03
521.57	588.16
521.93	589.46
522.29	590.87
522.65	591.91
523.01	592.75
523.37	593.70
523.73	594.88
524.09	595.80
524.45	597.10
524.81	598.45
525.17	599.65
525.53	600.86
525.89	601.98
526.25	603.40
526.61	604.60
526.97	605.71
527.33	606.60
527.68	607.95
528.04	609.31
528.40	610.81
528.76	612.33
529.12	614.04
529.48	615.63
529.84	616.99
530.20	618.79
530.56	621.00
530.91	623.03
531.27	624.80
531.63	626.73
531.99	628.30
532.35	630.11
532.71	631.81
533.07	633.97
533.42	636.12
533.78	638.21
534.14	640.12
534.50	642.07
534.86	644.37
535.21	646.16
535.57	648.32
535.93	650.60
536.29	652.85
536.65	654.85
537.00	657.15
537.36	659.72
537.72	661.93
538.08	664.03
538.44	666.19
538.79	668.46
539.15	670.86
539.51	673.67
539.87	676.30
540.22	679.01
540.58	681.77
540.94	684.25
541.29	686.61
541.65	689.58
542.01	692.79
542.37	695.71
542.72	698.71
543.08	701.72
543.44	704.70
543.79	707.21
544.15	710.40
544.51	713.57
544.87	716.57
545.22	719.74
545.58	722.75
545.94	725.85
546.29	729.05
546.65	732.12
547.01	734.99
547.36	738.07
547.72	740.93
548.07	743.89
548.43	746.95
548.79	750.28
549.14	753.23
549.50	755.94
549.86	758.86
550.21	762.08
550.57	765.39
550.92	768.38
551.28	771.82
551.64	774.94
551.99	777.97
552.35	781.09
552.70	784.30
553.06	787.53
553.41	790.76
553.77	793.97
554.13	797.38
554.48	800.75
554.84	803.93
555.19	807.20
555.55	810.14
555.90	813.37
556.26	816.56
556.61	819.51
556.97	822.63
557.32	825.85
557.68	828.84
558.03	831.98
558.39	834.79
558.74	837.80
559.10	840.44
559.45	843.60
559.81	846.67
560.16	849.54
560.52	852.30
560.87	855.48
561.23	858.26
561.58	861.21
561.94	864.06
562.29	866.84
562.64	869.78
563.00	872.56
563.35	875.51
563.71	878.52
564.06	881.65
564.42	884.45
564.77	887.20
565.12	890.05
565.48	892.60
565.83	895.45
566.19	898.21
566.54	901.15
566.89	903.54
567.25	906.10
567.60	909.03
567.96	911.69
568.31	913.87
568.66	916.12
569.02	918.28
569.37	920.20
569.72	922.49
570.08	924.39
570.43	926.52
570.78	928.63
571.14	930.32
571.49	931.68
571.84	933.85
572.20	935.71
572.55	937.33
572.90	938.78
573.26	940.31
573.61	941.46
573.96	942.63
574.31	943.30
574.67	943.84
575.02	944.34
575.37	945.01
575.72	945.64
576.08	946.57
576.43	947.16
576.78	947.93
577.13	948.50
577.49	949.20
577.84	949.72
578.19	949.85
578.54	950.20
578.90	950.89
579.25	950.65
579.60	950.63
579.95	950.60
580.30	950.51
580.66	950.31
581.01	950.23
581.36	950.00
581.71	950.27
582.06	950.32
582.42	950.18
582.77	950.41
583.12	950.10
583.47	950.00
583.82	949.91
584.17	949.53
584.53	949.02
584.88	948.59
585.23	948.21
585.58	947.84
585.93	947.38
586.28	947.05
586.63	946.80
586.98	946.16
587.34	945.65
587.69	945.14
588.04	944.40
588.39	944.21
588.74	943.09
589.09	942.06
589.44	940.71
589.79	939.69
590.14	938.48
590.49	937.50
590.84	935.89
591.19	934.64
591.54	933.06
591.89	931.48
592.25	930.24
592.60	928.46
592.95	926.54
593.30	924.71
593.65	922.77
594.00	920.88
594.35	919.54
594.70	917.25
595.05	915.52
595.40	913.59
595.75	911.24
596.10	909.69
596.45	908.20
596.80	906.99
597.15	905.20
597.50	903.13
597.85	901.56
598.19	900.28
598.54	898.49
598.89	896.92
599.24	895.57
599.59	893.53
599.94	891.85
600.29	890.20
600.64	888.26
600.99	886.10
601.34	884.10
601.69	881.53
602.04	879.80
602.39	877.58
602.74	875.87
603.08	873.98
603.43	872.23
603.78	869.80
604.13	867.76
604.48	865.68
604.83	863.77
605.18	861.54
605.53	858.58
605.87	855.89
606.22	853.58
606.57	850.84
606.92	848.47
607.27	846.23
607.62	844.08
607.96	841.95
608.31	839.83
608.66	837.15
609.01	834.62
609.36	831.83
609.70	829.00
610.05	826.03
610.40	823.55
610.75	820.42
611.10	817.77
611.44	814.70
611.79	811.97
612.14	809.02
612.49	805.75
612.83	803.13
613.18	800.28
613.53	797.61
613.88	794.45
614.22	791.47
614.57	788.25
614.92	784.88
615.27	781.84
615.61	778.59
615.96	775.76
616.31	773.02
616.65	770.56
617.00	768.04
617.35	765.23
617.70	761.98
618.04	758.93
618.39	756.00
618.74	752.82
619.08	749.81
619.43	746.75
619.78	743.95
620.12	740.85
620.47	738.07
620.82	734.78
621.16	732.19
621.51	729.51
621.85	726.46
622.20	723.57
622.55	720.62
622.89	717.95
623.24	715.20
623.59	712.52
623.93	709.91
624.28	707.01
624.62	704.36
624.97	701.62
625.32	699.12
625.66	696.37
626.01	693.96
626.35	691.05
626.70	688.50
627.04	685.87
627.39	683.32
627.73	680.61
628.08	678.17
628.43	675.18
628.77	672.40
629.12	669.82
629.46	667.20
629.81	664.29
630.15	661.14
630.50	658.28
630.84	655.10
631.19	651.90
631.53	648.89
631.88	645.91
632.22	642.91
632.57	640.10
632.91	637.16
633.26	634.32
633.60	631.55
633.95	628.73
634.29	626.03
634.64	623.38
634.98	620.49
635.32	617.79
635.67	615.60
636.01	612.88
636.36	610.09
636.70	607.56
637.05	605.24
637.39	603.09
637.73	600.68
638.08	598.52
638.42	596.20
638.77	593.90
639.11	591.48
639.45	589.09
639.80	586.60
640.14	584.29
640.49	581.65
640.83	579.29
641.17	576.72
641.52	574.05
641.86	571.54
642.20	569.28
642.55	566.75
642.89	564.23
643.23	561.62
643.58	559.61
643.92	556.95
644.26	554.45
644.61	552.13
644.95	549.71
645.29	546.92
645.64	544.23
645.98	541.72
646.32	539.30
646.66	536.78
647.01	534.51
647.35	532.14
647.69	529.99
648.04	527.71
648.38	525.19
648.72	522.70
649.06	520.21
649.41	517.76
649.75	515.24
650.09	512.54
650.43	510.28
650.78	507.59
651.12	505.31
651.46	503.09
651.80	500.76
652.14	498.43
652.49	496.28
652.83	494.10
653.17	491.85
653.51	489.38
653.85	487.21
654.20	484.77
654.54	482.37
654.88	479.91
655.22	477.35
655.56	475.09
655.90	473.06
656.25	470.89
656.59	468.63
656.93	466.40
657.27	464.41
657.61	462.10
657.95	460.16
658.29	458.13
658.64	455.89
658.98	453.65
659.32	451.46
659.66	449.42
660.00	447.40
660.34	445.42
660.68	443.46
661.02	441.37
661.36	439.50
661.70	437.65
662.05	435.81
662.39	434.16
662.73	432.48
663.07	430.71
663.41	428.94
663.75	427.17
664.09	425.45
664.43	423.64
664.77	421.96
665.11	420.03
665.45	418.27
665.79	416.52
666.13	414.90
666.47	413.20
666.81	411.41
667.15	409.68
667.49	407.97
667.83	406.48
668.17	404.70
668.51	402.88
668.85	401.22
669.19	399.69
669.53	398.07
669.87	396.33
670.21	394.59
670.55	393.15
670.89	391.88
671.23	390.41
671.57	389.08
671.91	387.54
672.25	386.11
672.58	384.61
672.92	383.14
673.26	381.53
673.60	380.14
673.94	378.79
674.28	377.48
674.62	376.21
674.96	374.78
675.30	373.69
675.64	372.52
675.97	371.29
676.31	370.05
676.65	368.71
676.99	367.53
677.33	366.28
677.67	364.85
678.01	363.40
678.34	362.10
678.68	360.61
679.02	359.31
679.36	358.09
679.70	356.92
680.04	355.80
680.37	354.72
680.71	353.49
681.05	352.36
681.39	351.29
681.73	350.06
682.06	348.99
682.40	347.88
682.74	346.79
683.08	345.74
683.42	344.51
683.75	343.48
684.09	342.48
684.43	341.33
684.77	340.28
685.10	339.19
685.44	338.17
685.78	337.26
686.12	336.37
686.45	335.35
686.79	334.21
687.13	333.23
687.46	332.14
687.80	331.14
688.14	330.03
688.48	328.93
688.81	327.97
689.15	326.93
689.49	325.85
689.82	324.92
690.16	323.81
690.50	322.94
690.83	321.99
691.17	320.86
691.51	319.90
691.84	319.05
692.18	318.19
692.52	317.11
692.85	316.12
693.19	315.18
693.52	314.24
693.86	313.43
694.20	312.40
694.53	311.44
694.87	310.60
695.21	309.66
695.54	308.70
695.88	307.77
696.21	306.79
696.55	306.01
696.88	305.15
697.22	304.34
697.56	303.38
697.89	302.42
698.23	301.64
698.56	300.88
698.90	300.06
699.23	299.11
699.57	298.44
699.90	297.66
700.24	296.93
700.58	296.21
700.91	295.48
701.25	295.04
701.58	294.46
701.92	293.84
702.25	293.26
702.59	292.69
702.92	292.03
703.26	291.51
703.59	290.85
703.93	290.26
704.26	289.64
704.60	289.08
704.93	288.55
705.26	287.93
705.60	287.45
705.93	286.83
706.27	286.38
706.60	285.80
706.94	285.33
707.27	284.73
707.61	284.05
707.94	283.47
708.27	282.74
708.61	282.03
708.94	281.44
709.28	280.85
709.61	280.24
709.94	279.69
710.28	279.10
710.61	278.52
710.95	277.85
711.28	277.45
711.61	276.93
711.95	276.32
712.28	275.75
712.61	275.15
712.95	274.61
713.28	274.13
713.61	273.57
713.95	272.99
714.28	272.64
714.61	272.15
714.95	271.60
715.28	271.07
715.61	270.68
715.95	270.13
716.28	269.59
716.61	269.13
716.95	268.70
717.28	268.30
717.61	267.90
717.94	267.48
718.28	266.88
718.61	266.48
718.94	266.18
719.27	265.79
719.61	265.38
719.94	265.05
720.27	264.60
720.60	264.28
720.94	263.79
721.27	263.19
721.60	262.89
721.93	262.52
722.27	262.13
722.60	261.89
722.93	261.57
723.26	261.37
723.59	261.00
723.93	260.73
724.26	260.37
724.59	260.01
724.92	259.82
725.25	259.53
725.59	259.22
725.92	258.86
726.25	258.65
726.58	258.31
726.91	257.88
727.24	257.61
727.57	257.32
727.91	257.09
728.24	256.90
728.57	256.59
728.90	256.35
729.23	256.14
729.56	255.94
729.89	255.70
730.22	255.33
730.55	255.10
730.89	254.81
731.22	254.55
731.55	254.32
731.88	253.90
732.21	253.62
732.54	253.24
732.87	252.89
733.20	252.70
733.53	252.56
733.86	252.55
734.19	252.36
734.52	252.17
734.85	252.08
735.18	251.92
735.51	251.73
735.84	251.67
736.17	251.43
736.50	251.12
736.83	251.10
737.16	250.88
737.49	250.74
737.82	250.49
738.15	250.32
738.48	250.09
738.81	249.86
739.14	249.76
739.47	249.54
739.80	249.48
740.13	249.23
740.46	248.97
740.79	248.64
741.12	248.43
741.45	248.21
741.78	247.86
742.11	247.69
742.44	247.53
742.77	247.30
743.10	247.08
743.43	246.89
743.75	246.51
744.08	246.61
744.41	246.29
744.74	246.11
745.07	245.87
745.40	245.83
745.73	245.76
746.06	245.46
746.39	245.41
746.71	245.07
747.04	244.85
747.37	244.63
747.70	244.52
748.03	244.34
748.36	244.29
748.68	244.28
749.01	244.08
749.34	243.94
749.67	243.70
750.00	243.60
750.33	243.56
750.65	243.43
750.98	243.04
751.31	242.98
751.64	242.82
751.97	242.80
752.29	242.55
752.62	242.35
752.95	242.26
753.28	242.06
753.60	241.99
753.93	241.81
754.26	241.72
754.59	241.47
754.91	241.24
755.24	240.95
755.57	240.76
755.90	240.65
756.22	240.42
756.55	240.30
756.88	240.07
757.20	239.79
757.53	239.60
757.86	239.48
758.19	239.35
758.51	239.23
758.84	238.99
759.17	238.85
759.49	238.76
759.82	238.69
760.15	238.57
760.47	238.52
760.80	238.42
761.13	238.37
761.45	238.30
761.78	238.13
762.11	238.00
762.43	237.82
762.76	237.68
763.08	237.65
763.41	237.58
763.74	237.47
764.06	237.40
764.39	237.25
764.71	237.18
765.04	237.10
765.37	236.92
765.69	236.79
766.02	236.57
766.34	236.48
766.67	236.36
767.00	236.41
767.32	236.39
767.65	236.42
767.97	236.25
768.30	236.21
768.62	236.25
768.95	236.25
769.27	236.28
769.60	236.09
769.92	235.94
770.25	235.71
770.57	235.72
770.90	235.62
771.22	235.50
771.55	235.39
771.87	235.25
772.20	235.19
772.52	235.30
772.85	235.56
773.17	235.50
773.50	235.39
773.82	235.23
774.15	235.11
774.47	234.94
774.80	234.88
775.12	234.82
775.45	234.70
775.77	234.64
776.09	234.50
776.42	234.43
776.74	234.39
777.07	234.40
777.39	234.37
777.72	234.33
778.04	234.41
778.36	234.38
778.69	234.31
779.01	234.37
779.33	234.21
779.66	233.93
779.98	233.88
780.31	233.83
780.63	233.81
780.95	233.77
781.28	233.69
781.60	233.70
781.92	233.56
782.25	233.53
782.57	233.48
782.89	233.40
783.22	233.45
783.54	233.32
783.86	233.24
784.19	233.13
784.51	233.09
784.83	232.92
785.16	232.91
785.48	232.90
785.80	232.80
786.12	232.75
786.45	232.73
786.77	232.62
787.09	232.64
787.42	232.56
787.74	232.42
788.06	232.36
788.38	232.27
788.71	232.25
789.03	232.22
789.35	232.08
789.67	232.03
789.99	231.89
790.32	231.86
790.64	231.82
790.96	231.85
791.28	231.63
791.61	231.55
791.93	231.34
792.25	231.32
792.57	231.40
792.89	231.22
793.21	231.15
793.54	231.12
793.86	231.03
794.18	230.90
