SpectraSuite Data File
++++++++++++++++++++++++++++++++++++
Date: Fri Feb 01 14:36:11 EST 2013
User: group
Dark Spectrum Present: No
Reference Spectrum Present: No
Number of Sampled Component Spectra: 1
Spectrometers: USB2E7196
Integration Time (usec): 70000 (USB2E7196)
Spectra Averaged: 10 (USB2E7196)
Boxcar Smoothing: 10 (USB2E7196)
Correct for Electrical Dark: No (USB2E7196)
Strobe/Lamp Enabled: No (USB2E7196)
Correct for Detector Non-linearity: No (USB2E7196)
Correct for Stray Light: No (USB2E7196)
Number of Pixels in Processed Spectrum: 2048
>>>>>Begin Processed Spectral Data<<<<<
339.09	0.00
339.48	218.30
339.86	218.30
340.24	220.70
340.63	221.50
341.01	223.30
341.39	222.10
341.78	223.70
342.16	226.80
342.54	226.30
342.93	215.04
343.31	225.91
343.69	226.36
344.07	226.84
344.46	227.20
344.84	227.58
345.22	227.79
345.60	228.12
345.99	228.30
346.37	228.44
346.75	228.42
347.13	228.46
347.52	228.59
347.90	228.64
348.28	228.60
348.66	228.66
349.05	228.65
349.43	228.72
349.81	228.81
350.19	228.94
350.57	228.93
350.96	228.91
351.34	228.97
351.72	229.09
352.10	229.24
352.48	229.31
352.87	229.34
353.25	229.49
353.63	229.53
354.01	229.67
354.39	229.70
354.77	229.87
355.15	230.01
355.54	229.98
355.92	229.93
356.30	230.06
356.68	230.16
357.06	230.19
357.44	230.16
357.82	230.07
358.20	230.23
358.58	230.22
358.97	230.26
359.35	230.37
359.73	230.40
360.11	230.38
360.49	230.40
360.87	230.36
361.25	230.24
361.63	230.27
362.01	230.24
362.39	230.23
362.77	230.27
363.15	230.18
363.53	230.16
363.91	230.19
364.29	230.11
364.67	229.87
365.05	229.85
365.43	229.90
365.81	229.97
366.19	229.84
366.57	230.00
366.95	230.00
367.33	229.85
367.71	229.79
368.09	229.68
368.47	229.60
368.85	229.62
369.23	229.60
369.61	229.54
369.99	229.55
370.37	229.50
370.75	229.49
371.13	229.53
371.51	229.46
371.89	229.31
372.27	229.30
372.65	229.25
373.03	229.17
373.41	229.05
373.78	228.95
374.16	228.87
374.54	228.67
374.92	228.58
375.30	228.52
375.68	228.48
376.06	228.41
376.44	228.38
376.82	228.32
377.19	228.46
377.57	228.28
377.95	228.17
378.33	228.12
378.71	227.98
379.09	227.73
379.47	227.74
379.84	227.73
380.22	227.61
380.60	227.56
380.98	227.50
381.36	227.39
381.73	227.27
382.11	227.27
382.49	227.28
382.87	227.15
383.25	227.10
383.62	227.19
384.00	227.15
384.38	227.09
384.76	227.06
385.13	226.97
385.51	226.96
385.89	226.89
386.27	226.90
386.64	226.98
387.02	227.07
387.40	227.00
387.78	227.02
388.15	227.00
388.53	227.02
388.91	226.90
389.29	226.97
389.66	227.03
390.04	226.95
390.42	226.97
390.79	227.09
391.17	227.12
391.55	226.97
391.92	226.99
392.30	227.02
392.68	227.03
393.05	227.06
393.43	227.10
393.81	227.13
394.18	227.07
394.56	227.00
394.94	227.20
395.31	227.23
395.69	227.26
396.06	227.38
396.44	227.52
396.82	227.79
397.19	227.91
397.57	227.89
397.95	228.03
398.32	228.10
398.70	228.27
399.07	228.39
399.45	228.46
399.82	228.57
400.20	228.72
400.58	228.76
400.95	228.88
401.33	229.13
401.70	229.45
402.08	229.59
402.45	229.76
402.83	229.82
403.20	230.15
403.58	230.49
403.95	230.62
404.33	230.79
404.71	230.98
405.08	231.37
405.46	231.64
405.83	231.93
406.21	232.18
406.58	232.36
406.96	232.56
407.33	232.96
407.70	233.37
408.08	233.83
408.45	234.26
408.83	234.60
409.20	234.93
409.58	235.31
409.95	235.81
410.33	236.34
410.70	236.81
411.08	237.30
411.45	237.81
411.82	238.49
412.20	239.16
412.57	240.06
412.95	240.52
413.32	241.39
413.69	242.19
414.07	243.03
414.44	243.93
414.82	245.07
415.19	246.19
415.56	247.24
415.94	248.39
416.31	249.77
416.68	251.07
417.06	252.65
417.43	253.97
417.81	255.57
418.18	257.21
418.55	259.08
418.93	261.00
419.30	262.89
419.67	264.94
420.04	267.05
420.42	269.19
420.79	271.91
421.16	274.49
421.54	277.12
421.91	279.84
422.28	282.78
422.66	285.81
423.03	288.65
423.40	291.74
423.77	295.07
424.15	298.43
424.52	301.97
424.89	305.72
425.26	309.40
425.64	312.88
426.01	316.52
426.38	320.46
426.75	324.38
427.13	328.64
427.50	332.94
427.87	337.48
428.24	341.97
428.61	346.20
428.99	351.05
429.36	356.02
429.73	361.18
430.10	366.28
430.47	371.38
430.85	376.80
431.22	382.37
431.59	388.40
431.96	394.01
432.33	400.27
432.70	406.36
433.08	413.59
433.45	420.25
433.82	427.13
434.19	434.47
434.56	441.66
434.93	448.44
435.30	455.46
435.68	463.10
436.05	470.49
436.42	478.01
436.79	484.81
437.16	492.28
437.53	500.04
437.90	507.70
438.27	515.40
438.64	523.18
439.01	530.47
439.38	536.92
439.75	543.23
440.13	550.43
440.50	557.13
440.87	562.63
441.24	568.65
441.61	575.17
441.98	580.04
442.35	585.98
442.72	591.80
443.09	597.45
443.46	600.98
443.83	603.67
444.20	606.16
444.57	609.28
444.94	611.07
445.31	612.96
445.68	614.73
446.05	615.94
446.42	616.10
446.79	615.96
447.16	615.70
447.53	615.88
447.90	613.88
448.27	611.95
448.64	608.90
449.01	606.82
449.37	602.51
449.74	598.44
450.11	593.11
450.48	587.39
450.85	581.68
451.22	576.97
451.59	572.32
451.96	567.80
452.33	561.76
452.70	556.36
453.07	549.47
453.43	542.52
453.80	535.76
454.17	529.28
454.54	523.27
454.91	516.56
455.28	509.86
455.65	503.85
456.02	497.57
456.38	492.21
456.75	485.44
457.12	479.80
457.49	474.25
457.86	468.94
458.23	464.46
458.59	459.20
458.96	453.79
459.33	449.19
459.70	444.45
460.07	440.57
460.43	436.07
460.80	431.85
461.17	428.22
461.54	424.26
461.91	420.42
462.27	416.66
462.64	413.42
463.01	410.05
463.38	406.43
463.74	402.97
464.11	399.90
464.48	397.31
464.85	394.43
465.21	392.12
465.58	389.65
465.95	386.56
466.32	384.15
466.68	381.68
467.05	379.15
467.42	376.70
467.78	374.00
468.15	371.53
468.52	369.86
468.88	367.58
469.25	365.53
469.62	363.92
469.98	362.00
470.35	360.21
470.72	358.42
471.08	356.63
471.45	355.22
471.82	353.57
472.18	351.82
472.55	350.45
472.92	348.98
473.28	347.60
473.65	346.36
474.02	344.97
474.38	343.90
474.75	342.93
475.11	341.93
475.48	341.15
475.85	340.53
476.21	339.69
476.58	338.92
476.94	338.36
477.31	337.59
477.67	336.93
478.04	336.56
478.41	336.12
478.77	335.83
479.14	335.24
479.50	335.07
479.87	334.96
480.23	334.90
480.60	334.51
480.96	334.40
481.33	334.48
481.69	334.48
482.06	334.44
482.42	334.38
482.79	334.22
483.15	334.45
483.52	334.69
483.88	334.80
484.25	335.04
484.61	335.22
484.98	335.49
485.34	335.92
485.71	336.26
486.07	336.80
486.44	337.27
486.80	337.86
487.17	338.47
487.53	339.00
487.90	339.69
488.26	340.61
488.62	341.52
488.99	342.30
489.35	343.23
489.72	344.29
490.08	345.26
490.44	346.41
490.81	347.51
491.17	348.60
491.54	349.91
491.90	351.04
492.26	352.40
492.63	353.78
492.99	355.16
493.36	356.51
493.72	358.06
494.08	359.49
494.45	361.03
494.81	362.51
495.17	364.17
495.54	365.70
495.90	367.26
496.26	368.90
496.63	370.56
496.99	372.30
497.35	374.02
497.72	375.85
498.08	377.59
498.44	379.20
498.80	381.15
499.17	382.80
499.53	384.59
499.89	386.33
500.26	388.16
500.62	389.78
500.98	391.61
501.34	393.29
501.71	395.10
502.07	396.81
502.43	398.53
502.79	400.03
503.16	401.86
503.52	403.57
503.88	405.03
504.24	406.65
504.60	408.16
504.97	409.69
505.33	411.22
505.69	412.81
506.05	414.49
506.41	415.67
506.78	416.95
507.14	418.16
507.50	419.50
507.86	420.50
508.22	421.78
508.59	422.70
508.95	423.67
509.31	424.96
509.67	425.94
510.03	426.99
510.39	428.11
510.75	428.96
511.12	429.76
511.48	430.61
511.84	431.41
512.20	432.07
512.56	432.79
512.92	433.47
513.28	434.14
513.64	434.58
514.00	435.18
514.37	435.80
514.73	436.31
515.09	436.66
515.45	437.36
515.81	437.70
516.17	438.27
516.53	438.71
516.89	438.71
517.25	439.01
517.61	439.32
517.97	439.57
518.33	439.71
518.69	440.13
519.05	440.51
519.41	440.80
519.77	441.38
520.13	441.76
520.49	441.96
520.85	442.20
521.21	442.52
521.57	442.95
521.93	443.21
522.29	443.89
522.65	444.26
523.01	444.53
523.37	445.04
523.73	445.52
524.09	445.88
524.45	446.34
524.81	446.99
525.17	447.70
525.53	448.48
525.89	449.32
526.25	449.93
526.61	450.60
526.97	451.40
527.33	452.16
527.68	452.95
528.04	453.93
528.40	454.88
528.76	456.14
529.12	457.26
529.48	458.65
529.84	459.65
530.20	461.10
530.56	462.72
530.91	464.42
531.27	466.03
531.63	467.80
531.99	469.60
532.35	471.32
532.71	473.00
533.07	475.02
533.42	477.00
533.78	479.04
534.14	481.27
534.50	483.36
534.86	485.44
535.21	487.78
535.57	490.35
535.93	492.76
536.29	495.16
536.65	497.64
537.00	500.10
537.36	503.03
537.72	505.76
538.08	508.43
538.44	511.10
538.79	513.87
539.15	516.59
539.51	519.66
539.87	522.82
540.22	526.08
540.58	529.32
540.94	532.45
541.29	535.67
541.65	538.80
542.01	542.36
542.37	545.96
542.72	549.38
543.08	552.84
543.44	556.40
543.79	559.83
544.15	563.55
544.51	567.37
544.87	571.06
545.22	574.54
545.58	578.11
545.94	581.75
546.29	585.70
546.65	589.64
547.01	593.44
547.36	597.15
547.72	600.79
548.07	604.30
548.43	607.89
548.79	611.86
549.14	615.64
549.50	619.35
549.86	623.03
550.21	626.96
550.57	630.82
550.92	634.67
551.28	638.56
551.64	642.35
551.99	646.20
552.35	649.92
552.70	653.80
553.06	657.85
553.41	661.80
553.77	665.60
554.13	669.63
554.48	673.71
554.84	677.56
555.19	681.50
555.55	685.75
555.90	689.85
556.26	693.53
556.61	697.35
556.97	701.14
557.32	705.09
557.68	708.59
558.03	712.56
558.39	716.30
558.74	720.26
559.10	724.08
559.45	727.79
559.81	731.80
560.16	735.52
560.52	739.38
560.87	743.28
561.23	746.94
561.58	750.58
561.94	754.00
562.29	757.60
562.64	761.04
563.00	764.41
563.35	767.99
563.71	772.10
564.06	775.97
564.42	779.41
564.77	782.79
565.12	786.48
565.48	790.00
565.83	793.50
566.19	796.91
566.54	800.24
566.89	803.61
567.25	806.79
567.60	810.32
567.96	813.49
568.31	816.80
568.66	819.89
569.02	822.63
569.37	825.46
569.72	828.40
570.08	831.34
570.43	833.96
570.78	836.75
571.14	838.98
571.49	841.37
571.84	844.26
572.20	846.54
572.55	848.98
572.90	851.00
573.26	853.41
573.61	855.47
573.96	857.46
574.31	858.90
574.67	860.30
575.02	861.76
575.37	863.20
575.72	864.19
576.08	866.09
576.43	867.58
576.78	869.10
577.13	870.70
577.49	872.12
577.84	873.32
578.19	874.23
578.54	875.32
578.90	875.94
579.25	876.29
579.60	877.40
579.95	878.05
580.30	878.66
580.66	878.92
581.01	879.18
581.36	879.68
581.71	880.77
582.06	881.57
582.42	881.97
582.77	882.38
583.12	882.90
583.47	882.64
583.82	882.96
584.17	883.03
584.53	882.96
584.88	882.92
585.23	882.88
585.58	883.13
585.93	883.05
586.28	883.45
586.63	883.80
586.98	883.71
587.34	883.80
587.69	883.76
588.04	883.70
588.39	883.77
588.74	883.11
589.09	882.83
589.44	882.15
589.79	881.96
590.14	881.56
590.49	881.20
590.84	880.71
591.19	880.26
591.54	879.48
591.89	878.56
592.25	877.79
592.60	876.93
592.95	875.82
593.30	874.83
593.65	873.80
594.00	872.44
594.35	872.02
594.70	870.43
595.05	869.40
595.40	868.07
595.75	866.71
596.10	865.92
596.45	864.70
596.80	863.78
597.15	862.58
597.50	861.23
597.85	859.98
598.19	858.97
598.54	857.62
598.89	856.63
599.24	855.61
599.59	854.26
599.94	853.11
600.29	851.90
600.64	850.38
600.99	848.47
601.34	847.10
601.69	844.65
602.04	843.36
602.39	841.53
602.74	840.32
603.08	838.97
603.43	837.45
603.78	835.61
604.13	833.77
604.48	831.95
604.83	830.39
605.18	828.69
605.53	826.63
605.87	824.59
606.22	822.60
606.57	820.63
606.92	818.80
607.27	817.05
607.62	815.20
607.96	813.48
608.31	812.09
608.66	810.14
609.01	808.07
609.36	805.82
609.70	803.46
610.05	801.08
610.40	798.70
610.75	796.33
611.10	793.78
611.44	791.19
611.79	789.08
612.14	786.60
612.49	783.86
612.83	781.27
613.18	778.87
613.53	776.22
613.88	773.53
614.22	770.94
614.57	767.97
614.92	765.04
615.27	762.64
615.61	759.75
615.96	757.36
616.31	754.93
616.65	752.88
617.00	750.34
617.35	747.90
617.70	745.10
618.04	742.37
618.39	739.86
618.74	737.48
619.08	734.59
619.43	731.88
619.78	729.38
620.12	726.75
620.47	724.30
620.82	721.67
621.16	719.30
621.51	716.93
621.85	714.62
622.20	712.14
622.55	709.35
622.89	706.89
623.24	704.33
623.59	701.84
623.93	699.09
624.28	696.91
624.62	694.31
624.97	692.22
625.32	689.91
625.66	687.56
626.01	685.14
626.35	682.71
626.70	680.22
627.04	677.97
627.39	675.67
627.73	673.11
628.08	671.01
628.43	668.30
628.77	665.75
629.12	663.09
629.46	660.47
629.81	657.83
630.15	655.24
630.50	652.40
630.84	649.55
631.19	646.75
631.53	643.96
631.88	640.95
632.22	638.11
632.57	635.43
632.91	632.72
633.26	630.23
633.60	627.49
633.95	624.90
634.29	622.20
634.64	619.53
634.98	616.84
635.32	614.20
635.67	611.99
636.01	609.45
636.36	606.71
636.70	604.59
637.05	602.22
637.39	599.79
637.73	597.45
638.08	595.34
638.42	593.10
638.77	590.80
639.11	588.69
639.45	586.26
639.80	583.93
640.14	581.56
640.49	579.14
640.83	576.86
641.17	574.60
641.52	572.05
641.86	569.50
642.20	567.22
642.55	564.84
642.89	562.30
643.23	559.97
643.58	558.13
643.92	555.67
644.26	553.28
644.61	551.11
644.95	548.89
645.29	546.37
645.64	543.93
645.98	541.55
646.32	539.22
646.66	536.92
647.01	534.65
647.35	532.52
647.69	530.34
648.04	528.11
648.38	525.73
648.72	523.44
649.06	521.29
649.41	518.96
649.75	516.39
650.09	514.08
650.43	511.57
650.78	508.93
651.12	506.63
651.46	504.55
651.80	502.16
652.14	499.83
652.49	497.75
652.83	495.67
653.17	493.35
653.51	491.11
653.85	488.85
654.20	486.33
654.54	483.82
654.88	481.30
655.22	478.77
655.56	476.50
655.90	474.30
656.25	472.32
656.59	470.12
656.93	467.95
657.27	465.74
657.61	463.52
657.95	461.64
658.29	459.51
658.64	457.05
658.98	454.81
659.32	452.68
659.66	450.45
660.00	448.17
660.34	446.01
660.68	443.89
661.02	441.75
661.36	440.03
661.70	438.28
662.05	436.53
662.39	434.93
662.73	433.07
663.07	431.44
663.41	429.56
663.75	427.82
664.09	426.15
664.43	424.34
664.77	422.80
665.11	420.89
665.45	419.12
665.79	417.57
666.13	415.93
666.47	414.24
666.81	412.62
667.15	410.99
667.49	409.60
667.83	407.95
668.17	406.33
668.51	404.56
668.85	402.77
669.19	401.24
669.53	399.56
669.87	397.98
670.21	396.40
670.55	394.81
670.89	393.31
671.23	391.88
671.57	390.32
671.91	388.76
672.25	387.34
672.58	385.87
672.92	384.38
673.26	382.97
673.60	381.52
673.94	380.24
674.28	378.98
674.62	377.69
674.96	376.38
675.30	375.15
675.64	373.77
675.97	372.61
676.31	371.19
676.65	369.94
676.99	368.88
677.33	367.42
677.67	366.11
678.01	364.74
678.34	363.43
678.68	362.35
679.02	361.11
679.36	359.82
679.70	358.72
680.04	357.67
680.37	356.53
680.71	355.35
681.05	354.06
681.39	352.95
681.73	351.68
682.06	350.52
682.40	349.35
682.74	348.19
683.08	347.02
683.42	345.90
683.75	344.76
684.09	343.46
684.43	342.36
684.77	341.28
685.10	340.23
685.44	339.28
685.78	338.19
686.12	337.10
686.45	336.10
686.79	335.00
687.13	333.82
687.46	332.72
687.80	331.73
688.14	330.61
688.48	329.56
688.81	328.52
689.15	327.60
689.49	326.55
689.82	325.70
690.16	324.80
690.50	323.80
690.83	322.85
691.17	321.73
691.51	320.76
691.84	319.90
692.18	318.97
692.52	317.87
692.85	316.79
693.19	315.82
693.52	314.79
693.86	313.71
694.20	312.86
694.53	312.00
694.87	311.16
695.21	310.35
695.54	309.35
695.88	308.51
696.21	307.49
696.55	306.67
696.88	305.78
697.22	304.82
697.56	304.03
697.89	303.13
698.23	302.41
698.56	301.68
698.90	300.87
699.23	300.01
699.57	299.20
699.90	298.50
700.24	297.70
700.58	296.91
700.91	296.17
701.25	295.50
701.58	294.80
701.92	294.03
702.25	293.23
702.59	292.59
702.92	291.93
703.26	291.33
703.59	290.77
703.93	290.22
704.26	289.49
704.60	288.95
704.93	288.35
705.26	287.72
705.60	287.06
705.93	286.40
706.27	285.95
706.60	285.51
706.94	284.93
707.27	284.41
707.61	283.91
707.94	283.45
708.27	282.71
708.61	282.06
708.94	281.55
709.28	281.18
709.61	280.62
709.94	280.11
710.28	279.66
710.61	279.03
710.95	278.36
711.28	278.10
711.61	277.44
711.95	276.95
712.28	276.44
712.61	275.90
712.95	275.45
713.28	274.94
713.61	274.33
713.95	273.77
714.28	273.31
714.61	272.84
714.95	272.33
715.28	271.87
715.61	271.39
715.95	270.81
716.28	270.32
716.61	269.86
716.95	269.42
717.28	268.94
717.61	268.57
717.94	268.26
718.28	267.71
718.61	267.37
718.94	266.87
719.27	266.48
719.61	266.19
719.94	265.70
720.27	265.17
720.60	264.85
720.94	264.63
721.27	264.20
721.60	263.88
721.93	263.50
722.27	263.26
722.60	262.97
722.93	262.66
723.26	262.20
723.59	261.77
723.93	261.35
724.26	261.04
724.59	260.67
724.92	260.27
725.25	259.97
725.59	259.59
725.92	259.37
726.25	258.98
726.58	258.69
726.91	258.37
727.24	258.17
727.57	257.82
727.91	257.30
728.24	257.13
728.57	256.81
728.90	256.57
729.23	256.20
729.56	256.03
729.89	255.74
730.22	255.50
730.55	255.26
730.89	254.98
731.22	254.67
731.55	254.44
731.88	254.13
732.21	253.77
732.54	253.50
732.87	253.23
733.20	253.00
733.53	252.69
733.86	252.42
734.19	252.08
734.52	251.77
734.85	251.82
735.18	251.56
735.51	251.32
735.84	251.10
736.17	250.91
736.50	250.59
736.83	250.64
737.16	250.44
737.49	250.14
737.82	249.85
738.15	249.59
738.48	249.30
738.81	249.05
739.14	248.88
739.47	248.63
739.80	248.37
740.13	248.21
740.46	247.84
740.79	247.59
741.12	247.38
741.45	247.22
741.78	246.86
742.11	246.63
742.44	246.33
742.77	246.11
743.10	245.89
743.43	245.63
743.75	245.22
744.08	245.21
744.41	245.24
744.74	245.05
745.07	244.90
745.40	244.71
745.73	244.63
746.06	244.44
746.39	244.28
746.71	244.06
747.04	243.85
747.37	243.82
747.70	243.76
748.03	243.65
748.36	243.40
748.68	243.14
749.01	242.89
749.34	242.86
749.67	242.76
750.00	242.52
750.33	242.44
750.65	242.29
750.98	241.94
751.31	241.64
751.64	241.50
751.97	241.52
752.29	241.49
752.62	241.26
752.95	241.06
753.28	240.89
753.60	240.81
753.93	240.72
754.26	240.62
754.59	240.38
754.91	240.25
755.24	240.24
755.57	240.20
755.90	240.11
756.22	239.85
756.55	239.62
756.88	239.51
757.20	239.31
757.53	239.07
757.86	238.84
758.19	238.71
758.51	238.70
758.84	238.52
759.17	238.32
759.49	238.25
759.82	238.29
760.15	238.15
760.47	238.04
760.80	237.86
761.13	237.71
761.45	237.62
761.78	237.50
762.11	237.32
762.43	237.22
762.76	237.08
763.08	237.08
763.41	237.09
763.74	237.00
764.06	236.96
764.39	236.95
764.71	236.96
765.04	236.88
765.37	236.69
765.69	236.58
766.02	236.52
766.34	236.47
766.67	236.31
767.00	236.35
767.32	236.34
767.65	236.38
767.97	236.26
768.30	236.21
768.62	236.16
768.95	236.08
769.27	235.94
769.60	235.89
769.92	235.72
770.25	235.55
770.57	235.46
770.90	235.30
771.22	235.12
771.55	235.01
771.87	234.96
772.20	234.90
772.52	234.90
772.85	235.10
773.17	235.02
773.50	234.90
773.82	234.82
774.15	234.63
774.47	234.45
774.80	234.34
775.12	234.25
775.45	234.08
775.77	234.00
776.09	233.95
776.42	233.92
776.74	233.85
777.07	233.80
777.39	233.81
777.72	233.81
778.04	233.82
778.36	233.81
778.69	233.74
779.01	233.65
779.33	233.38
779.66	233.00
779.98	232.90
780.31	232.81
780.63	232.71
780.95	232.72
781.28	232.68
781.60	232.69
781.92	232.55
782.25	232.50
782.57	232.52
782.89	232.49
783.22	232.42
783.54	232.41
783.86	232.44
784.19	232.33
784.51	232.36
784.83	232.21
785.16	232.05
785.48	232.03
785.80	232.08
786.12	232.16
786.45	232.09
786.77	232.03
787.09	232.03
787.42	231.98
787.74	231.93
788.06	231.90
788.38	231.86
788.71	231.90
789.03	231.98
789.35	231.98
789.67	231.97
789.99	231.88
790.32	231.85
790.64	231.80
790.96	232.01
791.28	231.91
791.61	231.93
791.93	232.10
792.25	231.99
792.57	232.09
792.89	231.90
793.21	232.01
793.54	231.93
793.86	231.93
794.18	231.94
