SpectraSuite Data File
++++++++++++++++++++++++++++++++++++
Date: Fri Feb 01 14:36:30 EST 2013
User: group
Dark Spectrum Present: No
Reference Spectrum Present: No
Number of Sampled Component Spectra: 1
Spectrometers: USB2E7196
Integration Time (usec): 70000 (USB2E7196)
Spectra Averaged: 10 (USB2E7196)
Boxcar Smoothing: 10 (USB2E7196)
Correct for Electrical Dark: No (USB2E7196)
Strobe/Lamp Enabled: No (USB2E7196)
Correct for Detector Non-linearity: No (USB2E7196)
Correct for Stray Light: No (USB2E7196)
Number of Pixels in Processed Spectrum: 2048
>>>>>Begin Processed Spectral Data<<<<<
339.09	0.00
339.48	217.80
339.86	218.00
340.24	218.90
340.63	221.40
341.01	225.60
341.39	222.60
341.78	225.70
342.16	226.50
342.54	226.10
342.93	214.83
343.31	225.62
343.69	226.07
344.07	226.53
344.46	226.86
344.84	227.12
345.22	227.27
345.60	227.53
345.99	227.68
346.37	227.76
346.75	227.78
347.13	227.80
347.52	227.88
347.90	228.00
348.28	228.07
348.66	228.13
349.05	228.06
349.43	228.12
349.81	228.21
350.19	228.22
350.57	228.15
350.96	228.14
351.34	228.24
351.72	228.32
352.10	228.38
352.48	228.52
352.87	228.61
353.25	228.59
353.63	228.67
354.01	228.62
354.39	228.68
354.77	228.79
355.15	228.95
355.54	228.85
355.92	228.84
356.30	228.96
356.68	229.09
357.06	229.25
357.44	229.18
357.82	229.22
358.20	229.31
358.58	229.40
358.97	229.56
359.35	229.62
359.73	229.67
360.11	229.74
360.49	229.73
360.87	229.81
361.25	229.85
361.63	229.89
362.01	229.97
362.39	229.92
362.77	230.08
363.15	230.03
363.53	230.16
363.91	230.08
364.29	230.03
364.67	229.83
365.05	229.78
365.43	229.87
365.81	229.97
366.19	230.13
366.57	230.14
366.95	230.02
367.33	229.95
367.71	230.00
368.09	229.98
368.47	230.06
368.85	230.03
369.23	230.13
369.61	230.09
369.99	230.12
370.37	230.15
370.75	230.07
371.13	230.04
371.51	230.04
371.89	230.09
372.27	230.10
372.65	230.07
373.03	230.06
373.41	229.96
373.78	229.84
374.16	229.60
374.54	229.44
374.92	229.41
375.30	229.36
375.68	229.24
376.06	229.23
376.44	229.06
376.82	228.93
377.19	228.86
377.57	228.71
377.95	228.55
378.33	228.40
378.71	228.27
379.09	228.22
379.47	228.07
379.84	227.92
380.22	227.87
380.60	227.75
380.98	227.60
381.36	227.52
381.73	227.42
382.11	227.44
382.49	227.42
382.87	227.32
383.25	227.30
383.62	227.39
384.00	227.24
384.38	227.17
384.76	227.16
385.13	227.06
385.51	227.07
385.89	227.00
386.27	227.10
386.64	227.04
387.02	226.94
387.40	226.89
387.78	226.92
388.15	226.85
388.53	226.86
388.91	226.91
389.29	226.88
389.66	226.78
390.04	226.68
390.42	226.69
390.79	226.60
391.17	226.57
391.55	226.35
391.92	226.35
392.30	226.47
392.68	226.45
393.05	226.45
393.43	226.46
393.81	226.50
394.18	226.49
394.56	226.51
394.94	226.65
395.31	226.73
395.69	226.83
396.06	226.97
396.44	227.09
396.82	227.17
397.19	227.38
397.57	227.52
397.95	227.59
398.32	227.68
398.70	227.85
399.07	228.05
399.45	228.23
399.82	228.30
400.20	228.25
400.58	228.35
400.95	228.52
401.33	228.64
401.70	229.03
402.08	229.18
402.45	229.26
402.83	229.33
403.20	229.48
403.58	229.64
403.95	229.72
404.33	229.82
404.71	229.85
405.08	230.10
405.46	230.34
405.83	230.57
406.21	230.73
406.58	231.01
406.96	231.12
407.33	231.37
407.70	231.73
408.08	232.28
408.45	232.62
408.83	232.95
409.20	233.38
409.58	233.57
409.95	234.00
410.33	234.58
410.70	235.09
411.08	235.62
411.45	236.21
411.82	236.81
412.20	237.57
412.57	238.40
412.95	238.95
413.32	239.76
413.69	240.58
414.07	241.46
414.44	242.40
414.82	243.42
415.19	244.50
415.56	245.63
415.94	246.75
416.31	248.05
416.68	249.31
417.06	250.73
417.43	252.14
417.81	253.72
418.18	255.27
418.55	256.92
418.93	258.72
419.30	260.43
419.67	262.28
420.04	264.19
420.42	266.34
420.79	268.82
421.16	271.17
421.54	273.67
421.91	276.27
422.28	278.91
422.66	281.72
423.03	284.52
423.40	287.37
423.77	290.36
424.15	293.55
424.52	296.78
424.89	300.29
425.26	303.58
425.64	306.79
426.01	310.40
426.38	314.05
426.75	317.77
427.13	321.67
427.50	325.72
427.87	329.97
428.24	334.20
428.61	338.14
428.99	342.61
429.36	347.45
429.73	352.20
430.10	356.88
430.47	361.69
430.85	366.62
431.22	371.80
431.59	377.47
431.96	382.63
432.33	388.47
432.70	394.27
433.08	400.99
433.45	407.11
433.82	413.19
434.19	420.12
434.56	427.10
434.93	433.39
435.30	439.93
435.68	446.87
436.05	453.86
436.42	460.76
436.79	467.00
437.16	473.85
437.53	480.84
437.90	487.91
438.27	494.82
438.64	502.05
439.01	508.88
439.38	514.69
439.75	520.50
440.13	526.88
440.50	532.91
440.87	538.14
441.24	543.77
441.61	549.84
441.98	554.28
442.35	559.13
442.72	564.70
443.09	569.90
443.46	573.40
443.83	575.70
444.20	577.80
444.57	580.83
444.94	582.52
445.31	584.26
445.68	586.01
446.05	587.37
446.42	587.36
446.79	587.17
447.16	587.04
447.53	587.29
447.90	585.67
448.27	583.90
448.64	580.87
449.01	578.89
449.37	574.96
449.74	571.20
450.11	566.48
450.48	561.14
450.85	555.78
451.22	551.20
451.59	546.95
451.96	542.87
452.33	537.04
452.70	531.82
453.07	525.65
453.43	519.22
453.80	512.74
454.17	506.76
454.54	501.14
454.91	494.89
455.28	488.69
455.65	482.96
456.02	477.15
456.38	472.24
456.75	465.93
457.12	460.66
457.49	455.50
457.86	450.63
458.23	446.35
458.59	441.62
458.96	436.66
459.33	432.21
459.70	427.90
460.07	424.26
460.43	420.18
460.80	416.29
461.17	412.90
461.54	409.41
461.91	405.93
462.27	402.28
462.64	399.36
463.01	395.98
463.38	392.78
463.74	389.66
464.11	386.93
464.48	384.41
464.85	381.61
465.21	379.45
465.58	377.20
465.95	374.46
466.32	372.11
466.68	369.93
467.05	367.80
467.42	365.55
467.78	363.39
468.15	361.17
468.52	359.54
468.88	357.22
469.25	355.23
469.62	353.67
469.98	352.00
470.35	350.39
470.72	348.83
471.08	347.13
471.45	345.54
471.82	344.01
472.18	342.43
472.55	341.35
472.92	339.99
473.28	338.61
473.65	337.48
474.02	336.10
474.38	335.12
474.75	334.07
475.11	332.95
475.48	332.16
475.85	331.39
476.21	330.60
476.58	330.02
476.94	329.46
477.31	328.83
477.67	328.21
478.04	327.61
478.41	327.32
478.77	327.06
479.14	326.70
479.50	326.32
479.87	326.20
480.23	325.91
480.60	325.55
480.96	325.38
481.33	325.37
481.69	325.38
482.06	325.15
482.42	325.14
482.79	325.36
483.15	325.26
483.52	325.43
483.88	325.48
484.25	325.71
484.61	325.93
484.98	326.05
485.34	326.56
485.71	326.97
486.07	327.30
486.44	327.63
486.80	328.04
487.17	328.63
487.53	329.17
487.90	329.76
488.26	330.58
488.62	331.29
488.99	331.87
489.35	332.60
489.72	333.41
490.08	334.23
490.44	334.98
490.81	335.93
491.17	336.91
491.54	337.91
491.90	338.91
492.26	339.92
492.63	341.19
492.99	342.07
493.36	343.26
493.72	344.49
494.08	345.67
494.45	346.93
494.81	348.21
495.17	349.53
495.54	350.95
495.90	352.26
496.26	353.68
496.63	355.14
496.99	356.65
497.35	358.28
497.72	359.74
498.08	361.17
498.44	362.59
498.80	364.01
499.17	365.63
499.53	367.07
499.89	368.63
500.26	369.86
500.62	371.29
500.98	372.66
501.34	374.10
501.71	375.82
502.07	377.21
502.43	378.60
502.79	379.95
503.16	381.23
503.52	382.41
503.88	383.54
504.24	384.79
504.60	386.05
504.97	387.05
505.33	388.18
505.69	389.54
506.05	390.79
506.41	391.85
506.78	392.74
507.14	393.66
507.50	394.52
507.86	395.61
508.22	396.55
508.59	397.27
508.95	398.02
509.31	398.53
509.67	399.29
510.03	399.86
510.39	400.66
510.75	401.33
511.12	402.02
511.48	402.61
511.84	402.97
512.20	403.33
512.56	403.94
512.92	404.42
513.28	404.66
513.64	404.91
514.00	405.18
514.37	405.40
514.73	405.61
515.09	405.98
515.45	406.14
515.81	406.36
516.17	406.60
516.53	406.80
516.89	406.88
517.25	407.03
517.61	407.20
517.97	407.15
518.33	407.19
518.69	407.31
519.05	407.41
519.41	407.69
519.77	408.00
520.13	408.05
520.49	408.19
520.85	408.45
521.21	408.69
521.57	409.06
521.93	409.29
522.29	409.60
522.65	409.90
523.01	410.12
523.37	410.40
523.73	410.90
524.09	411.35
524.45	411.86
524.81	412.46
525.17	413.25
525.53	413.90
525.89	414.63
526.25	415.40
526.61	416.26
526.97	417.13
527.33	418.00
527.68	419.32
528.04	420.20
528.40	421.25
528.76	422.57
529.12	423.80
529.48	425.30
529.84	426.69
530.20	427.94
530.56	429.66
530.91	431.48
531.27	433.07
531.63	434.95
531.99	436.83
532.35	438.71
532.71	440.61
533.07	442.79
533.42	445.02
533.78	447.37
534.14	449.58
534.50	451.84
534.86	454.13
535.21	456.25
535.57	459.00
535.93	461.58
536.29	464.15
536.65	466.89
537.00	469.47
537.36	472.44
537.72	475.41
538.08	478.36
538.44	481.21
538.79	484.29
539.15	487.22
539.51	490.24
539.87	493.43
540.22	496.57
540.58	499.80
540.94	502.96
541.29	506.00
541.65	509.33
542.01	512.95
542.37	516.62
542.72	520.23
543.08	523.83
543.44	527.60
543.79	531.17
544.15	534.99
544.51	539.16
544.87	542.86
545.22	546.95
545.58	550.66
545.94	554.55
546.29	558.63
546.65	562.50
547.01	566.65
547.36	570.65
547.72	574.50
548.07	578.48
548.43	582.72
548.79	587.05
549.14	591.17
549.50	594.93
549.86	598.90
550.21	602.84
550.57	606.84
550.92	610.94
551.28	615.08
551.64	619.06
551.99	623.11
552.35	627.30
552.70	631.23
553.06	635.62
553.41	639.84
553.77	643.90
554.13	648.19
554.48	652.19
554.84	656.26
555.19	660.65
555.55	664.99
555.90	668.94
556.26	672.90
556.61	676.99
556.97	681.23
557.32	685.39
557.68	689.53
558.03	693.63
558.39	697.51
558.74	701.85
559.10	705.81
559.45	709.52
559.81	713.66
560.16	717.62
560.52	721.43
560.87	725.31
561.23	729.22
561.58	733.46
561.94	737.45
562.29	741.29
562.64	744.94
563.00	748.54
563.35	752.39
563.71	756.39
564.06	760.35
564.42	764.19
564.77	767.90
565.12	771.61
565.48	775.25
565.83	778.63
566.19	781.85
566.54	785.47
566.89	789.00
567.25	792.32
567.60	795.93
567.96	799.44
568.31	803.00
568.66	806.11
569.02	808.98
569.37	812.00
569.72	815.11
570.08	817.99
570.43	820.68
570.78	823.45
571.14	825.88
571.49	828.49
571.84	831.10
572.20	833.65
572.55	836.01
572.90	838.32
573.26	840.97
573.61	843.41
573.96	845.38
574.31	847.15
574.67	848.81
575.02	850.39
575.37	852.15
575.72	853.46
576.08	855.15
576.43	856.50
576.78	858.18
577.13	859.76
577.49	861.45
577.84	863.07
578.19	864.50
578.54	865.90
578.90	867.08
579.25	867.93
579.60	868.84
579.95	869.85
580.30	870.79
580.66	871.59
581.01	872.08
581.36	873.02
581.71	874.02
582.06	874.93
582.42	875.57
582.77	875.90
583.12	876.49
583.47	877.35
583.82	878.01
584.17	878.27
584.53	878.61
584.88	878.66
585.23	878.91
585.58	878.80
585.93	879.03
586.28	879.23
586.63	879.62
586.98	879.90
587.34	880.23
587.69	880.24
588.04	880.08
588.39	880.31
588.74	879.74
589.09	879.25
589.44	879.10
589.79	878.84
590.14	878.68
590.49	878.10
590.84	877.65
591.19	877.14
591.54	876.19
591.89	874.73
592.25	874.40
592.60	873.35
592.95	872.58
593.30	871.45
593.65	870.43
594.00	869.33
594.35	868.46
594.70	866.81
595.05	865.52
595.40	864.50
595.75	863.05
596.10	862.08
596.45	861.37
596.80	860.09
597.15	859.06
597.50	857.84
597.85	857.18
598.19	855.93
598.54	855.10
598.89	854.38
599.24	853.93
599.59	852.62
599.94	851.79
600.29	850.65
600.64	849.39
600.99	847.77
601.34	846.40
601.69	844.54
602.04	843.25
602.39	841.93
602.74	840.66
603.08	839.43
603.43	838.26
603.78	836.84
604.13	835.37
604.48	833.65
604.83	832.09
605.18	830.42
605.53	828.26
605.87	825.89
606.22	823.97
606.57	822.08
606.92	820.13
607.27	818.15
607.62	816.51
607.96	814.77
608.31	813.25
608.66	811.25
609.01	809.40
609.36	807.35
609.70	805.13
610.05	802.56
610.40	800.27
610.75	797.95
611.10	795.30
611.44	792.64
611.79	790.14
612.14	787.51
612.49	784.75
612.83	782.07
613.18	779.66
613.53	776.93
613.88	774.41
614.22	771.77
614.57	769.26
614.92	766.22
615.27	763.79
615.61	761.00
615.96	758.57
616.31	755.98
616.65	753.97
617.00	751.56
617.35	749.19
617.70	746.54
618.04	743.66
618.39	741.15
618.74	738.84
619.08	736.31
619.43	733.98
619.78	731.46
620.12	729.15
620.47	726.55
620.82	723.96
621.16	721.30
621.51	718.82
621.85	716.07
622.20	713.61
622.55	711.05
622.89	708.75
623.24	706.22
623.59	703.70
623.93	700.93
624.28	698.46
624.62	696.03
624.97	693.75
625.32	691.47
625.66	689.19
626.01	686.77
626.35	684.49
626.70	681.85
627.04	679.47
627.39	677.05
627.73	674.72
628.08	672.54
628.43	670.22
628.77	667.65
629.12	665.09
629.46	662.65
629.81	659.95
630.15	657.08
630.50	654.36
630.84	651.70
631.19	648.84
631.53	646.22
631.88	643.42
632.22	640.50
632.57	638.17
632.91	635.47
633.26	632.79
633.60	629.98
633.95	627.35
634.29	624.79
634.64	622.31
634.98	619.70
635.32	617.39
635.67	614.97
636.01	612.70
636.36	610.06
636.70	607.76
637.05	605.26
637.39	603.15
637.73	600.78
638.08	598.71
638.42	596.82
638.77	594.50
639.11	592.18
639.45	589.80
639.80	587.18
640.14	584.79
640.49	582.39
640.83	580.09
641.17	577.71
641.52	575.30
641.86	572.82
642.20	570.36
642.55	567.70
642.89	565.17
643.23	562.75
643.58	560.80
643.92	558.38
644.26	555.97
644.61	553.46
644.95	551.32
645.29	548.55
645.64	545.64
645.98	543.31
646.32	541.12
646.66	539.02
647.01	536.78
647.35	534.57
647.69	532.19
648.04	529.97
648.38	527.82
648.72	525.45
649.06	523.02
649.41	520.80
649.75	518.31
650.09	516.00
650.43	513.45
650.78	510.93
651.12	508.50
651.46	506.36
651.80	504.04
652.14	501.66
652.49	499.71
652.83	497.79
653.17	495.32
653.51	492.75
653.85	490.41
654.20	488.02
654.54	485.54
654.88	483.27
655.22	480.77
655.56	478.32
655.90	476.12
656.25	474.07
656.59	471.99
656.93	470.10
657.27	468.02
657.61	465.80
657.95	463.82
658.29	461.75
658.64	459.61
658.98	457.50
659.32	455.14
659.66	452.81
660.00	450.55
660.34	448.59
660.68	446.77
661.02	444.70
661.36	442.64
661.70	440.74
662.05	438.84
662.39	437.11
662.73	435.48
663.07	433.59
663.41	431.82
663.75	429.84
664.09	427.90
664.43	425.96
664.77	424.33
665.11	422.59
665.45	420.88
665.79	419.20
666.13	417.45
666.47	415.91
666.81	414.27
667.15	412.47
667.49	410.78
667.83	409.15
668.17	407.35
668.51	405.64
668.85	403.92
669.19	402.54
669.53	400.87
669.87	399.18
670.21	397.64
670.55	396.01
670.89	394.74
671.23	393.41
671.57	391.96
671.91	390.46
672.25	388.94
672.58	387.45
672.92	385.88
673.26	384.56
673.60	383.11
673.94	381.81
674.28	380.76
674.62	379.66
674.96	378.35
675.30	377.18
675.64	375.99
675.97	374.71
676.31	373.24
676.65	372.02
676.99	370.86
677.33	369.70
677.67	368.50
678.01	367.05
678.34	365.62
678.68	364.42
679.02	363.21
679.36	361.93
679.70	360.78
680.04	359.63
680.37	358.37
680.71	357.15
681.05	355.92
681.39	354.55
681.73	353.21
682.06	352.15
682.40	351.16
682.74	350.11
683.08	349.08
683.42	348.05
683.75	347.02
684.09	345.69
684.43	344.42
684.77	343.27
685.10	342.13
685.44	341.11
685.78	339.89
686.12	338.70
686.45	337.59
686.79	336.43
687.13	335.36
687.46	334.31
687.80	333.17
688.14	332.06
688.48	331.19
688.81	330.05
689.15	328.87
689.49	327.74
689.82	326.70
690.16	325.59
690.50	324.43
690.83	323.29
691.17	322.32
691.51	321.30
691.84	320.27
692.18	319.31
692.52	318.32
692.85	317.31
693.19	316.46
693.52	315.60
693.86	314.68
694.20	313.78
694.53	312.76
694.87	311.93
695.21	310.99
695.54	310.03
695.88	309.10
696.21	308.19
696.55	307.24
696.88	306.29
697.22	305.37
697.56	304.49
697.89	303.63
698.23	302.84
698.56	302.05
698.90	301.22
699.23	300.41
699.57	299.55
699.90	298.89
700.24	298.04
700.58	297.20
700.91	296.40
701.25	295.72
701.58	295.09
701.92	294.40
702.25	293.71
702.59	292.94
702.92	292.34
703.26	291.73
703.59	291.17
703.93	290.65
704.26	290.03
704.60	289.51
704.93	288.86
705.26	288.14
705.60	287.58
705.93	287.03
706.27	286.50
706.60	285.95
706.94	285.23
707.27	284.60
707.61	284.08
707.94	283.53
708.27	282.85
708.61	282.19
708.94	281.64
709.28	281.03
709.61	280.57
709.94	279.99
710.28	279.51
710.61	278.84
710.95	278.18
711.28	277.86
711.61	277.31
711.95	276.90
712.28	276.39
712.61	275.78
712.95	275.31
713.28	274.71
713.61	274.34
713.95	273.92
714.28	273.58
714.61	272.98
714.95	272.58
715.28	272.13
715.61	271.66
715.95	271.15
716.28	270.73
716.61	270.29
716.95	269.84
717.28	269.26
717.61	268.86
717.94	268.46
718.28	267.86
718.61	267.51
718.94	267.04
719.27	266.63
719.61	266.43
719.94	266.00
720.27	265.60
720.60	265.05
720.94	264.71
721.27	264.31
721.60	264.06
721.93	263.62
722.27	263.21
722.60	262.93
722.93	262.63
723.26	262.25
723.59	261.71
723.93	261.48
724.26	261.18
724.59	260.86
724.92	260.46
725.25	260.16
725.59	259.80
725.92	259.57
726.25	259.25
726.58	258.81
726.91	258.53
727.24	258.26
727.57	258.03
727.91	257.71
728.24	257.50
728.57	257.17
728.90	256.95
729.23	256.56
729.56	256.37
729.89	256.00
730.22	255.70
730.55	255.58
730.89	255.23
731.22	255.00
731.55	254.69
731.88	254.41
732.21	254.16
732.54	253.83
732.87	253.48
733.20	253.31
733.53	253.05
733.86	252.75
734.19	252.46
734.52	252.21
734.85	251.99
735.18	251.60
735.51	251.48
735.84	251.22
736.17	251.04
736.50	250.61
736.83	250.66
737.16	250.45
737.49	250.12
737.82	249.88
738.15	249.53
738.48	249.39
738.81	249.21
739.14	248.90
739.47	248.63
739.80	248.37
740.13	248.10
740.46	247.95
740.79	247.75
741.12	247.57
741.45	247.22
741.78	246.99
742.11	246.85
742.44	246.57
742.77	246.32
743.10	246.13
743.43	246.00
743.75	245.49
744.08	245.64
744.41	245.54
744.74	245.34
745.07	245.29
745.40	244.97
745.73	244.87
746.06	244.61
746.39	244.46
746.71	244.30
747.04	244.12
747.37	243.85
747.70	243.76
748.03	243.54
748.36	243.52
748.68	243.45
749.01	243.22
749.34	243.04
749.67	242.90
750.00	242.81
750.33	242.77
750.65	242.79
750.98	242.34
751.31	242.15
751.64	242.02
751.97	241.93
752.29	241.91
752.62	241.64
752.95	241.56
753.28	241.50
753.60	241.40
753.93	241.30
754.26	241.20
754.59	241.03
754.91	240.98
755.24	240.86
755.57	240.64
755.90	240.45
756.22	240.29
756.55	240.14
756.88	240.01
757.20	239.79
757.53	239.61
757.86	239.51
758.19	239.41
758.51	239.23
758.84	239.06
759.17	238.94
759.49	238.92
759.82	238.90
760.15	238.90
760.47	238.72
760.80	238.61
761.13	238.55
761.45	238.43
761.78	238.28
762.11	238.11
762.43	237.93
762.76	237.96
763.08	237.90
763.41	237.84
763.74	237.70
764.06	237.55
764.39	237.41
764.71	237.37
765.04	237.23
765.37	237.16
765.69	237.03
766.02	237.01
766.34	236.89
766.67	236.80
767.00	236.57
767.32	236.61
767.65	236.52
767.97	236.43
768.30	236.18
768.62	236.09
768.95	236.04
769.27	236.04
769.60	235.93
769.92	235.87
770.25	235.70
770.57	235.65
770.90	235.54
771.22	235.47
771.55	235.29
771.87	235.22
772.20	235.15
772.52	235.21
772.85	235.25
773.17	235.08
773.50	235.01
773.82	234.90
774.15	234.73
774.47	234.62
774.80	234.39
775.12	234.31
775.45	234.23
775.77	234.11
776.09	233.99
776.42	233.95
776.74	233.85
777.07	233.84
777.39	233.73
777.72	233.73
778.04	233.58
778.36	233.52
778.69	233.47
779.01	233.45
779.33	233.21
779.66	232.91
779.98	232.95
780.31	232.83
780.63	232.80
780.95	232.73
781.28	232.67
781.60	232.76
781.92	232.76
782.25	232.69
782.57	232.61
782.89	232.61
783.22	232.50
783.54	232.44
783.86	232.42
784.19	232.32
784.51	232.32
784.83	232.34
785.16	232.34
785.48	232.19
785.80	232.22
786.12	232.29
786.45	232.24
786.77	232.17
787.09	232.17
787.42	232.05
787.74	232.05
788.06	232.03
788.38	231.90
788.71	231.96
789.03	232.02
789.35	232.04
789.67	232.00
789.99	232.00
790.32	232.09
790.64	232.00
790.96	232.15
791.28	232.10
791.61	232.06
791.93	232.00
792.25	232.11
792.57	232.10
792.89	232.06
793.21	232.12
793.54	232.12
793.86	232.16
794.18	232.28
