SpectraSuite Data File
++++++++++++++++++++++++++++++++++++
Date: Fri Feb 01 14:37:28 EST 2013
User: group
Dark Spectrum Present: No
Reference Spectrum Present: No
Number of Sampled Component Spectra: 1
Spectrometers: USB2E7196
Integration Time (usec): 70000 (USB2E7196)
Spectra Averaged: 10 (USB2E7196)
Boxcar Smoothing: 10 (USB2E7196)
Correct for Electrical Dark: No (USB2E7196)
Strobe/Lamp Enabled: No (USB2E7196)
Correct for Detector Non-linearity: No (USB2E7196)
Correct for Stray Light: No (USB2E7196)
Number of Pixels in Processed Spectrum: 2048
>>>>>Begin Processed Spectral Data<<<<<
339.09	0.00
339.48	216.90
339.86	217.80
340.24	218.40
340.63	220.00
341.01	224.50
341.39	222.60
341.78	225.10
342.16	226.00
342.54	226.40
342.93	214.63
343.31	225.44
343.69	225.96
344.07	226.38
344.46	226.92
344.84	227.26
345.22	227.28
345.60	227.47
345.99	227.71
346.37	227.78
346.75	227.96
347.13	227.98
347.52	228.00
347.90	228.03
348.28	228.06
348.66	228.15
349.05	228.02
349.43	228.12
349.81	228.00
350.19	227.99
350.57	228.06
350.96	228.09
351.34	228.14
351.72	228.14
352.10	228.25
352.48	228.19
352.87	228.32
353.25	228.49
353.63	228.59
354.01	228.59
354.39	228.65
354.77	228.60
355.15	228.73
355.54	228.81
355.92	228.77
356.30	228.84
356.68	229.00
357.06	229.20
357.44	229.10
357.82	229.34
358.20	229.51
358.58	229.53
358.97	229.65
359.35	229.70
359.73	229.86
360.11	229.88
360.49	229.92
360.87	229.89
361.25	229.94
361.63	230.01
362.01	230.05
362.39	230.05
362.77	230.12
363.15	230.15
363.53	230.18
363.91	230.44
364.29	230.43
364.67	230.30
365.05	230.25
365.43	230.32
365.81	230.30
366.19	230.11
366.57	230.08
366.95	230.05
367.33	230.10
367.71	230.00
368.09	229.96
368.47	229.93
368.85	229.95
369.23	229.94
369.61	229.79
369.99	229.76
370.37	229.74
370.75	229.68
371.13	229.51
371.51	229.39
371.89	229.23
372.27	229.15
372.65	229.07
373.03	229.03
373.41	229.10
373.78	229.06
374.16	229.06
374.54	229.00
374.92	228.94
375.30	228.80
375.68	228.75
376.06	228.69
376.44	228.58
376.82	228.52
377.19	228.47
377.57	228.43
377.95	228.21
378.33	228.13
378.71	227.95
379.09	227.88
379.47	227.83
379.84	227.60
380.22	227.55
380.60	227.44
380.98	227.29
381.36	227.13
381.73	226.95
382.11	226.92
382.49	226.86
382.87	226.75
383.25	226.74
383.62	226.89
384.00	226.82
384.38	226.75
384.76	226.70
385.13	226.70
385.51	226.74
385.89	226.81
386.27	226.78
386.64	226.86
387.02	226.87
387.40	226.76
387.78	226.79
388.15	226.67
388.53	226.67
388.91	226.69
389.29	226.64
389.66	226.72
390.04	226.67
390.42	226.75
390.79	226.72
391.17	226.66
391.55	226.33
391.92	226.38
392.30	226.42
392.68	226.40
393.05	226.39
393.43	226.39
393.81	226.39
394.18	226.42
394.56	226.41
394.94	226.51
395.31	226.55
395.69	226.66
396.06	226.77
396.44	226.87
396.82	226.82
397.19	226.94
397.57	226.94
397.95	227.08
398.32	227.07
398.70	227.23
399.07	227.33
399.45	227.56
399.82	227.66
400.20	227.82
400.58	227.98
400.95	227.90
401.33	228.05
401.70	228.23
402.08	228.33
402.45	228.48
402.83	228.65
403.20	228.90
403.58	229.01
403.95	229.23
404.33	229.43
404.71	229.63
405.08	229.87
405.46	230.12
405.83	230.21
406.21	230.49
406.58	230.70
406.96	231.01
407.33	231.25
407.70	231.50
408.08	231.91
408.45	232.19
408.83	232.74
409.20	233.00
409.58	233.30
409.95	233.69
410.33	234.07
410.70	234.39
411.08	234.77
411.45	235.27
411.82	235.71
412.20	236.22
412.57	236.86
412.95	237.30
413.32	237.91
413.69	238.60
414.07	239.19
414.44	239.89
414.82	240.62
415.19	241.43
415.56	242.32
415.94	243.18
416.31	244.13
416.68	245.05
417.06	246.11
417.43	247.16
417.81	248.35
418.18	249.63
418.55	250.92
418.93	252.34
419.30	253.76
419.67	255.29
420.04	256.82
420.42	258.56
420.79	260.55
421.16	262.48
421.54	264.50
421.91	266.54
422.28	268.59
422.66	270.74
423.03	272.91
423.40	275.10
423.77	277.36
424.15	279.72
424.52	282.20
424.89	285.08
425.26	287.72
425.64	290.22
426.01	293.03
426.38	295.94
426.75	298.87
427.13	301.91
427.50	305.20
427.87	308.61
428.24	311.92
428.61	315.02
428.99	318.48
429.36	322.29
429.73	326.07
430.10	329.80
430.47	333.63
430.85	337.49
431.22	341.61
431.59	346.11
431.96	350.38
432.33	355.09
432.70	359.51
433.08	364.71
433.45	369.69
433.82	374.68
434.19	380.09
434.56	385.42
434.93	390.58
435.30	395.68
435.68	401.21
436.05	406.65
436.42	412.17
436.79	417.09
437.16	422.41
437.53	428.02
437.90	433.75
438.27	439.23
438.64	445.10
439.01	450.48
439.38	455.17
439.75	459.73
440.13	464.90
440.50	470.01
440.87	474.20
441.24	478.56
441.61	483.17
441.98	486.94
442.35	491.21
442.72	495.48
443.09	499.56
443.46	502.10
443.83	503.94
444.20	505.54
444.57	507.93
444.94	509.24
445.31	510.68
445.68	512.05
446.05	513.06
446.42	512.94
446.79	512.99
447.16	512.85
447.53	513.10
447.90	511.57
448.27	510.00
448.64	507.49
449.01	505.92
449.37	502.71
449.74	499.60
450.11	495.74
450.48	491.35
450.85	486.84
451.22	483.30
451.59	479.88
451.96	476.64
452.33	472.11
452.70	467.91
453.07	462.87
453.43	457.62
453.80	452.60
454.17	447.85
454.54	443.22
454.91	438.24
455.28	433.24
455.65	428.77
456.02	424.20
456.38	420.33
456.75	415.45
457.12	411.36
457.49	407.05
457.86	403.04
458.23	399.66
458.59	395.95
458.96	391.96
459.33	388.47
459.70	384.90
460.07	382.08
460.43	378.80
460.80	375.75
461.17	373.17
461.54	370.27
461.91	367.39
462.27	364.46
462.64	362.00
463.01	359.35
463.38	356.80
463.74	354.17
464.11	352.00
464.48	349.93
464.85	347.69
465.21	345.99
465.58	344.10
465.95	341.89
466.32	339.98
466.68	338.23
467.05	336.45
467.42	334.60
467.78	332.74
468.15	330.99
468.52	329.56
468.88	327.60
469.25	325.96
469.62	324.71
469.98	323.36
470.35	322.06
470.72	320.75
471.08	319.40
471.45	318.24
471.82	316.97
472.18	315.60
472.55	314.57
472.92	313.37
473.28	312.30
473.65	311.43
474.02	310.46
474.38	309.52
474.75	308.56
475.11	307.66
475.48	306.71
475.85	306.08
476.21	305.25
476.58	304.56
476.94	304.07
477.31	303.55
477.67	302.94
478.04	302.32
478.41	301.95
478.77	301.52
479.14	300.97
479.50	300.54
479.87	300.29
480.23	300.10
480.60	299.78
480.96	299.56
481.33	299.31
481.69	299.21
482.06	299.09
482.42	299.08
482.79	299.13
483.15	299.22
483.52	299.20
483.88	299.15
484.25	299.28
484.61	299.23
484.98	299.33
485.34	299.55
485.71	299.73
486.07	299.89
486.44	300.08
486.80	300.42
487.17	300.77
487.53	301.19
487.90	301.51
488.26	302.09
488.62	302.60
488.99	303.01
489.35	303.44
489.72	303.85
490.08	304.35
490.44	304.87
490.81	305.42
491.17	305.87
491.54	306.62
491.90	307.22
492.26	307.95
492.63	308.54
492.99	309.08
493.36	309.80
493.72	310.57
494.08	311.40
494.45	312.16
494.81	313.02
495.17	313.69
495.54	314.50
495.90	315.20
496.26	315.89
496.63	316.65
496.99	317.39
497.35	318.19
497.72	319.12
498.08	319.91
498.44	320.73
498.80	321.63
499.17	322.37
499.53	323.03
499.89	323.88
500.26	324.51
500.62	325.26
500.98	326.04
501.34	326.72
501.71	327.36
502.07	327.87
502.43	328.41
502.79	329.00
503.16	329.53
503.52	330.12
503.88	330.60
504.24	331.10
504.60	331.65
504.97	332.13
505.33	332.38
505.69	332.84
506.05	333.17
506.41	333.53
506.78	333.78
507.14	334.19
507.50	334.34
507.86	334.66
508.22	334.90
508.59	335.08
508.95	335.09
509.31	335.29
509.67	335.50
510.03	335.49
510.39	335.63
510.75	335.63
511.12	335.69
511.48	335.70
511.84	335.69
512.20	335.58
512.56	335.58
512.92	335.70
513.28	335.60
513.64	335.47
514.00	335.40
514.37	335.47
514.73	335.35
515.09	335.29
515.45	335.23
515.81	335.25
516.17	335.29
516.53	335.42
516.89	335.43
517.25	335.62
517.61	335.88
517.97	335.92
518.33	336.03
518.69	336.29
519.05	336.54
519.41	336.92
519.77	337.43
520.13	337.79
520.49	338.16
520.85	338.69
521.21	339.28
521.57	339.94
521.93	340.46
522.29	341.31
522.65	342.02
523.01	342.84
523.37	343.70
523.73	344.56
524.09	345.46
524.45	346.33
524.81	347.37
525.17	348.54
525.53	349.80
525.89	351.31
526.25	352.40
526.61	353.74
526.97	355.24
527.33	356.60
527.68	358.40
528.04	359.99
528.40	361.64
528.76	363.56
529.12	365.36
529.48	367.32
529.84	369.21
530.20	371.56
530.56	373.91
530.91	376.21
531.27	378.74
531.63	381.40
531.99	384.11
532.35	386.70
532.71	389.45
533.07	392.46
533.42	395.44
533.78	398.57
534.14	401.79
534.50	404.69
534.86	408.04
535.21	411.22
535.57	414.51
535.93	417.92
536.29	421.66
536.65	425.40
537.00	429.14
537.36	432.84
537.72	436.59
538.08	440.33
538.44	444.20
538.79	447.90
539.15	451.76
539.51	455.60
539.87	459.71
540.22	463.79
540.58	467.94
540.94	472.05
541.29	476.20
541.65	480.30
542.01	485.04
542.37	489.44
542.72	493.76
543.08	498.31
543.44	503.01
543.79	507.09
544.15	511.55
544.51	516.40
544.87	521.32
545.22	525.84
545.58	530.46
545.94	534.90
546.29	539.64
546.65	544.24
547.01	549.02
547.36	553.74
547.72	558.40
548.07	563.15
548.43	567.96
548.79	572.87
549.14	577.59
549.50	581.95
549.86	586.71
550.21	591.62
550.57	596.44
550.92	600.83
551.28	605.75
551.64	610.50
551.99	615.09
552.35	619.61
552.70	624.56
553.06	629.58
553.41	634.64
553.77	639.52
554.13	644.32
554.48	649.20
554.84	653.94
555.19	658.80
555.55	663.42
555.90	667.87
556.26	672.73
556.61	677.37
556.97	682.04
557.32	686.52
557.68	690.95
558.03	695.52
558.39	700.45
558.74	705.29
559.10	710.11
559.45	714.64
559.81	719.37
560.16	723.76
560.52	727.89
560.87	732.38
561.23	736.76
561.58	741.38
561.94	745.62
562.29	749.76
562.64	753.68
563.00	757.85
563.35	762.35
563.71	766.81
564.06	771.02
564.42	775.55
564.77	779.80
565.12	783.93
565.48	788.20
565.83	792.02
566.19	795.87
566.54	799.51
566.89	803.28
567.25	806.83
567.60	810.79
567.96	814.59
568.31	818.07
568.66	821.68
569.02	825.10
569.37	828.67
569.72	832.19
570.08	835.55
570.43	838.74
570.78	841.62
571.14	844.05
571.49	847.18
571.84	850.07
572.20	852.83
572.55	855.73
572.90	858.21
573.26	861.00
573.61	863.34
573.96	865.75
574.31	867.89
574.67	870.09
575.02	871.70
575.37	873.85
575.72	875.82
576.08	877.54
576.43	879.16
576.78	880.93
577.13	882.70
577.49	884.72
577.84	886.41
578.19	888.10
578.54	889.65
578.90	891.07
579.25	891.79
579.60	892.90
579.95	893.80
580.30	894.90
580.66	895.43
581.01	896.12
581.36	897.07
581.71	898.23
582.06	899.21
582.42	899.94
582.77	900.23
583.12	900.64
583.47	901.30
583.82	902.15
584.17	902.27
584.53	902.52
584.88	902.64
585.23	902.68
585.58	902.86
585.93	903.09
586.28	903.43
586.63	903.92
586.98	904.08
587.34	904.53
587.69	904.53
588.04	904.80
588.39	905.14
588.74	904.62
589.09	904.22
589.44	903.85
589.79	903.85
590.14	903.90
590.49	903.83
590.84	903.39
591.19	902.89
591.54	902.38
591.89	901.62
592.25	900.95
592.60	899.90
592.95	898.92
593.30	898.00
593.65	896.89
594.00	895.85
594.35	895.47
594.70	893.76
595.05	892.78
595.40	891.80
595.75	890.42
596.10	889.61
596.45	888.78
596.80	887.78
597.15	886.81
597.50	885.77
597.85	884.64
598.19	883.65
598.54	882.64
598.89	881.77
599.24	880.88
599.59	880.02
599.94	879.50
600.29	878.45
600.64	877.28
600.99	875.82
601.34	874.66
601.69	872.87
602.04	871.73
602.39	870.20
602.74	868.89
603.08	867.85
603.43	866.86
603.78	865.31
604.13	863.70
604.48	862.00
604.83	860.50
605.18	859.05
605.53	857.10
605.87	855.24
606.22	853.21
606.57	851.32
606.92	849.50
607.27	847.80
607.62	846.32
607.96	844.60
608.31	842.91
608.66	841.00
609.01	838.80
609.36	836.66
609.70	834.37
610.05	831.80
610.40	829.61
610.75	826.73
611.10	824.30
611.44	821.67
611.79	819.30
612.14	816.51
612.49	813.55
612.83	811.34
613.18	808.50
613.53	806.06
613.88	803.51
614.22	800.67
614.57	797.58
614.92	794.68
615.27	792.02
615.61	789.18
615.96	786.53
616.31	784.05
616.65	782.09
617.00	779.78
617.35	777.58
617.70	774.70
618.04	772.14
618.39	769.65
618.74	767.41
619.08	764.78
619.43	762.38
619.78	760.22
620.12	757.48
620.47	754.77
620.82	752.21
621.16	749.66
621.51	747.39
621.85	744.92
622.20	742.19
622.55	739.73
622.89	737.29
623.24	734.92
623.59	732.38
623.93	729.66
624.28	727.22
624.62	724.62
624.97	722.26
625.32	719.70
625.66	717.16
626.01	714.44
626.35	712.00
626.70	709.50
627.04	706.85
627.39	704.01
627.73	701.61
628.08	698.88
628.43	696.25
628.77	693.36
629.12	690.75
629.46	688.01
629.81	684.84
630.15	682.09
630.50	679.04
630.84	676.18
631.19	673.13
631.53	670.10
631.88	667.14
632.22	663.97
632.57	661.60
632.91	658.69
633.26	655.97
633.60	652.74
633.95	649.83
634.29	647.14
634.64	644.84
634.98	642.20
635.32	639.69
635.67	637.26
636.01	634.71
636.36	631.86
636.70	629.49
637.05	627.36
637.39	625.08
637.73	622.69
638.08	620.47
638.42	618.24
638.77	615.90
639.11	613.44
639.45	611.20
639.80	608.44
640.14	605.72
640.49	603.10
640.83	600.81
641.17	598.59
641.52	595.77
641.86	593.00
642.20	590.64
642.55	588.31
642.89	585.77
643.23	583.07
643.58	580.98
643.92	578.48
644.26	575.97
644.61	573.50
644.95	570.94
645.29	568.13
645.64	565.38
645.98	562.85
646.32	560.32
646.66	557.81
647.01	555.37
647.35	553.11
647.69	550.73
648.04	548.42
648.38	545.80
648.72	543.50
649.06	540.99
649.41	538.38
649.75	535.69
650.09	532.98
650.43	530.59
650.78	527.77
651.12	525.05
651.46	522.50
651.80	519.95
652.14	517.61
652.49	515.32
652.83	513.26
653.17	510.79
653.51	508.46
653.85	506.20
654.20	503.63
654.54	501.35
654.88	498.98
655.22	496.39
655.56	493.66
655.90	491.32
656.25	488.99
656.59	486.61
656.93	484.35
657.27	482.12
657.61	479.94
657.95	477.88
658.29	475.72
658.64	473.50
658.98	471.18
659.32	468.81
659.66	466.63
660.00	464.09
660.34	461.83
660.68	459.56
661.02	457.08
661.36	455.15
661.70	452.90
662.05	450.99
662.39	449.17
662.73	447.29
663.07	445.37
663.41	443.53
663.75	441.49
664.09	439.58
664.43	437.70
664.77	435.62
665.11	433.81
665.45	431.92
665.79	430.10
666.13	428.14
666.47	426.30
666.81	424.37
667.15	422.60
667.49	420.90
667.83	419.33
668.17	417.70
668.51	415.87
668.85	414.19
669.19	412.53
669.53	410.70
669.87	409.06
670.21	407.23
670.55	405.63
670.89	404.28
671.23	402.69
671.57	401.13
671.91	399.73
672.25	397.96
672.58	396.49
672.92	394.83
673.26	393.39
673.60	392.05
673.94	390.55
674.28	389.29
674.62	387.93
674.96	386.43
675.30	385.04
675.64	383.67
675.97	382.26
676.31	380.76
676.65	379.49
676.99	378.13
677.33	376.80
677.67	375.34
678.01	373.80
678.34	372.43
678.68	371.16
679.02	369.67
679.36	368.42
679.70	367.17
680.04	365.95
680.37	364.67
680.71	363.22
681.05	362.12
681.39	360.72
681.73	359.51
682.06	358.27
682.40	357.15
682.74	356.02
683.08	354.83
683.42	353.55
683.75	352.48
684.09	351.26
684.43	350.27
684.77	349.11
685.10	348.00
685.44	346.82
685.78	345.55
686.12	344.60
686.45	343.60
686.79	342.45
687.13	341.25
687.46	340.18
687.80	339.10
688.14	338.00
688.48	336.86
688.81	335.58
689.15	334.50
689.49	333.30
689.82	332.13
690.16	330.99
690.50	330.00
690.83	328.66
691.17	327.58
691.51	326.40
691.84	325.44
692.18	324.36
692.52	323.28
692.85	322.31
693.19	321.10
693.52	320.01
693.86	318.90
694.20	317.95
694.53	316.91
694.87	315.86
695.21	314.78
695.54	313.91
695.88	312.96
696.21	311.94
696.55	310.90
696.88	310.04
697.22	309.21
697.56	308.33
697.89	307.51
698.23	306.75
698.56	305.83
698.90	304.88
699.23	304.01
699.57	303.17
699.90	302.23
700.24	301.45
700.58	300.63
700.91	299.86
701.25	299.10
701.58	298.46
701.92	297.80
702.25	297.06
702.59	296.23
702.92	295.59
703.26	294.92
703.59	294.34
703.93	293.78
704.26	293.05
704.60	292.36
704.93	291.67
705.26	290.93
705.60	290.29
705.93	289.56
706.27	289.05
706.60	288.54
706.94	287.98
707.27	287.37
707.61	286.81
707.94	286.27
708.27	285.64
708.61	284.89
708.94	284.24
709.28	283.72
709.61	283.18
709.94	282.67
710.28	282.04
710.61	281.39
710.95	280.50
711.28	280.11
711.61	279.48
711.95	278.95
712.28	278.40
712.61	277.87
712.95	277.48
713.28	276.97
713.61	276.34
713.95	275.81
714.28	275.32
714.61	274.73
714.95	274.14
715.28	273.51
715.61	273.10
715.95	272.72
716.28	272.16
716.61	271.68
716.95	271.09
717.28	270.69
717.61	270.29
717.94	269.98
718.28	269.48
718.61	269.08
718.94	268.72
719.27	268.29
719.61	267.94
719.94	267.46
720.27	266.98
720.60	266.62
720.94	266.21
721.27	265.90
721.60	265.64
721.93	265.38
722.27	265.22
722.60	264.79
722.93	264.46
723.26	264.14
723.59	263.76
723.93	263.50
724.26	263.21
724.59	262.96
724.92	262.66
725.25	262.32
725.59	262.05
725.92	261.67
726.25	261.35
726.58	260.98
726.91	260.73
727.24	260.44
727.57	260.08
727.91	259.77
728.24	259.38
728.57	258.86
728.90	258.55
729.23	258.07
729.56	257.91
729.89	257.42
730.22	257.01
730.55	256.67
730.89	256.37
731.22	255.98
731.55	255.68
731.88	255.47
732.21	255.14
732.54	254.67
732.87	254.38
733.20	254.06
733.53	253.73
733.86	253.49
734.19	253.13
734.52	252.95
734.85	252.81
735.18	252.50
735.51	252.43
735.84	252.12
736.17	251.99
736.50	251.58
736.83	251.67
737.16	251.47
737.49	251.25
737.82	250.93
738.15	250.71
738.48	250.38
738.81	250.05
739.14	249.82
739.47	249.68
739.80	249.40
740.13	249.24
740.46	249.11
740.79	248.72
741.12	248.58
741.45	248.39
741.78	248.08
742.11	247.98
742.44	247.72
742.77	247.54
743.10	247.26
743.43	246.99
743.75	246.54
744.08	246.58
744.41	246.43
744.74	246.26
745.07	246.04
745.40	245.93
745.73	245.80
746.06	245.54
746.39	245.43
746.71	245.36
747.04	245.13
747.37	244.92
747.70	245.01
748.03	244.81
748.36	244.61
748.68	244.39
749.01	244.13
749.34	243.96
749.67	243.71
750.00	243.57
750.33	243.58
750.65	243.47
750.98	243.06
751.31	242.90
751.64	242.73
751.97	242.71
752.29	242.54
752.62	242.31
752.95	242.19
753.28	241.95
753.60	241.72
753.93	241.63
754.26	241.45
754.59	241.19
754.91	241.06
755.24	240.86
755.57	240.71
755.90	240.56
756.22	240.36
756.55	240.28
756.88	240.15
757.20	239.94
757.53	239.87
757.86	239.81
758.19	239.72
758.51	239.57
758.84	239.32
759.17	239.08
759.49	239.00
759.82	238.97
760.15	238.97
760.47	238.88
760.80	238.76
761.13	238.65
761.45	238.41
761.78	238.27
762.11	238.23
762.43	238.15
762.76	238.00
763.08	237.92
763.41	237.84
763.74	237.75
764.06	237.66
764.39	237.55
764.71	237.47
765.04	237.23
765.37	237.17
765.69	237.10
766.02	237.01
766.34	236.85
766.67	236.67
767.00	236.64
767.32	236.56
767.65	236.60
767.97	236.48
768.30	236.46
768.62	236.39
768.95	236.23
769.27	236.04
769.60	236.07
769.92	235.93
770.25	235.79
770.57	235.70
770.90	235.62
771.22	235.38
771.55	235.27
771.87	235.27
772.20	235.23
772.52	235.39
772.85	235.66
773.17	235.65
773.50	235.59
773.82	235.42
774.15	235.23
774.47	235.02
774.80	235.03
775.12	234.98
775.45	234.93
775.77	234.87
776.09	234.88
776.42	234.85
776.74	234.89
777.07	234.93
777.39	234.84
777.72	234.77
778.04	234.88
778.36	234.81
778.69	234.73
779.01	234.76
779.33	234.41
779.66	234.13
779.98	234.02
780.31	233.93
780.63	233.91
780.95	233.93
781.28	233.86
781.60	233.74
781.92	233.76
782.25	233.65
782.57	233.64
782.89	233.55
783.22	233.45
783.54	233.30
783.86	233.23
784.19	233.11
784.51	233.15
784.83	232.91
785.16	232.90
785.48	232.90
785.80	232.83
786.12	232.83
786.45	232.72
786.77	232.64
787.09	232.59
787.42	232.50
787.74	232.51
788.06	232.47
788.38	232.40
788.71	232.28
789.03	232.25
789.35	232.26
789.67	232.19
789.99	232.20
790.32	232.20
790.64	232.10
790.96	232.35
791.28	232.13
791.61	232.14
791.93	232.00
792.25	231.89
792.57	231.86
792.89	231.75
793.21	231.76
793.54	231.73
793.86	231.73
794.18	231.62
