SpectraSuite Data File
++++++++++++++++++++++++++++++++++++
Date: Fri Feb 01 14:34:43 EST 2013
User: group
Dark Spectrum Present: No
Reference Spectrum Present: No
Number of Sampled Component Spectra: 1
Spectrometers: USB2E7196
Integration Time (usec): 70000 (USB2E7196)
Spectra Averaged: 10 (USB2E7196)
Boxcar Smoothing: 10 (USB2E7196)
Correct for Electrical Dark: No (USB2E7196)
Strobe/Lamp Enabled: No (USB2E7196)
Correct for Detector Non-linearity: No (USB2E7196)
Correct for Stray Light: No (USB2E7196)
Number of Pixels in Processed Spectrum: 2048
>>>>>Begin Processed Spectral Data<<<<<
339.09	0.00
339.48	216.60
339.86	217.70
340.24	217.70
340.63	220.80
341.01	224.00
341.39	223.90
341.78	225.60
342.16	226.30
342.54	223.00
342.93	214.34
343.31	225.11
343.69	225.65
344.07	226.08
344.46	226.59
344.84	226.97
345.22	227.12
345.60	227.30
345.99	227.47
346.37	227.56
346.75	227.87
347.13	227.94
347.52	228.06
347.90	228.15
348.28	228.30
348.66	228.46
349.05	228.36
349.43	228.48
349.81	228.50
350.19	228.48
350.57	228.45
350.96	228.62
351.34	228.81
351.72	228.87
352.10	228.99
352.48	229.20
352.87	229.26
353.25	229.38
353.63	229.60
354.01	229.64
354.39	229.70
354.77	229.79
355.15	229.93
355.54	229.91
355.92	229.93
356.30	229.89
356.68	230.01
357.06	230.11
357.44	230.12
357.82	230.24
358.20	230.39
358.58	230.37
358.97	230.44
359.35	230.50
359.73	230.58
360.11	230.72
360.49	230.61
360.87	230.65
361.25	230.69
361.63	230.67
362.01	230.72
362.39	230.79
362.77	230.75
363.15	230.74
363.53	230.80
363.91	230.79
364.29	230.88
364.67	230.60
365.05	230.59
365.43	230.71
365.81	230.69
366.19	230.61
366.57	230.83
366.95	230.76
367.33	230.70
367.71	230.70
368.09	230.61
368.47	230.58
368.85	230.58
369.23	230.58
369.61	230.47
369.99	230.50
370.37	230.48
370.75	230.49
371.13	230.46
371.51	230.42
371.89	230.39
372.27	230.29
372.65	230.32
373.03	230.28
373.41	230.15
373.78	230.04
374.16	229.97
374.54	229.80
374.92	229.68
375.30	229.59
375.68	229.44
376.06	229.39
376.44	229.29
376.82	229.11
377.19	228.97
377.57	228.90
377.95	228.70
378.33	228.63
378.71	228.46
379.09	228.34
379.47	228.29
379.84	228.21
380.22	228.17
380.60	228.03
380.98	227.98
381.36	227.83
381.73	227.70
382.11	227.58
382.49	227.42
382.87	227.38
383.25	227.33
383.62	227.57
384.00	227.41
384.38	227.32
384.76	227.33
385.13	227.39
385.51	227.30
385.89	227.26
386.27	227.16
386.64	227.24
387.02	227.23
387.40	227.10
387.78	227.12
388.15	227.08
388.53	227.11
388.91	227.16
389.29	227.17
389.66	227.17
390.04	227.27
390.42	227.39
390.79	227.44
391.17	227.43
391.55	227.09
391.92	227.12
392.30	227.26
392.68	227.23
393.05	227.26
393.43	227.33
393.81	227.29
394.18	227.30
394.56	227.23
394.94	227.32
395.31	227.42
395.69	227.48
396.06	227.58
396.44	227.66
396.82	227.62
397.19	227.76
397.57	227.85
397.95	227.81
398.32	227.85
398.70	227.99
399.07	228.13
399.45	228.43
399.82	228.59
400.20	228.69
400.58	228.77
400.95	228.94
401.33	229.20
401.70	229.63
402.08	229.88
402.45	230.18
402.83	230.27
403.20	230.52
403.58	230.74
403.95	230.98
404.33	231.23
404.71	231.61
405.08	232.04
405.46	232.44
405.83	232.84
406.21	233.19
406.58	233.60
406.96	233.96
407.33	234.34
407.70	234.84
408.08	235.45
408.45	236.01
408.83	236.54
409.20	236.97
409.58	237.42
409.95	238.07
410.33	238.70
410.70	239.50
411.08	240.30
411.45	241.11
411.82	241.95
412.20	242.90
412.57	243.99
412.95	244.90
413.32	245.97
413.69	247.20
414.07	248.49
414.44	249.66
414.82	251.08
415.19	252.57
415.56	254.15
415.94	255.76
416.31	257.74
416.68	259.54
417.06	261.78
417.43	263.71
417.81	266.11
418.18	268.50
418.55	271.04
418.93	273.65
419.30	276.35
419.67	279.25
420.04	282.22
420.42	285.38
420.79	288.89
421.16	292.51
421.54	296.19
421.91	299.97
422.28	304.10
422.66	308.39
423.03	312.70
423.40	317.22
423.77	321.75
424.15	326.40
424.52	331.37
424.89	336.66
425.26	341.88
425.64	346.60
426.01	351.97
426.38	357.50
426.75	363.18
427.13	369.20
427.50	375.45
427.87	381.99
428.24	388.43
428.61	394.57
428.99	401.33
429.36	408.79
429.73	416.09
430.10	423.10
430.47	430.24
430.85	437.70
431.22	445.35
431.59	453.86
431.96	461.65
432.33	470.33
432.70	478.93
433.08	488.96
433.45	498.66
433.82	507.96
434.19	518.78
434.56	529.02
434.93	538.94
435.30	548.73
435.68	559.37
436.05	569.90
436.42	580.38
436.79	589.87
437.16	600.06
437.53	611.07
437.90	622.04
438.27	632.75
438.64	643.97
439.01	654.36
439.38	663.35
439.75	672.47
440.13	682.70
440.50	692.27
440.87	700.36
441.24	708.52
441.61	717.89
441.98	724.58
442.35	732.70
442.72	740.75
443.09	748.68
443.46	753.90
443.83	757.58
444.20	761.30
444.57	766.14
444.94	768.89
445.31	771.51
445.68	774.16
446.05	776.24
446.42	776.39
446.79	776.43
447.16	776.57
447.53	776.95
447.90	774.25
448.27	771.58
448.64	767.19
449.01	764.52
449.37	758.49
449.74	752.54
450.11	745.16
450.48	737.09
450.85	728.79
451.22	722.02
451.59	715.59
451.96	709.27
452.33	700.52
452.70	692.62
453.07	682.89
453.43	673.20
453.80	663.66
454.17	654.32
454.54	645.43
454.91	635.92
455.28	626.50
455.65	617.94
456.02	609.02
456.38	601.50
456.75	591.96
457.12	583.90
457.49	576.09
457.86	568.71
458.23	562.33
458.59	555.13
458.96	547.72
459.33	541.01
459.70	534.33
460.07	529.03
460.43	522.99
460.80	517.20
461.17	512.03
461.54	506.53
461.91	501.41
462.27	496.19
462.64	491.60
463.01	486.70
463.38	481.84
463.74	476.94
464.11	472.69
464.48	469.00
464.85	465.01
465.21	461.97
465.58	458.53
465.95	454.40
466.32	451.03
466.68	447.47
467.05	444.19
467.42	440.78
467.78	437.23
468.15	433.75
468.52	431.30
468.88	427.93
469.25	425.18
469.62	422.80
469.98	420.27
470.35	417.92
470.72	415.64
471.08	413.20
471.45	411.33
471.82	409.14
472.18	406.79
472.55	405.10
472.92	402.94
473.28	401.38
473.65	399.58
474.02	397.92
474.38	396.51
474.75	395.23
475.11	393.83
475.48	392.64
475.85	391.84
476.21	390.97
476.58	390.16
476.94	389.38
477.31	388.53
477.67	387.81
478.04	386.99
478.41	386.66
478.77	386.38
479.14	385.80
479.50	385.49
479.87	385.49
480.23	385.46
480.60	385.55
480.96	385.39
481.33	385.71
481.69	385.97
482.06	386.09
482.42	386.22
482.79	386.51
483.15	387.09
483.52	387.65
483.88	388.14
484.25	388.75
484.61	389.43
484.98	390.17
485.34	391.20
485.71	392.53
486.07	393.53
486.44	394.56
486.80	395.81
487.17	397.26
487.53	398.57
487.90	399.98
488.26	401.49
488.62	403.09
488.99	404.64
489.35	406.30
489.72	408.41
490.08	410.46
490.44	412.56
490.81	414.65
491.17	416.70
491.54	419.06
491.90	421.51
492.26	423.92
492.63	426.53
492.99	429.13
493.36	431.82
493.72	434.61
494.08	437.28
494.45	440.32
494.81	443.31
495.17	446.59
495.54	449.90
495.90	453.12
496.26	456.35
496.63	459.98
496.99	463.60
497.35	467.22
497.72	470.82
498.08	474.49
498.44	478.38
498.80	482.50
499.17	486.35
499.53	490.19
499.89	494.19
500.26	498.08
500.62	501.93
500.98	505.95
501.34	509.89
501.71	514.35
502.07	518.48
502.43	522.50
502.79	526.55
503.16	530.44
503.52	534.62
503.88	538.50
504.24	542.49
504.60	546.60
504.97	550.74
505.33	554.80
505.69	559.18
506.05	563.20
506.41	567.18
506.78	571.12
507.14	575.14
507.50	579.22
507.86	583.25
508.22	587.46
508.59	591.25
508.95	595.10
509.31	598.80
509.67	602.64
510.03	606.66
510.39	610.39
510.75	614.40
511.12	618.08
511.48	621.99
511.84	625.43
512.20	628.84
512.56	632.22
512.92	635.76
513.28	639.03
513.64	642.13
514.00	644.99
514.37	648.14
514.73	651.20
515.09	653.85
515.45	656.57
515.81	659.11
516.17	661.86
516.53	664.80
516.89	667.30
517.25	669.62
517.61	672.01
517.97	674.37
518.33	676.26
518.69	678.11
519.05	680.37
519.41	682.50
519.77	684.69
520.13	686.79
520.49	688.73
520.85	690.33
521.21	692.20
521.57	694.41
521.93	696.23
522.29	698.15
522.65	700.19
523.01	702.00
523.37	703.50
523.73	705.21
524.09	706.60
524.45	708.44
524.81	709.89
525.17	711.64
525.53	713.36
525.89	715.12
526.25	717.26
526.61	718.77
526.97	720.67
527.33	722.41
527.68	724.20
528.04	725.86
528.40	727.61
528.76	729.73
529.12	731.65
529.48	733.52
529.84	735.35
530.20	737.40
530.56	739.66
530.91	742.35
531.27	744.51
531.63	746.51
531.99	748.69
532.35	750.93
532.71	752.55
533.07	755.00
533.42	757.51
533.78	759.63
534.14	761.94
534.50	763.88
534.86	765.95
535.21	767.88
535.57	770.34
535.93	772.79
536.29	775.10
536.65	777.21
537.00	779.46
537.36	781.71
537.72	783.79
538.08	785.96
538.44	788.16
538.79	790.46
539.15	792.91
539.51	795.17
539.87	797.80
540.22	800.75
540.58	803.20
540.94	805.60
541.29	808.01
541.65	810.50
542.01	813.17
542.37	816.05
542.72	818.80
543.08	821.30
543.44	824.14
543.79	826.28
544.15	829.06
544.51	832.26
544.87	835.00
545.22	837.89
545.58	840.69
545.94	842.93
546.29	845.38
546.65	848.15
547.01	850.92
547.36	853.75
547.72	856.27
548.07	858.70
548.43	861.29
548.79	864.02
549.14	866.70
549.50	869.30
549.86	871.90
550.21	874.28
550.57	877.10
550.92	879.69
551.28	882.30
551.64	884.85
551.99	887.06
552.35	889.83
552.70	892.45
553.06	895.07
553.41	897.99
553.77	900.85
554.13	903.48
554.48	906.41
554.84	908.97
555.19	911.60
555.55	914.54
555.90	917.04
556.26	919.61
556.61	922.15
556.97	925.03
557.32	927.50
557.68	930.34
558.03	932.78
558.39	935.53
558.74	938.40
559.10	940.92
559.45	943.59
559.81	946.38
560.16	948.63
560.52	951.10
560.87	953.82
561.23	956.09
561.58	958.66
561.94	961.06
562.29	963.29
562.64	965.52
563.00	967.62
563.35	970.23
563.71	972.99
564.06	975.64
564.42	977.82
564.77	980.14
565.12	982.34
565.48	984.71
565.83	986.46
566.19	988.60
566.54	990.62
566.89	992.34
567.25	994.06
567.60	996.36
567.96	998.47
568.31	1000.07
568.66	1002.30
569.02	1003.54
569.37	1004.83
569.72	1006.50
570.08	1008.28
570.43	1009.55
570.78	1010.71
571.14	1011.70
571.49	1012.56
571.84	1014.11
572.20	1015.05
572.55	1016.18
572.90	1016.89
573.26	1018.06
573.61	1019.01
573.96	1019.68
574.31	1020.24
574.67	1020.20
575.02	1020.33
575.37	1020.22
575.72	1019.82
576.08	1019.75
576.43	1020.38
576.78	1020.50
577.13	1020.76
577.49	1020.62
577.84	1020.51
578.19	1020.27
578.54	1019.90
578.90	1019.53
579.25	1018.37
579.60	1018.04
579.95	1017.10
580.30	1016.43
580.66	1015.42
581.01	1014.47
581.36	1013.83
581.71	1013.30
582.06	1012.91
582.42	1012.08
582.77	1011.42
583.12	1011.00
583.47	1010.14
583.82	1009.28
584.17	1008.13
584.53	1006.95
584.88	1005.72
585.23	1004.66
585.58	1003.58
585.93	1002.58
586.28	1001.80
586.63	1001.14
586.98	1000.03
587.34	999.19
587.69	998.35
588.04	997.38
588.39	996.25
588.74	994.42
589.09	993.08
589.44	991.20
589.79	989.84
590.14	988.31
590.49	986.61
590.84	984.94
591.19	983.16
591.54	981.10
591.89	978.85
592.25	977.27
592.60	975.03
592.95	972.93
593.30	970.34
593.65	967.88
594.00	965.56
594.35	963.63
594.70	961.08
595.05	958.69
595.40	956.19
595.75	953.63
596.10	951.71
596.45	949.45
596.80	947.55
597.15	945.39
597.50	943.09
597.85	940.80
598.19	938.71
598.54	936.65
598.89	934.86
599.24	933.00
599.59	930.60
599.94	928.61
600.29	926.54
600.64	924.37
600.99	921.73
601.34	919.35
601.69	916.40
602.04	914.17
602.39	911.61
602.74	909.33
603.08	906.90
603.43	904.57
603.78	901.82
604.13	899.42
604.48	896.72
604.83	894.21
605.18	892.23
605.53	889.12
605.87	885.95
606.22	883.25
606.57	880.40
606.92	877.68
607.27	875.34
607.62	872.82
607.96	870.25
608.31	868.20
608.66	865.33
609.01	862.54
609.36	859.51
609.70	856.25
610.05	853.05
610.40	850.36
610.75	847.15
611.10	844.25
611.44	840.94
611.79	838.05
612.14	834.80
612.49	831.09
612.83	828.07
613.18	825.00
613.53	821.68
613.88	818.37
614.22	815.05
614.57	811.32
614.92	807.94
615.27	805.00
615.61	801.53
615.96	798.37
616.31	795.17
616.65	792.41
617.00	789.65
617.35	786.58
617.70	783.09
618.04	779.86
618.39	776.40
618.74	773.14
619.08	769.65
619.43	766.48
619.78	763.53
620.12	760.49
620.47	757.20
620.82	753.86
621.16	750.70
621.51	747.70
621.85	744.93
622.20	741.60
622.55	738.10
622.89	735.10
623.24	732.33
623.59	729.45
623.93	726.34
624.28	723.21
624.62	720.24
624.97	717.63
625.32	714.68
625.66	712.11
626.01	709.40
626.35	706.40
626.70	703.50
627.04	700.49
627.39	697.46
627.73	694.79
628.08	691.83
628.43	689.02
628.77	686.08
629.12	682.83
629.46	679.95
629.81	677.02
630.15	673.79
630.50	670.47
630.84	667.18
631.19	663.96
631.53	661.07
631.88	657.97
632.22	654.52
632.57	651.79
632.91	648.39
633.26	645.34
633.60	642.37
633.95	639.29
634.29	636.24
634.64	633.52
634.98	630.32
635.32	627.71
635.67	625.03
636.01	622.16
636.36	619.41
636.70	616.76
637.05	614.08
637.39	611.51
637.73	608.92
638.08	606.51
638.42	604.09
638.77	601.37
639.11	598.83
639.45	596.24
639.80	593.29
640.14	591.08
640.49	588.41
640.83	586.02
641.17	583.53
641.52	581.11
641.86	578.33
642.20	576.01
642.55	573.40
642.89	570.80
643.23	568.36
643.58	565.81
643.92	563.19
644.26	560.70
644.61	558.27
644.95	555.78
645.29	553.16
645.64	550.41
645.98	547.90
646.32	545.50
646.66	543.14
647.01	540.72
647.35	538.22
647.69	535.78
648.04	533.28
648.38	530.75
648.72	528.10
649.06	525.59
649.41	522.93
649.75	520.37
650.09	517.69
650.43	515.00
650.78	512.60
651.12	510.10
651.46	507.88
651.80	505.39
652.14	502.95
652.49	500.70
652.83	498.36
653.17	495.82
653.51	493.19
653.85	490.88
654.20	488.57
654.54	486.02
654.88	483.43
655.22	480.86
655.56	478.53
655.90	476.30
656.25	474.20
656.59	471.94
656.93	469.78
657.27	467.73
657.61	465.60
657.95	463.40
658.29	461.34
658.64	459.04
658.98	456.78
659.32	454.48
659.66	452.30
660.00	450.11
660.34	448.10
660.68	446.02
661.02	443.71
661.36	441.83
661.70	439.80
662.05	438.16
662.39	436.46
662.73	434.54
663.07	432.72
663.41	430.67
663.75	428.90
664.09	427.18
664.43	425.18
664.77	423.46
665.11	421.66
665.45	419.81
665.79	418.08
666.13	416.30
666.47	414.64
666.81	412.79
667.15	410.98
667.49	409.25
667.83	407.65
668.17	406.03
668.51	404.11
668.85	402.50
669.19	400.83
669.53	399.12
669.87	397.46
670.21	395.87
670.55	394.38
670.89	393.03
671.23	391.45
671.57	390.06
671.91	388.50
672.25	387.01
672.58	385.53
672.92	383.92
673.26	382.61
673.60	381.26
673.94	379.97
674.28	378.80
674.62	377.55
674.96	376.15
675.30	374.93
675.64	373.77
675.97	372.57
676.31	371.23
676.65	369.97
676.99	368.84
677.33	367.42
677.67	366.24
678.01	364.89
678.34	363.63
678.68	362.57
679.02	361.39
679.36	360.22
679.70	359.01
680.04	357.99
680.37	356.78
680.71	355.57
681.05	354.53
681.39	353.20
681.73	351.99
682.06	350.99
682.40	349.82
682.74	348.63
683.08	347.61
683.42	346.53
683.75	345.56
684.09	344.49
684.43	343.49
684.77	342.19
685.10	341.07
685.44	339.84
685.78	338.50
686.12	337.31
686.45	336.20
686.79	335.12
687.13	334.00
687.46	332.98
687.80	331.96
688.14	330.75
688.48	329.81
688.81	328.77
689.15	327.73
689.49	326.87
689.82	325.90
690.16	324.58
690.50	323.48
690.83	322.32
691.17	321.23
691.51	320.30
691.84	319.44
692.18	318.43
692.52	317.56
692.85	316.71
693.19	315.96
693.52	314.95
693.86	313.98
694.20	313.03
694.53	312.00
694.87	311.00
695.21	310.16
695.54	309.26
695.88	308.39
696.21	307.49
696.55	306.46
696.88	305.64
697.22	304.98
697.56	304.25
697.89	303.52
698.23	302.78
698.56	301.96
698.90	301.25
699.23	300.39
699.57	299.54
699.90	298.73
700.24	297.79
700.58	297.11
700.91	296.37
701.25	295.81
701.58	295.17
701.92	294.53
702.25	293.71
702.59	292.97
702.92	292.33
703.26	291.70
703.59	291.13
703.93	290.56
704.26	289.92
704.60	289.25
704.93	288.52
705.26	287.84
705.60	287.29
705.93	286.56
706.27	286.05
706.60	285.56
706.94	285.03
707.27	284.44
707.61	283.92
707.94	283.44
708.27	282.65
708.61	281.91
708.94	281.23
709.28	280.74
709.61	280.19
709.94	279.67
710.28	279.06
710.61	278.47
710.95	277.74
711.28	277.40
711.61	276.79
711.95	276.18
712.28	275.73
712.61	275.12
712.95	274.66
713.28	274.23
713.61	273.69
713.95	273.04
714.28	272.58
714.61	271.90
714.95	271.46
715.28	270.95
715.61	270.62
715.95	270.23
716.28	269.79
716.61	269.53
716.95	269.05
717.28	268.60
717.61	268.23
717.94	267.87
718.28	267.31
718.61	266.96
718.94	266.68
719.27	266.23
719.61	265.91
719.94	265.52
720.27	265.02
720.60	264.60
720.94	264.21
721.27	263.84
721.60	263.71
721.93	263.21
722.27	263.10
722.60	262.69
722.93	262.37
723.26	262.03
723.59	261.59
723.93	261.26
724.26	261.08
724.59	260.63
724.92	260.31
725.25	259.96
725.59	259.64
725.92	259.33
726.25	259.00
726.58	258.70
726.91	258.39
727.24	258.20
727.57	257.96
727.91	257.75
728.24	257.42
728.57	257.05
728.90	256.80
729.23	256.40
729.56	256.37
729.89	256.05
730.22	255.85
730.55	255.58
730.89	255.22
731.22	254.92
731.55	254.79
731.88	254.61
732.21	254.30
732.54	254.09
732.87	253.93
733.20	253.73
733.53	253.40
733.86	253.21
734.19	252.84
734.52	252.56
734.85	252.44
735.18	252.20
735.51	252.07
735.84	251.86
736.17	251.68
736.50	251.31
736.83	251.32
737.16	250.97
737.49	250.76
737.82	250.57
738.15	250.25
738.48	249.97
738.81	249.65
739.14	249.44
739.47	249.09
739.80	248.71
740.13	248.46
740.46	248.21
740.79	248.00
741.12	247.85
741.45	247.68
741.78	247.39
742.11	247.25
742.44	246.81
742.77	246.61
743.10	246.47
743.43	246.10
743.75	245.74
744.08	245.81
744.41	245.63
744.74	245.36
745.07	245.13
745.40	244.93
745.73	244.70
746.06	244.45
746.39	244.41
746.71	244.20
747.04	244.02
747.37	243.86
747.70	243.68
748.03	243.38
748.36	243.22
748.68	243.04
749.01	242.83
749.34	242.76
749.67	242.65
750.00	242.37
750.33	242.43
750.65	242.21
750.98	241.82
751.31	241.55
751.64	241.41
751.97	241.36
752.29	241.28
752.62	241.13
752.95	241.05
753.28	240.77
753.60	240.69
753.93	240.54
754.26	240.46
754.59	240.27
754.91	240.13
755.24	239.93
755.57	239.76
755.90	239.71
756.22	239.52
756.55	239.31
756.88	239.10
757.20	238.84
757.53	238.77
757.86	238.64
758.19	238.60
758.51	238.53
758.84	238.35
759.17	238.14
759.49	238.00
759.82	237.93
760.15	237.92
760.47	237.80
760.80	237.54
761.13	237.45
761.45	237.33
761.78	237.40
762.11	237.36
762.43	237.23
762.76	237.06
763.08	237.09
763.41	236.99
763.74	236.90
764.06	236.85
764.39	236.69
764.71	236.61
765.04	236.58
765.37	236.47
765.69	236.35
766.02	236.30
766.34	236.21
766.67	235.97
767.00	235.90
767.32	236.00
767.65	236.14
767.97	235.96
768.30	235.96
768.62	235.86
768.95	235.69
769.27	235.67
769.60	235.56
769.92	235.43
770.25	235.31
770.57	235.29
770.90	235.21
771.22	235.08
771.55	235.09
771.87	235.05
772.20	234.96
772.52	235.10
772.85	235.29
773.17	235.26
773.50	235.34
773.82	235.36
774.15	235.19
774.47	235.04
774.80	235.09
775.12	235.00
775.45	234.90
775.77	234.98
776.09	234.97
776.42	235.12
776.74	235.15
777.07	235.14
777.39	235.17
777.72	235.12
778.04	235.15
778.36	235.10
778.69	235.05
779.01	235.06
779.33	234.87
779.66	234.62
779.98	234.54
780.31	234.49
780.63	234.42
780.95	234.38
781.28	234.30
781.60	234.22
781.92	234.09
782.25	234.00
782.57	233.94
782.89	233.90
783.22	233.68
783.54	233.63
783.86	233.57
784.19	233.40
784.51	233.41
784.83	233.44
785.16	233.33
785.48	233.22
785.80	233.20
786.12	233.11
786.45	233.04
786.77	233.02
787.09	232.98
787.42	232.87
787.74	232.86
788.06	232.78
788.38	232.66
788.71	232.62
789.03	232.68
789.35	232.62
789.67	232.49
789.99	232.42
790.32	232.26
790.64	232.20
790.96	232.34
791.28	232.20
791.61	232.04
791.93	232.00
792.25	231.89
792.57	231.89
792.89	231.81
793.21	231.71
