SpectraSuite Data File
++++++++++++++++++++++++++++++++++++
Date: Fri Feb 01 14:36:57 EST 2013
User: group
Dark Spectrum Present: No
Reference Spectrum Present: No
Number of Sampled Component Spectra: 1
Spectrometers: USB2E7196
Integration Time (usec): 70000 (USB2E7196)
Spectra Averaged: 10 (USB2E7196)
Boxcar Smoothing: 10 (USB2E7196)
Correct for Electrical Dark: No (USB2E7196)
Strobe/Lamp Enabled: No (USB2E7196)
Correct for Detector Non-linearity: No (USB2E7196)
Correct for Stray Light: No (USB2E7196)
Number of Pixels in Processed Spectrum: 2048
>>>>>Begin Processed Spectral Data<<<<<
339.09	0.00
339.48	214.50
339.86	217.40
340.24	219.20
340.63	220.20
341.01	224.60
341.39	222.70
341.78	224.20
342.16	227.00
342.54	225.60
342.93	214.59
343.31	225.45
343.69	226.11
344.07	226.57
344.46	227.03
344.84	227.49
345.22	227.66
345.60	227.98
345.99	228.16
346.37	228.29
346.75	228.44
347.13	228.46
347.52	228.55
347.90	228.71
348.28	228.81
348.66	228.85
349.05	228.82
349.43	228.74
349.81	228.84
350.19	228.91
350.57	228.87
350.96	228.92
351.34	228.98
351.72	229.05
352.10	229.13
352.48	229.13
352.87	229.09
353.25	229.13
353.63	229.08
354.01	229.07
354.39	229.08
354.77	229.08
355.15	229.27
355.54	229.18
355.92	229.18
356.30	229.36
356.68	229.60
357.06	229.62
357.44	229.73
357.82	229.88
358.20	229.89
358.58	230.00
358.97	229.97
359.35	230.10
359.73	230.13
360.11	230.20
360.49	230.25
360.87	230.34
361.25	230.40
361.63	230.51
362.01	230.64
362.39	230.70
362.77	230.78
363.15	230.73
363.53	230.80
363.91	230.72
364.29	230.48
364.67	230.31
365.05	230.33
365.43	230.26
365.81	230.16
366.19	230.29
366.57	230.33
366.95	230.36
367.33	230.24
367.71	230.15
368.09	230.14
368.47	230.10
368.85	230.09
369.23	230.03
369.61	229.92
369.99	229.93
370.37	229.91
370.75	229.93
371.13	229.77
371.51	229.59
371.89	229.55
372.27	229.65
372.65	229.62
373.03	229.47
373.41	229.37
373.78	229.21
374.16	229.04
374.54	228.85
374.92	228.71
375.30	228.59
375.68	228.58
376.06	228.48
376.44	228.30
376.82	228.23
377.19	228.21
377.57	228.06
377.95	227.90
378.33	227.73
378.71	227.58
379.09	227.61
379.47	227.60
379.84	227.50
380.22	227.39
380.60	227.20
380.98	227.17
381.36	227.11
381.73	227.10
382.11	227.08
382.49	227.09
382.87	226.98
383.25	226.97
383.62	227.11
384.00	226.96
384.38	226.97
384.76	226.92
385.13	226.88
385.51	226.96
385.89	226.87
386.27	226.76
386.64	226.74
387.02	226.68
387.40	226.62
387.78	226.65
388.15	226.60
388.53	226.50
388.91	226.50
389.29	226.40
389.66	226.50
390.04	226.41
390.42	226.35
390.79	226.40
391.17	226.35
391.55	226.10
391.92	226.12
392.30	226.21
392.68	226.17
393.05	226.19
393.43	226.13
393.81	226.20
394.18	226.15
394.56	226.25
394.94	226.30
395.31	226.40
395.69	226.45
396.06	226.53
396.44	226.66
396.82	226.74
397.19	226.89
397.57	226.79
397.95	226.95
398.32	227.08
398.70	227.19
399.07	227.40
399.45	227.50
399.82	227.63
400.20	227.64
400.58	227.71
400.95	227.82
401.33	228.06
401.70	228.24
402.08	228.55
402.45	228.56
402.83	228.88
403.20	229.01
403.58	229.15
403.95	229.37
404.33	229.63
404.71	229.75
405.08	230.16
405.46	230.42
405.83	230.64
406.21	230.86
406.58	231.06
406.96	231.22
407.33	231.52
407.70	231.90
408.08	232.41
408.45	232.73
408.83	233.05
409.20	233.36
409.58	233.73
409.95	234.07
410.33	234.57
410.70	234.85
411.08	235.38
411.45	235.98
411.82	236.51
412.20	237.12
412.57	237.93
412.95	238.39
413.32	239.18
413.69	239.96
414.07	240.68
414.44	241.50
414.82	242.34
415.19	243.27
415.56	244.28
415.94	245.22
416.31	246.43
416.68	247.55
417.06	248.74
417.43	250.05
417.81	251.43
418.18	252.88
418.55	254.53
418.93	256.15
419.30	257.87
419.67	259.57
420.04	261.32
420.42	263.21
420.79	265.44
421.16	267.57
421.54	269.79
421.91	272.19
422.28	274.60
422.66	277.18
423.03	279.70
423.40	282.23
423.77	284.89
424.15	287.60
424.52	290.64
424.89	293.90
425.26	296.97
425.64	299.93
426.01	303.02
426.38	306.23
426.75	309.76
427.13	313.22
427.50	317.03
427.87	320.90
428.24	324.60
428.61	328.23
428.99	332.32
429.36	336.56
429.73	340.81
430.10	345.10
430.47	349.43
430.85	354.00
431.22	358.74
431.59	363.78
431.96	368.66
432.33	373.91
432.70	379.03
433.08	385.00
433.45	390.62
433.82	396.37
434.19	402.78
434.56	408.76
434.93	414.57
435.30	420.24
435.68	426.57
436.05	432.97
436.42	439.11
436.79	444.82
437.16	451.02
437.53	457.48
437.90	463.86
438.27	470.34
438.64	476.70
439.01	482.80
439.38	488.30
439.75	493.48
440.13	499.35
440.50	504.93
440.87	509.63
441.24	514.70
441.61	519.98
441.98	523.83
442.35	528.44
442.72	533.15
443.09	537.89
443.46	540.91
443.83	542.90
444.20	544.82
444.57	547.29
444.94	548.81
445.31	550.47
445.68	552.03
446.05	552.94
446.42	552.96
446.79	552.89
447.16	552.66
447.53	552.91
447.90	551.37
448.27	549.75
448.64	546.87
449.01	544.99
449.37	541.53
449.74	538.05
450.11	533.75
450.48	529.11
450.85	524.11
451.22	519.92
451.59	516.02
451.96	512.46
452.33	507.33
452.70	502.74
453.07	496.89
453.43	490.99
453.80	485.30
454.17	479.85
454.54	474.67
454.91	469.13
455.28	463.52
455.65	458.15
456.02	452.85
456.38	448.55
456.75	442.92
457.12	438.10
457.49	433.40
457.86	428.94
458.23	425.02
458.59	420.80
458.96	416.48
459.33	412.64
459.70	408.56
460.07	405.44
460.43	401.64
460.80	398.10
461.17	394.95
461.54	391.74
461.91	388.66
462.27	385.47
462.64	382.75
463.01	379.67
463.38	376.92
463.74	374.13
464.11	371.59
464.48	369.38
464.85	366.93
465.21	364.98
465.58	362.94
465.95	360.39
466.32	358.39
466.68	356.28
467.05	354.24
467.42	352.30
467.78	350.10
468.15	347.95
468.52	346.59
468.88	344.71
469.25	342.93
469.62	341.59
469.98	339.99
470.35	338.40
470.72	337.10
471.08	335.57
471.45	334.28
471.82	332.91
472.18	331.38
472.55	330.21
472.92	328.88
473.28	327.57
473.65	326.50
474.02	325.30
474.38	324.38
474.75	323.45
475.11	322.37
475.48	321.59
475.85	320.98
476.21	320.19
476.58	319.47
476.94	318.95
477.31	318.32
477.67	317.71
478.04	317.16
478.41	316.68
478.77	316.36
479.14	315.70
479.50	315.36
479.87	315.12
480.23	314.96
480.60	314.73
480.96	314.49
481.33	314.29
481.69	314.14
482.06	314.01
482.42	313.88
482.79	313.84
483.15	313.82
483.52	313.98
483.88	313.89
484.25	314.07
484.61	314.05
484.98	314.12
485.34	314.37
485.71	314.74
486.07	315.05
486.44	315.12
486.80	315.57
487.17	315.87
487.53	316.39
487.90	316.95
488.26	317.49
488.62	318.09
488.99	318.65
489.35	319.24
489.72	319.85
490.08	320.53
490.44	321.11
490.81	321.91
491.17	322.52
491.54	323.35
491.90	324.07
492.26	324.96
492.63	325.81
492.99	326.57
493.36	327.46
493.72	328.38
494.08	329.45
494.45	330.43
494.81	331.54
495.17	332.47
495.54	333.32
495.90	334.38
496.26	335.41
496.63	336.61
496.99	337.73
497.35	338.81
497.72	340.00
498.08	341.35
498.44	342.45
498.80	343.77
499.17	344.85
499.53	345.84
499.89	346.93
500.26	347.99
500.62	349.08
500.98	350.15
501.34	351.13
501.71	352.30
502.07	353.44
502.43	354.40
502.79	355.28
503.16	356.25
503.52	357.13
503.88	358.00
504.24	358.73
504.60	359.59
504.97	360.50
505.33	361.19
505.69	361.95
506.05	362.72
506.41	363.21
506.78	363.99
507.14	364.85
507.50	365.60
507.86	366.28
508.22	366.97
508.59	367.29
508.95	367.69
509.31	368.05
509.67	368.43
510.03	368.90
510.39	369.47
510.75	369.84
511.12	370.05
511.48	370.27
511.84	370.50
512.20	370.71
512.56	370.88
512.92	371.02
513.28	371.13
513.64	371.16
514.00	371.30
514.37	371.35
514.73	371.26
515.09	371.08
515.45	370.99
515.81	370.94
516.17	371.00
516.53	371.17
516.89	371.10
517.25	370.98
517.61	370.84
517.97	370.75
518.33	370.83
518.69	371.10
519.05	371.41
519.41	371.55
519.77	371.89
520.13	372.07
520.49	372.42
520.85	372.70
521.21	373.00
521.57	373.34
521.93	373.68
522.29	374.26
522.65	374.78
523.01	375.31
523.37	375.75
523.73	376.40
524.09	376.87
524.45	377.53
524.81	378.33
525.17	379.21
525.53	380.09
525.89	380.90
526.25	381.85
526.61	382.65
526.97	383.84
527.33	384.77
527.68	386.03
528.04	387.15
528.40	388.33
528.76	389.87
529.12	391.53
529.48	393.15
529.84	394.60
530.20	396.32
530.56	398.16
530.91	400.07
531.27	402.00
531.63	403.92
531.99	406.12
532.35	408.20
532.71	410.25
533.07	412.55
533.42	414.97
533.78	417.33
534.14	419.99
534.50	422.53
534.86	425.30
535.21	427.86
535.57	430.90
535.93	433.83
536.29	436.67
536.65	439.55
537.00	442.55
537.36	445.67
537.72	448.86
538.08	452.00
538.44	455.30
538.79	458.60
539.15	461.90
539.51	465.45
539.87	469.15
540.22	472.88
540.58	476.58
540.94	480.31
541.29	483.98
541.65	487.68
542.01	491.61
542.37	495.47
542.72	499.46
543.08	503.23
543.44	507.29
543.79	511.06
544.15	515.26
544.51	519.39
544.87	523.71
545.22	527.90
545.58	532.05
545.94	536.27
546.29	540.58
546.65	545.05
547.01	549.10
547.36	553.42
547.72	557.65
548.07	562.03
548.43	566.22
548.79	570.63
549.14	575.03
549.50	579.21
549.86	583.39
550.21	587.67
550.57	591.93
550.92	596.19
551.28	600.75
551.64	604.86
551.99	609.25
552.35	613.44
552.70	617.70
553.06	622.17
553.41	626.67
553.77	631.06
554.13	635.60
554.48	640.18
554.84	644.30
555.19	648.73
555.55	653.36
555.90	657.65
556.26	661.91
556.61	666.13
556.97	670.51
557.32	674.92
557.68	679.16
558.03	683.61
558.39	687.93
558.74	692.35
559.10	696.77
559.45	700.95
559.81	705.35
560.16	709.67
560.52	713.88
560.87	718.17
561.23	722.38
561.58	726.50
561.94	730.55
562.29	734.69
562.64	738.66
563.00	742.46
563.35	746.87
563.71	751.14
564.06	755.25
564.42	759.02
564.77	762.86
565.12	766.70
565.48	770.77
565.83	774.42
566.19	778.04
566.54	781.63
566.89	785.14
567.25	788.79
567.60	792.31
567.96	796.02
568.31	799.37
568.66	802.55
569.02	805.77
569.37	808.85
569.72	812.20
570.08	815.12
570.43	817.87
570.78	820.59
571.14	823.27
571.49	826.11
571.84	829.29
572.20	831.88
572.55	834.72
572.90	836.89
573.26	839.67
573.61	842.12
573.96	844.48
574.31	846.61
574.67	848.30
575.02	850.06
575.37	851.65
575.72	853.06
576.08	854.93
576.43	856.65
576.78	858.33
577.13	860.03
577.49	861.77
577.84	863.40
578.19	864.85
578.54	866.34
578.90	867.26
579.25	868.11
579.60	869.42
579.95	870.36
580.30	871.53
580.66	872.12
581.01	872.93
581.36	873.89
581.71	874.77
582.06	875.60
582.42	876.28
582.77	876.87
583.12	877.57
583.47	878.20
583.82	878.64
584.17	879.18
584.53	879.46
584.88	879.85
585.23	880.39
585.58	880.72
585.93	880.83
586.28	881.37
586.63	881.65
586.98	881.70
587.34	882.06
587.69	882.08
588.04	882.34
588.39	882.57
588.74	881.86
589.09	881.70
589.44	881.59
589.79	881.73
590.14	881.85
590.49	881.60
590.84	881.22
591.19	880.98
591.54	880.21
591.89	879.25
592.25	878.90
592.60	877.71
592.95	876.59
593.30	875.77
593.65	874.68
594.00	873.53
594.35	872.99
594.70	871.63
595.05	870.32
595.40	869.13
595.75	867.85
596.10	867.39
596.45	866.40
596.80	865.63
597.15	864.44
597.50	862.95
597.85	862.23
598.19	861.28
598.54	860.22
598.89	859.30
599.24	858.56
599.59	857.39
599.94	856.24
600.29	854.97
600.64	853.56
600.99	852.24
601.34	851.39
601.69	849.51
602.04	848.15
602.39	847.19
602.74	846.13
603.08	844.72
603.43	843.39
603.78	842.10
604.13	840.41
604.48	838.93
604.83	837.60
605.18	835.97
605.53	833.93
605.87	832.06
606.22	830.59
606.57	828.69
606.92	826.59
607.27	825.00
607.62	823.76
607.96	822.38
608.31	820.93
608.66	818.74
609.01	816.74
609.36	814.65
609.70	812.19
610.05	809.58
610.40	807.33
610.75	804.90
611.10	802.42
611.44	799.77
611.79	797.37
612.14	794.97
612.49	792.21
612.83	789.70
613.18	787.30
613.53	784.95
613.88	782.40
614.22	779.87
614.57	777.09
614.92	774.30
615.27	771.54
615.61	768.60
615.96	766.03
616.31	763.82
616.65	761.68
617.00	759.28
617.35	756.99
617.70	754.43
618.04	751.83
618.39	749.34
618.74	747.22
619.08	744.65
619.43	742.14
619.78	739.71
620.12	737.40
620.47	734.78
620.82	731.75
621.16	729.03
621.51	726.65
621.85	724.32
622.20	721.46
622.55	719.02
622.89	716.68
623.24	714.40
623.59	712.05
623.93	709.42
624.28	706.99
624.62	704.71
624.97	702.61
625.32	700.12
625.66	697.89
626.01	695.39
626.35	692.96
626.70	690.47
627.04	688.19
627.39	685.55
627.73	683.09
628.08	680.73
628.43	678.39
628.77	675.98
629.12	673.37
629.46	671.07
629.81	668.15
630.15	665.37
630.50	662.51
630.84	659.66
631.19	656.85
631.53	654.19
631.88	651.18
632.22	648.11
632.57	645.51
632.91	642.51
633.26	639.60
633.60	636.92
633.95	634.30
634.29	631.59
634.64	629.07
634.98	626.30
635.32	623.88
635.67	621.79
636.01	619.41
636.36	617.10
636.70	614.74
637.05	612.39
637.39	610.23
637.73	607.88
638.08	605.71
638.42	603.62
638.77	601.40
639.11	598.80
639.45	596.69
639.80	594.30
640.14	591.99
640.49	589.69
640.83	587.24
641.17	584.97
641.52	582.37
641.86	580.00
642.20	577.83
642.55	575.23
642.89	572.70
643.23	569.86
643.58	567.41
643.92	565.02
644.26	562.91
644.61	560.60
644.95	558.18
645.29	555.30
645.64	552.79
645.98	550.26
646.32	548.28
646.66	545.71
647.01	543.30
647.35	541.14
647.69	539.03
648.04	536.81
648.38	534.03
648.72	531.62
649.06	529.17
649.41	526.92
649.75	524.50
650.09	521.95
650.43	519.60
650.78	517.08
651.12	514.47
651.46	512.04
651.80	509.60
652.14	507.41
652.49	505.32
652.83	503.05
653.17	500.79
653.51	498.34
653.85	496.01
654.20	493.77
654.54	491.23
654.88	488.63
655.22	486.15
655.56	484.04
655.90	481.90
656.25	479.69
656.59	477.26
656.93	475.16
657.27	473.13
657.61	471.12
657.95	469.11
658.29	467.21
658.64	464.99
658.98	462.59
659.32	460.18
659.66	458.03
660.00	455.83
660.34	453.67
660.68	451.79
661.02	449.71
661.36	447.58
661.70	445.66
662.05	443.81
662.39	441.98
662.73	440.14
663.07	438.33
663.41	436.66
663.75	434.64
664.09	432.73
664.43	430.59
664.77	428.71
665.11	426.88
665.45	424.89
665.79	423.05
666.13	421.34
666.47	419.73
666.81	417.81
667.15	415.91
667.49	414.11
667.83	412.21
668.17	410.47
668.51	408.96
668.85	407.36
669.19	405.74
669.53	404.11
669.87	402.28
670.21	400.55
670.55	398.70
670.89	397.42
671.23	395.90
671.57	394.51
671.91	393.02
672.25	391.53
672.58	390.12
672.92	388.63
673.26	387.26
673.60	385.67
673.94	384.34
674.28	383.07
674.62	381.83
674.96	380.32
675.30	379.00
675.64	377.52
675.97	376.04
676.31	374.66
676.65	373.30
676.99	372.14
677.33	370.79
677.67	369.63
678.01	368.22
678.34	366.98
678.68	365.61
679.02	364.31
679.36	363.07
679.70	361.92
680.04	360.73
680.37	359.41
680.71	358.24
681.05	357.23
681.39	356.07
681.73	354.88
682.06	353.75
682.40	352.51
682.74	351.36
683.08	350.34
683.42	349.15
683.75	347.97
684.09	346.89
684.43	345.78
684.77	344.66
685.10	343.55
685.44	342.40
685.78	341.37
686.12	340.21
686.45	339.05
686.79	337.86
687.13	336.87
687.46	335.85
687.80	334.81
688.14	333.58
688.48	332.55
688.81	331.36
689.15	330.53
689.49	329.63
689.82	328.69
690.16	327.60
690.50	326.65
690.83	325.71
691.17	324.59
691.51	323.62
691.84	322.69
692.18	321.69
692.52	320.62
692.85	319.79
693.19	318.98
693.52	317.99
693.86	317.02
694.20	316.02
694.53	315.28
694.87	314.46
695.21	313.52
695.54	312.54
695.88	311.61
696.21	310.56
696.55	309.63
696.88	308.65
697.22	307.59
697.56	306.71
697.89	305.77
698.23	304.99
698.56	304.00
698.90	303.03
699.23	302.13
699.57	301.35
699.90	300.24
700.24	299.28
700.58	298.45
700.91	297.66
701.25	296.91
701.58	296.18
701.92	295.40
702.25	294.66
702.59	293.90
702.92	293.27
703.26	292.56
703.59	291.81
703.93	291.29
704.26	290.77
704.60	290.10
704.93	289.58
705.26	288.86
705.60	288.38
705.93	287.77
706.27	287.24
706.60	286.73
706.94	286.30
707.27	285.60
707.61	285.06
707.94	284.49
708.27	283.75
708.61	283.00
708.94	282.34
709.28	281.79
709.61	281.16
709.94	280.68
710.28	280.16
710.61	279.71
710.95	278.95
711.28	278.47
711.61	277.93
711.95	277.33
712.28	276.77
712.61	276.20
712.95	275.76
713.28	275.28
713.61	274.62
713.95	273.94
714.28	273.51
714.61	272.94
714.95	272.53
715.28	272.08
715.61	271.50
715.95	271.07
716.28	270.65
716.61	270.37
716.95	269.80
717.28	269.34
717.61	268.84
717.94	268.46
718.28	267.87
718.61	267.50
718.94	267.07
719.27	266.79
719.61	266.38
719.94	265.98
720.27	265.52
720.60	265.19
720.94	265.08
721.27	264.78
721.60	264.55
721.93	264.10
722.27	263.91
722.60	263.72
722.93	263.47
723.26	263.20
723.59	262.85
723.93	262.63
724.26	262.36
724.59	262.00
724.92	261.55
725.25	261.40
725.59	261.05
725.92	260.87
726.25	260.48
726.58	260.28
726.91	260.00
727.24	259.75
727.57	259.62
727.91	259.23
728.24	259.00
728.57	258.64
728.90	258.43
729.23	258.09
729.56	257.71
729.89	257.32
730.22	256.96
730.55	256.51
730.89	256.22
731.22	255.92
731.55	255.68
731.88	255.53
732.21	255.30
732.54	255.04
732.87	254.77
733.20	254.52
733.53	254.18
733.86	253.91
734.19	253.59
734.52	253.20
734.85	252.94
735.18	252.61
735.51	252.48
735.84	252.15
736.17	251.90
736.50	251.68
736.83	251.70
737.16	251.42
737.49	251.30
737.82	250.94
738.15	250.72
738.48	250.51
738.81	250.28
739.14	249.93
739.47	249.65
739.80	249.38
740.13	249.10
740.46	248.89
740.79	248.69
741.12	248.60
741.45	248.45
741.78	248.17
742.11	247.97
742.44	247.74
742.77	247.53
743.10	247.28
743.43	247.01
743.75	246.55
744.08	246.65
744.41	246.38
744.74	246.23
745.07	245.99
745.40	245.65
745.73	245.50
746.06	245.24
746.39	245.10
746.71	244.91
747.04	244.74
747.37	244.50
747.70	244.29
748.03	244.00
748.36	243.76
748.68	243.62
749.01	243.47
749.34	243.33
749.67	243.30
750.00	243.21
750.33	243.20
750.65	243.14
750.98	242.75
751.31	242.62
751.64	242.48
751.97	242.44
752.29	242.42
752.62	242.22
752.95	242.04
753.28	241.78
753.60	241.55
753.93	241.47
754.26	241.35
754.59	241.10
754.91	241.01
755.24	240.80
755.57	240.61
755.90	240.46
756.22	240.24
756.55	239.98
756.88	239.75
757.20	239.50
757.53	239.27
757.86	239.12
758.19	239.00
758.51	238.90
758.84	238.72
759.17	238.63
759.49	238.56
759.82	238.58
760.15	238.65
760.47	238.60
760.80	238.46
761.13	238.46
761.45	238.42
761.78	238.22
762.11	238.34
762.43	238.28
762.76	238.12
763.08	238.04
763.41	238.01
763.74	237.81
764.06	237.77
764.39	237.66
764.71	237.51
765.04	237.46
765.37	237.30
765.69	237.11
766.02	236.95
766.34	236.74
766.67	236.65
767.00	236.50
767.32	236.53
767.65	236.56
767.97	236.40
768.30	236.27
768.62	236.21
768.95	235.91
769.27	235.79
769.60	235.79
769.92	235.61
770.25	235.47
770.57	235.46
770.90	235.37
771.22	235.27
771.55	235.29
771.87	235.14
772.20	235.11
772.52	235.23
772.85	235.25
773.17	235.17
773.50	235.01
773.82	234.84
774.15	234.71
774.47	234.58
774.80	234.43
775.12	234.37
775.45	234.23
775.77	234.12
776.09	234.09
776.42	233.93
776.74	233.91
777.07	233.76
777.39	233.78
777.72	233.72
778.04	233.62
778.36	233.44
778.69	233.39
779.01	233.38
779.33	233.15
779.66	232.99
779.98	232.90
780.31	232.89
780.63	232.92
780.95	232.77
781.28	232.62
781.60	232.60
781.92	232.60
782.25	232.57
782.57	232.54
782.89	232.44
783.22	232.38
783.54	232.26
783.86	232.21
784.19	232.08
784.51	232.09
784.83	232.02
785.16	232.03
785.48	231.96
785.80	231.85
786.12	231.73
786.45	231.78
786.77	231.86
787.09	231.79
787.42	231.75
787.74	231.78
788.06	231.79
788.38	231.70
788.71	231.71
789.03	231.71
789.35	231.71
789.67	231.60
789.99	231.57
790.32	231.60
790.64	231.59
790.96	231.80
791.28	231.63
791.61	231.61
791.93	231.63
792.25	231.66
792.57	231.74
792.89	231.81
793.21	231.77
793.54	231.70
793.86	231.73
794.18	231.69
