SpectraSuite Data File
++++++++++++++++++++++++++++++++++++
Date: Fri Feb 01 14:38:37 EST 2013
User: group
Dark Spectrum Present: No
Reference Spectrum Present: No
Number of Sampled Component Spectra: 1
Spectrometers: USB2E7196
Integration Time (usec): 70000 (USB2E7196)
Spectra Averaged: 10 (USB2E7196)
Boxcar Smoothing: 10 (USB2E7196)
Correct for Electrical Dark: No (USB2E7196)
Strobe/Lamp Enabled: No (USB2E7196)
Correct for Detector Non-linearity: No (USB2E7196)
Correct for Stray Light: No (USB2E7196)
Number of Pixels in Processed Spectrum: 2048
>>>>>Begin Processed Spectral Data<<<<<
339.09	0.00
339.48	218.50
339.86	219.10
340.24	219.20
340.63	219.70
341.01	224.90
341.39	222.80
341.78	225.90
342.16	225.80
342.54	225.90
342.93	215.08
343.31	226.02
343.69	226.49
344.07	226.89
344.46	227.31
344.84	227.68
345.22	227.81
345.60	228.05
345.99	228.06
346.37	228.15
346.75	228.27
347.13	228.30
347.52	228.26
347.90	228.41
348.28	228.44
348.66	228.48
349.05	228.36
349.43	228.48
349.81	228.38
350.19	228.37
350.57	228.41
350.96	228.42
351.34	228.40
351.72	228.54
352.10	228.54
352.48	228.59
352.87	228.68
353.25	228.81
353.63	228.83
354.01	228.97
354.39	229.10
354.77	229.07
355.15	229.27
355.54	229.36
355.92	229.30
356.30	229.34
356.68	229.50
357.06	229.57
357.44	229.54
357.82	229.63
358.20	229.61
358.58	229.64
358.97	229.62
359.35	229.67
359.73	229.66
360.11	229.71
360.49	229.83
360.87	229.77
361.25	229.71
361.63	229.86
362.01	229.87
362.39	229.85
362.77	229.90
363.15	229.80
363.53	229.80
363.91	229.80
364.29	229.76
364.67	229.55
365.05	229.44
365.43	229.55
365.81	229.61
366.19	229.63
366.57	229.67
366.95	229.68
367.33	229.59
367.71	229.51
368.09	229.56
368.47	229.42
368.85	229.49
369.23	229.42
369.61	229.34
369.99	229.37
370.37	229.28
370.75	229.37
371.13	229.31
371.51	229.21
371.89	229.17
372.27	229.16
372.65	229.14
373.03	229.20
373.41	229.03
373.78	228.86
374.16	228.66
374.54	228.45
374.92	228.37
375.30	228.32
375.68	228.19
376.06	228.12
376.44	227.97
376.82	227.92
377.19	227.83
377.57	227.61
377.95	227.53
378.33	227.43
378.71	227.20
379.09	227.12
379.47	227.12
379.84	226.94
380.22	226.85
380.60	226.86
380.98	226.83
381.36	226.74
381.73	226.73
382.11	226.70
382.49	226.73
382.87	226.58
383.25	226.53
383.62	226.76
384.00	226.72
384.38	226.73
384.76	226.63
385.13	226.75
385.51	226.77
385.89	226.63
386.27	226.59
386.64	226.60
387.02	226.63
387.40	226.50
387.78	226.65
388.15	226.59
388.53	226.43
388.91	226.33
389.29	226.28
389.66	226.31
390.04	226.35
390.42	226.31
390.79	226.34
391.17	226.37
391.55	226.06
391.92	225.96
392.30	226.03
392.68	225.95
393.05	225.91
393.43	225.99
393.81	226.07
394.18	226.12
394.56	226.10
394.94	226.06
395.31	226.08
395.69	226.13
396.06	226.17
396.44	226.27
396.82	226.33
397.19	226.49
397.57	226.41
397.95	226.53
398.32	226.53
398.70	226.61
399.07	226.66
399.45	226.75
399.82	226.87
400.20	226.86
400.58	226.94
400.95	227.03
401.33	227.14
401.70	227.39
402.08	227.46
402.45	227.58
402.83	227.86
403.20	228.07
403.58	228.10
403.95	228.25
404.33	228.46
404.71	228.64
405.08	228.88
405.46	229.06
405.83	229.27
406.21	229.60
406.58	229.80
406.96	230.03
407.33	230.29
407.70	230.53
408.08	230.92
408.45	231.39
408.83	231.66
409.20	231.88
409.58	232.01
409.95	232.36
410.33	232.67
410.70	232.79
411.08	233.17
411.45	233.47
411.82	233.81
412.20	234.14
412.57	234.68
412.95	235.04
413.32	235.51
413.69	235.89
414.07	236.35
414.44	236.91
414.82	237.39
415.19	238.03
415.56	238.68
415.94	239.34
416.31	239.98
416.68	240.70
417.06	241.52
417.43	242.28
417.81	243.17
418.18	244.24
418.55	245.35
418.93	246.35
419.30	247.49
419.67	248.62
420.04	249.82
420.42	250.89
420.79	252.24
421.16	253.67
421.54	255.20
421.91	256.67
422.28	258.12
422.66	259.76
423.03	261.36
423.40	263.03
423.77	264.83
424.15	266.57
424.52	268.37
424.89	270.39
425.26	272.42
425.64	274.25
426.01	276.15
426.38	278.24
426.75	280.34
427.13	282.54
427.50	284.88
427.87	287.33
428.24	289.77
428.61	292.01
428.99	294.47
429.36	297.15
429.73	299.90
430.10	302.63
430.47	305.35
430.85	308.16
431.22	311.17
431.59	314.25
431.96	317.22
432.33	320.63
432.70	323.82
433.08	327.65
433.45	331.19
433.82	334.68
434.19	338.73
434.56	342.63
434.93	346.48
435.30	349.99
435.68	354.08
436.05	358.04
436.42	362.12
436.79	365.66
437.16	369.32
437.53	373.31
437.90	377.37
438.27	381.39
438.64	385.40
439.01	389.12
439.38	392.49
439.75	395.91
440.13	399.64
440.50	403.15
440.87	405.97
441.24	408.86
441.61	412.13
441.98	414.27
442.35	417.06
442.72	419.83
443.09	422.78
443.46	424.48
443.83	425.69
444.20	426.70
444.57	428.53
444.94	429.44
445.31	430.38
445.68	431.40
446.05	431.89
446.42	431.79
446.79	431.63
447.16	431.40
447.53	431.19
447.90	429.90
448.27	428.71
448.64	427.01
449.01	425.99
449.37	423.79
449.74	421.70
450.11	418.92
450.48	415.88
450.85	412.78
451.22	410.08
451.59	407.56
451.96	405.15
452.33	401.55
452.70	398.64
453.07	394.84
453.43	390.84
453.80	387.28
454.17	383.76
454.54	380.42
454.91	376.90
455.28	373.38
455.65	370.02
456.02	366.84
456.38	363.87
456.75	360.29
457.12	357.26
457.49	354.19
457.86	351.40
458.23	348.81
458.59	345.96
458.96	343.07
459.33	340.65
459.70	338.10
460.07	336.19
460.43	333.91
460.80	331.66
461.17	329.72
461.54	327.63
461.91	325.68
462.27	323.52
462.64	321.63
463.01	319.77
463.38	318.07
463.74	316.00
464.11	314.30
464.48	312.71
464.85	310.91
465.21	309.67
465.58	308.29
465.95	306.68
466.32	305.45
466.68	304.07
467.05	302.64
467.42	301.33
467.78	299.83
468.15	298.38
468.52	297.38
468.88	296.06
469.25	294.72
469.62	293.73
469.98	292.75
470.35	291.77
470.72	290.73
471.08	289.57
471.45	288.74
471.82	287.86
472.18	286.94
472.55	286.33
472.92	285.42
473.28	284.51
473.65	283.75
474.02	282.88
474.38	282.20
474.75	281.56
475.11	280.85
475.48	280.43
475.85	280.01
476.21	279.45
476.58	278.97
476.94	278.58
477.31	278.14
477.67	277.76
478.04	277.26
478.41	276.87
478.77	276.71
479.14	276.29
479.50	275.97
479.87	275.64
480.23	275.30
480.60	275.13
480.96	274.86
481.33	274.90
481.69	274.69
482.06	274.52
482.42	274.26
482.79	274.10
483.15	273.88
483.52	273.78
483.88	273.63
484.25	273.53
484.61	273.53
484.98	273.47
485.34	273.50
485.71	273.59
486.07	273.63
486.44	273.47
486.80	273.51
487.17	273.60
487.53	273.80
487.90	274.01
488.26	274.19
488.62	274.41
488.99	274.36
489.35	274.61
489.72	274.80
490.08	275.10
490.44	275.22
490.81	275.50
491.17	275.61
491.54	276.01
491.90	276.23
492.26	276.54
492.63	276.75
492.99	276.88
493.36	277.09
493.72	277.38
494.08	277.67
494.45	277.99
494.81	278.41
495.17	278.75
495.54	279.23
495.90	279.48
496.26	279.87
496.63	280.21
496.99	280.54
497.35	280.87
497.72	281.31
498.08	281.75
498.44	282.10
498.80	282.56
499.17	282.82
499.53	283.31
499.89	283.68
500.26	284.17
500.62	284.45
500.98	285.02
501.34	285.40
501.71	285.90
502.07	286.36
502.43	286.68
502.79	287.01
503.16	287.24
503.52	287.51
503.88	287.84
504.24	288.29
504.60	288.66
504.97	288.97
505.33	289.21
505.69	289.54
506.05	289.87
506.41	290.21
506.78	290.58
507.14	290.88
507.50	291.24
507.86	291.67
508.22	292.23
508.59	292.68
508.95	293.28
509.31	293.86
509.67	294.40
510.03	294.79
510.39	295.42
510.75	295.89
511.12	296.67
511.48	297.28
511.84	297.92
512.20	298.58
512.56	299.51
512.92	300.30
513.28	301.10
513.64	302.01
514.00	302.88
514.37	304.00
514.73	305.11
515.09	306.22
515.45	307.26
515.81	308.51
516.17	309.58
516.53	310.77
516.89	311.87
517.25	313.15
517.61	314.80
517.97	316.21
518.33	317.87
518.69	319.51
519.05	321.38
519.41	323.25
519.77	325.26
520.13	327.33
520.49	329.37
520.85	331.47
521.21	333.77
521.57	336.28
521.93	338.57
522.29	341.16
522.65	343.58
523.01	346.21
523.37	348.87
523.73	351.69
524.09	354.62
524.45	357.74
524.81	360.86
525.17	363.94
525.53	367.26
525.89	370.62
526.25	374.08
526.61	377.30
526.97	380.84
527.33	384.52
527.68	388.36
528.04	392.21
528.40	396.21
528.76	400.15
529.12	404.13
529.48	408.28
529.84	412.30
530.20	416.70
530.56	421.15
530.91	425.78
531.27	430.37
531.63	434.95
531.99	439.62
532.35	444.49
532.71	449.16
533.07	454.12
533.42	459.24
533.78	464.33
534.14	469.61
534.50	474.77
534.86	480.01
535.21	484.96
535.57	490.48
535.93	496.07
536.29	501.67
536.65	507.32
537.00	512.83
537.36	518.44
537.72	524.08
538.08	529.75
538.44	535.26
538.79	541.02
539.15	547.00
539.51	552.90
539.87	558.96
540.22	565.13
540.58	571.09
540.94	576.94
541.29	582.91
541.65	588.72
542.01	594.91
542.37	601.03
542.72	607.24
543.08	613.05
543.44	619.26
543.79	625.35
544.15	631.28
544.51	637.73
544.87	644.02
545.22	650.27
545.58	656.23
545.94	662.32
546.29	668.57
546.65	674.48
547.01	680.58
547.36	686.48
547.72	692.46
548.07	698.67
548.43	704.70
548.79	710.82
549.14	716.93
549.50	722.50
549.86	728.29
550.21	734.05
550.57	740.18
550.92	745.90
551.28	751.23
551.64	757.13
551.99	762.60
552.35	768.12
552.70	773.83
553.06	779.75
553.41	785.40
553.77	791.24
554.13	796.93
554.48	802.78
554.84	808.28
555.19	813.76
555.55	819.27
555.90	824.62
556.26	829.70
556.61	835.17
556.97	840.54
557.32	845.92
557.68	851.21
558.03	856.45
558.39	861.52
558.74	867.25
559.10	872.39
559.45	877.85
559.81	883.22
560.16	888.27
560.52	893.16
560.87	898.33
561.23	902.61
561.58	907.33
561.94	911.83
562.29	916.59
562.64	921.03
563.00	925.41
563.35	930.26
563.71	935.26
564.06	939.88
564.42	944.49
564.77	949.25
565.12	953.85
565.48	958.10
565.83	962.23
566.19	966.47
566.54	970.53
566.89	974.32
567.25	978.22
567.60	982.44
567.96	986.18
568.31	989.91
568.66	994.10
569.02	997.73
569.37	1001.17
569.72	1004.50
570.08	1007.77
570.43	1010.92
570.78	1013.99
571.14	1016.68
571.49	1019.61
571.84	1022.91
572.20	1024.84
572.55	1027.25
572.90	1029.83
573.26	1032.36
573.61	1034.76
573.96	1036.93
574.31	1038.74
574.67	1040.19
575.02	1041.38
575.37	1043.26
575.72	1044.39
576.08	1045.74
576.43	1047.16
576.78	1048.71
577.13	1050.20
577.49	1051.77
577.84	1053.07
578.19	1054.41
578.54	1055.58
578.90	1056.41
579.25	1056.58
579.60	1057.65
579.95	1058.15
580.30	1058.62
580.66	1059.32
581.01	1059.57
581.36	1059.91
581.71	1060.72
582.06	1061.42
582.42	1061.54
582.77	1061.77
583.12	1062.25
583.47	1062.62
583.82	1063.08
584.17	1063.04
584.53	1062.78
584.88	1062.84
585.23	1062.94
585.58	1062.52
585.93	1062.05
586.28	1062.12
586.63	1062.24
586.98	1062.39
587.34	1062.51
587.69	1062.38
588.04	1062.05
588.39	1061.90
588.74	1061.18
589.09	1060.35
589.44	1059.78
589.79	1059.64
590.14	1059.23
590.49	1058.46
590.84	1057.45
591.19	1056.26
591.54	1054.83
591.89	1053.20
592.25	1052.04
592.60	1050.12
592.95	1048.45
593.30	1047.34
593.65	1045.80
594.00	1043.98
594.35	1042.49
594.70	1040.51
595.05	1039.08
595.40	1037.12
595.75	1034.85
596.10	1033.48
596.45	1031.94
596.80	1030.56
597.15	1029.02
597.50	1027.11
597.85	1025.66
598.19	1024.09
598.54	1022.53
598.89	1021.05
599.24	1020.32
599.59	1018.47
599.94	1017.25
600.29	1015.63
600.64	1013.76
600.99	1011.60
601.34	1009.86
601.69	1007.49
602.04	1005.81
602.39	1003.50
602.74	1001.75
603.08	1000.10
603.43	998.37
603.78	996.37
604.13	993.92
604.48	991.61
604.83	989.53
605.18	987.33
605.53	984.89
605.87	982.16
606.22	979.73
606.57	977.04
606.92	974.81
607.27	972.58
607.62	970.50
607.96	968.15
608.31	965.70
608.66	963.21
609.01	960.70
609.36	957.35
609.70	954.31
610.05	951.29
610.40	948.26
610.75	944.98
611.10	941.65
611.44	938.37
611.79	935.39
612.14	932.24
612.49	928.84
612.83	925.50
613.18	922.41
613.53	919.69
613.88	916.15
614.22	912.80
614.57	909.22
614.92	906.06
615.27	902.72
615.61	899.31
615.96	895.89
616.31	892.72
616.65	890.36
617.00	887.53
617.35	884.59
617.70	881.34
618.04	877.92
618.39	874.88
618.74	871.90
619.08	868.57
619.43	865.50
619.78	862.44
620.12	859.26
620.47	856.08
620.82	852.46
621.16	849.43
621.51	846.24
621.85	843.13
622.20	839.48
622.55	836.23
622.89	833.20
623.24	830.39
623.59	827.29
623.93	824.20
624.28	820.93
624.62	817.70
624.97	814.84
625.32	811.99
625.66	809.25
626.01	806.17
626.35	802.75
626.70	799.41
627.04	796.36
627.39	793.37
627.73	790.19
628.08	787.07
628.43	783.80
628.77	780.60
629.12	777.07
629.46	773.85
629.81	770.54
630.15	767.13
630.50	763.70
630.84	759.85
631.19	756.04
631.53	752.77
631.88	749.34
632.22	745.47
632.57	742.13
632.91	738.41
633.26	734.89
633.60	731.25
633.95	727.71
634.29	724.29
634.64	721.04
634.98	717.99
635.32	714.88
635.67	711.80
636.01	708.62
636.36	705.47
636.70	702.36
637.05	699.20
637.39	696.22
637.73	693.04
638.08	690.52
638.42	687.53
638.77	684.41
639.11	681.27
639.45	678.60
639.80	675.35
640.14	672.33
640.49	669.52
640.83	666.90
641.17	663.86
641.52	660.70
641.86	657.38
642.20	654.27
642.55	651.07
642.89	648.04
643.23	645.05
643.58	642.32
643.92	639.22
644.26	636.09
644.61	633.16
644.95	630.20
645.29	626.85
645.64	623.84
645.98	620.72
646.32	617.89
646.66	614.63
647.01	611.71
647.35	608.77
647.69	605.69
648.04	602.82
648.38	599.95
648.72	596.76
649.06	593.90
649.41	590.86
649.75	587.77
650.09	584.83
650.43	581.61
650.78	578.59
651.12	575.55
651.46	572.67
651.80	569.62
652.14	566.68
652.49	564.00
652.83	561.13
653.17	558.27
653.51	555.18
653.85	552.44
654.20	549.61
654.54	546.59
654.88	543.44
655.22	540.35
655.56	537.46
655.90	534.89
656.25	531.92
656.59	529.13
656.93	526.59
657.27	523.73
657.61	520.98
657.95	518.37
658.29	515.90
658.64	513.25
658.98	510.63
659.32	507.91
659.66	505.06
660.00	502.57
660.34	499.84
660.68	497.31
661.02	494.52
661.36	492.10
661.70	489.69
662.05	487.51
662.39	485.21
662.73	482.76
663.07	480.39
663.41	478.10
663.75	475.91
664.09	473.51
664.43	471.35
664.77	469.32
665.11	466.88
665.45	464.70
665.79	462.45
666.13	460.16
666.47	458.05
666.81	455.93
667.15	453.49
667.49	451.40
667.83	449.37
668.17	447.35
668.51	445.21
668.85	443.05
669.19	440.90
669.53	438.91
669.87	437.03
670.21	435.19
670.55	433.36
670.89	431.61
671.23	429.76
671.57	427.81
671.91	425.75
672.25	423.88
672.58	422.02
672.92	420.20
673.26	418.35
673.60	416.53
673.94	414.72
674.28	413.20
674.62	411.72
674.96	410.02
675.30	408.39
675.64	406.59
675.97	404.98
676.31	403.38
676.65	401.73
676.99	400.06
677.33	398.19
677.67	396.42
678.01	394.46
678.34	392.86
678.68	391.29
679.02	389.72
679.36	388.21
679.70	386.59
680.04	385.02
680.37	383.65
680.71	382.10
681.05	380.81
681.39	379.32
681.73	377.77
682.06	376.39
682.40	375.05
682.74	373.71
683.08	372.40
683.42	371.02
683.75	369.65
684.09	368.19
684.43	366.92
684.77	365.60
685.10	364.21
685.44	362.90
685.78	361.52
686.12	360.24
686.45	358.82
686.79	357.35
687.13	356.14
687.46	354.79
687.80	353.47
688.14	351.95
688.48	350.75
688.81	349.45
689.15	348.08
689.49	346.73
689.82	345.55
690.16	344.19
690.50	342.98
690.83	341.78
691.17	340.50
691.51	339.27
691.84	338.13
692.18	337.11
692.52	335.85
692.85	334.63
693.19	333.40
693.52	332.38
693.86	331.31
694.20	330.12
694.53	329.02
694.87	327.89
695.21	326.81
695.54	325.53
695.88	324.32
696.21	323.18
696.55	322.15
696.88	321.00
697.22	319.96
697.56	318.88
697.89	317.89
698.23	316.99
698.56	316.08
698.90	315.18
699.23	313.97
699.57	312.89
699.90	311.92
700.24	311.03
700.58	310.00
700.91	309.02
701.25	308.23
701.58	307.38
701.92	306.51
702.25	305.66
702.59	304.84
702.92	304.06
703.26	303.24
703.59	302.39
703.93	301.68
704.26	301.01
704.60	300.25
704.93	299.47
705.26	298.58
705.60	297.63
705.93	296.78
706.27	296.20
706.60	295.56
706.94	294.93
707.27	294.16
707.61	293.47
707.94	292.88
708.27	292.07
708.61	291.27
708.94	290.55
709.28	289.85
709.61	289.33
709.94	288.71
710.28	288.00
710.61	287.39
710.95	286.56
711.28	285.92
711.61	285.29
711.95	284.63
712.28	284.06
712.61	283.57
712.95	283.00
713.28	282.38
713.61	281.69
713.95	280.98
714.28	280.33
714.61	279.76
714.95	279.15
715.28	278.55
715.61	278.03
715.95	277.59
716.28	277.04
716.61	276.26
716.95	275.71
717.28	275.22
717.61	274.70
717.94	274.20
718.28	273.54
718.61	273.04
718.94	272.56
719.27	272.09
719.61	271.66
719.94	271.18
720.27	270.66
720.60	270.24
720.94	269.92
721.27	269.55
721.60	269.19
721.93	268.81
722.27	268.48
722.60	268.05
722.93	267.57
723.26	267.30
723.59	267.01
723.93	266.60
724.26	266.25
724.59	265.79
724.92	265.48
725.25	265.06
725.59	264.69
725.92	264.22
726.25	263.84
726.58	263.46
726.91	262.98
727.24	262.76
727.57	262.44
727.91	262.02
728.24	261.65
728.57	261.23
728.90	260.87
729.23	260.50
729.56	260.23
729.89	259.89
730.22	259.44
730.55	259.06
730.89	258.65
731.22	258.35
731.55	258.09
731.88	257.58
732.21	257.32
732.54	256.91
732.87	256.60
733.20	256.40
733.53	256.08
733.86	255.81
734.19	255.40
734.52	255.15
734.85	254.92
735.18	254.68
735.51	254.40
735.84	254.14
736.17	253.92
736.50	253.58
736.83	253.61
737.16	253.38
737.49	253.12
737.82	252.93
738.15	252.64
738.48	252.38
738.81	252.24
739.14	251.89
739.47	251.67
739.80	251.45
740.13	251.12
740.46	250.79
740.79	250.57
741.12	250.36
741.45	250.08
741.78	249.84
742.11	249.60
742.44	249.31
742.77	249.05
743.10	248.70
743.43	248.36
743.75	247.80
744.08	247.74
744.41	247.44
744.74	247.24
745.07	247.03
745.40	246.78
745.73	246.71
746.06	246.56
746.39	246.27
746.71	246.01
747.04	245.79
747.37	245.62
747.70	245.48
748.03	245.30
748.36	245.19
748.68	244.87
749.01	244.52
749.34	244.27
749.67	244.04
750.00	243.99
750.33	244.02
750.65	243.95
750.98	243.59
751.31	243.40
751.64	243.25
751.97	243.06
752.29	242.94
752.62	242.73
752.95	242.66
753.28	242.60
753.60	242.50
753.93	242.46
754.26	242.40
754.59	242.10
754.91	241.98
755.24	241.77
755.57	241.66
755.90	241.64
756.22	241.59
756.55	241.43
756.88	241.22
757.20	240.89
757.53	240.66
757.86	240.53
758.19	240.50
758.51	240.37
758.84	240.21
759.17	240.11
759.49	239.93
759.82	239.82
760.15	239.71
760.47	239.63
760.80	239.41
761.13	239.25
761.45	239.27
761.78	239.16
762.11	239.09
762.43	238.97
762.76	238.86
763.08	238.80
763.41	238.66
763.74	238.55
764.06	238.45
764.39	238.37
764.71	238.16
765.04	237.93
765.37	237.78
765.69	237.69
766.02	237.50
766.34	237.28
766.67	237.09
767.00	237.03
767.32	236.90
767.65	236.95
767.97	236.88
768.30	236.80
768.62	236.71
768.95	236.56
769.27	236.55
769.60	236.49
769.92	236.39
770.25	236.28
770.57	236.12
770.90	236.08
771.22	235.91
771.55	235.90
771.87	235.98
772.20	235.86
772.52	235.95
772.85	236.13
773.17	236.17
773.50	236.10
773.82	236.00
774.15	235.92
774.47	235.69
774.80	235.49
775.12	235.37
775.45	235.12
775.77	235.12
776.09	234.95
776.42	234.92
776.74	234.84
777.07	234.78
777.39	234.80
777.72	234.72
778.04	234.77
778.36	234.71
778.69	234.58
779.01	234.54
779.33	234.37
779.66	234.04
779.98	233.91
780.31	233.90
780.63	233.90
780.95	233.82
781.28	233.83
781.60	233.88
781.92	233.79
782.25	233.80
782.57	233.71
782.89	233.61
783.22	233.41
783.54	233.37
783.86	233.37
784.19	233.39
784.51	233.36
784.83	233.19
785.16	233.14
785.48	233.16
785.80	233.11
786.12	232.99
786.45	232.98
786.77	233.02
787.09	232.90
787.42	232.73
787.74	232.77
788.06	232.63
788.38	232.55
788.71	232.50
789.03	232.50
789.35	232.50
789.67	232.49
789.99	232.55
790.32	232.46
790.64	232.43
790.96	232.37
791.28	232.33
791.61	232.40
791.93	232.40
792.25	232.40
