SpectraSuite Data File
++++++++++++++++++++++++++++++++++++
Date: Fri Feb 01 14:39:27 EST 2013
User: group
Dark Spectrum Present: No
Reference Spectrum Present: No
Number of Sampled Component Spectra: 1
Spectrometers: USB2E7196
Integration Time (usec): 70000 (USB2E7196)
Spectra Averaged: 10 (USB2E7196)
Boxcar Smoothing: 10 (USB2E7196)
Correct for Electrical Dark: No (USB2E7196)
Strobe/Lamp Enabled: No (USB2E7196)
Correct for Detector Non-linearity: No (USB2E7196)
Correct for Stray Light: No (USB2E7196)
Number of Pixels in Processed Spectrum: 2048
>>>>>Begin Processed Spectral Data<<<<<
339.09	0.00
339.48	217.30
339.86	218.40
340.24	220.20
340.63	220.20
341.01	225.10
341.39	222.70
341.78	225.60
342.16	226.20
342.54	226.00
342.93	214.91
343.31	225.78
343.69	226.30
344.07	226.76
344.46	227.18
344.84	227.53
345.22	227.67
345.60	228.00
345.99	228.11
346.37	228.18
346.75	228.26
347.13	228.27
347.52	228.23
347.90	228.28
348.28	228.28
348.66	228.32
349.05	228.33
349.43	228.41
349.81	228.38
350.19	228.40
350.57	228.41
350.96	228.50
351.34	228.53
351.72	228.52
352.10	228.59
352.48	228.54
352.87	228.57
353.25	228.57
353.63	228.56
354.01	228.62
354.39	228.66
354.77	228.77
355.15	228.88
355.54	228.99
355.92	228.91
356.30	229.10
356.68	229.24
357.06	229.16
357.44	229.13
357.82	229.22
358.20	229.28
358.58	229.38
358.97	229.33
359.35	229.40
359.73	229.53
360.11	229.53
360.49	229.65
360.87	229.70
361.25	229.70
361.63	229.79
362.01	229.79
362.39	229.76
362.77	229.70
363.15	229.80
363.53	229.85
363.91	229.95
364.29	229.87
364.67	229.73
365.05	229.80
365.43	229.87
365.81	229.82
366.19	229.87
366.57	229.86
366.95	229.83
367.33	229.85
367.71	229.86
368.09	229.87
368.47	229.83
368.85	229.77
369.23	229.88
369.61	229.80
369.99	229.84
370.37	229.88
370.75	229.96
371.13	229.77
371.51	229.57
371.89	229.46
372.27	229.36
372.65	229.33
373.03	229.33
373.41	229.25
373.78	229.22
374.16	229.02
374.54	228.81
374.92	228.69
375.30	228.54
375.68	228.37
376.06	228.30
376.44	228.21
376.82	228.23
377.19	228.04
377.57	227.99
377.95	227.83
378.33	227.84
378.71	227.65
379.09	227.61
379.47	227.56
379.84	227.61
380.22	227.58
380.60	227.42
380.98	227.32
381.36	227.17
381.73	227.11
382.11	227.16
382.49	227.20
382.87	227.25
383.25	227.21
383.62	227.38
384.00	227.18
384.38	227.15
384.76	227.09
385.13	227.21
385.51	227.10
385.89	227.00
386.27	226.86
386.64	226.92
387.02	226.86
387.40	226.89
387.78	226.77
388.15	226.67
388.53	226.67
388.91	226.60
389.29	226.60
389.66	226.58
390.04	226.56
390.42	226.50
390.79	226.45
391.17	226.45
391.55	226.25
391.92	226.44
392.30	226.40
392.68	226.26
393.05	226.31
393.43	226.30
393.81	226.29
394.18	226.26
394.56	226.24
394.94	226.29
395.31	226.23
395.69	226.33
396.06	226.44
396.44	226.43
396.82	226.38
397.19	226.45
397.57	226.49
397.95	226.43
398.32	226.43
398.70	226.47
399.07	226.45
399.45	226.56
399.82	226.51
400.20	226.60
400.58	226.70
400.95	226.63
401.33	226.76
401.70	227.01
402.08	227.12
402.45	227.18
402.83	227.35
403.20	227.50
403.58	227.51
403.95	227.73
404.33	227.93
404.71	228.17
405.08	228.59
405.46	228.75
405.83	229.06
406.21	229.19
406.58	229.38
406.96	229.69
407.33	229.74
407.70	229.96
408.08	230.30
408.45	230.67
408.83	230.90
409.20	231.17
409.58	231.35
409.95	231.58
410.33	231.90
410.70	232.01
411.08	232.40
411.45	232.74
411.82	233.00
412.20	233.32
412.57	233.85
412.95	234.00
413.32	234.36
413.69	234.71
414.07	235.10
414.44	235.58
414.82	236.00
415.19	236.62
415.56	237.14
415.94	237.54
416.31	238.09
416.68	238.72
417.06	239.51
417.43	240.21
417.81	241.07
418.18	241.82
418.55	242.79
418.93	243.63
419.30	244.48
419.67	245.40
420.04	246.38
420.42	247.30
420.79	248.53
421.16	249.79
421.54	250.99
421.91	252.38
422.28	253.63
422.66	254.90
423.03	256.38
423.40	257.73
423.77	259.32
424.15	260.77
424.52	262.44
424.89	263.96
425.26	265.63
425.64	267.11
426.01	268.86
426.38	270.45
426.75	272.22
427.13	274.17
427.50	276.09
427.87	278.15
428.24	280.07
428.61	281.93
428.99	283.99
429.36	286.27
429.73	288.40
430.10	290.67
430.47	293.06
430.85	295.21
431.22	297.61
431.59	300.29
431.96	302.75
432.33	305.29
432.70	307.98
433.08	311.01
433.45	314.06
433.82	316.95
434.19	320.32
434.56	323.48
434.93	326.37
435.30	329.24
435.68	332.45
436.05	335.70
436.42	338.92
436.79	341.74
437.16	344.93
437.53	348.36
437.90	351.54
438.27	354.69
438.64	358.04
439.01	361.15
439.38	363.60
439.75	366.38
440.13	369.20
440.50	371.96
440.87	374.27
441.24	376.35
441.61	378.86
441.98	380.70
442.35	382.86
442.72	385.21
443.09	387.66
443.46	388.99
443.83	389.98
444.20	390.61
444.57	391.72
444.94	392.06
445.31	392.65
445.68	393.18
446.05	393.49
446.42	393.25
446.79	393.07
447.16	392.93
447.53	392.54
447.90	391.58
448.27	390.63
448.64	388.93
449.01	387.99
449.37	385.98
449.74	384.14
450.11	381.91
450.48	379.35
450.85	376.39
451.22	374.11
451.59	371.93
451.96	370.08
452.33	367.20
452.70	364.77
453.07	361.65
453.43	358.60
453.80	355.68
454.17	352.78
454.54	349.97
454.91	346.86
455.28	343.93
455.65	341.13
456.02	338.42
456.38	335.99
456.75	333.12
457.12	330.50
457.49	327.89
457.86	325.42
458.23	323.29
458.59	321.09
458.96	318.89
459.33	316.73
459.70	314.58
460.07	312.94
460.43	311.02
460.80	309.18
461.17	307.49
461.54	305.72
461.91	304.08
462.27	302.46
462.64	301.10
463.01	299.51
463.38	298.12
463.74	296.46
464.11	295.17
464.48	293.86
464.85	292.70
465.21	291.70
465.58	290.59
465.95	289.20
466.32	288.12
466.68	286.88
467.05	285.79
467.42	284.70
467.78	283.55
468.15	282.42
468.52	281.55
468.88	280.52
469.25	279.42
469.62	278.62
469.98	277.75
470.35	276.84
470.72	276.25
471.08	275.40
471.45	274.74
471.82	274.14
472.18	273.46
472.55	272.81
472.92	272.03
473.28	271.29
473.65	270.74
474.02	270.28
474.38	269.76
474.75	269.28
475.11	268.68
475.48	268.30
475.85	267.84
476.21	267.40
476.58	266.92
476.94	266.57
477.31	266.18
477.67	265.61
478.04	265.23
478.41	264.82
478.77	264.68
479.14	264.19
479.50	263.78
479.87	263.52
480.23	263.33
480.60	263.12
480.96	262.98
481.33	262.84
481.69	262.57
482.06	262.35
482.42	262.16
482.79	261.86
483.15	261.82
483.52	261.80
483.88	261.68
484.25	261.58
484.61	261.50
484.98	261.34
485.34	261.45
485.71	261.44
486.07	261.47
486.44	261.34
486.80	261.48
487.17	261.47
487.53	261.52
487.90	261.58
488.26	261.68
488.62	261.87
488.99	261.92
489.35	262.02
489.72	262.15
490.08	262.26
490.44	262.50
490.81	262.54
491.17	262.67
491.54	262.81
491.90	263.13
492.26	263.29
492.63	263.52
492.99	263.77
493.36	264.04
493.72	264.30
494.08	264.49
494.45	264.74
494.81	265.12
495.17	265.41
495.54	265.88
495.90	266.18
496.26	266.46
496.63	266.96
496.99	267.40
497.35	267.96
497.72	268.56
498.08	269.10
498.44	269.66
498.80	270.20
499.17	270.82
499.53	271.36
499.89	272.07
500.26	272.74
500.62	273.24
500.98	274.05
501.34	274.80
501.71	275.58
502.07	276.31
502.43	277.14
502.79	278.06
503.16	278.80
503.52	279.78
503.88	280.62
504.24	281.54
504.60	282.52
504.97	283.50
505.33	284.50
505.69	285.59
506.05	286.87
506.41	288.20
506.78	289.46
507.14	290.72
507.50	292.11
507.86	293.58
508.22	295.18
508.59	296.77
508.95	298.44
509.31	300.38
509.67	302.26
510.03	304.10
510.39	305.96
510.75	308.03
511.12	310.09
511.48	312.27
511.84	314.45
512.20	316.75
512.56	319.15
512.92	321.60
513.28	324.35
513.64	326.98
514.00	329.65
514.37	332.56
514.73	335.41
515.09	338.50
515.45	341.58
515.81	344.95
516.17	348.20
516.53	351.55
516.89	354.90
517.25	358.42
517.61	362.06
517.97	365.77
518.33	369.50
518.69	373.35
519.05	377.44
519.41	381.43
519.77	385.82
520.13	390.28
520.49	394.80
520.85	399.22
521.21	403.91
521.57	408.67
521.93	413.49
522.29	418.61
522.65	423.52
523.01	428.68
523.37	433.69
523.73	438.88
524.09	444.17
524.45	449.57
524.81	455.16
525.17	461.02
525.53	466.74
525.89	472.50
526.25	478.57
526.61	484.34
526.97	490.56
527.33	496.63
527.68	503.02
528.04	509.35
528.40	515.89
528.76	522.32
529.12	528.99
529.48	535.68
529.84	542.34
530.20	549.32
530.56	556.34
530.91	563.60
531.27	570.70
531.63	578.00
531.99	585.39
532.35	592.55
532.71	599.69
533.07	607.22
533.42	614.87
533.78	622.22
534.14	630.22
534.50	637.70
534.86	645.52
535.21	652.93
535.57	660.80
535.93	668.57
536.29	676.46
536.65	684.45
537.00	692.14
537.36	700.00
537.72	707.86
538.08	715.83
538.44	723.67
538.79	731.53
539.15	739.41
539.51	747.26
539.87	755.61
540.22	763.56
540.58	771.61
540.94	779.70
541.29	787.93
541.65	795.72
542.01	804.15
542.37	812.57
542.72	820.47
543.08	828.28
543.44	836.33
543.79	843.90
544.15	851.81
544.51	860.27
544.87	868.46
545.22	876.24
545.58	884.08
545.94	891.48
546.29	899.30
546.65	907.03
547.01	914.63
547.36	922.06
547.72	929.58
548.07	936.98
548.43	944.24
548.79	951.43
549.14	958.55
549.50	965.34
549.86	971.63
550.21	978.82
550.57	985.79
550.92	992.54
551.28	999.32
551.64	1005.99
551.99	1012.30
552.35	1018.79
552.70	1025.38
553.06	1031.92
553.41	1038.87
553.77	1045.10
554.13	1051.57
554.48	1058.09
554.84	1064.43
555.19	1070.76
555.55	1076.95
555.90	1083.03
556.26	1089.15
556.61	1095.44
556.97	1101.20
557.32	1107.23
557.68	1113.12
558.03	1118.86
558.39	1124.69
558.74	1130.87
559.10	1136.50
559.45	1142.11
559.81	1147.97
560.16	1153.45
560.52	1158.58
560.87	1163.88
561.23	1169.17
561.58	1174.30
561.94	1178.86
562.29	1183.23
562.64	1187.61
563.00	1192.38
563.35	1197.40
563.71	1202.60
564.06	1207.00
564.42	1211.87
564.77	1216.65
565.12	1221.31
565.48	1225.82
565.83	1230.08
566.19	1234.10
566.54	1238.17
566.89	1242.10
567.25	1245.82
567.60	1249.94
567.96	1253.73
568.31	1257.20
568.66	1261.15
569.02	1264.51
569.37	1267.70
569.72	1271.01
570.08	1274.48
570.43	1277.15
570.78	1279.61
571.14	1281.53
571.49	1284.33
571.84	1286.97
572.20	1289.09
572.55	1290.91
572.90	1292.80
573.26	1294.91
573.61	1296.75
573.96	1298.04
574.31	1299.44
574.67	1300.16
575.02	1300.98
575.37	1302.41
575.72	1303.01
576.08	1303.51
576.43	1304.29
576.78	1305.66
577.13	1307.00
577.49	1307.87
577.84	1308.66
578.19	1309.10
578.54	1309.75
578.90	1309.60
579.25	1309.65
579.60	1309.41
579.95	1309.29
580.30	1308.87
580.66	1308.31
581.01	1307.67
581.36	1307.58
581.71	1307.49
582.06	1307.40
582.42	1306.61
582.77	1305.51
583.12	1304.84
583.47	1304.29
583.82	1303.62
584.17	1302.59
584.53	1301.63
584.88	1300.36
585.23	1299.31
585.58	1298.73
585.93	1297.54
586.28	1296.80
586.63	1295.74
586.98	1294.92
587.34	1293.69
587.69	1292.93
588.04	1291.50
588.39	1290.59
588.74	1288.45
589.09	1286.25
589.44	1284.51
589.79	1283.38
590.14	1281.83
590.49	1280.52
590.84	1278.41
591.19	1276.50
591.54	1274.26
591.89	1271.41
592.25	1269.22
592.60	1266.45
592.95	1263.41
593.30	1260.67
593.65	1258.00
594.00	1255.20
594.35	1252.98
594.70	1250.13
595.05	1247.46
595.40	1244.79
595.75	1241.54
596.10	1239.53
596.45	1237.41
596.80	1235.07
597.15	1231.98
597.50	1229.41
597.85	1226.80
598.19	1224.53
598.54	1221.98
598.89	1219.30
599.24	1217.11
599.59	1214.50
599.94	1212.31
600.29	1209.77
600.64	1207.14
600.99	1204.05
601.34	1201.28
601.69	1198.00
602.04	1195.48
602.39	1192.42
602.74	1189.89
603.08	1187.56
603.43	1184.75
603.78	1181.90
604.13	1178.81
604.48	1176.22
604.83	1173.42
605.18	1170.23
605.53	1166.70
605.87	1162.98
606.22	1159.80
606.57	1156.13
606.92	1153.00
607.27	1150.00
607.62	1147.24
607.96	1144.08
608.31	1141.18
608.66	1137.55
609.01	1133.69
609.36	1129.77
609.70	1125.69
610.05	1121.61
610.40	1117.58
610.75	1113.65
611.10	1109.32
611.44	1104.92
611.79	1100.88
612.14	1096.57
612.49	1091.85
612.83	1087.66
613.18	1083.31
613.53	1079.19
613.88	1075.10
614.22	1070.55
614.57	1065.74
614.92	1060.98
615.27	1056.95
615.61	1052.51
615.96	1048.43
616.31	1044.51
616.65	1040.89
617.00	1037.07
617.35	1032.99
617.70	1028.86
618.04	1024.18
618.39	1020.20
618.74	1016.09
619.08	1011.40
619.43	1007.07
619.78	1003.44
620.12	999.45
620.47	995.51
620.82	990.90
621.16	986.59
621.51	982.68
621.85	978.67
622.20	974.29
622.55	969.93
622.89	965.59
623.24	961.51
623.59	957.53
623.93	953.30
624.28	949.17
624.62	944.76
624.97	940.78
625.32	937.16
625.66	933.27
626.01	929.43
626.35	925.51
626.70	921.16
627.04	917.15
627.39	912.98
627.73	908.95
628.08	905.03
628.43	900.83
628.77	896.61
629.12	892.29
629.46	888.05
629.81	883.64
630.15	879.14
630.50	874.78
630.84	869.92
631.19	865.26
631.53	860.48
631.88	855.89
632.22	850.78
632.57	846.39
632.91	841.84
633.26	837.30
633.60	832.92
633.95	829.08
634.29	824.54
634.64	820.35
634.98	815.92
635.32	812.10
635.67	808.45
636.01	804.31
636.36	800.37
636.70	796.53
637.05	792.78
637.39	789.29
637.73	785.53
638.08	782.24
638.42	778.66
638.77	775.20
639.11	771.73
639.45	768.19
639.80	764.26
640.14	760.32
640.49	756.58
640.83	752.85
641.17	748.81
641.52	745.23
641.86	741.44
642.20	738.04
642.55	734.07
642.89	730.29
643.23	726.47
643.58	722.97
643.92	719.20
644.26	715.27
644.61	711.71
644.95	707.82
645.29	703.79
645.64	699.72
645.98	695.94
646.32	692.46
646.66	688.84
647.01	685.20
647.35	681.56
647.69	677.91
648.04	674.34
648.38	670.48
648.72	666.60
649.06	662.91
649.41	659.07
649.75	655.29
650.09	651.35
650.43	647.70
650.78	643.86
651.12	640.13
651.46	636.60
651.80	632.82
652.14	629.42
652.49	626.07
652.83	622.70
653.17	619.11
653.51	615.13
653.85	611.61
654.20	607.94
654.54	604.31
654.88	600.60
655.22	596.87
655.56	593.36
655.90	589.95
656.25	586.57
656.59	583.29
656.93	580.10
657.27	576.88
657.61	573.45
657.95	570.22
658.29	567.21
658.64	563.95
658.98	560.57
659.32	557.08
659.66	553.70
660.00	550.38
660.34	547.20
660.68	544.18
661.02	541.12
661.36	538.24
661.70	535.43
662.05	532.62
662.39	530.07
662.73	527.35
663.07	524.76
663.41	521.91
663.75	519.05
664.09	516.29
664.43	513.50
664.77	510.77
665.11	508.17
665.45	505.41
665.79	502.61
666.13	499.90
666.47	497.36
666.81	494.86
667.15	492.21
667.49	489.63
667.83	487.35
668.17	484.85
668.51	482.28
668.85	479.66
669.19	477.43
669.53	474.85
669.87	472.23
670.21	469.54
670.55	467.11
670.89	464.90
671.23	462.60
671.57	460.35
671.91	458.24
672.25	455.82
672.58	453.47
672.92	451.31
673.26	449.22
673.60	446.92
673.94	444.72
674.28	442.75
674.62	440.87
674.96	438.87
675.30	436.88
675.64	434.72
675.97	432.85
676.31	430.75
676.65	428.79
676.99	427.09
677.33	425.23
677.67	423.25
678.01	421.10
678.34	419.09
678.68	417.30
679.02	415.26
679.36	413.31
679.70	411.55
680.04	409.86
680.37	408.01
680.71	406.27
681.05	404.60
681.39	402.98
681.73	401.26
682.06	399.38
682.40	397.67
682.74	396.21
683.08	394.61
683.42	392.88
683.75	391.15
684.09	389.35
684.43	387.69
684.77	386.06
685.10	384.50
685.44	383.02
685.78	381.24
686.12	379.69
686.45	378.18
686.79	376.60
687.13	374.90
687.46	373.49
687.80	372.01
688.14	370.46
688.48	368.91
688.81	367.50
689.15	366.04
689.49	364.46
689.82	363.02
690.16	361.46
690.50	360.12
690.83	358.64
691.17	357.37
691.51	355.95
691.84	354.68
692.18	353.42
692.52	352.03
692.85	350.75
693.19	349.48
693.52	348.19
693.86	346.76
694.20	345.49
694.53	344.09
694.87	342.72
695.21	341.26
695.54	339.98
695.88	338.53
696.21	337.25
696.55	336.12
696.88	334.76
697.22	333.42
697.56	332.28
697.89	331.21
698.23	330.00
698.56	328.84
698.90	327.64
699.23	326.20
699.57	325.02
699.90	323.70
700.24	322.49
700.58	321.27
700.91	320.21
701.25	319.25
701.58	318.26
701.92	317.32
702.25	316.39
702.59	315.38
702.92	314.40
703.26	313.36
703.59	312.36
703.93	311.63
704.26	310.73
704.60	309.65
704.93	308.65
705.26	307.65
705.60	306.71
705.93	305.82
706.27	305.17
706.60	304.39
706.94	303.79
707.27	303.01
707.61	302.28
707.94	301.58
708.27	300.63
708.61	299.70
708.94	298.93
709.28	298.29
709.61	297.55
709.94	296.90
710.28	296.26
710.61	295.52
710.95	294.50
711.28	293.86
711.61	293.07
711.95	292.42
712.28	291.78
712.61	291.10
712.95	290.41
713.28	289.69
713.61	288.91
713.95	288.11
714.28	287.32
714.61	286.65
714.95	285.91
715.28	285.25
715.61	284.69
715.95	284.07
716.28	283.30
716.61	282.71
716.95	282.10
717.28	281.50
717.61	281.00
717.94	280.47
718.28	279.82
718.61	279.24
718.94	278.73
719.27	278.16
719.61	277.69
719.94	277.25
720.27	276.74
720.60	276.22
720.94	275.70
721.27	275.39
721.60	274.90
721.93	274.52
722.27	274.20
722.60	273.64
722.93	273.02
723.26	272.63
723.59	272.15
723.93	271.61
724.26	271.16
724.59	270.60
724.92	270.20
725.25	269.79
725.59	269.43
725.92	268.99
726.25	268.59
726.58	268.11
726.91	267.60
727.24	267.15
727.57	266.77
727.91	266.25
728.24	265.67
728.57	265.21
728.90	264.70
729.23	264.18
729.56	263.88
729.89	263.57
730.22	263.10
730.55	262.55
730.89	262.22
731.22	261.82
731.55	261.55
731.88	261.12
732.21	260.74
732.54	260.33
732.87	259.78
733.20	259.42
733.53	259.08
733.86	258.84
734.19	258.53
734.52	258.20
734.85	258.17
735.18	257.84
735.51	257.54
735.84	257.27
736.17	257.08
736.50	256.70
736.83	256.59
737.16	256.28
737.49	255.98
737.82	255.63
738.15	255.30
738.48	254.99
738.81	254.77
739.14	254.47
739.47	254.21
739.80	254.12
740.13	253.87
740.46	253.55
740.79	253.30
741.12	252.97
741.45	252.66
741.78	252.31
742.11	252.31
742.44	252.05
742.77	251.77
743.10	251.39
743.43	251.16
743.75	250.67
744.08	250.69
744.41	250.48
744.74	250.21
745.07	249.92
745.40	249.64
745.73	249.49
746.06	249.33
746.39	249.21
746.71	248.85
747.04	248.61
747.37	248.38
747.70	248.12
748.03	247.93
748.36	247.77
748.68	247.44
749.01	246.98
749.34	246.90
749.67	246.77
750.00	246.56
750.33	246.49
750.65	246.38
750.98	245.90
751.31	245.78
751.64	245.59
751.97	245.53
752.29	245.32
752.62	245.09
752.95	244.78
753.28	244.49
753.60	244.20
753.93	244.13
754.26	244.07
754.59	243.78
754.91	243.61
755.24	243.39
755.57	243.23
755.90	243.06
756.22	242.77
756.55	242.45
756.88	242.26
757.20	241.95
757.53	241.66
757.86	241.56
758.19	241.35
758.51	241.25
758.84	240.93
759.17	240.82
759.49	240.67
759.82	240.65
760.15	240.50
760.47	240.56
760.80	240.25
761.13	240.05
761.45	239.86
761.78	239.64
762.11	239.48
762.43	239.41
762.76	239.27
763.08	239.10
763.41	239.04
763.74	238.96
764.06	238.87
764.39	238.76
764.71	238.60
765.04	238.47
765.37	238.28
765.69	238.24
766.02	238.04
766.34	237.78
766.67	237.65
767.00	237.59
767.32	237.56
767.65	237.53
767.97	237.39
768.30	237.31
768.62	237.31
768.95	237.24
769.27	237.12
769.60	237.10
769.92	237.05
770.25	236.94
770.57	236.79
770.90	236.69
771.22	236.57
771.55	236.55
771.87	236.51
772.20	236.35
772.52	236.52
772.85	236.62
773.17	236.71
773.50	236.63
773.82	236.50
774.15	236.36
774.47	236.20
774.80	236.27
775.12	236.33
775.45	236.14
775.77	236.19
776.09	236.10
776.42	236.01
776.74	235.98
777.07	235.85
777.39	235.79
777.72	235.70
778.04	235.63
778.36	235.50
778.69	235.47
779.01	235.55
779.33	235.29
779.66	235.08
779.98	235.00
780.31	234.95
780.63	235.02
780.95	234.96
781.28	234.95
781.60	234.75
781.92	234.66
782.25	234.62
782.57	234.53
782.89	234.47
783.22	234.38
783.54	234.29
783.86	234.39
784.19	234.25
784.51	234.23
784.83	234.18
785.16	234.16
785.48	234.07
785.80	234.03
786.12	234.02
786.45	234.06
786.77	233.85
787.09	233.68
787.42	233.46
787.74	233.40
788.06	233.34
788.38	233.31
788.71	233.12
789.03	233.09
789.35	233.00
789.67	232.89
789.99	232.85
