SpectraSuite Data File
++++++++++++++++++++++++++++++++++++
Date: Fri Feb 01 14:36:03 EST 2013
User: group
Dark Spectrum Present: No
Reference Spectrum Present: No
Number of Sampled Component Spectra: 1
Spectrometers: USB2E7196
Integration Time (usec): 70000 (USB2E7196)
Spectra Averaged: 10 (USB2E7196)
Boxcar Smoothing: 10 (USB2E7196)
Correct for Electrical Dark: No (USB2E7196)
Strobe/Lamp Enabled: No (USB2E7196)
Correct for Detector Non-linearity: No (USB2E7196)
Correct for Stray Light: No (USB2E7196)
Number of Pixels in Processed Spectrum: 2048
>>>>>Begin Processed Spectral Data<<<<<
339.09	0.00
339.48	215.60
339.86	217.30
340.24	218.60
340.63	220.90
341.01	222.90
341.39	223.90
341.78	224.70
342.16	225.90
342.54	225.40
342.93	214.13
343.31	224.94
343.69	225.45
344.07	225.91
344.46	226.30
344.84	226.64
345.22	226.87
345.60	227.10
345.99	227.33
346.37	227.35
346.75	227.47
347.13	227.57
347.52	227.60
347.90	227.68
348.28	227.81
348.66	227.92
349.05	227.90
349.43	227.90
349.81	227.97
350.19	228.03
350.57	227.98
350.96	228.10
351.34	228.23
351.72	228.37
352.10	228.48
352.48	228.56
352.87	228.67
353.25	228.77
353.63	228.83
354.01	228.78
354.39	228.99
354.77	229.09
355.15	229.22
355.54	229.31
355.92	229.35
356.30	229.28
356.68	229.40
357.06	229.44
357.44	229.50
357.82	229.60
358.20	229.63
358.58	229.77
358.97	229.80
359.35	229.77
359.73	229.89
360.11	229.94
360.49	230.10
360.87	230.04
361.25	230.10
361.63	230.18
362.01	230.21
362.39	230.16
362.77	230.21
363.15	230.23
363.53	230.33
363.91	230.31
364.29	230.42
364.67	230.29
365.05	230.36
365.43	230.47
365.81	230.30
366.19	230.41
366.57	230.40
366.95	230.35
367.33	230.30
367.71	230.20
368.09	230.17
368.47	229.99
368.85	229.98
369.23	229.94
369.61	229.86
369.99	229.87
370.37	229.82
370.75	229.80
371.13	229.72
371.51	229.61
371.89	229.64
372.27	229.50
372.65	229.48
373.03	229.44
373.41	229.33
373.78	229.37
374.16	229.16
374.54	229.05
374.92	228.93
375.30	228.83
375.68	228.71
376.06	228.67
376.44	228.62
376.82	228.65
377.19	228.48
377.57	228.33
377.95	228.13
378.33	228.07
378.71	227.92
379.09	227.90
379.47	227.82
379.84	227.68
380.22	227.64
380.60	227.46
380.98	227.30
381.36	227.25
381.73	227.20
382.11	227.17
382.49	227.14
382.87	227.10
383.25	227.14
383.62	227.32
384.00	227.18
384.38	227.20
384.76	227.10
385.13	227.12
385.51	227.06
385.89	227.14
386.27	227.13
386.64	227.05
387.02	226.99
387.40	226.86
387.78	226.89
388.15	226.84
388.53	226.88
388.91	226.92
389.29	226.81
389.66	226.84
390.04	226.84
390.42	226.83
390.79	226.85
391.17	226.85
391.55	226.68
391.92	226.66
392.30	226.78
392.68	226.78
393.05	226.85
393.43	227.00
393.81	227.04
394.18	227.04
394.56	227.10
394.94	227.07
395.31	227.24
395.69	227.26
396.06	227.36
396.44	227.48
396.82	227.50
397.19	227.80
397.57	228.02
397.95	228.18
398.32	228.20
398.70	228.36
399.07	228.57
399.45	228.73
399.82	228.93
400.20	228.85
400.58	228.98
400.95	229.07
401.33	229.22
401.70	229.51
402.08	229.68
402.45	229.83
402.83	230.05
403.20	230.27
403.58	230.53
403.95	230.81
404.33	231.18
404.71	231.46
405.08	231.76
405.46	231.91
405.83	232.20
406.21	232.58
406.58	232.89
406.96	233.19
407.33	233.51
407.70	233.86
408.08	234.49
408.45	234.92
408.83	235.40
409.20	235.84
409.58	236.19
409.95	236.76
410.33	237.29
410.70	237.71
411.08	238.22
411.45	238.82
411.82	239.31
412.20	239.84
412.57	240.61
412.95	241.16
413.32	241.94
413.69	242.70
414.07	243.65
414.44	244.66
414.82	245.66
415.19	246.80
415.56	248.00
415.94	249.10
416.31	250.45
416.68	251.82
417.06	253.30
417.43	254.79
417.81	256.49
418.18	258.36
418.55	260.31
418.93	262.26
419.30	264.22
419.67	266.37
420.04	268.54
420.42	270.76
420.79	273.35
421.16	276.01
421.54	278.77
421.91	281.57
422.28	284.39
422.66	287.47
423.03	290.41
423.40	293.57
423.77	297.02
424.15	300.40
424.52	303.97
424.89	307.87
425.26	311.63
425.64	315.09
426.01	318.80
426.38	322.99
426.75	327.18
427.13	331.45
427.50	335.98
427.87	340.81
428.24	345.54
428.61	350.12
428.99	354.84
429.36	360.34
429.73	365.55
430.10	370.88
430.47	376.04
430.85	381.67
431.22	387.48
431.59	393.71
431.96	399.62
432.33	406.14
432.70	412.32
433.08	419.92
433.45	426.75
433.82	433.74
434.19	441.33
434.56	448.83
434.93	456.05
435.30	463.26
435.68	471.05
436.05	478.92
436.42	486.62
436.79	493.87
437.16	501.34
437.53	509.39
437.90	517.29
438.27	525.18
438.64	533.23
439.01	540.93
439.38	547.48
439.75	553.77
440.13	561.12
440.50	568.18
440.87	573.83
441.24	579.94
441.61	586.67
441.98	591.68
442.35	597.51
442.72	603.28
443.09	609.10
443.46	612.86
443.83	615.52
444.20	617.91
444.57	621.11
444.94	623.16
445.31	625.08
445.68	626.72
446.05	627.97
446.42	628.06
446.79	627.92
447.16	627.73
447.53	628.21
447.90	626.27
448.27	624.22
448.64	620.93
449.01	619.10
449.37	614.76
449.74	610.43
450.11	605.05
450.48	599.45
450.85	593.51
451.22	588.40
451.59	583.70
451.96	579.30
452.33	572.84
452.70	566.81
453.07	559.81
453.43	552.82
453.80	545.93
454.17	539.11
454.54	532.65
454.91	525.62
455.28	518.72
455.65	512.29
456.02	505.82
456.38	500.25
456.75	493.26
457.12	487.40
457.49	481.83
457.86	476.30
458.23	471.47
458.59	465.95
458.96	460.49
459.33	455.59
459.70	450.64
460.07	447.00
460.43	442.74
460.80	438.34
461.17	434.69
461.54	430.85
461.91	427.02
462.27	422.95
462.64	419.72
463.01	416.00
463.38	412.36
463.74	408.73
464.11	405.64
464.48	402.75
464.85	399.83
465.21	397.33
465.58	394.90
465.95	391.99
466.32	389.70
466.68	387.24
467.05	384.70
467.42	382.13
467.78	379.37
468.15	376.60
468.52	374.81
468.88	372.39
469.25	370.25
469.62	368.56
469.98	366.79
470.35	365.01
470.72	363.26
471.08	361.48
471.45	360.03
471.82	358.31
472.18	356.59
472.55	355.20
472.92	353.69
473.28	352.38
473.65	351.08
474.02	349.61
474.38	348.43
474.75	347.32
475.11	346.25
475.48	345.34
475.85	344.68
476.21	343.82
476.58	343.17
476.94	342.44
477.31	341.72
477.67	341.16
478.04	340.59
478.41	340.28
478.77	339.98
479.14	339.47
479.50	339.33
479.87	339.25
480.23	339.10
480.60	338.88
480.96	338.55
481.33	338.46
481.69	338.42
482.06	338.40
482.42	338.33
482.79	338.32
483.15	338.50
483.52	338.84
483.88	339.08
484.25	339.27
484.61	339.68
484.98	340.00
485.34	340.39
485.71	340.87
486.07	341.37
486.44	341.82
486.80	342.54
487.17	343.22
487.53	343.94
487.90	344.69
488.26	345.64
488.62	346.58
488.99	347.40
489.35	348.23
489.72	349.20
490.08	350.36
490.44	351.51
490.81	352.80
491.17	353.87
491.54	355.13
491.90	356.39
492.26	357.75
492.63	359.18
492.99	360.58
493.36	362.12
493.72	363.60
494.08	365.18
494.45	366.81
494.81	368.37
495.17	370.05
495.54	371.80
495.90	373.44
496.26	375.13
496.63	377.05
496.99	379.00
497.35	381.05
497.72	382.88
498.08	384.90
498.44	386.88
498.80	388.96
499.17	391.03
499.53	392.97
499.89	394.84
500.26	396.69
500.62	398.39
500.98	400.34
501.34	402.17
501.71	404.09
502.07	405.81
502.43	407.59
502.79	409.35
503.16	411.02
503.52	412.80
503.88	414.50
504.24	416.20
504.60	418.00
504.97	419.71
505.33	421.34
505.69	423.11
506.05	424.62
506.41	426.04
506.78	427.56
507.14	429.00
507.50	430.31
507.86	431.78
508.22	433.37
508.59	434.73
508.95	436.19
509.31	437.47
509.67	438.85
510.03	440.06
510.39	441.18
510.75	442.42
511.12	443.43
511.48	444.40
511.84	445.28
512.20	446.12
512.56	446.91
512.92	447.92
513.28	448.52
513.64	449.27
514.00	449.87
514.37	450.44
514.73	451.14
515.09	451.85
515.45	452.44
515.81	452.98
516.17	453.46
516.53	453.93
516.89	454.40
517.25	454.75
517.61	455.12
517.97	455.33
518.33	455.56
518.69	456.03
519.05	456.55
519.41	456.94
519.77	457.45
520.13	457.77
520.49	457.94
520.85	458.30
521.21	458.71
521.57	459.27
521.93	459.61
522.29	460.10
522.65	460.43
523.01	460.77
523.37	461.23
523.73	461.77
524.09	462.27
524.45	462.71
524.81	463.42
525.17	464.30
525.53	465.22
525.89	465.94
526.25	466.69
526.61	467.39
526.97	468.39
527.33	469.20
527.68	470.42
528.04	471.56
528.40	472.77
528.76	473.83
529.12	475.10
529.48	476.38
529.84	477.41
530.20	478.87
530.56	480.44
530.91	482.02
531.27	483.65
531.63	485.27
531.99	487.00
532.35	488.64
532.71	490.23
533.07	492.25
533.42	494.46
533.78	496.60
534.14	498.74
534.50	500.77
534.86	503.00
535.21	504.93
535.57	507.36
535.93	509.68
536.29	512.22
536.65	514.59
537.00	517.09
537.36	519.96
537.72	522.64
538.08	525.49
538.44	528.28
538.79	530.82
539.15	533.50
539.51	536.34
539.87	539.30
540.22	542.36
540.58	545.63
540.94	548.45
541.29	551.37
541.65	554.46
542.01	557.71
542.37	561.10
542.72	564.33
543.08	567.62
543.44	570.91
543.79	573.96
544.15	577.70
544.51	581.35
544.87	584.91
545.22	588.47
545.58	591.91
545.94	595.30
546.29	598.97
546.65	602.66
547.01	606.45
547.36	610.19
547.72	613.74
548.07	616.83
548.43	620.50
548.79	624.20
549.14	627.85
549.50	631.49
549.86	634.85
550.21	638.76
550.57	642.71
550.92	646.52
551.28	650.60
551.64	654.07
551.99	657.78
552.35	661.28
552.70	664.98
553.06	668.91
553.41	672.75
553.77	676.57
554.13	680.55
554.48	684.51
554.84	688.29
555.19	692.21
555.55	696.36
555.90	700.20
556.26	703.99
556.61	707.83
556.97	711.58
557.32	715.49
557.68	719.17
558.03	722.70
558.39	726.41
558.74	730.26
559.10	733.98
559.45	737.63
559.81	741.58
560.16	745.12
560.52	748.60
560.87	752.49
561.23	755.85
561.58	759.54
561.94	762.95
562.29	766.23
562.64	769.76
563.00	773.09
563.35	776.77
563.71	780.67
564.06	784.46
564.42	787.95
564.77	791.82
565.12	795.40
565.48	798.70
565.83	801.83
566.19	805.09
566.54	808.30
566.89	811.54
567.25	814.70
567.60	818.29
567.96	821.72
568.31	824.74
568.66	828.22
569.02	831.02
569.37	833.78
569.72	836.65
570.08	839.41
570.43	842.21
570.78	844.72
571.14	846.86
571.49	849.09
571.84	851.80
572.20	853.69
572.55	855.92
572.90	858.18
573.26	860.58
573.61	862.72
573.96	864.92
574.31	866.76
574.67	868.39
575.02	869.65
575.37	870.82
575.72	872.00
576.08	873.18
576.43	874.58
576.78	875.92
577.13	877.48
577.49	878.58
577.84	879.84
578.19	881.11
578.54	882.30
578.90	883.37
579.25	884.00
579.60	884.83
579.95	885.42
580.30	885.88
580.66	886.31
581.01	886.52
581.36	886.87
581.71	887.22
582.06	887.36
582.42	887.70
582.77	888.10
583.12	888.27
583.47	888.77
583.82	889.07
584.17	889.32
584.53	889.35
584.88	889.62
585.23	889.50
585.58	889.20
585.93	889.12
586.28	889.18
586.63	889.04
586.98	889.03
587.34	888.99
587.69	889.02
588.04	889.00
588.39	889.00
588.74	888.39
589.09	888.07
589.44	887.89
589.79	887.34
590.14	886.97
590.49	886.47
590.84	885.60
591.19	885.08
591.54	884.06
591.89	882.79
592.25	881.99
592.60	880.70
592.95	879.80
593.30	878.64
593.65	877.27
594.00	876.14
594.35	875.10
594.70	873.76
595.05	872.56
595.40	871.01
595.75	869.62
596.10	868.47
596.45	867.20
596.80	866.06
597.15	864.87
597.50	863.21
597.85	862.06
598.19	860.86
598.54	859.35
598.89	858.22
599.24	857.64
599.59	856.03
599.94	854.76
600.29	853.19
600.64	851.54
600.99	849.90
601.34	848.30
601.69	846.45
602.04	844.68
602.39	842.90
602.74	841.31
603.08	839.60
603.43	838.08
603.78	836.46
604.13	834.49
604.48	832.81
604.83	831.30
605.18	829.71
605.53	827.67
605.87	825.17
606.22	823.01
606.57	820.41
606.92	818.55
607.27	816.91
607.62	815.31
607.96	813.63
608.31	811.99
608.66	809.95
609.01	807.80
609.36	805.53
609.70	803.29
610.05	800.90
610.40	798.76
610.75	796.36
611.10	793.89
611.44	791.26
611.79	788.97
612.14	786.66
612.49	783.46
612.83	780.90
613.18	778.70
613.53	776.51
613.88	774.13
614.22	771.50
614.57	768.64
614.92	765.89
615.27	763.41
615.61	760.44
615.96	757.59
616.31	755.23
616.65	753.12
617.00	750.64
617.35	748.30
617.70	745.33
618.04	742.63
618.39	740.03
618.74	738.00
619.08	735.20
619.43	732.44
619.78	730.27
620.12	727.95
620.47	725.55
620.82	722.72
621.16	720.29
621.51	717.79
621.85	715.23
622.20	712.52
622.55	709.86
622.89	707.57
623.24	705.33
623.59	702.66
623.93	700.15
624.28	697.57
624.62	695.15
624.97	692.96
625.32	690.62
625.66	688.21
626.01	685.53
626.35	683.16
626.70	680.69
627.04	678.51
627.39	675.68
627.73	673.11
628.08	670.74
628.43	668.09
628.77	665.58
629.12	663.05
629.46	660.46
629.81	657.67
630.15	654.84
630.50	652.06
630.84	649.22
631.19	646.44
631.53	643.63
631.88	640.73
632.22	637.79
632.57	635.15
632.91	632.30
633.26	629.43
633.60	626.60
633.95	623.70
634.29	620.92
634.64	618.54
634.98	615.81
635.32	613.33
635.67	610.86
636.01	608.35
636.36	605.83
636.70	603.44
637.05	601.11
637.39	598.94
637.73	596.70
638.08	594.61
638.42	592.28
638.77	590.07
639.11	587.74
639.45	585.43
639.80	582.85
640.14	580.55
640.49	578.10
640.83	575.68
641.17	573.59
641.52	571.01
641.86	568.42
642.20	566.20
642.55	563.70
642.89	561.25
643.23	558.80
643.58	556.66
643.92	554.25
644.26	551.74
644.61	549.33
644.95	547.01
645.29	544.30
645.64	541.77
645.98	539.19
646.32	536.85
646.66	534.69
647.01	532.35
647.35	530.07
647.69	528.08
648.04	526.09
648.38	523.49
648.72	521.08
649.06	518.79
649.41	516.53
649.75	514.37
650.09	512.15
650.43	509.74
650.78	507.04
651.12	504.63
651.46	502.41
651.80	500.04
652.14	497.54
652.49	495.55
652.83	493.49
653.17	491.32
653.51	488.95
653.85	486.56
654.20	484.26
654.54	481.81
654.88	479.29
655.22	476.71
655.56	474.65
655.90	472.58
656.25	470.51
656.59	468.17
656.93	465.90
657.27	463.83
657.61	461.76
657.95	459.93
658.29	458.04
658.64	455.99
658.98	453.97
659.32	451.86
659.66	449.78
660.00	447.59
660.34	445.65
660.68	443.75
661.02	441.88
661.36	440.07
661.70	438.20
662.05	436.56
662.39	435.01
662.73	433.17
663.07	431.46
663.41	429.69
663.75	428.00
664.09	426.30
664.43	424.29
664.77	422.61
665.11	420.92
665.45	419.11
665.79	417.35
666.13	415.59
666.47	414.03
666.81	412.30
667.15	410.42
667.49	408.98
667.83	407.29
668.17	405.63
668.51	403.93
668.85	402.37
669.19	400.83
669.53	399.15
669.87	397.50
670.21	396.01
670.55	394.37
670.89	392.90
671.23	391.31
671.57	389.99
671.91	388.39
672.25	386.91
672.58	385.53
672.92	384.07
673.26	382.79
673.60	381.40
673.94	380.17
674.28	379.09
674.62	377.55
674.96	376.37
675.30	375.01
675.64	373.88
675.97	372.63
676.31	371.24
676.65	369.91
676.99	368.82
677.33	367.39
677.67	366.40
678.01	365.01
678.34	363.78
678.68	362.48
679.02	361.31
679.36	360.04
679.70	358.77
680.04	357.67
680.37	356.27
680.71	355.03
681.05	353.82
681.39	352.74
681.73	351.74
682.06	350.49
682.40	349.43
682.74	348.24
683.08	347.24
683.42	346.03
683.75	344.99
684.09	343.83
684.43	342.82
684.77	341.52
685.10	340.42
685.44	339.21
685.78	338.29
686.12	337.20
686.45	336.06
686.79	335.00
687.13	333.98
687.46	332.93
687.80	331.95
688.14	330.74
688.48	329.52
688.81	328.43
689.15	327.40
689.49	326.24
689.82	325.20
690.16	324.06
690.50	323.18
690.83	322.03
691.17	320.96
691.51	319.84
691.84	318.87
692.18	317.99
692.52	317.09
692.85	315.96
693.19	315.10
693.52	314.23
693.86	313.20
694.20	312.30
694.53	311.40
694.87	310.38
695.21	309.65
695.54	308.78
695.88	307.71
696.21	306.86
696.55	305.97
696.88	305.11
697.22	304.30
697.56	303.39
697.89	302.60
698.23	301.92
698.56	301.21
698.90	300.39
699.23	299.47
699.57	298.62
699.90	297.80
700.24	296.97
700.58	296.18
700.91	295.45
701.25	294.71
701.58	294.19
701.92	293.54
702.25	292.74
702.59	292.10
702.92	291.61
703.26	291.09
703.59	290.53
703.93	290.06
704.26	289.54
704.60	288.92
704.93	288.33
705.26	287.60
705.60	287.04
705.93	286.55
706.27	286.13
706.60	285.68
706.94	285.32
707.27	284.67
707.61	284.17
707.94	283.74
708.27	283.12
708.61	282.46
708.94	282.06
709.28	281.63
709.61	281.29
709.94	280.84
710.28	280.20
710.61	279.67
710.95	278.92
711.28	278.45
711.61	278.12
711.95	277.65
712.28	277.14
712.61	276.61
712.95	276.14
713.28	275.80
713.61	275.30
713.95	274.72
714.28	274.33
714.61	273.82
714.95	273.33
715.28	272.88
715.61	272.41
715.95	271.94
716.28	271.36
716.61	270.74
716.95	270.10
717.28	269.67
717.61	269.22
717.94	268.87
718.28	268.23
718.61	267.67
718.94	267.26
719.27	266.80
719.61	266.40
719.94	265.90
720.27	265.20
720.60	264.75
720.94	264.42
721.27	264.15
721.60	263.78
721.93	263.34
722.27	263.05
722.60	262.56
722.93	262.09
723.26	261.83
723.59	261.49
723.93	261.20
724.26	260.88
724.59	260.45
724.92	260.14
725.25	259.89
725.59	259.55
725.92	259.12
726.25	258.80
726.58	258.47
726.91	258.25
727.24	258.13
727.57	257.81
727.91	257.43
728.24	257.02
728.57	256.56
728.90	256.10
729.23	255.70
729.56	255.51
729.89	255.24
730.22	254.88
730.55	254.60
730.89	254.26
731.22	253.90
731.55	253.66
731.88	253.29
732.21	252.92
732.54	252.60
732.87	252.38
733.20	252.21
733.53	251.90
733.86	251.61
734.19	251.10
734.52	250.83
734.85	250.68
735.18	250.43
735.51	250.48
735.84	250.34
736.17	250.10
736.50	249.75
736.83	249.78
737.16	249.61
737.49	249.24
737.82	248.95
738.15	248.76
738.48	248.50
738.81	248.26
739.14	248.09
739.47	247.78
739.80	247.62
740.13	247.44
740.46	247.25
740.79	247.00
741.12	246.85
741.45	246.62
741.78	246.40
742.11	246.25
742.44	245.98
742.77	245.88
743.10	245.68
743.43	245.59
743.75	245.20
744.08	245.19
744.41	245.24
744.74	245.13
745.07	244.90
745.40	244.83
745.73	244.92
746.06	244.77
746.39	244.70
746.71	244.47
747.04	244.24
747.37	244.08
747.70	243.95
748.03	243.90
748.36	243.88
748.68	243.72
749.01	243.54
749.34	243.32
749.67	243.12
750.00	243.03
750.33	242.96
750.65	242.82
750.98	242.43
751.31	242.18
751.64	242.13
751.97	242.18
752.29	242.04
752.62	241.71
752.95	241.66
753.28	241.60
753.60	241.47
753.93	241.46
754.26	241.31
754.59	241.15
754.91	240.99
755.24	240.73
755.57	240.56
755.90	240.36
756.22	240.21
756.55	240.07
756.88	239.87
757.20	239.70
757.53	239.43
757.86	239.31
758.19	239.20
758.51	239.11
758.84	238.96
759.17	238.84
759.49	238.77
759.82	238.63
760.15	238.42
760.47	238.37
760.80	238.10
761.13	238.04
761.45	237.87
761.78	237.73
762.11	237.58
762.43	237.44
762.76	237.39
763.08	237.37
763.41	237.29
763.74	237.35
764.06	237.26
764.39	237.23
764.71	237.10
765.04	236.90
765.37	236.76
765.69	236.62
766.02	236.52
766.34	236.29
766.67	236.06
767.00	236.05
767.32	236.09
767.65	236.00
767.97	235.89
768.30	235.88
768.62	235.83
768.95	235.90
769.27	235.77
769.60	235.65
769.92	235.40
770.25	235.28
770.57	235.06
770.90	234.94
771.22	234.83
771.55	234.73
771.87	234.75
772.20	234.56
772.52	234.55
772.85	234.58
773.17	234.58
773.50	234.50
773.82	234.42
774.15	234.19
774.47	234.14
774.80	233.93
775.12	233.78
775.45	233.64
775.77	233.54
776.09	233.56
776.42	233.43
776.74	233.47
777.07	233.34
777.39	233.26
777.72	233.16
778.04	233.07
778.36	233.01
778.69	232.94
779.01	232.87
779.33	232.61
779.66	232.36
779.98	232.33
780.31	232.34
780.63	232.37
780.95	232.32
781.28	232.30
781.60	232.33
781.92	232.31
782.25	232.31
782.57	232.21
782.89	232.11
783.22	232.07
783.54	232.02
783.86	231.99
784.19	231.97
784.51	232.00
784.83	232.00
785.16	232.07
785.48	232.16
785.80	232.17
786.12	232.32
786.45	232.44
786.77	232.50
787.09	232.54
787.42	232.50
787.74	232.59
788.06	232.60
788.38	232.59
788.71	232.62
789.03	232.67
789.35	232.75
789.67	232.75
789.99	232.91
790.32	232.81
790.64	232.87
790.96	233.10
791.28	233.09
791.61	233.07
791.93	233.04
792.25	233.01
792.57	233.12
792.89	233.11
793.21	233.07
793.54	233.03
793.86	233.00
794.18	232.96
