SpectraSuite Data File
++++++++++++++++++++++++++++++++++++
Date: Fri Feb 01 14:37:59 EST 2013
User: group
Dark Spectrum Present: No
Reference Spectrum Present: No
Number of Sampled Component Spectra: 1
Spectrometers: USB2E7196
Integration Time (usec): 70000 (USB2E7196)
Spectra Averaged: 10 (USB2E7196)
Boxcar Smoothing: 10 (USB2E7196)
Correct for Electrical Dark: No (USB2E7196)
Strobe/Lamp Enabled: No (USB2E7196)
Correct for Detector Non-linearity: No (USB2E7196)
Correct for Stray Light: No (USB2E7196)
Number of Pixels in Processed Spectrum: 2048
>>>>>Begin Processed Spectral Data<<<<<
339.09	0.00
339.48	216.10
339.86	216.20
340.24	219.10
340.63	219.80
341.01	222.30
341.39	222.10
341.78	224.30
342.16	225.20
342.54	226.40
342.93	213.83
343.31	224.66
343.69	225.10
344.07	225.54
344.46	225.84
344.84	226.28
345.22	226.50
345.60	226.72
345.99	226.86
346.37	227.05
346.75	226.99
347.13	227.13
347.52	227.18
347.90	227.25
348.28	227.40
348.66	227.33
349.05	227.28
349.43	227.29
349.81	227.32
350.19	227.25
350.57	227.30
350.96	227.44
351.34	227.49
351.72	227.65
352.10	227.70
352.48	227.83
352.87	227.82
353.25	227.87
353.63	227.98
354.01	228.07
354.39	228.16
354.77	228.36
355.15	228.50
355.54	228.56
355.92	228.67
356.30	228.78
356.68	229.03
357.06	229.09
357.44	229.12
357.82	229.25
358.20	229.32
358.58	229.42
358.97	229.49
359.35	229.66
359.73	229.70
360.11	229.88
360.49	229.91
360.87	230.04
361.25	230.19
361.63	230.29
362.01	230.35
362.39	230.33
362.77	230.40
363.15	230.43
363.53	230.49
363.91	230.54
364.29	230.44
364.67	230.35
365.05	230.39
365.43	230.47
365.81	230.41
366.19	230.58
366.57	230.63
366.95	230.61
367.33	230.54
367.71	230.62
368.09	230.60
368.47	230.64
368.85	230.60
369.23	230.62
369.61	230.43
369.99	230.41
370.37	230.41
370.75	230.44
371.13	230.30
371.51	230.21
371.89	230.15
372.27	230.17
372.65	230.02
373.03	229.95
373.41	229.83
373.78	229.89
374.16	229.67
374.54	229.52
374.92	229.47
375.30	229.32
375.68	229.14
376.06	229.08
376.44	228.97
376.82	228.83
377.19	228.77
377.57	228.81
377.95	228.74
378.33	228.55
378.71	228.37
379.09	228.32
379.47	228.28
379.84	228.17
380.22	228.11
380.60	228.09
380.98	228.05
381.36	227.94
381.73	227.80
382.11	227.73
382.49	227.73
382.87	227.57
383.25	227.44
383.62	227.58
384.00	227.53
384.38	227.47
384.76	227.50
385.13	227.36
385.51	227.20
385.89	227.11
386.27	227.00
386.64	227.00
387.02	227.04
387.40	227.05
387.78	227.03
388.15	226.97
388.53	226.86
388.91	226.69
389.29	226.65
389.66	226.62
390.04	226.60
390.42	226.47
390.79	226.42
391.17	226.45
391.55	226.18
391.92	226.12
392.30	226.07
392.68	225.94
393.05	226.01
393.43	226.08
393.81	226.07
394.18	226.15
394.56	226.15
394.94	226.08
395.31	226.00
395.69	226.07
396.06	226.12
396.44	226.28
396.82	226.45
397.19	226.63
397.57	226.64
397.95	226.75
398.32	226.80
398.70	226.92
399.07	227.09
399.45	227.25
399.82	227.34
400.20	227.57
400.58	227.70
400.95	227.75
401.33	227.87
401.70	228.10
402.08	228.20
402.45	228.28
402.83	228.55
403.20	228.68
403.58	228.85
403.95	229.04
404.33	229.20
404.71	229.32
405.08	229.65
405.46	229.88
405.83	230.02
406.21	230.25
406.58	230.48
406.96	230.74
407.33	230.94
407.70	231.25
408.08	231.64
408.45	231.82
408.83	232.03
409.20	232.29
409.58	232.52
409.95	232.89
410.33	233.26
410.70	233.47
411.08	233.90
411.45	234.27
411.82	234.68
412.20	235.18
412.57	235.81
412.95	236.11
413.32	236.77
413.69	237.36
414.07	238.01
414.44	238.65
414.82	239.18
415.19	239.99
415.56	240.68
415.94	241.35
416.31	242.39
416.68	243.36
417.06	244.42
417.43	245.29
417.81	246.39
418.18	247.52
418.55	248.73
418.93	249.93
419.30	251.18
419.67	252.47
420.04	253.84
420.42	255.21
420.79	256.99
421.16	258.44
421.54	260.20
421.91	261.97
422.28	263.81
422.66	265.80
423.03	267.72
423.40	269.62
423.77	271.70
424.15	273.65
424.52	275.84
424.89	278.26
425.26	280.67
425.64	282.91
426.01	285.28
426.38	287.73
426.75	290.41
427.13	293.00
427.50	295.78
427.87	298.60
428.24	301.42
428.61	304.04
428.99	307.17
429.36	310.55
429.73	313.71
430.10	316.91
430.47	320.09
430.85	323.40
431.22	327.04
431.59	330.74
431.96	334.45
432.33	338.38
432.70	342.15
433.08	346.48
433.45	350.60
433.82	354.91
434.19	359.63
434.56	364.15
434.93	368.47
435.30	372.90
435.68	377.70
436.05	382.42
436.42	386.92
436.79	391.14
437.16	395.62
437.53	400.33
437.90	405.02
438.27	409.81
438.64	414.67
439.01	419.31
439.38	423.25
439.75	427.12
440.13	431.60
440.50	435.90
440.87	439.49
441.24	443.07
441.61	446.91
441.98	449.94
442.35	453.22
442.72	456.83
443.09	460.23
443.46	462.39
443.83	463.89
444.20	465.34
444.57	467.27
444.94	468.19
445.31	469.36
445.68	470.59
446.05	471.40
446.42	471.31
446.79	471.06
447.16	470.96
447.53	470.89
447.90	469.52
448.27	468.07
448.64	465.95
449.01	464.62
449.37	461.87
449.74	459.23
450.11	456.11
450.48	452.40
450.85	448.65
451.22	445.51
451.59	442.60
451.96	439.80
452.33	435.87
452.70	432.40
453.07	428.11
453.43	423.68
453.80	419.28
454.17	415.27
454.54	411.27
454.91	406.99
455.28	402.88
455.65	398.95
456.02	395.19
456.38	391.80
456.75	387.67
457.12	384.14
457.49	380.47
457.86	376.97
458.23	374.13
458.59	370.91
458.96	367.54
459.33	364.53
459.70	361.71
460.07	359.23
460.43	356.40
460.80	353.79
461.17	351.31
461.54	348.87
461.91	346.42
462.27	344.04
462.64	341.95
463.01	339.72
463.38	337.62
463.74	335.26
464.11	333.32
464.48	331.46
464.85	329.69
465.21	328.35
465.58	326.83
465.95	324.80
466.32	323.15
466.68	321.69
467.05	320.18
467.42	318.54
467.78	316.94
468.15	315.44
468.52	314.27
468.88	312.75
469.25	311.42
469.62	310.33
469.98	309.23
470.35	308.19
470.72	307.05
471.08	305.75
471.45	304.70
471.82	303.70
472.18	302.64
472.55	301.72
472.92	300.70
473.28	299.79
473.65	299.00
474.02	298.12
474.38	297.26
474.75	296.50
475.11	295.74
475.48	295.02
475.85	294.29
476.21	293.65
476.58	293.16
476.94	292.54
477.31	291.84
477.67	291.32
478.04	290.73
478.41	290.35
478.77	290.22
479.14	289.77
479.50	289.41
479.87	289.08
480.23	288.90
480.60	288.38
480.96	288.07
481.33	288.06
481.69	287.87
482.06	287.61
482.42	287.35
482.79	287.09
483.15	287.17
483.52	287.27
483.88	287.17
484.25	287.08
484.61	287.01
484.98	287.16
485.34	287.20
485.71	287.34
486.07	287.42
486.44	287.22
486.80	287.45
487.17	287.53
487.53	287.72
487.90	287.67
488.26	288.07
488.62	288.38
488.99	288.46
489.35	288.73
489.72	288.91
490.08	289.28
490.44	289.58
490.81	289.87
491.17	290.20
491.54	290.59
491.90	290.98
492.26	291.55
492.63	291.90
492.99	292.19
493.36	292.52
493.72	293.02
494.08	293.46
494.45	293.91
494.81	294.56
495.17	295.04
495.54	295.60
495.90	296.02
496.26	296.35
496.63	296.88
496.99	297.37
497.35	297.99
497.72	298.56
498.08	299.08
498.44	299.56
498.80	300.07
499.17	300.51
499.53	301.01
499.89	301.45
500.26	301.81
500.62	302.25
500.98	302.85
501.34	303.24
501.71	303.87
502.07	304.23
502.43	304.54
502.79	304.84
503.16	305.17
503.52	305.52
503.88	305.88
504.24	306.13
504.60	306.45
504.97	306.77
505.33	306.99
505.69	307.38
506.05	307.61
506.41	307.79
506.78	308.10
507.14	308.30
507.50	308.48
507.86	308.77
508.22	309.03
508.59	309.15
508.95	309.31
509.31	309.54
509.67	309.78
510.03	309.89
510.39	310.17
510.75	310.42
511.12	310.73
511.48	311.00
511.84	311.18
512.20	311.42
512.56	311.75
512.92	312.00
513.28	312.17
513.64	312.33
514.00	312.68
514.37	312.74
514.73	313.19
515.09	313.53
515.45	313.84
515.81	314.18
516.17	314.58
516.53	314.88
516.89	315.25
517.25	315.79
517.61	316.52
517.97	317.19
518.33	317.77
518.69	318.40
519.05	319.20
519.41	320.09
519.77	320.97
520.13	321.93
520.49	322.77
520.85	323.77
521.21	325.11
521.57	326.34
521.93	327.66
522.29	328.96
522.65	330.11
523.01	331.57
523.37	333.00
523.73	334.46
524.09	336.10
524.45	337.65
524.81	339.37
525.17	341.21
525.53	343.07
525.89	345.05
526.25	347.08
526.61	349.31
526.97	351.50
527.33	353.74
527.68	356.32
528.04	358.85
528.40	361.39
528.76	363.87
529.12	366.36
529.48	369.18
529.84	371.85
530.20	375.04
530.56	378.13
530.91	381.55
531.27	384.86
531.63	388.18
531.99	391.71
532.35	395.10
532.71	398.47
533.07	402.07
533.42	405.93
533.78	409.62
534.14	413.25
534.50	417.09
534.86	421.11
535.21	424.89
535.57	429.01
535.93	433.19
536.29	437.49
536.65	441.83
537.00	446.32
537.36	450.81
537.72	455.25
538.08	459.55
538.44	463.67
538.79	468.25
539.15	472.86
539.51	477.57
539.87	482.31
540.22	487.25
540.58	492.10
540.94	496.79
541.29	501.71
541.65	506.72
542.01	511.75
542.37	516.82
542.72	521.98
543.08	527.10
543.44	532.39
543.79	537.09
544.15	542.32
544.51	547.45
544.87	552.83
545.22	557.83
545.58	563.30
545.94	568.64
546.29	573.89
546.65	578.98
547.01	584.11
547.36	589.46
547.72	594.60
548.07	599.97
548.43	605.22
548.79	610.73
549.14	615.91
549.50	621.03
549.86	626.20
550.21	631.24
550.57	636.36
550.92	641.48
551.28	646.86
551.64	651.83
551.99	657.17
552.35	662.24
552.70	667.84
553.06	673.01
553.41	678.18
553.77	683.42
554.13	688.78
554.48	693.97
554.84	699.24
555.19	704.38
555.55	709.65
555.90	714.81
556.26	719.55
556.61	724.64
556.97	729.80
557.32	734.77
557.68	739.52
558.03	744.87
558.39	749.72
558.74	754.75
559.10	759.94
559.45	764.64
559.81	769.55
560.16	774.05
560.52	778.79
560.87	783.92
561.23	788.31
561.58	793.00
561.94	797.34
562.29	801.69
562.64	806.08
563.00	810.16
563.35	814.91
563.71	819.50
564.06	823.82
564.42	828.09
564.77	832.05
565.12	836.57
565.48	840.68
565.83	844.78
566.19	848.95
566.54	852.84
566.89	856.66
567.25	860.36
567.60	864.39
567.96	868.25
568.31	871.64
568.66	875.60
569.02	879.18
569.37	883.00
569.72	886.23
570.08	889.77
570.43	893.12
570.78	896.02
571.14	898.98
571.49	901.89
571.84	905.00
572.20	907.99
572.55	910.66
572.90	913.05
573.26	915.83
573.61	918.41
573.96	920.71
574.31	923.05
574.67	925.11
575.02	927.04
575.37	928.81
575.72	930.54
576.08	932.31
576.43	933.94
576.78	935.68
577.13	937.63
577.49	939.18
577.84	940.74
578.19	941.99
578.54	943.20
578.90	944.36
579.25	944.98
579.60	946.22
579.95	947.11
580.30	947.84
580.66	948.27
581.01	948.76
581.36	949.55
581.71	950.34
582.06	951.15
582.42	951.69
582.77	952.24
583.12	952.55
583.47	953.13
583.82	953.70
584.17	953.76
584.53	954.06
584.88	954.17
585.23	954.37
585.58	954.65
585.93	954.70
586.28	955.21
586.63	955.48
586.98	955.73
587.34	955.89
587.69	956.03
588.04	956.35
588.39	956.62
588.74	956.33
589.09	955.78
589.44	955.33
589.79	954.93
590.14	954.82
590.49	954.60
590.84	954.02
591.19	953.40
591.54	952.67
591.89	951.18
592.25	950.71
592.60	949.42
592.95	948.28
593.30	947.51
593.65	946.24
594.00	945.30
594.35	944.42
594.70	942.90
595.05	941.81
595.40	940.30
595.75	938.77
596.10	937.80
596.45	937.07
596.80	935.96
597.15	934.75
597.50	933.26
597.85	932.17
598.19	931.15
598.54	929.83
598.89	928.86
599.24	928.36
599.59	926.66
599.94	925.80
600.29	924.70
600.64	923.13
600.99	921.78
601.34	920.40
601.69	918.34
602.04	917.05
602.39	915.50
602.74	914.48
603.08	913.06
603.43	911.71
603.78	910.06
604.13	908.24
604.48	906.58
604.83	904.80
605.18	903.00
605.53	900.61
605.87	898.49
606.22	896.54
606.57	894.55
606.92	892.52
607.27	890.64
607.62	888.84
607.96	887.24
608.31	885.31
608.66	882.90
609.01	880.58
609.36	878.10
609.70	875.39
610.05	872.65
610.40	870.11
610.75	867.12
611.10	864.17
611.44	861.53
611.79	859.19
612.14	856.71
612.49	853.61
612.83	850.88
613.18	848.29
613.53	845.67
613.88	842.49
614.22	839.80
614.57	836.61
614.92	833.41
615.27	830.58
615.61	827.25
615.96	824.83
616.31	822.50
616.65	820.18
617.00	817.91
617.35	815.07
617.70	812.06
618.04	809.30
618.39	806.46
618.74	803.82
619.08	800.52
619.43	797.63
619.78	795.06
620.12	792.29
620.47	789.44
620.82	786.23
621.16	783.58
621.51	780.84
621.85	778.30
622.20	775.37
622.55	772.37
622.89	770.07
623.24	767.32
623.59	764.50
623.93	761.84
624.28	758.81
624.62	756.19
624.97	753.82
625.32	751.19
625.66	748.83
626.01	746.08
626.35	743.42
626.70	740.52
627.04	738.04
627.39	735.38
627.73	732.73
628.08	730.17
628.43	727.51
628.77	724.64
629.12	721.68
629.46	718.95
629.81	715.86
630.15	712.65
630.50	709.41
630.84	705.92
631.19	702.50
631.53	699.40
631.88	696.16
632.22	692.76
632.57	689.80
632.91	686.68
633.26	683.55
633.60	680.57
633.95	677.58
634.29	674.50
634.64	671.55
634.98	668.55
635.32	665.88
635.67	663.15
636.01	660.30
636.36	657.30
636.70	654.64
637.05	652.08
637.39	649.70
637.73	647.19
638.08	644.98
638.42	642.56
638.77	640.16
639.11	637.54
639.45	634.98
639.80	632.26
640.14	629.54
640.49	627.02
640.83	624.49
641.17	622.10
641.52	619.37
641.86	616.80
642.20	614.30
642.55	611.46
642.89	608.60
643.23	606.02
643.58	603.79
643.92	600.82
644.26	598.18
644.61	595.48
644.95	592.87
645.29	589.89
645.64	586.98
645.98	584.26
646.32	581.69
646.66	579.09
647.01	576.43
647.35	573.75
647.69	571.15
648.04	568.64
648.38	565.95
648.72	563.17
649.06	560.40
649.41	557.68
649.75	554.78
650.09	552.13
650.43	549.37
650.78	546.26
651.12	543.83
651.46	541.15
651.80	538.31
652.14	535.58
652.49	533.22
652.83	530.75
653.17	528.11
653.51	525.47
653.85	522.74
654.20	520.20
654.54	517.66
654.88	514.95
655.22	512.05
655.56	509.40
655.90	507.11
656.25	504.77
656.59	502.27
656.93	499.98
657.27	497.59
657.61	495.32
657.95	493.23
658.29	490.75
658.64	488.42
658.98	485.99
659.32	483.33
659.66	480.91
660.00	478.58
660.34	476.23
660.68	473.93
661.02	471.62
661.36	469.34
661.70	467.19
662.05	465.17
662.39	463.16
662.73	460.98
663.07	458.90
663.41	456.60
663.75	454.34
664.09	452.25
664.43	450.05
664.77	447.90
665.11	445.74
665.45	443.80
665.79	441.69
666.13	439.73
666.47	438.10
666.81	435.98
667.15	434.07
667.49	432.26
667.83	430.39
668.17	428.70
668.51	426.77
668.85	424.91
669.19	423.20
669.53	421.42
669.87	419.57
670.21	417.66
670.55	415.91
670.89	414.70
671.23	412.98
671.57	411.42
671.91	409.67
672.25	407.98
672.58	406.36
672.92	404.93
673.26	403.25
673.60	401.56
673.94	400.16
674.28	398.66
674.62	397.07
674.96	395.62
675.30	394.00
675.64	392.54
675.97	391.15
676.31	389.58
676.65	388.18
676.99	386.89
677.33	385.57
677.67	384.21
678.01	382.38
678.34	380.96
678.68	379.52
679.02	378.05
679.36	376.74
679.70	375.38
680.04	373.97
680.37	372.61
680.71	371.20
681.05	369.96
681.39	368.69
681.73	367.40
682.06	366.10
682.40	365.00
682.74	363.75
683.08	362.42
683.42	361.13
683.75	359.76
684.09	358.41
684.43	356.97
684.77	355.67
685.10	354.62
685.44	353.34
685.78	352.09
686.12	350.88
686.45	349.65
686.79	348.32
687.13	347.08
687.46	345.93
687.80	344.82
688.14	343.48
688.48	342.18
688.81	340.83
689.15	339.83
689.49	338.55
689.82	337.33
690.16	335.98
690.50	334.78
690.83	333.70
691.17	332.57
691.51	331.40
691.84	330.45
692.18	329.24
692.52	328.15
692.85	327.15
693.19	326.30
693.52	325.24
693.86	324.25
694.20	323.20
694.53	322.16
694.87	321.06
695.21	319.95
695.54	318.81
695.88	317.78
696.21	316.52
696.55	315.52
696.88	314.53
697.22	313.65
697.56	312.60
697.89	311.52
698.23	310.52
698.56	309.79
698.90	308.74
699.23	307.72
699.57	306.78
699.90	305.66
700.24	304.60
700.58	303.70
700.91	302.90
701.25	302.14
701.58	301.46
701.92	300.69
702.25	299.95
702.59	299.30
702.92	298.55
703.26	297.83
703.59	297.11
703.93	296.50
704.26	295.70
704.60	295.02
704.93	294.40
705.26	293.61
705.60	292.80
705.93	292.05
706.27	291.35
706.60	290.78
706.94	290.30
707.27	289.70
707.61	288.96
707.94	288.28
708.27	287.49
708.61	286.70
708.94	285.96
709.28	285.46
709.61	284.79
709.94	284.28
710.28	283.61
710.61	283.05
710.95	282.31
711.28	281.94
711.61	281.36
711.95	280.88
712.28	280.35
712.61	279.80
712.95	279.43
713.28	279.02
713.61	278.49
713.95	277.95
714.28	277.45
714.61	276.90
714.95	276.38
715.28	275.84
715.61	275.34
715.95	274.92
716.28	274.39
716.61	273.91
716.95	273.53
717.28	273.14
717.61	272.60
717.94	272.20
718.28	271.49
718.61	271.09
718.94	270.55
719.27	270.13
719.61	269.81
719.94	269.30
720.27	268.75
720.60	268.32
720.94	267.95
721.27	267.44
721.60	267.10
721.93	266.73
722.27	266.47
722.60	266.19
722.93	265.86
723.26	265.56
723.59	265.20
723.93	264.78
724.26	264.39
724.59	264.11
724.92	263.84
725.25	263.56
725.59	263.07
725.92	262.72
726.25	262.46
726.58	261.95
726.91	261.60
727.24	261.37
727.57	260.98
727.91	260.55
728.24	260.41
728.57	260.05
728.90	259.66
729.23	259.18
729.56	258.82
729.89	258.43
730.22	257.98
730.55	257.68
730.89	257.20
731.22	256.92
731.55	256.57
731.88	256.14
732.21	255.84
732.54	255.66
732.87	255.33
733.20	255.03
733.53	254.80
733.86	254.46
734.19	254.14
734.52	253.87
734.85	253.70
735.18	253.28
735.51	253.09
735.84	252.85
736.17	252.60
736.50	252.24
736.83	252.10
737.16	251.83
737.49	251.50
737.82	251.24
738.15	250.94
738.48	250.58
738.81	250.34
739.14	250.06
739.47	249.78
739.80	249.52
740.13	249.20
740.46	248.92
740.79	248.66
741.12	248.41
741.45	248.14
741.78	247.79
742.11	247.63
742.44	247.33
742.77	247.09
743.10	246.93
743.43	246.60
743.75	246.22
744.08	246.34
744.41	246.16
744.74	246.03
745.07	245.93
745.40	245.83
745.73	245.74
746.06	245.44
746.39	245.20
746.71	245.07
747.04	244.85
747.37	244.66
747.70	244.52
748.03	244.39
748.36	244.24
748.68	244.10
749.01	243.83
749.34	243.73
749.67	243.54
750.00	243.40
750.33	243.50
750.65	243.43
750.98	242.88
751.31	242.75
751.64	242.60
751.97	242.53
752.29	242.30
752.62	242.07
752.95	242.10
753.28	242.01
753.60	241.81
753.93	241.82
754.26	241.80
754.59	241.63
754.91	241.43
755.24	241.32
755.57	241.18
755.90	241.13
756.22	240.97
756.55	240.93
756.88	240.73
757.20	240.56
757.53	240.35
757.86	240.39
758.19	240.29
758.51	240.20
758.84	239.95
759.17	239.81
759.49	239.72
759.82	239.60
760.15	239.49
760.47	239.47
760.80	239.33
761.13	239.25
761.45	239.15
761.78	239.07
762.11	239.02
762.43	238.82
762.76	238.61
763.08	238.47
763.41	238.36
763.74	238.24
764.06	238.07
764.39	238.02
764.71	237.93
765.04	237.83
765.37	237.66
765.69	237.60
766.02	237.60
766.34	237.41
766.67	237.36
767.00	237.30
767.32	237.30
767.65	237.29
767.97	237.11
768.30	237.10
768.62	236.87
768.95	236.76
769.27	236.76
769.60	236.71
769.92	236.63
770.25	236.50
770.57	236.34
770.90	236.18
771.22	236.05
771.55	235.90
771.87	235.77
772.20	235.70
772.52	235.68
772.85	235.78
773.17	235.71
773.50	235.50
773.82	235.32
774.15	235.10
774.47	234.93
774.80	234.73
775.12	234.54
775.45	234.58
775.77	234.39
776.09	234.27
776.42	234.20
776.74	234.14
777.07	234.06
777.39	234.01
777.72	234.00
778.04	233.87
778.36	233.79
778.69	233.73
779.01	233.64
779.33	233.41
779.66	233.09
779.98	233.00
780.31	232.88
780.63	232.94
780.95	232.88
781.28	232.81
781.60	232.90
781.92	232.95
782.25	232.89
782.57	232.87
782.89	232.82
783.22	232.71
783.54	232.68
783.86	232.65
784.19	232.64
784.51	232.61
784.83	232.62
785.16	232.54
785.48	232.55
785.80	232.56
786.12	232.56
786.45	232.52
786.77	232.58
787.09	232.50
787.42	232.34
787.74	232.30
788.06	232.19
788.38	232.10
788.71	231.97
789.03	231.94
789.35	231.91
789.67	231.89
789.99	231.95
790.32	231.88
790.64	231.87
790.96	232.00
791.28	231.82
791.61	231.80
791.93	231.80
792.25	231.74
792.57	231.92
792.89	231.83
793.21	231.90
793.54	231.78
793.86	231.79
794.18	231.82
