SpectraSuite Data File
++++++++++++++++++++++++++++++++++++
Date: Fri Feb 01 14:35:51 EST 2013
User: group
Dark Spectrum Present: No
Reference Spectrum Present: No
Number of Sampled Component Spectra: 1
Spectrometers: USB2E7196
Integration Time (usec): 70000 (USB2E7196)
Spectra Averaged: 10 (USB2E7196)
Boxcar Smoothing: 10 (USB2E7196)
Correct for Electrical Dark: No (USB2E7196)
Strobe/Lamp Enabled: No (USB2E7196)
Correct for Detector Non-linearity: No (USB2E7196)
Correct for Stray Light: No (USB2E7196)
Number of Pixels in Processed Spectrum: 2048
>>>>>Begin Processed Spectral Data<<<<<
339.09	0.00
339.48	217.30
339.86	217.70
340.24	218.50
340.63	219.80
341.01	222.90
341.39	224.30
341.78	225.00
342.16	226.40
342.54	224.60
342.93	214.18
343.31	225.03
343.69	225.56
344.07	225.96
344.46	226.40
344.84	226.86
345.22	227.08
345.60	227.23
345.99	227.42
346.37	227.45
346.75	227.59
347.13	227.69
347.52	227.74
347.90	227.77
348.28	227.77
348.66	227.81
349.05	227.66
349.43	227.73
349.81	227.73
350.19	227.76
350.57	227.73
350.96	227.81
351.34	227.84
351.72	227.86
352.10	227.98
352.48	228.03
352.87	228.01
353.25	228.04
353.63	228.11
354.01	228.08
354.39	228.20
354.77	228.31
355.15	228.37
355.54	228.44
355.92	228.53
356.30	228.66
356.68	228.73
357.06	228.97
357.44	229.00
357.82	228.95
358.20	229.12
358.58	229.27
358.97	229.34
359.35	229.50
359.73	229.59
360.11	229.70
360.49	229.70
360.87	229.81
361.25	229.90
361.63	230.03
362.01	230.05
362.39	230.10
362.77	230.10
363.15	230.17
363.53	230.22
363.91	230.20
364.29	230.25
364.67	230.20
365.05	230.18
365.43	230.21
365.81	230.31
366.19	230.31
366.57	230.42
366.95	230.43
367.33	230.32
367.71	230.30
368.09	230.30
368.47	230.34
368.85	230.25
369.23	230.32
369.61	230.22
369.99	230.25
370.37	230.13
370.75	230.25
371.13	230.16
371.51	230.05
371.89	229.98
372.27	229.90
372.65	229.91
373.03	229.86
373.41	229.69
373.78	229.74
374.16	229.67
374.54	229.48
374.92	229.34
375.30	229.30
375.68	229.12
376.06	229.01
376.44	228.96
376.82	228.84
377.19	228.77
377.57	228.68
377.95	228.65
378.33	228.54
378.71	228.24
379.09	228.29
379.47	228.27
379.84	228.12
380.22	228.06
380.60	227.90
380.98	227.80
381.36	227.83
381.73	227.54
382.11	227.42
382.49	227.40
382.87	227.34
383.25	227.17
383.62	227.28
384.00	227.16
384.38	226.99
384.76	227.00
385.13	226.90
385.51	226.72
385.89	226.59
386.27	226.64
386.64	226.67
387.02	226.49
387.40	226.41
387.78	226.51
388.15	226.44
388.53	226.40
388.91	226.37
389.29	226.30
389.66	226.45
390.04	226.49
390.42	226.50
390.79	226.51
391.17	226.55
391.55	226.35
391.92	226.44
392.30	226.46
392.68	226.34
393.05	226.43
393.43	226.59
393.81	226.67
394.18	226.66
394.56	226.72
394.94	226.85
395.31	226.90
395.69	226.95
396.06	227.08
396.44	227.11
396.82	227.19
397.19	227.42
397.57	227.44
397.95	227.62
398.32	227.67
398.70	227.70
399.07	227.90
399.45	228.09
399.82	228.14
400.20	228.28
400.58	228.50
400.95	228.50
401.33	228.65
401.70	228.89
402.08	229.01
402.45	229.17
402.83	229.42
403.20	229.59
403.58	229.75
403.95	229.96
404.33	230.22
404.71	230.46
405.08	230.70
405.46	231.02
405.83	231.20
406.21	231.55
406.58	231.92
406.96	232.20
407.33	232.53
407.70	232.88
408.08	233.54
408.45	233.90
408.83	234.42
409.20	234.85
409.58	235.20
409.95	235.70
410.33	236.20
410.70	236.65
411.08	237.38
411.45	238.06
411.82	238.68
412.20	239.41
412.57	240.29
412.95	240.96
413.32	241.80
413.69	242.66
414.07	243.50
414.44	244.60
414.82	245.69
415.19	247.00
415.56	248.28
415.94	249.46
416.31	251.00
416.68	252.54
417.06	254.10
417.43	255.80
417.81	257.64
418.18	259.56
418.55	261.50
418.93	263.52
419.30	265.58
419.67	267.86
420.04	270.23
420.42	272.68
420.79	275.52
421.16	278.37
421.54	281.27
421.91	284.19
422.28	287.25
422.66	290.58
423.03	293.84
423.40	297.28
423.77	300.92
424.15	304.48
424.52	308.10
424.89	312.23
425.26	316.05
425.64	319.76
426.01	324.02
426.38	328.36
426.75	332.62
427.13	337.14
427.50	341.94
427.87	346.75
428.24	351.63
428.61	356.36
428.99	361.37
429.36	367.04
429.73	372.73
430.10	378.15
430.47	383.72
430.85	389.51
431.22	395.50
431.59	401.97
431.96	408.06
432.33	415.00
432.70	421.67
433.08	429.61
433.45	437.08
433.82	444.17
434.19	452.37
434.56	460.33
434.93	468.02
435.30	475.43
435.68	483.94
436.05	492.13
436.42	500.19
436.79	507.74
437.16	515.73
437.53	524.25
437.90	532.63
438.27	540.76
438.64	549.21
439.01	557.05
439.38	563.88
439.75	570.68
440.13	578.49
440.50	585.87
440.87	591.89
441.24	598.33
441.61	605.61
441.98	611.09
442.35	617.22
442.72	623.38
443.09	629.55
443.46	633.50
443.83	636.23
444.20	638.80
444.57	642.38
444.94	644.22
445.31	646.11
445.68	648.15
446.05	649.81
446.42	649.94
446.79	650.13
447.16	650.18
447.53	650.38
447.90	648.27
448.27	646.27
448.64	642.77
449.01	640.60
449.37	635.75
449.74	630.97
450.11	625.69
450.48	619.64
450.85	613.28
451.22	607.96
451.59	603.01
451.96	598.34
452.33	591.52
452.70	585.65
453.07	578.29
453.43	570.98
453.80	563.46
454.17	556.30
454.54	549.40
454.91	542.03
455.28	535.20
455.65	528.39
456.02	521.37
456.38	515.62
456.75	508.22
457.12	502.04
457.49	495.96
457.86	489.96
458.23	484.78
458.59	479.20
458.96	473.34
459.33	468.29
459.70	463.19
460.07	459.06
460.43	454.19
460.80	449.60
461.17	445.41
461.54	441.20
461.91	437.20
462.27	433.22
462.64	429.81
463.01	425.66
463.38	421.86
463.74	418.18
464.11	414.87
464.48	411.90
464.85	408.76
465.21	406.36
465.58	403.53
465.95	400.66
466.32	398.02
466.68	395.42
467.05	392.71
467.42	389.97
467.78	387.31
468.15	384.79
468.52	382.96
468.88	380.44
469.25	378.26
469.62	376.56
469.98	374.50
470.35	372.46
470.72	370.80
471.08	369.10
471.45	367.60
471.82	365.95
472.18	364.21
472.55	362.86
472.92	361.22
473.28	359.99
473.65	358.48
474.02	357.16
474.38	355.96
474.75	354.99
475.11	353.94
475.48	353.00
475.85	352.16
476.21	351.28
476.58	350.57
476.94	350.01
477.31	349.23
477.67	348.61
478.04	348.19
478.41	347.64
478.77	347.21
479.14	346.69
479.50	346.45
479.87	346.33
480.23	346.26
480.60	345.94
480.96	345.59
481.33	345.69
481.69	345.81
482.06	345.74
482.42	345.50
482.79	345.43
483.15	345.64
483.52	345.89
483.88	346.06
484.25	346.28
484.61	346.50
484.98	346.80
485.34	347.27
485.71	347.75
486.07	348.44
486.44	349.06
486.80	349.68
487.17	350.30
487.53	351.20
487.90	352.10
488.26	353.11
488.62	354.23
488.99	355.04
489.35	355.96
489.72	357.16
490.08	358.51
490.44	359.86
490.81	360.96
491.17	362.33
491.54	363.80
491.90	365.28
492.26	366.89
492.63	368.43
492.99	369.78
493.36	371.45
493.72	373.20
494.08	374.75
494.45	376.53
494.81	378.31
495.17	380.09
495.54	381.80
495.90	383.76
496.26	385.72
496.63	387.80
496.99	390.01
497.35	392.10
497.72	394.31
498.08	396.39
498.44	398.63
498.80	400.90
499.17	403.06
499.53	405.20
499.89	407.17
500.26	409.28
500.62	411.51
500.98	413.74
501.34	415.86
501.71	418.22
502.07	420.53
502.43	422.76
502.79	424.79
503.16	426.94
503.52	429.13
503.88	431.04
504.24	433.26
504.60	434.99
504.97	437.09
505.33	439.02
505.69	441.29
506.05	443.44
506.41	444.99
506.78	446.72
507.14	448.55
507.50	450.50
507.86	452.30
508.22	454.12
508.59	455.76
508.95	457.21
509.31	458.75
509.67	460.20
510.03	461.76
510.39	463.24
510.75	464.79
511.12	466.13
511.48	467.44
511.84	468.53
512.20	469.93
512.56	471.02
512.92	472.21
513.28	472.98
513.64	473.77
514.00	474.87
514.37	475.90
514.73	476.68
515.09	477.51
515.45	478.28
515.81	479.09
516.17	479.78
516.53	480.75
516.89	481.39
517.25	481.92
517.61	482.53
517.97	483.13
518.33	483.55
518.69	484.00
519.05	484.69
519.41	485.32
519.77	486.01
520.13	486.53
520.49	487.02
520.85	487.52
521.21	488.18
521.57	488.79
521.93	489.07
522.29	489.82
522.65	490.28
523.01	490.89
523.37	491.49
523.73	492.23
524.09	492.64
524.45	493.32
524.81	494.07
525.17	494.86
525.53	495.66
525.89	496.60
526.25	497.44
526.61	498.21
526.97	498.98
527.33	499.76
527.68	500.92
528.04	501.96
528.40	503.18
528.76	504.49
529.12	505.88
529.48	507.35
529.84	508.48
530.20	509.76
530.56	511.35
530.91	512.84
531.27	514.13
531.63	515.59
531.99	517.21
532.35	518.89
532.71	520.55
533.07	522.25
533.42	524.12
533.78	525.99
534.14	527.88
534.50	529.81
534.86	532.12
535.21	533.87
535.57	535.90
535.93	537.96
536.29	539.96
536.65	542.17
537.00	544.33
537.36	546.90
537.72	549.43
538.08	551.79
538.44	554.29
538.79	556.84
539.15	559.67
539.51	562.36
539.87	565.28
540.22	568.20
540.58	571.26
540.94	574.19
541.29	577.20
541.65	580.32
542.01	583.76
542.37	586.70
542.72	590.15
543.08	593.46
543.44	596.96
543.79	600.12
544.15	603.49
544.51	607.28
544.87	610.72
545.22	614.32
545.58	617.71
545.94	621.23
546.29	624.98
546.65	628.70
547.01	632.10
547.36	635.66
547.72	639.10
548.07	642.60
548.43	646.05
548.79	649.78
549.14	653.42
549.50	656.66
549.86	660.20
550.21	663.65
550.57	667.12
550.92	670.70
551.28	674.32
551.64	677.94
551.99	681.59
552.35	685.16
552.70	688.52
553.06	692.54
553.41	695.92
553.77	699.76
554.13	703.46
554.48	707.49
554.84	711.24
555.19	714.97
555.55	718.62
555.90	722.23
556.26	725.87
556.61	729.58
556.97	733.30
557.32	736.84
557.68	740.49
558.03	744.39
558.39	747.73
558.74	751.58
559.10	755.09
559.45	758.51
559.81	762.29
560.16	766.15
560.52	769.65
560.87	773.47
561.23	776.62
561.58	780.20
561.94	783.45
562.29	786.82
562.64	790.12
563.00	793.43
563.35	797.00
563.71	800.54
564.06	803.89
564.42	807.08
564.77	810.58
565.12	813.91
565.48	817.42
565.83	820.74
566.19	823.83
566.54	827.03
566.89	830.20
567.25	833.30
567.60	836.43
567.96	839.43
568.31	842.45
568.66	845.40
569.02	847.67
569.37	850.62
569.72	853.14
570.08	855.88
570.43	858.42
570.78	860.95
571.14	862.91
571.49	865.23
571.84	867.90
572.20	869.93
572.55	872.15
572.90	873.81
573.26	876.01
573.61	877.91
573.96	879.50
574.31	880.97
574.67	882.09
575.02	883.09
575.37	884.16
575.72	885.17
576.08	886.39
576.43	887.94
576.78	888.98
577.13	890.24
577.49	891.25
577.84	892.50
578.19	893.39
578.54	894.52
578.90	895.23
579.25	895.56
579.60	896.35
579.95	896.84
580.30	897.23
580.66	897.26
581.01	897.37
581.36	897.84
581.71	898.22
582.06	898.80
582.42	899.42
582.77	899.59
583.12	900.04
583.47	900.40
583.82	900.37
584.17	900.00
584.53	899.78
584.88	899.75
585.23	899.45
585.58	899.18
585.93	898.69
586.28	898.55
586.63	898.68
586.98	898.50
587.34	898.17
587.69	897.90
588.04	897.73
588.39	897.76
588.74	897.13
589.09	896.51
589.44	895.47
589.79	894.85
590.14	894.42
590.49	893.53
590.84	892.72
591.19	892.00
591.54	891.32
591.89	890.20
592.25	889.28
592.60	887.82
592.95	886.96
593.30	886.14
593.65	884.70
594.00	883.23
594.35	882.03
594.70	880.47
595.05	879.12
595.40	877.68
595.75	875.85
596.10	874.80
596.45	873.73
596.80	872.68
597.15	871.32
597.50	869.87
597.85	868.87
598.19	867.64
598.54	866.19
598.89	864.96
599.24	864.04
599.59	862.47
599.94	861.19
600.29	859.44
600.64	857.78
600.99	856.08
601.34	854.50
601.69	852.65
602.04	851.12
602.39	849.41
602.74	847.89
603.08	846.65
603.43	844.88
603.78	843.03
604.13	841.61
604.48	839.69
604.83	837.91
605.18	835.71
605.53	833.44
605.87	831.47
606.22	829.68
606.57	827.43
606.92	825.65
607.27	824.08
607.62	822.25
607.96	820.50
608.31	818.90
608.66	816.73
609.01	814.48
609.36	812.32
609.70	809.88
610.05	807.45
610.40	804.99
610.75	802.46
611.10	800.15
611.44	796.98
611.79	794.65
612.14	791.74
612.49	788.92
612.83	786.25
613.18	783.62
613.53	780.81
613.88	778.11
614.22	774.98
614.57	771.74
614.92	768.72
615.27	765.79
615.61	762.63
615.96	759.96
616.31	757.29
616.65	754.73
617.00	752.17
617.35	749.68
617.70	746.93
618.04	744.12
618.39	741.33
618.74	738.98
619.08	736.12
619.43	733.67
619.78	731.20
620.12	728.46
620.47	725.77
620.82	722.82
621.16	719.96
621.51	717.60
621.85	715.18
622.20	712.64
622.55	709.89
622.89	707.51
623.24	704.96
623.59	702.41
623.93	700.09
624.28	697.70
624.62	695.19
624.97	692.73
625.32	690.40
625.66	687.90
626.01	685.27
626.35	682.70
626.70	680.21
627.04	677.67
627.39	674.99
627.73	672.41
628.08	669.84
628.43	667.27
628.77	664.73
629.12	661.82
629.46	659.05
629.81	656.11
630.15	653.15
630.50	650.34
630.84	647.54
631.19	644.40
631.53	641.65
631.88	638.47
632.22	635.40
632.57	632.55
632.91	629.68
633.26	627.09
633.60	624.24
633.95	621.37
634.29	618.82
634.64	616.40
634.98	613.83
635.32	611.40
635.67	609.08
636.01	606.52
636.36	604.15
636.70	601.89
637.05	599.80
637.39	597.64
637.73	595.44
638.08	593.37
638.42	591.20
638.77	588.91
639.11	586.61
639.45	584.36
639.80	582.06
640.14	579.64
640.49	577.21
640.83	574.99
641.17	572.89
641.52	570.53
641.86	568.21
642.20	565.87
642.55	563.46
642.89	561.16
643.23	558.80
643.58	556.84
643.92	554.51
644.26	552.06
644.61	549.91
644.95	547.52
645.29	544.86
645.64	542.43
645.98	540.03
646.32	537.84
646.66	535.57
647.01	533.16
647.35	531.18
647.69	528.92
648.04	526.72
648.38	524.30
648.72	521.68
649.06	519.45
649.41	516.91
649.75	514.76
650.09	512.50
650.43	510.19
650.78	507.53
651.12	505.04
651.46	502.97
651.80	500.57
652.14	498.38
652.49	496.29
652.83	494.13
653.17	491.85
653.51	489.47
653.85	487.13
654.20	485.07
654.54	482.60
654.88	480.25
655.22	477.98
655.56	475.73
655.90	473.66
656.25	471.53
656.59	469.43
656.93	467.19
657.27	465.01
657.61	462.71
657.95	460.83
658.29	458.86
658.64	456.52
658.98	454.35
659.32	452.07
659.66	449.91
660.00	447.72
660.34	445.63
660.68	443.74
661.02	441.77
661.36	439.68
661.70	437.74
662.05	435.88
662.39	433.97
662.73	431.99
663.07	430.15
663.41	428.22
663.75	426.54
664.09	424.84
664.43	422.96
664.77	421.40
665.11	419.57
665.45	417.81
665.79	416.02
666.13	414.25
666.47	412.63
666.81	410.72
667.15	408.95
667.49	407.24
667.83	405.63
668.17	403.86
668.51	402.15
668.85	400.44
669.19	398.99
669.53	397.40
669.87	395.91
670.21	394.40
670.55	392.87
670.89	391.51
671.23	389.84
671.57	388.29
671.91	386.60
672.25	385.21
672.58	383.77
672.92	382.44
673.26	381.01
673.60	379.52
673.94	378.24
674.28	377.05
674.62	375.77
674.96	374.36
675.30	373.30
675.64	372.01
675.97	370.76
676.31	369.41
676.65	368.23
676.99	367.18
677.33	365.73
677.67	364.45
678.01	363.00
678.34	361.77
678.68	360.55
679.02	359.33
679.36	357.89
679.70	356.69
680.04	355.56
680.37	354.54
680.71	353.49
681.05	352.55
681.39	351.45
681.73	350.32
682.06	349.29
682.40	348.13
682.74	347.17
683.08	346.18
683.42	345.01
683.75	343.85
684.09	342.68
684.43	341.82
684.77	340.76
685.10	339.72
685.44	338.79
685.78	337.77
686.12	336.77
686.45	335.99
686.79	334.90
687.13	334.00
687.46	332.83
687.80	331.83
688.14	330.73
688.48	329.71
688.81	328.72
689.15	327.77
689.49	326.65
689.82	325.76
690.16	324.75
690.50	323.86
690.83	322.82
691.17	321.73
691.51	320.81
691.84	319.91
692.18	318.89
692.52	317.86
692.85	316.97
693.19	316.12
693.52	315.02
693.86	314.20
694.20	313.19
694.53	312.40
694.87	311.42
695.21	310.54
695.54	309.60
695.88	308.73
696.21	307.83
696.55	307.18
696.88	306.32
697.22	305.41
697.56	304.52
697.89	303.76
698.23	303.06
698.56	302.19
698.90	301.44
699.23	300.62
699.57	299.75
699.90	298.88
700.24	298.17
700.58	297.45
700.91	296.58
701.25	295.98
701.58	295.27
701.92	294.58
702.25	293.85
702.59	293.17
702.92	292.47
703.26	291.77
703.59	290.98
703.93	290.30
704.26	289.65
704.60	289.03
704.93	288.29
705.26	287.46
705.60	286.85
705.93	286.11
706.27	285.63
706.60	285.23
706.94	284.68
707.27	284.00
707.61	283.53
707.94	283.22
708.27	282.46
708.61	281.76
708.94	281.12
709.28	280.54
709.61	279.97
709.94	279.31
710.28	278.83
710.61	278.27
710.95	277.50
711.28	277.00
711.61	276.40
711.95	276.07
712.28	275.54
712.61	274.95
712.95	274.57
713.28	274.05
713.61	273.44
713.95	272.96
714.28	272.44
714.61	271.82
714.95	271.17
715.28	270.65
715.61	270.24
715.95	269.81
716.28	269.25
716.61	268.73
716.95	268.34
717.28	267.95
717.61	267.51
717.94	267.20
718.28	266.70
718.61	266.29
718.94	265.79
719.27	265.60
719.61	265.28
719.94	264.80
720.27	264.38
720.60	264.00
720.94	263.57
721.27	263.32
721.60	263.01
721.93	262.74
722.27	262.47
722.60	262.12
722.93	261.77
723.26	261.56
723.59	261.23
723.93	261.01
724.26	260.67
724.59	260.43
724.92	260.08
725.25	259.85
725.59	259.58
725.92	259.35
726.25	259.03
726.58	258.75
726.91	258.42
727.24	258.26
727.57	257.99
727.91	257.84
728.24	257.54
728.57	257.25
728.90	256.92
729.23	256.66
729.56	256.50
729.89	256.36
730.22	256.07
730.55	255.87
730.89	255.73
731.22	255.48
731.55	255.17
731.88	254.97
732.21	254.68
732.54	254.45
732.87	254.08
733.20	253.77
733.53	253.50
733.86	253.39
734.19	253.13
734.52	252.89
734.85	252.75
735.18	252.46
735.51	252.34
735.84	252.11
736.17	251.94
736.50	251.70
736.83	251.59
737.16	251.34
737.49	251.13
737.82	250.80
738.15	250.58
738.48	250.31
738.81	250.12
739.14	249.89
739.47	249.70
739.80	249.62
740.13	249.42
740.46	249.21
740.79	248.93
741.12	248.61
741.45	248.42
741.78	248.07
742.11	247.91
742.44	247.63
742.77	247.48
743.10	247.15
743.43	246.86
743.75	246.49
744.08	246.53
744.41	246.28
744.74	245.98
745.07	245.69
745.40	245.67
745.73	245.52
746.06	245.26
746.39	244.98
746.71	244.77
747.04	244.60
747.37	244.38
747.70	244.17
748.03	244.07
748.36	243.88
748.68	243.62
749.01	243.32
749.34	243.12
749.67	242.88
750.00	242.82
750.33	242.69
750.65	242.54
750.98	242.09
751.31	241.85
751.64	241.70
751.97	241.66
752.29	241.37
752.62	241.13
752.95	240.93
753.28	240.81
753.60	240.58
753.93	240.49
754.26	240.25
754.59	240.10
754.91	239.85
755.24	239.59
755.57	239.55
755.90	239.41
756.22	239.27
756.55	239.05
756.88	238.84
757.20	238.70
757.53	238.50
757.86	238.43
758.19	238.30
758.51	238.22
758.84	237.94
759.17	237.74
759.49	237.63
759.82	237.66
760.15	237.60
760.47	237.45
760.80	237.27
761.13	237.29
761.45	237.09
761.78	236.99
762.11	236.95
762.43	236.79
762.76	236.71
763.08	236.66
763.41	236.64
763.74	236.57
764.06	236.48
764.39	236.39
764.71	236.29
765.04	236.26
765.37	236.16
765.69	236.18
766.02	236.14
766.34	236.02
766.67	235.93
767.00	235.89
767.32	235.92
767.65	235.96
767.97	235.90
768.30	235.93
768.62	235.89
768.95	235.94
769.27	235.84
769.60	235.92
769.92	235.77
770.25	235.69
770.57	235.51
770.90	235.45
771.22	235.34
771.55	235.27
771.87	235.29
772.20	235.21
772.52	235.24
772.85	235.39
773.17	235.40
773.50	235.30
773.82	235.24
774.15	235.09
774.47	234.90
774.80	234.78
775.12	234.68
775.45	234.61
775.77	234.39
776.09	234.30
776.42	234.17
776.74	234.16
777.07	234.09
777.39	234.08
777.72	233.96
778.04	233.96
778.36	233.95
778.69	233.95
779.01	233.97
779.33	233.78
779.66	233.49
779.98	233.33
780.31	233.33
780.63	233.32
780.95	233.27
781.28	233.28
781.60	233.29
781.92	233.24
782.25	233.16
782.57	233.23
782.89	233.23
783.22	233.13
783.54	233.04
783.86	233.02
784.19	232.93
784.51	233.01
784.83	232.95
785.16	232.90
785.48	232.66
785.80	232.51
786.12	232.48
786.45	232.54
786.77	232.63
787.09	232.62
787.42	232.48
787.74	232.47
788.06	232.35
788.38	232.32
788.71	232.29
789.03	232.36
789.35	232.17
789.67	231.95
789.99	231.89
790.32	231.83
790.64	231.86
790.96	231.96
791.28	231.82
791.61	231.75
791.93	231.65
792.25	231.74
792.57	231.75
792.89	231.72
793.21	231.58
793.54	231.51
793.86	231.43
794.18	231.41
