SpectraSuite Data File
++++++++++++++++++++++++++++++++++++
Date: Fri Feb 01 14:34:48 EST 2013
User: group
Dark Spectrum Present: No
Reference Spectrum Present: No
Number of Sampled Component Spectra: 1
Spectrometers: USB2E7196
Integration Time (usec): 70000 (USB2E7196)
Spectra Averaged: 10 (USB2E7196)
Boxcar Smoothing: 10 (USB2E7196)
Correct for Electrical Dark: No (USB2E7196)
Strobe/Lamp Enabled: No (USB2E7196)
Correct for Detector Non-linearity: No (USB2E7196)
Correct for Stray Light: No (USB2E7196)
Number of Pixels in Processed Spectrum: 2048
>>>>>Begin Processed Spectral Data<<<<<
339.09	0.00
339.48	215.50
339.86	218.30
340.24	218.30
340.63	220.90
341.01	225.50
341.39	222.30
341.78	224.20
342.16	226.60
342.54	226.70
342.93	214.94
343.31	225.84
343.69	226.45
344.07	226.96
344.46	227.45
344.84	227.79
345.22	227.88
345.60	228.19
345.99	228.41
346.37	228.49
346.75	228.65
347.13	228.85
347.52	228.89
347.90	228.90
348.28	228.90
348.66	228.94
349.05	228.96
349.43	228.97
349.81	228.98
350.19	228.90
350.57	228.99
350.96	229.06
351.34	229.05
351.72	229.07
352.10	229.10
352.48	229.12
352.87	229.21
353.25	229.31
353.63	229.42
354.01	229.41
354.39	229.45
354.77	229.47
355.15	229.63
355.54	229.69
355.92	229.66
356.30	229.71
356.68	229.80
357.06	229.79
357.44	229.80
357.82	229.91
358.20	230.10
358.58	230.07
358.97	230.21
359.35	230.44
359.73	230.53
360.11	230.55
360.49	230.55
360.87	230.56
361.25	230.65
361.63	230.59
362.01	230.69
362.39	230.76
362.77	230.80
363.15	230.60
363.53	230.62
363.91	230.70
364.29	230.71
364.67	230.63
365.05	230.63
365.43	230.61
365.81	230.47
366.19	230.52
366.57	230.62
366.95	230.60
367.33	230.43
367.71	230.47
368.09	230.53
368.47	230.62
368.85	230.64
369.23	230.58
369.61	230.55
369.99	230.57
370.37	230.54
370.75	230.60
371.13	230.57
371.51	230.48
371.89	230.40
372.27	230.23
372.65	230.18
373.03	230.20
373.41	230.17
373.78	230.20
374.16	230.01
374.54	229.86
374.92	229.60
375.30	229.56
375.68	229.40
376.06	229.30
376.44	229.23
376.82	229.07
377.19	228.99
377.57	228.90
377.95	228.72
378.33	228.52
378.71	228.28
379.09	228.22
379.47	228.17
379.84	228.04
380.22	228.06
380.60	227.77
380.98	227.61
381.36	227.45
381.73	227.25
382.11	227.23
382.49	227.08
382.87	227.05
383.25	226.92
383.62	227.10
384.00	226.93
384.38	226.86
384.76	226.82
385.13	226.89
385.51	226.82
385.89	226.79
386.27	226.84
386.64	226.82
387.02	226.81
387.40	226.68
387.78	226.74
388.15	226.74
388.53	226.80
388.91	226.76
389.29	226.85
389.66	226.95
390.04	226.87
390.42	226.93
390.79	227.00
391.17	226.95
391.55	226.75
391.92	226.76
392.30	226.78
392.68	226.87
393.05	226.81
393.43	226.90
393.81	226.91
394.18	226.94
394.56	226.99
394.94	227.09
395.31	227.31
395.69	227.41
396.06	227.51
396.44	227.71
396.82	227.86
397.19	227.97
397.57	228.03
397.95	228.22
398.32	228.35
398.70	228.51
399.07	228.81
399.45	228.83
399.82	228.96
400.20	229.13
400.58	229.22
400.95	229.37
401.33	229.54
401.70	229.86
402.08	230.07
402.45	230.30
402.83	230.52
403.20	230.66
403.58	230.81
403.95	231.08
404.33	231.36
404.71	231.58
405.08	232.05
405.46	232.38
405.83	232.70
406.21	233.08
406.58	233.44
406.96	233.70
407.33	234.20
407.70	234.84
408.08	235.40
408.45	235.92
408.83	236.52
409.20	237.04
409.58	237.56
409.95	238.21
410.33	238.97
410.70	239.60
411.08	240.47
411.45	241.30
411.82	242.12
412.20	243.05
412.57	244.16
412.95	244.93
413.32	246.05
413.69	247.17
414.07	248.35
414.44	249.55
414.82	251.08
415.19	252.73
415.56	254.10
415.94	255.72
416.31	257.62
416.68	259.41
417.06	261.44
417.43	263.53
417.81	265.86
418.18	268.03
418.55	270.59
418.93	273.11
419.30	275.80
419.67	278.68
420.04	281.60
420.42	284.75
420.79	288.35
421.16	291.98
421.54	295.68
421.91	299.50
422.28	303.56
422.66	307.73
423.03	311.64
423.40	316.01
423.77	320.60
424.15	325.15
424.52	329.99
424.89	335.26
425.26	340.15
425.64	344.89
426.01	350.24
426.38	355.66
426.75	361.14
427.13	367.00
427.50	372.93
427.87	379.25
428.24	385.63
428.61	391.74
428.99	398.38
429.36	405.66
429.73	412.88
430.10	419.92
430.47	426.89
430.85	434.35
431.22	442.17
431.59	450.36
431.96	458.32
432.33	467.07
432.70	475.42
433.08	485.34
433.45	494.49
433.82	503.80
434.19	514.30
434.56	524.43
434.93	534.28
435.30	543.88
435.68	554.58
436.05	564.97
436.42	575.37
436.79	584.70
437.16	594.62
437.53	605.33
437.90	615.97
438.27	626.55
438.64	637.61
439.01	647.61
439.38	656.42
439.75	665.16
440.13	675.08
440.50	684.41
440.87	692.32
441.24	700.79
441.61	709.86
441.98	716.49
442.35	724.44
442.72	732.17
443.09	739.97
443.46	744.81
443.83	748.30
444.20	751.32
444.57	755.99
444.94	758.64
445.31	761.30
445.68	763.86
446.05	765.65
446.42	765.60
446.79	765.50
447.16	765.62
447.53	765.95
447.90	763.32
448.27	760.74
448.64	756.37
449.01	753.70
449.37	747.80
449.74	742.34
450.11	735.28
450.48	727.49
450.85	719.67
451.22	713.15
451.59	706.73
451.96	700.99
452.33	692.31
452.70	684.98
453.07	675.54
453.43	666.20
453.80	656.82
454.17	647.99
454.54	639.67
454.91	630.24
455.28	621.12
455.65	612.62
456.02	604.05
456.38	596.76
456.75	587.31
457.12	579.55
457.49	571.57
457.86	564.16
458.23	557.99
458.59	550.81
458.96	543.30
459.33	536.88
459.70	530.37
460.07	525.33
460.43	519.13
460.80	513.38
461.17	508.24
461.54	502.99
461.91	497.82
462.27	492.46
462.64	488.11
463.01	483.25
463.38	478.41
463.74	473.76
464.11	469.50
464.48	465.74
464.85	461.70
465.21	458.63
465.58	455.34
465.95	451.20
466.32	447.78
466.68	444.61
467.05	441.41
467.42	437.94
467.78	434.34
468.15	430.92
468.52	428.44
468.88	425.08
469.25	422.29
469.62	419.96
469.98	417.66
470.35	415.29
470.72	412.90
471.08	410.65
471.45	408.58
471.82	406.51
472.18	404.29
472.55	402.55
472.92	400.65
473.28	398.86
473.65	397.05
474.02	395.39
474.38	393.88
474.75	392.65
475.11	391.40
475.48	390.34
475.85	389.46
476.21	388.41
476.58	387.75
476.94	387.17
477.31	386.35
477.67	385.48
478.04	384.84
478.41	384.39
478.77	383.88
479.14	383.27
479.50	382.92
479.87	382.84
480.23	382.72
480.60	382.41
480.96	382.20
481.33	382.34
481.69	382.50
482.06	382.77
482.42	382.64
482.79	382.70
483.15	383.19
483.52	383.58
483.88	384.05
484.25	384.34
484.61	384.88
484.98	385.58
485.34	386.60
485.71	387.55
486.07	388.56
486.44	389.62
486.80	390.88
487.17	392.14
487.53	393.60
487.90	395.10
488.26	396.75
488.62	398.50
488.99	400.21
489.35	401.77
489.72	403.57
490.08	405.66
490.44	407.70
490.81	409.62
491.17	411.93
491.54	414.23
491.90	416.70
492.26	419.06
492.63	421.46
492.99	423.82
493.36	426.42
493.72	429.27
494.08	431.97
494.45	434.92
494.81	438.07
495.17	441.02
495.54	443.97
495.90	447.17
496.26	450.49
496.63	453.93
496.99	457.55
497.35	461.11
497.72	464.68
498.08	468.25
498.44	472.06
498.80	475.95
499.17	479.92
499.53	483.85
499.89	487.67
500.26	491.61
500.62	495.63
500.98	499.87
501.34	503.75
501.71	508.09
502.07	512.14
502.43	515.86
502.79	519.80
503.16	523.96
503.52	527.92
503.88	531.62
504.24	535.38
504.60	539.31
504.97	543.45
505.33	547.50
505.69	551.74
506.05	555.70
506.41	559.38
506.78	562.87
507.14	566.58
507.50	570.50
507.86	574.49
508.22	578.20
508.59	581.75
508.95	585.27
509.31	588.78
509.67	592.36
510.03	596.15
510.39	599.88
510.75	603.34
511.12	606.95
511.48	610.49
511.84	613.87
512.20	617.15
512.56	620.17
512.92	623.20
513.28	626.10
513.64	629.00
514.00	631.91
514.37	634.99
514.73	637.68
515.09	640.13
515.45	642.56
515.81	645.05
516.17	647.65
516.53	650.26
516.89	652.51
517.25	654.84
517.61	656.99
517.97	659.04
518.33	661.06
518.69	662.92
519.05	664.94
519.41	666.91
519.77	669.21
520.13	671.20
520.49	673.14
520.85	674.84
521.21	676.53
521.57	678.51
521.93	680.25
522.29	682.35
522.65	684.20
523.01	685.80
523.37	687.43
523.73	688.93
524.09	690.51
524.45	692.00
524.81	693.60
525.17	695.43
525.53	697.21
525.89	698.84
526.25	700.63
526.61	702.16
526.97	703.95
527.33	705.15
527.68	706.73
528.04	708.41
528.40	710.39
528.76	712.40
529.12	714.10
529.48	715.92
529.84	717.44
530.20	719.26
530.56	721.49
530.91	723.69
531.27	725.68
531.63	727.84
531.99	729.90
532.35	731.76
532.71	733.49
533.07	735.64
533.42	737.75
533.78	739.83
534.14	741.87
534.50	743.85
534.86	746.20
535.21	747.98
535.57	750.28
535.93	752.40
536.29	754.59
536.65	756.77
537.00	758.73
537.36	761.10
537.72	763.53
538.08	765.74
538.44	768.10
538.79	770.65
539.15	772.80
539.51	775.30
539.87	777.86
540.22	780.62
540.58	783.21
540.94	785.81
541.29	788.28
541.65	791.11
542.01	793.89
542.37	796.59
542.72	799.43
543.08	801.91
543.44	804.73
543.79	807.04
544.15	810.02
544.51	813.30
544.87	816.11
545.22	819.05
545.58	821.70
545.94	824.02
546.29	826.76
546.65	829.66
547.01	832.60
547.36	835.40
547.72	838.13
548.07	840.61
548.43	843.31
548.79	845.97
549.14	848.81
549.50	851.53
549.86	854.35
550.21	857.07
550.57	859.95
550.92	862.44
551.28	865.17
551.64	867.64
551.99	870.21
552.35	872.83
552.70	875.29
553.06	878.36
553.41	881.48
553.77	883.94
554.13	886.68
554.48	889.47
554.84	892.05
555.19	894.78
555.55	897.72
555.90	900.28
556.26	903.20
556.61	905.74
556.97	908.16
557.32	910.50
557.68	913.33
558.03	916.01
558.39	918.59
558.74	921.48
559.10	924.11
559.45	926.73
559.81	929.79
560.16	932.38
560.52	934.76
560.87	937.36
561.23	939.96
561.58	942.81
561.94	945.15
562.29	947.70
562.64	949.94
563.00	952.25
563.35	954.81
563.71	957.48
564.06	959.95
564.42	962.40
564.77	964.89
565.12	967.52
565.48	969.71
565.83	972.12
566.19	974.40
566.54	976.33
566.89	978.27
567.25	979.96
567.60	982.19
567.96	984.30
568.31	986.11
568.66	987.85
569.02	989.46
569.37	991.39
569.72	993.11
570.08	994.87
570.43	996.32
570.78	997.82
571.14	998.75
571.49	1000.02
571.84	1001.77
572.20	1002.96
572.55	1003.89
572.90	1004.87
573.26	1005.95
573.61	1006.72
573.96	1007.87
574.31	1008.15
574.67	1008.52
575.02	1008.65
575.37	1008.50
575.72	1008.63
576.08	1009.19
576.43	1009.04
576.78	1009.05
577.13	1009.23
577.49	1009.44
577.84	1009.13
578.19	1008.94
578.54	1008.78
578.90	1008.56
579.25	1007.67
579.60	1007.05
579.95	1006.45
580.30	1005.89
580.66	1005.12
581.01	1004.28
581.36	1003.36
581.71	1003.08
582.06	1002.36
582.42	1001.89
582.77	1001.31
583.12	1000.42
583.47	999.38
583.82	998.77
584.17	997.51
584.53	996.48
584.88	995.21
585.23	994.30
585.58	993.48
585.93	992.84
586.28	991.98
586.63	991.12
586.98	990.35
587.34	989.12
587.69	988.36
588.04	987.42
588.39	986.73
588.74	985.23
589.09	983.96
589.44	982.50
589.79	981.28
590.14	980.29
590.49	979.36
590.84	977.93
591.19	976.49
591.54	974.64
591.89	972.48
592.25	970.98
592.60	969.20
592.95	967.04
593.30	964.63
593.65	962.27
594.00	960.29
594.35	958.65
594.70	956.38
595.05	954.07
595.40	951.46
595.75	948.85
596.10	946.88
596.45	944.83
596.80	943.01
597.15	940.66
597.50	937.51
597.85	935.24
598.19	933.16
598.54	931.16
598.89	929.23
599.24	927.82
599.59	925.44
599.94	923.29
600.29	921.11
600.64	918.87
600.99	916.28
601.34	914.09
601.69	911.20
602.04	909.00
602.39	906.78
602.74	904.92
603.08	902.77
603.43	900.64
603.78	898.13
604.13	895.56
604.48	893.05
604.83	891.39
605.18	888.61
605.53	886.00
605.87	883.11
606.22	880.57
606.57	877.49
606.92	874.96
607.27	872.52
607.62	870.33
607.96	867.98
608.31	865.93
608.66	863.08
609.01	860.26
609.36	857.34
609.70	853.93
610.05	850.44
610.40	847.47
610.75	844.35
611.10	841.32
611.44	838.09
611.79	835.09
612.14	831.61
612.49	828.20
612.83	824.98
613.18	821.56
613.53	818.28
613.88	814.84
614.22	811.27
614.57	807.70
614.92	803.93
615.27	800.65
615.61	796.96
615.96	793.46
616.31	790.34
616.65	787.60
617.00	784.76
617.35	781.92
617.70	778.55
618.04	775.10
618.39	772.08
618.74	769.00
619.08	765.69
619.43	762.70
619.78	759.57
620.12	756.22
620.47	752.98
620.82	749.79
621.16	746.78
621.51	744.03
621.85	741.05
622.20	738.21
622.55	735.02
622.89	732.25
623.24	729.50
623.59	726.73
623.93	723.61
624.28	720.61
624.62	717.60
624.97	714.88
625.32	712.15
625.66	709.14
626.01	706.32
626.35	703.33
626.70	700.16
627.04	697.49
627.39	694.57
627.73	691.83
628.08	689.14
628.43	686.39
628.77	683.49
629.12	680.63
629.46	677.67
629.81	674.60
630.15	671.40
630.50	668.30
630.84	664.94
631.19	661.78
631.53	658.80
631.88	655.62
632.22	652.30
632.57	649.57
632.91	646.61
633.26	643.66
633.60	640.70
633.95	637.95
634.29	635.09
634.64	632.39
634.98	629.62
635.32	626.88
635.67	624.36
636.01	621.58
636.36	618.71
636.70	616.12
637.05	613.62
637.39	611.27
637.73	608.63
638.08	606.43
638.42	604.12
638.77	601.51
639.11	599.10
639.45	596.86
639.80	593.89
640.14	591.34
640.49	588.77
640.83	586.34
641.17	583.97
641.52	581.59
641.86	579.05
642.20	576.48
642.55	573.86
642.89	571.23
643.23	568.50
643.58	566.33
643.92	563.69
644.26	561.19
644.61	558.74
644.95	556.47
645.29	553.70
645.64	550.86
645.98	548.32
646.32	545.88
646.66	543.13
647.01	540.72
647.35	538.40
647.69	535.97
648.04	533.63
648.38	531.05
648.72	528.25
649.06	525.72
649.41	523.21
649.75	520.59
650.09	517.78
650.43	515.46
650.78	512.62
651.12	510.16
651.46	507.61
651.80	505.16
652.14	502.64
652.49	500.35
652.83	498.08
653.17	495.67
653.51	493.19
653.85	491.05
654.20	488.63
654.54	485.79
654.88	483.32
655.22	480.70
655.56	478.33
655.90	476.19
656.25	473.85
656.59	471.53
656.93	469.54
657.27	467.44
657.61	465.12
657.95	463.15
658.29	460.93
658.64	458.79
658.98	456.60
659.32	454.28
659.66	452.10
660.00	449.89
660.34	447.87
660.68	445.58
661.02	443.44
661.36	441.58
661.70	439.91
662.05	437.94
662.39	436.08
662.73	434.21
663.07	432.38
663.41	430.69
663.75	428.87
664.09	426.86
664.43	425.01
664.77	423.37
665.11	421.42
665.45	419.64
665.79	417.94
666.13	416.01
666.47	414.46
666.81	412.61
667.15	410.80
667.49	408.95
667.83	407.45
668.17	405.77
668.51	404.07
668.85	402.38
669.19	400.73
669.53	399.12
669.87	397.43
670.21	395.87
670.55	394.19
670.89	392.82
671.23	391.41
671.57	390.00
671.91	388.44
672.25	386.89
672.58	385.49
672.92	383.94
673.26	382.62
673.60	381.27
673.94	379.94
674.28	378.80
674.62	377.60
674.96	376.30
675.30	374.92
675.64	373.47
675.97	372.02
676.31	370.98
676.65	369.70
676.99	368.51
677.33	367.21
677.67	365.97
678.01	364.64
678.34	363.29
678.68	362.03
679.02	360.68
679.36	359.59
679.70	358.35
680.04	357.13
680.37	355.89
680.71	354.61
681.05	353.41
681.39	352.30
681.73	351.13
682.06	350.09
682.40	349.16
682.74	348.13
683.08	347.15
683.42	345.92
683.75	344.92
684.09	343.79
684.43	342.64
684.77	341.65
685.10	340.53
685.44	339.51
685.78	338.57
686.12	337.54
686.45	336.53
686.79	335.46
687.13	334.43
687.46	333.40
687.80	332.34
688.14	331.35
688.48	330.31
688.81	329.30
689.15	328.35
689.49	327.25
689.82	326.41
690.16	325.35
690.50	324.39
690.83	323.29
691.17	322.25
691.51	321.24
691.84	320.29
692.18	319.37
692.52	318.46
692.85	317.50
693.19	316.71
693.52	315.69
693.86	314.72
694.20	313.90
694.53	313.00
694.87	312.15
695.21	311.30
695.54	310.42
695.88	309.46
696.21	308.55
696.55	307.69
696.88	306.85
697.22	306.01
697.56	305.16
697.89	304.42
698.23	303.65
698.56	302.95
698.90	302.07
699.23	301.17
699.57	300.30
699.90	299.40
700.24	298.50
700.58	297.84
700.91	297.09
701.25	296.43
701.58	295.77
701.92	294.99
702.25	294.19
702.59	293.36
702.92	292.72
703.26	291.99
703.59	291.24
703.93	290.57
704.26	289.88
704.60	289.25
704.93	288.58
705.26	287.96
705.60	287.22
705.93	286.48
706.27	286.14
706.60	285.66
706.94	285.13
707.27	284.52
707.61	283.82
707.94	283.21
708.27	282.43
708.61	281.66
708.94	281.25
709.28	280.69
709.61	280.13
709.94	279.49
710.28	278.84
710.61	278.38
710.95	277.74
711.28	277.27
711.61	276.85
711.95	276.34
712.28	275.73
712.61	275.25
712.95	274.87
713.28	274.16
713.61	273.60
713.95	273.02
714.28	272.54
714.61	272.06
714.95	271.57
715.28	271.05
715.61	270.67
715.95	270.11
716.28	269.56
716.61	269.17
716.95	268.78
717.28	268.40
717.61	267.84
717.94	267.33
718.28	266.69
718.61	266.16
718.94	265.77
719.27	265.35
719.61	264.96
719.94	264.51
720.27	264.08
720.60	263.68
720.94	263.36
721.27	262.99
721.60	262.67
721.93	262.42
722.27	262.21
722.60	261.89
722.93	261.54
723.26	261.27
723.59	260.84
723.93	260.57
724.26	260.21
724.59	259.86
724.92	259.69
725.25	259.61
725.59	259.39
725.92	259.15
726.25	258.95
726.58	258.70
726.91	258.49
727.24	258.24
727.57	257.92
727.91	257.66
728.24	257.44
728.57	257.21
728.90	256.96
729.23	256.62
729.56	256.53
729.89	256.25
730.22	256.06
730.55	255.86
730.89	255.58
731.22	255.38
731.55	255.20
731.88	254.85
732.21	254.53
732.54	254.14
732.87	253.90
733.20	253.64
733.53	253.32
733.86	253.18
734.19	252.91
734.52	252.69
734.85	252.46
735.18	252.16
735.51	251.98
735.84	251.73
736.17	251.54
736.50	251.20
736.83	251.25
737.16	250.97
737.49	250.70
737.82	250.49
738.15	250.27
738.48	250.01
738.81	249.79
739.14	249.69
739.47	249.59
739.80	249.21
740.13	249.00
740.46	248.84
740.79	248.60
741.12	248.45
741.45	248.27
741.78	248.10
742.11	247.96
742.44	247.64
742.77	247.44
743.10	247.20
743.43	246.94
743.75	246.39
744.08	246.42
744.41	246.23
744.74	246.00
745.07	245.85
745.40	245.77
745.73	245.80
746.06	245.49
746.39	245.27
746.71	245.16
747.04	244.96
747.37	244.61
747.70	244.38
748.03	244.09
748.36	244.03
748.68	243.76
749.01	243.50
749.34	243.34
749.67	243.08
750.00	242.90
750.33	242.88
750.65	242.82
750.98	242.50
751.31	242.33
751.64	242.22
751.97	242.05
752.29	241.75
752.62	241.38
752.95	241.21
753.28	240.97
753.60	240.79
753.93	240.66
754.26	240.62
754.59	240.45
754.91	240.21
755.24	239.96
755.57	239.85
755.90	239.68
756.22	239.44
756.55	239.35
756.88	239.31
757.20	239.05
757.53	238.80
757.86	238.60
758.19	238.51
758.51	238.26
758.84	238.02
759.17	238.04
759.49	237.98
759.82	238.07
760.15	238.00
760.47	237.96
760.80	237.76
761.13	237.73
761.45	237.50
761.78	237.42
762.11	237.36
762.43	237.28
762.76	237.21
763.08	237.17
763.41	237.04
763.74	236.88
764.06	236.75
764.39	236.70
764.71	236.69
765.04	236.63
765.37	236.58
765.69	236.62
766.02	236.43
766.34	236.33
766.67	236.03
767.00	236.10
767.32	236.08
767.65	236.21
767.97	236.16
768.30	236.20
768.62	236.30
768.95	236.13
769.27	236.06
769.60	236.13
769.92	236.03
770.25	236.05
770.57	235.97
770.90	235.91
771.22	235.82
771.55	235.70
771.87	235.59
772.20	235.62
772.52	235.64
772.85	235.89
773.17	235.87
773.50	235.89
773.82	235.88
774.15	235.78
774.47	235.69
774.80	235.58
775.12	235.56
775.45	235.46
775.77	235.42
776.09	235.47
776.42	235.31
776.74	235.37
777.07	235.20
777.39	235.23
777.72	235.17
778.04	235.20
778.36	235.20
778.69	235.14
779.01	235.01
779.33	234.83
779.66	234.60
779.98	234.53
780.31	234.41
780.63	234.23
780.95	234.20
781.28	234.05
781.60	233.95
781.92	233.76
782.25	233.72
782.57	233.68
782.89	233.46
783.22	233.42
783.54	233.30
783.86	233.38
784.19	233.17
784.51	233.22
784.83	233.07
785.16	233.00
785.48	232.97
785.80	233.00
786.12	232.85
786.45	232.70
786.77	232.70
787.09	232.65
787.42	232.50
787.74	232.48
788.06	232.34
788.38	232.28
788.71	232.34
789.03	232.29
789.35	232.30
789.67	232.24
789.99	232.13
790.32	232.05
790.64	232.02
790.96	232.06
791.28	231.87
791.61	231.88
791.93	231.83
792.25	231.63
792.57	231.62
792.89	231.71
793.21	231.68
793.54	231.61
