SpectraSuite Data File
++++++++++++++++++++++++++++++++++++
Date: Fri Feb 01 14:38:29 EST 2013
User: group
Dark Spectrum Present: No
Reference Spectrum Present: No
Number of Sampled Component Spectra: 1
Spectrometers: USB2E7196
Integration Time (usec): 70000 (USB2E7196)
Spectra Averaged: 10 (USB2E7196)
Boxcar Smoothing: 10 (USB2E7196)
Correct for Electrical Dark: No (USB2E7196)
Strobe/Lamp Enabled: No (USB2E7196)
Correct for Detector Non-linearity: No (USB2E7196)
Correct for Stray Light: No (USB2E7196)
Number of Pixels in Processed Spectrum: 2048
>>>>>Begin Processed Spectral Data<<<<<
339.09	0.00
339.48	216.50
339.86	217.80
340.24	217.50
340.63	222.30
341.01	225.20
341.39	222.80
341.78	224.70
342.16	226.30
342.54	226.40
342.93	214.93
343.31	225.83
343.69	226.37
344.07	226.78
344.46	227.26
344.84	227.58
345.22	227.65
345.60	227.88
345.99	228.03
346.37	228.17
346.75	228.23
347.13	228.27
347.52	228.30
347.90	228.36
348.28	228.33
348.66	228.29
349.05	228.18
349.43	228.21
349.81	228.27
350.19	228.41
350.57	228.35
350.96	228.32
351.34	228.40
351.72	228.40
352.10	228.54
352.48	228.60
352.87	228.67
353.25	228.77
353.63	228.82
354.01	228.88
354.39	228.95
354.77	229.04
355.15	229.22
355.54	229.07
355.92	229.23
356.30	229.32
356.68	229.54
357.06	229.59
357.44	229.52
357.82	229.57
358.20	229.57
358.58	229.63
358.97	229.70
359.35	229.72
359.73	229.87
360.11	229.87
360.49	229.95
360.87	229.95
361.25	230.08
361.63	230.16
362.01	230.25
362.39	230.19
362.77	230.24
363.15	230.13
363.53	230.19
363.91	230.10
364.29	230.11
364.67	229.90
365.05	229.93
365.43	229.98
365.81	229.96
366.19	230.04
366.57	230.15
366.95	230.13
367.33	230.09
367.71	230.03
368.09	230.07
368.47	230.03
368.85	229.98
369.23	229.88
369.61	229.86
369.99	229.77
370.37	229.79
370.75	229.83
371.13	229.75
371.51	229.73
371.89	229.73
372.27	229.63
372.65	229.70
373.03	229.62
373.41	229.60
373.78	229.53
374.16	229.35
374.54	229.16
374.92	229.02
375.30	228.92
375.68	228.77
376.06	228.71
376.44	228.63
376.82	228.50
377.19	228.38
377.57	228.26
377.95	228.20
378.33	228.05
378.71	227.83
379.09	227.78
379.47	227.70
379.84	227.52
380.22	227.43
380.60	227.29
380.98	227.12
381.36	227.07
381.73	226.98
382.11	227.00
382.49	226.98
382.87	226.94
383.25	226.81
383.62	226.97
384.00	226.84
384.38	226.64
384.76	226.58
385.13	226.63
385.51	226.54
385.89	226.32
386.27	226.26
386.64	226.19
387.02	226.16
387.40	226.07
387.78	226.04
388.15	226.04
388.53	226.03
388.91	226.03
389.29	225.93
389.66	225.94
390.04	225.81
390.42	225.90
390.79	225.81
391.17	225.83
391.55	225.57
391.92	225.54
392.30	225.64
392.68	225.61
393.05	225.66
393.43	225.63
393.81	225.71
394.18	225.76
394.56	225.87
394.94	225.94
395.31	225.97
395.69	226.04
396.06	226.03
396.44	226.02
396.82	226.08
397.19	226.28
397.57	226.34
397.95	226.49
398.32	226.35
398.70	226.52
399.07	226.70
399.45	226.89
399.82	226.94
400.20	227.10
400.58	227.22
400.95	227.26
401.33	227.46
401.70	227.75
402.08	227.84
402.45	227.86
402.83	227.99
403.20	228.17
403.58	228.30
403.95	228.57
404.33	228.75
404.71	228.91
405.08	229.24
405.46	229.38
405.83	229.58
406.21	229.89
406.58	230.10
406.96	230.35
407.33	230.59
407.70	230.94
408.08	231.29
408.45	231.71
408.83	232.02
409.20	232.29
409.58	232.50
409.95	232.84
410.33	233.32
410.70	233.56
411.08	233.98
411.45	234.43
411.82	234.79
412.20	235.22
412.57	235.76
412.95	236.04
413.32	236.63
413.69	237.13
414.07	237.60
414.44	238.20
414.82	238.73
415.19	239.36
415.56	240.00
415.94	240.63
416.31	241.28
416.68	241.93
417.06	242.87
417.43	243.68
417.81	244.61
418.18	245.52
418.55	246.63
418.93	247.77
419.30	248.80
419.67	249.92
420.04	251.10
420.42	252.38
420.79	253.87
421.16	255.38
421.54	256.80
421.91	258.40
422.28	259.92
422.66	261.52
423.03	263.30
423.40	264.99
423.77	266.82
424.15	268.74
424.52	270.66
424.89	272.79
425.26	274.90
425.64	276.76
426.01	278.76
426.38	280.99
426.75	283.09
427.13	285.43
427.50	287.80
427.87	290.25
428.24	292.71
428.61	294.97
428.99	297.52
429.36	300.32
429.73	303.02
430.10	305.65
430.47	308.43
430.85	311.25
431.22	314.28
431.59	317.62
431.96	320.58
432.33	324.19
432.70	327.37
433.08	331.20
433.45	334.93
433.82	338.67
434.19	342.66
434.56	346.70
434.93	350.38
435.30	354.27
435.68	358.55
436.05	362.65
436.42	366.53
436.79	370.10
437.16	374.05
437.53	378.07
437.90	382.49
438.27	386.53
438.64	390.64
439.01	394.51
439.38	397.79
439.75	401.21
440.13	404.82
440.50	408.39
440.87	411.31
441.24	414.36
441.61	417.53
441.98	419.78
442.35	422.74
442.72	425.85
443.09	428.74
443.46	430.49
443.83	431.62
444.20	432.95
444.57	434.62
444.94	435.40
445.31	436.43
445.68	437.26
446.05	437.99
446.42	437.93
446.79	437.79
447.16	437.50
447.53	437.44
447.90	436.31
448.27	435.22
448.64	433.40
449.01	432.09
449.37	429.86
449.74	427.86
450.11	425.00
450.48	421.77
450.85	418.55
451.22	415.77
451.59	413.37
451.96	410.89
452.33	407.50
452.70	404.49
453.07	400.79
453.43	396.87
453.80	393.08
454.17	389.51
454.54	386.15
454.91	382.50
455.28	378.80
455.65	375.37
456.02	371.93
456.38	368.97
456.75	365.40
457.12	362.35
457.49	359.15
457.86	356.01
458.23	353.47
458.59	350.68
458.96	347.78
459.33	344.92
459.70	342.28
460.07	340.17
460.43	337.78
460.80	335.43
461.17	333.40
461.54	331.21
461.91	329.12
462.27	327.04
462.64	325.27
463.01	323.35
463.38	321.54
463.74	319.38
464.11	317.75
464.48	316.19
464.85	314.69
465.21	313.38
465.58	312.02
465.95	310.34
466.32	308.81
466.68	307.45
467.05	306.20
467.42	304.87
467.78	303.38
468.15	301.94
468.52	300.95
468.88	299.49
469.25	298.28
469.62	297.15
469.98	296.00
470.35	294.85
470.72	293.85
471.08	292.66
471.45	291.86
471.82	290.92
472.18	289.90
472.55	288.97
472.92	287.95
473.28	287.14
473.65	286.36
474.02	285.54
474.38	284.75
474.75	284.11
475.11	283.31
475.48	282.72
475.85	282.21
476.21	281.58
476.58	281.19
476.94	280.71
477.31	280.31
477.67	279.75
478.04	279.41
478.41	278.91
478.77	278.81
479.14	278.44
479.50	278.03
479.87	277.71
480.23	277.41
480.60	277.17
480.96	276.85
481.33	276.66
481.69	276.45
482.06	276.30
482.42	276.15
482.79	276.05
483.15	275.83
483.52	275.87
483.88	275.72
484.25	275.63
484.61	275.62
484.98	275.63
485.34	275.75
485.71	275.64
486.07	275.78
486.44	275.56
486.80	275.62
487.17	275.75
487.53	275.97
487.90	276.07
488.26	276.31
488.62	276.57
488.99	276.67
489.35	276.81
489.72	276.99
490.08	277.17
490.44	277.34
490.81	277.59
491.17	277.83
491.54	278.20
491.90	278.48
492.26	278.67
492.63	278.97
492.99	279.10
493.36	279.53
493.72	279.90
494.08	280.18
494.45	280.49
494.81	280.82
495.17	281.09
495.54	281.43
495.90	281.74
496.26	282.03
496.63	282.39
496.99	282.77
497.35	283.21
497.72	283.49
498.08	283.86
498.44	284.34
498.80	284.62
499.17	284.93
499.53	285.37
499.89	285.73
500.26	286.00
500.62	286.65
500.98	287.12
501.34	287.51
501.71	287.96
502.07	288.27
502.43	288.55
502.79	288.97
503.16	289.40
503.52	289.73
503.88	290.03
504.24	290.44
504.60	290.82
504.97	291.17
505.33	291.61
505.69	292.13
506.05	292.54
506.41	292.95
506.78	293.31
507.14	293.54
507.50	294.00
507.86	294.46
508.22	294.68
508.59	294.93
508.95	295.36
509.31	295.90
509.67	296.57
510.03	297.11
510.39	297.56
510.75	298.10
511.12	298.64
511.48	299.27
511.84	299.90
512.20	300.47
512.56	301.02
512.92	301.72
513.28	302.40
513.64	303.03
514.00	303.73
514.37	304.47
514.73	305.28
515.09	306.22
515.45	307.14
515.81	308.24
516.17	309.30
516.53	310.36
516.89	311.49
517.25	312.63
517.61	313.90
517.97	315.37
518.33	316.70
518.69	318.16
519.05	319.70
519.41	321.30
519.77	323.11
520.13	325.03
520.49	326.82
520.85	328.55
521.21	330.60
521.57	332.67
521.93	334.78
522.29	337.02
522.65	339.22
523.01	341.60
523.37	343.72
523.73	346.30
524.09	349.00
524.45	351.66
524.81	354.43
525.17	357.29
525.53	360.02
525.89	362.95
526.25	365.95
526.61	368.97
526.97	372.11
527.33	375.41
527.68	378.80
528.04	382.31
528.40	385.92
528.76	389.54
529.12	393.26
529.48	397.20
529.84	400.89
530.20	404.90
530.56	408.90
530.91	413.25
531.27	417.48
531.63	421.61
531.99	425.86
532.35	430.32
532.71	434.83
533.07	439.37
533.42	444.15
533.78	449.19
534.14	454.08
534.50	458.95
534.86	463.74
535.21	468.67
535.57	473.90
535.93	479.07
536.29	484.35
536.65	489.59
537.00	494.79
537.36	500.35
537.72	505.66
538.08	511.33
538.44	516.74
538.79	522.30
539.15	527.85
539.51	533.43
539.87	539.04
540.22	544.71
540.58	550.85
540.94	556.68
541.29	562.24
541.65	568.01
542.01	573.99
542.37	580.01
542.72	585.86
543.08	591.37
543.44	597.31
543.79	603.03
544.15	609.13
544.51	615.54
544.87	621.64
545.22	627.68
545.58	633.56
545.94	639.48
546.29	645.46
546.65	651.73
547.01	657.74
547.36	663.58
547.72	669.55
548.07	675.27
548.43	681.05
548.79	686.88
549.14	692.70
549.50	698.47
549.86	704.29
550.21	709.99
550.57	715.98
550.92	721.69
551.28	727.43
551.64	733.00
551.99	738.56
552.35	744.04
552.70	749.67
553.06	755.38
553.41	760.98
553.77	766.54
554.13	771.91
554.48	777.63
554.84	783.32
555.19	788.65
555.55	794.04
555.90	799.38
556.26	804.50
556.61	809.99
556.97	815.10
557.32	820.10
557.68	825.41
558.03	830.68
558.39	836.07
558.74	841.45
559.10	846.63
559.45	851.38
559.81	857.01
560.16	861.75
560.52	866.65
560.87	871.62
561.23	876.20
561.58	880.89
561.94	885.24
562.29	889.49
562.64	894.02
563.00	898.33
563.35	903.07
563.71	908.11
564.06	912.61
564.42	917.08
564.77	921.63
565.12	926.04
565.48	930.37
565.83	934.20
566.19	938.27
566.54	942.16
566.89	946.39
567.25	949.84
567.60	954.25
567.96	958.05
568.31	961.73
568.66	965.51
569.02	969.12
569.37	972.56
569.72	976.39
570.08	979.77
570.43	983.26
570.78	986.03
571.14	988.53
571.49	991.40
571.84	994.72
572.20	997.11
572.55	999.80
572.90	1002.26
573.26	1004.83
573.61	1007.22
573.96	1009.56
574.31	1011.31
574.67	1013.03
575.02	1014.41
575.37	1015.93
575.72	1017.24
576.08	1018.91
576.43	1020.13
576.78	1021.78
577.13	1023.22
577.49	1024.95
577.84	1025.97
578.19	1027.45
578.54	1028.84
578.90	1029.64
579.25	1030.25
579.60	1031.32
579.95	1031.62
580.30	1032.23
580.66	1032.75
581.01	1033.02
581.36	1033.48
581.71	1034.20
582.06	1034.92
582.42	1035.38
582.77	1035.89
583.12	1036.55
583.47	1036.79
583.82	1037.18
584.17	1037.06
584.53	1037.21
584.88	1037.17
585.23	1037.38
585.58	1037.02
585.93	1036.98
586.28	1036.92
586.63	1036.71
586.98	1036.80
587.34	1036.89
587.69	1036.70
588.04	1036.98
588.39	1037.00
588.74	1036.40
589.09	1035.62
589.44	1034.77
589.79	1034.47
590.14	1033.72
590.49	1033.06
590.84	1032.38
591.19	1031.63
591.54	1030.60
591.89	1028.92
592.25	1027.71
592.60	1026.28
592.95	1025.10
593.30	1023.73
593.65	1022.41
594.00	1021.12
594.35	1019.91
594.70	1018.27
595.05	1016.59
595.40	1014.48
595.75	1012.41
596.10	1011.30
596.45	1010.22
596.80	1009.14
597.15	1007.72
597.50	1006.19
597.85	1004.72
598.19	1003.27
598.54	1001.74
598.89	1000.68
599.24	999.71
599.59	998.17
599.94	996.87
600.29	995.16
600.64	993.68
600.99	991.69
601.34	990.01
601.69	987.84
602.04	986.09
602.39	984.31
602.74	982.56
603.08	981.06
603.43	979.14
603.78	976.94
604.13	974.72
604.48	972.62
604.83	970.82
605.18	968.85
605.53	966.31
605.87	963.75
606.22	961.33
606.57	958.85
606.92	956.35
607.27	954.11
607.62	952.29
607.96	950.04
608.31	947.93
608.66	945.26
609.01	942.60
609.36	939.86
609.70	937.16
610.05	934.49
610.40	931.98
610.75	929.11
611.10	926.32
611.44	923.17
611.79	920.22
612.14	917.10
612.49	913.56
612.83	910.25
613.18	907.46
613.53	904.80
613.88	901.38
614.22	898.09
614.57	894.60
614.92	891.24
615.27	887.79
615.61	884.53
615.96	881.17
616.31	878.31
616.65	875.60
617.00	872.26
617.35	869.09
617.70	865.50
618.04	862.07
618.39	858.55
618.74	855.61
619.08	852.28
619.43	849.07
619.78	846.50
620.12	843.87
620.47	840.73
620.82	836.93
621.16	834.07
621.51	831.28
621.85	828.30
622.20	824.72
622.55	821.46
622.89	818.53
623.24	815.72
623.59	812.50
623.93	809.33
624.28	806.40
624.62	803.47
624.97	800.63
625.32	797.49
625.66	794.74
626.01	791.77
626.35	788.69
626.70	785.54
627.04	782.48
627.39	779.11
627.73	775.84
628.08	773.07
628.43	769.71
628.77	766.58
629.12	763.37
629.46	760.40
629.81	757.05
630.15	753.64
630.50	750.19
630.84	746.59
631.19	742.95
631.53	739.66
631.88	736.00
632.22	732.31
632.57	729.31
632.91	726.13
633.26	722.53
633.60	718.92
633.95	715.61
634.29	712.01
634.64	709.00
634.98	705.76
635.32	702.73
635.67	699.87
636.01	696.83
636.36	693.55
636.70	690.48
637.05	687.75
637.39	684.86
637.73	681.84
638.08	679.36
638.42	676.80
638.77	673.98
639.11	671.05
639.45	668.38
639.80	665.26
640.14	662.17
640.49	659.49
640.83	656.58
641.17	653.87
641.52	651.07
641.86	648.00
642.20	645.25
642.55	642.06
642.89	639.14
643.23	635.95
643.58	633.44
643.92	630.57
644.26	627.72
644.61	624.92
644.95	622.24
645.29	618.96
645.64	615.79
645.98	613.00
646.32	610.43
646.66	607.61
647.01	604.68
647.35	601.80
647.69	598.82
648.04	596.21
648.38	593.06
648.72	589.99
649.06	587.13
649.41	584.29
649.75	581.24
650.09	578.24
650.43	575.30
650.78	571.98
651.12	569.03
651.46	566.06
651.80	563.26
652.14	560.30
652.49	557.68
652.83	554.87
653.17	551.92
653.51	548.91
653.85	545.75
654.20	542.86
654.54	540.02
654.88	536.98
655.22	534.00
655.56	531.04
655.90	528.23
656.25	525.47
656.59	522.73
656.93	520.18
657.27	517.45
657.61	514.64
657.95	512.29
658.29	509.60
658.64	506.97
658.98	504.06
659.32	501.39
659.66	498.60
660.00	496.07
660.34	493.49
660.68	490.72
661.02	488.29
661.36	485.89
661.70	483.28
662.05	481.05
662.39	478.84
662.73	476.58
663.07	474.54
663.41	472.29
663.75	470.11
664.09	467.86
664.43	465.64
664.77	463.46
665.11	461.15
665.45	458.94
665.79	456.72
666.13	454.68
666.47	452.53
666.81	450.39
667.15	448.16
667.49	445.93
667.83	444.06
668.17	442.01
668.51	440.07
668.85	438.17
669.19	436.16
669.53	434.12
669.87	432.16
670.21	429.99
670.55	428.02
670.89	426.13
671.23	424.31
671.57	422.36
671.91	420.64
672.25	418.90
672.58	417.28
672.92	415.59
673.26	413.97
673.60	412.30
673.94	410.61
674.28	409.17
674.62	407.71
674.96	406.03
675.30	404.54
675.64	403.03
675.97	401.49
676.31	399.99
676.65	398.54
676.99	397.12
677.33	395.51
677.67	394.02
678.01	392.28
678.34	390.77
678.68	389.51
679.02	388.07
679.36	386.62
679.70	385.09
680.04	383.59
680.37	382.00
680.71	380.49
681.05	379.25
681.39	377.73
681.73	376.19
682.06	375.03
682.40	373.65
682.74	372.16
683.08	370.81
683.42	369.42
683.75	367.91
684.09	366.67
684.43	365.38
684.77	364.09
685.10	362.90
685.44	361.45
685.78	360.10
686.12	358.76
686.45	357.34
686.79	356.09
687.13	354.81
687.46	353.59
687.80	352.39
688.14	350.93
688.48	349.78
688.81	348.54
689.15	347.16
689.49	345.91
689.82	344.77
690.16	343.47
690.50	342.31
690.83	341.13
691.17	339.82
691.51	338.64
691.84	337.43
692.18	336.14
692.52	334.89
692.85	333.67
693.19	332.45
693.52	331.21
693.86	330.03
694.20	328.94
694.53	327.72
694.87	326.57
695.21	325.51
695.54	324.30
695.88	323.23
696.21	322.01
696.55	320.95
696.88	319.89
697.22	318.93
697.56	317.80
697.89	316.81
698.23	315.72
698.56	314.70
698.90	313.70
699.23	312.69
699.57	311.80
699.90	310.88
700.24	310.01
700.58	309.16
700.91	308.17
701.25	307.21
701.58	306.50
701.92	305.64
702.25	304.70
702.59	303.86
702.92	303.12
703.26	302.30
703.59	301.39
703.93	300.65
704.26	299.80
704.60	299.15
704.93	298.27
705.26	297.52
705.60	296.85
705.93	296.10
706.27	295.38
706.60	294.76
706.94	293.99
707.27	293.25
707.61	292.57
707.94	291.92
708.27	291.17
708.61	290.31
708.94	289.51
709.28	288.82
709.61	288.21
709.94	287.44
710.28	286.92
710.61	286.42
710.95	285.60
711.28	285.03
711.61	284.39
711.95	283.80
712.28	283.17
712.61	282.47
712.95	281.92
713.28	281.32
713.61	280.62
713.95	279.92
714.28	279.23
714.61	278.67
714.95	278.03
715.28	277.46
715.61	276.91
715.95	276.51
716.28	275.99
716.61	275.46
716.95	274.84
717.28	274.18
717.61	273.55
717.94	273.06
718.28	272.50
718.61	271.92
718.94	271.56
719.27	271.14
719.61	270.74
719.94	270.29
720.27	269.81
720.60	269.35
720.94	269.02
721.27	268.69
721.60	268.19
721.93	267.83
722.27	267.52
722.60	267.14
722.93	266.73
723.26	266.35
723.59	265.95
723.93	265.68
724.26	265.40
724.59	265.01
724.92	264.66
725.25	264.21
725.59	263.85
725.92	263.53
726.25	263.20
726.58	262.85
726.91	262.56
727.24	262.24
727.57	262.01
727.91	261.57
728.24	261.25
728.57	261.02
728.90	260.74
729.23	260.38
729.56	260.19
729.89	259.82
730.22	259.64
730.55	259.40
730.89	259.10
731.22	258.75
731.55	258.50
731.88	258.24
732.21	258.04
732.54	257.72
732.87	257.30
733.20	257.04
733.53	256.75
733.86	256.45
734.19	256.14
734.52	255.81
734.85	255.79
735.18	255.51
735.51	255.28
735.84	255.01
736.17	254.69
736.50	254.27
736.83	254.34
737.16	254.09
737.49	253.75
737.82	253.49
738.15	253.32
738.48	252.98
738.81	252.80
739.14	252.43
739.47	252.26
739.80	252.03
740.13	251.78
740.46	251.45
740.79	251.26
741.12	251.12
741.45	250.84
741.78	250.47
742.11	250.28
742.44	249.98
742.77	249.76
743.10	249.52
743.43	249.32
743.75	248.79
744.08	248.66
744.41	248.45
744.74	248.13
745.07	247.86
745.40	247.79
745.73	247.47
746.06	247.34
746.39	247.04
746.71	246.75
747.04	246.46
747.37	246.23
747.70	245.91
748.03	245.53
748.36	245.30
748.68	245.11
749.01	244.83
749.34	244.60
749.67	244.31
750.00	244.09
750.33	244.01
750.65	243.90
750.98	243.52
751.31	243.27
751.64	243.20
751.97	243.14
752.29	242.91
752.62	242.70
752.95	242.50
753.28	242.45
753.60	242.36
753.93	242.21
754.26	242.08
754.59	241.75
754.91	241.67
755.24	241.54
755.57	241.25
755.90	241.02
756.22	240.86
756.55	240.66
756.88	240.49
757.20	240.18
757.53	239.90
757.86	239.78
758.19	239.66
758.51	239.42
758.84	239.17
759.17	238.91
759.49	238.77
759.82	238.72
760.15	238.55
760.47	238.42
760.80	238.20
761.13	238.12
761.45	238.13
761.78	237.92
762.11	237.87
762.43	237.83
762.76	237.81
763.08	237.73
763.41	237.60
763.74	237.58
764.06	237.42
764.39	237.35
764.71	237.32
765.04	237.19
765.37	237.15
765.69	237.10
766.02	237.12
766.34	236.95
766.67	236.82
767.00	236.67
767.32	236.57
767.65	236.54
767.97	236.47
768.30	236.37
768.62	236.36
768.95	236.20
769.27	236.09
769.60	235.93
769.92	235.82
770.25	235.83
770.57	235.63
770.90	235.53
771.22	235.49
771.55	235.42
771.87	235.40
772.20	235.23
772.52	235.27
772.85	235.32
773.17	235.35
773.50	235.27
773.82	235.24
774.15	235.20
774.47	235.18
774.80	235.04
775.12	234.92
775.45	234.84
775.77	234.89
776.09	234.77
776.42	234.75
776.74	234.76
777.07	234.75
777.39	234.84
777.72	234.90
778.04	234.80
778.36	234.61
778.69	234.59
779.01	234.59
779.33	234.39
779.66	234.19
779.98	234.21
780.31	234.18
780.63	234.12
780.95	234.12
781.28	233.96
781.60	234.02
781.92	234.00
782.25	233.92
782.57	233.90
782.89	233.78
783.22	233.79
783.54	233.70
783.86	233.62
784.19	233.58
784.51	233.54
784.83	233.41
785.16	233.42
785.48	233.34
785.80	233.32
786.12	233.23
786.45	233.15
786.77	232.96
787.09	232.92
787.42	232.84
787.74	232.76
788.06	232.73
788.38	232.61
788.71	232.62
789.03	232.65
789.35	232.56
789.67	232.62
789.99	232.59
790.32	232.43
790.64	232.41
790.96	232.49
791.28	232.35
791.61	232.40
791.93	232.32
792.25	232.23
792.57	232.30
