SpectraSuite Data File
++++++++++++++++++++++++++++++++++++
Date: Fri Feb 01 14:40:50 EST 2013
User: group
Dark Spectrum Present: No
Reference Spectrum Present: No
Number of Sampled Component Spectra: 1
Spectrometers: USB2E7196
Integration Time (usec): 70000 (USB2E7196)
Spectra Averaged: 10 (USB2E7196)
Boxcar Smoothing: 10 (USB2E7196)
Correct for Electrical Dark: No (USB2E7196)
Strobe/Lamp Enabled: No (USB2E7196)
Correct for Detector Non-linearity: No (USB2E7196)
Correct for Stray Light: No (USB2E7196)
Number of Pixels in Processed Spectrum: 2048
>>>>>Begin Processed Spectral Data<<<<<
339.09	0.00
339.48	215.90
339.86	216.80
340.24	218.20
340.63	218.90
341.01	223.10
341.39	222.70
341.78	221.90
342.16	224.50
342.54	225.40
342.93	213.29
343.31	223.97
343.69	224.49
344.07	224.94
344.46	225.36
344.84	225.71
345.22	225.87
345.60	226.12
345.99	226.28
346.37	226.36
346.75	226.39
347.13	226.53
347.52	226.64
347.90	226.86
348.28	226.89
348.66	226.86
349.05	226.78
349.43	226.88
349.81	227.02
350.19	227.06
350.57	227.13
350.96	227.20
351.34	227.37
351.72	227.40
352.10	227.51
352.48	227.61
352.87	227.79
353.25	227.80
353.63	227.82
354.01	228.03
354.39	228.20
354.77	228.38
355.15	228.50
355.54	228.50
355.92	228.45
356.30	228.53
356.68	228.82
357.06	229.00
357.44	229.03
357.82	229.20
358.20	229.39
358.58	229.50
358.97	229.60
359.35	229.80
359.73	229.94
360.11	230.03
360.49	230.08
360.87	230.10
361.25	230.29
361.63	230.53
362.01	230.63
362.39	230.70
362.77	230.74
363.15	230.80
363.53	231.00
363.91	231.02
364.29	231.05
364.67	230.79
365.05	230.84
365.43	231.02
365.81	231.03
366.19	231.10
366.57	231.18
366.95	231.24
367.33	231.16
367.71	231.15
368.09	231.21
368.47	231.18
368.85	231.17
369.23	231.23
369.61	231.06
369.99	231.02
370.37	231.08
370.75	231.20
371.13	231.19
371.51	231.11
371.89	231.20
372.27	231.21
372.65	231.19
373.03	231.13
373.41	230.91
373.78	230.77
374.16	230.63
374.54	230.55
374.92	230.44
375.30	230.38
375.68	230.33
376.06	230.28
376.44	230.24
376.82	230.21
377.19	230.14
377.57	230.11
377.95	230.04
378.33	229.80
378.71	229.50
379.09	229.43
379.47	229.34
379.84	229.11
380.22	229.09
380.60	229.09
380.98	229.03
381.36	228.96
381.73	228.87
382.11	228.76
382.49	228.64
382.87	228.59
383.25	228.51
383.62	228.66
384.00	228.55
384.38	228.46
384.76	228.42
385.13	228.37
385.51	228.30
385.89	228.13
386.27	228.21
386.64	228.28
387.02	228.27
387.40	228.25
387.78	228.28
388.15	228.22
388.53	228.17
388.91	228.07
389.29	228.05
389.66	227.99
390.04	227.99
390.42	227.95
390.79	227.92
391.17	227.90
391.55	227.63
391.92	227.58
392.30	227.70
392.68	227.62
393.05	227.55
393.43	227.45
393.81	227.46
394.18	227.34
394.56	227.31
394.94	227.28
395.31	227.23
395.69	227.35
396.06	227.35
396.44	227.24
396.82	227.26
397.19	227.45
397.57	227.53
397.95	227.69
398.32	227.64
398.70	227.66
399.07	227.86
399.45	227.94
399.82	227.98
400.20	227.99
400.58	228.17
400.95	228.16
401.33	228.40
401.70	228.70
402.08	228.80
402.45	228.99
402.83	229.15
403.20	229.39
403.58	229.52
403.95	229.60
404.33	229.75
404.71	229.92
405.08	230.08
405.46	230.25
405.83	230.34
406.21	230.60
406.58	230.92
406.96	230.97
407.33	231.26
407.70	231.49
408.08	231.80
408.45	231.97
408.83	232.37
409.20	232.50
409.58	232.63
409.95	232.93
410.33	233.12
410.70	233.32
411.08	233.47
411.45	233.71
411.82	234.01
412.20	234.56
412.57	235.11
412.95	235.30
413.32	235.64
413.69	236.02
414.07	236.55
414.44	236.88
414.82	237.47
415.19	237.85
415.56	238.36
415.94	238.85
416.31	239.48
416.68	240.08
417.06	240.86
417.43	241.60
417.81	242.42
418.18	243.31
418.55	244.20
418.93	245.19
419.30	246.07
419.67	247.17
420.04	248.12
420.42	249.01
420.79	250.25
421.16	251.50
421.54	252.79
421.91	254.01
422.28	255.44
422.66	256.69
423.03	258.31
423.40	259.74
423.77	261.15
424.15	262.68
424.52	264.26
424.89	265.99
425.26	267.59
425.64	269.11
426.01	270.70
426.38	272.42
426.75	274.25
427.13	276.02
427.50	277.78
427.87	279.72
428.24	281.57
428.61	283.53
428.99	285.58
429.36	287.79
429.73	289.98
430.10	292.03
430.47	294.30
430.85	296.31
431.22	298.61
431.59	301.33
431.96	303.66
432.33	306.18
432.70	308.58
433.08	311.47
433.45	314.14
433.82	316.84
434.19	319.85
434.56	322.71
434.93	325.61
435.30	328.46
435.68	331.51
436.05	334.65
436.42	337.49
436.79	340.14
437.16	342.93
437.53	345.76
437.90	348.70
438.27	351.61
438.64	354.57
439.01	357.27
439.38	359.43
439.75	361.62
440.13	364.22
440.50	366.63
440.87	368.49
441.24	370.60
441.61	372.78
441.98	374.28
442.35	376.18
442.72	378.00
443.09	379.84
443.46	380.84
443.83	381.36
444.20	381.90
444.57	382.68
444.94	382.85
445.31	383.26
445.68	383.70
446.05	383.57
446.42	383.22
446.79	382.86
447.16	382.26
447.53	381.98
447.90	380.60
448.27	379.50
448.64	377.92
449.01	376.80
449.37	374.89
449.74	372.92
450.11	370.70
450.48	368.17
450.85	365.52
451.22	363.26
451.59	361.20
451.96	359.11
452.33	356.41
452.70	353.97
453.07	350.94
453.43	347.73
453.80	344.97
454.17	342.14
454.54	339.45
454.91	336.62
455.28	333.68
455.65	331.20
456.02	328.56
456.38	326.32
456.75	323.36
457.12	320.99
457.49	318.70
457.86	316.31
458.23	314.28
458.59	312.20
458.96	310.03
459.33	307.94
459.70	305.92
460.07	304.31
460.43	302.50
460.80	300.85
461.17	299.33
461.54	297.78
461.91	296.28
462.27	294.77
462.64	293.58
463.01	292.17
463.38	290.90
463.74	289.37
464.11	288.13
464.48	287.06
464.85	285.78
465.21	284.74
465.58	283.70
465.95	282.60
466.32	281.58
466.68	280.58
467.05	279.70
467.42	278.80
467.78	277.88
468.15	276.85
468.52	276.08
468.88	275.12
469.25	274.22
469.62	273.50
469.98	272.69
470.35	271.87
470.72	271.20
471.08	270.44
471.45	269.95
471.82	269.25
472.18	268.59
472.55	268.03
472.92	267.49
473.28	266.84
473.65	266.23
474.02	265.57
474.38	265.04
474.75	264.63
475.11	264.05
475.48	263.63
475.85	263.34
476.21	262.92
476.58	262.56
476.94	262.19
477.31	261.70
477.67	261.37
478.04	261.10
478.41	260.86
478.77	260.82
479.14	260.50
479.50	260.33
479.87	260.00
480.23	259.81
480.60	259.60
480.96	259.42
481.33	259.41
481.69	259.31
482.06	259.16
482.42	258.93
482.79	259.00
483.15	258.88
483.52	258.88
483.88	258.90
484.25	259.00
484.61	258.90
484.98	259.13
485.34	259.45
485.71	259.67
486.07	259.88
486.44	259.78
486.80	259.94
487.17	260.12
487.53	260.57
487.90	260.97
488.26	261.42
488.62	261.83
488.99	262.10
489.35	262.51
489.72	263.08
490.08	263.64
490.44	264.20
490.81	264.76
491.17	265.41
491.54	266.18
491.90	267.00
492.26	267.77
492.63	268.48
492.99	269.22
493.36	270.15
493.72	271.22
494.08	272.29
494.45	273.41
494.81	274.66
495.17	275.97
495.54	277.24
495.90	278.63
496.26	280.17
496.63	281.91
496.99	283.60
497.35	285.42
497.72	287.33
498.08	289.20
498.44	291.35
498.80	293.52
499.17	295.87
499.53	298.19
499.89	300.87
500.26	303.52
500.62	306.26
500.98	309.25
501.34	312.11
501.71	315.35
502.07	318.65
502.43	322.08
502.79	325.51
503.16	329.34
503.52	333.25
503.88	337.19
504.24	341.25
504.60	345.57
504.97	350.08
505.33	354.65
505.69	359.71
506.05	364.69
506.41	369.86
506.78	375.15
507.14	380.62
507.50	386.19
507.86	392.18
508.22	398.29
508.59	404.40
508.95	410.76
509.31	417.30
509.67	424.23
510.03	431.18
510.39	438.28
510.75	445.45
511.12	452.93
511.48	460.74
511.84	468.67
512.20	476.85
512.56	485.22
512.92	493.98
513.28	502.48
513.64	511.25
514.00	520.24
514.37	529.45
514.73	539.21
515.09	548.99
515.45	558.77
515.81	568.68
516.17	578.87
516.53	589.32
516.89	599.77
517.25	610.41
517.61	621.40
517.97	632.53
518.33	643.80
518.69	655.33
519.05	666.93
519.41	678.81
519.77	690.93
520.13	702.94
520.49	714.90
520.85	727.12
521.21	739.54
521.57	752.28
521.93	764.67
522.29	777.17
522.65	789.76
523.01	802.77
523.37	815.86
523.73	828.87
524.09	842.20
524.45	855.92
524.81	869.64
525.17	883.59
525.53	897.53
525.89	911.65
526.25	925.63
526.61	939.53
526.97	954.06
527.33	968.21
527.68	982.75
528.04	996.99
528.40	1011.66
528.76	1026.90
529.12	1041.84
529.48	1057.10
529.84	1071.54
530.20	1086.98
530.56	1102.42
530.91	1118.07
531.27	1133.86
531.63	1148.92
531.99	1164.18
532.35	1179.11
532.71	1194.05
533.07	1209.49
533.42	1224.61
533.78	1239.79
534.14	1254.93
534.50	1269.10
534.86	1283.91
535.21	1298.40
535.57	1313.90
535.93	1328.83
536.29	1343.53
536.65	1358.67
537.00	1372.89
537.36	1388.18
537.72	1402.17
538.08	1416.35
538.44	1430.24
538.79	1444.08
539.15	1458.02
539.51	1472.19
539.87	1486.60
540.22	1500.54
540.58	1514.64
540.94	1528.34
541.29	1541.78
541.65	1555.43
542.01	1569.58
542.37	1583.06
542.72	1596.62
543.08	1609.50
543.44	1622.71
543.79	1634.88
544.15	1646.90
544.51	1660.23
544.87	1672.39
545.22	1684.89
545.58	1696.74
545.94	1707.76
546.29	1719.09
546.65	1730.45
547.01	1741.10
547.36	1751.87
547.72	1762.26
548.07	1772.60
548.43	1782.44
548.79	1792.90
549.14	1802.53
549.50	1812.04
549.86	1821.34
550.21	1830.22
550.57	1839.42
550.92	1848.42
551.28	1857.20
551.64	1865.95
551.99	1874.16
552.35	1882.91
552.70	1891.43
553.06	1900.22
553.41	1909.31
553.77	1918.04
554.13	1926.70
554.48	1935.01
554.84	1942.53
555.19	1950.55
555.55	1958.40
555.90	1965.98
556.26	1972.82
556.61	1980.53
556.97	1987.24
557.32	1994.48
557.68	2001.66
558.03	2008.74
558.39	2014.89
558.74	2022.30
559.10	2028.63
559.45	2034.93
559.81	2041.30
560.16	2046.61
560.52	2051.77
560.87	2057.46
561.23	2062.25
561.58	2067.82
561.94	2072.77
562.29	2077.76
562.64	2082.33
563.00	2086.55
563.35	2092.12
563.71	2097.32
564.06	2101.97
564.42	2106.84
564.77	2111.20
565.12	2115.72
565.48	2119.83
565.83	2123.49
566.19	2126.77
566.54	2130.47
566.89	2133.55
567.25	2136.19
567.60	2140.32
567.96	2143.32
568.31	2145.96
568.66	2149.00
569.02	2151.21
569.37	2153.02
569.72	2155.24
570.08	2156.85
570.43	2158.85
570.78	2159.55
571.14	2159.84
571.49	2160.87
571.84	2162.43
572.20	2163.08
572.55	2163.28
572.90	2162.73
573.26	2163.34
573.61	2163.33
573.96	2162.45
574.31	2161.96
574.67	2160.93
575.02	2159.09
575.37	2158.46
575.72	2156.66
576.08	2155.09
576.43	2153.48
576.78	2152.39
577.13	2150.89
577.49	2149.65
577.84	2147.30
578.19	2145.69
578.54	2143.69
578.90	2140.62
579.25	2136.93
579.60	2133.72
579.95	2130.42
580.30	2126.97
580.66	2123.35
581.01	2119.53
581.36	2116.66
581.71	2113.64
582.06	2110.35
582.42	2106.83
582.77	2102.68
583.12	2099.08
583.47	2095.45
583.82	2091.99
584.17	2087.74
584.53	2083.49
584.88	2079.65
585.23	2075.55
585.58	2071.38
585.93	2067.79
586.28	2064.53
586.63	2060.77
586.98	2057.26
587.34	2053.85
587.69	2050.25
588.04	2046.54
588.39	2042.86
588.74	2037.85
589.09	2032.78
589.44	2027.61
589.79	2023.30
590.14	2019.33
590.49	2014.42
590.84	2009.02
591.19	2004.02
591.54	1998.59
591.89	1992.42
592.25	1986.48
592.60	1980.09
592.95	1973.69
593.30	1967.47
593.65	1960.60
594.00	1954.32
594.35	1948.49
594.70	1941.69
595.05	1935.97
595.40	1929.00
595.75	1922.23
596.10	1916.28
596.45	1910.95
596.80	1906.07
597.15	1900.27
597.50	1893.89
597.85	1888.36
598.19	1883.00
598.54	1877.11
598.89	1871.69
599.24	1867.33
599.59	1861.89
599.94	1857.00
600.29	1851.53
600.64	1845.62
600.99	1839.38
601.34	1833.90
601.69	1827.56
602.04	1821.87
602.39	1815.65
602.74	1810.96
603.08	1806.32
603.43	1801.04
603.78	1794.57
604.13	1788.30
604.48	1781.95
604.83	1775.69
605.18	1769.72
605.53	1762.56
605.87	1755.20
606.22	1748.44
606.57	1741.32
606.92	1734.62
607.27	1728.22
607.62	1722.09
607.96	1715.60
608.31	1709.44
608.66	1702.20
609.01	1695.00
609.36	1687.15
609.70	1679.51
610.05	1671.20
610.40	1662.85
610.75	1655.00
611.10	1647.64
611.44	1639.23
611.79	1632.20
612.14	1624.04
612.49	1615.54
612.83	1607.76
613.18	1600.05
613.53	1592.71
613.88	1584.53
614.22	1576.81
614.57	1568.38
614.92	1560.12
615.27	1552.76
615.61	1544.99
615.96	1537.35
616.31	1530.37
616.65	1523.96
617.00	1516.86
617.35	1509.62
617.70	1502.17
618.04	1494.68
618.39	1486.95
618.74	1479.80
619.08	1471.79
619.43	1464.84
619.78	1457.90
620.12	1450.93
620.47	1443.82
620.82	1436.14
621.16	1429.02
621.51	1422.16
621.85	1415.08
622.20	1407.43
622.55	1399.81
622.89	1392.37
623.24	1385.30
623.59	1378.11
623.93	1370.64
624.28	1363.26
624.62	1356.03
624.97	1349.25
625.32	1342.36
625.66	1335.50
626.01	1328.49
626.35	1321.28
626.70	1313.86
627.04	1306.57
627.39	1299.34
627.73	1292.18
628.08	1285.34
628.43	1277.99
628.77	1270.22
629.12	1263.02
629.46	1255.90
629.81	1248.37
630.15	1241.38
630.50	1233.71
630.84	1225.55
631.19	1217.75
631.53	1210.47
631.88	1202.89
632.22	1194.95
632.57	1187.70
632.91	1179.97
633.26	1172.64
633.60	1165.09
633.95	1158.07
634.29	1151.44
634.64	1145.14
634.98	1137.98
635.32	1131.13
635.67	1124.88
636.01	1118.17
636.36	1111.28
636.70	1104.98
637.05	1098.60
637.39	1092.30
637.73	1086.35
638.08	1080.54
638.42	1074.86
638.77	1068.67
639.11	1062.59
639.45	1056.24
639.80	1049.66
640.14	1043.74
640.49	1037.73
640.83	1031.77
641.17	1025.75
641.52	1019.29
641.86	1012.77
642.20	1006.84
642.55	1000.59
642.89	994.40
643.23	988.14
643.58	982.69
643.92	976.40
644.26	970.35
644.61	964.34
644.95	958.11
645.29	951.48
645.64	944.83
645.98	938.72
646.32	933.06
646.66	927.19
647.01	921.20
647.35	915.29
647.69	909.37
648.04	903.70
648.38	897.21
648.72	890.83
649.06	884.39
649.41	878.39
649.75	872.16
650.09	865.97
650.43	860.09
650.78	853.36
651.12	847.33
651.46	841.45
651.80	835.71
652.14	830.16
652.49	824.76
652.83	819.38
653.17	813.57
653.51	807.54
653.85	802.16
654.20	796.45
654.54	790.45
654.88	784.58
655.22	778.48
655.56	772.91
655.90	767.71
656.25	762.54
656.59	757.12
656.93	752.15
657.27	747.02
657.61	741.34
657.95	736.55
658.29	731.46
658.64	726.18
658.98	720.73
659.32	715.05
659.66	709.91
660.00	704.70
660.34	699.63
660.68	694.68
661.02	689.48
661.36	684.92
661.70	680.30
662.05	675.82
662.39	671.56
662.73	667.27
663.07	662.89
663.41	658.52
663.75	654.00
664.09	649.48
664.43	644.90
664.77	641.10
665.11	636.69
665.45	632.57
665.79	628.54
666.13	624.43
666.47	620.28
666.81	616.00
667.15	611.70
667.49	607.77
667.83	603.88
668.17	599.86
668.51	595.62
668.85	591.63
669.19	587.90
669.53	584.19
669.87	580.27
670.21	576.50
670.55	572.72
670.89	569.38
671.23	565.85
671.57	562.40
671.91	558.77
672.25	555.14
672.58	551.66
672.92	548.17
673.26	544.78
673.60	541.66
673.94	538.52
674.28	535.71
674.62	532.76
674.96	529.71
675.30	526.72
675.64	523.79
675.97	520.88
676.31	517.80
676.65	514.74
676.99	512.05
677.33	509.22
677.67	506.49
678.01	503.23
678.34	500.25
678.68	497.29
679.02	494.46
679.36	491.80
679.70	489.09
680.04	486.50
680.37	483.81
680.71	481.20
681.05	478.75
681.39	475.98
681.73	473.32
682.06	470.83
682.40	468.59
682.74	466.15
683.08	463.75
683.42	461.16
683.75	458.64
684.09	455.95
684.43	453.33
684.77	450.70
685.10	448.55
685.44	446.07
685.78	443.87
686.12	441.56
686.45	439.26
686.79	436.92
687.13	434.51
687.46	432.24
687.80	430.00
688.14	427.55
688.48	425.49
688.81	423.18
689.15	420.98
689.49	418.53
689.82	416.44
690.16	414.10
690.50	412.16
690.83	410.08
691.17	408.06
691.51	406.16
691.84	404.23
692.18	402.14
692.52	400.10
692.85	398.14
693.19	396.26
693.52	394.43
693.86	392.50
694.20	390.64
694.53	388.72
694.87	386.91
695.21	385.13
695.54	383.24
695.88	381.43
696.21	379.37
696.55	377.78
696.88	376.04
697.22	374.53
697.56	372.70
697.89	370.97
698.23	369.28
698.56	367.50
698.90	365.84
699.23	364.13
699.57	362.46
699.90	360.80
700.24	359.11
700.58	357.33
700.91	355.84
701.25	354.48
701.58	353.12
701.92	351.56
702.25	350.05
702.59	348.53
702.92	347.17
703.26	345.82
703.59	344.26
703.93	342.93
704.26	341.44
704.60	340.10
704.93	338.79
705.26	337.49
705.60	336.24
705.93	334.92
706.27	333.92
706.60	332.75
706.94	331.49
707.27	330.14
707.61	328.99
707.94	327.72
708.27	326.41
708.61	325.04
708.94	323.83
709.28	322.65
709.61	321.58
709.94	320.45
710.28	319.38
710.61	318.29
710.95	317.00
711.28	316.03
711.61	314.91
711.95	313.82
712.28	312.71
712.61	311.67
712.95	310.68
713.28	309.56
713.61	308.57
713.95	307.66
714.28	306.82
714.61	305.87
714.95	305.01
715.28	303.93
715.61	303.05
715.95	302.18
716.28	301.38
716.61	300.40
716.95	299.60
717.28	298.90
717.61	298.07
717.94	297.33
718.28	296.35
718.61	295.61
718.94	294.94
719.27	294.28
719.61	293.59
719.94	292.83
720.27	291.99
720.60	291.29
720.94	290.57
721.27	289.91
721.60	289.32
721.93	288.58
722.27	288.04
722.60	287.47
722.93	286.80
723.26	286.08
723.59	285.48
723.93	284.80
724.26	284.16
724.59	283.71
724.92	283.24
725.25	282.91
725.59	282.28
725.92	281.79
726.25	281.25
726.58	280.63
726.91	280.14
727.24	279.64
727.57	279.27
727.91	278.70
728.24	278.32
728.57	277.79
728.90	277.27
729.23	276.71
729.56	276.16
729.89	275.78
730.22	275.35
730.55	274.84
730.89	274.39
731.22	273.85
731.55	273.31
731.88	272.62
732.21	272.01
732.54	271.60
732.87	270.99
733.20	270.49
733.53	269.92
733.86	269.48
734.19	269.07
734.52	268.57
734.85	268.35
735.18	267.77
735.51	267.24
735.84	266.84
736.17	266.51
736.50	266.10
736.83	265.89
737.16	265.32
737.49	264.97
737.82	264.54
738.15	264.10
738.48	263.65
738.81	263.36
739.14	262.97
739.47	262.49
739.80	262.14
740.13	261.84
740.46	261.51
740.79	261.13
741.12	260.75
741.45	260.33
741.78	259.85
742.11	259.54
742.44	259.14
742.77	258.86
743.10	258.35
743.43	257.97
743.75	257.30
744.08	257.34
744.41	257.00
744.74	256.58
745.07	256.23
745.40	255.93
745.73	255.59
746.06	255.32
746.39	255.03
746.71	254.73
747.04	254.26
747.37	254.00
747.70	253.71
748.03	253.27
748.36	252.98
748.68	252.52
749.01	252.13
749.34	251.87
749.67	251.39
750.00	251.10
750.33	250.96
750.65	250.74
750.98	250.09
751.31	249.78
751.64	249.55
751.97	249.38
752.29	249.03
752.62	248.58
752.95	248.09
753.28	247.87
753.60	247.50
753.93	247.45
754.26	247.14
754.59	246.77
754.91	246.65
755.24	246.35
755.57	246.12
755.90	245.95
756.22	245.80
756.55	245.69
756.88	245.48
757.20	245.10
757.53	244.84
757.86	244.71
758.19	244.49
758.51	244.24
758.84	244.04
759.17	243.90
759.49	243.89
759.82	243.97
760.15	243.81
760.47	243.78
760.80	243.48
761.13	243.34
761.45	243.13
761.78	242.85
762.11	242.66
762.43	242.54
762.76	242.30
763.08	242.21
763.41	242.05
763.74	241.99
764.06	241.86
764.39	241.63
764.71	241.52
765.04	241.43
765.37	241.32
765.69	241.08
766.02	240.95
766.34	240.80
766.67	240.58
767.00	240.49
767.32	240.49
767.65	240.52
767.97	240.40
768.30	240.33
768.62	240.40
768.95	240.27
769.27	240.14
769.60	240.14
769.92	239.92
770.25	239.73
770.57	239.59
770.90	239.57
771.22	239.60
771.55	239.56
771.87	239.52
772.20	239.40
772.52	239.65
772.85	239.77
773.17	239.57
773.50	239.47
773.82	239.30
774.15	239.06
774.47	238.74
774.80	238.66
775.12	238.65
775.45	238.47
775.77	238.42
776.09	238.31
776.42	238.17
776.74	238.12
777.07	238.10
777.39	237.90
777.72	237.85
778.04	237.70
778.36	237.50
778.69	237.19
779.01	237.20
779.33	236.75
779.66	236.39
779.98	236.29
780.31	236.12
780.63	236.08
780.95	235.92
781.28	235.79
781.60	235.70
781.92	235.50
782.25	235.35
782.57	235.21
782.89	235.17
783.22	235.07
783.54	234.96
783.86	234.77
784.19	234.79
784.51	234.62
784.83	234.57
785.16	234.40
785.48	234.37
785.80	234.11
786.12	233.99
786.45	234.00
786.77	233.98
787.09	233.98
787.42	233.80
