SpectraSuite Data File
++++++++++++++++++++++++++++++++++++
Date: Fri Feb 01 14:36:41 EST 2013
User: group
Dark Spectrum Present: No
Reference Spectrum Present: No
Number of Sampled Component Spectra: 1
Spectrometers: USB2E7196
Integration Time (usec): 70000 (USB2E7196)
Spectra Averaged: 10 (USB2E7196)
Boxcar Smoothing: 10 (USB2E7196)
Correct for Electrical Dark: No (USB2E7196)
Strobe/Lamp Enabled: No (USB2E7196)
Correct for Detector Non-linearity: No (USB2E7196)
Correct for Stray Light: No (USB2E7196)
Number of Pixels in Processed Spectrum: 2048
>>>>>Begin Processed Spectral Data<<<<<
339.09	0.00
339.48	214.50
339.86	217.80
340.24	218.70
340.63	222.10
341.01	223.10
341.39	222.10
341.78	224.20
342.16	225.20
342.54	225.60
342.93	214.43
343.31	225.21
343.69	225.84
344.07	226.29
344.46	226.72
344.84	226.99
345.22	227.20
345.60	227.50
345.99	227.71
346.37	227.87
346.75	228.07
347.13	228.21
347.52	228.25
347.90	228.36
348.28	228.30
348.66	228.30
349.05	228.31
349.43	228.36
349.81	228.30
350.19	228.37
350.57	228.45
350.96	228.35
351.34	228.47
351.72	228.56
352.10	228.63
352.48	228.66
352.87	228.77
353.25	228.82
353.63	228.93
354.01	229.11
354.39	229.27
354.77	229.30
355.15	229.51
355.54	229.50
355.92	229.57
356.30	229.68
356.68	229.91
357.06	230.06
357.44	230.14
357.82	230.26
358.20	230.25
358.58	230.34
358.97	230.42
359.35	230.56
359.73	230.59
360.11	230.68
360.49	230.77
360.87	230.72
361.25	230.74
361.63	230.73
362.01	230.70
362.39	230.70
362.77	230.75
363.15	230.69
363.53	230.73
363.91	230.68
364.29	230.66
364.67	230.42
365.05	230.37
365.43	230.40
365.81	230.49
366.19	230.58
366.57	230.56
366.95	230.51
367.33	230.43
367.71	230.35
368.09	230.36
368.47	230.37
368.85	230.37
369.23	230.48
369.61	230.36
369.99	230.35
370.37	230.27
370.75	230.26
371.13	230.12
371.51	230.02
371.89	229.99
372.27	229.91
372.65	229.94
373.03	229.88
373.41	229.76
373.78	229.60
374.16	229.43
374.54	229.26
374.92	229.27
375.30	229.13
375.68	229.05
376.06	228.96
376.44	228.88
376.82	228.82
377.19	228.73
377.57	228.83
377.95	228.60
378.33	228.44
378.71	228.19
379.09	228.18
379.47	228.19
379.84	228.05
380.22	227.90
380.60	227.78
380.98	227.66
381.36	227.57
381.73	227.46
382.11	227.48
382.49	227.50
382.87	227.30
383.25	227.34
383.62	227.47
384.00	227.46
384.38	227.33
384.76	227.34
385.13	227.24
385.51	227.07
385.89	226.98
386.27	226.98
386.64	227.00
387.02	226.92
387.40	226.75
387.78	226.76
388.15	226.80
388.53	226.70
388.91	226.77
389.29	226.72
389.66	226.73
390.04	226.67
390.42	226.66
390.79	226.77
391.17	226.72
391.55	226.64
391.92	226.59
392.30	226.66
392.68	226.71
393.05	226.76
393.43	226.75
393.81	226.86
394.18	226.88
394.56	226.91
394.94	226.94
395.31	227.08
395.69	227.21
396.06	227.27
396.44	227.37
396.82	227.38
397.19	227.55
397.57	227.69
397.95	227.78
398.32	227.81
398.70	227.93
399.07	228.05
399.45	228.14
399.82	228.20
400.20	228.31
400.58	228.30
400.95	228.41
401.33	228.58
401.70	228.92
402.08	229.12
402.45	229.37
402.83	229.65
403.20	229.82
403.58	230.00
403.95	230.20
404.33	230.41
404.71	230.52
405.08	230.87
405.46	231.09
405.83	231.35
406.21	231.58
406.58	231.78
406.96	231.98
407.33	232.20
407.70	232.57
408.08	233.02
408.45	233.44
408.83	233.75
409.20	234.10
409.58	234.37
409.95	234.70
410.33	235.05
410.70	235.45
411.08	236.02
411.45	236.41
411.82	237.01
412.20	237.65
412.57	238.47
412.95	238.91
413.32	239.63
413.69	240.36
414.07	241.19
414.44	242.07
414.82	242.97
415.19	244.04
415.56	245.03
415.94	245.87
416.31	246.95
416.68	248.12
417.06	249.46
417.43	250.73
417.81	252.28
418.18	253.84
418.55	255.46
418.93	257.10
419.30	259.00
419.67	260.83
420.04	262.76
420.42	264.68
420.79	266.97
421.16	269.13
421.54	271.52
421.91	274.02
422.28	276.62
422.66	279.40
423.03	282.11
423.40	284.85
423.77	287.91
424.15	290.88
424.52	294.15
424.89	297.61
425.26	300.94
425.64	304.02
426.01	307.48
426.38	310.99
426.75	314.75
427.13	318.41
427.50	322.25
427.87	326.37
428.24	330.50
428.61	334.50
428.99	338.92
429.36	343.60
429.73	348.09
430.10	352.55
430.47	357.15
430.85	361.94
431.22	366.94
431.59	372.22
431.96	377.37
432.33	382.92
432.70	388.32
433.08	394.42
433.45	400.45
433.82	406.49
434.19	413.18
434.56	419.55
434.93	425.70
435.30	432.00
435.68	438.71
436.05	445.39
436.42	451.96
436.79	457.95
437.16	464.31
437.53	471.16
437.90	477.96
438.27	484.64
438.64	491.61
439.01	498.16
439.38	504.02
439.75	509.71
440.13	516.02
440.50	522.04
440.87	527.15
441.24	532.10
441.61	537.74
441.98	542.01
442.35	547.02
442.72	552.23
443.09	557.26
443.46	560.30
443.83	562.48
444.20	564.52
444.57	567.50
444.94	569.24
445.31	571.01
445.68	572.86
446.05	573.99
446.42	573.89
446.79	573.75
447.16	573.57
447.53	573.45
447.90	571.80
448.27	570.06
448.64	567.21
449.01	565.79
449.37	562.03
449.74	558.32
450.11	553.79
450.48	548.70
450.85	543.34
451.22	539.36
451.59	535.48
451.96	531.53
452.33	525.99
452.70	521.03
453.07	514.84
453.43	508.42
453.80	502.45
454.17	496.65
454.54	491.11
454.91	485.01
455.28	479.36
455.65	473.68
456.02	468.19
456.38	463.46
456.75	457.31
457.12	452.25
457.49	447.44
457.86	442.55
458.23	438.45
458.59	433.85
458.96	428.97
459.33	424.62
459.70	420.43
460.07	416.98
460.43	412.93
460.80	409.30
461.17	406.08
461.54	402.69
461.91	399.25
462.27	395.97
462.64	393.13
463.01	389.86
463.38	386.90
463.74	383.84
464.11	381.14
464.48	378.68
464.85	376.09
465.21	373.90
465.58	371.87
465.95	369.19
466.32	367.22
466.68	365.04
467.05	362.91
467.42	360.82
467.78	358.58
468.15	356.52
468.52	354.88
468.88	352.85
469.25	350.90
469.62	349.58
469.98	347.85
470.35	346.32
470.72	344.86
471.08	343.21
471.45	341.82
471.82	340.45
472.18	338.93
472.55	337.66
472.92	336.22
473.28	334.74
473.65	333.53
474.02	332.13
474.38	331.03
474.75	330.09
475.11	329.09
475.48	328.18
475.85	327.33
476.21	326.46
476.58	325.68
476.94	325.16
477.31	324.42
477.67	323.82
478.04	323.22
478.41	322.73
478.77	322.41
479.14	321.80
479.50	321.51
479.87	321.27
480.23	321.09
480.60	320.92
480.96	320.80
481.33	320.83
481.69	320.77
482.06	320.70
482.42	320.60
482.79	320.33
483.15	320.38
483.52	320.70
483.88	320.92
484.25	320.99
484.61	321.05
484.98	321.15
485.34	321.46
485.71	321.85
486.07	322.27
486.44	322.54
486.80	322.97
487.17	323.38
487.53	323.98
487.90	324.53
488.26	325.05
488.62	325.60
488.99	326.10
489.35	326.75
489.72	327.46
490.08	328.18
490.44	329.20
490.81	330.06
491.17	330.85
491.54	331.75
491.90	332.71
492.26	333.64
492.63	334.70
492.99	335.81
493.36	336.93
493.72	338.00
494.08	339.06
494.45	340.30
494.81	341.56
495.17	342.81
495.54	344.07
495.90	345.46
496.26	346.87
496.63	348.25
496.99	349.70
497.35	351.13
497.72	352.55
498.08	353.84
498.44	355.21
498.80	356.68
499.17	357.93
499.53	359.27
499.89	360.70
500.26	362.02
500.62	363.18
500.98	364.48
501.34	365.65
501.71	367.00
502.07	368.22
502.43	369.31
502.79	370.42
503.16	371.60
503.52	372.66
503.88	373.66
504.24	374.51
504.60	375.54
504.97	376.57
505.33	377.45
505.69	378.38
506.05	379.29
506.41	380.05
506.78	380.80
507.14	381.56
507.50	382.31
507.86	383.09
508.22	383.93
508.59	384.46
508.95	385.25
509.31	385.93
509.67	386.47
510.03	387.06
510.39	387.54
510.75	387.95
511.12	388.29
511.48	388.73
511.84	389.28
512.20	389.58
512.56	389.94
512.92	390.32
513.28	390.54
513.64	390.73
514.00	390.94
514.37	391.40
514.73	391.67
515.09	391.72
515.45	391.75
515.81	391.70
516.17	391.88
516.53	391.84
516.89	391.86
517.25	391.96
517.61	391.99
517.97	392.02
518.33	392.05
518.69	392.18
519.05	392.42
519.41	392.46
519.77	392.83
520.13	392.90
520.49	393.16
520.85	393.39
521.21	393.78
521.57	394.04
521.93	394.13
522.29	394.50
522.65	394.72
523.01	395.10
523.37	395.57
523.73	395.98
524.09	396.49
524.45	396.93
524.81	397.39
525.17	398.12
525.53	398.97
525.89	399.85
526.25	400.62
526.61	401.21
526.97	402.14
527.33	402.93
527.68	404.08
528.04	405.03
528.40	406.22
528.76	407.22
529.12	408.48
529.48	409.95
529.84	411.28
530.20	413.00
530.56	414.74
530.91	416.55
531.27	418.34
531.63	420.10
531.99	422.04
532.35	424.17
532.71	426.02
533.07	428.11
533.42	430.21
533.78	432.53
534.14	435.01
534.50	437.31
534.86	439.89
535.21	442.09
535.57	444.77
535.93	447.35
536.29	450.27
536.65	453.06
537.00	455.84
537.36	458.91
537.72	461.83
538.08	464.76
538.44	467.71
538.79	470.92
539.15	474.23
539.51	477.55
539.87	480.90
540.22	484.32
540.58	487.83
540.94	491.40
541.29	494.97
541.65	498.50
542.01	502.26
542.37	505.85
542.72	509.68
543.08	513.50
543.44	517.52
543.79	521.18
544.15	525.23
544.51	529.43
544.87	533.44
545.22	537.47
545.58	541.38
545.94	545.19
546.29	549.27
546.65	553.40
547.01	557.61
547.36	561.73
547.72	565.97
548.07	570.00
548.43	574.07
548.79	578.02
549.14	582.18
549.50	586.50
549.86	590.44
550.21	594.67
550.57	598.80
550.92	603.12
551.28	607.56
551.64	611.51
551.99	615.48
552.35	619.39
552.70	623.66
553.06	628.05
553.41	632.49
553.77	636.75
554.13	640.91
554.48	645.24
554.84	649.31
555.19	653.57
555.55	657.88
555.90	661.88
556.26	666.31
556.61	670.49
556.97	674.53
557.32	679.06
557.68	683.19
558.03	687.50
558.39	691.50
558.74	695.38
559.10	699.76
559.45	704.00
559.81	708.73
560.16	712.75
560.52	716.93
560.87	720.90
561.23	724.72
561.58	728.98
561.94	732.74
562.29	736.72
562.64	740.40
563.00	744.17
563.35	748.30
563.71	752.38
564.06	756.53
564.42	760.23
564.77	763.89
565.12	767.99
565.48	771.74
565.83	775.28
566.19	779.21
566.54	782.66
566.89	785.97
567.25	789.01
567.60	792.98
567.96	796.35
568.31	799.88
568.66	803.18
569.02	806.00
569.37	809.15
569.72	812.46
570.08	815.74
570.43	818.55
570.78	821.31
571.14	823.83
571.49	826.10
571.84	829.00
572.20	831.64
572.55	833.75
572.90	835.76
573.26	838.34
573.61	840.51
573.96	842.70
574.31	844.65
574.67	846.54
575.02	847.70
575.37	849.23
575.72	850.52
576.08	852.15
576.43	853.77
576.78	855.38
577.13	856.92
577.49	858.43
577.84	860.00
578.19	861.54
578.54	862.70
578.90	864.16
579.25	864.94
579.60	865.82
579.95	866.81
580.30	867.83
580.66	868.29
581.01	868.97
581.36	869.86
581.71	870.83
582.06	871.57
582.42	872.48
582.77	873.10
583.12	873.65
583.47	874.31
583.82	875.09
584.17	875.47
584.53	875.83
584.88	876.09
585.23	876.20
585.58	876.30
585.93	876.64
586.28	876.83
586.63	877.60
586.98	877.66
587.34	877.94
587.69	878.11
588.04	878.64
588.39	878.67
588.74	878.24
589.09	877.98
589.44	877.62
589.79	877.36
590.14	877.61
590.49	877.55
590.84	877.13
591.19	876.91
591.54	876.38
591.89	875.37
592.25	874.90
592.60	874.17
592.95	873.30
593.30	872.50
593.65	871.59
594.00	870.17
594.35	869.95
594.70	868.62
595.05	867.80
595.40	866.48
595.75	865.13
596.10	864.15
596.45	863.33
596.80	862.65
597.15	861.67
597.50	860.09
597.85	859.37
598.19	858.61
598.54	857.05
598.89	855.97
599.24	855.15
599.59	853.80
599.94	852.83
600.29	851.71
600.64	850.52
600.99	849.17
601.34	848.09
601.69	846.12
602.04	844.90
602.39	843.18
602.74	842.05
603.08	841.12
603.43	840.00
603.78	838.39
604.13	836.70
604.48	835.01
604.83	833.65
605.18	831.87
605.53	829.83
605.87	827.89
606.22	826.34
606.57	824.37
606.92	822.41
607.27	820.69
607.62	818.95
607.96	817.25
608.31	815.55
608.66	813.53
609.01	811.48
609.36	809.15
609.70	806.58
610.05	803.88
610.40	801.49
610.75	798.97
611.10	796.53
611.44	793.87
611.79	791.74
612.14	789.31
612.49	786.44
612.83	783.81
613.18	781.59
613.53	778.91
613.88	776.23
614.22	773.79
614.57	771.01
614.92	768.34
615.27	765.66
615.61	762.71
615.96	760.15
616.31	757.90
616.65	755.99
617.00	754.05
617.35	751.78
617.70	749.19
618.04	746.24
618.39	743.94
618.74	741.74
619.08	738.94
619.43	736.32
619.78	733.79
620.12	731.15
620.47	728.67
620.82	725.87
621.16	723.46
621.51	721.05
621.85	718.44
622.20	715.64
622.55	712.87
622.89	710.52
623.24	708.14
623.59	705.43
623.93	702.67
624.28	700.29
624.62	697.73
624.97	695.51
625.32	693.53
625.66	691.03
626.01	688.56
626.35	686.15
626.70	683.60
627.04	681.55
627.39	679.33
627.73	676.86
628.08	674.63
628.43	672.20
628.77	669.70
629.12	667.00
629.46	664.67
629.81	662.17
630.15	659.37
630.50	656.74
630.84	654.13
631.19	651.44
631.53	648.76
631.88	646.20
632.22	643.23
632.57	640.68
632.91	637.93
633.26	635.16
633.60	632.54
633.95	629.80
634.29	627.09
634.64	624.65
634.98	622.14
635.32	619.73
635.67	617.28
636.01	614.77
636.36	612.54
636.70	610.35
637.05	607.96
637.39	605.87
637.73	603.39
638.08	601.31
638.42	599.20
638.77	596.77
639.11	594.33
639.45	592.09
639.80	589.80
640.14	587.39
640.49	585.25
640.83	582.90
641.17	580.90
641.52	578.60
641.86	575.90
642.20	573.36
642.55	570.82
642.89	568.65
643.23	566.37
643.58	564.20
643.92	561.69
644.26	559.41
644.61	557.18
644.95	554.94
645.29	552.26
645.64	549.74
645.98	547.33
646.32	545.03
646.66	542.61
647.01	539.96
647.35	537.59
647.69	535.22
648.04	532.91
648.38	530.47
648.72	527.89
649.06	525.45
649.41	523.22
649.75	520.75
650.09	518.00
650.43	515.48
650.78	512.89
651.12	510.38
651.46	508.13
651.80	505.84
652.14	503.46
652.49	501.21
652.83	498.90
653.17	496.50
653.51	494.13
653.85	491.84
654.20	489.49
654.54	487.08
654.88	484.63
655.22	482.16
655.56	479.65
655.90	477.62
656.25	475.49
656.59	473.16
656.93	471.02
657.27	468.91
657.61	466.67
657.95	464.67
658.29	462.67
658.64	460.36
658.98	457.90
659.32	455.46
659.66	453.25
660.00	451.00
660.34	448.93
660.68	446.74
661.02	444.50
661.36	442.58
661.70	440.65
662.05	438.70
662.39	436.98
662.73	435.23
663.07	433.35
663.41	431.51
663.75	429.76
664.09	427.84
664.43	426.08
664.77	424.27
665.11	422.39
665.45	420.48
665.79	418.67
666.13	417.01
666.47	415.44
666.81	413.74
667.15	412.02
667.49	410.39
667.83	408.97
668.17	407.45
668.51	405.87
668.85	404.36
669.19	402.87
669.53	401.25
669.87	399.62
670.21	397.97
670.55	396.35
670.89	394.96
671.23	393.59
671.57	392.18
671.91	390.79
672.25	389.40
672.58	388.11
672.92	386.70
673.26	385.31
673.60	384.10
673.94	382.77
674.28	381.75
674.62	380.63
674.96	379.25
675.30	378.04
675.64	376.78
675.97	375.54
676.31	374.23
676.65	372.95
676.99	371.74
677.33	370.55
677.67	369.46
678.01	368.07
678.34	366.72
678.68	365.46
679.02	364.28
679.36	363.18
679.70	361.90
680.04	360.72
680.37	359.40
680.71	358.10
681.05	357.04
681.39	355.72
681.73	354.58
682.06	353.54
682.40	352.39
682.74	351.38
683.08	350.26
683.42	349.17
683.75	348.03
684.09	346.93
684.43	345.73
684.77	344.65
685.10	343.53
685.44	342.56
685.78	341.52
686.12	340.33
686.45	339.05
686.79	337.91
687.13	337.00
687.46	335.89
687.80	334.75
688.14	333.50
688.48	332.34
688.81	331.07
689.15	329.97
689.49	328.85
689.82	327.70
690.16	326.57
690.50	325.47
690.83	324.56
691.17	323.44
691.51	322.47
691.84	321.48
692.18	320.45
692.52	319.24
692.85	317.97
693.19	316.94
693.52	315.95
693.86	314.94
694.20	313.81
694.53	312.91
694.87	312.00
695.21	311.03
695.54	310.05
695.88	309.09
696.21	308.00
696.55	307.06
696.88	306.05
697.22	305.12
697.56	304.35
697.89	303.31
698.23	302.50
698.56	301.65
698.90	300.76
699.23	299.82
699.57	299.10
699.90	298.41
700.24	297.64
700.58	296.84
700.91	296.19
701.25	295.53
701.58	294.91
701.92	293.96
702.25	293.36
702.59	292.68
702.92	292.00
703.26	291.38
703.59	290.74
703.93	290.29
704.26	289.73
704.60	288.95
704.93	288.38
705.26	287.63
705.60	287.05
705.93	286.52
706.27	286.10
706.60	285.55
706.94	285.10
707.27	284.59
707.61	284.14
707.94	283.43
708.27	282.84
708.61	282.22
708.94	281.83
709.28	281.29
709.61	280.91
709.94	280.42
710.28	279.97
710.61	279.55
710.95	278.97
711.28	278.55
711.61	278.21
711.95	277.80
712.28	277.38
712.61	276.88
712.95	276.46
713.28	276.04
713.61	275.59
713.95	275.03
714.28	274.51
714.61	274.02
714.95	273.67
715.28	273.23
715.61	272.75
715.95	272.43
716.28	272.03
716.61	271.50
716.95	271.13
717.28	270.64
717.61	270.21
717.94	269.76
718.28	269.28
718.61	268.69
718.94	268.14
719.27	267.79
719.61	267.44
719.94	267.00
720.27	266.50
720.60	266.09
720.94	265.77
721.27	265.41
721.60	265.10
721.93	264.80
722.27	264.42
722.60	264.07
722.93	263.72
723.26	263.30
723.59	262.96
723.93	262.64
724.26	262.31
724.59	261.91
724.92	261.63
725.25	261.25
725.59	260.99
725.92	260.75
726.25	260.38
726.58	259.96
726.91	259.54
727.24	259.24
727.57	258.92
727.91	258.54
728.24	258.29
728.57	257.86
728.90	257.52
729.23	256.98
729.56	256.79
729.89	256.40
730.22	256.12
730.55	255.80
730.89	255.30
731.22	255.03
731.55	254.82
731.88	254.42
732.21	254.14
732.54	253.85
732.87	253.52
733.20	253.27
733.53	253.03
733.86	252.72
734.19	252.44
734.52	252.28
734.85	252.09
735.18	251.71
735.51	251.55
735.84	251.25
736.17	251.23
736.50	250.89
736.83	250.83
737.16	250.48
737.49	250.29
737.82	250.22
738.15	250.00
738.48	249.59
738.81	249.37
739.14	249.11
739.47	248.90
739.80	248.61
740.13	248.36
740.46	248.13
740.79	247.89
741.12	247.68
741.45	247.41
741.78	247.09
742.11	246.91
742.44	246.54
742.77	246.33
743.10	246.08
743.43	245.84
743.75	245.41
744.08	245.50
744.41	245.23
744.74	245.03
745.07	244.73
745.40	244.67
745.73	244.47
746.06	244.28
746.39	244.11
746.71	244.00
747.04	243.89
747.37	243.70
747.70	243.65
748.03	243.49
748.36	243.33
748.68	243.29
749.01	243.21
749.34	243.24
749.67	243.17
750.00	243.03
750.33	243.04
750.65	242.92
750.98	242.67
751.31	242.57
751.64	242.50
751.97	242.51
752.29	242.34
752.62	242.20
752.95	242.17
753.28	242.01
753.60	241.80
753.93	241.64
754.26	241.57
754.59	241.33
754.91	241.21
755.24	241.11
755.57	240.99
755.90	240.67
756.22	240.48
756.55	240.29
756.88	240.21
757.20	240.00
757.53	239.93
757.86	239.69
758.19	239.59
758.51	239.42
758.84	239.25
759.17	239.17
759.49	239.17
759.82	239.07
760.15	238.99
760.47	238.92
760.80	238.78
761.13	238.76
761.45	238.69
761.78	238.57
762.11	238.46
762.43	238.24
762.76	238.23
763.08	238.10
763.41	238.07
763.74	237.90
764.06	237.80
764.39	237.68
764.71	237.65
765.04	237.42
765.37	237.18
765.69	237.10
766.02	236.94
766.34	236.71
766.67	236.53
767.00	236.43
767.32	236.37
767.65	236.43
767.97	236.19
768.30	236.16
768.62	236.03
768.95	235.88
769.27	235.88
769.60	235.82
769.92	235.66
770.25	235.50
770.57	235.39
770.90	235.26
771.22	235.15
771.55	234.94
771.87	234.96
772.20	235.00
772.52	235.06
772.85	235.22
773.17	235.10
773.50	235.02
773.82	234.83
774.15	234.84
774.47	234.55
774.80	234.51
775.12	234.29
775.45	234.19
775.77	234.04
776.09	233.91
776.42	233.89
776.74	233.99
777.07	233.93
777.39	233.84
777.72	233.66
778.04	233.53
778.36	233.55
778.69	233.47
779.01	233.38
779.33	233.15
779.66	232.87
779.98	232.92
780.31	232.84
780.63	232.89
780.95	232.72
781.28	232.69
781.60	232.52
781.92	232.46
782.25	232.38
782.57	232.30
782.89	232.20
783.22	232.05
783.54	231.90
783.86	231.80
784.19	231.72
784.51	231.74
784.83	231.75
785.16	231.76
785.48	231.73
785.80	231.70
786.12	231.69
786.45	231.72
786.77	231.65
787.09	231.70
787.42	231.60
787.74	231.57
788.06	231.69
788.38	231.64
788.71	231.73
789.03	231.71
789.35	231.80
789.67	231.84
789.99	231.95
790.32	231.89
790.64	231.87
790.96	232.08
791.28	232.05
791.61	232.02
791.93	231.96
792.25	231.92
792.57	232.08
792.89	232.05
793.21	231.98
793.54	231.90
793.86	231.81
794.18	231.89
