SpectraSuite Data File
++++++++++++++++++++++++++++++++++++
Date: Fri Feb 01 14:34:36 EST 2013
User: group
Dark Spectrum Present: No
Reference Spectrum Present: No
Number of Sampled Component Spectra: 1
Spectrometers: USB2E7196
Integration Time (usec): 70000 (USB2E7196)
Spectra Averaged: 10 (USB2E7196)
Boxcar Smoothing: 10 (USB2E7196)
Correct for Electrical Dark: No (USB2E7196)
Strobe/Lamp Enabled: No (USB2E7196)
Correct for Detector Non-linearity: No (USB2E7196)
Correct for Stray Light: No (USB2E7196)
Number of Pixels in Processed Spectrum: 2048
>>>>>Begin Processed Spectral Data<<<<<
339.09	0.00
339.48	214.90
339.86	216.60
340.24	219.70
340.63	221.60
341.01	225.20
341.39	223.90
341.78	223.30
342.16	224.40
342.54	226.20
342.93	214.63
343.31	225.45
343.69	226.10
344.07	226.62
344.46	227.02
344.84	227.38
345.22	227.58
345.60	227.85
345.99	228.12
346.37	228.33
346.75	228.38
347.13	228.38
347.52	228.50
347.90	228.60
348.28	228.64
348.66	228.65
349.05	228.55
349.43	228.60
349.81	228.70
350.19	228.71
350.57	228.65
350.96	228.76
351.34	228.89
351.72	228.97
352.10	229.12
352.48	229.26
352.87	229.25
353.25	229.30
353.63	229.27
354.01	229.43
354.39	229.57
354.77	229.69
355.15	229.81
355.54	229.85
355.92	229.82
356.30	229.80
356.68	229.97
357.06	230.02
357.44	230.04
357.82	230.21
358.20	230.30
358.58	230.55
358.97	230.65
359.35	230.73
359.73	230.75
360.11	230.80
360.49	230.73
360.87	230.83
361.25	230.83
361.63	230.91
362.01	230.80
362.39	230.69
362.77	230.81
363.15	230.84
363.53	230.82
363.91	230.93
364.29	231.04
364.67	230.82
365.05	230.86
365.43	230.94
365.81	230.91
366.19	230.98
366.57	230.96
366.95	230.99
367.33	230.86
367.71	230.86
368.09	230.85
368.47	230.87
368.85	230.86
369.23	230.89
369.61	230.81
369.99	230.85
370.37	230.94
370.75	230.96
371.13	230.91
371.51	230.94
371.89	230.85
372.27	230.78
372.65	230.78
373.03	230.76
373.41	230.67
373.78	230.52
374.16	230.35
374.54	230.24
374.92	230.09
375.30	230.00
375.68	229.83
376.06	229.73
376.44	229.55
376.82	229.49
377.19	229.33
377.57	229.26
377.95	229.07
378.33	228.86
378.71	228.61
379.09	228.60
379.47	228.46
379.84	228.31
380.22	228.13
380.60	228.01
380.98	227.84
381.36	227.73
381.73	227.65
382.11	227.64
382.49	227.62
382.87	227.49
383.25	227.47
383.62	227.72
384.00	227.61
384.38	227.63
384.76	227.49
385.13	227.59
385.51	227.56
385.89	227.53
386.27	227.45
386.64	227.40
387.02	227.22
387.40	227.13
387.78	227.14
388.15	227.25
388.53	227.17
388.91	227.16
389.29	227.16
389.66	227.24
390.04	227.11
390.42	227.08
390.79	227.10
391.17	227.14
391.55	226.83
391.92	226.85
392.30	226.95
392.68	227.04
393.05	226.95
393.43	226.86
393.81	226.94
394.18	227.00
394.56	227.05
394.94	227.14
395.31	227.21
395.69	227.41
396.06	227.47
396.44	227.63
396.82	227.70
397.19	227.83
397.57	227.91
397.95	228.08
398.32	228.13
398.70	228.30
399.07	228.48
399.45	228.73
399.82	228.83
400.20	228.90
400.58	228.96
400.95	229.01
401.33	229.30
401.70	229.56
402.08	229.80
402.45	230.02
402.83	230.28
403.20	230.50
403.58	230.69
403.95	230.84
404.33	231.21
404.71	231.50
405.08	231.91
405.46	232.20
405.83	232.59
406.21	233.00
406.58	233.44
406.96	233.81
407.33	234.23
407.70	234.74
408.08	235.40
408.45	236.08
408.83	236.72
409.20	237.38
409.58	237.94
409.95	238.60
410.33	239.39
410.70	240.11
411.08	240.96
411.45	241.72
411.82	242.70
412.20	243.52
412.57	244.76
412.95	245.61
413.32	246.72
413.69	247.99
414.07	249.26
414.44	250.59
414.82	252.00
415.19	253.61
415.56	255.15
415.94	256.80
416.31	258.60
416.68	260.64
417.06	262.72
417.43	264.93
417.81	267.24
418.18	269.59
418.55	272.11
418.93	274.83
419.30	277.78
419.67	280.73
420.04	283.85
420.42	286.97
420.79	290.77
421.16	294.57
421.54	298.22
421.91	302.12
422.28	306.10
422.66	310.41
423.03	314.63
423.40	319.12
423.77	323.89
424.15	328.80
424.52	333.65
424.89	339.10
425.26	344.25
425.64	349.34
426.01	354.83
426.38	360.60
426.75	366.42
427.13	372.19
427.50	378.46
427.87	384.93
428.24	391.47
428.61	397.69
428.99	404.43
429.36	411.99
429.73	419.22
430.10	426.48
430.47	433.89
430.85	441.60
431.22	449.63
431.59	457.94
431.96	465.96
432.33	474.89
432.70	483.60
433.08	493.83
433.45	503.55
433.82	513.13
434.19	523.76
434.56	534.11
434.93	544.18
435.30	554.10
435.68	565.29
436.05	576.23
436.42	586.79
436.79	596.73
437.16	607.23
437.53	618.41
437.90	629.50
438.27	640.45
438.64	651.88
439.01	662.41
439.38	671.81
439.75	680.89
440.13	691.23
440.50	701.19
440.87	709.54
441.24	718.12
441.61	727.52
441.98	734.57
442.35	742.79
442.72	751.26
443.09	759.53
443.46	764.67
443.83	768.29
444.20	771.80
444.57	776.36
444.94	779.02
445.31	781.93
445.68	784.91
446.05	786.85
446.42	786.72
446.79	786.52
447.16	786.66
447.53	787.03
447.90	784.32
448.27	781.34
448.64	776.52
449.01	773.58
449.37	767.46
449.74	761.46
450.11	754.14
450.48	745.93
450.85	737.54
451.22	730.61
451.59	724.02
451.96	717.87
452.33	709.06
452.70	701.31
453.07	691.39
453.43	681.16
453.80	671.19
454.17	661.91
454.54	653.28
454.91	643.38
455.28	633.92
455.65	625.29
456.02	616.16
456.38	608.67
456.75	599.09
457.12	591.13
457.49	583.42
457.86	575.86
458.23	569.31
458.59	561.91
458.96	554.16
459.33	547.65
459.70	540.94
460.07	535.43
460.43	529.03
460.80	523.29
461.17	518.20
461.54	513.02
461.91	507.89
462.27	502.51
462.64	498.15
463.01	493.08
463.38	487.99
463.74	483.29
464.11	478.85
464.48	474.88
464.85	470.72
465.21	467.41
465.58	463.76
465.95	459.56
466.32	456.13
466.68	452.86
467.05	449.25
467.42	445.68
467.78	442.24
468.15	438.75
468.52	436.03
468.88	432.68
469.25	429.73
469.62	427.36
469.98	424.68
470.35	422.23
470.72	420.04
471.08	417.77
471.45	415.72
471.82	413.72
472.18	411.43
472.55	409.75
472.92	407.68
473.28	405.92
473.65	404.27
474.02	402.57
474.38	400.90
474.75	399.66
475.11	398.31
475.48	397.22
475.85	396.33
476.21	395.42
476.58	394.57
476.94	393.86
477.31	392.90
477.67	392.23
478.04	391.51
478.41	390.93
478.77	390.58
479.14	390.03
479.50	389.81
479.87	389.71
480.23	389.55
480.60	389.26
480.96	389.32
481.33	389.46
481.69	389.51
482.06	389.78
482.42	389.65
482.79	389.79
483.15	390.04
483.52	390.77
483.88	391.43
484.25	391.92
484.61	392.57
484.98	393.20
485.34	394.23
485.71	395.23
486.07	396.28
486.44	397.20
486.80	398.44
487.17	399.66
487.53	401.07
487.90	402.71
488.26	404.46
488.62	406.12
488.99	407.70
489.35	409.48
489.72	411.50
490.08	413.86
490.44	416.06
490.81	418.35
491.17	420.30
491.54	422.71
491.90	425.28
492.26	428.01
492.63	430.66
492.99	433.28
493.36	435.99
493.72	438.94
494.08	441.87
494.45	445.12
494.81	448.28
495.17	451.39
495.54	454.63
495.90	457.91
496.26	461.40
496.63	465.13
496.99	468.78
497.35	472.53
497.72	476.34
498.08	480.20
498.44	484.19
498.80	488.62
499.17	492.44
499.53	496.56
499.89	500.39
500.26	504.68
500.62	508.89
500.98	513.32
501.34	517.71
501.71	522.15
502.07	526.37
502.43	530.63
502.79	535.04
503.16	539.46
503.52	544.05
503.88	548.05
504.24	552.20
504.60	556.64
504.97	561.13
505.33	565.44
505.69	570.20
506.05	574.68
506.41	578.55
506.78	582.87
507.14	587.04
507.50	591.24
507.86	595.47
508.22	599.77
508.59	603.72
508.95	607.72
509.31	611.75
509.67	615.88
510.03	619.94
510.39	623.91
510.75	627.59
511.12	631.29
511.48	635.41
511.84	639.36
512.20	643.18
512.56	646.84
512.92	650.50
513.28	653.60
513.64	656.73
514.00	660.18
514.37	663.35
514.73	666.55
515.09	669.71
515.45	672.52
515.81	675.44
516.17	678.44
516.53	681.19
516.89	683.95
517.25	686.55
517.61	689.22
517.97	691.77
518.33	694.17
518.69	696.58
519.05	698.99
519.41	701.28
519.77	703.77
520.13	705.89
520.49	707.77
520.85	709.94
521.21	712.03
521.57	714.34
521.93	716.34
522.29	718.55
522.65	720.50
523.01	722.46
523.37	723.96
523.73	725.90
524.09	727.78
524.45	729.47
524.81	731.45
525.17	733.40
525.53	735.41
525.89	737.39
526.25	739.35
526.61	740.90
526.97	742.73
527.33	744.40
527.68	746.21
528.04	748.32
528.40	750.16
528.76	752.08
529.12	753.94
529.48	756.26
529.84	757.91
530.20	759.90
530.56	762.27
530.91	765.06
531.27	767.37
531.63	769.28
531.99	771.60
532.35	773.38
532.71	775.18
533.07	777.21
533.42	779.49
533.78	781.60
534.14	783.80
534.50	785.90
534.86	788.04
535.21	790.04
535.57	792.30
535.93	794.83
536.29	797.56
536.65	800.00
537.00	801.93
537.36	804.48
537.72	806.75
538.08	808.80
538.44	810.86
538.79	813.12
539.15	815.54
539.51	817.80
539.87	820.60
540.22	823.08
540.58	825.80
540.94	828.33
541.29	830.61
541.65	833.47
542.01	836.35
542.37	838.91
542.72	841.84
543.08	844.64
543.44	847.18
543.79	849.33
544.15	851.94
544.51	854.85
544.87	857.56
545.22	860.48
545.58	863.17
545.94	865.62
546.29	867.92
546.65	870.85
547.01	873.62
547.36	876.20
547.72	878.82
548.07	881.52
548.43	883.98
548.79	886.80
549.14	889.06
549.50	891.43
549.86	894.10
550.21	896.49
550.57	898.79
550.92	901.17
551.28	903.76
551.64	906.04
551.99	908.63
552.35	911.00
552.70	913.64
553.06	916.40
553.41	918.99
553.77	921.60
554.13	923.97
554.48	926.81
554.84	929.55
555.19	932.23
555.55	934.61
555.90	937.27
556.26	939.54
556.61	942.10
556.97	944.60
557.32	947.02
557.68	949.77
558.03	952.19
558.39	954.51
558.74	957.20
559.10	959.82
559.45	962.22
559.81	965.29
560.16	967.63
560.52	969.87
560.87	972.20
561.23	974.77
561.58	977.50
561.94	979.32
562.29	981.19
562.64	983.13
563.00	985.27
563.35	987.66
563.71	990.64
564.06	993.01
564.42	995.29
564.77	997.41
565.12	999.27
565.48	1001.62
565.83	1003.55
566.19	1005.40
566.54	1007.28
566.89	1009.09
567.25	1010.59
567.60	1012.70
567.96	1014.92
568.31	1016.67
568.66	1018.13
569.02	1019.25
569.37	1020.65
569.72	1022.42
570.08	1024.25
570.43	1025.55
570.78	1026.57
571.14	1027.01
571.49	1028.01
571.84	1029.26
572.20	1030.06
572.55	1031.17
572.90	1031.52
573.26	1032.89
573.61	1033.59
573.96	1034.10
574.31	1034.16
574.67	1034.11
575.02	1033.80
575.37	1033.67
575.72	1033.58
576.08	1033.97
576.43	1034.07
576.78	1034.51
577.13	1034.27
577.49	1033.98
577.84	1033.94
578.19	1033.68
578.54	1033.53
578.90	1032.96
579.25	1032.18
579.60	1031.73
579.95	1030.79
580.30	1030.45
580.66	1029.47
581.01	1028.46
581.36	1027.68
581.71	1027.25
582.06	1026.49
582.42	1025.54
582.77	1024.48
583.12	1023.47
583.47	1022.29
583.82	1021.15
584.17	1019.70
584.53	1018.71
584.88	1017.58
585.23	1016.10
585.58	1014.68
585.93	1013.53
586.28	1012.75
586.63	1011.40
586.98	1010.19
587.34	1009.04
587.69	1007.67
588.04	1006.40
588.39	1005.14
588.74	1003.60
589.09	1001.79
589.44	999.99
589.79	998.44
590.14	997.17
590.49	995.57
590.84	993.42
591.19	991.91
591.54	989.82
591.89	987.48
592.25	985.33
592.60	983.12
592.95	980.82
593.30	978.30
593.65	975.83
594.00	973.43
594.35	971.51
594.70	968.96
595.05	966.62
595.40	963.69
595.75	961.26
596.10	958.63
596.45	956.50
596.80	954.85
597.15	952.52
597.50	949.79
597.85	947.60
598.19	945.86
598.54	943.57
598.89	941.49
599.24	939.70
599.59	937.65
599.94	935.60
600.29	933.58
600.64	931.25
600.99	928.55
601.34	926.50
601.69	923.48
602.04	921.21
602.39	918.81
602.74	916.76
603.08	914.52
603.43	912.72
603.78	910.40
604.13	907.45
604.48	905.11
604.83	902.58
605.18	900.19
605.53	897.10
605.87	894.03
606.22	891.30
606.57	888.40
606.92	885.50
607.27	882.95
607.62	880.67
607.96	878.38
608.31	875.96
608.66	872.97
609.01	870.06
609.36	866.99
609.70	863.39
610.05	860.00
610.40	856.95
610.75	853.48
611.10	850.23
611.44	846.79
611.79	843.56
612.14	840.29
612.49	836.53
612.83	833.18
613.18	830.20
613.53	826.92
613.88	823.13
614.22	819.72
614.57	815.94
614.92	812.18
615.27	808.95
615.61	805.32
615.96	801.90
616.31	799.00
616.65	796.07
617.00	793.47
617.35	790.75
617.70	787.27
618.04	783.72
618.39	780.46
618.74	777.50
619.08	774.13
619.43	771.05
619.78	768.33
620.12	765.39
620.47	762.00
620.82	758.43
621.16	755.39
621.51	752.49
621.85	749.56
622.20	746.27
622.55	742.92
622.89	740.02
623.24	737.21
623.59	734.03
623.93	730.78
624.28	727.44
624.62	724.32
624.97	721.37
625.32	718.99
625.66	715.85
626.01	712.90
626.35	709.60
626.70	706.60
627.04	703.46
627.39	700.22
627.73	697.16
628.08	694.85
628.43	692.05
628.77	688.90
629.12	685.83
629.46	682.87
629.81	679.70
630.15	676.48
630.50	673.15
630.84	669.86
631.19	666.61
631.53	663.57
631.88	660.25
632.22	657.01
632.57	653.69
632.91	650.48
633.26	647.43
633.60	644.71
633.95	641.62
634.29	638.61
634.64	635.74
634.98	632.88
635.32	629.72
635.67	626.90
636.01	624.09
636.36	621.11
636.70	618.42
637.05	615.64
637.39	613.01
637.73	610.32
638.08	607.84
638.42	605.27
638.77	602.79
639.11	600.13
639.45	597.48
639.80	594.67
640.14	592.33
640.49	589.55
640.83	586.90
641.17	584.40
641.52	581.69
641.86	579.32
642.20	576.75
642.55	574.10
642.89	571.53
643.23	568.80
643.58	566.42
643.92	563.86
644.26	561.31
644.61	559.08
644.95	556.63
645.29	553.88
645.64	551.27
645.98	548.56
646.32	546.10
646.66	543.62
647.01	541.17
647.35	538.67
647.69	536.47
648.04	534.25
648.38	531.54
648.72	529.07
649.06	526.36
649.41	523.95
649.75	521.61
650.09	518.97
650.43	516.58
650.78	514.10
651.12	511.51
651.46	509.06
651.80	506.46
652.14	504.28
652.49	502.08
652.83	499.87
653.17	497.58
653.51	495.16
653.85	492.93
654.20	490.59
654.54	488.12
654.88	485.48
655.22	482.88
655.56	480.58
655.90	478.34
656.25	476.17
656.59	473.83
656.93	471.73
657.27	469.68
657.61	467.41
657.95	465.31
658.29	463.24
658.64	461.21
658.98	458.88
659.32	456.43
659.66	454.38
660.00	452.10
660.34	449.90
660.68	448.00
661.02	445.85
661.36	443.83
661.70	441.90
662.05	440.11
662.39	438.45
662.73	436.67
663.07	434.87
663.41	433.04
663.75	431.29
664.09	429.25
664.43	427.34
664.77	425.55
665.11	423.68
665.45	421.79
665.79	419.92
666.13	418.13
666.47	416.44
666.81	414.55
667.15	412.82
667.49	411.18
667.83	409.45
668.17	407.68
668.51	405.88
668.85	404.23
669.19	402.74
669.53	400.88
669.87	399.24
670.21	397.52
670.55	395.91
670.89	394.37
671.23	392.79
671.57	391.30
671.91	389.81
672.25	388.23
672.58	386.87
672.92	385.40
673.26	384.05
673.60	382.76
673.94	381.29
674.28	379.95
674.62	378.60
674.96	377.20
675.30	375.97
675.64	374.68
675.97	373.39
676.31	371.86
676.65	370.48
676.99	369.22
677.33	367.87
677.67	366.60
678.01	365.15
678.34	363.92
678.68	362.66
679.02	361.37
679.36	360.13
679.70	358.93
680.04	357.67
680.37	356.37
680.71	354.96
681.05	353.85
681.39	352.63
681.73	351.51
682.06	350.33
682.40	349.20
682.74	348.21
683.08	347.05
683.42	345.83
683.75	344.81
684.09	343.61
684.43	342.53
684.77	341.38
685.10	340.33
685.44	339.18
685.78	338.13
686.12	337.10
686.45	335.87
686.79	334.69
687.13	333.78
687.46	332.75
687.80	331.70
688.14	330.55
688.48	329.57
688.81	328.47
689.15	327.47
689.49	326.43
689.82	325.42
690.16	324.27
690.50	323.31
690.83	322.32
691.17	321.28
691.51	320.37
691.84	319.43
692.18	318.48
692.52	317.60
692.85	316.56
693.19	315.67
693.52	314.89
693.86	313.96
694.20	312.98
694.53	312.04
694.87	311.25
695.21	310.47
695.54	309.59
695.88	308.67
696.21	307.68
696.55	306.88
696.88	305.92
697.22	305.27
697.56	304.43
697.89	303.47
698.23	302.74
698.56	301.83
698.90	301.03
699.23	300.21
699.57	299.33
699.90	298.53
700.24	297.61
700.58	296.89
700.91	296.28
701.25	295.67
701.58	294.99
701.92	294.20
702.25	293.51
702.59	292.81
702.92	292.10
703.26	291.46
703.59	290.72
703.93	290.24
704.26	289.50
704.60	289.00
704.93	288.48
705.26	287.88
705.60	287.38
705.93	286.73
706.27	286.34
706.60	285.84
706.94	285.39
707.27	284.95
707.61	284.42
707.94	283.84
708.27	283.13
708.61	282.64
708.94	282.12
709.28	281.58
709.61	281.12
709.94	280.70
710.28	280.27
710.61	279.70
710.95	278.99
711.28	278.68
711.61	278.14
711.95	277.62
712.28	276.97
712.61	276.33
712.95	275.99
713.28	275.44
713.61	274.98
713.95	274.46
714.28	273.91
714.61	273.43
714.95	272.89
715.28	272.40
715.61	271.87
715.95	271.48
716.28	271.00
716.61	270.46
716.95	269.86
717.28	269.41
717.61	269.09
717.94	268.73
718.28	268.05
718.61	267.48
718.94	266.99
719.27	266.58
719.61	266.18
719.94	265.70
720.27	265.21
720.60	264.78
720.94	264.48
721.27	264.20
721.60	263.82
721.93	263.54
722.27	263.32
722.60	262.97
722.93	262.47
723.26	261.99
723.59	261.62
723.93	261.38
724.26	261.02
724.59	260.55
724.92	260.10
725.25	259.94
725.59	259.69
725.92	259.47
726.25	259.24
726.58	258.95
726.91	258.69
727.24	258.46
727.57	258.08
727.91	257.60
728.24	257.19
728.57	256.85
728.90	256.48
729.23	256.04
729.56	255.85
729.89	255.57
730.22	255.43
730.55	255.23
730.89	255.12
731.22	254.78
731.55	254.51
731.88	254.36
732.21	254.00
732.54	253.72
732.87	253.33
733.20	253.12
733.53	252.95
733.86	252.76
734.19	252.45
734.52	252.35
734.85	252.27
735.18	252.06
735.51	251.90
735.84	251.72
736.17	251.57
736.50	251.23
736.83	251.31
737.16	251.07
737.49	250.79
737.82	250.40
738.15	250.25
738.48	250.20
738.81	249.97
739.14	249.74
739.47	249.50
739.80	249.35
740.13	249.00
740.46	248.70
740.79	248.26
741.12	247.99
741.45	247.67
741.78	247.33
742.11	247.16
742.44	246.95
742.77	246.75
743.10	246.46
743.43	246.19
743.75	245.77
744.08	245.91
744.41	245.75
744.74	245.58
745.07	245.25
745.40	244.98
745.73	244.89
746.06	244.65
746.39	244.56
746.71	244.42
747.04	244.40
747.37	244.32
747.70	244.48
748.03	244.40
748.36	244.39
748.68	244.27
749.01	244.09
749.34	243.88
749.67	243.58
750.00	243.56
750.33	243.58
750.65	243.45
750.98	243.02
751.31	242.87
751.64	242.76
751.97	242.80
752.29	242.62
752.62	242.39
752.95	242.24
753.28	242.02
753.60	241.84
753.93	241.69
754.26	241.53
754.59	241.12
754.91	240.93
755.24	240.68
755.57	240.52
755.90	240.44
756.22	240.24
756.55	240.24
756.88	240.02
757.20	239.86
757.53	239.74
757.86	239.62
758.19	239.56
758.51	239.38
758.84	239.23
759.17	239.24
759.49	239.09
759.82	239.11
760.15	239.02
760.47	238.96
760.80	238.86
761.13	238.90
761.45	238.87
761.78	238.79
762.11	238.74
762.43	238.62
762.76	238.42
763.08	238.48
763.41	238.40
763.74	238.40
764.06	238.27
764.39	238.15
764.71	238.03
765.04	237.88
765.37	237.89
765.69	237.73
766.02	237.51
766.34	237.39
766.67	237.26
767.00	237.25
767.32	237.29
767.65	237.33
767.97	237.15
768.30	237.12
768.62	237.19
768.95	237.10
769.27	237.17
769.60	237.14
769.92	237.04
770.25	236.89
770.57	236.67
770.90	236.59
771.22	236.43
771.55	236.38
771.87	236.32
772.20	236.20
772.52	236.34
772.85	236.50
773.17	236.46
773.50	236.43
773.82	236.37
774.15	236.20
774.47	235.99
774.80	235.91
775.12	235.71
775.45	235.51
775.77	235.54
776.09	235.40
776.42	235.37
776.74	235.24
777.07	235.21
777.39	235.15
777.72	235.10
778.04	235.10
778.36	234.99
778.69	234.94
779.01	234.85
779.33	234.61
779.66	234.30
779.98	234.21
780.31	234.12
780.63	234.08
780.95	234.03
781.28	233.92
781.60	233.82
781.92	233.80
782.25	233.78
782.57	233.51
782.89	233.32
783.22	233.17
783.54	233.18
783.86	233.20
784.19	233.24
784.51	233.21
784.83	233.18
785.16	233.00
785.48	232.96
785.80	232.85
786.12	232.84
786.45	232.84
786.77	232.77
787.09	232.75
787.42	232.63
787.74	232.58
788.06	232.59
788.38	232.44
788.71	232.35
789.03	232.24
789.35	232.39
789.67	232.33
789.99	232.40
790.32	232.24
790.64	232.00
790.96	232.03
791.28	231.96
791.61	231.90
791.93	231.97
792.25	231.89
792.57	232.03
792.89	231.87
