SpectraSuite Data File
++++++++++++++++++++++++++++++++++++
Date: Fri Feb 01 14:37:11 EST 2013
User: group
Dark Spectrum Present: No
Reference Spectrum Present: No
Number of Sampled Component Spectra: 1
Spectrometers: USB2E7196
Integration Time (usec): 70000 (USB2E7196)
Spectra Averaged: 10 (USB2E7196)
Boxcar Smoothing: 10 (USB2E7196)
Correct for Electrical Dark: No (USB2E7196)
Strobe/Lamp Enabled: No (USB2E7196)
Correct for Detector Non-linearity: No (USB2E7196)
Correct for Stray Light: No (USB2E7196)
Number of Pixels in Processed Spectrum: 2048
>>>>>Begin Processed Spectral Data<<<<<
339.09	0.00
339.48	216.50
339.86	218.20
340.24	219.20
340.63	218.50
341.01	224.10
341.39	221.40
341.78	224.70
342.16	226.70
342.54	225.30
342.93	214.32
343.31	225.19
343.69	225.75
344.07	226.24
344.46	226.63
344.84	227.12
345.22	227.24
345.60	227.54
345.99	227.64
346.37	227.74
346.75	227.82
347.13	227.89
347.52	227.92
347.90	228.08
348.28	228.15
348.66	228.19
349.05	228.10
349.43	228.13
349.81	228.08
350.19	228.07
350.57	228.17
350.96	228.20
351.34	228.25
351.72	228.20
352.10	228.20
352.48	228.29
352.87	228.33
353.25	228.47
353.63	228.54
354.01	228.62
354.39	228.70
354.77	228.77
355.15	229.00
355.54	228.96
355.92	228.92
356.30	228.91
356.68	229.05
357.06	229.05
357.44	229.05
357.82	229.18
358.20	229.29
358.58	229.29
358.97	229.30
359.35	229.36
359.73	229.63
360.11	229.71
360.49	229.77
360.87	229.78
361.25	229.80
361.63	229.89
362.01	229.97
362.39	229.98
362.77	230.02
363.15	229.99
363.53	230.10
363.91	230.14
364.29	230.30
364.67	230.14
365.05	230.34
365.43	230.31
365.81	230.33
366.19	230.39
366.57	230.50
366.95	230.60
367.33	230.57
367.71	230.50
368.09	230.48
368.47	230.48
368.85	230.46
369.23	230.53
369.61	230.46
369.99	230.43
370.37	230.35
370.75	230.45
371.13	230.28
371.51	230.13
371.89	230.13
372.27	230.07
372.65	230.05
373.03	229.98
373.41	229.94
373.78	229.74
374.16	229.55
374.54	229.37
374.92	229.19
375.30	229.08
375.68	228.90
376.06	228.87
376.44	228.70
376.82	228.54
377.19	228.36
377.57	228.29
377.95	228.20
378.33	228.23
378.71	227.98
379.09	228.00
379.47	228.01
379.84	227.85
380.22	227.71
380.60	227.59
380.98	227.44
381.36	227.35
381.73	227.40
382.11	227.39
382.49	227.33
382.87	227.40
383.25	227.42
383.62	227.60
384.00	227.39
384.38	227.40
384.76	227.44
385.13	227.43
385.51	227.32
385.89	227.17
386.27	227.01
386.64	227.05
387.02	226.98
387.40	227.00
387.78	227.02
388.15	226.97
388.53	226.89
388.91	226.80
389.29	226.78
389.66	226.80
390.04	226.77
390.42	226.74
390.79	226.62
391.17	226.51
391.55	226.26
391.92	226.32
392.30	226.30
392.68	226.22
393.05	226.28
393.43	226.32
393.81	226.40
394.18	226.39
394.56	226.31
394.94	226.27
395.31	226.18
395.69	226.32
396.06	226.32
396.44	226.35
396.82	226.33
397.19	226.43
397.57	226.38
397.95	226.47
398.32	226.54
398.70	226.64
399.07	226.67
399.45	226.78
399.82	226.85
400.20	226.91
400.58	227.03
400.95	227.06
401.33	227.19
401.70	227.41
402.08	227.52
402.45	227.71
402.83	227.94
403.20	228.20
403.58	228.23
403.95	228.48
404.33	228.66
404.71	228.91
405.08	229.28
405.46	229.52
405.83	229.74
406.21	229.94
406.58	230.21
406.96	230.55
407.33	230.82
407.70	231.15
408.08	231.56
408.45	231.98
408.83	232.35
409.20	232.67
409.58	232.98
409.95	233.45
410.33	233.99
410.70	234.46
411.08	234.83
411.45	235.39
411.82	235.90
412.20	236.61
412.57	237.33
412.95	237.71
413.32	238.45
413.69	239.06
414.07	239.74
414.44	240.54
414.82	241.38
415.19	242.33
415.56	243.23
415.94	244.20
416.31	245.22
416.68	246.32
417.06	247.58
417.43	248.73
417.81	250.01
418.18	251.35
418.55	252.72
418.93	254.20
419.30	255.71
419.67	257.38
420.04	259.10
420.42	260.84
420.79	263.05
421.16	265.09
421.54	267.26
421.91	269.50
422.28	271.74
422.66	274.14
423.03	276.65
423.40	279.21
423.77	281.88
424.15	284.60
424.52	287.40
424.89	290.47
425.26	293.47
425.64	296.20
426.01	299.26
426.38	302.44
426.75	305.80
427.13	309.17
427.50	312.58
427.87	316.00
428.24	319.58
428.61	322.95
428.99	326.88
429.36	331.07
429.73	335.12
430.10	339.05
430.47	343.05
430.85	347.04
431.22	351.29
431.59	355.82
431.96	360.35
432.33	365.32
432.70	370.10
433.08	375.71
433.45	381.16
433.82	386.35
434.19	392.09
434.56	397.80
434.93	403.19
435.30	408.77
435.68	414.81
436.05	420.74
436.42	426.71
436.79	431.93
437.16	437.66
437.53	443.68
437.90	449.72
438.27	455.87
438.64	462.02
439.01	467.85
439.38	472.95
439.75	477.74
440.13	483.25
440.50	488.39
440.87	492.87
441.24	497.39
441.61	502.40
441.98	506.27
442.35	510.64
442.72	515.18
443.09	519.44
443.46	522.40
443.83	524.56
444.20	526.30
444.57	528.80
444.94	530.12
445.31	531.60
445.68	533.19
446.05	533.88
446.42	533.96
446.79	533.90
447.16	533.78
447.53	533.93
447.90	532.30
448.27	530.90
448.64	528.36
449.01	526.79
449.37	523.50
449.74	520.26
450.11	516.24
450.48	511.72
450.85	507.13
451.22	503.30
451.59	499.59
451.96	496.07
452.33	490.98
452.70	486.63
453.07	481.28
453.43	475.70
453.80	470.51
454.17	465.34
454.54	460.32
454.91	454.94
455.28	449.78
455.65	445.03
456.02	440.12
456.38	435.74
456.75	430.37
457.12	425.89
457.49	421.51
457.86	417.14
458.23	413.57
458.59	409.40
458.96	405.10
459.33	401.30
459.70	397.45
460.07	394.62
460.43	391.07
460.80	387.92
461.17	384.99
461.54	381.92
461.91	379.11
462.27	376.29
462.64	373.85
463.01	370.90
463.38	368.09
463.74	365.16
464.11	362.79
464.48	360.60
464.85	358.18
465.21	356.12
465.58	354.33
465.95	351.97
466.32	350.19
466.68	348.33
467.05	346.39
467.42	344.63
467.78	342.57
468.15	340.60
468.52	339.02
468.88	337.19
469.25	335.42
469.62	333.87
469.98	332.32
470.35	330.87
470.72	329.56
471.08	328.10
471.45	326.95
471.82	325.63
472.18	324.38
472.55	323.48
472.92	322.39
473.28	321.16
473.65	320.01
474.02	318.85
474.38	317.89
474.75	317.00
475.11	315.93
475.48	315.26
475.85	314.56
476.21	313.76
476.58	313.17
476.94	312.88
477.31	312.28
477.67	311.78
478.04	311.25
478.41	310.78
478.77	310.51
479.14	310.02
479.50	309.65
479.87	309.25
480.23	308.93
480.60	308.55
480.96	308.24
481.33	308.12
481.69	307.98
482.06	307.72
482.42	307.56
482.79	307.44
483.15	307.34
483.52	307.47
483.88	307.52
484.25	307.45
484.61	307.37
484.98	307.57
485.34	307.67
485.71	308.01
486.07	308.22
486.44	308.41
486.80	308.68
487.17	308.92
487.53	309.44
487.90	309.86
488.26	310.65
488.62	311.17
488.99	311.66
489.35	312.24
489.72	312.79
490.08	313.37
490.44	314.04
490.81	314.65
491.17	315.29
491.54	315.98
491.90	316.74
492.26	317.50
492.63	318.18
492.99	318.88
493.36	319.60
493.72	320.47
494.08	321.20
494.45	322.06
494.81	323.14
495.17	323.92
495.54	324.81
495.90	325.52
496.26	326.45
496.63	327.40
496.99	328.30
497.35	329.20
497.72	330.22
498.08	331.13
498.44	332.18
498.80	333.27
499.17	334.21
499.53	334.95
499.89	335.84
500.26	336.71
500.62	337.58
500.98	338.50
501.34	339.41
501.71	340.40
502.07	341.27
502.43	341.89
502.79	342.60
503.16	343.39
503.52	344.03
503.88	344.72
504.24	345.46
504.60	346.12
504.97	346.85
505.33	347.39
505.69	348.17
506.05	348.76
506.41	349.09
506.78	349.53
507.14	350.15
507.50	350.56
507.86	350.92
508.22	351.28
508.59	351.54
508.95	351.80
509.31	352.15
509.67	352.51
510.03	352.91
510.39	353.24
510.75	353.42
511.12	353.72
511.48	353.84
511.84	353.90
512.20	353.92
512.56	353.99
512.92	354.13
513.28	354.17
513.64	354.09
514.00	354.22
514.37	354.22
514.73	354.19
515.09	354.24
515.45	354.26
515.81	354.34
516.17	354.44
516.53	354.57
516.89	354.50
517.25	354.47
517.61	354.51
517.97	354.54
518.33	354.68
518.69	354.76
519.05	355.01
519.41	355.26
519.77	355.67
520.13	355.96
520.49	356.22
520.85	356.51
521.21	357.04
521.57	357.58
521.93	357.97
522.29	358.48
522.65	358.90
523.01	359.57
523.37	360.16
523.73	360.67
524.09	361.27
524.45	362.02
524.81	362.76
525.17	363.70
525.53	364.71
525.89	365.66
526.25	366.68
526.61	367.64
526.97	368.82
527.33	370.03
527.68	371.44
528.04	372.77
528.40	374.07
528.76	375.55
529.12	377.02
529.48	378.97
529.84	380.74
530.20	382.76
530.56	384.65
530.91	386.78
531.27	388.90
531.63	391.18
531.99	393.44
532.35	395.78
532.71	398.11
533.07	400.49
533.42	403.19
533.78	405.78
534.14	408.66
534.50	411.45
534.86	414.48
535.21	417.52
535.57	420.72
535.93	423.99
536.29	427.11
536.65	430.45
537.00	433.42
537.36	436.69
537.72	440.02
538.08	443.60
538.44	447.14
538.79	450.77
539.15	454.40
539.51	458.04
539.87	461.95
540.22	465.67
540.58	469.81
540.94	473.46
541.29	477.31
541.65	481.12
542.01	485.14
542.37	489.20
542.72	493.07
543.08	497.06
543.44	501.23
543.79	505.30
544.15	509.51
544.51	514.18
544.87	518.44
545.22	522.72
545.58	526.90
545.94	531.02
546.29	535.40
546.65	539.60
547.01	544.11
547.36	548.50
547.72	553.05
548.07	557.38
548.43	561.98
548.79	566.69
549.14	571.24
549.50	575.67
549.86	579.73
550.21	584.25
550.57	588.88
550.92	593.27
551.28	597.73
551.64	602.35
551.99	606.64
552.35	611.35
552.70	616.20
553.06	621.11
553.41	625.85
553.77	630.41
554.13	635.31
554.48	639.99
554.84	644.45
555.19	649.10
555.55	653.61
555.90	657.97
556.26	662.54
556.61	666.91
556.97	671.10
557.32	675.78
557.68	680.52
558.03	684.87
558.39	689.48
558.74	694.30
559.10	698.60
559.45	702.91
559.81	707.49
560.16	711.58
560.52	715.49
560.87	720.08
561.23	724.16
561.58	728.44
561.94	732.42
562.29	736.64
562.64	740.73
563.00	744.92
563.35	749.21
563.71	753.30
564.06	757.70
564.42	762.05
564.77	766.24
565.12	770.02
565.48	774.08
565.83	777.80
566.19	781.61
566.54	785.21
566.89	789.15
567.25	792.72
567.60	796.67
567.96	800.66
568.31	803.99
568.66	807.72
569.02	810.92
569.37	814.13
569.72	817.46
570.08	820.53
570.43	823.55
570.78	826.75
571.14	829.52
571.49	832.24
571.84	835.12
572.20	837.77
572.55	840.51
572.90	842.85
573.26	845.31
573.61	847.74
573.96	850.32
574.31	852.50
574.67	854.29
575.02	855.95
575.37	857.53
575.72	858.97
576.08	860.68
576.43	862.35
576.78	864.01
577.13	865.85
577.49	867.49
577.84	868.98
578.19	870.40
578.54	871.66
578.90	873.12
579.25	874.26
579.60	875.34
579.95	876.21
580.30	877.32
580.66	878.62
581.01	879.17
581.36	879.85
581.71	880.87
582.06	882.07
582.42	882.78
582.77	883.70
583.12	884.70
583.47	885.50
583.82	886.31
584.17	886.91
584.53	887.33
584.88	887.83
585.23	888.41
585.58	888.63
585.93	889.03
586.28	889.43
586.63	889.90
586.98	890.21
587.34	890.63
587.69	890.69
588.04	890.75
588.39	891.16
588.74	891.05
589.09	890.68
589.44	890.30
589.79	890.30
590.14	890.24
590.49	889.83
590.84	889.31
591.19	889.00
591.54	888.55
591.89	887.52
592.25	886.94
592.60	885.87
592.95	885.12
593.30	884.31
593.65	883.00
594.00	881.80
594.35	881.37
594.70	879.80
595.05	878.97
595.40	877.65
595.75	876.04
596.10	874.94
596.45	874.02
596.80	873.16
597.15	871.91
597.50	870.73
597.85	869.93
598.19	868.91
598.54	867.68
598.89	866.64
599.24	866.05
599.59	864.77
599.94	863.72
600.29	862.30
600.64	861.18
600.99	860.08
601.34	858.85
601.69	856.86
602.04	855.95
602.39	854.53
602.74	853.53
603.08	852.48
603.43	851.38
603.78	850.02
604.13	848.51
604.48	847.25
604.83	845.59
605.18	843.83
605.53	842.02
605.87	840.20
606.22	838.33
606.57	836.31
606.92	834.58
607.27	832.88
607.62	831.47
607.96	829.57
608.31	827.90
608.66	826.08
609.01	824.13
609.36	821.85
609.70	819.46
610.05	816.80
610.40	814.61
610.75	812.00
611.10	809.58
611.44	806.94
611.79	804.51
612.14	802.07
612.49	799.46
612.83	796.88
613.18	794.57
613.53	792.22
613.88	789.48
614.22	786.88
614.57	784.17
614.92	781.51
615.27	778.96
615.61	776.23
615.96	773.63
616.31	771.23
616.65	769.22
617.00	767.13
617.35	764.96
617.70	762.48
618.04	759.90
618.39	757.23
618.74	754.82
619.08	752.07
619.43	749.40
619.78	747.02
620.12	744.62
620.47	741.93
620.82	739.23
621.16	736.72
621.51	734.18
621.85	731.79
622.20	729.01
622.55	726.63
622.89	724.16
623.24	721.55
623.59	719.01
623.93	716.39
624.28	713.95
624.62	711.42
624.97	708.89
625.32	706.50
625.66	704.37
626.01	701.98
626.35	699.62
626.70	697.02
627.04	694.69
627.39	691.90
627.73	689.48
628.08	687.02
628.43	684.52
628.77	682.14
629.12	679.40
629.46	677.00
629.81	674.10
630.15	671.28
630.50	668.64
630.84	665.76
631.19	662.85
631.53	659.99
631.88	657.00
632.22	654.03
632.57	651.74
632.91	648.61
633.26	645.91
633.60	643.10
633.95	640.71
634.29	637.97
634.64	635.69
634.98	632.92
635.32	630.50
635.67	627.94
636.01	625.44
636.36	623.03
636.70	620.61
637.05	618.51
637.39	616.21
637.73	613.77
638.08	611.70
638.42	609.50
638.77	607.07
639.11	604.70
639.45	602.41
639.80	599.69
640.14	597.35
640.49	594.88
640.83	592.32
641.17	589.77
641.52	587.26
641.86	584.70
642.20	582.57
642.55	579.99
642.89	577.61
643.23	575.10
643.58	572.84
643.92	570.11
644.26	567.43
644.61	565.09
644.95	562.78
645.29	559.85
645.64	557.13
645.98	554.70
646.32	552.36
646.66	549.98
647.01	547.63
647.35	545.43
647.69	543.10
648.04	541.17
648.38	538.92
648.72	536.49
649.06	534.10
649.41	531.36
649.75	528.93
650.09	526.37
650.43	523.82
650.78	521.10
651.12	518.65
651.46	516.29
651.80	513.87
652.14	511.57
652.49	509.45
652.83	507.33
653.17	504.83
653.51	502.40
653.85	500.09
654.20	497.66
654.54	495.21
654.88	492.73
655.22	490.00
655.56	487.31
655.90	484.91
656.25	482.76
656.59	480.40
656.93	478.27
657.27	476.23
657.61	473.83
657.95	471.88
658.29	469.87
658.64	467.75
658.98	465.46
659.32	463.06
659.66	460.88
660.00	458.53
660.34	456.39
660.68	454.33
661.02	452.24
661.36	450.21
661.70	448.13
662.05	446.27
662.39	444.47
662.73	442.90
663.07	441.11
663.41	439.18
663.75	437.39
664.09	435.49
664.43	433.46
664.77	431.87
665.11	429.98
665.45	428.23
665.79	426.48
666.13	424.67
666.47	423.07
666.81	421.12
667.15	419.32
667.49	417.72
667.83	415.93
668.17	414.13
668.51	412.54
668.85	410.70
669.19	409.08
669.53	407.37
669.87	405.46
670.21	403.88
670.55	402.32
670.89	400.96
671.23	399.34
671.57	397.94
671.91	396.30
672.25	394.72
672.58	393.15
672.92	391.47
673.26	390.07
673.60	388.58
673.94	387.46
674.28	386.22
674.62	384.90
674.96	383.50
675.30	382.08
675.64	380.75
675.97	379.64
676.31	378.14
676.65	376.82
676.99	375.70
677.33	374.16
677.67	372.80
678.01	371.28
678.34	369.93
678.68	368.64
679.02	367.49
679.36	366.13
679.70	364.88
680.04	363.65
680.37	362.31
680.71	361.01
681.05	359.73
681.39	358.57
681.73	357.35
682.06	356.28
682.40	355.35
682.74	354.24
683.08	353.08
683.42	352.00
683.75	350.83
684.09	349.47
684.43	348.38
684.77	347.11
685.10	346.00
685.44	344.84
685.78	343.69
686.12	342.54
686.45	341.48
686.79	340.47
687.13	339.47
687.46	338.38
687.80	337.26
688.14	336.03
688.48	334.87
688.81	333.75
689.15	332.73
689.49	331.48
689.82	330.19
690.16	329.01
690.50	327.94
690.83	326.85
691.17	325.89
691.51	324.90
691.84	324.03
692.18	322.94
692.52	322.02
692.85	321.06
693.19	320.13
693.52	319.08
693.86	317.96
694.20	316.91
694.53	315.93
694.87	314.94
695.21	314.00
695.54	313.06
695.88	312.05
696.21	311.07
696.55	310.26
696.88	309.27
697.22	308.42
697.56	307.50
697.89	306.62
698.23	305.83
698.56	304.92
698.90	303.96
699.23	303.04
699.57	302.08
699.90	301.18
700.24	300.20
700.58	299.40
700.91	298.71
701.25	298.09
701.58	297.52
701.92	296.78
702.25	296.13
702.59	295.31
702.92	294.68
703.26	293.89
703.59	293.11
703.93	292.67
704.26	291.93
704.60	291.30
704.93	290.60
705.26	289.84
705.60	289.33
705.93	288.80
706.27	288.35
706.60	287.88
706.94	287.39
707.27	286.82
707.61	286.29
707.94	285.63
708.27	284.92
708.61	284.14
708.94	283.52
709.28	282.93
709.61	282.45
709.94	281.88
710.28	281.26
710.61	280.64
710.95	279.95
711.28	279.63
711.61	279.05
711.95	278.58
712.28	278.03
712.61	277.42
712.95	276.87
713.28	276.40
713.61	275.92
713.95	275.33
714.28	274.72
714.61	274.25
714.95	273.75
715.28	273.20
715.61	272.76
715.95	272.44
716.28	271.92
716.61	271.46
716.95	270.90
717.28	270.49
717.61	270.01
717.94	269.59
718.28	269.09
718.61	268.55
718.94	268.14
719.27	267.87
719.61	267.45
719.94	267.04
720.27	266.55
720.60	266.05
720.94	265.62
721.27	265.37
721.60	265.01
721.93	264.64
722.27	264.21
722.60	263.84
722.93	263.33
723.26	263.02
723.59	262.65
723.93	262.25
724.26	261.87
724.59	261.57
724.92	261.11
725.25	260.76
725.59	260.43
725.92	260.06
726.25	259.63
726.58	259.29
726.91	259.05
727.24	258.74
727.57	258.40
727.91	258.10
728.24	257.83
728.57	257.42
728.90	257.10
729.23	256.87
729.56	256.56
729.89	256.31
730.22	255.84
730.55	255.48
730.89	255.29
731.22	255.07
731.55	254.79
731.88	254.55
732.21	254.14
732.54	253.93
732.87	253.66
733.20	253.34
733.53	253.10
733.86	252.71
734.19	252.40
734.52	252.17
734.85	252.09
735.18	251.75
735.51	251.62
735.84	251.33
736.17	251.04
736.50	250.87
736.83	250.91
737.16	250.80
737.49	250.61
737.82	250.31
738.15	249.97
738.48	249.73
738.81	249.60
739.14	249.43
739.47	249.24
739.80	248.98
740.13	248.73
740.46	248.46
740.79	248.19
741.12	248.02
741.45	247.82
741.78	247.49
742.11	247.20
742.44	246.88
742.77	246.70
743.10	246.49
743.43	246.13
743.75	245.64
744.08	245.62
744.41	245.37
744.74	245.23
745.07	245.01
745.40	244.85
745.73	244.75
746.06	244.51
746.39	244.28
746.71	244.01
747.04	243.86
747.37	243.74
747.70	243.58
748.03	243.42
748.36	243.31
748.68	243.04
749.01	242.94
749.34	242.88
749.67	242.67
750.00	242.51
750.33	242.49
750.65	242.34
750.98	242.07
751.31	241.99
751.64	241.74
751.97	241.92
752.29	241.79
752.62	241.43
752.95	241.30
753.28	241.17
753.60	241.12
753.93	241.06
754.26	240.91
754.59	240.70
754.91	240.53
755.24	240.39
755.57	240.27
755.90	240.06
756.22	239.79
756.55	239.65
756.88	239.58
757.20	239.30
757.53	239.11
757.86	238.83
758.19	238.77
758.51	238.71
758.84	238.30
759.17	238.21
759.49	238.20
759.82	238.09
760.15	237.93
760.47	237.90
760.80	237.68
761.13	237.60
761.45	237.54
761.78	237.46
762.11	237.31
762.43	237.31
762.76	237.30
763.08	237.35
763.41	237.39
763.74	237.32
764.06	237.35
764.39	237.26
764.71	237.27
765.04	237.04
765.37	236.97
765.69	236.97
766.02	236.93
766.34	236.79
766.67	236.75
767.00	236.78
767.32	236.83
767.65	236.91
767.97	236.82
768.30	236.87
768.62	236.76
768.95	236.73
769.27	236.61
769.60	236.56
769.92	236.40
770.25	236.20
770.57	236.17
770.90	236.02
771.22	236.01
771.55	236.00
771.87	236.06
772.20	236.00
772.52	236.14
772.85	236.31
773.17	236.27
773.50	236.08
773.82	235.99
774.15	235.73
774.47	235.53
774.80	235.47
775.12	235.37
775.45	235.26
775.77	235.24
776.09	235.17
776.42	235.06
776.74	235.05
777.07	234.95
777.39	234.82
777.72	234.82
778.04	234.82
778.36	234.73
778.69	234.54
779.01	234.49
779.33	234.30
779.66	233.90
779.98	233.77
780.31	233.70
780.63	233.66
780.95	233.65
781.28	233.66
781.60	233.48
781.92	233.35
782.25	233.39
782.57	233.26
782.89	233.20
783.22	233.12
783.54	232.97
783.86	232.99
784.19	232.90
784.51	232.86
784.83	232.75
785.16	232.62
785.48	232.71
785.80	232.68
786.12	232.63
786.45	232.64
786.77	232.56
787.09	232.55
787.42	232.35
787.74	232.31
788.06	232.27
788.38	232.20
788.71	232.11
789.03	231.88
789.35	231.84
789.67	231.73
789.99	231.74
790.32	231.72
790.64	231.62
790.96	231.74
791.28	231.62
791.61	231.59
791.93	231.62
792.25	231.38
792.57	231.48
792.89	231.26
793.21	231.19
793.54	231.24
793.86	231.22
794.18	231.20
