SpectraSuite Data File
++++++++++++++++++++++++++++++++++++
Date: Fri Feb 01 14:35:20 EST 2013
User: group
Dark Spectrum Present: No
Reference Spectrum Present: No
Number of Sampled Component Spectra: 1
Spectrometers: USB2E7196
Integration Time (usec): 70000 (USB2E7196)
Spectra Averaged: 10 (USB2E7196)
Boxcar Smoothing: 10 (USB2E7196)
Correct for Electrical Dark: No (USB2E7196)
Strobe/Lamp Enabled: No (USB2E7196)
Correct for Detector Non-linearity: No (USB2E7196)
Correct for Stray Light: No (USB2E7196)
Number of Pixels in Processed Spectrum: 2048
>>>>>Begin Processed Spectral Data<<<<<
339.09	0.00
339.48	217.40
339.86	218.30
340.24	218.90
340.63	219.90
341.01	224.20
341.39	223.80
341.78	225.20
342.16	226.00
342.54	226.80
342.93	214.53
343.31	225.37
343.69	225.80
344.07	226.30
344.46	226.67
344.84	227.02
345.22	227.11
345.60	227.36
345.99	227.52
346.37	227.49
346.75	227.55
347.13	227.72
347.52	227.74
347.90	227.75
348.28	227.75
348.66	227.77
349.05	227.77
349.43	227.77
349.81	227.86
350.19	227.98
350.57	228.06
350.96	228.16
351.34	228.23
351.72	228.30
352.10	228.38
352.48	228.56
352.87	228.70
353.25	228.80
353.63	228.83
354.01	228.88
354.39	229.11
354.77	229.16
355.15	229.22
355.54	229.30
355.92	229.36
356.30	229.38
356.68	229.61
357.06	229.68
357.44	229.74
357.82	229.67
358.20	229.77
358.58	229.76
358.97	229.88
359.35	229.99
359.73	230.16
360.11	230.17
360.49	230.14
360.87	230.18
361.25	230.28
361.63	230.41
362.01	230.49
362.39	230.52
362.77	230.60
363.15	230.61
363.53	230.68
363.91	230.77
364.29	230.95
364.67	230.77
365.05	230.84
365.43	230.81
365.81	231.00
366.19	231.13
366.57	231.23
366.95	231.14
367.33	231.12
367.71	231.10
368.09	231.18
368.47	231.19
368.85	231.07
369.23	231.12
369.61	231.02
369.99	231.10
370.37	231.09
370.75	231.11
371.13	231.02
371.51	230.91
371.89	230.86
372.27	230.71
372.65	230.69
373.03	230.60
373.41	230.48
373.78	230.44
374.16	230.20
374.54	230.06
374.92	230.09
375.30	230.02
375.68	229.86
376.06	229.70
376.44	229.57
376.82	229.55
377.19	229.41
377.57	229.30
377.95	229.07
378.33	228.87
378.71	228.68
379.09	228.65
379.47	228.53
379.84	228.41
380.22	228.24
380.60	228.13
380.98	227.99
381.36	227.92
381.73	227.68
382.11	227.69
382.49	227.67
382.87	227.36
383.25	227.19
383.62	227.37
384.00	227.21
384.38	227.18
384.76	227.16
385.13	227.16
385.51	227.11
385.89	227.20
386.27	227.17
386.64	227.11
387.02	227.07
387.40	227.02
387.78	226.95
388.15	227.04
388.53	227.00
388.91	226.98
389.29	227.04
389.66	227.07
390.04	227.01
390.42	227.02
390.79	227.16
391.17	227.16
391.55	226.91
391.92	226.90
392.30	226.89
392.68	226.86
393.05	226.86
393.43	226.79
393.81	226.67
394.18	226.71
394.56	226.75
394.94	226.76
395.31	226.79
395.69	226.88
396.06	226.96
396.44	226.94
396.82	227.01
397.19	227.10
397.57	227.24
397.95	227.33
398.32	227.29
398.70	227.50
399.07	227.62
399.45	227.75
399.82	227.98
400.20	228.10
400.58	228.23
400.95	228.29
401.33	228.59
401.70	228.76
402.08	228.86
402.45	229.08
402.83	229.41
403.20	229.66
403.58	229.86
403.95	230.07
404.33	230.40
404.71	230.62
405.08	231.01
405.46	231.26
405.83	231.48
406.21	231.86
406.58	232.09
406.96	232.56
407.33	233.03
407.70	233.48
408.08	234.05
408.45	234.61
408.83	235.15
409.20	235.63
409.58	236.15
409.95	236.87
410.33	237.51
410.70	237.97
411.08	238.71
411.45	239.46
411.82	240.20
412.20	241.01
412.57	242.02
412.95	242.81
413.32	243.67
413.69	244.86
414.07	245.96
414.44	247.09
414.82	248.22
415.19	249.55
415.56	250.96
415.94	252.41
416.31	253.97
416.68	255.64
417.06	257.51
417.43	259.32
417.81	261.31
418.18	263.40
418.55	265.61
418.93	267.97
419.30	270.45
419.67	273.04
420.04	275.79
420.42	278.55
420.79	281.68
421.16	285.03
421.54	288.22
421.91	291.59
422.28	295.26
422.66	298.86
423.03	302.44
423.40	306.20
423.77	310.19
424.15	314.29
424.52	318.49
424.89	323.01
425.26	327.66
425.64	331.86
426.01	336.44
426.38	341.36
426.75	346.36
427.13	351.52
427.50	356.84
427.87	362.40
428.24	368.07
428.61	373.38
428.99	379.22
429.36	385.45
429.73	391.81
430.10	397.79
430.47	404.23
430.85	411.00
431.22	417.96
431.59	425.28
431.96	432.41
432.33	440.36
432.70	447.89
433.08	456.55
433.45	464.89
433.82	473.23
434.19	482.49
434.56	491.22
434.93	499.83
435.30	508.33
435.68	517.82
436.05	527.12
436.42	536.45
436.79	544.62
437.16	553.88
437.53	563.41
437.90	573.08
438.27	582.50
438.64	592.19
439.01	601.09
439.38	609.31
439.75	616.92
440.13	625.67
440.50	634.33
440.87	641.45
441.24	648.73
441.61	656.83
441.98	662.86
442.35	670.04
442.72	677.18
443.09	684.15
443.46	688.51
443.83	691.67
444.20	694.56
444.57	698.95
444.94	701.11
445.31	703.59
445.68	705.77
446.05	707.23
446.42	707.18
446.79	707.05
447.16	706.78
447.53	707.17
447.90	704.86
448.27	702.58
448.64	698.46
449.01	696.30
449.37	690.96
449.74	685.90
450.11	679.69
450.48	672.74
450.85	665.69
451.22	659.88
451.59	654.24
451.96	648.80
452.33	641.10
452.70	634.40
453.07	625.78
453.43	617.47
453.80	609.35
454.17	601.33
454.54	593.91
454.91	585.60
455.28	577.36
455.65	569.63
456.02	561.37
456.38	554.92
456.75	546.37
457.12	539.60
457.49	532.69
457.86	526.10
458.23	520.28
458.59	513.79
458.96	507.20
459.33	501.39
459.70	495.65
460.07	491.01
460.43	485.51
460.80	480.49
461.17	475.79
461.54	471.00
461.91	466.47
462.27	461.84
462.64	457.92
463.01	453.66
463.38	449.58
463.74	445.61
464.11	441.88
464.48	438.58
464.85	434.73
465.21	431.92
465.58	428.72
465.95	425.22
466.32	422.44
466.68	419.52
467.05	416.52
467.42	413.64
467.78	410.44
468.15	407.57
468.52	405.43
468.88	402.57
469.25	400.03
469.62	398.07
469.98	395.97
470.35	393.90
470.72	392.00
471.08	389.80
471.45	388.15
471.82	386.27
472.18	384.25
472.55	382.78
472.92	380.99
473.28	379.55
473.65	377.94
474.02	376.38
474.38	374.88
474.75	373.78
475.11	372.40
475.48	371.52
475.85	370.65
476.21	369.78
476.58	369.18
476.94	368.52
477.31	367.68
477.67	366.87
478.04	366.17
478.41	365.68
478.77	365.34
479.14	364.62
479.50	364.30
479.87	364.15
480.23	364.09
480.60	363.81
480.96	363.57
481.33	363.77
481.69	363.73
482.06	363.86
482.42	363.81
482.79	363.92
483.15	364.26
483.52	364.78
483.88	364.99
484.25	365.33
484.61	365.70
484.98	366.12
485.34	366.76
485.71	367.54
486.07	368.15
486.44	368.75
486.80	369.70
487.17	370.70
487.53	371.76
487.90	372.84
488.26	374.16
488.62	375.55
488.99	376.74
489.35	378.18
489.72	379.67
490.08	381.24
490.44	382.89
490.81	384.40
491.17	385.91
491.54	387.86
491.90	389.52
492.26	391.55
492.63	393.50
492.99	395.35
493.36	397.27
493.72	399.52
494.08	401.99
494.45	404.30
494.81	406.60
495.17	408.98
495.54	411.42
495.90	414.05
496.26	416.41
496.63	419.07
496.99	421.80
497.35	424.53
497.72	427.38
498.08	430.00
498.44	432.97
498.80	436.11
499.17	438.94
499.53	441.99
499.89	445.00
500.26	448.09
500.62	451.03
500.98	454.35
501.34	457.37
501.71	460.26
502.07	463.15
502.43	466.15
502.79	469.21
503.16	472.29
503.52	475.19
503.88	478.35
504.24	481.28
504.60	484.04
504.97	487.11
505.33	489.97
505.69	493.26
506.05	496.00
506.41	498.67
506.78	501.31
507.14	503.82
507.50	506.50
507.86	509.12
508.22	512.10
508.59	514.30
508.95	516.80
509.31	519.33
509.67	521.95
510.03	524.49
510.39	526.79
510.75	529.04
511.12	531.19
511.48	533.27
511.84	535.28
512.20	537.34
512.56	539.39
512.92	541.50
513.28	543.08
513.64	544.97
514.00	546.82
514.37	548.69
514.73	550.61
515.09	552.22
515.45	553.89
515.81	555.20
516.17	557.04
516.53	558.58
516.89	559.94
517.25	561.31
517.61	562.46
517.97	563.70
518.33	564.97
518.69	566.26
519.05	567.46
519.41	568.66
519.77	570.05
520.13	571.20
520.49	572.01
520.85	573.28
521.21	574.36
521.57	575.49
521.93	576.55
522.29	577.74
522.65	578.72
523.01	579.66
523.37	580.50
523.73	581.42
524.09	582.38
524.45	583.47
524.81	584.65
525.17	585.84
525.53	587.02
525.89	588.18
526.25	589.45
526.61	590.57
526.97	591.85
527.33	593.06
527.68	594.41
528.04	595.99
528.40	597.22
528.76	598.56
529.12	600.07
529.48	601.50
529.84	602.72
530.20	604.30
530.56	606.00
530.91	608.17
531.27	609.77
531.63	611.46
531.99	613.22
532.35	614.88
532.71	616.58
533.07	618.51
533.42	620.63
533.78	622.34
534.14	624.30
534.50	626.11
534.86	628.11
535.21	629.90
535.57	632.03
535.93	634.07
536.29	636.52
536.65	638.64
537.00	640.84
537.36	643.18
537.72	645.55
538.08	647.84
538.44	649.79
538.79	652.53
539.15	654.77
539.51	657.23
539.87	659.83
540.22	662.70
540.58	665.50
540.94	667.75
541.29	670.73
541.65	673.33
542.01	676.48
542.37	679.56
542.72	682.38
543.08	685.16
543.44	688.40
543.79	690.97
544.15	694.02
544.51	697.56
544.87	700.95
545.22	703.95
545.58	706.95
545.94	710.10
546.29	713.06
546.65	716.26
547.01	719.29
547.36	722.31
547.72	725.33
548.07	728.56
548.43	731.68
548.79	734.63
549.14	737.96
549.50	740.89
549.86	743.79
550.21	746.93
550.57	750.22
550.92	753.31
551.28	756.73
551.64	759.84
551.99	762.83
552.35	766.18
552.70	769.40
553.06	772.85
553.41	775.97
553.77	779.35
554.13	782.84
554.48	786.14
554.84	789.43
555.19	792.76
555.55	795.82
555.90	799.28
556.26	802.40
556.61	805.54
556.97	808.78
557.32	812.25
557.68	815.68
558.03	818.98
558.39	822.07
558.74	825.50
559.10	828.80
559.45	831.82
559.81	834.82
560.16	837.98
560.52	840.93
560.87	844.54
561.23	847.29
561.58	850.41
561.94	853.89
562.29	856.62
562.64	859.18
563.00	862.17
563.35	865.33
563.71	868.75
564.06	871.99
564.42	875.03
564.77	877.87
565.12	880.77
565.48	883.75
565.83	886.40
566.19	889.16
566.54	891.40
566.89	893.92
567.25	896.57
567.60	899.54
567.96	902.29
568.31	904.56
568.66	907.06
569.02	909.06
569.37	910.83
569.72	913.24
570.08	915.61
570.43	917.74
570.78	919.36
571.14	920.83
571.49	922.73
571.84	924.70
572.20	926.31
572.55	927.79
572.90	928.93
573.26	930.61
573.61	931.80
573.96	933.38
574.31	934.41
574.67	935.00
575.02	935.66
575.37	936.49
575.72	936.87
576.08	937.75
576.43	938.80
576.78	939.77
577.13	940.73
577.49	941.50
577.84	942.20
578.19	942.75
578.54	943.37
578.90	943.47
579.25	943.19
579.60	943.18
579.95	943.27
580.30	943.55
580.66	943.32
581.01	943.22
581.36	943.25
581.71	943.35
582.06	943.48
582.42	943.24
582.77	942.79
583.12	942.84
583.47	942.33
583.82	942.02
584.17	941.46
584.53	941.16
584.88	940.71
585.23	940.13
585.58	939.82
585.93	939.39
586.28	939.03
586.63	938.93
586.98	938.49
587.34	937.91
587.69	937.36
588.04	936.89
588.39	936.26
588.74	935.07
589.09	934.31
589.44	933.36
589.79	932.48
590.14	931.94
590.49	931.11
590.84	930.14
591.19	929.22
591.54	927.78
591.89	926.07
592.25	924.77
592.60	922.90
592.95	921.10
593.30	919.45
593.65	917.68
594.00	915.80
594.35	914.49
594.70	912.68
595.05	910.83
595.40	908.94
595.75	906.90
596.10	905.25
596.45	903.60
596.80	902.05
597.15	900.35
597.50	898.29
597.85	896.60
598.19	895.23
598.54	893.36
598.89	891.97
599.24	890.63
599.59	888.90
599.94	887.45
600.29	885.87
600.64	883.88
600.99	882.05
601.34	880.36
601.69	878.16
602.04	876.21
602.39	874.10
602.74	872.43
603.08	870.74
603.43	869.03
603.78	866.91
604.13	864.64
604.48	862.53
604.83	860.57
605.18	858.24
605.53	855.73
605.87	853.16
606.22	851.02
606.57	848.35
606.92	846.03
607.27	843.98
607.62	841.84
607.96	839.81
608.31	837.66
608.66	834.96
609.01	832.29
609.36	829.60
609.70	826.83
610.05	823.96
610.40	821.17
610.75	818.24
611.10	815.44
611.44	812.20
611.79	809.38
612.14	806.39
612.49	803.22
612.83	800.30
613.18	797.31
613.53	794.26
613.88	791.02
614.22	787.96
614.57	784.43
614.92	781.27
615.27	778.36
615.61	775.12
615.96	772.14
616.31	769.39
616.65	766.93
617.00	764.37
617.35	761.76
617.70	758.95
618.04	756.07
618.39	753.08
618.74	750.59
619.08	747.36
619.43	744.52
619.78	741.98
620.12	739.03
620.47	736.37
620.82	733.31
621.16	730.86
621.51	728.03
621.85	725.50
622.20	722.59
622.55	719.51
622.89	716.87
623.24	714.20
623.59	711.40
623.93	708.68
624.28	705.93
624.62	703.07
624.97	700.30
625.32	697.66
625.66	695.01
626.01	692.40
626.35	690.01
626.70	687.25
627.04	684.52
627.39	681.95
627.73	679.12
628.08	676.80
628.43	674.11
628.77	671.37
629.12	668.46
629.46	665.92
629.81	663.10
630.15	660.02
630.50	657.21
630.84	654.27
631.19	651.22
631.53	648.33
631.88	645.25
632.22	642.28
632.57	639.64
632.91	636.85
633.26	633.95
633.60	631.09
633.95	628.40
634.29	625.66
634.64	623.08
634.98	620.28
635.32	617.51
635.67	614.72
636.01	612.15
636.36	609.58
636.70	606.95
637.05	604.30
637.39	601.99
637.73	599.69
638.08	597.46
638.42	595.17
638.77	592.67
639.11	590.22
639.45	587.77
639.80	585.16
640.14	582.68
640.49	580.45
640.83	578.16
641.17	575.77
641.52	573.34
641.86	570.68
642.20	568.41
642.55	565.85
642.89	563.63
643.23	561.28
643.58	559.13
643.92	556.47
644.26	554.24
644.61	552.10
644.95	549.71
645.29	547.02
645.64	544.24
645.98	541.83
646.32	539.59
646.66	537.20
647.01	534.70
647.35	532.46
647.69	530.05
648.04	527.60
648.38	525.15
648.72	522.51
649.06	520.18
649.41	517.97
649.75	515.51
650.09	513.03
650.43	510.52
650.78	507.83
651.12	505.55
651.46	503.24
651.80	500.71
652.14	498.47
652.49	496.26
652.83	494.24
653.17	491.91
653.51	489.56
653.85	487.44
654.20	485.29
654.54	482.85
654.88	480.53
655.22	478.18
655.56	475.80
655.90	473.74
656.25	471.51
656.59	469.19
656.93	467.10
657.27	464.96
657.61	462.84
657.95	461.06
658.29	459.07
658.64	457.01
658.98	454.78
659.32	452.46
659.66	450.27
660.00	448.13
660.34	446.03
660.68	444.01
661.02	441.66
661.36	439.48
661.70	437.57
662.05	435.62
662.39	433.84
662.73	432.06
663.07	430.31
663.41	428.51
663.75	426.61
664.09	424.65
664.43	422.85
664.77	421.01
665.11	418.97
665.45	417.12
665.79	415.33
666.13	413.69
666.47	411.93
666.81	410.26
667.15	408.41
667.49	406.75
667.83	405.08
668.17	403.57
668.51	402.09
668.85	400.46
669.19	398.90
669.53	397.34
669.87	395.85
670.21	394.40
670.55	392.81
670.89	391.38
671.23	389.97
671.57	388.52
671.91	387.08
672.25	385.69
672.58	384.30
672.92	382.71
673.26	381.34
673.60	380.08
673.94	378.72
674.28	377.50
674.62	376.30
674.96	375.03
675.30	373.91
675.64	372.65
675.97	371.30
676.31	370.11
676.65	368.81
676.99	367.60
677.33	366.13
677.67	364.79
678.01	363.41
678.34	362.15
678.68	360.87
679.02	359.63
679.36	358.47
679.70	357.20
680.04	356.23
680.37	354.86
680.71	353.68
681.05	352.60
681.39	351.44
681.73	350.27
682.06	349.18
682.40	348.02
682.74	346.99
683.08	346.00
683.42	344.77
683.75	343.76
684.09	342.48
684.43	341.53
684.77	340.51
685.10	339.69
685.44	338.69
685.78	337.75
686.12	336.71
686.45	335.49
686.79	334.54
687.13	333.45
687.46	332.66
687.80	331.57
688.14	330.43
688.48	329.46
688.81	328.37
689.15	327.29
689.49	326.22
689.82	325.06
690.16	323.99
690.50	323.10
690.83	322.12
691.17	321.21
691.51	320.16
691.84	319.34
692.18	318.26
692.52	317.33
692.85	316.22
693.19	315.27
693.52	314.44
693.86	313.48
694.20	312.52
694.53	311.53
694.87	310.61
695.21	309.78
695.54	308.95
695.88	308.04
696.21	307.23
696.55	306.33
696.88	305.51
697.22	304.77
697.56	303.87
697.89	302.95
698.23	302.14
698.56	301.29
698.90	300.55
699.23	299.70
699.57	298.80
699.90	298.03
700.24	297.23
700.58	296.47
700.91	295.79
701.25	295.09
701.58	294.49
701.92	293.78
702.25	293.04
702.59	292.33
702.92	291.73
703.26	291.00
703.59	290.40
703.93	289.94
704.26	289.23
704.60	288.58
704.93	287.90
705.26	287.16
705.60	286.53
705.93	285.81
706.27	285.27
706.60	284.74
706.94	284.20
707.27	283.58
707.61	283.00
707.94	282.45
708.27	281.79
708.61	281.05
708.94	280.61
709.28	280.10
709.61	279.52
709.94	278.94
710.28	278.43
710.61	277.86
710.95	277.17
711.28	276.75
711.61	276.22
711.95	275.86
712.28	275.45
712.61	275.07
712.95	274.58
713.28	274.14
713.61	273.60
713.95	273.02
714.28	272.53
714.61	272.04
714.95	271.60
715.28	271.20
715.61	270.65
715.95	270.06
716.28	269.58
716.61	269.15
716.95	268.83
717.28	268.42
717.61	268.05
717.94	267.57
718.28	267.01
718.61	266.54
718.94	265.99
719.27	265.50
719.61	265.03
719.94	264.65
720.27	264.19
720.60	263.84
720.94	263.54
721.27	263.17
721.60	262.77
721.93	262.43
722.27	262.15
722.60	261.97
722.93	261.76
723.26	261.40
723.59	261.12
723.93	260.73
724.26	260.48
724.59	260.07
724.92	259.79
725.25	259.59
725.59	259.28
725.92	259.06
726.25	258.86
726.58	258.56
726.91	258.27
727.24	258.10
727.57	257.85
727.91	257.50
728.24	257.35
728.57	257.15
728.90	256.83
729.23	256.50
729.56	256.27
729.89	255.90
730.22	255.76
730.55	255.36
730.89	255.11
731.22	254.77
731.55	254.51
731.88	254.24
732.21	253.86
732.54	253.60
732.87	253.28
733.20	253.03
733.53	252.90
733.86	252.58
734.19	252.29
734.52	251.91
734.85	251.82
735.18	251.47
735.51	251.27
735.84	251.10
736.17	250.92
736.50	250.55
736.83	250.50
737.16	250.08
737.49	249.86
737.82	249.63
738.15	249.45
738.48	249.24
738.81	249.00
739.14	248.82
739.47	248.70
739.80	248.56
740.13	248.32
740.46	247.92
740.79	247.72
741.12	247.45
741.45	247.32
741.78	246.98
742.11	246.82
742.44	246.63
742.77	246.36
743.10	246.08
743.43	245.92
743.75	245.48
744.08	245.69
744.41	245.47
744.74	245.19
745.07	244.84
745.40	244.61
745.73	244.51
746.06	244.30
746.39	244.15
746.71	243.94
747.04	243.75
747.37	243.68
747.70	243.58
748.03	243.47
748.36	243.36
748.68	243.23
749.01	243.13
749.34	242.83
749.67	242.74
750.00	242.52
750.33	242.47
750.65	242.50
750.98	241.99
751.31	241.95
751.64	241.83
751.97	241.87
752.29	241.72
752.62	241.55
752.95	241.38
753.28	241.10
753.60	240.93
753.93	240.86
754.26	240.73
754.59	240.51
754.91	240.39
755.24	240.23
755.57	240.10
755.90	239.92
756.22	239.79
756.55	239.50
756.88	239.41
757.20	239.21
757.53	238.99
757.86	238.91
758.19	238.81
758.51	238.80
758.84	238.61
759.17	238.58
759.49	238.49
759.82	238.52
760.15	238.44
760.47	238.33
760.80	238.11
761.13	238.06
761.45	238.09
761.78	237.97
762.11	237.97
762.43	237.89
762.76	237.75
763.08	237.76
763.41	237.66
763.74	237.59
764.06	237.43
764.39	237.40
764.71	237.34
765.04	237.18
765.37	237.03
765.69	237.02
766.02	236.89
766.34	236.67
766.67	236.52
767.00	236.51
767.32	236.54
767.65	236.60
767.97	236.54
768.30	236.40
768.62	236.31
768.95	236.08
769.27	235.97
769.60	235.98
769.92	235.89
770.25	235.84
770.57	235.79
770.90	235.68
771.22	235.58
771.55	235.56
771.87	235.49
772.20	235.47
772.52	235.53
772.85	235.63
773.17	235.63
773.50	235.54
773.82	235.54
774.15	235.41
774.47	235.28
774.80	235.18
775.12	235.18
775.45	235.01
775.77	235.04
776.09	234.93
776.42	234.77
776.74	234.77
777.07	234.77
777.39	234.70
777.72	234.75
778.04	234.61
778.36	234.54
778.69	234.45
779.01	234.31
779.33	234.05
779.66	233.78
779.98	233.70
780.31	233.63
780.63	233.61
780.95	233.47
781.28	233.43
781.60	233.30
781.92	233.13
782.25	233.13
782.57	232.96
782.89	232.96
783.22	232.96
783.54	232.80
783.86	232.72
784.19	232.62
784.51	232.47
784.83	232.40
785.16	232.21
785.48	232.22
785.80	232.17
786.12	232.15
786.45	232.19
786.77	232.19
787.09	232.12
787.42	231.90
787.74	231.86
788.06	231.77
788.38	231.66
788.71	231.54
789.03	231.49
789.35	231.50
789.67	231.47
789.99	231.43
790.32	231.36
790.64	231.32
790.96	231.44
791.28	231.45
791.61	231.38
791.93	231.43
792.25	231.44
792.57	231.58
792.89	231.57
793.21	231.49
793.54	231.41
793.86	231.43
794.18	231.51
