SpectraSuite Data File
++++++++++++++++++++++++++++++++++++
Date: Fri Feb 01 14:42:01 EST 2013
User: group
Dark Spectrum Present: No
Reference Spectrum Present: No
Number of Sampled Component Spectra: 1
Spectrometers: USB2E7196
Integration Time (usec): 70000 (USB2E7196)
Spectra Averaged: 10 (USB2E7196)
Boxcar Smoothing: 10 (USB2E7196)
Correct for Electrical Dark: No (USB2E7196)
Strobe/Lamp Enabled: No (USB2E7196)
Correct for Detector Non-linearity: No (USB2E7196)
Correct for Stray Light: No (USB2E7196)
Number of Pixels in Processed Spectrum: 2048
>>>>>Begin Processed Spectral Data<<<<<
339.09	0.00
339.48	216.40
339.86	218.50
340.24	219.30
340.63	220.00
341.01	226.80
341.39	223.60
341.78	224.30
342.16	226.30
342.54	226.40
342.93	214.58
343.31	225.43
343.69	225.99
344.07	226.42
344.46	226.86
344.84	227.23
345.22	227.26
345.60	227.52
345.99	227.71
346.37	227.86
346.75	227.96
347.13	228.07
347.52	228.26
347.90	228.47
348.28	228.48
348.66	228.59
349.05	228.55
349.43	228.59
349.81	228.57
350.19	228.79
350.57	228.88
350.96	229.08
351.34	229.20
351.72	229.38
352.10	229.52
352.48	229.58
352.87	229.72
353.25	229.85
353.63	229.90
354.01	229.98
354.39	230.08
354.77	230.13
355.15	230.18
355.54	230.09
355.92	229.96
356.30	230.05
356.68	230.16
357.06	230.25
357.44	230.33
357.82	230.47
358.20	230.51
358.58	230.52
358.97	230.52
359.35	230.64
359.73	230.58
360.11	230.64
360.49	230.76
360.87	230.90
361.25	230.98
361.63	231.08
362.01	231.10
362.39	231.15
362.77	231.20
363.15	231.29
363.53	231.32
363.91	231.43
364.29	231.44
364.67	231.34
365.05	231.31
365.43	231.36
365.81	231.42
366.19	231.50
366.57	231.66
366.95	231.66
367.33	231.54
367.71	231.46
368.09	231.37
368.47	231.27
368.85	231.12
369.23	231.05
369.61	231.00
369.99	231.12
370.37	230.97
370.75	231.06
371.13	230.90
371.51	230.77
371.89	230.79
372.27	230.78
372.65	230.69
373.03	230.75
373.41	230.72
373.78	230.61
374.16	230.44
374.54	230.18
374.92	230.03
375.30	229.94
375.68	229.98
376.06	229.99
376.44	229.90
376.82	229.80
377.19	229.73
377.57	229.65
377.95	229.33
378.33	229.29
378.71	229.08
379.09	229.03
379.47	229.10
379.84	229.03
380.22	228.90
380.60	228.90
380.98	228.73
381.36	228.67
381.73	228.53
382.11	228.50
382.49	228.59
382.87	228.56
383.25	228.49
383.62	228.57
384.00	228.37
384.38	228.36
384.76	228.28
385.13	228.24
385.51	228.20
385.89	228.17
386.27	228.13
386.64	228.11
387.02	228.01
387.40	227.81
387.78	227.69
388.15	227.71
388.53	227.64
388.91	227.56
389.29	227.46
389.66	227.48
390.04	227.36
390.42	227.27
390.79	227.27
391.17	227.22
391.55	227.13
391.92	227.13
392.30	227.13
392.68	227.20
393.05	227.38
393.43	227.14
393.81	227.19
394.18	227.20
394.56	227.23
394.94	227.31
395.31	227.52
395.69	227.72
396.06	227.74
396.44	227.80
396.82	227.90
397.19	228.09
397.57	228.20
397.95	228.32
398.32	228.36
398.70	228.53
399.07	228.77
399.45	228.75
399.82	229.00
400.20	229.11
400.58	229.23
400.95	229.21
401.33	229.61
401.70	229.96
402.08	230.13
402.45	230.25
402.83	230.51
403.20	230.68
403.58	230.76
403.95	231.00
404.33	231.18
404.71	231.45
405.08	231.80
405.46	231.90
405.83	232.25
406.21	232.64
406.58	232.85
406.96	233.05
407.33	233.32
407.70	233.51
408.08	234.00
408.45	234.38
408.83	234.71
409.20	234.95
409.58	235.20
409.95	235.59
410.33	236.05
410.70	236.44
411.08	236.78
411.45	237.30
411.82	237.72
412.20	238.25
412.57	238.90
412.95	239.33
413.32	240.00
413.69	240.60
414.07	241.20
414.44	241.90
414.82	242.61
415.19	243.53
415.56	244.40
415.94	245.15
416.31	246.18
416.68	247.16
417.06	248.29
417.43	249.29
417.81	250.47
418.18	251.65
418.55	252.82
418.93	254.09
419.30	255.43
419.67	256.82
420.04	258.38
420.42	259.80
420.79	261.57
421.16	263.39
421.54	265.22
421.91	267.00
422.28	268.88
422.66	270.91
423.03	272.87
423.40	274.87
423.77	277.02
424.15	279.09
424.52	281.26
424.89	283.60
425.26	286.03
425.64	288.16
426.01	290.54
426.38	293.11
426.75	295.75
427.13	298.34
427.50	301.08
427.87	303.88
428.24	306.70
428.61	309.31
428.99	312.26
429.36	315.43
429.73	318.61
430.10	321.70
430.47	324.85
430.85	328.04
431.22	331.45
431.59	335.13
431.96	338.41
432.33	342.24
432.70	345.93
433.08	350.04
433.45	354.05
433.82	358.05
434.19	362.30
434.56	366.60
434.93	370.58
435.30	374.64
435.68	378.99
436.05	383.17
436.42	387.50
436.79	391.15
437.16	395.21
437.53	399.40
437.90	403.74
438.27	407.77
438.64	412.10
439.01	415.97
439.38	419.31
439.75	422.72
440.13	426.65
440.50	430.22
440.87	433.18
441.24	436.13
441.61	439.36
441.98	441.70
442.35	444.62
442.72	447.48
443.09	450.09
443.46	451.51
443.83	452.47
444.20	453.04
444.57	454.39
444.94	454.70
445.31	455.28
445.68	455.84
446.05	456.12
446.42	455.45
446.79	454.84
447.16	454.10
447.53	453.63
447.90	451.74
448.27	449.91
448.64	447.50
449.01	445.75
449.37	442.82
449.74	439.89
450.11	436.23
450.48	432.42
450.85	428.55
451.22	425.17
451.59	422.20
451.96	419.35
452.33	415.49
452.70	411.92
453.07	407.57
453.43	403.00
453.80	398.60
454.17	394.46
454.54	390.58
454.91	386.48
455.28	382.41
455.65	378.66
456.02	374.93
456.38	371.52
456.75	367.42
457.12	363.83
457.49	360.53
457.86	357.16
458.23	354.36
458.59	351.21
458.96	348.11
459.33	345.27
459.70	342.22
460.07	339.79
460.43	337.15
460.80	334.77
461.17	332.53
461.54	330.39
461.91	328.26
462.27	326.07
462.64	324.02
463.01	321.82
463.38	319.68
463.74	317.47
464.11	315.69
464.48	314.16
464.85	312.55
465.21	311.16
465.58	309.67
465.95	308.04
466.32	306.75
466.68	305.38
467.05	303.95
467.42	302.76
467.78	301.24
468.15	299.92
468.52	298.90
468.88	297.55
469.25	296.20
469.62	295.12
469.98	294.04
470.35	293.14
470.72	292.19
471.08	291.23
471.45	290.45
471.82	289.57
472.18	288.47
472.55	287.72
472.92	286.92
473.28	286.23
473.65	285.32
474.02	284.55
474.38	283.92
474.75	283.32
475.11	282.60
475.48	282.10
475.85	281.58
476.21	281.07
476.58	280.72
476.94	280.46
477.31	280.21
477.67	279.85
478.04	279.50
478.41	279.23
478.77	279.18
479.14	278.98
479.50	278.87
479.87	279.00
480.23	278.89
480.60	278.81
480.96	278.74
481.33	278.87
481.69	279.04
482.06	279.20
482.42	279.30
482.79	279.66
483.15	280.09
483.52	280.47
483.88	280.68
484.25	281.15
484.61	281.53
484.98	281.94
485.34	282.61
485.71	283.26
486.07	284.05
486.44	284.59
486.80	285.39
487.17	286.28
487.53	287.33
487.90	288.48
488.26	289.61
488.62	290.88
488.99	292.12
489.35	293.33
489.72	294.69
490.08	296.03
490.44	297.59
490.81	299.25
491.17	300.97
491.54	302.98
491.90	304.90
492.26	307.22
492.63	309.44
492.99	311.85
493.36	314.34
493.72	317.15
494.08	320.10
494.45	323.11
494.81	326.18
495.17	329.27
495.54	332.66
495.90	336.28
496.26	339.92
496.63	343.79
496.99	348.09
497.35	352.53
497.72	357.38
498.08	362.24
498.44	367.27
498.80	372.71
499.17	378.18
499.53	383.74
499.89	389.54
500.26	395.75
500.62	402.07
500.98	408.87
501.34	415.68
501.71	422.68
502.07	430.11
502.43	437.92
502.79	445.95
503.16	454.31
503.52	462.87
503.88	471.88
504.24	481.23
504.60	490.73
504.97	500.61
505.33	510.80
505.69	521.46
506.05	532.45
506.41	543.50
506.78	554.87
507.14	566.65
507.50	578.78
507.86	591.49
508.22	604.60
508.59	617.74
508.95	631.30
509.31	645.38
509.67	659.84
510.03	674.65
510.39	690.03
510.75	705.68
511.12	721.63
511.48	737.97
511.84	754.45
512.20	771.15
512.56	788.58
512.92	806.25
513.28	824.10
513.64	842.28
514.00	860.74
514.37	879.76
514.73	899.12
515.09	918.48
515.45	938.22
515.81	958.19
516.17	978.84
516.53	999.79
516.89	1020.68
517.25	1041.51
517.61	1062.95
517.97	1083.91
518.33	1105.08
518.69	1126.58
519.05	1148.82
519.41	1171.78
519.77	1195.04
520.13	1217.75
520.49	1240.65
520.85	1263.59
521.21	1286.57
521.57	1310.70
521.93	1334.06
522.29	1358.40
522.65	1382.38
523.01	1406.28
523.37	1429.93
523.73	1453.45
524.09	1477.13
524.45	1501.77
524.81	1526.71
525.17	1551.47
525.53	1576.83
525.89	1602.00
526.25	1627.57
526.61	1651.49
526.97	1676.25
527.33	1701.13
527.68	1726.48
528.04	1751.26
528.40	1776.32
528.76	1802.22
529.12	1827.08
529.48	1852.75
529.84	1876.61
530.20	1902.08
530.56	1927.83
530.91	1954.16
531.27	1980.02
531.63	2005.48
531.99	2030.52
532.35	2054.77
532.71	2078.67
533.07	2103.33
533.42	2128.04
533.78	2152.19
534.14	2177.11
534.50	2200.46
534.86	2223.99
535.21	2246.63
535.57	2270.92
535.93	2294.72
536.29	2317.02
536.65	2339.71
537.00	2361.88
537.36	2385.60
537.72	2407.56
538.08	2428.87
538.44	2449.87
538.79	2470.84
539.15	2491.34
539.51	2512.43
539.87	2534.11
540.22	2555.32
540.58	2576.23
540.94	2595.67
541.29	2615.26
541.65	2634.88
542.01	2655.52
542.37	2674.69
542.72	2694.20
543.08	2712.54
543.44	2731.05
543.79	2748.83
544.15	2766.76
544.51	2785.92
544.87	2803.07
545.22	2820.21
545.58	2837.06
545.94	2852.66
546.29	2868.45
546.65	2884.70
547.01	2899.46
547.36	2913.96
547.72	2928.27
548.07	2941.82
548.43	2955.83
548.79	2969.00
549.14	2981.53
549.50	2992.90
549.86	3004.84
550.21	3016.62
550.57	3028.29
550.92	3039.62
551.28	3050.76
551.64	3061.65
551.99	3071.34
552.35	3081.36
552.70	3091.71
553.06	3101.33
553.41	3111.55
553.77	3121.66
554.13	3130.99
554.48	3140.74
554.84	3149.54
555.19	3158.39
555.55	3166.72
555.90	3174.78
556.26	3183.11
556.61	3191.40
556.97	3198.76
557.32	3206.75
557.68	3214.08
558.03	3221.00
558.39	3227.34
558.74	3235.87
559.10	3242.81
559.45	3249.36
559.81	3257.12
560.16	3262.49
560.52	3268.53
560.87	3274.62
561.23	3278.65
561.58	3283.90
561.94	3288.23
562.29	3292.03
562.64	3295.22
563.00	3299.07
563.35	3304.18
563.71	3309.03
564.06	3313.96
564.42	3318.97
564.77	3322.61
565.12	3326.93
565.48	3330.59
565.83	3333.41
566.19	3335.02
566.54	3336.91
566.89	3338.40
567.25	3339.46
567.60	3342.24
567.96	3343.63
568.31	3344.36
568.66	3346.19
569.02	3346.88
569.37	3346.82
569.72	3347.61
570.08	3348.22
570.43	3348.38
570.78	3347.00
571.14	3344.99
571.49	3343.54
571.84	3342.75
572.20	3340.75
572.55	3337.80
572.90	3334.49
573.26	3332.63
573.61	3329.62
573.96	3326.85
574.31	3322.83
574.67	3317.51
575.02	3312.54
575.37	3308.71
575.72	3303.55
576.08	3298.96
576.43	3293.66
576.78	3288.80
577.13	3284.27
577.49	3279.48
577.84	3274.19
578.19	3268.61
578.54	3262.73
578.90	3255.35
579.25	3247.50
579.60	3240.57
579.95	3233.47
580.30	3226.25
580.66	3218.00
581.01	3210.73
581.36	3203.23
581.71	3196.67
582.06	3189.54
582.42	3181.44
582.77	3173.33
583.12	3165.81
583.47	3158.30
583.82	3151.28
584.17	3143.24
584.53	3135.40
584.88	3127.30
585.23	3118.72
585.58	3111.00
585.93	3103.07
586.28	3095.69
586.63	3088.31
586.98	3080.89
587.34	3072.92
587.69	3065.25
588.04	3057.70
588.39	3050.14
588.74	3039.89
589.09	3030.43
589.44	3021.47
589.79	3013.13
590.14	3004.51
590.49	2995.30
590.84	2985.11
591.19	2975.44
591.54	2965.09
591.89	2953.71
592.25	2943.30
592.60	2932.17
592.95	2920.72
593.30	2910.30
593.65	2899.29
594.00	2887.62
594.35	2877.03
594.70	2865.53
595.05	2854.83
595.40	2843.44
595.75	2831.20
596.10	2822.03
596.45	2812.11
596.80	2802.70
597.15	2792.99
597.50	2782.33
597.85	2772.59
598.19	2763.52
598.54	2753.62
598.89	2744.21
599.24	2735.69
599.59	2726.30
599.94	2717.34
600.29	2707.67
600.64	2697.50
600.99	2686.77
601.34	2677.28
601.69	2666.36
602.04	2656.86
602.39	2646.45
602.74	2637.50
603.08	2628.40
603.43	2618.52
603.78	2608.15
604.13	2597.30
604.48	2586.40
604.83	2576.07
605.18	2565.90
605.53	2554.03
605.87	2542.27
606.22	2531.53
606.57	2519.80
606.92	2508.60
607.27	2498.10
607.62	2488.38
607.96	2477.48
608.31	2467.79
608.66	2455.96
609.01	2444.42
609.36	2432.36
609.70	2420.24
610.05	2407.65
610.40	2395.66
610.75	2383.09
611.10	2370.77
611.44	2358.00
611.79	2346.25
612.14	2333.77
612.49	2320.25
612.83	2308.25
613.18	2295.97
613.53	2284.22
613.88	2271.46
614.22	2259.22
614.57	2246.15
614.92	2233.14
615.27	2221.36
615.61	2208.77
615.96	2196.98
616.31	2185.73
616.65	2175.78
617.00	2164.83
617.35	2153.47
617.70	2141.40
618.04	2129.20
618.39	2118.03
618.74	2107.14
619.08	2094.84
619.43	2083.80
619.78	2073.17
620.12	2061.97
620.47	2050.82
620.82	2038.91
621.16	2027.90
621.51	2016.41
621.85	2005.14
622.20	1993.18
622.55	1981.41
622.89	1970.01
623.24	1959.44
623.59	1948.59
623.93	1936.92
624.28	1925.85
624.62	1914.44
624.97	1903.75
625.32	1893.72
625.66	1883.13
626.01	1871.91
626.35	1861.16
626.70	1849.97
627.04	1839.16
627.39	1827.87
627.73	1816.59
628.08	1805.88
628.43	1794.96
628.77	1784.57
629.12	1773.38
629.46	1763.29
629.81	1751.86
630.15	1740.44
630.50	1728.94
630.84	1716.66
631.19	1704.68
631.53	1693.12
631.88	1681.52
632.22	1669.83
632.57	1658.91
632.91	1647.34
633.26	1636.12
633.60	1624.51
633.95	1613.34
634.29	1602.92
634.64	1592.83
634.98	1582.01
635.32	1571.76
635.67	1562.17
636.01	1551.76
636.36	1541.95
636.70	1531.71
637.05	1522.47
637.39	1513.50
637.73	1503.55
638.08	1495.20
638.42	1486.24
638.77	1477.20
639.11	1467.79
639.45	1458.50
639.80	1448.77
640.14	1439.41
640.49	1430.09
640.83	1420.79
641.17	1411.39
641.52	1401.25
641.86	1391.40
642.20	1382.70
642.55	1373.01
642.89	1363.02
643.23	1353.22
643.58	1344.24
643.92	1334.58
644.26	1325.10
644.61	1315.61
644.95	1306.68
645.29	1296.29
645.64	1286.17
645.98	1276.66
646.32	1267.88
646.66	1258.56
647.01	1248.87
647.35	1239.68
647.69	1230.63
648.04	1222.24
648.38	1213.08
648.72	1203.59
649.06	1194.39
649.41	1185.51
649.75	1176.06
650.09	1167.10
650.43	1158.00
650.78	1148.23
651.12	1139.22
651.46	1130.33
651.80	1121.45
652.14	1112.58
652.49	1103.91
652.83	1095.72
653.17	1086.65
653.51	1077.70
653.85	1069.13
654.20	1060.74
654.54	1051.58
654.88	1043.00
655.22	1033.91
655.56	1025.44
655.90	1017.52
656.25	1009.22
656.59	1000.77
656.93	993.25
657.27	985.03
657.61	976.75
657.95	969.50
658.29	961.55
658.64	953.47
658.98	945.20
659.32	937.20
659.66	929.64
660.00	921.95
660.34	914.42
660.68	907.03
661.02	899.37
661.36	892.38
661.70	885.65
662.05	878.67
662.39	871.93
662.73	865.12
663.07	858.45
663.41	852.01
663.75	845.28
664.09	838.28
664.43	831.64
664.77	825.41
665.11	818.78
665.45	812.65
665.79	806.52
666.13	800.42
666.47	794.11
666.81	787.75
667.15	781.31
667.49	775.40
667.83	769.40
668.17	763.51
668.51	757.43
668.85	751.27
669.19	745.44
669.53	739.84
669.87	733.96
670.21	728.31
670.55	722.76
670.89	717.50
671.23	712.36
671.57	707.28
671.91	702.19
672.25	696.90
672.58	691.79
672.92	686.70
673.26	681.98
673.60	677.15
673.94	672.41
674.28	667.94
674.62	663.48
674.96	658.80
675.30	654.45
675.64	649.92
675.97	645.65
676.31	641.15
676.65	636.65
676.99	632.61
677.33	628.23
677.67	623.71
678.01	619.02
678.34	614.57
678.68	610.26
679.02	605.95
679.36	601.83
679.70	597.62
680.04	593.46
680.37	589.10
680.71	585.09
681.05	581.24
681.39	577.30
681.73	573.30
682.06	569.77
682.40	566.12
682.74	562.25
683.08	558.67
683.42	555.06
683.75	551.43
684.09	547.50
684.43	543.79
684.77	540.30
685.10	536.81
685.44	533.38
685.78	529.96
686.12	526.65
686.45	523.21
686.79	519.68
687.13	516.37
687.46	513.19
687.80	510.05
688.14	506.90
688.48	503.69
688.81	500.31
689.15	497.10
689.49	493.80
689.82	490.69
690.16	487.50
690.50	484.67
690.83	481.69
691.17	478.70
691.51	475.77
691.84	472.98
692.18	470.26
692.52	467.56
692.85	464.68
693.19	461.75
693.52	458.90
693.86	456.27
694.20	453.50
694.53	450.79
694.87	447.98
695.21	445.17
695.54	442.43
695.88	439.80
696.21	436.80
696.55	434.26
696.88	431.65
697.22	428.96
697.56	426.46
697.89	424.00
698.23	421.55
698.56	419.13
698.90	416.92
699.23	414.37
699.57	411.82
699.90	409.43
700.24	407.07
700.58	404.85
700.91	402.42
701.25	400.24
701.58	398.15
701.92	396.06
702.25	394.05
702.59	392.02
702.92	390.22
703.26	388.39
703.59	386.33
703.93	384.63
704.26	382.89
704.60	380.86
704.93	378.86
705.26	377.01
705.60	375.14
705.93	373.15
706.27	371.53
706.60	369.82
706.94	368.15
707.27	366.40
707.61	364.76
707.94	363.23
708.27	361.47
708.61	359.70
708.94	358.16
709.28	356.59
709.61	355.07
709.94	353.49
710.28	352.02
710.61	350.62
710.95	348.87
711.28	347.37
711.61	345.88
711.95	344.54
712.28	343.04
712.61	341.63
712.95	340.30
713.28	338.88
713.61	337.44
713.95	336.17
714.28	335.02
714.61	333.60
714.95	332.50
715.28	331.24
715.61	330.00
715.95	328.64
716.28	327.32
716.61	326.02
716.95	324.75
717.28	323.45
717.61	322.31
717.94	321.31
718.28	319.96
718.61	318.89
718.94	317.76
719.27	316.76
719.61	315.79
719.94	314.81
720.27	313.82
720.60	312.96
720.94	311.89
721.27	310.97
721.60	310.08
721.93	308.95
722.27	308.16
722.60	307.32
722.93	306.43
723.26	305.64
723.59	304.87
723.93	304.11
724.26	303.39
724.59	302.40
724.92	301.55
725.25	301.04
725.59	300.32
725.92	299.53
726.25	298.77
726.58	298.06
726.91	297.20
727.24	296.50
727.57	295.75
727.91	295.00
728.24	294.18
728.57	293.50
728.90	292.88
729.23	292.10
729.56	291.47
729.89	290.79
730.22	289.96
730.55	289.23
730.89	288.48
731.22	287.70
731.55	287.14
731.88	286.43
732.21	285.70
732.54	284.94
732.87	284.24
733.20	283.69
733.53	283.07
733.86	282.47
734.19	281.76
734.52	281.10
734.85	280.65
735.18	280.02
735.51	279.40
735.84	278.92
736.17	278.29
736.50	277.60
736.83	277.28
737.16	276.82
737.49	276.35
737.82	275.83
738.15	275.48
738.48	274.93
738.81	274.42
739.14	273.79
739.47	273.23
739.80	272.70
740.13	272.10
740.46	271.44
740.79	270.93
741.12	270.40
741.45	269.85
741.78	269.20
742.11	268.72
742.44	268.18
742.77	267.64
743.10	267.22
743.43	266.75
743.75	266.00
744.08	265.74
744.41	265.30
744.74	264.78
745.07	264.21
745.40	263.76
745.73	263.38
746.06	262.91
746.39	262.59
746.71	262.20
747.04	261.90
747.37	261.50
747.70	261.08
748.03	260.63
748.36	260.24
748.68	259.90
749.01	259.43
749.34	259.10
749.67	258.56
750.00	258.13
750.33	257.89
750.65	257.63
750.98	257.12
751.31	256.71
751.64	256.43
751.97	256.16
752.29	255.80
752.62	255.29
752.95	255.05
753.28	254.64
753.60	254.25
753.93	253.86
754.26	253.58
754.59	253.25
754.91	252.93
755.24	252.60
755.57	252.27
755.90	251.98
756.22	251.53
756.55	251.26
756.88	250.98
757.20	250.53
757.53	250.19
757.86	249.85
758.19	249.61
758.51	249.29
758.84	249.00
759.17	248.64
759.49	248.54
759.82	248.47
760.15	248.20
760.47	248.08
760.80	247.76
761.13	247.56
761.45	247.39
761.78	247.28
762.11	247.20
762.43	246.99
762.76	246.98
763.08	246.87
763.41	246.73
763.74	246.57
764.06	246.39
764.39	246.23
764.71	246.08
765.04	245.79
765.37	245.65
765.69	245.48
766.02	245.31
766.34	245.05
766.67	244.64
767.00	244.54
767.32	244.41
767.65	244.46
767.97	244.33
768.30	244.08
768.62	243.84
768.95	243.59
769.27	243.45
769.60	243.19
769.92	243.14
770.25	243.00
770.57	242.80
770.90	242.63
771.22	242.40
771.55	242.15
771.87	242.03
772.20	241.83
772.52	241.80
772.85	242.03
773.17	241.97
773.50	241.94
773.82	241.74
774.15	241.48
774.47	241.30
774.80	241.17
775.12	241.06
775.45	240.94
775.77	240.76
776.09	240.60
776.42	240.44
776.74	240.25
777.07	240.04
777.39	239.91
777.72	239.77
778.04	239.67
778.36	239.54
778.69	239.33
779.01	239.16
779.33	238.75
779.66	238.36
779.98	238.13
780.31	237.92
780.63	237.99
780.95	237.97
781.28	237.71
781.60	237.54
781.92	237.46
782.25	237.33
782.57	237.30
782.89	237.16
783.22	237.07
783.54	236.92
783.86	236.85
784.19	236.69
784.51	236.64
784.83	236.44
785.16	236.33
785.48	236.37
785.80	236.34
