SpectraSuite Data File
++++++++++++++++++++++++++++++++++++
Date: Fri Feb 01 14:40:37 EST 2013
User: group
Dark Spectrum Present: No
Reference Spectrum Present: No
Number of Sampled Component Spectra: 1
Spectrometers: USB2E7196
Integration Time (usec): 70000 (USB2E7196)
Spectra Averaged: 10 (USB2E7196)
Boxcar Smoothing: 10 (USB2E7196)
Correct for Electrical Dark: No (USB2E7196)
Strobe/Lamp Enabled: No (USB2E7196)
Correct for Detector Non-linearity: No (USB2E7196)
Correct for Stray Light: No (USB2E7196)
Number of Pixels in Processed Spectrum: 2048
>>>>>Begin Processed Spectral Data<<<<<
339.09	0.00
339.48	215.60
339.86	216.10
340.24	217.20
340.63	219.80
341.01	224.20
341.39	224.10
341.78	221.90
342.16	224.70
342.54	228.00
342.93	214.38
343.31	225.21
343.69	225.80
344.07	226.38
344.46	226.87
344.84	227.20
345.22	227.38
345.60	227.53
345.99	227.84
346.37	227.96
346.75	227.98
347.13	228.13
347.52	228.23
347.90	228.23
348.28	228.26
348.66	228.22
349.05	228.09
349.43	228.17
349.81	228.11
350.19	228.19
350.57	228.22
350.96	228.27
351.34	228.33
351.72	228.42
352.10	228.49
352.48	228.60
352.87	228.70
353.25	228.86
353.63	228.97
354.01	229.01
354.39	229.12
354.77	229.15
355.15	229.26
355.54	229.31
355.92	229.44
356.30	229.54
356.68	229.77
357.06	229.90
357.44	229.97
357.82	230.18
358.20	230.22
358.58	230.33
358.97	230.47
359.35	230.60
359.73	230.68
360.11	230.77
360.49	230.85
360.87	231.00
361.25	231.02
361.63	231.14
362.01	231.23
362.39	231.33
362.77	231.36
363.15	231.37
363.53	231.39
363.91	231.42
364.29	231.35
364.67	231.18
365.05	231.33
365.43	231.39
365.81	231.34
366.19	231.48
366.57	231.50
366.95	231.50
367.33	231.55
367.71	231.50
368.09	231.47
368.47	231.49
368.85	231.46
369.23	231.44
369.61	231.38
369.99	231.44
370.37	231.46
370.75	231.56
371.13	231.53
371.51	231.44
371.89	231.40
372.27	231.49
372.65	231.33
373.03	231.22
373.41	231.15
373.78	231.13
374.16	230.95
374.54	230.90
374.92	230.86
375.30	230.77
375.68	230.75
376.06	230.75
376.44	230.58
376.82	230.44
377.19	230.34
377.57	230.25
377.95	230.12
378.33	229.97
378.71	229.80
379.09	229.76
379.47	229.72
379.84	229.60
380.22	229.40
380.60	229.41
380.98	229.16
381.36	229.08
381.73	228.92
382.11	228.86
382.49	228.78
382.87	228.68
383.25	228.59
383.62	228.62
384.00	228.45
384.38	228.39
384.76	228.35
385.13	228.35
385.51	228.20
385.89	228.09
386.27	228.12
386.64	228.06
387.02	227.94
387.40	227.90
387.78	227.88
388.15	228.00
388.53	227.83
388.91	227.81
389.29	227.70
389.66	227.71
390.04	227.65
390.42	227.68
390.79	227.53
391.17	227.44
391.55	227.21
391.92	227.11
392.30	227.05
392.68	226.99
393.05	227.00
393.43	227.00
393.81	227.01
394.18	226.84
394.56	226.85
394.94	226.93
395.31	226.97
395.69	227.05
396.06	226.93
396.44	227.11
396.82	227.20
397.19	227.33
397.57	227.35
397.95	227.47
398.32	227.44
398.70	227.51
399.07	227.65
399.45	227.84
399.82	228.01
400.20	228.21
400.58	228.31
400.95	228.36
401.33	228.48
401.70	228.69
402.08	228.90
402.45	228.93
402.83	228.99
403.20	228.97
403.58	228.99
403.95	229.25
404.33	229.29
404.71	229.39
405.08	229.63
405.46	229.82
405.83	229.85
406.21	229.97
406.58	230.14
406.96	230.30
407.33	230.42
407.70	230.60
408.08	230.83
408.45	231.11
408.83	231.31
409.20	231.62
409.58	231.76
409.95	231.97
410.33	232.38
410.70	232.72
411.08	233.12
411.45	233.45
411.82	233.72
412.20	234.14
412.57	234.67
412.95	234.94
413.32	235.38
413.69	235.82
414.07	236.27
414.44	236.79
414.82	237.31
415.19	237.83
415.56	238.42
415.94	238.97
416.31	239.57
416.68	240.18
417.06	240.87
417.43	241.51
417.81	242.29
418.18	243.03
418.55	243.69
418.93	244.59
419.30	245.53
419.67	246.48
420.04	247.45
420.42	248.33
420.79	249.53
421.16	250.73
421.54	251.97
421.91	253.20
422.28	254.39
422.66	255.70
423.03	257.07
423.40	258.35
423.77	259.64
424.15	261.02
424.52	262.46
424.89	264.04
425.26	265.62
425.64	267.06
426.01	268.65
426.38	270.42
426.75	272.04
427.13	273.74
427.50	275.43
427.87	277.22
428.24	279.00
428.61	280.71
428.99	282.51
429.36	284.65
429.73	286.67
430.10	288.68
430.47	290.70
430.85	292.79
431.22	294.97
431.59	297.65
431.96	299.89
432.33	302.39
432.70	304.81
433.08	307.66
433.45	310.38
433.82	312.95
434.19	315.87
434.56	318.74
434.93	321.43
435.30	324.20
435.68	327.16
436.05	330.09
436.42	332.77
436.79	335.49
437.16	338.18
437.53	341.23
437.90	344.05
438.27	346.82
438.64	349.84
439.01	352.62
439.38	354.67
439.75	356.97
440.13	359.46
440.50	361.79
440.87	363.70
441.24	365.56
441.61	367.90
441.98	369.50
442.35	371.28
442.72	373.24
443.09	375.05
443.46	376.06
443.83	376.79
444.20	377.60
444.57	378.25
444.94	378.54
445.31	378.78
445.68	379.39
446.05	379.44
446.42	378.97
446.79	378.58
447.16	378.25
447.53	377.87
447.90	376.83
448.27	375.59
448.64	373.94
449.01	372.94
449.37	370.85
449.74	369.05
450.11	367.01
450.48	364.37
450.85	361.84
451.22	359.61
451.59	357.63
451.96	355.52
452.33	353.02
452.70	350.59
453.07	347.73
453.43	344.70
453.80	341.93
454.17	339.18
454.54	336.64
454.91	333.87
455.28	331.20
455.65	328.64
456.02	326.52
456.38	324.39
456.75	321.73
457.12	319.52
457.49	317.14
457.86	314.72
458.23	312.93
458.59	310.88
458.96	308.81
459.33	306.71
459.70	304.76
460.07	303.28
460.43	301.51
460.80	299.90
461.17	298.40
461.54	296.85
461.91	295.42
462.27	293.82
462.64	292.41
463.01	291.00
463.38	289.81
463.74	288.14
464.11	286.91
464.48	285.79
464.85	284.65
465.21	283.65
465.58	282.73
465.95	281.54
466.32	280.43
466.68	279.49
467.05	278.56
467.42	277.58
467.78	276.49
468.15	275.68
468.52	274.94
468.88	273.98
469.25	273.15
469.62	272.42
469.98	271.62
470.35	270.93
470.72	270.24
471.08	269.36
471.45	268.69
471.82	267.95
472.18	267.18
472.55	266.55
472.92	266.01
473.28	265.43
473.65	264.80
474.02	264.38
474.38	263.87
474.75	263.37
475.11	262.90
475.48	262.46
475.85	261.87
476.21	261.37
476.58	261.07
476.94	260.81
477.31	260.42
477.67	260.06
478.04	259.66
478.41	259.38
478.77	259.28
479.14	259.01
479.50	258.77
479.87	258.61
480.23	258.29
480.60	258.02
480.96	257.78
481.33	257.70
481.69	257.47
482.06	257.33
482.42	257.29
482.79	257.21
483.15	257.19
483.52	257.29
483.88	257.23
484.25	257.07
484.61	256.91
484.98	256.92
485.34	257.07
485.71	257.25
486.07	257.39
486.44	257.28
486.80	257.49
487.17	257.72
487.53	258.01
487.90	258.20
488.26	258.39
488.62	258.71
488.99	258.96
489.35	259.27
489.72	259.58
490.08	259.95
490.44	260.41
490.81	260.85
491.17	261.27
491.54	261.95
491.90	262.62
492.26	263.36
492.63	264.04
492.99	264.83
493.36	265.41
493.72	266.17
494.08	267.03
494.45	267.83
494.81	268.84
495.17	269.84
495.54	271.04
495.90	272.27
496.26	273.51
496.63	274.86
496.99	276.28
497.35	277.94
497.72	279.54
498.08	281.09
498.44	282.86
498.80	284.71
499.17	286.53
499.53	288.48
499.89	290.50
500.26	292.60
500.62	294.61
500.98	297.20
501.34	299.70
501.71	302.44
502.07	305.25
502.43	307.97
502.79	310.97
503.16	314.11
503.52	317.26
503.88	320.51
504.24	323.94
504.60	327.43
504.97	330.98
505.33	334.77
505.69	338.81
506.05	343.03
506.41	347.23
506.78	351.65
507.14	356.17
507.50	360.88
507.86	365.66
508.22	370.74
508.59	375.73
508.95	381.17
509.31	386.76
509.67	392.41
510.03	398.36
510.39	404.19
510.75	410.31
511.12	416.70
511.48	423.18
511.84	430.05
512.20	437.08
512.56	444.37
512.92	451.62
513.28	459.24
513.64	466.70
514.00	474.50
514.37	482.53
514.73	490.72
515.09	499.10
515.45	507.73
515.81	516.40
516.17	525.46
516.53	534.38
516.89	543.19
517.25	552.36
517.61	561.59
517.97	570.92
518.33	580.50
518.69	590.34
519.05	600.39
519.41	610.58
519.77	620.87
520.13	631.13
520.49	641.84
520.85	652.27
521.21	663.05
521.57	674.19
521.93	685.06
522.29	696.40
522.65	707.26
523.01	718.41
523.37	729.76
523.73	740.84
524.09	752.18
524.45	764.05
524.81	776.18
525.17	788.61
525.53	801.10
525.89	813.51
526.25	825.91
526.61	838.23
526.97	850.54
527.33	863.11
527.68	876.32
528.04	889.03
528.40	902.02
528.76	915.40
529.12	928.58
529.48	941.83
529.84	954.73
530.20	968.48
530.56	982.62
530.91	996.56
531.27	1010.47
531.63	1024.20
531.99	1038.12
532.35	1051.50
532.71	1064.72
533.07	1078.24
533.42	1091.98
533.78	1105.55
534.14	1119.28
534.50	1132.79
534.86	1146.39
535.21	1158.95
535.57	1172.59
535.93	1185.96
536.29	1199.27
536.65	1212.54
537.00	1225.76
537.36	1239.39
537.72	1252.41
538.08	1265.08
538.44	1277.90
538.79	1291.02
539.15	1303.70
539.51	1316.54
539.87	1329.61
540.22	1342.60
540.58	1355.63
540.94	1368.07
541.29	1380.61
541.65	1393.03
542.01	1405.88
542.37	1418.04
542.72	1430.48
543.08	1442.60
543.44	1454.62
543.79	1465.79
544.15	1477.46
544.51	1489.41
544.87	1500.69
545.22	1512.04
545.58	1522.95
545.94	1533.48
546.29	1544.48
546.65	1555.83
547.01	1566.25
547.36	1576.39
547.72	1586.29
548.07	1595.91
548.43	1605.61
548.79	1615.28
549.14	1624.64
549.50	1633.47
549.86	1642.63
550.21	1651.49
550.57	1660.50
550.92	1669.23
551.28	1677.64
551.64	1685.82
551.99	1694.15
552.35	1702.17
552.70	1710.63
553.06	1719.17
553.41	1727.96
553.77	1735.49
554.13	1743.12
554.48	1750.62
554.84	1758.35
555.19	1765.75
555.55	1773.71
555.90	1781.08
556.26	1788.20
556.61	1795.28
556.97	1801.95
557.32	1808.88
557.68	1815.71
558.03	1822.10
558.39	1828.66
558.74	1835.98
559.10	1842.54
559.45	1848.76
559.81	1855.83
560.16	1861.43
560.52	1867.01
560.87	1872.58
561.23	1877.68
561.58	1883.27
561.94	1888.43
562.29	1892.84
562.64	1897.79
563.00	1901.88
563.35	1906.73
563.71	1911.64
564.06	1916.36
564.42	1921.22
564.77	1925.43
565.12	1930.20
565.48	1934.43
565.83	1938.12
566.19	1941.71
566.54	1944.91
566.89	1948.10
567.25	1950.74
567.60	1954.28
567.96	1957.22
568.31	1959.74
568.66	1962.82
569.02	1964.99
569.37	1967.39
569.72	1969.90
570.08	1972.10
570.43	1974.15
570.78	1975.99
571.14	1977.23
571.49	1978.82
571.84	1980.67
572.20	1981.40
572.55	1981.60
572.90	1982.07
573.26	1982.84
573.61	1983.36
573.96	1983.82
574.31	1983.20
574.67	1982.52
575.02	1981.33
575.37	1980.69
575.72	1979.62
576.08	1978.95
576.43	1977.95
576.78	1977.02
577.13	1976.11
577.49	1974.97
577.84	1973.60
578.19	1971.84
578.54	1970.00
578.90	1967.86
579.25	1964.89
579.60	1962.87
579.95	1960.58
580.30	1957.93
580.66	1955.03
581.01	1952.13
581.36	1949.29
581.71	1947.50
582.06	1944.95
582.42	1942.28
582.77	1939.09
583.12	1935.99
583.47	1933.41
583.82	1930.88
584.17	1927.09
584.53	1923.93
584.88	1920.57
585.23	1917.25
585.58	1914.18
585.93	1910.81
586.28	1907.63
586.63	1904.38
586.98	1901.16
587.34	1898.12
587.69	1894.86
588.04	1891.94
588.39	1888.32
588.74	1884.32
589.09	1879.40
589.44	1874.93
589.79	1871.20
590.14	1867.81
590.49	1864.20
590.84	1859.30
591.19	1854.50
591.54	1849.64
591.89	1843.73
592.25	1838.83
592.60	1833.13
592.95	1827.16
593.30	1821.75
593.65	1816.59
594.00	1811.35
594.35	1806.37
594.70	1800.52
595.05	1795.14
595.40	1789.29
595.75	1783.07
596.10	1778.01
596.45	1773.64
596.80	1769.36
597.15	1764.00
597.50	1758.15
597.85	1752.96
598.19	1748.23
598.54	1743.32
598.89	1739.00
599.24	1735.54
599.59	1730.64
599.94	1726.02
600.29	1721.22
600.64	1716.51
600.99	1710.41
601.34	1705.36
601.69	1699.55
602.04	1694.28
602.39	1689.16
602.74	1684.18
603.08	1679.95
603.43	1674.80
603.78	1669.09
604.13	1663.61
604.48	1658.17
604.83	1652.75
605.18	1647.34
605.53	1640.91
605.87	1634.02
606.22	1628.11
606.57	1621.39
606.92	1615.07
607.27	1609.61
607.62	1604.15
607.96	1597.80
608.31	1592.46
608.66	1585.68
609.01	1579.35
609.36	1572.44
609.70	1565.01
610.05	1557.70
610.40	1550.68
610.75	1543.84
611.10	1536.78
611.44	1528.85
611.79	1522.36
612.14	1515.16
612.49	1507.16
612.83	1500.01
613.18	1493.30
613.53	1486.27
613.88	1479.29
614.22	1472.44
614.57	1464.77
614.92	1457.42
615.27	1450.66
615.61	1443.27
615.96	1436.84
616.31	1430.46
616.65	1424.72
617.00	1418.44
617.35	1411.91
617.70	1404.75
618.04	1397.59
618.39	1390.84
618.74	1384.50
619.08	1377.22
619.43	1371.01
619.78	1364.87
620.12	1358.44
620.47	1352.01
620.82	1345.22
621.16	1338.48
621.51	1332.02
621.85	1325.55
622.20	1318.56
622.55	1311.86
622.89	1305.26
623.24	1298.60
623.59	1291.95
623.93	1285.13
624.28	1278.51
624.62	1271.92
624.97	1265.73
625.32	1259.51
625.66	1253.43
626.01	1246.94
626.35	1240.15
626.70	1233.55
627.04	1227.45
627.39	1220.54
627.73	1213.68
628.08	1207.04
628.43	1200.47
628.77	1193.64
629.12	1186.82
629.46	1180.31
629.81	1173.10
630.15	1166.33
630.50	1159.59
630.84	1152.44
631.19	1145.40
631.53	1138.76
631.88	1131.81
632.22	1124.67
632.57	1118.24
632.91	1111.26
633.26	1104.10
633.60	1097.52
633.95	1090.68
634.29	1083.77
634.64	1077.73
634.98	1071.44
635.32	1065.23
635.67	1059.39
636.01	1053.31
636.36	1047.04
636.70	1041.22
637.05	1035.68
637.39	1030.03
637.73	1023.90
638.08	1018.51
638.42	1012.83
638.77	1007.21
639.11	1001.49
639.45	995.82
639.80	989.79
640.14	984.06
640.49	978.74
640.83	973.01
641.17	967.35
641.52	961.49
641.86	955.65
642.20	950.10
642.55	944.31
642.89	938.57
643.23	932.88
643.58	927.69
643.92	921.91
644.26	916.13
644.61	910.46
644.95	905.19
645.29	898.86
645.64	892.93
645.98	887.04
646.32	881.76
646.66	876.49
647.01	870.58
647.35	865.24
647.69	859.90
648.04	854.73
648.38	849.16
648.72	843.42
649.06	837.67
649.41	832.11
649.75	826.29
650.09	820.53
650.43	814.84
650.78	809.11
651.12	803.50
651.46	798.52
651.80	793.42
652.14	788.14
652.49	783.18
652.83	778.38
653.17	773.01
653.51	767.67
653.85	762.39
654.20	757.52
654.54	751.87
654.88	746.50
655.22	741.19
655.56	736.06
655.90	731.21
656.25	726.58
656.59	721.48
656.93	717.17
657.27	712.40
657.61	707.35
657.95	702.80
658.29	698.29
658.64	693.26
658.98	688.01
659.32	682.98
659.66	678.41
660.00	673.34
660.34	668.62
660.68	663.72
661.02	659.00
661.36	654.30
661.70	650.11
662.05	645.91
662.39	641.85
662.73	637.72
663.07	633.64
663.41	629.61
663.75	625.62
664.09	621.35
664.43	617.37
664.77	613.65
665.11	609.76
665.45	605.87
665.79	601.97
666.13	598.21
666.47	594.47
666.81	590.35
667.15	586.52
667.49	583.01
667.83	579.60
668.17	575.97
668.51	572.43
668.85	568.77
669.19	565.19
669.53	561.50
669.87	557.63
670.21	554.15
670.55	550.66
670.89	547.63
671.23	544.47
671.57	541.31
671.91	538.13
672.25	534.90
672.58	531.59
672.92	528.54
673.26	525.60
673.60	522.49
673.94	519.65
674.28	517.09
674.62	514.30
674.96	511.40
675.30	508.58
675.64	505.85
675.97	503.14
676.31	500.43
676.65	497.70
676.99	495.16
677.33	492.30
677.67	489.42
678.01	486.54
678.34	483.54
678.68	480.74
679.02	478.08
679.36	475.44
679.70	472.91
680.04	470.38
680.37	467.76
680.71	465.31
681.05	462.95
681.39	460.32
681.73	457.75
682.06	455.53
682.40	453.36
682.74	451.02
683.08	448.74
683.42	446.29
683.75	443.87
684.09	441.55
684.43	439.32
684.77	436.91
685.10	434.63
685.44	432.50
685.78	430.17
686.12	427.92
686.45	425.68
686.79	423.43
687.13	421.21
687.46	419.09
687.80	416.89
688.14	414.63
688.48	412.50
688.81	410.38
689.15	408.23
689.49	406.15
689.82	404.07
690.16	401.99
690.50	400.12
690.83	398.17
691.17	396.16
691.51	394.25
691.84	392.60
692.18	390.66
692.52	388.69
692.85	386.90
693.19	385.14
693.52	383.34
693.86	381.48
694.20	379.70
694.53	377.91
694.87	376.37
695.21	374.70
695.54	373.02
695.88	371.16
696.21	369.52
696.55	367.78
696.88	366.17
697.22	364.46
697.56	362.89
697.89	361.29
698.23	359.85
698.56	358.29
698.90	356.54
699.23	355.00
699.57	353.48
699.90	351.94
700.24	350.45
700.58	348.90
700.91	347.47
701.25	346.04
701.58	344.60
701.92	343.13
702.25	341.59
702.59	340.27
702.92	339.06
703.26	337.65
703.59	336.41
703.93	335.30
704.26	334.10
704.60	332.85
704.93	331.56
705.26	330.23
705.60	329.06
705.93	328.04
706.27	326.97
706.60	326.03
706.94	324.86
707.27	323.59
707.61	322.48
707.94	321.57
708.27	320.46
708.61	319.40
708.94	318.18
709.28	317.20
709.61	316.19
709.94	315.30
710.28	314.37
710.61	313.30
710.95	312.04
711.28	311.11
711.61	310.10
711.95	309.40
712.28	308.49
712.61	307.49
712.95	306.66
713.28	305.80
713.61	304.72
713.95	303.87
714.28	303.03
714.61	302.10
714.95	301.10
715.28	300.19
715.61	299.19
715.95	298.51
716.28	297.82
716.61	296.97
716.95	296.14
717.28	295.36
717.61	294.60
717.94	293.98
718.28	293.16
718.61	292.33
718.94	291.48
719.27	290.78
719.61	290.10
719.94	289.24
720.27	288.48
720.60	287.83
720.94	287.27
721.27	286.71
721.60	286.17
721.93	285.53
722.27	285.00
722.60	284.60
722.93	283.87
723.26	283.23
723.59	282.57
723.93	282.00
724.26	281.35
724.59	280.75
724.92	280.05
725.25	279.60
725.59	279.00
725.92	278.40
726.25	277.78
726.58	277.36
726.91	276.89
727.24	276.44
727.57	275.92
727.91	275.28
728.24	274.70
728.57	274.21
728.90	273.78
729.23	273.21
729.56	272.70
729.89	272.31
730.22	271.74
730.55	271.36
730.89	270.86
731.22	270.31
731.55	269.84
731.88	269.48
732.21	268.87
732.54	268.44
732.87	268.05
733.20	267.76
733.53	267.22
733.86	266.78
734.19	266.25
734.52	265.86
734.85	265.59
735.18	265.25
735.51	264.90
735.84	264.42
736.17	264.07
736.50	263.65
736.83	263.48
737.16	263.19
737.49	262.80
737.82	262.31
738.15	262.00
738.48	261.59
738.81	261.10
739.14	260.78
739.47	260.48
739.80	260.07
740.13	259.62
740.46	259.19
740.79	258.89
741.12	258.52
741.45	258.17
741.78	257.73
742.11	257.33
742.44	256.97
742.77	256.65
743.10	256.17
743.43	255.84
743.75	255.27
744.08	255.20
744.41	254.85
744.74	254.67
745.07	254.34
745.40	254.19
745.73	254.01
746.06	253.69
746.39	253.40
746.71	253.20
747.04	252.89
747.37	252.74
747.70	252.51
748.03	252.30
748.36	252.10
748.68	251.76
749.01	251.51
749.34	251.22
749.67	251.05
750.00	250.91
750.33	250.70
750.65	250.51
750.98	250.10
751.31	249.93
751.64	249.63
751.97	249.47
752.29	249.16
752.62	248.93
752.95	248.71
753.28	248.40
753.60	248.15
753.93	247.97
754.26	247.77
754.59	247.44
754.91	247.19
755.24	246.93
755.57	246.76
755.90	246.52
756.22	246.30
756.55	246.08
756.88	245.80
757.20	245.62
757.53	245.39
757.86	245.05
758.19	244.87
758.51	244.76
758.84	244.60
759.17	244.39
759.49	244.23
759.82	244.09
760.15	244.11
760.47	243.99
760.80	243.86
761.13	243.69
761.45	243.53
761.78	243.33
762.11	243.24
762.43	243.12
762.76	242.80
763.08	242.71
763.41	242.45
763.74	242.43
764.06	242.27
764.39	242.07
764.71	242.07
765.04	241.85
765.37	241.66
765.69	241.52
766.02	241.46
766.34	241.26
766.67	241.18
767.00	240.98
767.32	240.91
767.65	240.81
767.97	240.71
768.30	240.52
768.62	240.54
768.95	240.40
769.27	240.25
769.60	240.22
769.92	240.02
770.25	239.96
770.57	239.75
770.90	239.59
771.22	239.43
771.55	239.30
771.87	239.22
772.20	239.11
772.52	239.15
772.85	239.19
773.17	239.06
773.50	238.90
773.82	238.80
774.15	238.52
774.47	238.28
774.80	238.00
775.12	237.97
775.45	237.74
775.77	237.61
776.09	237.53
776.42	237.52
776.74	237.44
777.07	237.26
777.39	237.11
777.72	237.03
778.04	237.01
778.36	236.82
778.69	236.77
779.01	236.68
779.33	236.36
779.66	236.04
779.98	235.98
780.31	235.86
780.63	235.82
780.95	235.80
781.28	235.78
781.60	235.83
781.92	235.69
782.25	235.64
782.57	235.56
782.89	235.45
783.22	235.35
783.54	235.27
783.86	235.19
784.19	235.07
784.51	235.02
784.83	234.92
785.16	234.82
785.48	234.69
785.80	234.64
786.12	234.68
786.45	234.64
786.77	234.49
787.09	234.45
787.42	234.29
787.74	234.20
