SpectraSuite Data File
++++++++++++++++++++++++++++++++++++
Date: Fri Feb 01 14:39:30 EST 2013
User: group
Dark Spectrum Present: No
Reference Spectrum Present: No
Number of Sampled Component Spectra: 1
Spectrometers: USB2E7196
Integration Time (usec): 70000 (USB2E7196)
Spectra Averaged: 10 (USB2E7196)
Boxcar Smoothing: 10 (USB2E7196)
Correct for Electrical Dark: No (USB2E7196)
Strobe/Lamp Enabled: No (USB2E7196)
Correct for Detector Non-linearity: No (USB2E7196)
Correct for Stray Light: No (USB2E7196)
Number of Pixels in Processed Spectrum: 2048
>>>>>Begin Processed Spectral Data<<<<<
339.09	0.00
339.48	214.60
339.86	218.30
340.24	219.40
340.63	221.60
341.01	225.70
341.39	224.00
341.78	224.80
342.16	226.90
342.54	227.90
342.93	215.08
343.31	225.87
343.69	226.51
344.07	226.92
344.46	227.42
344.84	227.65
345.22	227.73
345.60	227.97
345.99	228.21
346.37	228.30
346.75	228.29
347.13	228.24
347.52	228.28
347.90	228.45
348.28	228.49
348.66	228.45
349.05	228.40
349.43	228.43
349.81	228.43
350.19	228.38
350.57	228.39
350.96	228.52
351.34	228.54
351.72	228.58
352.10	228.72
352.48	228.68
352.87	228.89
353.25	228.95
353.63	228.99
354.01	228.87
354.39	228.92
354.77	228.97
355.15	229.10
355.54	229.20
355.92	229.09
356.30	229.06
356.68	229.25
357.06	229.40
357.44	229.40
357.82	229.51
358.20	229.44
358.58	229.51
358.97	229.52
359.35	229.67
359.73	229.70
360.11	229.69
360.49	229.64
360.87	229.54
361.25	229.63
361.63	229.66
362.01	229.73
362.39	229.66
362.77	229.80
363.15	229.90
363.53	229.89
363.91	229.85
364.29	229.87
364.67	229.68
365.05	229.64
365.43	229.59
365.81	229.48
366.19	229.53
366.57	229.57
366.95	229.59
367.33	229.46
367.71	229.51
368.09	229.50
368.47	229.60
368.85	229.61
369.23	229.59
369.61	229.51
369.99	229.53
370.37	229.56
370.75	229.58
371.13	229.46
371.51	229.37
371.89	229.34
372.27	229.31
372.65	229.21
373.03	229.19
373.41	229.17
373.78	229.15
374.16	229.03
374.54	228.86
374.92	228.79
375.30	228.81
375.68	228.63
376.06	228.63
376.44	228.44
376.82	228.34
377.19	228.22
377.57	228.08
377.95	227.92
378.33	227.80
378.71	227.60
379.09	227.54
379.47	227.63
379.84	227.62
380.22	227.49
380.60	227.52
380.98	227.36
381.36	227.20
381.73	227.17
382.11	227.19
382.49	227.13
382.87	226.98
383.25	226.93
383.62	227.13
384.00	226.99
384.38	226.96
384.76	227.07
385.13	227.10
385.51	227.10
385.89	227.12
386.27	227.13
386.64	227.16
387.02	227.02
387.40	226.95
387.78	226.92
388.15	227.00
388.53	226.93
388.91	226.92
389.29	226.91
389.66	226.99
390.04	226.89
390.42	226.96
390.79	226.94
391.17	226.82
391.55	226.66
391.92	226.74
392.30	226.82
392.68	226.80
393.05	226.90
393.43	227.01
393.81	227.12
394.18	227.06
394.56	227.03
394.94	227.19
395.31	227.19
395.69	227.30
396.06	227.31
396.44	227.39
396.82	227.44
397.19	227.69
397.57	227.67
397.95	227.76
398.32	227.83
398.70	228.01
399.07	228.21
399.45	228.20
399.82	228.24
400.20	228.31
400.58	228.36
400.95	228.36
401.33	228.47
401.70	228.61
402.08	228.80
402.45	228.95
402.83	229.17
403.20	229.26
403.58	229.30
403.95	229.43
404.33	229.53
404.71	229.74
405.08	230.00
405.46	230.17
405.83	230.40
406.21	230.56
406.58	230.73
406.96	230.78
407.33	231.04
407.70	231.28
408.08	231.62
408.45	231.88
408.83	232.12
409.20	232.25
409.58	232.40
409.95	232.74
410.33	232.95
410.70	233.03
411.08	233.40
411.45	233.70
411.82	234.14
412.20	234.51
412.57	234.92
412.95	235.00
413.32	235.40
413.69	235.74
414.07	236.13
414.44	236.58
414.82	237.17
415.19	237.71
415.56	238.24
415.94	238.57
416.31	239.09
416.68	239.64
417.06	240.38
417.43	240.93
417.81	241.56
418.18	242.28
418.55	243.14
418.93	243.90
419.30	244.87
419.67	245.75
420.04	246.60
420.42	247.50
420.79	248.91
421.16	250.06
421.54	251.35
421.91	252.63
422.28	253.85
422.66	255.12
423.03	256.49
423.40	257.79
423.77	259.36
424.15	260.79
424.52	262.40
424.89	264.07
425.26	265.88
425.64	267.38
426.01	269.09
426.38	270.88
426.75	272.70
427.13	274.57
427.50	276.45
427.87	278.53
428.24	280.56
428.61	282.27
428.99	284.41
429.36	286.60
429.73	288.87
430.10	291.17
430.47	293.44
430.85	295.63
431.22	298.06
431.59	300.58
431.96	303.10
432.33	305.70
432.70	308.31
433.08	311.31
433.45	314.30
433.82	317.18
434.19	320.38
434.56	323.46
434.93	326.33
435.30	329.25
435.68	332.52
436.05	335.78
436.42	338.86
436.79	341.58
437.16	344.67
437.53	347.65
437.90	350.71
438.27	353.84
438.64	357.13
439.01	360.06
439.38	362.60
439.75	365.10
440.13	367.96
440.50	370.75
440.87	373.05
441.24	375.24
441.61	377.89
441.98	379.77
442.35	381.93
442.72	384.13
443.09	386.34
443.46	387.43
443.83	388.29
444.20	389.16
444.57	390.40
444.94	391.03
445.31	391.63
445.68	392.33
446.05	392.65
446.42	392.39
446.79	392.30
447.16	392.04
447.53	391.93
447.90	390.91
448.27	389.76
448.64	388.14
449.01	387.20
449.37	385.14
449.74	383.15
450.11	381.08
450.48	378.60
450.85	375.94
451.22	373.88
451.59	371.61
451.96	369.53
452.33	366.78
452.70	364.24
453.07	361.38
453.43	358.29
453.80	355.40
454.17	352.56
454.54	349.71
454.91	346.79
455.28	343.92
455.65	341.31
456.02	338.72
456.38	336.20
456.75	333.22
457.12	330.68
457.49	328.26
457.86	325.69
458.23	323.57
458.59	321.20
458.96	318.77
459.33	316.73
459.70	314.52
460.07	312.76
460.43	310.69
460.80	308.68
461.17	306.95
461.54	305.20
461.91	303.56
462.27	301.88
462.64	300.38
463.01	298.66
463.38	297.13
463.74	295.47
464.11	294.14
464.48	292.97
464.85	291.62
465.21	290.56
465.58	289.44
465.95	288.12
466.32	287.00
466.68	285.84
467.05	284.67
467.42	283.72
467.78	282.59
468.15	281.56
468.52	280.82
468.88	279.68
469.25	278.50
469.62	277.65
469.98	276.80
470.35	276.10
470.72	275.43
471.08	274.62
471.45	273.80
471.82	273.06
472.18	272.17
472.55	271.70
472.92	270.97
473.28	270.29
473.65	269.60
474.02	269.18
474.38	268.62
474.75	268.15
475.11	267.59
475.48	267.27
475.85	266.79
476.21	266.35
476.58	266.00
476.94	265.86
477.31	265.51
477.67	265.10
478.04	264.72
478.41	264.40
478.77	264.18
479.14	263.98
479.50	263.82
479.87	263.67
480.23	263.40
480.60	263.15
480.96	262.94
481.33	262.87
481.69	262.52
482.06	262.52
482.42	262.43
482.79	262.20
483.15	261.87
483.52	261.76
483.88	261.74
484.25	261.75
484.61	261.47
484.98	261.42
485.34	261.49
485.71	261.55
486.07	261.56
486.44	261.37
486.80	261.36
487.17	261.36
487.53	261.39
487.90	261.49
488.26	261.63
488.62	261.73
488.99	261.80
489.35	261.98
489.72	262.04
490.08	262.20
490.44	262.47
490.81	262.70
491.17	262.98
491.54	263.05
491.90	263.24
492.26	263.67
492.63	263.93
492.99	264.16
493.36	264.45
493.72	264.73
494.08	265.11
494.45	265.49
494.81	265.83
495.17	266.30
495.54	266.64
495.90	267.06
496.26	267.50
496.63	267.99
496.99	268.36
497.35	268.86
497.72	269.26
498.08	269.69
498.44	270.31
498.80	270.89
499.17	271.57
499.53	272.19
499.89	272.70
500.26	273.28
500.62	273.88
500.98	274.64
501.34	275.38
501.71	276.10
502.07	276.83
502.43	277.76
502.79	278.54
503.16	279.42
503.52	280.25
503.88	281.07
504.24	282.02
504.60	283.17
504.97	284.38
505.33	285.62
505.69	287.02
506.05	288.24
506.41	289.50
506.78	290.72
507.14	292.05
507.50	293.57
507.86	295.16
508.22	296.96
508.59	298.44
508.95	300.24
509.31	302.15
509.67	304.16
510.03	305.99
510.39	308.00
510.75	310.07
511.12	312.30
511.48	314.69
511.84	316.99
512.20	319.37
512.56	321.87
512.92	324.40
513.28	326.88
513.64	329.58
514.00	332.33
514.37	335.35
514.73	338.38
515.09	341.44
515.45	344.60
515.81	347.72
516.17	351.18
516.53	354.63
516.89	358.22
517.25	361.80
517.61	365.60
517.97	369.39
518.33	373.39
518.69	377.28
519.05	381.46
519.41	385.61
519.77	390.11
520.13	394.58
520.49	399.07
520.85	403.80
521.21	408.63
521.57	413.69
521.93	418.60
522.29	423.70
522.65	428.67
523.01	433.88
523.37	438.89
523.73	444.29
524.09	449.62
524.45	454.90
524.81	460.77
525.17	466.53
525.53	472.59
525.89	478.48
526.25	484.76
526.61	490.92
526.97	497.29
527.33	503.84
527.68	510.58
528.04	517.19
528.40	523.80
528.76	530.58
529.12	537.33
529.48	544.19
529.84	551.04
530.20	558.33
530.56	565.69
530.91	573.45
531.27	580.99
531.63	588.53
531.99	596.32
532.35	603.57
532.71	611.11
533.07	618.52
533.42	626.46
533.78	634.26
534.14	642.01
534.50	649.69
534.86	657.26
535.21	664.65
535.57	672.77
535.93	680.86
536.29	688.74
536.65	696.92
537.00	705.00
537.36	713.08
537.72	721.19
538.08	729.03
538.44	736.94
538.79	744.99
539.15	752.85
539.51	760.96
539.87	769.25
540.22	777.45
540.58	786.00
540.94	793.99
541.29	802.02
541.65	809.91
542.01	818.41
542.37	826.59
542.72	834.52
543.08	842.43
543.44	850.40
543.79	858.28
544.15	866.33
544.51	874.77
544.87	882.80
545.22	890.72
545.58	898.54
545.94	906.14
546.29	913.56
546.65	921.28
547.01	928.71
547.36	936.28
547.72	943.80
548.07	950.92
548.43	958.13
548.79	965.43
549.14	972.58
549.50	979.18
549.86	985.95
550.21	993.29
550.57	1000.36
550.92	1007.24
551.28	1013.91
551.64	1020.60
551.99	1027.08
552.35	1033.72
552.70	1040.34
553.06	1047.08
553.41	1054.05
553.77	1060.81
554.13	1067.69
554.48	1074.22
554.84	1080.54
555.19	1086.75
555.55	1093.18
555.90	1099.48
556.26	1105.39
556.61	1111.66
556.97	1117.57
557.32	1123.65
557.68	1129.65
558.03	1135.19
558.39	1140.68
558.74	1146.73
559.10	1152.25
559.45	1157.66
559.81	1163.56
560.16	1168.94
560.52	1174.04
560.87	1179.15
561.23	1183.99
561.58	1189.14
561.94	1194.05
562.29	1198.68
562.64	1203.29
563.00	1207.95
563.35	1212.79
563.71	1218.07
564.06	1223.18
564.42	1228.03
564.77	1232.67
565.12	1237.10
565.48	1241.95
565.83	1246.11
566.19	1250.28
566.54	1254.35
566.89	1258.13
567.25	1261.91
567.60	1265.81
567.96	1269.98
568.31	1273.38
568.66	1276.90
569.02	1280.31
569.37	1283.74
569.72	1287.37
570.08	1290.57
570.43	1293.49
570.78	1296.40
571.14	1298.61
571.49	1301.01
571.84	1304.17
572.20	1306.30
572.55	1308.48
572.90	1310.27
573.26	1312.85
573.61	1314.70
573.96	1316.23
574.31	1317.66
574.67	1318.48
575.02	1319.45
575.37	1320.38
575.72	1321.23
576.08	1322.40
576.43	1323.02
576.78	1323.67
577.13	1324.23
577.49	1324.94
577.84	1325.40
578.19	1325.79
578.54	1326.18
578.90	1325.80
579.25	1325.09
579.60	1325.21
579.95	1324.43
580.30	1324.19
580.66	1323.26
581.01	1322.79
581.36	1322.51
581.71	1322.48
582.06	1322.12
582.42	1321.63
582.77	1320.79
583.12	1320.21
583.47	1319.36
583.82	1318.40
584.17	1317.43
584.53	1316.64
584.88	1315.63
585.23	1314.33
585.58	1313.27
585.93	1312.22
586.28	1311.59
586.63	1310.96
586.98	1309.60
587.34	1309.20
587.69	1307.60
588.04	1306.47
588.39	1305.15
588.74	1303.19
589.09	1301.35
589.44	1299.44
589.79	1297.57
590.14	1296.35
590.49	1294.31
590.84	1292.81
591.19	1291.19
591.54	1288.83
591.89	1285.85
592.25	1283.42
592.60	1280.84
592.95	1277.98
593.30	1275.48
593.65	1272.82
594.00	1269.81
594.35	1267.95
594.70	1264.63
595.05	1262.52
595.40	1259.58
595.75	1256.31
596.10	1253.88
596.45	1251.51
596.80	1249.60
597.15	1247.34
597.50	1244.23
597.85	1242.01
598.19	1239.21
598.54	1236.56
598.89	1234.14
599.24	1232.50
599.59	1229.94
599.94	1227.88
600.29	1225.14
600.64	1222.16
600.99	1218.70
601.34	1216.04
601.69	1212.45
602.04	1209.60
602.39	1206.19
602.74	1203.56
603.08	1201.35
603.43	1198.70
603.78	1195.24
604.13	1191.54
604.48	1188.34
604.83	1185.21
605.18	1182.25
605.53	1178.30
605.87	1174.24
606.22	1170.75
606.57	1166.65
606.92	1163.34
607.27	1159.95
607.62	1156.93
607.96	1153.72
608.31	1151.02
608.66	1147.47
609.01	1143.50
609.36	1139.50
609.70	1135.37
610.05	1131.24
610.40	1127.17
610.75	1123.11
611.10	1119.02
611.44	1114.57
611.79	1110.39
612.14	1106.48
612.49	1101.49
612.83	1097.49
613.18	1093.38
613.53	1089.27
613.88	1085.05
614.22	1080.70
614.57	1075.93
614.92	1071.52
615.27	1066.93
615.61	1062.35
615.96	1057.96
616.31	1054.26
616.65	1050.94
617.00	1047.30
617.35	1043.25
617.70	1038.60
618.04	1033.96
618.39	1030.06
618.74	1026.21
619.08	1021.73
619.43	1017.19
619.78	1013.33
620.12	1009.23
620.47	1005.23
620.82	1000.83
621.16	996.40
621.51	992.20
621.85	988.12
622.20	983.09
622.55	978.81
622.89	974.47
623.24	970.35
623.59	965.93
623.93	961.48
624.28	957.17
624.62	952.95
624.97	949.03
625.32	945.06
625.66	940.85
626.01	936.81
626.35	932.76
626.70	928.60
627.04	924.46
627.39	919.98
627.73	915.44
628.08	911.49
628.43	907.60
628.77	903.55
629.12	899.04
629.46	894.96
629.81	890.58
630.15	885.92
630.50	881.20
630.84	876.37
631.19	871.47
631.53	866.94
631.88	862.37
632.22	857.93
632.57	853.64
632.91	849.04
633.26	844.48
633.60	839.91
633.95	835.60
634.29	831.24
634.64	827.36
634.98	823.31
635.32	819.16
635.67	815.11
636.01	810.92
636.36	807.14
636.70	803.40
637.05	799.61
637.39	796.14
637.73	792.18
638.08	788.81
638.42	785.21
638.77	781.42
639.11	777.60
639.45	773.73
639.80	769.93
640.14	766.08
640.49	762.31
640.83	758.61
641.17	754.87
641.52	751.07
641.86	747.16
642.20	743.33
642.55	739.38
642.89	735.54
643.23	731.48
643.58	727.68
643.92	723.80
644.26	719.91
644.61	716.23
644.95	712.56
645.29	708.39
645.64	704.53
645.98	700.63
646.32	697.02
646.66	692.92
647.01	688.92
647.35	685.41
647.69	681.80
648.04	678.16
648.38	674.25
648.72	670.37
649.06	666.50
649.41	662.71
649.75	658.66
650.09	654.86
650.43	651.13
650.78	647.12
651.12	643.55
651.46	639.96
651.80	636.22
652.14	632.71
652.49	629.30
652.83	625.99
653.17	622.42
653.51	618.78
653.85	615.48
654.20	611.89
654.54	608.12
654.88	604.45
655.22	600.72
655.56	597.05
655.90	593.58
656.25	590.17
656.59	586.99
656.93	583.89
657.27	580.72
657.61	577.15
657.95	574.22
658.29	571.03
658.64	567.58
658.98	563.90
659.32	560.44
659.66	557.14
660.00	553.44
660.34	550.12
660.68	546.95
661.02	543.68
661.36	540.66
661.70	537.78
662.05	535.00
662.39	532.10
662.73	529.32
663.07	526.52
663.41	523.83
663.75	521.04
664.09	518.14
664.43	515.05
664.77	512.60
665.11	509.84
665.45	507.06
665.79	504.37
666.13	501.92
666.47	499.49
666.81	496.81
667.15	494.23
667.49	491.83
667.83	489.42
668.17	486.78
668.51	484.23
668.85	481.67
669.19	479.18
669.53	476.61
669.87	474.09
670.21	471.76
670.55	469.20
670.89	466.83
671.23	464.61
671.57	462.26
671.91	460.00
672.25	457.59
672.58	455.39
672.92	453.26
673.26	451.16
673.60	448.89
673.94	446.79
674.28	444.92
674.62	442.86
674.96	440.64
675.30	438.85
675.64	436.83
675.97	434.70
676.31	432.58
676.65	430.69
676.99	428.97
677.33	426.86
677.67	424.94
678.01	422.69
678.34	420.64
678.68	418.87
679.02	416.84
679.36	414.93
679.70	413.15
680.04	411.28
680.37	409.40
680.71	407.57
681.05	405.80
681.39	404.02
681.73	402.20
682.06	400.49
682.40	398.61
682.74	396.80
683.08	395.20
683.42	393.58
683.75	391.92
684.09	390.17
684.43	388.46
684.77	386.85
685.10	385.32
685.44	383.74
685.78	382.18
686.12	380.53
686.45	379.00
686.79	377.18
687.13	375.55
687.46	373.90
687.80	372.40
688.14	370.79
688.48	369.27
688.81	367.69
689.15	366.25
689.49	364.87
689.82	363.51
690.16	362.00
690.50	360.49
690.83	359.14
691.17	357.72
691.51	356.39
691.84	354.93
692.18	353.62
692.52	352.25
692.85	350.81
693.19	349.62
693.52	348.27
693.86	346.86
694.20	345.59
694.53	344.40
694.87	343.02
695.21	341.73
695.54	340.40
695.88	339.14
696.21	337.77
696.55	336.52
696.88	335.35
697.22	334.14
697.56	332.97
697.89	331.62
698.23	330.39
698.56	329.23
698.90	328.20
699.23	326.98
699.57	325.77
699.90	324.58
700.24	323.45
700.58	322.32
700.91	321.36
701.25	320.53
701.58	319.52
701.92	318.40
702.25	317.48
702.59	316.50
702.92	315.58
703.26	314.61
703.59	313.71
703.93	312.81
704.26	311.86
704.60	310.82
704.93	309.96
705.26	309.17
705.60	308.40
705.93	307.52
706.27	306.72
706.60	305.97
706.94	305.22
707.27	304.27
707.61	303.54
707.94	302.76
708.27	301.69
708.61	300.80
708.94	300.12
709.28	299.30
709.61	298.56
709.94	297.78
710.28	297.00
710.61	296.18
710.95	295.22
711.28	294.57
711.61	293.95
711.95	293.36
712.28	292.52
712.61	291.70
712.95	290.97
713.28	290.26
713.61	289.51
713.95	288.80
714.28	288.15
714.61	287.43
714.95	286.75
715.28	286.09
715.61	285.39
715.95	284.79
716.28	284.21
716.61	283.56
716.95	282.95
717.28	282.24
717.61	281.69
717.94	281.21
718.28	280.56
718.61	279.85
718.94	279.22
719.27	278.54
719.61	278.00
719.94	277.48
720.27	276.80
720.60	276.29
720.94	275.71
721.27	275.20
721.60	274.71
721.93	274.21
722.27	273.77
722.60	273.34
722.93	272.72
723.26	272.26
723.59	271.66
723.93	271.15
724.26	270.84
724.59	270.38
724.92	269.89
725.25	269.55
725.59	269.15
725.92	268.75
726.25	268.41
726.58	267.98
726.91	267.35
727.24	267.04
727.57	266.57
727.91	266.18
728.24	265.72
728.57	265.28
728.90	264.86
729.23	264.38
729.56	264.06
729.89	263.74
730.22	263.22
730.55	262.91
730.89	262.63
731.22	262.22
731.55	261.84
731.88	261.45
732.21	260.91
732.54	260.50
732.87	260.05
733.20	259.72
733.53	259.47
733.86	259.27
734.19	258.90
734.52	258.71
734.85	258.55
735.18	258.25
735.51	257.91
735.84	257.65
736.17	257.42
736.50	256.93
736.83	256.83
737.16	256.59
737.49	256.24
737.82	255.90
738.15	255.62
738.48	255.33
738.81	255.07
739.14	254.85
739.47	254.67
739.80	254.44
740.13	254.11
740.46	253.71
740.79	253.48
741.12	253.27
741.45	252.94
741.78	252.45
742.11	252.20
742.44	251.91
742.77	251.67
743.10	251.35
743.43	251.04
743.75	250.56
744.08	250.58
744.41	250.34
744.74	250.01
745.07	249.77
745.40	249.66
745.73	249.51
746.06	249.15
746.39	248.82
746.71	248.68
747.04	248.44
747.37	248.22
747.70	247.90
748.03	247.70
748.36	247.45
748.68	247.25
749.01	247.05
749.34	246.78
749.67	246.56
750.00	246.39
750.33	246.47
750.65	246.31
750.98	245.91
751.31	245.86
751.64	245.75
751.97	245.66
752.29	245.23
752.62	244.98
752.95	244.81
753.28	244.65
753.60	244.35
753.93	244.24
754.26	243.97
754.59	243.84
754.91	243.57
755.24	243.40
755.57	243.37
755.90	243.16
756.22	243.04
756.55	242.87
756.88	242.72
757.20	242.35
757.53	242.17
757.86	242.05
758.19	241.70
758.51	241.54
758.84	241.38
759.17	241.32
759.49	241.16
759.82	241.15
760.15	241.06
760.47	240.84
760.80	240.63
761.13	240.61
761.45	240.42
761.78	240.25
762.11	240.12
762.43	239.84
762.76	239.80
763.08	239.74
763.41	239.50
763.74	239.26
764.06	239.25
764.39	239.06
764.71	238.87
765.04	238.84
765.37	238.68
765.69	238.49
766.02	238.32
766.34	238.26
766.67	238.07
767.00	237.93
767.32	238.10
767.65	238.14
767.97	238.00
768.30	238.01
768.62	238.05
768.95	237.98
769.27	237.93
769.60	237.85
769.92	237.69
770.25	237.56
770.57	237.47
770.90	237.32
771.22	237.28
771.55	237.20
771.87	237.15
772.20	237.06
772.52	237.07
772.85	237.21
773.17	237.05
773.50	236.88
773.82	236.76
774.15	236.50
774.47	236.30
774.80	236.20
775.12	235.99
775.45	235.89
775.77	235.68
776.09	235.49
776.42	235.40
776.74	235.46
777.07	235.43
777.39	235.38
777.72	235.23
778.04	235.23
778.36	235.15
778.69	235.00
779.01	235.00
779.33	234.82
779.66	234.46
779.98	234.34
780.31	234.38
780.63	234.46
780.95	234.32
781.28	234.22
781.60	234.15
781.92	234.06
782.25	233.95
782.57	233.98
782.89	234.00
783.22	233.82
783.54	233.57
783.86	233.51
784.19	233.43
784.51	233.50
784.83	233.30
785.16	233.21
785.48	233.17
785.80	233.11
786.12	233.02
786.45	233.04
786.77	233.06
787.09	232.98
787.42	232.85
787.74	232.92
788.06	232.83
788.38	232.80
788.71	232.77
789.03	232.71
789.35	232.68
789.67	232.60
789.99	232.62
