SpectraSuite Data File
++++++++++++++++++++++++++++++++++++
Date: Fri Feb 01 14:38:01 EST 2013
User: group
Dark Spectrum Present: No
Reference Spectrum Present: No
Number of Sampled Component Spectra: 1
Spectrometers: USB2E7196
Integration Time (usec): 70000 (USB2E7196)
Spectra Averaged: 10 (USB2E7196)
Boxcar Smoothing: 10 (USB2E7196)
Correct for Electrical Dark: No (USB2E7196)
Strobe/Lamp Enabled: No (USB2E7196)
Correct for Detector Non-linearity: No (USB2E7196)
Correct for Stray Light: No (USB2E7196)
Number of Pixels in Processed Spectrum: 2048
>>>>>Begin Processed Spectral Data<<<<<
339.09	0.00
339.48	216.40
339.86	219.00
340.24	219.90
340.63	220.10
341.01	224.80
341.39	222.30
341.78	225.20
342.16	225.10
342.54	225.90
342.93	214.60
343.31	225.44
343.69	225.99
344.07	226.31
344.46	226.70
344.84	227.07
345.22	227.22
345.60	227.49
345.99	227.61
346.37	227.84
346.75	227.90
347.13	227.91
347.52	227.96
347.90	228.15
348.28	228.15
348.66	228.05
349.05	228.21
349.43	228.16
349.81	228.19
350.19	228.17
350.57	228.13
350.96	228.17
351.34	228.23
351.72	228.25
352.10	228.40
352.48	228.50
352.87	228.51
353.25	228.57
353.63	228.55
354.01	228.56
354.39	228.61
354.77	228.68
355.15	228.85
355.54	228.82
355.92	228.79
356.30	228.93
356.68	229.18
357.06	229.07
357.44	229.15
357.82	229.25
358.20	229.37
358.58	229.43
358.97	229.47
359.35	229.59
359.73	229.68
360.11	229.75
360.49	229.73
360.87	229.85
361.25	229.88
361.63	230.12
362.01	230.28
362.39	230.24
362.77	230.34
363.15	230.42
363.53	230.51
363.91	230.63
364.29	230.61
364.67	230.37
365.05	230.44
365.43	230.53
365.81	230.65
366.19	230.71
366.57	230.87
366.95	230.88
367.33	230.70
367.71	230.86
368.09	230.92
368.47	230.90
368.85	230.84
369.23	230.78
369.61	230.48
369.99	230.49
370.37	230.50
370.75	230.56
371.13	230.34
371.51	230.28
371.89	230.10
372.27	229.99
372.65	230.02
373.03	230.00
373.41	229.87
373.78	229.57
374.16	229.36
374.54	229.14
374.92	229.06
375.30	229.10
375.68	228.77
376.06	228.59
376.44	228.55
376.82	228.40
377.19	228.38
377.57	228.41
377.95	228.24
378.33	228.06
378.71	227.86
379.09	227.78
379.47	227.68
379.84	227.57
380.22	227.56
380.60	227.43
380.98	227.25
381.36	227.15
381.73	227.11
382.11	227.08
382.49	227.00
382.87	226.89
383.25	226.75
383.62	226.90
384.00	226.80
384.38	226.70
384.76	226.71
385.13	226.73
385.51	226.58
385.89	226.42
386.27	226.45
386.64	226.41
387.02	226.45
387.40	226.40
387.78	226.32
388.15	226.30
388.53	226.23
388.91	226.16
389.29	226.12
389.66	226.06
390.04	226.03
390.42	226.04
390.79	226.08
391.17	226.04
391.55	225.84
391.92	225.88
392.30	225.88
392.68	225.79
393.05	225.80
393.43	225.87
393.81	225.96
394.18	225.89
394.56	225.76
394.94	225.66
395.31	225.77
395.69	225.90
396.06	225.98
396.44	226.02
396.82	226.10
397.19	226.29
397.57	226.41
397.95	226.47
398.32	226.53
398.70	226.58
399.07	226.76
399.45	226.80
399.82	226.84
400.20	226.95
400.58	227.07
400.95	227.03
401.33	227.17
401.70	227.43
402.08	227.58
402.45	227.82
402.83	228.09
403.20	228.23
403.58	228.40
403.95	228.56
404.33	228.72
404.71	228.97
405.08	229.23
405.46	229.41
405.83	229.66
406.21	229.90
406.58	230.10
406.96	230.32
407.33	230.62
407.70	230.92
408.08	231.35
408.45	231.73
408.83	232.15
409.20	232.43
409.58	232.48
409.95	232.87
410.33	233.29
410.70	233.63
411.08	234.00
411.45	234.36
411.82	234.79
412.20	235.32
412.57	235.90
412.95	236.17
413.32	236.66
413.69	237.25
414.07	237.73
414.44	238.40
414.82	239.01
415.19	239.73
415.56	240.56
415.94	241.25
416.31	242.08
416.68	242.94
417.06	243.98
417.43	245.03
417.81	246.14
418.18	247.10
418.55	248.37
418.93	249.55
419.30	250.80
419.67	252.04
420.04	253.37
420.42	254.78
420.79	256.64
421.16	258.33
421.54	259.94
421.91	261.67
422.28	263.48
422.66	265.47
423.03	267.35
423.40	269.27
423.77	271.25
424.15	273.22
424.52	275.32
424.89	277.70
425.26	279.93
425.64	281.87
426.01	284.22
426.38	286.51
426.75	289.00
427.13	291.67
427.50	294.33
427.87	297.12
428.24	299.94
428.61	302.55
428.99	305.59
429.36	308.79
429.73	312.08
430.10	315.07
430.47	318.20
430.85	321.56
431.22	325.07
431.59	328.73
431.96	332.41
432.33	336.28
432.70	340.04
433.08	344.52
433.45	348.86
433.82	353.19
434.19	357.96
434.56	362.54
434.93	366.83
435.30	371.24
435.68	376.13
436.05	380.76
436.42	385.40
436.79	389.70
437.16	394.27
437.53	399.03
437.90	403.90
438.27	408.61
438.64	413.38
439.01	417.92
439.38	422.27
439.75	426.04
440.13	430.43
440.50	434.72
440.87	438.14
441.24	441.63
441.61	445.41
441.98	448.24
442.35	451.58
442.72	455.10
443.09	458.42
443.46	460.38
443.83	461.89
444.20	463.20
444.57	465.07
444.94	466.00
445.31	467.01
445.68	468.33
446.05	469.09
446.42	469.13
446.79	468.75
447.16	468.21
447.53	468.38
447.90	466.91
448.27	465.44
448.64	463.57
449.01	462.37
449.37	459.71
449.74	457.14
450.11	454.05
450.48	450.46
450.85	446.88
451.22	443.75
451.59	440.69
451.96	437.90
452.33	433.86
452.70	430.41
453.07	426.16
453.43	421.63
453.80	417.41
454.17	413.19
454.54	409.45
454.91	405.24
455.28	401.11
455.65	397.48
456.02	393.69
456.38	390.22
456.75	385.87
457.12	382.41
457.49	378.79
457.86	375.25
458.23	372.39
458.59	369.14
458.96	366.01
459.33	363.10
459.70	360.07
460.07	357.74
460.43	355.00
460.80	352.47
461.17	350.12
461.54	347.63
461.91	345.38
462.27	343.00
462.64	340.98
463.01	338.64
463.38	336.52
463.74	334.25
464.11	332.23
464.48	330.68
464.85	328.70
465.21	327.26
465.58	325.78
465.95	323.94
466.32	322.39
466.68	320.78
467.05	319.30
467.42	317.78
467.78	316.24
468.15	314.81
468.52	313.55
468.88	312.02
469.25	310.62
469.62	309.49
469.98	308.17
470.35	306.99
470.72	305.81
471.08	304.63
471.45	303.55
471.82	302.67
472.18	301.38
472.55	300.56
472.92	299.70
473.28	298.73
473.65	297.76
474.02	296.78
474.38	295.91
474.75	295.20
475.11	294.43
475.48	293.58
475.85	292.83
476.21	292.19
476.58	291.59
476.94	291.07
477.31	290.43
477.67	289.90
478.04	289.49
478.41	289.14
478.77	288.82
479.14	288.38
479.50	288.00
479.87	287.90
480.23	287.68
480.60	287.28
480.96	286.97
481.33	286.87
481.69	286.66
482.06	286.41
482.42	286.20
482.79	286.06
483.15	286.11
483.52	286.22
483.88	286.07
484.25	286.03
484.61	285.97
484.98	285.99
485.34	286.10
485.71	286.22
486.07	286.20
486.44	286.07
486.80	286.26
487.17	286.33
487.53	286.45
487.90	286.62
488.26	286.86
488.62	287.15
488.99	287.25
489.35	287.58
489.72	288.05
490.08	288.39
490.44	288.64
490.81	288.89
491.17	289.17
491.54	289.71
491.90	290.12
492.26	290.56
492.63	291.06
492.99	291.56
493.36	291.87
493.72	292.39
494.08	292.87
494.45	293.31
494.81	293.79
495.17	294.25
495.54	294.67
495.90	295.12
496.26	295.61
496.63	296.22
496.99	296.68
497.35	297.14
497.72	297.76
498.08	298.29
498.44	298.72
498.80	299.13
499.17	299.46
499.53	299.95
499.89	300.34
500.26	300.74
500.62	301.11
500.98	301.70
501.34	302.10
501.71	302.57
502.07	302.96
502.43	303.42
502.79	303.77
503.16	304.16
503.52	304.52
503.88	304.81
504.24	305.06
504.60	305.43
504.97	305.81
505.33	305.92
505.69	306.35
506.05	306.80
506.41	307.10
506.78	307.34
507.14	307.48
507.50	307.71
507.86	307.96
508.22	308.22
508.59	308.32
508.95	308.55
509.31	308.89
509.67	309.07
510.03	309.16
510.39	309.38
510.75	309.60
511.12	309.80
511.48	309.99
511.84	310.25
512.20	310.26
512.56	310.27
512.92	310.63
513.28	310.72
513.64	310.75
514.00	311.11
514.37	311.44
514.73	311.87
515.09	312.30
515.45	312.66
515.81	312.84
516.17	313.34
516.53	313.78
516.89	314.15
517.25	314.71
517.61	315.26
517.97	315.93
518.33	316.54
518.69	317.24
519.05	318.04
519.41	318.78
519.77	319.89
520.13	321.00
520.49	321.85
520.85	322.96
521.21	324.14
521.57	325.24
521.93	326.56
522.29	327.86
522.65	329.14
523.01	330.47
523.37	332.08
523.73	333.58
524.09	335.24
524.45	336.95
524.81	338.78
525.17	340.95
525.53	342.80
525.89	344.93
526.25	347.08
526.61	349.21
526.97	351.47
527.33	353.71
527.68	356.23
528.04	358.83
528.40	361.39
528.76	364.09
529.12	366.84
529.48	369.63
529.84	372.43
530.20	375.65
530.56	378.96
530.91	382.22
531.27	385.60
531.63	388.96
531.99	392.43
532.35	395.72
532.71	399.10
533.07	402.71
533.42	406.58
533.78	410.38
534.14	414.42
534.50	418.37
534.86	422.50
535.21	426.50
535.57	430.71
535.93	434.98
536.29	439.33
536.65	443.76
537.00	448.25
537.36	452.74
537.72	457.10
538.08	461.72
538.44	466.20
538.79	470.61
539.15	475.25
539.51	480.17
539.87	485.23
540.22	490.15
540.58	495.34
540.94	500.22
541.29	505.28
541.65	510.24
542.01	515.33
542.37	520.43
542.72	525.47
543.08	530.51
543.44	535.87
543.79	540.96
544.15	546.31
544.51	551.76
544.87	557.30
545.22	562.49
545.58	567.51
545.94	572.72
546.29	578.17
546.65	583.64
547.01	588.61
547.36	594.01
547.72	599.23
548.07	604.31
548.43	609.54
548.79	614.67
549.14	620.12
549.50	625.24
549.86	630.44
550.21	635.55
550.57	640.92
550.92	646.09
551.28	651.50
551.64	656.70
551.99	661.97
552.35	666.95
552.70	672.55
553.06	678.02
553.41	683.50
553.77	688.84
554.13	693.90
554.48	699.48
554.84	704.37
555.19	709.71
555.55	715.10
555.90	719.98
556.26	725.29
556.61	730.18
556.97	735.16
557.32	740.20
557.68	745.27
558.03	750.22
558.39	754.87
558.74	759.88
559.10	764.65
559.45	769.29
559.81	774.33
560.16	778.65
560.52	783.16
560.87	787.86
561.23	792.22
561.58	796.97
561.94	801.38
562.29	805.84
562.64	810.07
563.00	814.31
563.35	818.98
563.71	823.06
564.06	827.64
564.42	831.95
564.77	835.97
565.12	840.33
565.48	844.62
565.83	848.51
566.19	852.81
566.54	856.60
566.89	860.41
567.25	864.15
567.60	868.38
567.96	872.41
568.31	876.02
568.66	879.62
569.02	882.74
569.37	886.04
569.72	889.69
570.08	892.90
570.43	896.22
570.78	899.10
571.14	902.20
571.49	904.91
571.84	908.40
572.20	911.45
572.55	913.92
572.90	916.10
573.26	919.04
573.61	921.06
573.96	923.43
574.31	925.44
574.67	927.14
575.02	929.03
575.37	930.69
575.72	932.42
576.08	934.35
576.43	936.32
576.78	938.19
577.13	939.97
577.49	941.60
577.84	942.73
578.19	944.22
578.54	945.59
578.90	947.02
579.25	947.74
579.60	948.83
579.95	949.94
580.30	951.19
580.66	951.92
581.01	952.73
581.36	953.42
581.71	954.50
582.06	955.50
582.42	955.88
582.77	956.43
583.12	956.95
583.47	957.64
583.82	958.11
584.17	958.20
584.53	958.49
584.88	958.72
585.23	959.34
585.58	959.80
585.93	960.17
586.28	960.24
586.63	960.22
586.98	960.57
587.34	960.80
587.69	960.79
588.04	960.77
588.39	960.96
588.74	960.80
589.09	960.39
589.44	959.72
589.79	959.62
590.14	959.76
590.49	959.29
590.84	958.62
591.19	958.35
591.54	957.62
591.89	956.43
592.25	956.16
592.60	954.77
592.95	953.44
593.30	952.06
593.65	950.86
594.00	950.06
594.35	949.20
594.70	947.60
595.05	946.50
595.40	945.20
595.75	943.79
596.10	942.48
596.45	941.41
596.80	940.84
597.15	939.72
597.50	938.09
597.85	937.16
598.19	936.04
598.54	934.53
598.89	933.13
599.24	932.25
599.59	930.61
599.94	929.62
600.29	928.48
600.64	927.36
600.99	925.63
601.34	924.12
601.69	921.79
602.04	920.34
602.39	918.44
602.74	917.45
603.08	915.76
603.43	914.64
603.78	913.01
604.13	911.22
604.48	909.26
604.83	907.44
605.18	905.65
605.53	903.22
605.87	901.03
606.22	899.50
606.57	897.11
606.92	895.10
607.27	893.36
607.62	891.53
607.96	889.73
608.31	888.08
608.66	885.74
609.01	883.81
609.36	881.60
609.70	879.24
610.05	876.27
610.40	873.85
610.75	871.05
611.10	868.22
611.44	865.19
611.79	862.75
612.14	860.16
612.49	857.01
612.83	854.55
613.18	852.02
613.53	849.13
613.88	846.22
614.22	843.23
614.57	840.00
614.92	837.06
615.27	834.11
615.61	830.80
615.96	828.11
616.31	825.07
616.65	822.67
617.00	820.01
617.35	817.38
617.70	814.40
618.04	811.58
618.39	808.96
618.74	806.30
619.08	803.38
619.43	800.44
619.78	797.80
620.12	795.29
620.47	792.38
620.82	789.43
621.16	786.84
621.51	784.07
621.85	781.39
622.20	778.41
622.55	775.24
622.89	772.81
623.24	770.00
623.59	767.60
623.93	764.66
624.28	762.03
624.62	759.11
624.97	756.47
625.32	753.75
625.66	751.02
626.01	748.35
626.35	745.72
626.70	743.03
627.04	740.43
627.39	737.22
627.73	734.71
628.08	732.15
628.43	729.33
628.77	726.61
629.12	723.62
629.46	720.87
629.81	718.07
630.15	714.98
630.50	711.81
630.84	708.49
631.19	705.30
631.53	702.21
631.88	699.10
632.22	695.85
632.57	692.97
632.91	689.89
633.26	686.54
633.60	683.20
633.95	680.27
634.29	677.07
634.64	674.30
634.98	671.23
635.32	668.49
635.67	665.73
636.01	663.06
636.36	660.24
636.70	657.57
637.05	654.77
637.39	652.19
637.73	649.64
638.08	647.26
638.42	644.82
638.77	642.38
639.11	639.78
639.45	637.35
639.80	634.63
640.14	631.93
640.49	629.66
640.83	627.05
641.17	624.52
641.52	621.96
641.86	619.34
642.20	616.57
642.55	613.52
642.89	611.02
643.23	608.07
643.58	605.65
643.92	602.65
644.26	600.18
644.61	597.50
644.95	594.89
645.29	591.92
645.64	588.93
645.98	586.00
646.32	583.40
646.66	580.67
647.01	577.82
647.35	575.46
647.69	572.67
648.04	570.20
648.38	567.21
648.72	564.28
649.06	561.53
649.41	558.96
649.75	556.38
650.09	553.43
650.43	550.82
650.78	547.79
651.12	545.16
651.46	542.40
651.80	539.78
652.14	537.15
652.49	534.75
652.83	532.34
653.17	529.72
653.51	527.06
653.85	524.23
654.20	521.80
654.54	518.74
654.88	516.04
655.22	513.20
655.56	510.63
655.90	508.36
656.25	505.97
656.59	503.38
656.93	500.93
657.27	498.53
657.61	495.96
657.95	493.70
658.29	491.21
658.64	488.82
658.98	486.25
659.32	483.66
659.66	481.10
660.00	478.69
660.34	476.38
660.68	473.92
661.02	471.73
661.36	469.37
661.70	467.22
662.05	465.24
662.39	463.27
662.73	461.19
663.07	458.96
663.41	457.00
663.75	454.92
664.09	452.83
664.43	450.66
664.77	448.80
665.11	446.83
665.45	444.97
665.79	442.93
666.13	440.93
666.47	438.91
666.81	436.99
667.15	434.67
667.49	432.71
667.83	430.93
668.17	429.16
668.51	427.10
668.85	425.30
669.19	423.47
669.53	421.48
669.87	419.64
670.21	417.91
670.55	416.00
670.89	414.27
671.23	412.58
671.57	411.00
671.91	409.27
672.25	407.45
672.58	405.91
672.92	404.16
673.26	402.55
673.60	401.20
673.94	399.71
674.28	398.53
674.62	397.04
674.96	395.56
675.30	394.10
675.64	392.81
675.97	391.40
676.31	389.98
676.65	388.49
676.99	386.93
677.33	385.38
677.67	383.75
678.01	382.37
678.34	381.01
678.68	379.63
679.02	378.18
679.36	376.83
679.70	375.25
680.04	373.99
680.37	372.52
680.71	371.10
681.05	369.71
681.39	368.37
681.73	367.01
682.06	365.73
682.40	364.38
682.74	362.99
683.08	361.60
683.42	360.14
683.75	358.98
684.09	357.77
684.43	356.45
684.77	355.31
685.10	353.92
685.44	352.58
685.78	351.23
686.12	349.93
686.45	348.77
686.79	347.50
687.13	346.27
687.46	345.25
687.80	343.95
688.14	342.64
688.48	341.56
688.81	340.33
689.15	339.14
689.49	337.98
689.82	336.89
690.16	335.72
690.50	334.68
690.83	333.47
691.17	332.44
691.51	331.48
691.84	330.36
692.18	329.21
692.52	328.06
692.85	326.96
693.19	325.90
693.52	324.75
693.86	323.71
694.20	322.67
694.53	321.59
694.87	320.57
695.21	319.53
695.54	318.30
695.88	317.31
696.21	316.30
696.55	315.26
696.88	314.28
697.22	313.39
697.56	312.49
697.89	311.48
698.23	310.62
698.56	309.68
698.90	308.84
699.23	308.08
699.57	307.26
699.90	306.39
700.24	305.61
700.58	304.81
700.91	303.86
701.25	303.13
701.58	302.38
701.92	301.57
702.25	300.76
702.59	300.01
702.92	299.31
703.26	298.47
703.59	297.71
703.93	297.09
704.26	296.43
704.60	295.64
704.93	295.06
705.26	294.21
705.60	293.48
705.93	292.83
706.27	292.22
706.60	291.60
706.94	291.05
707.27	290.28
707.61	289.54
707.94	289.05
708.27	288.20
708.61	287.41
708.94	286.87
709.28	286.33
709.61	285.75
709.94	285.21
710.28	284.74
710.61	284.14
710.95	283.40
711.28	282.78
711.61	282.20
711.95	281.52
712.28	281.00
712.61	280.40
712.95	279.85
713.28	279.30
713.61	278.67
713.95	278.09
714.28	277.59
714.61	277.17
714.95	276.65
715.28	276.19
715.61	275.70
715.95	275.13
716.28	274.60
716.61	274.00
716.95	273.29
717.28	272.68
717.61	272.15
717.94	271.73
718.28	271.23
718.61	270.73
718.94	270.45
719.27	270.06
719.61	269.66
719.94	269.21
720.27	268.59
720.60	268.19
720.94	267.74
721.27	267.43
721.60	266.85
721.93	266.47
722.27	266.11
722.60	265.63
722.93	265.34
723.26	265.04
723.59	264.79
723.93	264.50
724.26	264.25
724.59	263.87
724.92	263.50
725.25	263.21
725.59	262.88
725.92	262.50
726.25	262.00
726.58	261.70
726.91	261.38
727.24	261.02
727.57	260.67
727.91	260.34
728.24	260.01
728.57	259.82
728.90	259.61
729.23	259.26
729.56	259.08
729.89	258.71
730.22	258.32
730.55	257.90
730.89	257.55
731.22	257.18
731.55	256.92
731.88	256.61
732.21	256.18
732.54	255.87
732.87	255.46
733.20	255.26
733.53	254.95
733.86	254.61
734.19	254.42
734.52	254.07
734.85	253.86
735.18	253.41
735.51	253.15
735.84	252.79
736.17	252.56
736.50	252.22
736.83	252.15
737.16	251.87
737.49	251.70
737.82	251.46
738.15	251.33
738.48	251.11
738.81	250.76
739.14	250.48
739.47	250.19
739.80	249.91
740.13	249.66
740.46	249.32
740.79	249.00
741.12	248.81
741.45	248.62
741.78	248.33
742.11	248.25
742.44	247.92
742.77	247.69
743.10	247.37
743.43	247.21
743.75	246.82
744.08	246.88
744.41	246.75
744.74	246.56
745.07	246.23
745.40	246.02
745.73	245.95
746.06	245.71
746.39	245.54
746.71	245.37
747.04	245.15
747.37	245.05
747.70	244.90
748.03	244.74
748.36	244.55
748.68	244.32
749.01	244.08
749.34	243.92
749.67	243.82
750.00	243.68
750.33	243.58
750.65	243.39
750.98	242.98
751.31	242.77
751.64	242.62
751.97	242.68
752.29	242.54
752.62	242.33
752.95	242.23
753.28	242.05
753.60	241.89
753.93	241.73
754.26	241.52
754.59	241.35
754.91	241.15
755.24	241.06
755.57	240.93
755.90	240.77
756.22	240.70
756.55	240.48
756.88	240.40
757.20	240.30
757.53	240.05
757.86	239.95
758.19	239.81
758.51	239.66
758.84	239.39
759.17	239.28
759.49	239.15
759.82	239.17
760.15	239.17
760.47	239.12
760.80	239.02
761.13	239.07
761.45	238.99
761.78	238.92
762.11	238.82
762.43	238.81
762.76	238.77
763.08	238.55
763.41	238.44
763.74	238.38
764.06	238.32
764.39	238.29
764.71	238.22
765.04	238.20
765.37	238.01
765.69	237.86
766.02	237.71
766.34	237.60
766.67	237.40
767.00	237.30
767.32	237.32
767.65	237.38
767.97	237.22
768.30	237.19
768.62	237.03
768.95	236.85
769.27	236.73
769.60	236.62
769.92	236.68
770.25	236.66
770.57	236.48
770.90	236.25
771.22	236.18
771.55	236.04
771.87	235.90
772.20	235.92
772.52	236.00
772.85	236.17
773.17	236.12
773.50	236.10
773.82	235.88
774.15	235.65
774.47	235.41
774.80	235.27
775.12	235.02
775.45	234.96
775.77	234.89
776.09	234.73
776.42	234.61
776.74	234.52
777.07	234.45
777.39	234.36
777.72	234.30
778.04	234.20
778.36	234.18
778.69	234.08
779.01	234.06
779.33	233.85
779.66	233.41
779.98	233.34
780.31	233.24
780.63	233.28
780.95	233.29
781.28	233.21
781.60	233.16
781.92	233.16
782.25	233.07
782.57	233.06
782.89	233.09
783.22	233.07
783.54	232.94
783.86	232.83
784.19	232.75
784.51	232.71
784.83	232.67
785.16	232.53
785.48	232.43
785.80	232.40
786.12	232.28
786.45	232.38
786.77	232.33
787.09	232.29
787.42	232.28
787.74	232.24
788.06	232.30
788.38	232.26
788.71	232.22
789.03	232.22
789.35	232.21
789.67	232.19
789.99	232.11
790.32	232.10
790.64	232.03
790.96	232.20
791.28	232.16
791.61	232.14
791.93	232.12
792.25	232.22
792.57	232.29
792.89	232.30
793.21	232.33
793.54	232.25
793.86	232.21
794.18	232.08
