SpectraSuite Data File
++++++++++++++++++++++++++++++++++++
Date: Fri Feb 01 14:36:08 EST 2013
User: group
Dark Spectrum Present: No
Reference Spectrum Present: No
Number of Sampled Component Spectra: 1
Spectrometers: USB2E7196
Integration Time (usec): 70000 (USB2E7196)
Spectra Averaged: 10 (USB2E7196)
Boxcar Smoothing: 10 (USB2E7196)
Correct for Electrical Dark: No (USB2E7196)
Strobe/Lamp Enabled: No (USB2E7196)
Correct for Detector Non-linearity: No (USB2E7196)
Correct for Stray Light: No (USB2E7196)
Number of Pixels in Processed Spectrum: 2048
>>>>>Begin Processed Spectral Data<<<<<
339.09	0.00
339.48	216.80
339.86	217.80
340.24	219.20
340.63	220.20
341.01	223.40
341.39	223.00
341.78	224.60
342.16	225.30
342.54	226.20
342.93	214.59
343.31	225.40
343.69	225.88
344.07	226.36
344.46	226.79
344.84	227.19
345.22	227.42
345.60	227.66
345.99	227.75
346.37	227.85
346.75	227.96
347.13	228.02
347.52	227.97
347.90	228.09
348.28	228.05
348.66	228.04
349.05	228.00
349.43	228.09
349.81	228.16
350.19	228.09
350.57	228.11
350.96	228.08
351.34	228.21
351.72	228.36
352.10	228.46
352.48	228.47
352.87	228.50
353.25	228.53
353.63	228.62
354.01	228.74
354.39	228.92
354.77	228.97
355.15	229.18
355.54	229.31
355.92	229.36
356.30	229.45
356.68	229.69
357.06	229.85
357.44	229.85
357.82	229.92
358.20	230.04
358.58	230.12
358.97	230.29
359.35	230.40
359.73	230.50
360.11	230.53
360.49	230.63
360.87	230.71
361.25	230.81
361.63	230.96
362.01	230.95
362.39	230.97
362.77	231.00
363.15	231.01
363.53	231.04
363.91	231.08
364.29	231.17
364.67	231.05
365.05	231.13
365.43	231.19
365.81	231.13
366.19	231.24
366.57	231.26
366.95	231.25
367.33	231.20
367.71	231.08
368.09	231.10
368.47	230.97
368.85	230.82
369.23	230.81
369.61	230.64
369.99	230.75
370.37	230.65
370.75	230.71
371.13	230.58
371.51	230.56
371.89	230.45
372.27	230.35
372.65	230.22
373.03	230.05
373.41	229.97
373.78	229.94
374.16	229.79
374.54	229.68
374.92	229.50
375.30	229.32
375.68	229.15
376.06	229.05
376.44	229.01
376.82	229.01
377.19	228.85
377.57	228.74
377.95	228.53
378.33	228.47
378.71	228.27
379.09	228.26
379.47	228.13
379.84	228.03
380.22	227.91
380.60	227.81
380.98	227.70
381.36	227.59
381.73	227.60
382.11	227.52
382.49	227.52
382.87	227.55
383.25	227.49
383.62	227.76
384.00	227.65
384.38	227.69
384.76	227.64
385.13	227.71
385.51	227.64
385.89	227.62
386.27	227.56
386.64	227.49
387.02	227.35
387.40	227.22
387.78	227.19
388.15	227.16
388.53	227.05
388.91	227.05
389.29	226.97
389.66	226.82
390.04	226.81
390.42	226.77
390.79	226.64
391.17	226.64
391.55	226.43
391.92	226.36
392.30	226.34
392.68	226.33
393.05	226.28
393.43	226.33
393.81	226.40
394.18	226.41
394.56	226.50
394.94	226.57
395.31	226.65
395.69	226.68
396.06	226.70
396.44	226.82
396.82	226.87
397.19	227.06
397.57	227.13
397.95	227.20
398.32	227.29
398.70	227.44
399.07	227.53
399.45	227.62
399.82	227.72
400.20	227.84
400.58	227.91
400.95	228.02
401.33	228.23
401.70	228.43
402.08	228.49
402.45	228.61
402.83	228.79
403.20	228.98
403.58	229.20
403.95	229.50
404.33	229.75
404.71	230.03
405.08	230.28
405.46	230.56
405.83	230.87
406.21	231.11
406.58	231.47
406.96	231.83
407.33	232.04
407.70	232.56
408.08	233.09
408.45	233.53
408.83	233.96
409.20	234.30
409.58	234.66
409.95	235.26
410.33	235.80
410.70	236.33
411.08	236.96
411.45	237.66
411.82	238.22
412.20	238.94
412.57	239.62
412.95	240.32
413.32	241.14
413.69	242.01
414.07	242.94
414.44	243.92
414.82	245.03
415.19	246.29
415.56	247.36
415.94	248.46
416.31	249.92
416.68	251.30
417.06	252.96
417.43	254.52
417.81	256.18
418.18	257.91
418.55	259.72
418.93	261.69
419.30	263.68
419.67	265.88
420.04	267.95
420.42	270.34
420.79	273.03
421.16	275.69
421.54	278.46
421.91	281.32
422.28	284.10
422.66	287.15
423.03	290.13
423.40	293.27
423.77	296.74
424.15	299.92
424.52	303.54
424.89	307.32
425.26	311.09
425.64	314.72
426.01	318.74
426.38	322.70
426.75	326.67
427.13	330.75
427.50	335.14
427.87	339.93
428.24	344.60
428.61	348.89
428.99	353.72
429.36	358.89
429.73	363.94
430.10	369.22
430.47	374.45
430.85	379.99
431.22	385.77
431.59	391.76
431.96	397.64
432.33	404.06
432.70	410.28
433.08	417.38
433.45	424.02
433.82	430.68
434.19	438.32
434.56	445.76
434.93	452.89
435.30	459.84
435.68	467.42
436.05	475.19
436.42	482.74
436.79	489.57
437.16	497.00
437.53	504.80
437.90	512.38
438.27	520.09
438.64	527.90
439.01	535.14
439.38	541.51
439.75	547.64
440.13	554.72
440.50	561.68
440.87	567.49
441.24	573.40
441.61	580.02
441.98	584.87
442.35	590.65
442.72	596.45
443.09	601.92
443.46	605.78
443.83	608.04
444.20	610.39
444.57	613.67
444.94	615.59
445.31	617.59
445.68	619.67
446.05	620.84
446.42	621.07
446.79	620.92
447.16	620.94
447.53	621.31
447.90	619.30
448.27	617.08
448.64	613.82
449.01	611.85
449.37	607.40
449.74	603.28
450.11	597.91
450.48	592.27
450.85	586.66
451.22	581.56
451.59	577.00
451.96	572.73
452.33	566.54
452.70	560.88
453.07	553.92
453.43	546.78
453.80	540.07
454.17	533.27
454.54	527.14
454.91	520.24
455.28	513.51
455.65	507.36
456.02	501.15
456.38	495.80
456.75	488.93
457.12	483.34
457.49	477.72
457.86	472.40
458.23	467.67
458.59	462.38
458.96	456.95
459.33	452.16
459.70	447.33
460.07	443.52
460.43	438.95
460.80	434.81
461.17	431.32
461.54	427.29
461.91	423.65
462.27	419.86
462.64	416.72
463.01	413.20
463.38	409.69
463.74	406.10
464.11	402.90
464.48	400.42
464.85	397.38
465.21	395.00
465.58	392.50
465.95	389.50
466.32	387.06
466.68	384.58
467.05	382.12
467.42	379.63
467.78	376.98
468.15	374.56
468.52	372.61
468.88	369.97
469.25	367.81
469.62	366.04
469.98	364.21
470.35	362.36
470.72	360.66
471.08	358.85
471.45	357.44
471.82	355.86
472.18	353.96
472.55	352.59
472.92	351.17
473.28	349.76
473.65	348.50
474.02	347.28
474.38	346.25
474.75	345.33
475.11	344.29
475.48	343.50
475.85	342.72
476.21	342.08
476.58	341.34
476.94	340.79
477.31	340.07
477.67	339.35
478.04	338.73
478.41	338.22
478.77	337.88
479.14	337.23
479.50	336.80
479.87	336.70
480.23	336.71
480.60	336.43
480.96	336.32
481.33	336.31
481.69	336.26
482.06	336.06
482.42	335.84
482.79	335.78
483.15	335.82
483.52	336.06
483.88	336.05
484.25	336.31
484.61	336.37
484.98	336.65
485.34	337.04
485.71	337.54
486.07	338.11
486.44	338.60
486.80	339.33
487.17	340.03
487.53	340.75
487.90	341.46
488.26	342.34
488.62	343.22
488.99	344.08
489.35	344.93
489.72	345.95
490.08	347.15
490.44	348.22
490.81	349.34
491.17	350.51
491.54	351.88
491.90	353.08
492.26	354.65
492.63	356.01
492.99	357.44
493.36	358.91
493.72	360.44
494.08	361.90
494.45	363.33
494.81	364.90
495.17	366.52
495.54	367.99
495.90	369.55
496.26	371.20
496.63	372.87
496.99	374.72
497.35	376.51
497.72	378.21
498.08	380.11
498.44	381.97
498.80	383.97
499.17	385.78
499.53	387.67
499.89	389.37
500.26	391.26
500.62	392.97
500.98	394.89
501.34	396.75
501.71	398.57
502.07	400.36
502.43	402.17
502.79	403.80
503.16	405.68
503.52	407.37
503.88	409.01
504.24	410.67
504.60	412.28
504.97	414.00
505.33	415.57
505.69	417.26
506.05	418.75
506.41	420.06
506.78	421.48
507.14	422.80
507.50	424.10
507.86	425.46
508.22	426.71
508.59	427.82
508.95	428.79
509.31	429.97
509.67	431.28
510.03	432.36
510.39	433.38
510.75	434.41
511.12	435.45
511.48	436.38
511.84	437.10
512.20	437.80
512.56	438.49
512.92	439.30
513.28	439.99
513.64	440.67
514.00	441.17
514.37	441.70
514.73	442.31
515.09	442.98
515.45	443.47
515.81	444.04
516.17	444.58
516.53	445.15
516.89	445.49
517.25	445.74
517.61	446.14
517.97	446.42
518.33	446.65
518.69	446.91
519.05	447.19
519.41	447.62
519.77	448.10
520.13	448.56
520.49	448.93
520.85	449.24
521.21	449.53
521.57	450.06
521.93	450.40
522.29	450.83
522.65	451.23
523.01	451.64
523.37	451.93
523.73	452.31
524.09	452.78
524.45	453.27
524.81	453.79
525.17	454.46
525.53	455.28
525.89	456.11
526.25	456.86
526.61	457.64
526.97	458.64
527.33	459.55
527.68	460.75
528.04	461.65
528.40	462.58
528.76	463.81
529.12	464.98
529.48	466.25
529.84	467.43
530.20	468.75
530.56	470.20
530.91	472.04
531.27	473.53
531.63	475.07
531.99	477.00
532.35	478.65
532.71	480.34
533.07	482.34
533.42	484.33
533.78	486.54
534.14	488.44
534.50	490.35
534.86	492.50
535.21	494.31
535.57	496.64
535.93	498.89
536.29	501.25
536.65	503.75
537.00	506.34
537.36	509.21
537.72	511.82
538.08	514.32
538.44	516.85
538.79	519.75
539.15	522.60
539.51	525.49
539.87	528.70
540.22	531.56
540.58	534.59
540.94	537.58
541.29	540.60
541.65	543.97
542.01	547.44
542.37	550.70
542.72	554.23
543.08	557.57
543.44	561.00
543.79	564.53
544.15	568.20
544.51	571.80
544.87	575.14
545.22	578.79
545.58	582.53
545.94	586.26
546.29	589.93
546.65	593.54
547.01	597.14
547.36	600.78
547.72	604.75
548.07	608.51
548.43	612.20
548.79	615.88
549.14	619.62
549.50	623.25
549.86	626.97
550.21	630.63
550.57	634.72
550.92	638.66
551.28	642.30
551.64	645.92
551.99	649.72
552.35	653.67
552.70	657.46
553.06	661.63
553.41	665.46
553.77	669.37
554.13	673.52
554.48	677.38
554.84	681.33
555.19	685.20
555.55	689.13
555.90	692.90
556.26	696.62
556.61	700.49
556.97	704.39
557.32	708.31
557.68	712.35
558.03	716.00
558.39	720.04
558.74	724.01
559.10	728.01
559.45	731.95
559.81	735.82
560.16	739.50
560.52	743.02
560.87	747.00
561.23	750.67
561.58	754.35
561.94	758.09
562.29	761.48
562.64	764.94
563.00	768.44
563.35	772.35
563.71	776.41
564.06	780.14
564.42	783.60
564.77	787.14
565.12	790.61
565.48	794.30
565.83	797.34
566.19	800.75
566.54	803.71
566.89	806.77
567.25	809.98
567.60	813.36
567.96	816.63
568.31	819.60
568.66	822.58
569.02	825.49
569.37	828.13
569.72	831.31
570.08	834.05
570.43	836.85
570.78	839.57
571.14	841.65
571.49	843.94
571.84	846.76
572.20	849.07
572.55	851.34
572.90	853.48
573.26	855.80
573.61	857.68
573.96	859.94
574.31	861.79
574.67	863.11
575.02	864.63
575.37	866.15
575.72	867.44
576.08	869.14
576.43	870.70
576.78	872.27
577.13	873.61
577.49	874.97
577.84	876.09
578.19	876.87
578.54	878.03
578.90	879.13
579.25	879.72
579.60	880.34
579.95	880.95
580.30	881.17
580.66	881.79
581.01	882.31
581.36	883.10
581.71	883.88
582.06	884.64
582.42	885.06
582.77	885.33
583.12	885.74
583.47	885.80
583.82	885.90
584.17	886.29
584.53	886.41
584.88	886.70
585.23	886.67
585.58	886.78
585.93	887.03
586.28	887.00
586.63	887.06
586.98	887.65
587.34	887.82
587.69	887.80
588.04	887.67
588.39	887.63
588.74	886.39
589.09	885.80
589.44	885.32
589.79	884.99
590.14	884.50
590.49	884.00
590.84	883.40
591.19	882.90
591.54	881.81
591.89	880.65
592.25	879.79
592.60	878.85
592.95	877.52
593.30	876.26
593.65	875.07
594.00	873.62
594.35	872.40
594.70	870.90
595.05	869.96
595.40	868.34
595.75	867.12
596.10	866.32
596.45	865.38
596.80	864.42
597.15	863.28
597.50	861.80
597.85	860.68
598.19	859.77
598.54	858.71
598.89	857.58
599.24	856.63
599.59	855.30
599.94	854.02
600.29	853.01
600.64	851.54
600.99	849.92
601.34	848.54
601.69	846.63
602.04	845.19
602.39	843.50
602.74	842.33
603.08	840.84
603.43	839.41
603.78	837.50
604.13	835.53
604.48	833.67
604.83	832.31
605.18	830.70
605.53	828.57
605.87	826.16
606.22	824.23
606.57	822.11
606.92	820.12
607.27	818.52
607.62	816.78
607.96	814.89
608.31	813.30
608.66	811.33
609.01	808.98
609.36	806.41
609.70	803.82
610.05	801.36
610.40	798.89
610.75	796.55
611.10	794.24
611.44	791.72
611.79	789.36
612.14	786.94
612.49	783.98
612.83	781.19
613.18	778.71
613.53	776.31
613.88	773.40
614.22	770.87
614.57	767.88
614.92	765.02
615.27	762.62
615.61	759.82
615.96	757.01
616.31	754.82
616.65	752.78
617.00	750.72
617.35	748.23
617.70	745.74
618.04	743.01
618.39	740.46
618.74	738.04
619.08	735.40
619.43	732.83
619.78	730.51
620.12	728.31
620.47	725.85
620.82	722.97
621.16	720.69
621.51	718.18
621.85	715.51
622.20	712.80
622.55	709.92
622.89	707.37
623.24	705.03
623.59	702.47
623.93	699.96
624.28	697.39
624.62	695.06
624.97	692.62
625.32	690.25
625.66	687.75
626.01	685.20
626.35	682.71
626.70	680.09
627.04	677.73
627.39	674.79
627.73	672.36
628.08	670.05
628.43	667.51
628.77	664.93
629.12	662.43
629.46	660.00
629.81	657.52
630.15	654.86
630.50	652.37
630.84	649.49
631.19	646.47
631.53	643.65
631.88	640.59
632.22	637.69
632.57	634.98
632.91	632.36
633.26	629.80
633.60	626.98
633.95	624.39
634.29	621.64
634.64	619.44
634.98	616.69
635.32	614.23
635.67	611.99
636.01	609.38
636.36	606.83
636.70	604.52
637.05	602.21
637.39	600.11
637.73	597.61
638.08	595.62
638.42	593.46
638.77	591.25
639.11	589.15
639.45	586.86
639.80	584.48
640.14	581.96
640.49	579.62
640.83	577.28
641.17	574.74
641.52	572.18
641.86	569.64
642.20	567.30
642.55	564.95
642.89	562.38
643.23	560.02
643.58	557.92
643.92	555.33
644.26	552.87
644.61	550.66
644.95	548.38
645.29	545.70
645.64	543.34
645.98	540.99
646.32	538.64
646.66	535.94
647.01	533.60
647.35	531.49
647.69	529.21
648.04	527.20
648.38	524.80
648.72	522.63
649.06	520.33
649.41	518.10
649.75	515.51
650.09	513.18
650.43	510.90
650.78	508.35
651.12	505.95
651.46	503.69
651.80	501.10
652.14	499.00
652.49	496.77
652.83	494.70
653.17	492.34
653.51	489.93
653.85	487.99
654.20	485.74
654.54	483.29
654.88	480.76
655.22	478.23
655.56	475.96
655.90	473.48
656.25	471.30
656.59	469.08
656.93	467.01
657.27	464.91
657.61	462.56
657.95	460.70
658.29	458.89
658.64	456.78
658.98	454.56
659.32	452.25
659.66	450.22
660.00	447.96
660.34	446.04
660.68	444.17
661.02	441.93
661.36	439.98
661.70	437.94
662.05	436.24
662.39	434.72
662.73	432.92
663.07	431.43
663.41	429.65
663.75	427.91
664.09	426.21
664.43	424.41
664.77	422.87
665.11	421.12
665.45	419.20
665.79	417.43
666.13	415.68
666.47	413.88
666.81	411.96
667.15	410.28
667.49	408.51
667.83	406.85
668.17	405.50
668.51	403.81
668.85	402.30
669.19	400.86
669.53	399.00
669.87	397.39
670.21	395.68
670.55	394.18
670.89	392.64
671.23	391.00
671.57	389.44
671.91	387.91
672.25	386.28
672.58	384.91
672.92	383.44
673.26	382.24
673.60	380.85
673.94	379.64
674.28	378.45
674.62	377.18
674.96	375.90
675.30	374.63
675.64	373.38
675.97	372.15
676.31	370.83
676.65	369.54
676.99	368.40
677.33	367.03
677.67	365.69
678.01	364.39
678.34	363.19
678.68	362.00
679.02	360.75
679.36	359.62
679.70	358.42
680.04	357.34
680.37	356.01
680.71	354.89
681.05	353.89
681.39	352.66
681.73	351.57
682.06	350.55
682.40	349.39
682.74	348.27
683.08	347.29
683.42	346.03
683.75	345.03
684.09	344.04
684.43	343.02
684.77	341.94
685.10	340.89
685.44	339.83
685.78	338.88
686.12	337.86
686.45	336.71
686.79	335.68
687.13	334.65
687.46	333.71
687.80	332.80
688.14	331.66
688.48	330.66
688.81	329.52
689.15	328.46
689.49	327.39
689.82	326.57
690.16	325.44
690.50	324.54
690.83	323.47
691.17	322.49
691.51	321.58
691.84	320.62
692.18	319.70
692.52	318.70
692.85	317.61
693.19	316.64
693.52	315.80
693.86	314.72
694.20	313.83
694.53	312.87
694.87	311.94
695.21	310.98
695.54	310.08
695.88	309.20
696.21	308.14
696.55	307.32
696.88	306.34
697.22	305.65
697.56	304.75
697.89	303.98
698.23	303.14
698.56	302.16
698.90	301.39
699.23	300.50
699.57	299.76
699.90	299.10
700.24	298.39
700.58	297.54
700.91	296.82
701.25	296.14
701.58	295.40
701.92	294.55
702.25	293.88
702.59	293.16
702.92	292.45
703.26	291.80
703.59	291.08
703.93	290.62
704.26	289.73
704.60	289.17
704.93	288.52
705.26	287.80
705.60	287.25
705.93	286.66
706.27	286.02
706.60	285.47
706.94	284.81
707.27	284.09
707.61	283.46
707.94	282.94
708.27	282.18
708.61	281.52
708.94	281.01
709.28	280.38
709.61	279.74
709.94	279.16
710.28	278.62
710.61	278.16
710.95	277.34
711.28	276.94
711.61	276.38
711.95	275.80
712.28	275.22
712.61	274.72
712.95	274.17
713.28	273.73
713.61	273.10
713.95	272.67
714.28	272.24
714.61	271.84
714.95	271.40
715.28	270.90
715.61	270.43
715.95	269.96
716.28	269.54
716.61	269.11
716.95	268.68
717.28	268.23
717.61	267.80
717.94	267.39
718.28	266.88
718.61	266.40
718.94	265.95
719.27	265.54
719.61	265.13
719.94	264.74
720.27	264.38
720.60	264.07
720.94	263.70
721.27	263.36
721.60	263.04
721.93	262.70
722.27	262.50
722.60	262.26
722.93	261.88
723.26	261.50
723.59	261.17
723.93	260.91
724.26	260.59
724.59	260.17
724.92	259.91
725.25	259.52
725.59	259.18
725.92	259.02
726.25	258.79
726.58	258.60
726.91	258.31
727.24	258.10
727.57	257.84
727.91	257.52
728.24	257.20
728.57	256.83
728.90	256.56
729.23	256.10
729.56	255.87
729.89	255.55
730.22	255.35
730.55	255.00
730.89	254.72
731.22	254.46
731.55	254.30
731.88	254.04
732.21	253.90
732.54	253.73
732.87	253.40
733.20	253.09
733.53	252.85
733.86	252.65
734.19	252.26
734.52	252.04
734.85	251.84
735.18	251.60
735.51	251.38
735.84	251.11
736.17	250.93
736.50	250.69
736.83	250.70
737.16	250.47
737.49	250.41
737.82	250.22
738.15	250.08
738.48	249.80
738.81	249.54
739.14	249.26
739.47	249.10
739.80	248.98
740.13	248.86
740.46	248.47
740.79	248.25
741.12	248.10
741.45	247.90
741.78	247.56
742.11	247.51
742.44	247.29
742.77	247.18
743.10	247.00
743.43	246.71
743.75	246.35
744.08	246.40
744.41	246.14
744.74	245.90
745.07	245.60
745.40	245.42
745.73	245.27
746.06	245.18
746.39	244.92
746.71	244.69
747.04	244.44
747.37	244.31
747.70	244.10
748.03	243.90
748.36	243.71
748.68	243.56
749.01	243.24
749.34	243.02
749.67	242.80
750.00	242.71
750.33	242.67
750.65	242.57
750.98	242.18
751.31	242.00
751.64	241.85
751.97	241.88
752.29	241.79
752.62	241.59
752.95	241.39
753.28	241.28
753.60	241.10
753.93	241.02
754.26	240.90
754.59	240.77
754.91	240.61
755.24	240.43
755.57	240.30
755.90	240.27
756.22	240.18
756.55	240.07
756.88	239.84
757.20	239.60
757.53	239.42
757.86	239.35
758.19	239.24
758.51	239.15
758.84	238.91
759.17	238.75
759.49	238.62
759.82	238.53
760.15	238.40
760.47	238.33
760.80	238.22
761.13	238.14
761.45	237.93
761.78	237.91
762.11	237.78
762.43	237.64
762.76	237.40
763.08	237.40
763.41	237.26
763.74	237.34
764.06	237.26
764.39	237.07
764.71	236.84
765.04	236.78
765.37	236.63
765.69	236.49
766.02	236.33
766.34	236.30
766.67	236.20
767.00	236.22
767.32	236.20
767.65	236.27
767.97	236.22
768.30	236.31
768.62	236.19
768.95	236.04
769.27	236.02
769.60	236.02
769.92	235.81
770.25	235.77
770.57	235.47
770.90	235.38
771.22	235.38
771.55	235.40
771.87	235.35
772.20	235.31
772.52	235.44
772.85	235.65
773.17	235.54
773.50	235.42
773.82	235.20
774.15	235.00
774.47	234.72
774.80	234.68
775.12	234.57
775.45	234.52
775.77	234.58
776.09	234.46
776.42	234.37
776.74	234.43
777.07	234.30
777.39	234.41
777.72	234.32
778.04	234.31
778.36	234.18
778.69	234.08
779.01	234.04
779.33	233.77
779.66	233.46
779.98	233.46
780.31	233.40
780.63	233.46
780.95	233.47
781.28	233.46
781.60	233.37
781.92	233.28
782.25	233.26
782.57	233.16
782.89	233.18
783.22	233.17
783.54	233.12
783.86	233.18
784.19	232.98
784.51	232.95
784.83	232.81
785.16	232.90
785.48	232.85
785.80	232.88
786.12	232.93
786.45	233.05
786.77	232.97
787.09	232.99
787.42	232.91
787.74	232.80
788.06	232.72
788.38	232.60
788.71	232.53
789.03	232.45
789.35	232.42
789.67	232.32
789.99	232.35
790.32	232.21
790.64	232.08
790.96	232.27
791.28	232.16
791.61	232.16
791.93	232.10
792.25	232.04
792.57	232.06
792.89	231.94
793.21	231.80
793.54	231.65
793.86	231.62
794.18	231.54
