SpectraSuite Data File
++++++++++++++++++++++++++++++++++++
Date: Fri Feb 01 14:39:16 EST 2013
User: group
Dark Spectrum Present: No
Reference Spectrum Present: No
Number of Sampled Component Spectra: 1
Spectrometers: USB2E7196
Integration Time (usec): 70000 (USB2E7196)
Spectra Averaged: 10 (USB2E7196)
Boxcar Smoothing: 10 (USB2E7196)
Correct for Electrical Dark: No (USB2E7196)
Strobe/Lamp Enabled: No (USB2E7196)
Correct for Detector Non-linearity: No (USB2E7196)
Correct for Stray Light: No (USB2E7196)
Number of Pixels in Processed Spectrum: 2048
>>>>>Begin Processed Spectral Data<<<<<
339.09	0.00
339.48	215.00
339.86	217.70
340.24	220.00
340.63	220.90
341.01	226.40
341.39	223.90
341.78	224.40
342.16	227.10
342.54	226.60
342.93	215.00
343.31	225.86
343.69	226.40
344.07	226.90
344.46	227.38
344.84	227.63
345.22	227.70
345.60	227.85
345.99	228.00
346.37	227.99
346.75	227.99
347.13	227.92
347.52	227.85
347.90	227.83
348.28	227.87
348.66	227.77
349.05	227.63
349.43	227.62
349.81	227.63
350.19	227.54
350.57	227.44
350.96	227.35
351.34	227.37
351.72	227.49
352.10	227.54
352.48	227.44
352.87	227.50
353.25	227.51
353.63	227.60
354.01	227.76
354.39	227.82
354.77	227.90
355.15	228.13
355.54	228.16
355.92	228.24
356.30	228.24
356.68	228.50
357.06	228.60
357.44	228.72
357.82	228.79
358.20	228.87
358.58	229.02
358.97	229.13
359.35	229.21
359.73	229.28
360.11	229.26
360.49	229.32
360.87	229.48
361.25	229.52
361.63	229.59
362.01	229.49
362.39	229.50
362.77	229.56
363.15	229.58
363.53	229.64
363.91	229.64
364.29	229.72
364.67	229.57
365.05	229.62
365.43	229.64
365.81	229.74
366.19	229.88
366.57	229.99
366.95	229.89
367.33	229.75
367.71	229.75
368.09	229.91
368.47	229.94
368.85	229.81
369.23	229.82
369.61	229.80
369.99	229.88
370.37	229.87
370.75	229.95
371.13	229.79
371.51	229.76
371.89	229.66
372.27	229.60
372.65	229.64
373.03	229.58
373.41	229.52
373.78	229.43
374.16	229.25
374.54	229.10
374.92	229.20
375.30	229.20
375.68	229.09
376.06	228.92
376.44	228.80
376.82	228.86
377.19	228.84
377.57	228.70
377.95	228.54
378.33	228.58
378.71	228.34
379.09	228.38
379.47	228.37
379.84	228.24
380.22	228.17
380.60	228.07
380.98	228.00
381.36	227.92
381.73	227.82
382.11	227.81
382.49	227.69
382.87	227.55
383.25	227.53
383.62	227.65
384.00	227.49
384.38	227.42
384.76	227.36
385.13	227.35
385.51	227.30
385.89	227.28
386.27	227.19
386.64	227.23
387.02	227.14
387.40	227.10
387.78	227.20
388.15	227.11
388.53	226.99
388.91	226.87
389.29	226.77
389.66	226.82
390.04	226.77
390.42	226.78
390.79	226.73
391.17	226.69
391.55	226.45
391.92	226.45
392.30	226.44
392.68	226.34
393.05	226.30
393.43	226.28
393.81	226.32
394.18	226.21
394.56	226.20
394.94	226.24
395.31	226.09
395.69	226.07
396.06	226.20
396.44	226.26
396.82	226.31
397.19	226.37
397.57	226.36
397.95	226.38
398.32	226.42
398.70	226.53
399.07	226.66
399.45	226.63
399.82	226.74
400.20	226.68
400.58	226.77
400.95	226.71
401.33	226.81
401.70	226.97
402.08	227.04
402.45	227.00
402.83	227.20
403.20	227.33
403.58	227.44
403.95	227.58
404.33	227.70
404.71	227.85
405.08	228.05
405.46	228.11
405.83	228.28
406.21	228.51
406.58	228.57
406.96	228.70
407.33	228.92
407.70	229.04
408.08	229.53
408.45	229.75
408.83	230.11
409.20	230.29
409.58	230.38
409.95	230.73
410.33	231.10
410.70	231.22
411.08	231.61
411.45	232.04
411.82	232.28
412.20	232.66
412.57	233.07
412.95	233.40
413.32	233.90
413.69	234.30
414.07	234.72
414.44	235.36
414.82	235.82
415.19	236.59
415.56	237.25
415.94	237.79
416.31	238.40
416.68	238.97
417.06	239.88
417.43	240.62
417.81	241.52
418.18	242.56
418.55	243.42
418.93	244.31
419.30	245.15
419.67	246.25
420.04	247.36
420.42	248.56
420.79	249.97
421.16	251.23
421.54	252.58
421.91	253.90
422.28	255.20
422.66	256.63
423.03	258.09
423.40	259.49
423.77	261.07
424.15	262.73
424.52	264.35
424.89	266.10
425.26	267.80
425.64	269.44
426.01	271.05
426.38	272.91
426.75	274.94
427.13	276.93
427.50	278.92
427.87	280.95
428.24	283.00
428.61	284.82
428.99	287.09
429.36	289.47
429.73	291.70
430.10	293.99
430.47	296.44
430.85	298.74
431.22	301.40
431.59	304.19
431.96	306.73
432.33	309.67
432.70	312.45
433.08	315.70
433.45	318.60
433.82	321.76
434.19	325.17
434.56	328.47
434.93	331.46
435.30	334.46
435.68	337.94
436.05	341.16
436.42	344.59
436.79	347.49
437.16	350.65
437.53	354.10
437.90	357.50
438.27	360.78
438.64	364.08
439.01	367.26
439.38	369.81
439.75	372.63
440.13	375.63
440.50	378.37
440.87	380.87
441.24	383.22
441.61	385.67
441.98	387.56
442.35	389.75
442.72	392.26
443.09	394.53
443.46	395.84
443.83	396.80
444.20	397.48
444.57	398.65
444.94	399.17
445.31	399.80
445.68	400.51
446.05	400.81
446.42	400.75
446.79	400.39
447.16	400.13
447.53	399.79
447.90	398.77
448.27	397.77
448.64	395.96
449.01	395.13
449.37	393.09
449.74	391.20
450.11	388.84
450.48	386.02
450.85	383.44
451.22	381.15
451.59	379.01
451.96	376.85
452.33	374.00
452.70	371.51
453.07	368.23
453.43	364.82
453.80	361.63
454.17	358.58
454.54	355.66
454.91	352.59
455.28	349.67
455.65	346.65
456.02	343.94
456.38	341.48
456.75	338.33
457.12	335.73
457.49	333.07
457.86	330.51
458.23	328.46
458.59	326.05
458.96	323.59
459.33	321.43
459.70	319.33
460.07	317.50
460.43	315.43
460.80	313.65
461.17	312.02
461.54	310.29
461.91	308.46
462.27	306.79
462.64	305.33
463.01	303.53
463.38	302.13
463.74	300.37
464.11	299.04
464.48	297.80
464.85	296.50
465.21	295.45
465.58	294.21
465.95	292.76
466.32	291.52
466.68	290.46
467.05	289.30
467.42	288.20
467.78	287.06
468.15	285.97
468.52	285.08
468.88	284.05
469.25	283.01
469.62	282.31
469.98	281.44
470.35	280.61
470.72	279.98
471.08	279.03
471.45	278.24
471.82	277.56
472.18	276.75
472.55	276.20
472.92	275.42
473.28	274.80
473.65	274.27
474.02	273.58
474.38	272.91
474.75	272.32
475.11	271.75
475.48	271.23
475.85	270.73
476.21	270.17
476.58	269.69
476.94	269.45
477.31	269.08
477.67	268.63
478.04	268.17
478.41	267.75
478.77	267.65
479.14	267.34
479.50	266.99
479.87	266.72
480.23	266.39
480.60	266.17
480.96	265.89
481.33	265.73
481.69	265.60
482.06	265.41
482.42	265.27
482.79	265.10
483.15	265.03
483.52	265.00
483.88	264.93
484.25	264.87
484.61	264.66
484.98	264.54
485.34	264.60
485.71	264.57
486.07	264.62
486.44	264.46
486.80	264.50
487.17	264.52
487.53	264.53
487.90	264.56
488.26	264.66
488.62	264.66
488.99	264.54
489.35	264.65
489.72	264.77
490.08	264.88
490.44	264.99
490.81	265.16
491.17	265.36
491.54	265.54
491.90	265.65
492.26	265.91
492.63	266.07
492.99	266.14
493.36	266.49
493.72	266.74
494.08	267.00
494.45	267.23
494.81	267.55
495.17	267.81
495.54	268.18
495.90	268.50
496.26	268.96
496.63	269.39
496.99	269.76
497.35	270.14
497.72	270.57
498.08	270.93
498.44	271.30
498.80	271.69
499.17	272.07
499.53	272.52
499.89	272.90
500.26	273.39
500.62	273.97
500.98	274.43
501.34	275.01
501.71	275.62
502.07	276.24
502.43	276.76
502.79	277.57
503.16	278.20
503.52	278.80
503.88	279.49
504.24	280.32
504.60	281.10
504.97	281.90
505.33	282.74
505.69	283.75
506.05	284.65
506.41	285.71
506.78	286.85
507.14	287.86
507.50	289.00
507.86	290.20
508.22	291.49
508.59	292.81
508.95	294.12
509.31	295.54
509.67	297.01
510.03	298.54
510.39	300.02
510.75	301.62
511.12	303.33
511.48	305.04
511.84	306.80
512.20	308.60
512.56	310.62
512.92	312.56
513.28	314.52
513.64	316.70
514.00	318.85
514.37	321.07
514.73	323.58
515.09	326.03
515.45	328.52
515.81	330.98
516.17	333.70
516.53	336.38
516.89	339.05
517.25	341.93
517.61	345.00
517.97	347.94
518.33	351.29
518.69	354.51
519.05	358.00
519.41	361.44
519.77	365.10
520.13	368.77
520.49	372.56
520.85	376.48
521.21	380.52
521.57	384.77
521.93	388.75
522.29	393.00
522.65	397.20
523.01	401.58
523.37	406.00
523.73	410.46
524.09	414.95
524.45	419.58
524.81	424.39
525.17	429.29
525.53	434.53
525.89	439.22
526.25	444.63
526.61	449.86
526.97	455.23
527.33	460.50
527.68	466.11
528.04	471.69
528.40	477.29
528.76	483.06
529.12	488.70
529.48	494.80
529.84	500.59
530.20	507.03
530.56	513.23
530.91	519.61
531.27	526.05
531.63	532.77
531.99	539.37
532.35	545.95
532.71	552.50
533.07	559.04
533.42	566.17
533.78	572.79
534.14	579.50
534.50	586.29
534.86	593.33
535.21	599.83
535.57	606.98
535.93	614.28
536.29	621.33
536.65	628.56
537.00	635.60
537.36	643.15
537.72	650.21
538.08	657.57
538.44	664.59
538.79	672.00
539.15	678.98
539.51	686.53
539.87	693.99
540.22	701.36
540.58	709.17
540.94	716.34
541.29	723.73
541.65	731.27
542.01	739.05
542.37	746.56
542.72	754.38
543.08	761.64
543.44	769.22
543.79	776.42
544.15	783.84
544.51	791.60
544.87	798.96
545.22	806.36
545.58	813.46
545.94	820.83
546.29	828.12
546.65	835.45
547.01	842.30
547.36	849.16
547.72	856.05
548.07	862.69
548.43	869.72
548.79	876.55
549.14	883.19
549.50	889.65
549.86	896.20
550.21	902.59
550.57	909.73
550.92	916.18
551.28	922.78
551.64	928.78
551.99	935.20
552.35	941.44
552.70	947.59
553.06	953.92
553.41	960.50
553.77	966.44
554.13	972.77
554.48	978.93
554.84	985.13
555.19	991.59
555.55	997.50
555.90	1003.18
556.26	1009.49
556.61	1015.41
556.97	1021.12
557.32	1026.98
557.68	1032.62
558.03	1037.97
558.39	1043.49
558.74	1049.61
559.10	1055.79
559.45	1061.13
559.81	1066.84
560.16	1072.01
560.52	1077.22
560.87	1082.40
561.23	1087.67
561.58	1092.72
561.94	1098.06
562.29	1102.82
562.64	1107.30
563.00	1111.88
563.35	1117.06
563.71	1121.39
564.06	1126.67
564.42	1131.23
564.77	1135.85
565.12	1140.89
565.48	1145.37
565.83	1149.67
566.19	1153.58
566.54	1157.44
566.89	1161.46
567.25	1165.36
567.60	1170.10
567.96	1174.19
568.31	1177.75
568.66	1181.26
569.02	1184.85
569.37	1187.68
569.72	1190.75
570.08	1193.92
570.43	1197.13
570.78	1199.89
571.14	1202.50
571.49	1204.68
571.84	1207.99
572.20	1210.49
572.55	1212.46
572.90	1214.57
573.26	1216.76
573.61	1218.83
573.96	1220.96
574.31	1222.28
574.67	1223.30
575.02	1224.37
575.37	1225.76
575.72	1226.78
576.08	1227.93
576.43	1228.79
576.78	1230.26
577.13	1231.71
577.49	1232.62
577.84	1233.64
578.19	1234.35
578.54	1235.16
578.90	1235.59
579.25	1235.05
579.60	1235.06
579.95	1235.05
580.30	1234.71
580.66	1234.42
581.01	1233.89
581.36	1233.50
581.71	1233.72
582.06	1233.75
582.42	1233.43
582.77	1232.81
583.12	1232.24
583.47	1231.74
583.82	1231.58
584.17	1230.70
584.53	1230.08
584.88	1229.55
585.23	1228.99
585.58	1228.18
585.93	1227.31
586.28	1226.82
586.63	1226.39
586.98	1225.63
587.34	1224.93
587.69	1224.06
588.04	1223.33
588.39	1222.76
588.74	1221.39
589.09	1219.89
589.44	1218.23
589.79	1217.02
590.14	1215.91
590.49	1214.89
590.84	1213.34
591.19	1211.55
591.54	1209.44
591.89	1207.29
592.25	1205.50
592.60	1202.89
592.95	1200.49
593.30	1198.58
593.65	1195.76
594.00	1193.69
594.35	1191.82
594.70	1189.11
595.05	1187.18
595.40	1184.63
595.75	1181.59
596.10	1179.26
596.45	1177.02
596.80	1175.31
597.15	1172.75
597.50	1170.05
597.85	1167.72
598.19	1165.62
598.54	1163.52
598.89	1161.91
599.24	1160.12
599.59	1157.66
599.94	1155.71
600.29	1153.49
600.64	1150.82
600.99	1148.42
601.34	1145.70
601.69	1142.60
602.04	1140.56
602.39	1137.64
602.74	1135.39
603.08	1133.40
603.43	1131.12
603.78	1128.59
604.13	1125.60
604.48	1122.65
604.83	1120.34
605.18	1117.54
605.53	1114.23
605.87	1110.77
606.22	1107.58
606.57	1103.98
606.92	1100.98
607.27	1097.98
607.62	1095.41
607.96	1092.64
608.31	1089.92
608.66	1086.78
609.01	1083.50
609.36	1079.79
609.70	1076.03
610.05	1071.90
610.40	1068.00
610.75	1064.16
611.10	1060.11
611.44	1056.32
611.79	1052.87
612.14	1048.91
612.49	1044.57
612.83	1040.77
613.18	1037.16
613.53	1033.24
613.88	1029.37
614.22	1024.95
614.57	1020.72
614.92	1016.53
615.27	1012.58
615.61	1008.37
615.96	1004.33
616.31	1000.92
616.65	997.75
617.00	994.30
617.35	990.82
617.70	986.87
618.04	982.65
618.39	978.95
618.74	975.17
619.08	970.87
619.43	966.77
619.78	963.26
620.12	959.42
620.47	955.41
620.82	951.44
621.16	947.58
621.51	944.07
621.85	940.00
622.20	935.87
622.55	931.74
622.89	927.82
623.24	924.14
623.59	920.19
623.93	915.95
624.28	912.10
624.62	908.39
624.97	904.78
625.32	901.36
625.66	897.72
626.01	893.82
626.35	890.20
626.70	886.61
627.04	882.85
627.39	879.02
627.73	875.02
628.08	871.29
628.43	867.38
628.77	863.31
629.12	859.50
629.46	855.71
629.81	851.50
630.15	847.48
630.50	843.41
630.84	838.78
631.19	834.24
631.53	830.10
631.88	825.45
632.22	821.04
632.57	817.00
632.91	812.76
633.26	808.49
633.60	804.04
633.95	799.76
634.29	795.72
634.64	791.60
634.98	787.61
635.32	783.49
635.67	779.87
636.01	776.40
636.36	772.66
636.70	768.85
637.05	765.18
637.39	761.70
637.73	758.00
638.08	755.09
638.42	751.94
638.77	748.35
639.11	745.04
639.45	741.49
639.80	737.79
640.14	734.27
640.49	730.70
640.83	727.23
641.17	723.79
641.52	720.06
641.86	716.51
642.20	713.13
642.55	709.76
642.89	706.15
643.23	702.42
643.58	699.18
643.92	695.56
644.26	692.17
644.61	688.78
644.95	685.28
645.29	681.04
645.64	677.27
645.98	673.88
646.32	670.42
646.66	666.94
647.01	663.37
647.35	659.94
647.69	656.62
648.04	653.59
648.38	649.96
648.72	646.45
649.06	643.03
649.41	639.51
649.75	635.76
650.09	632.21
650.43	628.70
650.78	624.97
651.12	621.43
651.46	618.02
651.80	614.44
652.14	611.10
652.49	607.94
652.83	604.89
653.17	601.28
653.51	597.77
653.85	594.57
654.20	591.12
654.54	587.58
654.88	584.28
655.22	580.63
655.56	577.51
655.90	574.48
656.25	571.32
656.59	568.16
656.93	565.19
657.27	562.18
657.61	558.90
657.95	556.00
658.29	553.24
658.64	550.18
658.98	546.91
659.32	543.54
659.66	540.66
660.00	537.44
660.34	534.64
660.68	531.84
661.02	528.98
661.36	526.25
661.70	523.47
662.05	520.67
662.39	518.21
662.73	515.43
663.07	512.60
663.41	510.13
663.75	507.53
664.09	504.95
664.43	502.26
664.77	499.98
665.11	497.23
665.45	494.46
665.79	491.95
666.13	489.53
666.47	487.07
666.81	484.47
667.15	481.85
667.49	479.37
667.83	476.99
668.17	474.45
668.51	471.96
668.85	469.65
669.19	467.36
669.53	464.81
669.87	462.26
670.21	459.97
670.55	457.58
670.89	455.38
671.23	453.16
671.57	450.86
671.91	448.59
672.25	446.58
672.58	444.52
672.92	442.37
673.26	440.34
673.60	438.42
673.94	436.47
674.28	434.69
674.62	432.81
674.96	430.76
675.30	428.96
675.64	427.07
675.97	425.15
676.31	423.15
676.65	421.28
676.99	419.70
677.33	417.81
677.67	415.93
678.01	413.72
678.34	411.87
678.68	410.06
679.02	408.12
679.36	406.12
679.70	404.34
680.04	402.55
680.37	400.81
680.71	398.98
681.05	397.38
681.39	395.70
681.73	393.97
682.06	392.33
682.40	390.67
682.74	389.15
683.08	387.59
683.42	386.01
683.75	384.39
684.09	382.62
684.43	381.06
684.77	379.40
685.10	378.23
685.44	376.69
685.78	375.26
686.12	373.71
686.45	372.24
686.79	370.68
687.13	369.30
687.46	367.78
687.80	366.34
688.14	364.73
688.48	363.27
688.81	361.80
689.15	360.44
689.49	358.89
689.82	357.52
690.16	356.07
690.50	354.64
690.83	353.28
691.17	351.86
691.51	350.58
691.84	349.40
692.18	348.07
692.52	346.67
692.85	345.31
693.19	344.19
693.52	342.89
693.86	341.68
694.20	340.40
694.53	339.20
694.87	337.97
695.21	336.76
695.54	335.60
695.88	334.29
696.21	332.94
696.55	331.73
696.88	330.41
697.22	329.19
697.56	328.15
697.89	327.10
698.23	326.12
698.56	324.98
698.90	323.86
699.23	322.57
699.57	321.60
699.90	320.46
700.24	319.35
700.58	318.31
700.91	317.23
701.25	316.27
701.58	315.31
701.92	314.51
702.25	313.56
702.59	312.51
702.92	311.81
703.26	311.02
703.59	310.12
703.93	309.51
704.26	308.65
704.60	307.82
704.93	306.85
705.26	305.94
705.60	305.28
705.93	304.43
706.27	303.73
706.60	302.92
706.94	302.24
707.27	301.43
707.61	300.64
707.94	299.94
708.27	299.03
708.61	298.21
708.94	297.29
709.28	296.63
709.61	295.88
709.94	295.15
710.28	294.38
710.61	293.75
710.95	292.89
711.28	292.34
711.61	291.57
711.95	291.00
712.28	290.25
712.61	289.40
712.95	288.80
713.28	288.15
713.61	287.41
713.95	286.72
714.28	285.94
714.61	285.34
714.95	284.73
715.28	284.11
715.61	283.53
715.95	283.01
716.28	282.25
716.61	281.71
716.95	280.92
717.28	280.38
717.61	279.85
717.94	279.20
718.28	278.51
718.61	277.94
718.94	277.20
719.27	276.67
719.61	276.17
719.94	275.59
720.27	274.99
720.60	274.37
720.94	273.86
721.27	273.44
721.60	272.86
721.93	272.40
722.27	271.99
722.60	271.47
722.93	270.91
723.26	270.45
723.59	269.89
723.93	269.49
724.26	269.01
724.59	268.43
724.92	267.98
725.25	267.50
725.59	266.97
725.92	266.70
726.25	266.26
726.58	265.85
726.91	265.31
727.24	264.79
727.57	264.50
727.91	264.04
728.24	263.83
728.57	263.45
728.90	262.99
729.23	262.46
729.56	262.08
729.89	261.78
730.22	261.38
730.55	260.91
730.89	260.53
731.22	260.09
731.55	259.71
731.88	259.33
732.21	258.97
732.54	258.65
732.87	258.35
733.20	258.09
733.53	257.70
733.86	257.42
734.19	257.18
734.52	256.87
734.85	256.63
735.18	256.08
735.51	255.86
735.84	255.59
736.17	255.33
736.50	254.95
736.83	254.80
737.16	254.61
737.49	254.44
737.82	254.14
738.15	253.96
738.48	253.75
738.81	253.56
739.14	253.27
739.47	253.02
739.80	252.74
740.13	252.49
740.46	252.23
740.79	251.89
741.12	251.66
741.45	251.43
741.78	251.14
742.11	251.01
742.44	250.80
742.77	250.51
743.10	250.28
743.43	250.05
743.75	249.60
744.08	249.52
744.41	249.32
744.74	249.11
745.07	248.79
745.40	248.63
745.73	248.44
746.06	248.30
746.39	248.24
746.71	248.05
747.04	247.84
747.37	247.62
747.70	247.61
748.03	247.46
748.36	247.27
748.68	247.08
749.01	246.89
749.34	246.67
749.67	246.60
750.00	246.58
750.33	246.53
750.65	246.37
750.98	245.95
751.31	245.76
751.64	245.57
751.97	245.58
752.29	245.39
752.62	245.18
752.95	245.03
753.28	244.81
753.60	244.61
753.93	244.57
754.26	244.50
754.59	244.18
754.91	243.99
755.24	243.80
755.57	243.69
755.90	243.41
756.22	243.18
756.55	242.90
756.88	242.62
757.20	242.34
757.53	242.17
757.86	242.13
758.19	242.02
758.51	241.87
758.84	241.56
759.17	241.36
759.49	241.22
759.82	241.20
760.15	241.03
760.47	240.92
760.80	240.71
761.13	240.51
761.45	240.34
761.78	240.20
762.11	240.02
762.43	239.91
762.76	239.79
763.08	239.78
763.41	239.70
763.74	239.60
764.06	239.45
764.39	239.38
764.71	239.37
765.04	239.23
765.37	239.15
765.69	239.12
766.02	238.95
766.34	238.76
766.67	238.53
767.00	238.34
767.32	238.18
767.65	238.13
767.97	238.04
768.30	238.01
768.62	237.90
768.95	237.73
769.27	237.54
769.60	237.51
769.92	237.32
770.25	237.13
770.57	236.87
770.90	236.74
771.22	236.58
771.55	236.30
771.87	236.17
772.20	236.06
772.52	236.04
772.85	236.18
773.17	236.06
773.50	235.88
773.82	235.76
774.15	235.56
774.47	235.30
774.80	235.09
775.12	234.91
775.45	234.77
775.77	234.76
776.09	234.73
776.42	234.58
776.74	234.48
777.07	234.33
777.39	234.36
777.72	234.31
778.04	234.25
778.36	234.13
778.69	234.08
779.01	234.07
779.33	233.88
779.66	233.62
779.98	233.61
780.31	233.49
780.63	233.51
780.95	233.50
781.28	233.48
781.60	233.39
781.92	233.38
782.25	233.36
782.57	233.24
782.89	233.05
783.22	233.08
783.54	232.98
783.86	232.97
784.19	232.90
784.51	232.92
784.83	232.85
785.16	232.78
785.48	232.72
785.80	232.60
786.12	232.55
786.45	232.61
786.77	232.59
787.09	232.63
787.42	232.55
787.74	232.61
788.06	232.59
788.38	232.64
788.71	232.52
789.03	232.53
789.35	232.47
789.67	232.47
789.99	232.42
790.32	232.44
790.64	232.39
