SpectraSuite Data File
++++++++++++++++++++++++++++++++++++
Date: Fri Feb 01 14:35:54 EST 2013
User: group
Dark Spectrum Present: No
Reference Spectrum Present: No
Number of Sampled Component Spectra: 1
Spectrometers: USB2E7196
Integration Time (usec): 70000 (USB2E7196)
Spectra Averaged: 10 (USB2E7196)
Boxcar Smoothing: 10 (USB2E7196)
Correct for Electrical Dark: No (USB2E7196)
Strobe/Lamp Enabled: No (USB2E7196)
Correct for Detector Non-linearity: No (USB2E7196)
Correct for Stray Light: No (USB2E7196)
Number of Pixels in Processed Spectrum: 2048
>>>>>Begin Processed Spectral Data<<<<<
339.09	0.00
339.48	215.10
339.86	216.50
340.24	218.60
340.63	219.70
341.01	225.90
341.39	224.50
341.78	225.70
342.16	225.60
342.54	224.80
342.93	214.60
343.31	225.44
343.69	226.01
344.07	226.52
344.46	226.99
344.84	227.42
345.22	227.50
345.60	227.62
345.99	227.78
346.37	227.90
346.75	228.03
347.13	228.22
347.52	228.33
347.90	228.43
348.28	228.44
348.66	228.50
349.05	228.47
349.43	228.49
349.81	228.53
350.19	228.70
350.57	228.70
350.96	228.74
351.34	228.78
351.72	228.82
352.10	228.88
352.48	228.88
352.87	228.97
353.25	229.01
353.63	229.12
354.01	229.13
354.39	229.20
354.77	229.34
355.15	229.40
355.54	229.39
355.92	229.40
356.30	229.39
356.68	229.51
357.06	229.68
357.44	229.66
357.82	229.69
358.20	229.62
358.58	229.68
358.97	229.65
359.35	229.77
359.73	229.91
360.11	229.94
360.49	230.01
360.87	229.90
361.25	230.02
361.63	230.09
362.01	230.14
362.39	230.12
362.77	230.10
363.15	230.06
363.53	230.09
363.91	230.11
364.29	230.08
364.67	229.84
365.05	229.68
365.43	229.76
365.81	229.70
366.19	229.82
366.57	229.90
366.95	229.90
367.33	229.85
367.71	229.80
368.09	229.80
368.47	229.79
368.85	229.80
369.23	229.71
369.61	229.65
369.99	229.67
370.37	229.66
370.75	229.60
371.13	229.50
371.51	229.44
371.89	229.42
372.27	229.33
372.65	229.33
373.03	229.30
373.41	229.26
373.78	229.23
374.16	229.02
374.54	228.81
374.92	228.71
375.30	228.58
375.68	228.56
376.06	228.56
376.44	228.46
376.82	228.47
377.19	228.43
377.57	228.29
377.95	228.21
378.33	228.20
378.71	228.00
379.09	228.06
379.47	228.03
379.84	227.98
380.22	227.89
380.60	227.82
380.98	227.77
381.36	227.59
381.73	227.57
382.11	227.56
382.49	227.58
382.87	227.52
383.25	227.53
383.62	227.62
384.00	227.46
384.38	227.32
384.76	227.27
385.13	227.47
385.51	227.39
385.89	227.30
386.27	227.29
386.64	227.46
387.02	227.38
387.40	227.26
387.78	227.20
388.15	227.35
388.53	227.40
388.91	227.35
389.29	227.43
389.66	227.47
390.04	227.48
390.42	227.50
390.79	227.54
391.17	227.58
391.55	227.39
391.92	227.41
392.30	227.62
392.68	227.53
393.05	227.40
393.43	227.57
393.81	227.57
394.18	227.44
394.56	227.37
394.94	227.36
395.31	227.52
395.69	227.65
396.06	227.64
396.44	227.64
396.82	227.79
397.19	228.01
397.57	228.09
397.95	228.16
398.32	228.07
398.70	228.17
399.07	228.21
399.45	228.31
399.82	228.46
400.20	228.40
400.58	228.56
400.95	228.56
401.33	228.61
401.70	228.84
402.08	229.01
402.45	229.15
402.83	229.36
403.20	229.50
403.58	229.63
403.95	229.82
404.33	230.05
404.71	230.13
405.08	230.36
405.46	230.51
405.83	230.84
406.21	231.15
406.58	231.37
406.96	231.53
407.33	231.81
407.70	232.10
408.08	232.79
408.45	233.16
408.83	233.62
409.20	234.06
409.58	234.45
409.95	234.94
410.33	235.62
410.70	236.18
411.08	236.76
411.45	237.32
411.82	237.99
412.20	238.67
412.57	239.50
412.95	240.11
413.32	240.99
413.69	241.69
414.07	242.72
414.44	243.80
414.82	244.96
415.19	246.18
415.56	247.50
415.94	248.63
416.31	250.15
416.68	251.50
417.06	253.10
417.43	254.58
417.81	256.33
418.18	258.04
418.55	260.01
418.93	261.98
419.30	264.15
419.67	266.31
420.04	268.59
420.42	271.21
420.79	274.10
421.16	276.89
421.54	279.90
421.91	282.80
422.28	285.95
422.66	289.26
423.03	292.38
423.40	295.81
423.77	299.35
424.15	302.85
424.52	306.78
424.89	310.85
425.26	314.92
425.64	318.70
426.01	322.83
426.38	326.96
426.75	331.48
427.13	336.00
427.50	340.74
427.87	345.64
428.24	350.36
428.61	354.96
428.99	360.10
429.36	365.71
429.73	371.29
430.10	376.60
430.47	382.06
430.85	388.04
431.22	393.99
431.59	400.40
431.96	406.65
432.33	413.44
432.70	420.02
433.08	427.64
433.45	435.03
433.82	442.33
434.19	450.52
434.56	458.25
434.93	465.67
435.30	473.13
435.68	481.46
436.05	489.72
436.42	497.58
436.79	505.05
437.16	512.85
437.53	521.12
437.90	529.41
438.27	537.54
438.64	545.80
439.01	553.35
439.38	560.15
439.75	566.77
440.13	574.38
440.50	581.80
440.87	587.98
441.24	594.16
441.61	601.11
441.98	606.36
442.35	612.40
442.72	618.67
443.09	624.66
443.46	628.47
443.83	630.97
444.20	633.65
444.57	636.96
444.94	638.94
445.31	641.01
445.68	643.11
446.05	644.59
446.42	644.82
446.79	644.99
447.16	645.06
447.53	645.38
447.90	643.20
448.27	640.95
448.64	637.58
449.01	635.48
449.37	630.78
449.74	626.28
450.11	620.76
450.48	614.61
450.85	608.52
451.22	603.50
451.59	598.77
451.96	594.04
452.33	587.48
452.70	581.53
453.07	574.19
453.43	566.77
453.80	559.54
454.17	552.43
454.54	545.93
454.91	538.52
455.28	531.30
455.65	524.69
456.02	517.97
456.38	512.10
456.75	504.78
457.12	498.78
457.49	492.70
457.86	486.95
458.23	481.98
458.59	476.30
458.96	470.24
459.33	465.12
459.70	460.02
460.07	455.86
460.43	451.17
460.80	446.74
461.17	442.73
461.54	438.46
461.91	434.47
462.27	430.25
462.64	426.85
463.01	423.18
463.38	419.64
463.74	416.02
464.11	412.88
464.48	410.13
464.85	407.03
465.21	404.64
465.58	401.92
465.95	398.84
466.32	396.19
466.68	393.78
467.05	391.26
467.42	388.65
467.78	385.90
468.15	383.26
468.52	381.37
468.88	378.75
469.25	376.50
469.62	374.70
469.98	372.82
470.35	371.11
470.72	369.33
471.08	367.36
471.45	365.66
471.82	363.90
472.18	362.04
472.55	360.68
472.92	359.11
473.28	357.89
473.65	356.54
474.02	355.25
474.38	354.10
474.75	353.01
475.11	351.90
475.48	351.11
475.85	350.38
476.21	349.50
476.58	348.98
476.94	348.53
477.31	347.81
477.67	347.07
478.04	346.51
478.41	346.12
478.77	345.95
479.14	345.45
479.50	345.17
479.87	345.09
480.23	345.06
480.60	344.83
480.96	344.61
481.33	344.65
481.69	344.69
482.06	344.59
482.42	344.50
482.79	344.60
483.15	344.77
483.52	345.08
483.88	345.32
484.25	345.53
484.61	345.75
484.98	346.09
485.34	346.70
485.71	347.16
486.07	347.76
486.44	348.11
486.80	348.70
487.17	349.40
487.53	350.19
487.90	350.95
488.26	351.77
488.62	352.66
488.99	353.55
489.35	354.59
489.72	355.66
490.08	356.95
490.44	358.11
490.81	359.34
491.17	360.58
491.54	361.90
491.90	363.29
492.26	364.74
492.63	366.30
492.99	367.68
493.36	369.19
493.72	370.80
494.08	372.46
494.45	374.42
494.81	376.45
495.17	378.21
495.54	379.83
495.90	381.84
496.26	383.70
496.63	385.57
496.99	387.59
497.35	389.72
497.72	391.52
498.08	393.53
498.44	395.56
498.80	397.90
499.17	399.91
499.53	401.89
499.89	404.09
500.26	406.00
500.62	408.21
500.98	410.31
501.34	412.30
501.71	414.40
502.07	416.30
502.43	418.01
502.79	420.00
503.16	422.10
503.52	424.10
503.88	426.12
504.24	428.29
504.60	430.34
504.97	432.24
505.33	434.24
505.69	436.40
506.05	438.34
506.41	439.73
506.78	441.43
507.14	443.30
507.50	444.81
507.86	446.63
508.22	448.20
508.59	449.77
508.95	451.42
509.31	453.00
509.67	454.63
510.03	456.07
510.39	457.37
510.75	458.81
511.12	460.03
511.48	461.25
511.84	462.35
512.20	463.27
512.56	464.48
512.92	465.72
513.28	466.53
513.64	467.30
514.00	468.40
514.37	469.55
514.73	470.34
515.09	471.29
515.45	472.07
515.81	472.93
516.17	473.56
516.53	474.23
516.89	474.78
517.25	475.28
517.61	476.08
517.97	476.67
518.33	477.15
518.69	477.72
519.05	478.40
519.41	479.02
519.77	479.79
520.13	480.19
520.49	480.56
520.85	481.10
521.21	481.77
521.57	482.24
521.93	482.57
522.29	483.22
522.65	483.68
523.01	484.13
523.37	484.43
523.73	485.08
524.09	485.72
524.45	486.45
524.81	487.10
525.17	487.78
525.53	488.54
525.89	489.30
526.25	490.13
526.61	490.78
526.97	491.41
527.33	492.20
527.68	493.30
528.04	494.36
528.40	495.48
528.76	496.51
529.12	497.80
529.48	499.16
529.84	500.38
530.20	501.84
530.56	503.40
530.91	505.07
531.27	506.66
531.63	507.97
531.99	509.66
532.35	511.46
532.71	513.04
533.07	514.94
533.42	516.88
533.78	518.68
534.14	520.62
534.50	522.76
534.86	524.87
535.21	526.76
535.57	528.90
535.93	531.15
536.29	533.62
536.65	535.89
537.00	538.25
537.36	540.69
537.72	543.28
538.08	545.85
538.44	548.44
538.79	551.13
539.15	553.85
539.51	556.65
539.87	559.52
540.22	562.57
540.58	565.65
540.94	568.58
541.29	571.59
541.65	574.89
542.01	578.14
542.37	581.39
542.72	584.69
543.08	587.94
543.44	591.00
543.79	594.05
544.15	597.57
544.51	600.99
544.87	604.63
545.22	608.00
545.58	611.50
545.94	614.84
546.29	618.30
546.65	621.95
547.01	625.27
547.36	628.76
547.72	632.09
548.07	635.54
548.43	639.01
548.79	642.53
549.14	645.88
549.50	649.41
549.86	652.93
550.21	656.45
550.57	660.16
550.92	663.97
551.28	667.43
551.64	671.07
551.99	674.73
552.35	678.11
552.70	681.83
553.06	685.57
553.41	689.26
553.77	692.86
554.13	696.87
554.48	700.80
554.84	704.26
555.19	708.09
555.55	711.71
555.90	715.55
556.26	719.54
556.61	723.31
556.97	726.80
557.32	730.37
557.68	734.06
558.03	737.70
558.39	741.41
558.74	745.41
559.10	748.88
559.45	752.48
559.81	756.16
560.16	759.78
560.52	763.37
560.87	767.18
561.23	770.84
561.58	774.29
561.94	777.75
562.29	781.34
562.64	784.73
563.00	788.14
563.35	791.70
563.71	795.27
564.06	798.62
564.42	801.99
564.77	805.50
565.12	808.94
565.48	812.45
565.83	815.56
566.19	818.93
566.54	822.23
566.89	825.30
567.25	828.66
567.60	831.99
567.96	834.82
568.31	837.96
568.66	840.69
569.02	843.20
569.37	845.82
569.72	848.77
570.08	851.45
570.43	854.10
570.78	856.53
571.14	858.37
571.49	860.93
571.84	863.73
572.20	866.08
572.55	868.31
572.90	870.12
573.26	872.14
573.61	874.16
573.96	875.93
574.31	877.40
574.67	878.59
575.02	879.43
575.37	880.83
575.72	881.60
576.08	883.20
576.43	884.40
576.78	885.75
577.13	887.01
577.49	887.87
577.84	888.73
578.19	889.57
578.54	890.76
578.90	891.42
579.25	891.44
579.60	892.01
579.95	892.20
580.30	892.55
580.66	893.06
581.01	893.28
581.36	893.62
581.71	894.51
582.06	894.82
582.42	894.96
582.77	895.23
583.12	895.71
583.47	895.72
583.82	895.88
584.17	895.74
584.53	895.72
584.88	895.90
585.23	895.71
585.58	895.71
585.93	895.70
586.28	895.65
586.63	896.09
586.98	895.69
587.34	895.77
587.69	895.76
588.04	895.70
588.39	895.41
588.74	894.76
589.09	894.13
589.44	893.41
589.79	893.29
590.14	893.04
590.49	892.57
590.84	892.04
591.19	891.30
591.54	890.37
591.89	888.83
592.25	888.14
592.60	886.95
592.95	885.60
593.30	883.97
593.65	882.75
594.00	881.27
594.35	880.80
594.70	879.15
595.05	877.86
595.40	876.23
595.75	874.70
596.10	873.64
596.45	872.20
596.80	871.14
597.15	869.95
597.50	868.13
597.85	866.70
598.19	865.16
598.54	864.10
598.89	862.71
599.24	861.80
599.59	860.21
599.94	858.99
600.29	857.59
600.64	856.47
600.99	854.80
601.34	853.26
601.69	850.80
602.04	849.42
602.39	847.74
602.74	846.15
603.08	844.59
603.43	843.07
603.78	841.37
604.13	839.87
604.48	837.92
604.83	836.37
605.18	834.13
605.53	832.25
605.87	830.02
606.22	828.30
606.57	826.14
606.92	824.14
607.27	822.57
607.62	820.91
607.96	819.08
608.31	817.24
608.66	815.24
609.01	813.25
609.36	810.91
609.70	808.30
610.05	805.79
610.40	803.70
610.75	800.91
611.10	798.62
611.44	795.54
611.79	793.24
612.14	790.54
612.49	788.06
612.83	785.25
613.18	782.67
613.53	780.04
613.88	777.25
614.22	774.62
614.57	771.75
614.92	768.86
615.27	766.16
615.61	763.32
615.96	760.62
616.31	758.11
616.65	755.86
617.00	753.70
617.35	751.37
617.70	748.48
618.04	745.84
618.39	742.87
618.74	740.34
619.08	737.47
619.43	734.97
619.78	732.50
620.12	729.76
620.47	727.15
620.82	724.17
621.16	721.66
621.51	718.97
621.85	716.20
622.20	713.46
622.55	710.60
622.89	707.92
623.24	705.16
623.59	702.69
623.93	700.04
624.28	697.26
624.62	694.61
624.97	692.08
625.32	689.77
625.66	687.48
626.01	685.31
626.35	682.80
626.70	680.07
627.04	677.55
627.39	675.21
627.73	672.62
628.08	670.19
628.43	667.69
628.77	665.07
629.12	662.50
629.46	659.65
629.81	656.97
630.15	654.18
630.50	651.63
630.84	648.47
631.19	645.50
631.53	642.78
631.88	639.66
632.22	636.63
632.57	633.88
632.91	630.92
633.26	627.96
633.60	625.13
633.95	622.56
634.29	619.92
634.64	617.30
634.98	614.81
635.32	612.33
635.67	609.87
636.01	607.46
636.36	604.84
636.70	602.62
637.05	600.27
637.39	598.04
637.73	595.53
638.08	593.65
638.42	591.35
638.77	588.99
639.11	586.91
639.45	584.71
639.80	582.14
640.14	579.99
640.49	577.71
640.83	575.27
641.17	572.97
641.52	570.51
641.86	568.12
642.20	565.67
642.55	563.48
642.89	561.03
643.23	558.62
643.58	556.48
643.92	554.00
644.26	551.73
644.61	549.65
644.95	547.29
645.29	544.24
645.64	541.75
645.98	539.46
646.32	537.16
646.66	534.70
647.01	532.50
647.35	530.16
647.69	527.82
648.04	525.86
648.38	523.44
648.72	521.03
649.06	518.75
649.41	516.28
649.75	513.78
650.09	511.35
650.43	508.93
650.78	506.55
651.12	504.41
651.46	502.25
651.80	499.91
652.14	497.76
652.49	495.93
652.83	493.99
653.17	491.62
653.51	489.34
653.85	487.23
654.20	484.92
654.54	482.60
654.88	480.39
655.22	477.89
655.56	475.74
655.90	473.64
656.25	471.43
656.59	469.38
656.93	467.29
657.27	465.28
657.61	463.27
657.95	461.28
658.29	459.29
658.64	457.00
658.98	454.72
659.32	452.48
659.66	450.42
660.00	448.37
660.34	446.40
660.68	444.38
661.02	442.29
661.36	440.30
661.70	438.39
662.05	436.51
662.39	434.72
662.73	432.77
663.07	430.91
663.41	429.29
663.75	427.47
664.09	425.81
664.43	424.10
664.77	422.31
665.11	420.46
665.45	418.57
665.79	416.80
666.13	414.99
666.47	413.35
666.81	411.52
667.15	409.58
667.49	407.91
667.83	406.38
668.17	404.89
668.51	403.23
668.85	401.50
669.19	400.03
669.53	398.33
669.87	396.65
670.21	395.03
670.55	393.35
670.89	391.84
671.23	390.12
671.57	388.63
671.91	387.10
672.25	385.60
672.58	384.25
672.92	382.87
673.26	381.60
673.60	380.11
673.94	378.75
674.28	377.54
674.62	376.32
674.96	374.93
675.30	373.54
675.64	372.24
675.97	371.02
676.31	369.72
676.65	368.54
676.99	367.47
677.33	366.20
677.67	364.86
678.01	363.58
678.34	362.20
678.68	360.86
679.02	359.61
679.36	358.40
679.70	357.12
680.04	355.81
680.37	354.49
680.71	353.38
681.05	352.24
681.39	351.10
681.73	349.71
682.06	348.53
682.40	347.52
682.74	346.62
683.08	345.60
683.42	344.33
683.75	343.28
684.09	342.08
684.43	341.12
684.77	340.03
685.10	339.00
685.44	338.14
685.78	337.12
686.12	336.11
686.45	335.00
686.79	333.86
687.13	332.97
687.46	332.01
687.80	331.00
688.14	330.03
688.48	329.00
688.81	328.13
689.15	327.21
689.49	326.08
689.82	324.97
690.16	324.00
690.50	323.11
690.83	322.05
691.17	321.04
691.51	320.02
691.84	319.30
692.18	318.27
692.52	317.30
692.85	316.40
693.19	315.43
693.52	314.67
693.86	313.76
694.20	312.80
694.53	311.98
694.87	311.16
695.21	310.17
695.54	309.27
695.88	308.32
696.21	307.52
696.55	306.70
696.88	305.92
697.22	305.06
697.56	304.27
697.89	303.59
698.23	302.77
698.56	302.13
698.90	301.21
699.23	300.41
699.57	299.56
699.90	298.85
700.24	298.10
700.58	297.23
700.91	296.64
701.25	296.04
701.58	295.26
701.92	294.50
702.25	293.84
702.59	293.23
702.92	292.57
703.26	291.95
703.59	291.30
703.93	290.72
704.26	290.01
704.60	289.37
704.93	288.67
705.26	288.10
705.60	287.33
705.93	286.71
706.27	286.33
706.60	285.89
706.94	285.25
707.27	284.66
707.61	284.13
707.94	283.48
708.27	282.70
708.61	282.19
708.94	281.60
709.28	281.07
709.61	280.44
709.94	279.97
710.28	279.30
710.61	278.60
710.95	277.74
711.28	277.19
711.61	276.53
711.95	275.88
712.28	275.31
712.61	274.88
712.95	274.36
713.28	273.73
713.61	273.08
713.95	272.48
714.28	271.93
714.61	271.38
714.95	270.87
715.28	270.43
715.61	269.85
715.95	269.41
716.28	268.82
716.61	268.47
716.95	267.89
717.28	267.33
717.61	267.09
717.94	266.83
718.28	266.37
718.61	266.01
718.94	265.66
719.27	265.13
719.61	264.59
719.94	264.17
720.27	263.73
720.60	263.34
720.94	263.02
721.27	262.70
721.60	262.41
721.93	261.97
722.27	261.63
722.60	261.20
722.93	260.81
723.26	260.59
723.59	260.13
723.93	259.86
724.26	259.64
724.59	259.38
724.92	259.08
725.25	258.82
725.59	258.40
725.92	258.03
726.25	257.81
726.58	257.58
726.91	257.23
727.24	256.89
727.57	256.61
727.91	256.22
728.24	255.93
728.57	255.70
728.90	255.46
729.23	255.07
729.56	254.95
729.89	254.71
730.22	254.48
730.55	254.21
730.89	253.95
731.22	253.59
731.55	253.13
731.88	252.90
732.21	252.54
732.54	252.32
732.87	252.16
733.20	251.97
733.53	251.74
733.86	251.57
734.19	251.35
734.52	251.16
734.85	251.17
735.18	250.91
735.51	250.77
735.84	250.59
736.17	250.43
736.50	250.17
736.83	250.14
737.16	249.89
737.49	249.79
737.82	249.59
738.15	249.40
738.48	249.26
738.81	249.04
739.14	248.93
739.47	248.83
739.80	248.75
740.13	248.61
740.46	248.43
740.79	248.26
741.12	248.09
741.45	247.98
741.78	247.77
742.11	247.75
742.44	247.45
742.77	247.27
743.10	247.10
743.43	246.89
743.75	246.45
744.08	246.43
744.41	246.21
744.74	246.03
745.07	245.78
745.40	245.72
745.73	245.68
746.06	245.47
746.39	245.37
746.71	245.10
747.04	244.90
747.37	244.65
747.70	244.51
748.03	244.36
748.36	244.21
748.68	243.96
749.01	243.63
749.34	243.47
749.67	243.34
750.00	243.20
750.33	243.18
750.65	243.20
750.98	242.80
751.31	242.57
751.64	242.41
751.97	242.44
752.29	242.23
752.62	241.84
752.95	241.68
753.28	241.43
753.60	241.33
753.93	241.18
754.26	241.06
754.59	240.84
754.91	240.61
755.24	240.45
755.57	240.19
755.90	239.98
756.22	239.74
756.55	239.55
756.88	239.37
757.20	239.08
757.53	238.88
757.86	238.84
758.19	238.70
758.51	238.55
758.84	238.30
759.17	238.14
759.49	238.12
759.82	238.17
760.15	237.95
760.47	237.81
760.80	237.58
761.13	237.48
761.45	237.35
761.78	237.22
762.11	237.13
762.43	237.06
762.76	236.97
763.08	236.92
763.41	236.89
763.74	236.87
764.06	236.75
764.39	236.63
764.71	236.39
765.04	236.30
765.37	236.17
765.69	236.13
766.02	236.00
766.34	235.80
766.67	235.55
767.00	235.64
767.32	235.58
767.65	235.71
767.97	235.59
768.30	235.50
768.62	235.44
768.95	235.17
769.27	235.11
769.60	235.02
769.92	234.88
770.25	234.69
770.57	234.45
770.90	234.38
771.22	234.21
771.55	234.23
771.87	234.19
772.20	234.10
772.52	234.17
772.85	234.33
773.17	234.27
773.50	234.19
773.82	234.01
774.15	233.82
774.47	233.58
774.80	233.46
775.12	233.38
775.45	233.36
775.77	233.35
776.09	233.36
776.42	233.31
776.74	233.39
777.07	233.30
777.39	233.34
777.72	233.33
778.04	233.34
778.36	233.26
778.69	233.26
779.01	233.27
779.33	233.08
779.66	232.85
779.98	232.82
780.31	232.85
780.63	232.90
780.95	232.92
781.28	232.94
781.60	232.97
781.92	233.00
782.25	232.96
782.57	233.00
782.89	232.85
783.22	232.85
783.54	232.68
783.86	232.62
784.19	232.60
784.51	232.55
784.83	232.52
785.16	232.46
785.48	232.39
785.80	232.39
786.12	232.35
786.45	232.32
786.77	232.32
787.09	232.22
787.42	232.23
787.74	232.18
788.06	232.14
788.38	232.11
788.71	232.14
789.03	232.12
789.35	232.09
789.67	232.14
789.99	232.14
790.32	232.16
790.64	232.28
790.96	232.31
791.28	232.31
791.61	232.24
791.93	232.22
792.25	232.20
792.57	232.13
792.89	231.99
793.21	231.97
793.54	231.92
793.86	231.91
794.18	231.78
