SpectraSuite Data File
++++++++++++++++++++++++++++++++++++
Date: Fri Feb 01 14:36:47 EST 2013
User: group
Dark Spectrum Present: No
Reference Spectrum Present: No
Number of Sampled Component Spectra: 1
Spectrometers: USB2E7196
Integration Time (usec): 70000 (USB2E7196)
Spectra Averaged: 10 (USB2E7196)
Boxcar Smoothing: 10 (USB2E7196)
Correct for Electrical Dark: No (USB2E7196)
Strobe/Lamp Enabled: No (USB2E7196)
Correct for Detector Non-linearity: No (USB2E7196)
Correct for Stray Light: No (USB2E7196)
Number of Pixels in Processed Spectrum: 2048
>>>>>Begin Processed Spectral Data<<<<<
339.09	0.00
339.48	216.40
339.86	216.30
340.24	216.70
340.63	218.90
341.01	225.90
341.39	222.90
341.78	223.20
342.16	224.90
342.54	227.50
342.93	214.46
343.31	225.28
343.69	225.84
344.07	226.44
344.46	226.96
344.84	227.41
345.22	227.57
345.60	227.86
345.99	228.11
346.37	228.26
346.75	228.33
347.13	228.44
347.52	228.38
347.90	228.46
348.28	228.45
348.66	228.47
349.05	228.55
349.43	228.54
349.81	228.52
350.19	228.47
350.57	228.57
350.96	228.60
351.34	228.69
351.72	228.73
352.10	228.78
352.48	228.84
352.87	228.93
353.25	228.92
353.63	228.93
354.01	228.96
354.39	229.12
354.77	229.15
355.15	229.32
355.54	229.53
355.92	229.47
356.30	229.57
356.68	229.75
357.06	229.81
357.44	229.84
357.82	230.00
358.20	230.10
358.58	230.30
358.97	230.36
359.35	230.39
359.73	230.49
360.11	230.51
360.49	230.61
360.87	230.58
361.25	230.68
361.63	230.75
362.01	230.80
362.39	230.72
362.77	230.75
363.15	230.88
363.53	230.77
363.91	230.79
364.29	230.77
364.67	230.59
365.05	230.63
365.43	230.65
365.81	230.68
366.19	230.70
366.57	230.71
366.95	230.73
367.33	230.79
367.71	230.81
368.09	230.75
368.47	230.65
368.85	230.64
369.23	230.60
369.61	230.62
369.99	230.64
370.37	230.75
370.75	230.80
371.13	230.59
371.51	230.58
371.89	230.56
372.27	230.52
372.65	230.54
373.03	230.43
373.41	230.32
373.78	230.24
374.16	230.06
374.54	229.95
374.92	229.82
375.30	229.69
375.68	229.51
376.06	229.53
376.44	229.51
376.82	229.52
377.19	229.40
377.57	229.24
377.95	229.16
378.33	228.99
378.71	228.79
379.09	228.76
379.47	228.77
379.84	228.69
380.22	228.61
380.60	228.42
380.98	228.42
381.36	228.40
381.73	228.27
382.11	228.20
382.49	227.93
382.87	227.83
383.25	227.75
383.62	227.90
384.00	227.83
384.38	227.76
384.76	227.70
385.13	227.78
385.51	227.71
385.89	227.55
386.27	227.47
386.64	227.37
387.02	227.33
387.40	227.21
387.78	227.15
388.15	227.03
388.53	227.07
388.91	226.96
389.29	226.88
389.66	226.80
390.04	226.84
390.42	227.02
390.79	227.03
391.17	226.96
391.55	226.79
391.92	226.71
392.30	226.76
392.68	226.66
393.05	226.69
393.43	226.69
393.81	226.72
394.18	226.66
394.56	226.80
394.94	226.93
395.31	226.91
395.69	226.96
396.06	227.00
396.44	227.02
396.82	227.00
397.19	227.20
397.57	227.21
397.95	227.23
398.32	227.20
398.70	227.20
399.07	227.36
399.45	227.38
399.82	227.43
400.20	227.32
400.58	227.39
400.95	227.27
401.33	227.41
401.70	227.74
402.08	227.86
402.45	227.95
402.83	228.06
403.20	228.21
403.58	228.37
403.95	228.63
404.33	228.86
404.71	229.04
405.08	229.21
405.46	229.51
405.83	229.77
406.21	229.94
406.58	230.21
406.96	230.39
407.33	230.68
407.70	230.99
408.08	231.65
408.45	232.10
408.83	232.47
409.20	232.79
409.58	232.99
409.95	233.47
410.33	233.91
410.70	234.27
411.08	234.76
411.45	235.28
411.82	235.78
412.20	236.47
412.57	237.31
412.95	237.88
413.32	238.61
413.69	239.35
414.07	240.23
414.44	241.12
414.82	242.11
415.19	243.19
415.56	244.21
415.94	245.10
416.31	246.22
416.68	247.50
417.06	248.93
417.43	250.30
417.81	251.91
418.18	253.44
418.55	255.06
418.93	256.91
419.30	258.63
419.67	260.54
420.04	262.32
420.42	264.19
420.79	266.54
421.16	268.76
421.54	271.17
421.91	273.55
422.28	276.14
422.66	278.85
423.03	281.37
423.40	284.06
423.77	287.05
424.15	290.06
424.52	293.08
424.89	296.39
425.26	299.56
425.64	302.53
426.01	305.73
426.38	309.20
426.75	312.60
427.13	316.21
427.50	320.12
427.87	324.06
428.24	327.98
428.61	331.66
428.99	335.95
429.36	340.40
429.73	344.89
430.10	349.26
430.47	353.72
430.85	358.42
431.22	363.29
431.59	368.42
431.96	373.25
432.33	378.78
432.70	384.10
433.08	390.37
433.45	396.00
433.82	401.89
434.19	408.53
434.56	414.90
434.93	421.08
435.30	427.08
435.68	433.77
436.05	440.30
436.42	446.82
436.79	452.69
437.16	459.07
437.53	465.65
437.90	472.07
438.27	478.64
438.64	485.41
439.01	491.85
439.38	497.40
439.75	502.99
440.13	509.06
440.50	514.87
440.87	519.74
441.24	524.82
441.61	530.48
441.98	534.48
442.35	539.14
442.72	544.05
443.09	548.66
443.46	551.68
443.83	553.93
444.20	555.90
444.57	558.71
444.94	560.16
445.31	562.06
445.68	563.78
446.05	564.75
446.42	564.91
446.79	564.84
447.16	564.70
447.53	565.01
447.90	563.24
448.27	561.50
448.64	558.60
449.01	557.20
449.37	553.32
449.74	549.88
450.11	545.83
450.48	540.88
450.85	536.02
451.22	531.91
451.59	527.96
451.96	524.23
452.33	518.87
452.70	514.17
453.07	507.95
453.43	502.07
453.80	496.18
454.17	490.38
454.54	485.06
454.91	479.21
455.28	473.22
455.65	467.95
456.02	462.56
456.38	457.84
456.75	451.75
457.12	447.07
457.49	442.07
457.86	437.02
458.23	433.04
458.59	428.50
458.96	423.83
459.33	419.75
459.70	415.58
460.07	412.23
460.43	408.34
460.80	404.80
461.17	401.59
461.54	398.37
461.91	395.21
462.27	391.87
462.64	389.11
463.01	386.04
463.38	383.16
463.74	380.12
464.11	377.66
464.48	375.44
464.85	372.80
465.21	370.86
465.58	368.93
465.95	366.43
466.32	364.30
466.68	362.27
467.05	360.17
467.42	358.02
467.78	355.86
468.15	353.66
468.52	352.11
468.88	350.08
469.25	348.16
469.62	346.81
469.98	345.04
470.35	343.52
470.72	342.00
471.08	340.38
471.45	339.03
471.82	337.67
472.18	336.05
472.55	334.90
472.92	333.53
473.28	332.29
473.65	330.99
474.02	329.74
474.38	328.69
474.75	327.78
475.11	326.83
475.48	325.99
475.85	325.41
476.21	324.74
476.58	324.02
476.94	323.51
477.31	322.61
477.67	322.08
478.04	321.50
478.41	321.02
478.77	320.70
479.14	320.18
479.50	319.71
479.87	319.51
480.23	319.36
480.60	319.13
480.96	318.69
481.33	318.48
481.69	318.38
482.06	318.12
482.42	317.82
482.79	317.64
483.15	317.68
483.52	317.76
483.88	317.67
484.25	317.70
484.61	317.83
484.98	318.00
485.34	318.37
485.71	318.65
486.07	319.04
486.44	319.28
486.80	319.75
487.17	320.16
487.53	320.68
487.90	321.13
488.26	321.68
488.62	322.47
488.99	323.19
489.35	323.90
489.72	324.66
490.08	325.44
490.44	326.27
490.81	326.96
491.17	327.72
491.54	328.69
491.90	329.57
492.26	330.47
492.63	331.42
492.99	332.16
493.36	332.99
493.72	333.93
494.08	334.90
494.45	335.98
494.81	337.12
495.17	338.26
495.54	339.40
495.90	340.58
496.26	341.72
496.63	342.90
496.99	344.07
497.35	345.29
497.72	346.58
498.08	347.83
498.44	349.18
498.80	350.48
499.17	351.69
499.53	353.04
499.89	354.38
500.26	355.63
500.62	356.89
500.98	358.33
501.34	359.46
501.71	360.83
502.07	361.89
502.43	363.16
502.79	364.19
503.16	365.20
503.52	366.15
503.88	367.01
504.24	368.08
504.60	369.03
504.97	370.04
505.33	370.98
505.69	371.92
506.05	372.75
506.41	373.46
506.78	374.31
507.14	374.92
507.50	375.49
507.86	376.30
508.22	376.99
508.59	377.60
508.95	378.37
509.31	378.84
509.67	379.37
510.03	379.77
510.39	380.20
510.75	380.57
511.12	381.00
511.48	381.43
511.84	381.70
512.20	382.07
512.56	382.29
512.92	382.60
513.28	382.78
513.64	382.89
514.00	383.17
514.37	383.25
514.73	383.46
515.09	383.67
515.45	383.64
515.81	383.70
516.17	383.66
516.53	383.50
516.89	383.58
517.25	383.71
517.61	383.81
517.97	383.95
518.33	384.15
518.69	384.30
519.05	384.51
519.41	384.77
519.77	384.98
520.13	385.09
520.49	385.07
520.85	385.29
521.21	385.57
521.57	385.72
521.93	385.92
522.29	386.29
522.65	386.48
523.01	386.81
523.37	387.19
523.73	387.66
524.09	388.37
524.45	388.69
524.81	389.39
525.17	390.08
525.53	390.76
525.89	391.47
526.25	392.22
526.61	393.15
526.97	393.84
527.33	394.83
527.68	396.21
528.04	397.49
528.40	398.67
528.76	399.94
529.12	401.49
529.48	403.01
529.84	404.38
530.20	405.93
530.56	407.58
530.91	409.47
531.27	411.25
531.63	412.96
531.99	415.03
532.35	416.98
532.71	418.98
533.07	421.18
533.42	423.64
533.78	426.03
534.14	428.42
534.50	430.96
534.86	433.48
535.21	435.78
535.57	438.51
535.93	441.25
536.29	444.20
536.65	447.02
537.00	449.92
537.36	452.98
537.72	455.97
538.08	459.21
538.44	462.24
538.79	465.52
539.15	468.80
539.51	472.39
539.87	475.85
540.22	479.28
540.58	482.95
540.94	486.28
541.29	489.76
541.65	493.28
542.01	497.26
542.37	500.79
542.72	504.51
543.08	508.31
543.44	512.37
543.79	516.00
544.15	520.02
544.51	524.27
544.87	528.37
545.22	532.61
545.58	536.73
545.94	540.76
546.29	544.93
546.65	549.24
547.01	553.31
547.36	557.40
547.72	561.60
548.07	565.76
548.43	569.90
548.79	574.16
549.14	578.32
549.50	582.25
549.86	586.74
550.21	591.25
550.57	595.49
550.92	599.69
551.28	604.05
551.64	608.16
551.99	612.46
552.35	616.76
552.70	621.07
553.06	625.48
553.41	630.03
553.77	634.54
554.13	638.62
554.48	642.96
554.84	647.30
555.19	651.79
555.55	656.07
555.90	660.43
556.26	665.09
556.61	669.25
556.97	673.50
557.32	677.75
557.68	681.83
558.03	686.14
558.39	690.22
558.74	694.71
559.10	698.98
559.45	703.04
559.81	707.40
560.16	711.45
560.52	715.39
560.87	719.55
561.23	723.38
561.58	727.82
561.94	731.73
562.29	735.61
562.64	739.52
563.00	743.30
563.35	747.37
563.71	751.13
564.06	755.42
564.42	759.30
564.77	763.04
565.12	767.06
565.48	771.03
565.83	774.66
566.19	778.18
566.54	781.79
566.89	785.39
567.25	788.94
567.60	792.75
567.96	796.27
568.31	799.89
568.66	803.34
569.02	806.27
569.37	809.56
569.72	812.72
570.08	815.58
570.43	818.55
570.78	821.31
571.14	823.91
571.49	826.56
571.84	829.64
572.20	832.32
572.55	834.65
572.90	836.88
573.26	839.46
573.61	841.49
573.96	843.41
574.31	845.31
574.67	846.90
575.02	848.58
575.37	850.35
575.72	851.65
576.08	853.35
576.43	855.10
576.78	856.61
577.13	858.34
577.49	859.76
577.84	861.19
578.19	862.74
578.54	864.11
578.90	865.10
579.25	865.80
579.60	866.50
579.95	867.52
580.30	868.35
580.66	869.05
581.01	869.93
581.36	870.92
581.71	871.72
582.06	872.69
582.42	873.17
582.77	873.61
583.12	874.23
583.47	874.64
583.82	875.21
584.17	875.65
584.53	876.17
584.88	876.63
585.23	876.92
585.58	876.99
585.93	877.17
586.28	877.57
586.63	877.96
586.98	878.41
587.34	878.37
587.69	878.30
588.04	878.31
588.39	878.39
588.74	878.26
589.09	877.85
589.44	877.30
589.79	877.04
590.14	876.84
590.49	876.29
590.84	875.94
591.19	875.48
591.54	874.79
591.89	873.70
592.25	873.32
592.60	872.48
592.95	871.60
593.30	870.69
593.65	869.68
594.00	868.51
594.35	868.04
594.70	866.94
595.05	866.25
595.40	865.33
595.75	864.02
596.10	863.06
596.45	862.40
596.80	861.87
597.15	861.08
597.50	859.82
597.85	859.11
598.19	858.17
598.54	857.21
598.89	856.30
599.24	855.60
599.59	854.21
599.94	853.29
600.29	852.10
600.64	850.91
600.99	849.51
601.34	848.24
601.69	846.32
602.04	845.10
602.39	843.36
602.74	842.28
603.08	841.14
603.43	840.05
603.78	838.54
604.13	836.97
604.48	835.15
604.83	833.90
605.18	832.28
605.53	830.32
605.87	828.41
606.22	826.67
606.57	824.56
606.92	822.74
607.27	821.00
607.62	819.49
607.96	817.80
608.31	816.30
608.66	814.58
609.01	812.66
609.36	810.58
609.70	808.49
610.05	805.95
610.40	804.21
610.75	801.72
611.10	799.30
611.44	796.60
611.79	794.58
612.14	792.06
612.49	789.40
612.83	786.94
613.18	784.49
613.53	781.87
613.88	779.30
614.22	776.69
614.57	773.95
614.92	771.30
615.27	768.80
615.61	766.09
615.96	763.41
616.31	760.85
616.65	759.02
617.00	756.80
617.35	754.54
617.70	751.69
618.04	748.94
618.39	746.24
618.74	743.82
619.08	741.03
619.43	738.78
619.78	736.30
620.12	733.90
620.47	731.15
620.82	728.42
621.16	726.06
621.51	723.85
621.85	721.53
622.20	718.93
622.55	716.44
622.89	713.77
623.24	711.43
623.59	709.05
623.93	706.19
624.28	703.43
624.62	700.83
624.97	698.44
625.32	696.24
625.66	693.95
626.01	691.36
626.35	688.95
626.70	686.12
627.04	683.89
627.39	681.11
627.73	678.76
628.08	676.52
628.43	674.00
628.77	671.18
629.12	668.41
629.46	665.73
629.81	663.00
630.15	660.32
630.50	657.57
630.84	654.82
631.19	651.98
631.53	649.24
631.88	646.30
632.22	643.36
632.57	640.72
632.91	637.97
633.26	635.34
633.60	632.61
633.95	630.11
634.29	627.36
634.64	625.05
634.98	622.54
635.32	620.08
635.67	617.62
636.01	615.47
636.36	612.84
636.70	610.33
637.05	607.94
637.39	605.83
637.73	603.55
638.08	601.53
638.42	599.12
638.77	597.14
639.11	594.90
639.45	592.53
639.80	590.04
640.14	587.82
640.49	585.64
640.83	583.31
641.17	580.95
641.52	578.44
641.86	576.01
642.20	573.69
642.55	571.13
642.89	568.80
643.23	566.17
643.58	564.17
643.92	561.96
644.26	559.63
644.61	557.40
644.95	555.01
645.29	552.10
645.64	549.79
645.98	547.37
646.32	545.12
646.66	542.87
647.01	540.47
647.35	538.10
647.69	535.80
648.04	533.64
648.38	531.22
648.72	529.00
649.06	526.68
649.41	524.20
649.75	521.82
650.09	519.30
650.43	517.01
650.78	514.51
651.12	512.03
651.46	509.63
651.80	507.15
652.14	504.95
652.49	502.97
652.83	500.74
653.17	498.43
653.51	496.24
653.85	493.91
654.20	491.60
654.54	489.20
654.88	486.76
655.22	484.10
655.56	481.87
655.90	479.44
656.25	477.28
656.59	475.08
656.93	473.11
657.27	471.01
657.61	468.79
657.95	466.63
658.29	464.51
658.64	462.46
658.98	460.21
659.32	457.74
659.66	455.60
660.00	453.50
660.34	451.36
660.68	449.15
661.02	446.92
661.36	444.98
661.70	443.16
662.05	441.42
662.39	439.85
662.73	438.00
663.07	436.47
663.41	434.40
663.75	432.64
664.09	430.66
664.43	428.73
664.77	426.80
665.11	424.98
665.45	423.20
665.79	421.36
666.13	419.76
666.47	418.12
666.81	416.22
667.15	414.30
667.49	412.53
667.83	410.89
668.17	409.30
668.51	407.58
668.85	405.66
669.19	403.95
669.53	402.13
669.87	400.36
670.21	398.59
670.55	397.15
670.89	395.70
671.23	394.17
671.57	392.65
671.91	391.19
672.25	389.77
672.58	388.47
672.92	386.89
673.26	385.33
673.60	384.01
673.94	382.74
674.28	381.51
674.62	380.30
674.96	378.82
675.30	377.65
675.64	376.35
675.97	375.16
676.31	373.86
676.65	372.66
676.99	371.66
677.33	370.21
677.67	368.91
678.01	367.44
678.34	366.07
678.68	364.88
679.02	363.50
679.36	362.24
679.70	360.94
680.04	359.94
680.37	358.76
680.71	357.47
681.05	356.24
681.39	355.03
681.73	353.89
682.06	352.87
682.40	351.70
682.74	350.52
683.08	349.62
683.42	348.46
683.75	347.24
684.09	345.85
684.43	344.95
684.77	343.67
685.10	342.64
685.44	341.65
685.78	340.44
686.12	339.56
686.45	338.43
686.79	337.40
687.13	336.30
687.46	335.18
687.80	334.21
688.14	333.17
688.48	332.04
688.81	330.83
689.15	329.78
689.49	328.61
689.82	327.62
690.16	326.50
690.50	325.56
690.83	324.62
691.17	323.55
691.51	322.56
691.84	321.70
692.18	320.67
692.52	319.69
692.85	318.86
693.19	317.96
693.52	317.06
693.86	316.12
694.20	315.15
694.53	314.27
694.87	313.23
695.21	312.35
695.54	311.64
695.88	310.71
696.21	309.69
696.55	308.87
696.88	307.96
697.22	307.00
697.56	306.16
697.89	305.30
698.23	304.54
698.56	303.65
698.90	302.91
699.23	302.00
699.57	301.08
699.90	300.19
700.24	299.24
700.58	298.43
700.91	297.62
701.25	296.94
701.58	296.24
701.92	295.60
702.25	294.78
702.59	293.96
702.92	293.21
703.26	292.53
703.59	291.85
703.93	291.30
704.26	290.54
704.60	289.81
704.93	289.15
705.26	288.45
705.60	287.85
705.93	287.17
706.27	286.74
706.60	286.24
706.94	285.69
707.27	285.16
707.61	284.60
707.94	284.02
708.27	283.31
708.61	282.67
708.94	282.12
709.28	281.48
709.61	280.90
709.94	280.42
710.28	279.88
710.61	279.25
710.95	278.51
711.28	278.07
711.61	277.46
711.95	276.96
712.28	276.37
712.61	275.67
712.95	275.19
713.28	274.64
713.61	274.11
713.95	273.52
714.28	273.00
714.61	272.43
714.95	271.97
715.28	271.43
715.61	270.96
715.95	270.41
716.28	270.02
716.61	269.56
716.95	268.90
717.28	268.52
717.61	268.13
717.94	267.90
718.28	267.47
718.61	267.08
718.94	266.63
719.27	266.30
719.61	265.94
719.94	265.55
720.27	265.14
720.60	264.75
720.94	264.37
721.27	264.00
721.60	263.71
721.93	263.23
722.27	262.87
722.60	262.42
722.93	262.02
723.26	261.84
723.59	261.52
723.93	261.51
724.26	261.08
724.59	260.70
724.92	260.23
725.25	259.92
725.59	259.62
725.92	259.33
726.25	259.07
726.58	258.90
726.91	258.62
727.24	258.24
727.57	257.93
727.91	257.78
728.24	257.56
728.57	257.22
728.90	257.00
729.23	256.68
729.56	256.56
729.89	256.50
730.22	256.05
730.55	255.75
730.89	255.49
731.22	255.21
731.55	255.00
731.88	254.70
732.21	254.36
732.54	254.21
732.87	254.01
733.20	253.70
733.53	253.44
733.86	253.19
734.19	253.00
734.52	252.82
734.85	252.65
735.18	252.42
735.51	252.28
735.84	252.11
736.17	251.99
736.50	251.70
736.83	251.63
737.16	251.39
737.49	251.23
737.82	250.88
738.15	250.81
738.48	250.61
738.81	250.48
739.14	250.32
739.47	250.03
739.80	249.76
740.13	249.70
740.46	249.40
740.79	249.13
741.12	248.93
741.45	248.69
741.78	248.35
742.11	248.12
742.44	247.80
742.77	247.50
743.10	247.26
743.43	247.04
743.75	246.60
744.08	246.75
744.41	246.46
744.74	246.36
745.07	246.01
745.40	245.77
745.73	245.52
746.06	245.32
746.39	245.11
746.71	244.82
747.04	244.53
747.37	244.32
747.70	244.17
748.03	243.96
748.36	243.72
748.68	243.55
749.01	243.28
749.34	243.16
749.67	243.09
750.00	242.91
750.33	242.82
750.65	242.55
750.98	242.12
751.31	241.91
751.64	241.57
751.97	241.58
752.29	241.41
752.62	241.29
752.95	241.10
753.28	240.93
753.60	240.82
753.93	240.74
754.26	240.55
754.59	240.34
754.91	240.22
755.24	240.14
755.57	240.03
755.90	239.89
756.22	239.62
756.55	239.37
756.88	239.13
757.20	238.90
757.53	238.83
757.86	238.65
758.19	238.65
758.51	238.66
758.84	238.40
759.17	238.36
759.49	238.26
759.82	238.20
760.15	238.13
760.47	238.09
760.80	238.01
761.13	238.00
761.45	238.03
761.78	237.84
762.11	237.75
762.43	237.55
762.76	237.46
763.08	237.41
763.41	237.34
763.74	237.37
764.06	237.30
764.39	237.17
764.71	237.11
765.04	237.01
765.37	236.85
765.69	236.78
766.02	236.66
766.34	236.57
766.67	236.46
767.00	236.44
767.32	236.47
767.65	236.46
767.97	236.37
768.30	236.33
768.62	236.32
768.95	236.20
769.27	236.17
769.60	236.16
769.92	236.15
770.25	236.11
770.57	235.93
770.90	235.77
771.22	235.69
771.55	235.60
771.87	235.50
772.20	235.43
772.52	235.54
772.85	235.78
773.17	235.63
773.50	235.51
773.82	235.31
774.15	235.09
774.47	234.94
774.80	234.90
775.12	234.78
775.45	234.72
775.77	234.74
776.09	234.80
776.42	234.71
776.74	234.67
777.07	234.52
777.39	234.45
777.72	234.44
778.04	234.53
778.36	234.52
778.69	234.54
779.01	234.47
779.33	234.30
779.66	233.92
779.98	233.87
780.31	233.86
780.63	233.94
780.95	234.03
781.28	233.96
781.60	233.80
781.92	233.74
782.25	233.62
782.57	233.58
782.89	233.46
783.22	233.46
783.54	233.50
783.86	233.51
784.19	233.61
784.51	233.66
784.83	233.44
785.16	233.38
785.48	233.33
785.80	233.26
786.12	233.22
786.45	233.13
786.77	233.10
787.09	232.96
787.42	232.76
787.74	232.53
788.06	232.36
788.38	232.40
788.71	232.34
789.03	232.30
789.35	232.22
789.67	232.15
789.99	232.17
790.32	232.04
790.64	232.03
790.96	232.13
791.28	232.06
791.61	232.01
791.93	231.96
792.25	231.88
792.57	231.97
792.89	231.92
793.21	232.04
793.54	232.10
793.86	232.15
794.18	232.19
