SpectraSuite Data File
++++++++++++++++++++++++++++++++++++
Date: Fri Feb 01 14:41:59 EST 2013
User: group
Dark Spectrum Present: No
Reference Spectrum Present: No
Number of Sampled Component Spectra: 1
Spectrometers: USB2E7196
Integration Time (usec): 70000 (USB2E7196)
Spectra Averaged: 10 (USB2E7196)
Boxcar Smoothing: 10 (USB2E7196)
Correct for Electrical Dark: No (USB2E7196)
Strobe/Lamp Enabled: No (USB2E7196)
Correct for Detector Non-linearity: No (USB2E7196)
Correct for Stray Light: No (USB2E7196)
Number of Pixels in Processed Spectrum: 2048
>>>>>Begin Processed Spectral Data<<<<<
339.09	0.00
339.48	216.30
339.86	217.70
340.24	219.70
340.63	220.40
341.01	223.80
341.39	221.80
341.78	224.40
342.16	228.30
342.54	227.20
342.93	214.55
343.31	225.37
343.69	225.81
344.07	226.30
344.46	226.63
344.84	227.09
345.22	227.33
345.60	227.63
345.99	227.81
346.37	227.77
346.75	227.82
347.13	227.93
347.52	228.01
347.90	228.18
348.28	228.32
348.66	228.44
349.05	228.37
349.43	228.46
349.81	228.57
350.19	228.73
350.57	228.92
350.96	228.92
351.34	229.01
351.72	229.31
352.10	229.48
352.48	229.67
352.87	229.63
353.25	229.65
353.63	229.77
354.01	229.91
354.39	230.09
354.77	230.18
355.15	230.32
355.54	230.34
355.92	230.25
356.30	230.31
356.68	230.54
357.06	230.65
357.44	230.63
357.82	230.68
358.20	230.70
358.58	230.69
358.97	230.89
359.35	231.02
359.73	230.99
360.11	230.96
360.49	231.04
360.87	231.08
361.25	231.26
361.63	231.31
362.01	231.38
362.39	231.31
362.77	231.39
363.15	231.40
363.53	231.41
363.91	231.52
364.29	231.56
364.67	231.45
365.05	231.51
365.43	231.50
365.81	231.57
366.19	231.62
366.57	231.71
366.95	231.60
367.33	231.60
367.71	231.47
368.09	231.50
368.47	231.47
368.85	231.46
369.23	231.34
369.61	231.29
369.99	231.30
370.37	231.37
370.75	231.43
371.13	231.38
371.51	231.27
371.89	231.28
372.27	231.19
372.65	231.05
373.03	230.87
373.41	230.83
373.78	230.76
374.16	230.61
374.54	230.42
374.92	230.33
375.30	230.24
375.68	230.36
376.06	230.21
376.44	230.06
376.82	230.02
377.19	230.09
377.57	229.89
377.95	229.66
378.33	229.56
378.71	229.28
379.09	229.20
379.47	229.29
379.84	229.20
380.22	229.11
380.60	228.98
380.98	228.97
381.36	228.91
381.73	228.75
382.11	228.64
382.49	228.57
382.87	228.46
383.25	228.33
383.62	228.40
384.00	228.43
384.38	228.43
384.76	228.31
385.13	228.20
385.51	228.22
385.89	228.19
386.27	228.13
386.64	228.21
387.02	228.14
387.40	228.03
387.78	227.90
388.15	227.89
388.53	227.86
388.91	227.86
389.29	227.75
389.66	227.83
390.04	227.83
390.42	227.90
390.79	227.91
391.17	227.90
391.55	227.65
391.92	227.55
392.30	227.56
392.68	227.65
393.05	227.68
393.43	227.68
393.81	227.80
394.18	227.73
394.56	227.74
394.94	227.90
395.31	227.98
395.69	228.18
396.06	228.34
396.44	228.50
396.82	228.55
397.19	228.73
397.57	228.82
397.95	228.97
398.32	229.00
398.70	229.09
399.07	229.27
399.45	229.46
399.82	229.57
400.20	229.68
400.58	229.77
400.95	229.81
401.33	230.04
401.70	230.17
402.08	230.40
402.45	230.55
402.83	230.73
403.20	230.85
403.58	230.90
403.95	231.05
404.33	231.21
404.71	231.47
405.08	231.80
405.46	231.91
405.83	232.05
406.21	232.30
406.58	232.66
406.96	232.97
407.33	233.08
407.70	233.42
408.08	233.80
408.45	234.18
408.83	234.64
409.20	235.00
409.58	235.29
409.95	235.71
410.33	236.02
410.70	236.24
411.08	236.69
411.45	237.24
411.82	237.70
412.20	238.30
412.57	238.90
412.95	239.26
413.32	239.84
413.69	240.58
414.07	241.19
414.44	241.78
414.82	242.47
415.19	243.39
415.56	244.17
415.94	244.91
416.31	245.84
416.68	246.68
417.06	247.76
417.43	248.70
417.81	249.75
418.18	250.96
418.55	252.36
418.93	253.62
419.30	254.90
419.67	256.33
420.04	257.75
420.42	259.18
420.79	261.07
421.16	262.80
421.54	264.60
421.91	266.36
422.28	268.22
422.66	270.22
423.03	272.26
423.40	274.18
423.77	276.27
424.15	278.34
424.52	280.43
424.89	282.79
425.26	285.16
425.64	287.35
426.01	289.69
426.38	292.00
426.75	294.54
427.13	297.14
427.50	299.86
427.87	302.58
428.24	305.36
428.61	307.79
428.99	310.81
429.36	313.85
429.73	317.25
430.10	320.44
430.47	323.48
430.85	326.43
431.22	329.95
431.59	333.74
431.96	337.23
432.33	341.15
432.70	344.79
433.08	349.20
433.45	353.26
433.82	357.24
434.19	361.70
434.56	365.95
434.93	370.00
435.30	373.91
435.68	378.30
436.05	382.67
436.42	386.98
436.79	390.78
437.16	394.98
437.53	399.11
437.90	403.21
438.27	407.40
438.64	411.74
439.01	415.79
439.38	419.10
439.75	422.16
440.13	425.85
440.50	429.36
440.87	432.03
441.24	434.94
441.61	438.16
441.98	440.28
442.35	442.92
442.72	445.51
443.09	448.26
443.46	449.68
443.83	450.63
444.20	451.35
444.57	452.47
444.94	452.79
445.31	453.22
445.68	453.94
446.05	453.88
446.42	453.48
446.79	452.61
447.16	451.90
447.53	451.52
447.90	449.76
448.27	448.07
448.64	445.78
449.01	444.21
449.37	441.31
449.74	438.52
450.11	435.13
450.48	431.52
450.85	427.58
451.22	424.54
451.59	421.45
451.96	418.50
452.33	414.54
452.70	410.99
453.07	406.63
453.43	402.09
453.80	397.95
454.17	393.80
454.54	390.00
454.91	385.79
455.28	381.79
455.65	378.03
456.02	374.21
456.38	370.84
456.75	366.75
457.12	363.32
457.49	359.91
457.86	356.61
458.23	353.71
458.59	350.71
458.96	347.42
459.33	344.39
459.70	341.65
460.07	339.52
460.43	336.82
460.80	334.45
461.17	332.23
461.54	329.98
461.91	327.74
462.27	325.44
462.64	323.56
463.01	321.42
463.38	319.45
463.74	317.27
464.11	315.45
464.48	313.81
464.85	311.93
465.21	310.61
465.58	309.26
465.95	307.61
466.32	306.19
466.68	304.83
467.05	303.59
467.42	302.14
467.78	300.57
468.15	299.32
468.52	298.18
468.88	296.89
469.25	295.72
469.62	294.79
469.98	293.73
470.35	292.77
470.72	291.77
471.08	290.62
471.45	289.83
471.82	288.97
472.18	287.90
472.55	287.32
472.92	286.52
473.28	285.74
473.65	285.06
474.02	284.29
474.38	283.65
474.75	282.95
475.11	282.29
475.48	281.88
475.85	281.40
476.21	281.03
476.58	280.61
476.94	280.20
477.31	279.76
477.67	279.55
478.04	279.25
478.41	279.07
478.77	279.10
479.14	278.89
479.50	278.73
479.87	278.69
480.23	278.65
480.60	278.53
480.96	278.41
481.33	278.58
481.69	278.72
482.06	278.74
482.42	278.96
482.79	279.19
483.15	279.44
483.52	279.87
483.88	280.17
484.25	280.55
484.61	281.10
484.98	281.67
485.34	282.28
485.71	283.03
486.07	283.69
486.44	284.28
486.80	285.06
487.17	285.93
487.53	287.00
487.90	287.91
488.26	289.02
488.62	290.31
488.99	291.53
489.35	292.84
489.72	294.28
490.08	295.80
490.44	297.43
490.81	299.16
491.17	300.79
491.54	302.69
491.90	304.77
492.26	306.74
492.63	308.95
492.99	311.27
493.36	313.66
493.72	316.45
494.08	319.22
494.45	322.31
494.81	325.49
495.17	328.77
495.54	332.33
495.90	335.87
496.26	339.57
496.63	343.38
496.99	347.45
497.35	351.86
497.72	356.52
498.08	361.33
498.44	366.31
498.80	371.71
499.17	377.31
499.53	382.70
499.89	388.58
500.26	394.49
500.62	400.50
500.98	407.12
501.34	414.01
501.71	421.28
502.07	428.54
502.43	436.07
502.79	443.99
503.16	452.29
503.52	460.78
503.88	469.56
504.24	478.80
504.60	488.31
504.97	498.15
505.33	508.30
505.69	518.92
506.05	529.76
506.41	540.54
506.78	551.69
507.14	563.48
507.50	575.80
507.86	588.50
508.22	601.60
508.59	614.66
508.95	628.06
509.31	641.69
509.67	655.93
510.03	670.35
510.39	685.30
510.75	700.85
511.12	716.40
511.48	732.56
511.84	748.76
512.20	765.17
512.56	782.21
512.92	799.39
513.28	817.19
513.64	834.92
514.00	853.31
514.37	872.22
514.73	891.14
515.09	909.83
515.45	929.18
515.81	948.78
516.17	969.21
516.53	989.62
516.89	1010.32
517.25	1031.23
517.61	1052.44
517.97	1073.66
518.33	1094.29
518.69	1115.91
519.05	1137.64
519.41	1160.00
519.77	1182.87
520.13	1205.39
520.49	1228.08
520.85	1250.50
521.21	1273.62
521.57	1297.30
521.93	1320.31
522.29	1344.20
522.65	1368.13
523.01	1391.99
523.37	1415.50
523.73	1439.04
524.09	1462.94
524.45	1487.11
524.81	1510.98
525.17	1535.77
525.53	1560.63
525.89	1585.50
526.25	1610.71
526.61	1634.76
526.97	1659.69
527.33	1684.36
527.68	1709.61
528.04	1734.13
528.40	1759.24
528.76	1784.89
529.12	1809.60
529.48	1835.19
529.84	1859.38
530.20	1884.48
530.56	1909.79
530.91	1936.05
531.27	1961.55
531.63	1986.44
531.99	2011.65
532.35	2036.41
532.71	2059.84
533.07	2084.02
533.42	2108.22
533.78	2132.05
534.14	2157.09
534.50	2179.68
534.86	2202.97
535.21	2225.57
535.57	2249.64
535.93	2272.66
536.29	2295.13
536.65	2318.22
537.00	2340.12
537.36	2362.86
537.72	2384.68
538.08	2406.72
538.44	2427.02
538.79	2448.35
539.15	2468.79
539.51	2489.40
539.87	2511.07
540.22	2532.52
540.58	2553.82
540.94	2574.04
541.29	2593.83
541.65	2613.44
542.01	2634.49
542.37	2654.32
542.72	2673.89
543.08	2692.05
543.44	2710.78
543.79	2727.88
544.15	2745.19
544.51	2763.87
544.87	2781.66
545.22	2798.85
545.58	2814.78
545.94	2830.80
546.29	2846.51
546.65	2862.19
547.01	2877.25
547.36	2891.28
547.72	2905.30
548.07	2918.40
548.43	2932.50
548.79	2945.54
549.14	2957.71
549.50	2969.30
549.86	2980.66
550.21	2991.79
550.57	3003.29
550.92	3014.73
551.28	3026.19
551.64	3036.84
551.99	3046.73
552.35	3056.97
552.70	3066.97
553.06	3077.42
553.41	3087.84
553.77	3097.19
554.13	3107.34
554.48	3117.02
554.84	3125.78
555.19	3134.32
555.55	3143.48
555.90	3151.09
556.26	3159.47
556.61	3167.43
556.97	3174.99
557.32	3182.63
557.68	3190.17
558.03	3197.93
558.39	3204.37
558.74	3212.30
559.10	3219.16
559.45	3225.97
559.81	3233.21
560.16	3239.00
560.52	3244.27
560.87	3249.88
561.23	3254.60
561.58	3259.44
561.94	3263.81
562.29	3267.75
562.64	3271.91
563.00	3274.98
563.35	3280.58
563.71	3285.67
564.06	3290.25
564.42	3294.60
564.77	3299.03
565.12	3303.03
565.48	3306.39
565.83	3308.75
566.19	3310.91
566.54	3312.72
566.89	3314.23
567.25	3314.70
567.60	3317.70
567.96	3319.61
568.31	3320.60
568.66	3321.62
569.02	3322.49
569.37	3322.38
569.72	3322.92
570.08	3323.21
570.43	3323.38
570.78	3321.79
571.14	3319.31
571.49	3318.15
571.84	3317.68
572.20	3315.48
572.55	3312.92
572.90	3309.73
573.26	3308.00
573.61	3305.12
573.96	3302.49
574.31	3297.94
574.67	3293.75
575.02	3288.47
575.37	3284.20
575.72	3278.78
576.08	3274.81
576.43	3269.42
576.78	3265.21
577.13	3261.10
577.49	3256.11
577.84	3250.66
578.19	3245.08
578.54	3239.32
578.90	3232.44
579.25	3223.95
579.60	3216.75
579.95	3210.11
580.30	3202.99
580.66	3195.01
581.01	3186.73
581.36	3179.53
581.71	3173.14
582.06	3166.06
582.42	3158.28
582.77	3149.90
583.12	3142.40
583.47	3134.25
583.82	3127.06
584.17	3118.91
584.53	3110.89
584.88	3102.89
585.23	3094.94
585.58	3086.62
585.93	3078.81
586.28	3071.57
586.63	3064.80
586.98	3056.90
587.34	3049.25
587.69	3041.04
588.04	3033.77
588.39	3027.00
588.74	3017.32
589.09	3008.09
589.44	2998.60
589.79	2990.24
590.14	2982.42
590.49	2974.40
590.84	2965.33
591.19	2956.42
591.54	2945.44
591.89	2933.87
592.25	2924.04
592.60	2912.54
592.95	2902.07
593.30	2891.28
593.65	2880.21
594.00	2869.24
594.35	2859.21
594.70	2847.62
595.05	2837.45
595.40	2825.78
595.75	2814.21
596.10	2804.59
596.45	2794.87
596.80	2785.81
597.15	2775.81
597.50	2764.92
597.85	2754.44
598.19	2744.59
598.54	2734.82
598.89	2726.20
599.24	2718.25
599.59	2708.43
599.94	2699.80
600.29	2689.85
600.64	2680.67
600.99	2669.88
601.34	2659.90
601.69	2649.39
602.04	2639.69
602.39	2629.44
602.74	2620.46
603.08	2611.45
603.43	2602.02
603.78	2591.70
604.13	2581.18
604.48	2570.39
604.83	2559.90
605.18	2550.13
605.53	2539.02
605.87	2526.74
606.22	2516.10
606.57	2504.58
606.92	2493.51
607.27	2483.23
607.62	2473.45
607.96	2462.85
608.31	2453.16
608.66	2442.03
609.01	2430.52
609.36	2418.32
609.70	2405.88
610.05	2393.34
610.40	2380.90
610.75	2368.52
611.10	2356.48
611.44	2343.35
611.79	2331.87
612.14	2320.00
612.49	2306.52
612.83	2294.12
613.18	2282.62
613.53	2270.35
613.88	2257.33
614.22	2244.84
614.57	2231.25
614.92	2218.18
615.27	2206.06
615.61	2193.44
615.96	2181.08
616.31	2170.13
616.65	2160.05
617.00	2149.06
617.35	2137.90
617.70	2125.80
618.04	2113.74
618.39	2102.08
618.74	2091.37
619.08	2079.24
619.43	2067.62
619.78	2057.01
620.12	2046.24
620.47	2034.67
620.82	2023.13
621.16	2012.78
621.51	2001.96
621.85	1991.26
622.20	1979.58
622.55	1968.05
622.89	1957.09
623.24	1946.99
623.59	1936.02
623.93	1924.60
624.28	1913.82
624.62	1902.80
624.97	1892.45
625.32	1882.39
625.66	1872.46
626.01	1861.89
626.35	1851.19
626.70	1840.40
627.04	1829.58
627.39	1818.53
627.73	1807.48
628.08	1796.88
628.43	1785.56
628.77	1774.98
629.12	1763.64
629.46	1752.94
629.81	1741.09
630.15	1729.66
630.50	1717.90
630.84	1705.77
631.19	1693.89
631.53	1683.04
631.88	1671.41
632.22	1660.01
632.57	1648.63
632.91	1637.02
633.26	1625.46
633.60	1614.31
633.95	1603.31
634.29	1592.90
634.64	1582.47
634.98	1571.84
635.32	1561.50
635.67	1552.04
636.01	1541.65
636.36	1531.84
636.70	1522.51
637.05	1513.08
637.39	1503.90
637.73	1494.21
638.08	1485.42
638.42	1476.68
638.77	1467.28
639.11	1458.17
639.45	1448.66
639.80	1439.14
640.14	1429.73
640.49	1420.38
640.83	1411.12
641.17	1401.77
641.52	1392.06
641.86	1382.31
642.20	1373.48
642.55	1363.82
642.89	1354.11
643.23	1344.89
643.58	1335.87
643.92	1326.39
644.26	1317.29
644.61	1308.05
644.95	1299.37
645.29	1288.93
645.64	1278.73
645.98	1269.36
646.32	1260.51
646.66	1251.27
647.01	1242.14
647.35	1233.15
647.69	1224.23
648.04	1215.40
648.38	1206.17
648.72	1196.69
649.06	1187.49
649.41	1178.29
649.75	1168.88
650.09	1159.72
650.43	1150.24
650.78	1140.82
651.12	1131.44
651.46	1122.89
651.80	1114.21
652.14	1105.12
652.49	1097.19
652.83	1088.90
653.17	1079.82
653.51	1070.85
653.85	1062.12
654.20	1053.58
654.54	1044.60
654.88	1036.19
655.22	1027.25
655.56	1018.87
655.90	1010.83
656.25	1002.83
656.59	994.85
656.93	987.38
657.27	979.33
657.61	971.29
657.95	963.91
658.29	956.06
658.64	947.98
658.98	939.90
659.32	931.77
659.66	924.12
660.00	916.85
660.34	909.23
660.68	901.81
661.02	894.53
661.36	887.30
661.70	880.44
662.05	873.58
662.39	867.11
662.73	860.20
663.07	853.54
663.41	847.00
663.75	840.19
664.09	833.57
664.43	826.96
664.77	820.82
665.11	814.49
665.45	808.59
665.79	802.27
666.13	796.04
666.47	790.21
666.81	783.84
667.15	777.30
667.49	771.58
667.83	765.62
668.17	759.81
668.51	753.73
668.85	747.93
669.19	742.09
669.53	736.35
669.87	730.71
670.21	725.12
670.55	719.59
670.89	714.56
671.23	709.34
671.57	704.44
671.91	699.30
672.25	693.90
672.58	688.55
672.92	683.59
673.26	678.78
673.60	673.97
673.94	669.31
674.28	665.19
674.62	660.71
674.96	656.34
675.30	651.72
675.64	647.62
675.97	643.20
676.31	638.92
676.65	634.52
676.99	630.64
677.33	626.38
677.67	622.22
678.01	617.73
678.34	613.21
678.68	608.94
679.02	604.67
679.36	600.71
679.70	597.04
680.04	593.06
680.37	589.02
680.71	585.12
681.05	581.59
681.39	577.49
681.73	573.89
682.06	570.20
682.40	566.55
682.74	562.77
683.08	558.98
683.42	555.18
683.75	551.54
684.09	547.68
684.43	544.07
684.77	540.35
685.10	536.85
685.44	533.63
685.78	530.22
686.12	526.86
686.45	523.47
686.79	520.01
687.13	516.58
687.46	513.06
687.80	509.53
688.14	505.97
688.48	502.71
688.81	499.11
689.15	495.91
689.49	492.81
689.82	489.53
690.16	486.52
690.50	483.63
690.83	480.47
691.17	477.40
691.51	474.51
691.84	471.66
692.18	468.63
692.52	465.50
692.85	462.54
693.19	459.69
693.52	456.84
693.86	453.88
694.20	451.22
694.53	448.65
694.87	446.10
695.21	443.49
695.54	440.86
695.88	438.19
696.21	435.42
696.55	432.90
696.88	430.32
697.22	427.71
697.56	425.17
697.89	422.82
698.23	420.40
698.56	417.82
698.90	415.37
699.23	412.87
699.57	410.49
699.90	408.06
700.24	405.78
700.58	403.50
700.91	401.26
701.25	399.06
701.58	397.04
701.92	394.65
702.25	392.57
702.59	390.56
702.92	388.63
703.26	386.63
703.59	384.77
703.93	382.98
704.26	381.04
704.60	379.04
704.93	376.96
705.26	375.05
705.60	373.29
705.93	371.63
706.27	370.18
706.60	368.55
706.94	366.97
707.27	365.21
707.61	363.55
707.94	361.99
708.27	360.37
708.61	358.66
708.94	357.22
709.28	355.58
709.61	353.87
709.94	352.35
710.28	350.86
710.61	349.23
710.95	347.66
711.28	346.26
711.61	344.79
711.95	343.63
712.28	342.23
712.61	340.72
712.95	339.30
713.28	337.82
713.61	336.39
713.95	335.09
714.28	333.68
714.61	332.35
714.95	331.07
715.28	329.77
715.61	328.49
715.95	327.23
716.28	326.15
716.61	325.09
716.95	323.86
717.28	322.82
717.61	321.84
717.94	320.75
718.28	319.59
718.61	318.63
718.94	317.57
719.27	316.63
719.61	315.90
719.94	314.92
720.27	313.84
720.60	312.97
720.94	312.21
721.27	311.33
721.60	310.58
721.93	309.70
722.27	308.93
722.60	308.06
722.93	307.23
723.26	306.45
723.59	305.56
723.93	304.84
724.26	304.00
724.59	303.04
724.92	302.25
725.25	301.56
725.59	300.75
725.92	299.99
726.25	299.17
726.58	298.30
726.91	297.49
727.24	296.85
727.57	296.09
727.91	295.06
728.24	294.36
728.57	293.53
728.90	292.85
729.23	291.98
729.56	291.30
729.89	290.58
730.22	289.76
730.55	288.97
730.89	288.36
731.22	287.53
731.55	286.81
731.88	286.14
732.21	285.49
732.54	284.78
732.87	284.09
733.20	283.42
733.53	282.65
733.86	282.01
734.19	281.29
734.52	280.60
734.85	280.16
735.18	279.53
735.51	278.85
735.84	278.09
736.17	277.58
736.50	276.93
736.83	276.57
737.16	275.96
737.49	275.47
737.82	274.80
738.15	274.29
738.48	273.76
738.81	273.11
739.14	272.44
739.47	271.82
739.80	271.30
740.13	270.83
740.46	270.44
740.79	270.00
741.12	269.46
741.45	268.98
741.78	268.39
742.11	267.89
742.44	267.33
742.77	266.89
743.10	266.18
743.43	265.68
743.75	264.96
744.08	264.71
744.41	264.24
744.74	263.89
745.07	263.35
745.40	262.92
745.73	262.59
746.06	262.22
746.39	261.88
746.71	261.42
747.04	260.90
747.37	260.48
747.70	260.01
748.03	259.59
748.36	259.28
748.68	258.91
749.01	258.46
749.34	258.14
749.67	257.78
750.00	257.61
750.33	257.35
750.65	257.00
750.98	256.50
751.31	256.12
751.64	255.69
751.97	255.60
752.29	255.22
752.62	254.82
752.95	254.47
753.28	254.16
753.60	253.92
753.93	253.83
754.26	253.52
754.59	253.22
754.91	253.00
755.24	252.72
755.57	252.37
755.90	252.19
756.22	251.90
756.55	251.66
756.88	251.33
757.20	250.97
757.53	250.72
757.86	250.46
758.19	250.30
758.51	250.14
758.84	249.75
759.17	249.64
759.49	249.53
759.82	249.45
760.15	249.25
760.47	248.93
760.80	248.65
761.13	248.44
761.45	248.24
761.78	248.05
762.11	247.85
762.43	247.68
762.76	247.45
763.08	247.31
763.41	247.20
763.74	247.02
764.06	246.90
764.39	246.70
764.71	246.45
765.04	246.27
765.37	245.97
765.69	245.82
766.02	245.60
766.34	245.44
766.67	245.11
767.00	244.94
767.32	244.92
767.65	244.82
767.97	244.62
768.30	244.50
768.62	244.37
768.95	244.17
769.27	244.09
769.60	243.93
769.92	243.76
770.25	243.53
770.57	243.34
770.90	243.09
771.22	242.84
771.55	242.75
771.87	242.48
772.20	242.30
772.52	242.24
772.85	242.28
773.17	242.08
773.50	241.96
773.82	241.75
774.15	241.49
774.47	241.21
774.80	241.05
775.12	240.78
775.45	240.57
775.77	240.35
776.09	240.03
776.42	239.85
776.74	239.74
777.07	239.59
777.39	239.41
777.72	239.30
778.04	239.29
778.36	239.20
778.69	239.13
779.01	239.09
779.33	238.69
779.66	238.27
779.98	238.13
780.31	237.99
780.63	237.97
780.95	237.79
781.28	237.60
781.60	237.43
781.92	237.39
782.25	237.30
782.57	237.08
782.89	237.05
783.22	236.95
783.54	236.71
783.86	236.55
784.19	236.40
784.51	236.33
784.83	236.17
785.16	235.96
785.48	235.85
785.80	235.70
