SpectraSuite Data File
++++++++++++++++++++++++++++++++++++
Date: Fri Feb 01 14:34:37 EST 2013
User: group
Dark Spectrum Present: No
Reference Spectrum Present: No
Number of Sampled Component Spectra: 1
Spectrometers: USB2E7196
Integration Time (usec): 70000 (USB2E7196)
Spectra Averaged: 10 (USB2E7196)
Boxcar Smoothing: 10 (USB2E7196)
Correct for Electrical Dark: No (USB2E7196)
Strobe/Lamp Enabled: No (USB2E7196)
Correct for Detector Non-linearity: No (USB2E7196)
Correct for Stray Light: No (USB2E7196)
Number of Pixels in Processed Spectrum: 2048
>>>>>Begin Processed Spectral Data<<<<<
339.09	0.00
339.48	216.50
339.86	216.50
340.24	220.30
340.63	220.70
341.01	226.10
341.39	223.10
341.78	224.80
342.16	225.90
342.54	228.10
342.93	214.93
343.31	225.75
343.69	226.33
344.07	226.84
344.46	227.29
344.84	227.62
345.22	227.70
345.60	228.00
345.99	228.24
346.37	228.37
346.75	228.44
347.13	228.52
347.52	228.56
347.90	228.69
348.28	228.74
348.66	228.90
349.05	228.94
349.43	228.99
349.81	229.03
350.19	229.06
350.57	229.04
350.96	229.11
351.34	229.25
351.72	229.30
352.10	229.39
352.48	229.35
352.87	229.48
353.25	229.53
353.63	229.53
354.01	229.47
354.39	229.63
354.77	229.69
355.15	229.80
355.54	229.81
355.92	229.87
356.30	229.88
356.68	230.02
357.06	230.00
357.44	230.05
357.82	230.09
358.20	230.14
358.58	230.25
358.97	230.34
359.35	230.49
359.73	230.57
360.11	230.49
360.49	230.70
360.87	230.66
361.25	230.89
361.63	230.97
362.01	231.11
362.39	231.04
362.77	231.03
363.15	231.01
363.53	231.04
363.91	231.05
364.29	231.11
364.67	230.95
365.05	231.09
365.43	231.09
365.81	231.11
366.19	231.26
366.57	231.32
366.95	231.28
367.33	231.18
367.71	231.09
368.09	231.27
368.47	231.09
368.85	231.06
369.23	231.00
369.61	230.93
369.99	230.81
370.37	230.84
370.75	230.93
371.13	230.83
371.51	230.87
371.89	230.94
372.27	230.86
372.65	230.77
373.03	230.69
373.41	230.62
373.78	230.60
374.16	230.34
374.54	230.13
374.92	229.99
375.30	229.92
375.68	229.89
376.06	229.82
376.44	229.70
376.82	229.71
377.19	229.56
377.57	229.50
377.95	229.58
378.33	229.39
378.71	229.15
379.09	229.20
379.47	229.10
379.84	228.89
380.22	228.80
380.60	228.78
380.98	228.60
381.36	228.50
381.73	228.40
382.11	228.30
382.49	228.23
382.87	228.25
383.25	228.10
383.62	228.22
384.00	228.03
384.38	228.07
384.76	227.86
385.13	227.87
385.51	227.72
385.89	227.47
386.27	227.45
386.64	227.44
387.02	227.38
387.40	227.24
387.78	227.19
388.15	227.11
388.53	227.05
388.91	227.26
389.29	227.25
389.66	227.18
390.04	227.29
390.42	227.34
390.79	227.29
391.17	227.32
391.55	227.09
391.92	227.15
392.30	227.11
392.68	227.32
393.05	227.31
393.43	227.41
393.81	227.58
394.18	227.66
394.56	227.74
394.94	227.80
395.31	227.85
395.69	227.85
396.06	227.93
396.44	227.99
396.82	227.90
397.19	228.09
397.57	228.07
397.95	228.20
398.32	228.23
398.70	228.45
399.07	228.70
399.45	228.92
399.82	228.96
400.20	229.19
400.58	229.27
400.95	229.32
401.33	229.55
401.70	229.78
402.08	230.05
402.45	230.22
402.83	230.43
403.20	230.69
403.58	231.04
403.95	231.42
404.33	231.66
404.71	231.99
405.08	232.34
405.46	232.79
405.83	233.10
406.21	233.51
406.58	233.92
406.96	234.23
407.33	234.63
407.70	235.15
408.08	235.70
408.45	236.27
408.83	236.95
409.20	237.50
409.58	237.99
409.95	238.54
410.33	239.31
410.70	240.00
411.08	240.87
411.45	241.66
411.82	242.50
412.20	243.60
412.57	244.75
412.95	245.57
413.32	246.80
413.69	247.95
414.07	249.13
414.44	250.37
414.82	251.80
415.19	253.46
415.56	255.09
415.94	256.92
416.31	258.85
416.68	260.69
417.06	262.87
417.43	264.99
417.81	267.34
418.18	269.60
418.55	272.13
418.93	274.82
419.30	277.67
419.67	280.57
420.04	283.54
420.42	286.70
420.79	290.44
421.16	294.22
421.54	297.98
421.91	301.84
422.28	305.88
422.66	310.27
423.03	314.43
423.40	318.86
423.77	323.47
424.15	328.26
424.52	333.28
424.89	338.68
425.26	343.96
425.64	348.94
426.01	354.54
426.38	360.21
426.75	365.92
427.13	371.86
427.50	378.12
427.87	384.60
428.24	391.02
428.61	397.22
428.99	403.90
429.36	411.28
429.73	418.65
430.10	425.89
430.47	433.16
430.85	440.85
431.22	448.93
431.59	457.46
431.96	465.52
432.33	474.50
432.70	483.27
433.08	493.39
433.45	503.03
433.82	512.45
434.19	523.08
434.56	533.37
434.93	543.31
435.30	553.43
435.68	564.43
436.05	575.36
436.42	586.08
436.79	595.76
437.16	606.31
437.53	617.40
437.90	628.65
438.27	639.51
438.64	650.83
439.01	661.36
439.38	670.42
439.75	679.30
440.13	689.76
440.50	699.38
440.87	707.88
441.24	716.38
441.61	726.10
441.98	733.29
442.35	741.82
442.72	750.16
443.09	757.99
443.46	763.23
443.83	766.63
444.20	770.07
444.57	775.10
444.94	777.93
445.31	781.00
445.68	783.36
446.05	785.50
446.42	785.78
446.79	785.66
447.16	786.07
447.53	786.58
447.90	783.77
448.27	781.08
448.64	776.20
449.01	773.42
449.37	766.94
449.74	761.11
450.11	753.50
450.48	745.62
450.85	737.56
451.22	730.61
451.59	724.22
451.96	717.90
452.33	708.81
452.70	700.97
453.07	690.87
453.43	681.20
453.80	671.21
454.17	661.70
454.54	652.86
454.91	642.90
455.28	633.50
455.65	624.74
456.02	615.65
456.38	608.15
456.75	598.48
457.12	590.44
457.49	582.40
457.86	574.80
458.23	568.10
458.59	560.52
458.96	552.89
459.33	546.45
459.70	539.71
460.07	534.18
460.43	527.89
460.80	521.98
461.17	516.60
461.54	511.33
461.91	506.10
462.27	500.68
462.64	496.14
463.01	491.04
463.38	486.05
463.74	481.21
464.11	476.85
464.48	473.07
464.85	469.06
465.21	465.64
465.58	462.03
465.95	457.94
466.32	454.69
466.68	451.39
467.05	447.81
467.42	444.60
467.78	441.21
468.15	437.75
468.52	435.38
468.88	432.21
469.25	429.23
469.62	426.88
469.98	424.53
470.35	422.21
470.72	419.94
471.08	417.53
471.45	415.45
471.82	413.33
472.18	410.89
472.55	409.16
472.92	407.32
473.28	405.72
473.65	403.87
474.02	402.16
474.38	400.56
474.75	399.19
475.11	397.57
475.48	396.42
475.85	395.28
476.21	394.31
476.58	393.56
476.94	392.71
477.31	391.82
477.67	390.79
478.04	390.07
478.41	389.48
478.77	389.10
479.14	388.71
479.50	388.40
479.87	388.33
480.23	388.23
480.60	387.96
480.96	387.69
481.33	387.94
481.69	388.08
482.06	388.22
482.42	388.28
482.79	388.54
483.15	388.87
483.52	389.51
483.88	389.89
484.25	390.43
484.61	391.16
484.98	391.93
485.34	393.10
485.71	394.00
486.07	395.05
486.44	396.01
486.80	397.19
487.17	398.50
487.53	399.94
487.90	401.49
488.26	403.28
488.62	405.12
488.99	406.64
489.35	408.28
489.72	410.35
490.08	412.53
490.44	414.68
490.81	416.99
491.17	419.17
491.54	421.69
491.90	423.90
492.26	426.42
492.63	429.19
492.99	431.77
493.36	434.57
493.72	437.45
494.08	440.55
494.45	443.74
494.81	446.85
495.17	450.22
495.54	453.61
495.90	456.87
496.26	460.32
496.63	464.16
496.99	467.95
497.35	471.60
497.72	475.43
498.08	479.20
498.44	483.10
498.80	487.40
499.17	491.39
499.53	495.62
499.89	499.76
500.26	503.80
500.62	507.91
500.98	512.25
501.34	516.65
501.71	520.94
502.07	525.08
502.43	529.35
502.79	533.59
503.16	538.00
503.52	542.30
503.88	546.47
504.24	550.85
504.60	555.09
504.97	559.42
505.33	563.66
505.69	568.34
506.05	572.83
506.41	576.83
506.78	581.14
507.14	585.27
507.50	589.42
507.86	593.45
508.22	597.74
508.59	601.53
508.95	605.58
509.31	609.73
509.67	613.98
510.03	618.01
510.39	621.80
510.75	625.62
511.12	629.35
511.48	633.34
511.84	636.76
512.20	640.42
512.56	644.16
512.92	647.86
513.28	651.17
513.64	654.17
514.00	657.36
514.37	660.60
514.73	663.90
515.09	666.91
515.45	669.90
515.81	672.64
516.17	675.84
516.53	678.69
516.89	681.09
517.25	683.53
517.61	686.13
517.97	688.71
518.33	690.91
518.69	693.30
519.05	695.62
519.41	698.07
519.77	700.46
520.13	702.55
520.49	704.72
520.85	706.81
521.21	709.07
521.57	711.35
521.93	713.07
522.29	715.17
522.65	717.26
523.01	719.13
523.37	721.11
523.73	723.01
524.09	724.75
524.45	726.70
524.81	728.58
525.17	730.44
525.53	732.21
525.89	734.10
526.25	736.33
526.61	737.91
526.97	739.81
527.33	741.57
527.68	743.62
528.04	745.15
528.40	747.10
528.76	749.31
529.12	751.33
529.48	753.51
529.84	755.14
530.20	757.25
530.56	759.60
530.91	761.81
531.27	763.59
531.63	765.82
531.99	768.01
532.35	770.17
532.71	772.12
533.07	774.40
533.42	776.72
533.78	778.74
534.14	781.00
534.50	782.85
534.86	785.09
535.21	787.06
535.57	789.50
535.93	791.86
536.29	793.94
536.65	796.32
537.00	798.45
537.36	801.05
537.72	803.28
538.08	805.53
538.44	807.75
538.79	810.38
539.15	812.54
539.51	815.04
539.87	817.62
540.22	820.37
540.58	823.28
540.94	825.71
541.29	828.24
541.65	830.66
542.01	833.65
542.37	836.49
542.72	838.97
543.08	841.70
543.44	844.16
543.79	846.43
544.15	848.90
544.51	852.00
544.87	854.76
545.22	857.56
545.58	860.17
545.94	862.63
546.29	865.14
546.65	868.07
547.01	870.69
547.36	873.19
547.72	875.85
548.07	878.20
548.43	880.94
548.79	883.60
549.14	886.19
549.50	888.51
549.86	890.78
550.21	893.47
550.57	896.01
550.92	898.54
551.28	901.25
551.64	903.78
551.99	906.17
552.35	908.43
552.70	910.65
553.06	913.37
553.41	916.18
553.77	918.96
554.13	921.40
554.48	924.11
554.84	926.84
555.19	929.35
555.55	931.53
555.90	933.69
556.26	936.12
556.61	938.64
556.97	941.05
557.32	943.79
557.68	946.33
558.03	948.72
558.39	951.03
558.74	953.96
559.10	956.48
559.45	958.73
559.81	961.80
560.16	964.35
560.52	966.41
560.87	969.01
561.23	971.09
561.58	973.64
561.94	976.03
562.29	977.98
562.64	979.88
563.00	982.24
563.35	985.12
563.71	987.58
564.06	990.16
564.42	992.32
564.77	994.54
565.12	997.05
565.48	999.38
565.83	1001.61
566.19	1003.36
566.54	1005.43
566.89	1007.19
567.25	1008.71
567.60	1011.09
567.96	1013.08
568.31	1014.51
568.66	1016.41
569.02	1017.86
569.37	1019.03
569.72	1020.41
570.08	1021.93
570.43	1023.20
570.78	1024.00
571.14	1024.74
571.49	1025.67
571.84	1026.94
572.20	1027.91
572.55	1028.43
572.90	1029.03
573.26	1029.90
573.61	1030.64
573.96	1030.91
574.31	1031.43
574.67	1031.32
575.02	1031.15
575.37	1031.35
575.72	1031.28
576.08	1031.27
576.43	1031.11
576.78	1031.21
577.13	1031.47
577.49	1031.37
577.84	1031.19
578.19	1031.08
578.54	1030.80
578.90	1030.21
579.25	1029.56
579.60	1028.55
579.95	1027.70
580.30	1026.82
580.66	1026.00
581.01	1025.00
581.36	1024.22
581.71	1023.75
582.06	1023.21
582.42	1022.12
582.77	1021.01
583.12	1020.23
583.47	1019.51
583.82	1018.63
584.17	1017.20
584.53	1016.24
584.88	1015.08
585.23	1014.12
585.58	1013.08
585.93	1012.39
586.28	1011.73
586.63	1010.69
586.98	1009.63
587.34	1008.61
587.69	1007.49
588.04	1006.23
588.39	1005.08
588.74	1003.35
589.09	1001.44
589.44	999.66
589.79	998.14
590.14	996.92
590.49	995.46
590.84	993.29
591.19	991.80
591.54	990.05
591.89	987.49
592.25	985.88
592.60	983.64
592.95	981.05
593.30	978.53
593.65	975.82
594.00	973.37
594.35	971.40
594.70	968.90
595.05	966.53
595.40	963.84
595.75	961.42
596.10	959.25
596.45	957.34
596.80	955.16
597.15	952.96
597.50	950.11
597.85	947.73
598.19	945.86
598.54	943.58
598.89	941.33
599.24	939.59
599.59	937.24
599.94	935.07
600.29	933.01
600.64	930.68
600.99	928.13
601.34	925.88
601.69	923.01
602.04	920.52
602.39	918.01
602.74	916.09
603.08	913.56
603.43	911.45
603.78	908.80
604.13	906.18
604.48	903.70
604.83	901.46
605.18	899.07
605.53	895.77
605.87	892.32
606.22	889.58
606.57	886.51
606.92	883.62
607.27	881.02
607.62	878.54
607.96	875.85
608.31	873.60
608.66	870.73
609.01	868.00
609.36	865.12
609.70	861.95
610.05	858.45
610.40	855.23
610.75	852.02
611.10	848.90
611.44	845.30
611.79	841.98
612.14	838.38
612.49	834.42
612.83	831.33
613.18	828.40
613.53	825.35
613.88	822.20
614.22	818.58
614.57	814.93
614.92	811.35
615.27	807.74
615.61	804.13
615.96	800.66
616.31	797.52
616.65	794.76
617.00	791.78
617.35	788.66
617.70	785.48
618.04	782.07
618.39	778.63
618.74	775.98
619.08	772.63
619.43	769.72
619.78	766.91
620.12	763.78
620.47	760.33
620.82	756.87
621.16	753.42
621.51	750.62
621.85	747.35
622.20	744.09
622.55	741.11
622.89	737.88
623.24	735.08
623.59	731.81
623.93	728.55
624.28	725.63
624.62	722.76
624.97	719.87
625.32	716.91
625.66	714.23
626.01	711.25
626.35	708.35
626.70	705.34
627.04	702.40
627.39	699.31
627.73	696.43
628.08	693.55
628.43	690.68
628.77	687.59
629.12	684.72
629.46	681.95
629.81	678.71
630.15	675.78
630.50	672.44
630.84	669.27
631.19	665.90
631.53	662.77
631.88	659.47
632.22	656.24
632.57	653.30
632.91	650.01
633.26	646.95
633.60	644.01
633.95	641.07
634.29	638.24
634.64	635.68
634.98	632.82
635.32	629.93
635.67	627.17
636.01	624.37
636.36	621.72
636.70	618.88
637.05	616.25
637.39	613.70
637.73	611.20
638.08	608.97
638.42	606.49
638.77	603.86
639.11	601.31
639.45	598.78
639.80	596.03
640.14	593.48
640.49	590.86
640.83	588.21
641.17	585.74
641.52	583.05
641.86	580.43
642.20	578.05
642.55	575.70
642.89	573.28
643.23	570.74
643.58	568.27
643.92	565.48
644.26	563.05
644.61	560.68
644.95	558.32
645.29	555.41
645.64	552.83
645.98	550.29
646.32	547.83
646.66	545.33
647.01	542.95
647.35	540.42
647.69	538.00
648.04	535.79
648.38	533.25
648.72	530.58
649.06	527.90
649.41	525.43
649.75	522.61
650.09	519.90
650.43	517.28
650.78	514.55
651.12	512.04
651.46	509.64
651.80	507.00
652.14	504.39
652.49	502.10
652.83	499.88
653.17	497.40
653.51	495.06
653.85	492.53
654.20	490.00
654.54	487.57
654.88	484.89
655.22	482.09
655.56	479.45
655.90	477.20
656.25	474.91
656.59	472.47
656.93	470.48
657.27	468.41
657.61	466.16
657.95	464.27
658.29	462.24
658.64	459.94
658.98	457.73
659.32	455.45
659.66	453.37
660.00	451.15
660.34	448.97
660.68	446.76
661.02	444.83
661.36	442.93
661.70	441.00
662.05	439.27
662.39	437.67
662.73	435.83
663.07	433.96
663.41	432.18
663.75	430.32
664.09	428.36
664.43	426.49
664.77	424.80
665.11	422.71
665.45	421.06
665.79	419.30
666.13	417.52
666.47	415.89
666.81	414.13
667.15	412.40
667.49	410.78
667.83	409.13
668.17	407.41
668.51	405.71
668.85	404.05
669.19	402.42
669.53	400.59
669.87	399.01
670.21	397.48
670.55	395.86
670.89	394.58
671.23	393.12
671.57	391.46
671.91	389.90
672.25	388.59
672.58	387.05
672.92	385.53
673.26	384.13
673.60	382.74
673.94	381.32
674.28	379.97
674.62	378.69
674.96	377.40
675.30	376.06
675.64	374.76
675.97	373.51
676.31	372.19
676.65	370.90
676.99	369.79
677.33	368.50
677.67	367.28
678.01	365.72
678.34	364.52
678.68	363.30
679.02	362.04
679.36	360.70
679.70	359.41
680.04	358.26
680.37	357.06
680.71	355.78
681.05	354.65
681.39	353.57
681.73	352.43
682.06	351.33
682.40	350.31
682.74	349.11
683.08	347.98
683.42	346.88
683.75	345.84
684.09	344.66
684.43	343.42
684.77	342.20
685.10	340.97
685.44	339.69
685.78	338.64
686.12	337.69
686.45	336.67
686.79	335.69
687.13	334.65
687.46	333.59
687.80	332.79
688.14	331.67
688.48	330.41
688.81	329.33
689.15	328.09
689.49	326.87
689.82	325.94
690.16	324.70
690.50	323.69
690.83	322.69
691.17	321.61
691.51	320.69
691.84	319.89
692.18	319.10
692.52	318.17
692.85	317.20
693.19	316.10
693.52	315.17
693.86	314.09
694.20	313.18
694.53	312.21
694.87	311.00
695.21	310.07
695.54	309.13
695.88	308.09
696.21	307.30
696.55	306.61
696.88	305.73
697.22	305.01
697.56	304.33
697.89	303.51
698.23	302.79
698.56	302.08
698.90	301.17
699.23	300.22
699.57	299.41
699.90	298.65
700.24	297.89
700.58	297.13
700.91	296.49
701.25	295.80
701.58	295.23
701.92	294.71
702.25	294.06
702.59	293.46
702.92	292.90
703.26	292.09
703.59	291.30
703.93	290.87
704.26	290.36
704.60	289.59
704.93	288.90
705.26	288.25
705.60	287.59
705.93	287.02
706.27	286.62
706.60	286.16
706.94	285.59
707.27	284.95
707.61	284.38
707.94	283.80
708.27	283.04
708.61	282.30
708.94	281.61
709.28	281.00
709.61	280.45
709.94	280.02
710.28	279.59
710.61	279.15
710.95	278.42
711.28	277.92
711.61	277.40
711.95	276.87
712.28	276.37
712.61	275.73
712.95	275.33
713.28	274.91
713.61	274.20
713.95	273.73
714.28	273.39
714.61	272.86
714.95	272.41
715.28	272.05
715.61	271.65
715.95	271.30
716.28	270.94
716.61	270.53
716.95	270.05
717.28	269.70
717.61	269.26
717.94	268.80
718.28	268.24
718.61	267.80
718.94	267.36
719.27	266.84
719.61	266.56
719.94	266.09
720.27	265.53
720.60	265.30
720.94	264.91
721.27	264.41
721.60	264.07
721.93	263.64
722.27	263.33
722.60	262.92
722.93	262.53
723.26	262.13
723.59	261.76
723.93	261.33
724.26	260.87
724.59	260.55
724.92	260.25
725.25	259.93
725.59	259.67
725.92	259.34
726.25	258.98
726.58	258.69
726.91	258.32
727.24	258.08
727.57	257.82
727.91	257.54
728.24	257.45
728.57	257.20
728.90	257.00
729.23	256.70
729.56	256.51
729.89	256.30
730.22	255.94
730.55	255.65
730.89	255.39
731.22	255.23
731.55	254.82
731.88	254.49
732.21	254.24
732.54	253.96
732.87	253.82
733.20	253.55
733.53	253.14
733.86	252.81
734.19	252.49
734.52	252.14
734.85	252.01
735.18	251.60
735.51	251.41
735.84	251.12
736.17	250.84
736.50	250.50
736.83	250.30
737.16	250.11
737.49	249.90
737.82	249.68
738.15	249.43
738.48	249.26
738.81	249.06
739.14	248.81
739.47	248.54
739.80	248.33
740.13	248.21
740.46	248.16
740.79	247.97
741.12	247.84
741.45	247.72
741.78	247.32
742.11	247.14
742.44	246.85
742.77	246.65
743.10	246.47
743.43	246.20
743.75	245.80
744.08	245.90
744.41	245.60
744.74	245.39
745.07	245.10
745.40	244.87
745.73	244.77
746.06	244.58
746.39	244.47
746.71	244.25
747.04	244.08
747.37	243.71
747.70	243.53
748.03	243.30
748.36	243.16
748.68	243.07
749.01	242.84
749.34	242.57
749.67	242.43
750.00	242.26
750.33	242.30
750.65	242.29
750.98	241.78
751.31	241.72
751.64	241.60
751.97	241.51
752.29	241.46
752.62	241.23
752.95	241.14
753.28	240.91
753.60	240.70
753.93	240.58
754.26	240.65
754.59	240.58
754.91	240.45
755.24	240.27
755.57	240.12
755.90	240.06
756.22	239.99
756.55	239.84
756.88	239.73
757.20	239.50
757.53	239.30
757.86	239.30
758.19	239.20
758.51	239.09
758.84	238.87
759.17	238.89
759.49	238.75
759.82	238.64
760.15	238.58
760.47	238.50
760.80	238.28
761.13	238.14
761.45	237.97
761.78	237.85
762.11	237.69
762.43	237.57
762.76	237.47
763.08	237.37
763.41	237.30
763.74	237.20
764.06	237.16
764.39	237.13
764.71	237.00
765.04	236.91
765.37	236.86
765.69	236.92
766.02	236.61
766.34	236.51
766.67	236.37
767.00	236.28
767.32	236.36
767.65	236.54
767.97	236.42
768.30	236.40
768.62	236.35
768.95	236.31
769.27	236.33
769.60	236.26
769.92	236.30
770.25	236.11
770.57	235.97
770.90	235.85
771.22	235.63
771.55	235.51
771.87	235.45
772.20	235.26
772.52	235.29
772.85	235.52
773.17	235.46
773.50	235.30
773.82	235.23
774.15	234.99
774.47	234.67
774.80	234.57
775.12	234.43
775.45	234.43
775.77	234.40
776.09	234.28
776.42	234.21
776.74	234.07
777.07	234.10
777.39	234.11
777.72	233.97
778.04	234.06
778.36	234.00
778.69	233.97
779.01	233.96
779.33	233.77
779.66	233.45
779.98	233.40
780.31	233.50
780.63	233.56
780.95	233.50
781.28	233.52
781.60	233.50
781.92	233.42
782.25	233.36
782.57	233.37
782.89	233.32
783.22	233.26
783.54	233.13
783.86	232.95
784.19	232.83
784.51	232.97
784.83	232.80
785.16	232.70
785.48	232.61
785.80	232.64
786.12	232.66
786.45	232.70
786.77	232.64
787.09	232.50
787.42	232.31
787.74	232.39
788.06	232.28
788.38	232.30
788.71	232.23
789.03	232.18
789.35	232.03
789.67	231.87
789.99	231.85
790.32	231.77
790.64	231.79
790.96	231.84
791.28	231.65
791.61	231.58
791.93	231.53
792.25	231.50
792.57	231.52
792.89	231.33
