SpectraSuite Data File
++++++++++++++++++++++++++++++++++++
Date: Fri Feb 01 14:40:09 EST 2013
User: group
Dark Spectrum Present: No
Reference Spectrum Present: No
Number of Sampled Component Spectra: 1
Spectrometers: USB2E7196
Integration Time (usec): 70000 (USB2E7196)
Spectra Averaged: 10 (USB2E7196)
Boxcar Smoothing: 10 (USB2E7196)
Correct for Electrical Dark: No (USB2E7196)
Strobe/Lamp Enabled: No (USB2E7196)
Correct for Detector Non-linearity: No (USB2E7196)
Correct for Stray Light: No (USB2E7196)
Number of Pixels in Processed Spectrum: 2048
>>>>>Begin Processed Spectral Data<<<<<
339.09	0.00
339.48	217.30
339.86	217.00
340.24	218.60
340.63	220.90
341.01	224.20
341.39	224.00
341.78	224.60
342.16	225.10
342.54	226.30
342.93	214.76
343.31	225.59
343.69	226.10
344.07	226.53
344.46	226.99
344.84	227.26
345.22	227.37
345.60	227.52
345.99	227.65
346.37	227.74
346.75	227.90
347.13	227.94
347.52	227.86
347.90	227.91
348.28	227.81
348.66	227.87
349.05	227.73
349.43	227.68
349.81	227.55
350.19	227.62
350.57	227.65
350.96	227.67
351.34	227.76
351.72	227.73
352.10	227.85
352.48	227.87
352.87	227.88
353.25	227.99
353.63	228.18
354.01	228.20
354.39	228.26
354.77	228.25
355.15	228.42
355.54	228.62
355.92	228.72
356.30	228.83
356.68	228.90
357.06	229.06
357.44	229.14
357.82	229.20
358.20	229.28
358.58	229.40
358.97	229.49
359.35	229.65
359.73	229.78
360.11	229.84
360.49	229.90
360.87	230.14
361.25	230.12
361.63	230.16
362.01	230.31
362.39	230.38
362.77	230.40
363.15	230.44
363.53	230.45
363.91	230.43
364.29	230.48
364.67	230.42
365.05	230.41
365.43	230.49
365.81	230.51
366.19	230.64
366.57	230.69
366.95	230.71
367.33	230.52
367.71	230.54
368.09	230.56
368.47	230.53
368.85	230.37
369.23	230.54
369.61	230.45
369.99	230.51
370.37	230.63
370.75	230.73
371.13	230.66
371.51	230.55
371.89	230.40
372.27	230.28
372.65	230.20
373.03	230.13
373.41	230.09
373.78	230.08
374.16	229.77
374.54	229.74
374.92	229.66
375.30	229.64
375.68	229.59
376.06	229.50
376.44	229.44
376.82	229.36
377.19	229.26
377.57	229.13
377.95	228.97
378.33	228.84
378.71	228.59
379.09	228.57
379.47	228.54
379.84	228.52
380.22	228.54
380.60	228.46
380.98	228.43
381.36	228.29
381.73	228.26
382.11	228.21
382.49	228.08
382.87	228.03
383.25	228.00
383.62	228.10
384.00	228.07
384.38	227.95
384.76	228.05
385.13	227.91
385.51	227.94
385.89	227.81
386.27	227.73
386.64	227.76
387.02	227.63
387.40	227.61
387.78	227.66
388.15	227.62
388.53	227.58
388.91	227.52
389.29	227.50
389.66	227.33
390.04	227.37
390.42	227.35
390.79	227.22
391.17	227.11
391.55	226.82
391.92	226.77
392.30	226.83
392.68	226.66
393.05	226.75
393.43	226.66
393.81	226.70
394.18	226.75
394.56	226.75
394.94	226.71
395.31	226.62
395.69	226.57
396.06	226.64
396.44	226.70
396.82	226.75
397.19	226.97
397.57	227.10
397.95	227.19
398.32	227.23
398.70	227.40
399.07	227.61
399.45	227.72
399.82	227.80
400.20	227.96
400.58	228.06
400.95	228.00
401.33	228.20
401.70	228.50
402.08	228.45
402.45	228.58
402.83	228.78
403.20	228.95
403.58	229.11
403.95	229.23
404.33	229.34
404.71	229.56
405.08	229.68
405.46	229.73
405.83	229.93
406.21	230.00
406.58	230.22
406.96	230.34
407.33	230.59
407.70	230.80
408.08	231.08
408.45	231.34
408.83	231.75
409.20	231.90
409.58	231.97
409.95	232.29
410.33	232.51
410.70	232.77
411.08	233.02
411.45	233.33
411.82	233.57
412.20	233.96
412.57	234.21
412.95	234.48
413.32	234.94
413.69	235.20
414.07	235.71
414.44	236.11
414.82	236.55
415.19	236.96
415.56	237.41
415.94	237.85
416.31	238.47
416.68	239.00
417.06	239.70
417.43	240.34
417.81	241.05
418.18	241.87
418.55	242.54
418.93	243.40
419.30	244.19
419.67	245.11
420.04	246.03
420.42	247.08
420.79	248.29
421.16	249.46
421.54	250.71
421.91	251.91
422.28	253.07
422.66	254.41
423.03	255.81
423.40	257.17
423.77	258.51
424.15	259.84
424.52	261.27
424.89	262.78
425.26	264.27
425.64	265.66
426.01	267.11
426.38	268.87
426.75	270.43
427.13	272.20
427.50	273.90
427.87	275.68
428.24	277.48
428.61	279.09
428.99	280.90
429.36	282.93
429.73	284.85
430.10	286.79
430.47	288.78
430.85	290.85
431.22	293.01
431.59	295.43
431.96	297.74
432.33	300.12
432.70	302.45
433.08	305.29
433.45	308.04
433.82	310.76
434.19	313.65
434.56	316.46
434.93	318.99
435.30	321.68
435.68	324.64
436.05	327.41
436.42	330.15
436.79	332.78
437.16	335.49
437.53	338.39
437.90	341.30
438.27	344.04
438.64	346.88
439.01	349.61
439.38	351.80
439.75	354.04
440.13	356.71
440.50	359.28
440.87	361.25
441.24	363.23
441.61	365.42
441.98	367.01
442.35	369.07
442.72	371.10
443.09	372.96
443.46	374.03
443.83	374.70
444.20	375.39
444.57	376.36
444.94	376.65
445.31	377.18
445.68	377.67
446.05	377.81
446.42	377.44
446.79	376.97
447.16	376.70
447.53	376.52
447.90	375.49
448.27	374.36
448.64	372.83
449.01	371.75
449.37	369.76
449.74	367.92
450.11	365.90
450.48	363.35
450.85	360.96
451.22	358.91
451.59	357.05
451.96	355.24
452.33	352.58
452.70	350.41
453.07	347.57
453.43	344.68
453.80	341.96
454.17	339.42
454.54	337.00
454.91	334.20
455.28	331.54
455.65	328.99
456.02	326.63
456.38	324.60
456.75	321.87
457.12	319.78
457.49	317.51
457.86	315.06
458.23	313.31
458.59	311.14
458.96	308.97
459.33	306.97
459.70	304.95
460.07	303.41
460.43	301.53
460.80	299.87
461.17	298.30
461.54	296.78
461.91	295.29
462.27	293.81
462.64	292.61
463.01	291.11
463.38	289.71
463.74	288.04
464.11	286.64
464.48	285.50
464.85	284.27
465.21	283.37
465.58	282.29
465.95	280.99
466.32	279.99
466.68	278.96
467.05	278.01
467.42	277.01
467.78	276.06
468.15	275.16
468.52	274.40
468.88	273.52
469.25	272.62
469.62	271.78
469.98	270.90
470.35	270.09
470.72	269.34
471.08	268.50
471.45	267.89
471.82	267.16
472.18	266.46
472.55	265.75
472.92	265.00
473.28	264.46
473.65	263.90
474.02	263.28
474.38	262.83
474.75	262.40
475.11	261.90
475.48	261.30
475.85	260.82
476.21	260.37
476.58	259.98
476.94	259.65
477.31	259.28
477.67	258.98
478.04	258.56
478.41	258.25
478.77	258.16
479.14	257.77
479.50	257.59
479.87	257.41
480.23	257.17
480.60	256.99
480.96	256.80
481.33	256.82
481.69	256.82
482.06	256.66
482.42	256.42
482.79	256.38
483.15	256.29
483.52	256.29
483.88	256.27
484.25	256.15
484.61	256.17
484.98	256.11
485.34	256.25
485.71	256.42
486.07	256.45
486.44	256.30
486.80	256.53
487.17	256.56
487.53	256.70
487.90	256.95
488.26	257.18
488.62	257.33
488.99	257.48
489.35	257.61
489.72	257.74
490.08	258.03
490.44	258.16
490.81	258.55
491.17	258.85
491.54	259.20
491.90	259.67
492.26	260.07
492.63	260.48
492.99	260.73
493.36	261.18
493.72	261.83
494.08	262.46
494.45	263.02
494.81	263.70
495.17	264.43
495.54	265.12
495.90	265.72
496.26	266.51
496.63	267.33
496.99	268.15
497.35	269.22
497.72	270.24
498.08	271.28
498.44	272.30
498.80	273.51
499.17	274.66
499.53	275.77
499.89	277.06
500.26	278.47
500.62	279.95
500.98	281.31
501.34	282.80
501.71	284.44
502.07	286.04
502.43	287.71
502.79	289.38
503.16	291.27
503.52	293.26
503.88	295.17
504.24	297.24
504.60	299.45
504.97	301.61
505.33	304.01
505.69	306.66
506.05	309.30
506.41	312.02
506.78	314.74
507.14	317.64
507.50	320.61
507.86	323.86
508.22	327.12
508.59	330.44
508.95	333.85
509.31	337.34
509.67	341.16
510.03	344.97
510.39	348.90
510.75	352.94
511.12	357.17
511.48	361.57
511.84	365.96
512.20	370.60
512.56	375.32
512.92	380.28
513.28	385.09
513.64	390.14
514.00	395.29
514.37	400.60
514.73	406.14
515.09	411.64
515.45	417.32
515.81	423.02
516.17	429.09
516.53	435.25
516.89	441.49
517.25	447.77
517.61	454.36
517.97	461.04
518.33	467.68
518.69	474.49
519.05	481.42
519.41	488.62
519.77	496.11
520.13	503.73
520.49	510.88
520.85	518.73
521.21	526.43
521.57	534.46
521.93	542.34
522.29	550.59
522.65	558.85
523.01	567.15
523.37	575.50
523.73	584.04
524.09	592.70
524.45	601.55
524.81	610.46
525.17	619.51
525.53	628.85
525.89	638.03
526.25	647.59
526.61	656.89
526.97	666.18
527.33	675.60
527.68	685.18
528.04	695.13
528.40	704.86
528.76	714.99
529.12	724.97
529.48	735.35
529.84	745.11
530.20	755.59
530.56	765.98
530.91	776.87
531.27	787.38
531.63	798.05
531.99	808.45
532.35	818.84
532.71	829.15
533.07	839.82
533.42	850.75
533.78	861.39
534.14	872.31
534.50	882.99
534.86	893.51
535.21	904.33
535.57	915.23
535.93	925.79
536.29	936.64
536.65	947.61
537.00	958.27
537.36	969.55
537.72	979.93
538.08	990.70
538.44	1001.10
538.79	1011.83
539.15	1022.01
539.51	1033.16
539.87	1044.45
540.22	1055.35
540.58	1066.09
540.94	1076.55
541.29	1087.15
541.65	1097.32
542.01	1108.28
542.37	1118.82
542.72	1128.90
543.08	1139.13
543.44	1149.41
543.79	1158.90
544.15	1168.63
544.51	1179.11
544.87	1188.94
545.22	1198.80
545.58	1208.23
545.94	1217.64
546.29	1226.99
546.65	1236.66
547.01	1245.29
547.36	1253.92
547.72	1262.82
548.07	1271.50
548.43	1280.07
548.79	1288.25
549.14	1296.69
549.50	1304.76
549.86	1312.66
550.21	1320.93
550.57	1328.92
550.92	1336.80
551.28	1344.60
551.64	1352.12
551.99	1359.66
552.35	1367.25
552.70	1375.05
553.06	1382.83
553.41	1390.30
553.77	1397.84
554.13	1404.92
554.48	1412.35
554.84	1419.88
555.19	1426.77
555.55	1433.66
555.90	1440.50
556.26	1447.11
556.61	1453.75
556.97	1459.80
557.32	1466.43
557.68	1472.48
558.03	1478.79
558.39	1485.17
558.74	1491.98
559.10	1498.02
559.45	1503.66
559.81	1509.65
560.16	1514.88
560.52	1520.10
560.87	1525.76
561.23	1530.50
561.58	1536.06
561.94	1540.78
562.29	1544.70
562.64	1549.48
563.00	1553.95
563.35	1558.91
563.71	1564.27
564.06	1569.18
564.42	1573.95
564.77	1578.55
565.12	1583.40
565.48	1587.92
565.83	1591.75
566.19	1595.70
566.54	1599.47
566.89	1602.94
567.25	1606.40
567.60	1610.50
567.96	1613.99
568.31	1617.53
568.66	1620.74
569.02	1623.60
569.37	1626.70
569.72	1630.18
570.08	1632.62
570.43	1634.96
570.78	1637.09
571.14	1638.70
571.49	1640.67
571.84	1643.20
572.20	1644.84
572.55	1645.97
572.90	1646.70
573.26	1648.59
573.61	1649.74
573.96	1650.81
574.31	1651.38
574.67	1651.22
575.02	1651.33
575.37	1651.73
575.72	1651.26
576.08	1651.76
576.43	1651.48
576.78	1651.26
577.13	1651.38
577.49	1651.44
577.84	1651.25
578.19	1650.60
578.54	1650.10
578.90	1649.30
579.25	1647.30
579.60	1646.07
579.95	1644.72
580.30	1643.33
580.66	1641.09
581.01	1639.04
581.36	1637.57
581.71	1636.47
582.06	1635.11
582.42	1633.25
582.77	1631.03
583.12	1629.30
583.47	1627.18
583.82	1625.31
584.17	1623.16
584.53	1620.73
584.88	1618.70
585.23	1616.58
585.58	1614.70
585.93	1612.48
586.28	1610.14
586.63	1608.36
586.98	1606.53
587.34	1604.34
587.69	1602.29
588.04	1600.36
588.39	1598.40
588.74	1594.94
589.09	1591.66
589.44	1588.07
589.79	1585.25
590.14	1583.06
590.49	1579.82
590.84	1576.70
591.19	1573.66
591.54	1569.79
591.89	1565.27
592.25	1561.60
592.60	1557.25
592.95	1552.85
593.30	1548.61
593.65	1544.31
594.00	1540.28
594.35	1536.39
594.70	1531.91
595.05	1528.09
595.40	1523.58
595.75	1518.83
596.10	1515.58
596.45	1512.29
596.80	1509.42
597.15	1505.40
597.50	1501.17
597.85	1497.51
598.19	1493.93
598.54	1490.07
598.89	1486.61
599.24	1483.83
599.59	1480.08
599.94	1476.76
600.29	1473.13
600.64	1469.31
600.99	1465.05
601.34	1461.09
601.69	1456.41
602.04	1452.80
602.39	1448.19
602.74	1444.87
603.08	1441.24
603.43	1437.10
603.78	1432.50
604.13	1428.03
604.48	1424.04
604.83	1419.62
605.18	1415.36
605.53	1410.10
605.87	1405.11
606.22	1400.56
606.57	1395.66
606.92	1390.61
607.27	1386.12
607.62	1381.60
607.96	1377.19
608.31	1373.06
608.66	1368.07
609.01	1362.87
609.36	1357.29
609.70	1351.65
610.05	1345.54
610.40	1340.12
610.75	1334.30
611.10	1328.76
611.44	1322.82
611.79	1317.17
612.14	1311.49
612.49	1305.19
612.83	1299.61
613.18	1294.11
613.53	1288.67
613.88	1282.42
614.22	1276.40
614.57	1270.14
614.92	1264.37
615.27	1258.46
615.61	1252.49
615.96	1246.79
616.31	1241.59
616.65	1236.81
617.00	1231.96
617.35	1226.93
617.70	1221.10
618.04	1215.47
618.39	1209.89
618.74	1204.52
619.08	1198.91
619.43	1193.37
619.78	1188.30
620.12	1182.98
620.47	1177.62
620.82	1171.85
621.16	1167.02
621.51	1162.04
621.85	1156.60
622.20	1150.76
622.55	1145.28
622.89	1140.01
623.24	1134.84
623.59	1129.44
623.93	1123.97
624.28	1118.36
624.62	1112.65
624.97	1107.82
625.32	1102.73
625.66	1097.72
626.01	1092.56
626.35	1086.90
626.70	1081.70
627.04	1076.25
627.39	1070.76
627.73	1065.08
628.08	1059.79
628.43	1054.12
628.77	1048.43
629.12	1043.01
629.46	1037.55
629.81	1031.65
630.15	1026.11
630.50	1020.54
630.84	1014.63
631.19	1008.71
631.53	1003.08
631.88	997.14
632.22	991.00
632.57	985.70
632.91	979.74
633.26	974.19
633.60	968.59
633.95	963.11
634.29	957.83
634.64	952.93
634.98	947.67
635.32	942.61
635.67	937.48
636.01	932.66
636.36	927.60
636.70	922.71
637.05	917.97
637.39	913.20
637.73	908.30
638.08	903.97
638.42	899.74
638.77	895.12
639.11	890.45
639.45	885.85
639.80	880.81
640.14	876.23
640.49	871.31
640.83	866.57
641.17	861.78
641.52	857.01
641.86	851.98
642.20	847.34
642.55	842.58
642.89	837.81
643.23	832.86
643.58	828.52
643.92	823.71
644.26	819.02
644.61	814.24
644.95	809.57
645.29	804.19
645.64	798.86
645.98	794.00
646.32	789.70
646.66	784.81
647.01	780.16
647.35	775.46
647.69	771.08
648.04	766.90
648.38	762.03
648.72	757.14
649.06	752.42
649.41	747.82
649.75	743.01
650.09	738.33
650.43	733.76
650.78	728.70
651.12	724.14
651.46	719.69
651.80	715.22
652.14	710.87
652.49	706.78
652.83	702.67
653.17	698.15
653.51	693.55
653.85	689.26
654.20	684.98
654.54	680.33
654.88	675.75
655.22	671.14
655.56	666.74
655.90	662.78
656.25	658.56
656.59	654.23
656.93	650.00
657.27	645.98
657.61	641.81
657.95	637.95
658.29	634.01
658.64	630.03
658.98	626.00
659.32	621.62
659.66	617.52
660.00	613.53
660.34	609.75
660.68	605.93
661.02	602.00
661.36	598.37
661.70	595.05
662.05	591.67
662.39	588.08
662.73	584.69
663.07	581.05
663.41	577.93
663.75	574.56
664.09	571.22
664.43	567.69
664.77	564.50
665.11	561.29
665.45	558.02
665.79	554.53
666.13	551.14
666.47	547.97
666.81	544.78
667.15	541.16
667.49	538.07
667.83	535.02
668.17	531.99
668.51	528.73
668.85	525.47
669.19	522.40
669.53	519.49
669.87	516.33
670.21	513.42
670.55	510.30
670.89	507.54
671.23	504.90
671.57	502.24
671.91	499.50
672.25	496.51
672.58	493.84
672.92	491.30
673.26	488.70
673.60	486.20
673.94	483.50
674.28	481.16
674.62	478.84
674.96	476.19
675.30	473.90
675.64	471.55
675.97	469.18
676.31	466.70
676.65	464.29
676.99	462.08
677.33	459.59
677.67	457.25
678.01	454.78
678.34	452.36
678.68	450.00
679.02	447.64
679.36	445.47
679.70	443.19
680.04	441.07
680.37	438.79
680.71	436.42
681.05	434.51
681.39	432.35
681.73	430.23
682.06	428.27
682.40	426.24
682.74	424.10
683.08	422.18
683.42	420.21
683.75	418.19
684.09	415.98
684.43	413.93
684.77	411.95
685.10	410.10
685.44	408.11
685.78	406.24
686.12	404.27
686.45	402.30
686.79	400.48
687.13	398.55
687.46	396.66
687.80	394.89
688.14	392.86
688.48	391.11
688.81	389.22
689.15	387.37
689.49	385.46
689.82	383.69
690.16	381.98
690.50	380.22
690.83	378.59
691.17	376.96
691.51	375.35
691.84	373.83
692.18	372.09
692.52	370.34
692.85	368.70
693.19	367.08
693.52	365.52
693.86	363.70
694.20	362.14
694.53	360.70
694.87	359.24
695.21	357.80
695.54	356.25
695.88	354.60
696.21	353.15
696.55	351.76
696.88	350.44
697.22	348.98
697.56	347.59
697.89	345.99
698.23	344.69
698.56	343.43
698.90	342.00
699.23	340.58
699.57	339.35
699.90	337.96
700.24	336.66
700.58	335.36
700.91	334.28
701.25	333.11
701.58	331.93
701.92	330.74
702.25	329.55
702.59	328.46
702.92	327.37
703.26	326.29
703.59	325.11
703.93	324.16
704.26	323.01
704.60	321.83
704.93	320.83
705.26	319.75
705.60	318.60
705.93	317.55
706.27	316.59
706.60	315.58
706.94	314.71
707.27	313.78
707.61	312.84
707.94	311.91
708.27	310.76
708.61	309.74
708.94	308.70
709.28	307.81
709.61	306.91
709.94	305.96
710.28	305.01
710.61	304.07
710.95	302.95
711.28	302.13
711.61	301.27
711.95	300.44
712.28	299.59
712.61	298.71
712.95	297.97
713.28	297.17
713.61	296.22
713.95	295.40
714.28	294.58
714.61	293.73
714.95	292.82
715.28	292.10
715.61	291.32
715.95	290.66
716.28	289.90
716.61	289.12
716.95	288.37
717.28	287.71
717.61	287.09
717.94	286.35
718.28	285.52
718.61	284.83
718.94	284.26
719.27	283.65
719.61	283.07
719.94	282.32
720.27	281.69
720.60	281.30
720.94	280.72
721.27	280.26
721.60	279.78
721.93	279.35
722.27	278.84
722.60	278.38
722.93	277.80
723.26	277.25
723.59	276.71
723.93	276.32
724.26	275.76
724.59	275.24
724.92	274.72
725.25	274.43
725.59	274.00
725.92	273.48
726.25	273.14
726.58	272.74
726.91	272.43
727.24	272.00
727.57	271.49
727.91	271.00
728.24	270.45
728.57	269.98
728.90	269.52
729.23	268.98
729.56	268.62
729.89	268.24
730.22	267.94
730.55	267.58
730.89	267.13
731.22	266.73
731.55	266.33
731.88	266.05
732.21	265.58
732.54	265.13
732.87	264.63
733.20	264.10
733.53	263.73
733.86	263.34
734.19	262.90
734.52	262.60
734.85	262.33
735.18	261.90
735.51	261.65
735.84	261.29
736.17	260.96
736.50	260.46
736.83	260.26
737.16	259.78
737.49	259.48
737.82	259.10
738.15	258.82
738.48	258.46
738.81	258.17
739.14	257.87
739.47	257.59
739.80	257.35
740.13	257.15
740.46	256.79
740.79	256.44
741.12	256.20
741.45	255.90
741.78	255.43
742.11	255.27
742.44	254.82
742.77	254.55
743.10	254.30
743.43	253.93
743.75	253.41
744.08	253.42
744.41	253.04
744.74	252.79
745.07	252.46
745.40	252.20
745.73	251.90
746.06	251.54
746.39	251.26
746.71	250.97
747.04	250.54
747.37	250.32
747.70	250.00
748.03	249.67
748.36	249.33
748.68	249.06
749.01	248.69
749.34	248.47
749.67	248.26
750.00	247.99
750.33	247.98
750.65	247.84
750.98	247.30
751.31	247.02
751.64	246.83
751.97	246.68
752.29	246.40
752.62	246.06
752.95	245.74
753.28	245.50
753.60	245.35
753.93	245.28
754.26	244.93
754.59	244.63
754.91	244.43
755.24	244.22
755.57	244.14
755.90	243.98
756.22	243.73
756.55	243.38
756.88	243.25
757.20	242.90
757.53	242.66
757.86	242.50
758.19	242.44
758.51	242.26
758.84	242.08
759.17	241.92
759.49	241.84
759.82	241.89
760.15	241.82
760.47	241.62
760.80	241.37
761.13	241.27
761.45	241.27
761.78	241.11
762.11	240.98
762.43	240.77
762.76	240.59
763.08	240.51
763.41	240.38
763.74	240.24
764.06	240.19
764.39	240.04
764.71	239.89
765.04	239.66
765.37	239.56
765.69	239.33
766.02	239.24
766.34	239.14
766.67	238.87
767.00	238.80
767.32	238.72
767.65	238.75
767.97	238.76
768.30	238.68
768.62	238.60
768.95	238.39
769.27	238.37
769.60	238.35
769.92	238.20
770.25	238.14
770.57	237.98
770.90	237.82
771.22	237.75
771.55	237.68
771.87	237.65
772.20	237.45
772.52	237.45
772.85	237.55
773.17	237.55
773.50	237.43
773.82	237.32
774.15	237.17
774.47	236.97
774.80	236.77
775.12	236.54
775.45	236.36
775.77	236.37
776.09	236.26
776.42	236.10
776.74	236.09
777.07	235.96
777.39	235.89
777.72	235.73
778.04	235.67
778.36	235.50
778.69	235.35
779.01	235.33
779.33	235.19
779.66	234.92
779.98	234.61
780.31	234.65
780.63	234.58
780.95	234.46
781.28	234.39
781.60	234.29
781.92	234.24
782.25	234.31
782.57	234.19
782.89	234.17
783.22	234.10
783.54	233.91
783.86	233.88
784.19	233.73
784.51	233.74
784.83	233.59
785.16	233.61
785.48	233.62
785.80	233.48
786.12	233.42
786.45	233.30
786.77	233.38
787.09	233.30
787.42	233.12
787.74	233.08
788.06	232.97
788.38	232.89
788.71	232.82
