SpectraSuite Data File
++++++++++++++++++++++++++++++++++++
Date: Fri Feb 01 14:34:04 EST 2013
User: group
Dark Spectrum Present: No
Reference Spectrum Present: No
Number of Sampled Component Spectra: 1
Spectrometers: USB2E7196
Integration Time (usec): 70000 (USB2E7196)
Spectra Averaged: 10 (USB2E7196)
Boxcar Smoothing: 10 (USB2E7196)
Correct for Electrical Dark: No (USB2E7196)
Strobe/Lamp Enabled: No (USB2E7196)
Correct for Detector Non-linearity: No (USB2E7196)
Correct for Stray Light: No (USB2E7196)
Number of Pixels in Processed Spectrum: 2048
>>>>>Begin Processed Spectral Data<<<<<
339.09	0.00
339.48	215.80
339.86	216.00
340.24	218.10
340.63	219.50
341.01	223.50
341.39	223.60
341.78	224.80
342.16	226.40
342.54	226.50
342.93	214.20
343.31	225.03
343.69	225.51
344.07	225.94
344.46	226.40
344.84	226.79
345.22	227.01
345.60	227.20
345.99	227.36
346.37	227.42
346.75	227.55
347.13	227.65
347.52	227.67
347.90	227.82
348.28	227.97
348.66	228.11
349.05	228.07
349.43	228.19
349.81	228.18
350.19	228.27
350.57	228.33
350.96	228.48
351.34	228.63
351.72	228.72
352.10	228.91
352.48	229.01
352.87	229.06
353.25	229.15
353.63	229.24
354.01	229.25
354.39	229.35
354.77	229.39
355.15	229.58
355.54	229.56
355.92	229.55
356.30	229.60
356.68	229.88
357.06	230.01
357.44	230.13
357.82	230.20
358.20	230.28
358.58	230.29
358.97	230.40
359.35	230.46
359.73	230.62
360.11	230.72
360.49	230.76
360.87	230.89
361.25	230.90
361.63	231.00
362.01	231.14
362.39	231.18
362.77	231.27
363.15	231.28
363.53	231.34
363.91	231.30
364.29	231.29
364.67	231.02
365.05	230.90
365.43	230.79
365.81	230.89
366.19	230.88
366.57	230.95
366.95	230.90
367.33	230.75
367.71	230.72
368.09	230.70
368.47	230.61
368.85	230.56
369.23	230.52
369.61	230.39
369.99	230.25
370.37	230.17
370.75	230.18
371.13	229.98
371.51	229.97
371.89	230.00
372.27	229.98
372.65	229.91
373.03	229.91
373.41	229.86
373.78	229.67
374.16	229.63
374.54	229.41
374.92	229.40
375.30	229.51
375.68	229.40
376.06	229.26
376.44	229.26
376.82	229.18
377.19	229.20
377.57	229.18
377.95	229.17
378.33	229.07
378.71	228.85
379.09	228.73
379.47	228.57
379.84	228.33
380.22	228.17
380.60	228.11
380.98	228.01
381.36	227.90
381.73	227.83
382.11	227.66
382.49	227.65
382.87	227.56
383.25	227.30
383.62	227.44
384.00	227.38
384.38	227.31
384.76	227.26
385.13	227.16
385.51	227.10
385.89	227.01
386.27	227.08
386.64	227.09
387.02	227.20
387.40	227.22
387.78	227.25
388.15	227.26
388.53	227.20
388.91	227.19
389.29	227.20
389.66	227.21
390.04	227.23
390.42	227.28
390.79	227.28
391.17	227.37
391.55	227.26
391.92	227.32
392.30	227.38
392.68	227.34
393.05	227.38
393.43	227.45
393.81	227.51
394.18	227.49
394.56	227.50
394.94	227.55
395.31	227.64
395.69	227.82
396.06	227.96
396.44	228.03
396.82	228.12
397.19	228.33
397.57	228.44
397.95	228.54
398.32	228.68
398.70	228.77
399.07	228.91
399.45	229.02
399.82	229.19
400.20	229.33
400.58	229.53
400.95	229.76
401.33	229.90
401.70	230.17
402.08	230.28
402.45	230.50
402.83	230.82
403.20	231.09
403.58	231.23
403.95	231.54
404.33	231.81
404.71	232.17
405.08	232.53
405.46	232.91
405.83	233.30
406.21	233.67
406.58	234.16
406.96	234.58
407.33	235.03
407.70	235.56
408.08	236.19
408.45	236.85
408.83	237.46
409.20	238.03
409.58	238.70
409.95	239.58
410.33	240.38
410.70	241.02
411.08	241.93
411.45	242.98
411.82	243.94
412.20	245.15
412.57	246.34
412.95	247.34
413.32	248.58
413.69	249.90
414.07	251.28
414.44	252.81
414.82	254.42
415.19	256.22
415.56	258.07
415.94	260.05
416.31	262.14
416.68	264.26
417.06	266.70
417.43	268.83
417.81	271.51
418.18	274.16
418.55	277.20
418.93	280.17
419.30	283.16
419.67	286.39
420.04	289.84
420.42	293.49
420.79	297.66
421.16	301.76
421.54	306.01
421.91	310.41
422.28	314.91
422.66	319.72
423.03	324.44
423.40	329.21
423.77	334.28
424.15	339.54
424.52	345.02
424.89	351.16
425.26	357.06
425.64	362.49
426.01	368.62
426.38	375.00
426.75	381.21
427.13	388.00
427.50	395.12
427.87	402.24
428.24	409.33
428.61	416.38
428.99	423.85
429.36	432.05
429.73	440.22
430.10	448.17
430.47	456.14
430.85	464.58
431.22	473.53
431.59	483.13
431.96	492.23
432.33	502.36
432.70	511.87
433.08	523.31
433.45	534.04
433.82	544.65
434.19	556.40
434.56	568.22
434.93	579.20
435.30	590.26
435.68	602.49
436.05	614.66
436.42	626.49
436.79	637.61
437.16	649.46
437.53	661.89
437.90	674.22
438.27	686.54
438.64	699.08
439.01	710.96
439.38	721.54
439.75	731.61
440.13	742.96
440.50	754.02
440.87	762.99
441.24	772.44
441.61	782.97
441.98	790.84
442.35	800.14
442.72	809.48
443.09	818.72
443.46	824.75
443.83	828.95
444.20	832.86
444.57	838.15
444.94	841.41
445.31	844.57
445.68	847.84
446.05	850.10
446.42	850.45
446.79	850.27
447.16	849.99
447.53	850.62
447.90	848.00
448.27	844.97
448.64	840.00
449.01	836.97
449.37	830.33
449.74	823.77
450.11	815.30
450.48	806.38
450.85	796.88
451.22	789.11
451.59	781.66
451.96	774.77
452.33	764.72
452.70	755.71
453.07	744.82
453.43	733.84
453.80	723.04
454.17	712.70
454.54	703.03
454.91	692.23
455.28	681.57
455.65	671.40
456.02	661.08
456.38	652.83
456.75	642.03
457.12	633.11
457.49	624.09
457.86	615.51
458.23	608.02
458.59	599.73
458.96	591.20
459.33	583.90
459.70	576.26
460.07	570.34
460.43	563.40
460.80	556.64
461.17	550.65
461.54	544.55
461.91	538.57
462.27	532.49
462.64	527.44
463.01	521.68
463.38	516.22
463.74	511.16
464.11	506.30
464.48	502.17
464.85	497.40
465.21	493.94
465.58	490.22
465.95	485.68
466.32	482.00
466.68	478.21
467.05	474.35
467.42	470.54
467.78	466.51
468.15	462.55
468.52	459.69
468.88	456.00
469.25	452.81
469.62	450.14
469.98	447.22
470.35	444.56
470.72	441.96
471.08	439.21
471.45	436.70
471.82	434.19
472.18	431.37
472.55	429.49
472.92	427.27
473.28	425.33
473.65	423.49
474.02	421.51
474.38	419.81
474.75	418.38
475.11	416.85
475.48	415.74
475.85	414.89
476.21	413.90
476.58	413.08
476.94	412.34
477.31	411.43
477.67	410.56
478.04	409.76
478.41	409.33
478.77	408.97
479.14	408.52
479.50	408.40
479.87	408.31
480.23	408.25
480.60	407.98
480.96	407.91
481.33	408.14
481.69	408.45
482.06	408.84
482.42	408.81
482.79	409.14
483.15	409.56
483.52	410.29
483.88	410.92
484.25	411.60
484.61	412.30
484.98	413.15
485.34	414.44
485.71	415.71
486.07	416.98
486.44	418.41
486.80	420.10
487.17	421.55
487.53	423.45
487.90	425.34
488.26	427.41
488.62	429.34
488.99	431.37
489.35	433.40
489.72	435.70
490.08	438.45
490.44	440.95
490.81	443.64
491.17	446.17
491.54	449.24
491.90	452.11
492.26	455.19
492.63	458.48
492.99	461.76
493.36	465.22
493.72	468.94
494.08	472.43
494.45	475.95
494.81	479.86
495.17	483.73
495.54	487.78
495.90	491.87
496.26	496.26
496.63	500.60
496.99	505.16
497.35	509.79
497.72	514.34
498.08	519.10
498.44	523.80
498.80	528.90
499.17	533.78
499.53	538.80
499.89	544.10
500.26	549.24
500.62	554.51
500.98	559.84
501.34	565.19
501.71	570.78
502.07	576.35
502.43	581.80
502.79	587.33
503.16	592.70
503.52	598.37
503.88	603.59
504.24	609.21
504.60	615.02
504.97	620.58
505.33	626.38
505.69	632.15
506.05	638.12
506.41	643.55
506.78	649.02
507.14	654.74
507.50	660.42
507.86	666.07
508.22	671.59
508.59	677.13
508.95	682.49
509.31	687.87
509.67	693.51
510.03	698.96
510.39	704.27
510.75	709.65
511.12	714.63
511.48	720.06
511.84	725.28
512.20	730.08
512.56	735.26
512.92	740.27
513.28	745.22
513.64	750.00
514.00	754.50
514.37	759.35
514.73	763.98
515.09	768.13
515.45	772.36
515.81	776.52
516.17	780.70
516.53	785.00
516.89	788.96
517.25	792.81
517.61	796.81
517.97	800.70
518.33	804.22
518.69	807.65
519.05	811.27
519.41	814.58
519.77	818.44
520.13	821.84
520.49	825.12
520.85	828.26
521.21	831.25
521.57	834.82
521.93	837.78
522.29	840.94
522.65	843.90
523.01	846.75
523.37	849.43
523.73	852.04
524.09	854.44
524.45	857.34
524.81	860.03
525.17	862.71
525.53	865.74
525.89	868.64
526.25	871.80
526.61	874.30
526.97	877.20
527.33	879.62
527.68	882.20
528.04	884.65
528.40	887.23
528.76	890.09
529.12	892.68
529.48	895.37
529.84	897.35
530.20	900.24
530.56	903.18
530.91	906.56
531.27	909.63
531.63	912.38
531.99	914.88
532.35	917.28
532.71	919.25
533.07	921.42
533.42	924.02
533.78	926.71
534.14	929.24
534.50	931.51
534.86	933.68
535.21	935.74
535.57	938.43
535.93	940.87
536.29	943.20
536.65	945.36
537.00	947.48
537.36	950.50
537.72	952.95
538.08	955.11
538.44	956.75
538.79	958.65
539.15	960.80
539.51	963.37
539.87	965.82
540.22	968.78
540.58	971.53
540.94	973.80
541.29	975.90
541.65	978.30
542.01	981.12
542.37	983.55
542.72	986.06
543.08	988.20
543.44	990.74
543.79	992.68
544.15	995.17
544.51	998.14
544.87	1000.59
545.22	1002.77
545.58	1005.09
545.94	1007.28
546.29	1009.63
546.65	1012.36
547.01	1014.22
547.36	1016.08
547.72	1018.08
548.07	1019.90
548.43	1021.88
548.79	1024.00
549.14	1025.98
549.50	1027.54
549.86	1029.61
550.21	1031.48
550.57	1033.82
550.92	1035.73
551.28	1037.75
551.64	1039.78
551.99	1041.53
552.35	1042.82
552.70	1044.54
553.06	1046.89
553.41	1048.94
553.77	1050.97
554.13	1052.65
554.48	1054.83
554.84	1057.02
555.19	1058.94
555.55	1060.74
555.90	1062.64
556.26	1064.56
556.61	1066.72
556.97	1068.59
557.32	1070.59
557.68	1072.47
558.03	1074.05
558.39	1075.71
558.74	1078.07
559.10	1079.68
559.45	1081.17
559.81	1083.40
560.16	1085.06
560.52	1086.40
560.87	1088.51
561.23	1090.04
561.58	1091.86
561.94	1093.54
562.29	1095.06
562.64	1096.36
563.00	1097.78
563.35	1099.67
563.71	1101.36
564.06	1102.80
564.42	1104.54
564.77	1105.94
565.12	1107.61
565.48	1108.89
565.83	1110.08
566.19	1111.27
566.54	1112.55
566.89	1113.50
567.25	1114.40
567.60	1116.00
567.96	1117.20
568.31	1118.10
568.66	1118.87
569.02	1119.69
569.37	1120.12
569.72	1120.83
570.08	1121.80
570.43	1122.76
570.78	1123.22
571.14	1123.29
571.49	1123.67
571.84	1124.14
572.20	1124.17
572.55	1124.09
572.90	1124.13
573.26	1124.51
573.61	1124.15
573.96	1124.11
574.31	1123.69
574.67	1123.15
575.02	1122.29
575.37	1121.57
575.72	1120.47
576.08	1119.78
576.43	1118.72
576.78	1118.09
577.13	1117.33
577.49	1116.78
577.84	1115.72
578.19	1114.72
578.54	1113.75
578.90	1112.19
579.25	1110.46
579.60	1109.26
579.95	1107.90
580.30	1106.40
580.66	1104.69
581.01	1103.19
581.36	1101.79
581.71	1100.80
582.06	1099.41
582.42	1097.74
582.77	1096.04
583.12	1094.56
583.47	1093.24
583.82	1091.89
584.17	1089.98
584.53	1088.25
584.88	1085.92
585.23	1084.15
585.58	1082.29
585.93	1080.50
586.28	1078.95
586.63	1077.38
586.98	1075.62
587.34	1074.11
587.69	1072.27
588.04	1070.39
588.39	1068.77
588.74	1066.22
589.09	1063.72
589.44	1061.45
589.79	1059.58
590.14	1057.56
590.49	1055.28
590.84	1052.76
591.19	1050.38
591.54	1047.86
591.89	1044.90
592.25	1042.72
592.60	1039.62
592.95	1036.65
593.30	1033.92
593.65	1031.17
594.00	1028.30
594.35	1026.21
594.70	1022.73
595.05	1020.20
595.40	1017.22
595.75	1013.90
596.10	1011.11
596.45	1008.52
596.80	1005.95
597.15	1002.86
597.50	999.99
597.85	997.19
598.19	994.69
598.54	991.90
598.89	989.37
599.24	987.19
599.59	984.19
599.94	982.08
600.29	979.13
600.64	975.90
600.99	972.66
601.34	969.75
601.69	965.70
602.04	962.90
602.39	959.60
602.74	957.03
603.08	954.25
603.43	951.80
603.78	948.93
604.13	945.81
604.48	942.98
604.83	940.12
605.18	937.24
605.53	933.80
605.87	930.34
606.22	927.09
606.57	923.84
606.92	920.70
607.27	917.46
607.62	914.73
607.96	912.01
608.31	909.24
608.66	906.00
609.01	902.91
609.36	899.51
609.70	895.91
610.05	891.97
610.40	888.60
610.75	884.68
611.10	880.99
611.44	877.30
611.79	873.78
612.14	870.03
612.49	866.12
612.83	862.21
613.18	858.55
613.53	855.01
613.88	850.77
614.22	847.05
614.57	842.90
614.92	838.91
615.27	835.19
615.61	831.40
615.96	827.66
616.31	824.30
616.65	821.25
617.00	818.02
617.35	814.55
617.70	810.67
618.04	807.10
618.39	803.53
618.74	799.99
619.08	796.20
619.43	792.64
619.78	789.50
620.12	786.42
620.47	782.94
620.82	779.22
621.16	776.21
621.51	772.86
621.85	769.50
622.20	766.05
622.55	762.63
622.89	759.08
623.24	755.88
623.59	752.50
623.93	749.10
624.28	745.93
624.62	742.78
624.97	739.88
625.32	736.86
625.66	733.70
626.01	730.46
626.35	727.34
626.70	723.86
627.04	720.47
627.39	717.00
627.73	713.89
628.08	710.82
628.43	707.53
628.77	704.44
629.12	701.12
629.46	697.92
629.81	694.65
630.15	691.35
630.50	687.86
630.84	684.32
631.19	680.75
631.53	677.32
631.88	673.89
632.22	670.00
632.57	666.52
632.91	663.19
633.26	659.80
633.60	656.50
633.95	653.47
634.29	650.15
634.64	647.23
634.98	644.28
635.32	641.33
635.67	638.54
636.01	635.44
636.36	632.42
636.70	629.66
637.05	626.81
637.39	624.17
637.73	621.64
638.08	619.30
638.42	616.91
638.77	614.22
639.11	611.51
639.45	609.02
639.80	606.40
640.14	603.68
640.49	601.31
640.83	598.52
641.17	595.97
641.52	593.54
641.86	590.83
642.20	587.97
642.55	585.36
642.89	582.45
643.23	579.81
643.58	577.58
643.92	574.77
644.26	572.10
644.61	569.60
644.95	566.89
645.29	563.77
645.64	560.65
645.98	557.91
646.32	555.22
646.66	552.76
647.01	550.14
647.35	547.75
647.69	545.02
648.04	542.77
648.38	539.98
648.72	537.07
649.06	534.19
649.41	531.64
649.75	528.82
650.09	526.34
650.43	523.62
650.78	520.86
651.12	518.38
651.46	515.91
651.80	513.34
652.14	510.88
652.49	508.55
652.83	506.42
653.17	503.79
653.51	501.30
653.85	498.68
654.20	496.10
654.54	493.41
654.88	490.88
655.22	488.00
655.56	485.61
655.90	483.55
656.25	481.39
656.59	478.99
656.93	476.74
657.27	474.48
657.61	472.02
657.95	469.82
658.29	467.48
658.64	465.30
658.98	462.98
659.32	460.55
659.66	458.38
660.00	456.05
660.34	453.83
660.68	451.79
661.02	449.57
661.36	447.49
661.70	445.48
662.05	443.62
662.39	441.89
662.73	440.01
663.07	438.03
663.41	436.14
663.75	434.22
664.09	432.21
664.43	430.21
664.77	428.45
665.11	426.55
665.45	424.88
665.79	422.85
666.13	420.99
666.47	419.12
666.81	417.18
667.15	415.11
667.49	413.49
667.83	411.69
668.17	410.08
668.51	408.45
668.85	406.74
669.19	405.01
669.53	403.20
669.87	401.39
670.21	399.57
670.55	397.78
670.89	396.50
671.23	395.13
671.57	393.71
671.91	392.16
672.25	390.44
672.58	388.98
672.92	387.45
673.26	386.09
673.60	384.77
673.94	383.45
674.28	382.32
674.62	381.00
674.96	379.69
675.30	378.41
675.64	376.90
675.97	375.48
676.31	374.20
676.65	372.92
676.99	371.84
677.33	370.59
677.67	369.33
678.01	367.70
678.34	366.26
678.68	365.09
679.02	363.83
679.36	362.63
679.70	361.26
680.04	360.08
680.37	358.68
680.71	357.35
681.05	356.29
681.39	355.12
681.73	353.90
682.06	352.71
682.40	351.50
682.74	350.50
683.08	349.49
683.42	348.30
683.75	347.18
684.09	345.91
684.43	344.79
684.77	343.76
685.10	342.97
685.44	341.98
685.78	340.58
686.12	339.47
686.45	338.37
686.79	337.28
687.13	336.23
687.46	335.16
687.80	334.17
688.14	333.01
688.48	331.90
688.81	330.85
689.15	329.86
689.49	328.81
689.82	327.67
690.16	326.51
690.50	325.47
690.83	324.52
691.17	323.60
691.51	322.53
691.84	321.59
692.18	320.33
692.52	319.35
692.85	318.54
693.19	317.55
693.52	316.65
693.86	315.74
694.20	314.75
694.53	313.78
694.87	312.73
695.21	311.64
695.54	310.78
695.88	309.69
696.21	308.67
696.55	307.72
696.88	306.78
697.22	306.06
697.56	305.25
697.89	304.33
698.23	303.37
698.56	302.59
698.90	301.73
699.23	300.84
699.57	299.92
699.90	298.91
700.24	298.17
700.58	297.38
700.91	296.64
701.25	296.01
701.58	295.42
701.92	294.73
702.25	294.03
702.59	293.18
702.92	292.60
703.26	291.96
703.59	291.39
703.93	290.86
704.26	290.15
704.60	289.46
704.93	288.67
705.26	288.01
705.60	287.36
705.93	286.74
706.27	286.21
706.60	285.63
706.94	285.25
707.27	284.56
707.61	283.96
707.94	283.23
708.27	282.45
708.61	281.80
708.94	281.27
709.28	280.78
709.61	280.35
709.94	279.85
710.28	279.28
710.61	278.72
710.95	278.19
711.28	277.60
711.61	277.07
711.95	276.66
712.28	276.10
712.61	275.60
712.95	275.14
713.28	274.79
713.61	274.33
713.95	273.66
714.28	273.31
714.61	272.93
714.95	272.50
715.28	272.00
715.61	271.64
715.95	271.15
716.28	270.68
716.61	270.28
716.95	269.80
717.28	269.36
717.61	268.94
717.94	268.40
718.28	267.98
718.61	267.62
718.94	267.31
719.27	266.91
719.61	266.54
719.94	266.20
720.27	265.72
720.60	265.35
720.94	265.14
721.27	264.76
721.60	264.45
721.93	264.15
722.27	264.00
722.60	263.59
722.93	263.27
723.26	263.02
723.59	262.65
723.93	262.38
724.26	262.13
724.59	261.86
724.92	261.68
725.25	261.45
725.59	261.12
725.92	260.75
726.25	260.62
726.58	260.40
726.91	260.03
727.24	259.77
727.57	259.51
727.91	259.11
728.24	258.85
728.57	258.51
728.90	258.21
729.23	257.86
729.56	257.66
729.89	257.41
730.22	257.04
730.55	256.74
730.89	256.53
731.22	256.30
731.55	256.00
731.88	255.74
732.21	255.43
732.54	255.21
732.87	255.00
733.20	254.58
733.53	254.27
733.86	254.01
734.19	253.63
734.52	253.28
734.85	253.19
735.18	252.97
735.51	252.82
735.84	252.50
736.17	252.25
736.50	251.98
736.83	251.92
737.16	251.71
737.49	251.48
737.82	251.14
738.15	250.85
738.48	250.56
738.81	250.27
739.14	249.90
739.47	249.54
739.80	249.25
740.13	249.01
740.46	248.71
740.79	248.34
741.12	248.19
741.45	248.01
741.78	247.76
742.11	247.54
742.44	247.11
742.77	246.88
743.10	246.63
743.43	246.20
743.75	245.79
744.08	245.85
744.41	245.57
744.74	245.34
745.07	245.13
745.40	245.00
745.73	244.87
746.06	244.69
746.39	244.46
746.71	244.28
747.04	244.14
747.37	243.96
747.70	243.89
748.03	243.65
748.36	243.44
748.68	243.19
749.01	242.91
749.34	242.85
749.67	242.75
750.00	242.64
750.33	242.67
750.65	242.60
750.98	242.21
751.31	242.08
751.64	241.86
751.97	241.78
752.29	241.54
752.62	241.37
752.95	241.20
753.28	241.10
753.60	240.93
753.93	240.85
754.26	240.87
754.59	240.70
754.91	240.60
755.24	240.48
755.57	240.33
755.90	240.23
756.22	240.03
756.55	239.92
756.88	239.68
757.20	239.48
757.53	239.31
757.86	239.18
758.19	239.11
758.51	239.12
758.84	238.93
759.17	238.93
759.49	238.87
759.82	238.93
760.15	238.93
760.47	238.89
760.80	238.69
761.13	238.54
761.45	238.40
761.78	238.30
762.11	238.32
762.43	238.23
762.76	238.20
763.08	238.20
763.41	238.14
763.74	238.21
764.06	238.14
764.39	238.04
764.71	238.03
765.04	237.92
765.37	237.81
765.69	237.73
766.02	237.60
766.34	237.47
766.67	237.27
767.00	237.18
767.32	237.20
767.65	237.26
767.97	237.23
768.30	237.25
768.62	237.25
768.95	237.12
769.27	237.08
769.60	236.94
769.92	236.76
770.25	236.56
770.57	236.40
770.90	236.25
771.22	236.12
771.55	235.99
771.87	235.96
772.20	235.84
772.52	235.92
772.85	235.96
773.17	235.89
773.50	235.89
773.82	235.72
774.15	235.59
774.47	235.40
774.80	235.25
775.12	235.12
775.45	234.99
775.77	234.89
776.09	234.82
776.42	234.74
776.74	234.74
777.07	234.69
777.39	234.62
777.72	234.55
778.04	234.57
778.36	234.47
778.69	234.40
779.01	234.38
779.33	234.12
779.66	233.85
779.98	233.71
780.31	233.73
780.63	233.71
780.95	233.54
781.28	233.40
781.60	233.30
781.92	233.20
782.25	233.10
782.57	232.94
782.89	232.77
783.22	232.70
783.54	232.60
783.86	232.59
784.19	232.54
784.51	232.62
784.83	232.49
785.16	232.34
785.48	232.25
785.80	232.23
786.12	232.12
786.45	232.07
786.77	232.03
787.09	231.88
787.42	231.82
787.74	231.76
788.06	231.83
788.38	231.78
788.71	231.77
789.03	231.69
789.35	231.75
789.67	231.69
789.99	231.63
790.32	231.55
790.64	231.50
790.96	231.62
