SpectraSuite Data File
++++++++++++++++++++++++++++++++++++
Date: Fri Feb 01 14:34:33 EST 2013
User: group
Dark Spectrum Present: No
Reference Spectrum Present: No
Number of Sampled Component Spectra: 1
Spectrometers: USB2E7196
Integration Time (usec): 70000 (USB2E7196)
Spectra Averaged: 10 (USB2E7196)
Boxcar Smoothing: 10 (USB2E7196)
Correct for Electrical Dark: No (USB2E7196)
Strobe/Lamp Enabled: No (USB2E7196)
Correct for Detector Non-linearity: No (USB2E7196)
Correct for Stray Light: No (USB2E7196)
Number of Pixels in Processed Spectrum: 2048
>>>>>Begin Processed Spectral Data<<<<<
339.09	0.00
339.48	216.70
339.86	218.20
340.24	219.30
340.63	220.20
341.01	225.80
341.39	225.90
341.78	227.40
342.16	227.00
342.54	228.10
342.93	215.44
343.31	226.36
343.69	226.91
344.07	227.34
344.46	227.79
344.84	228.26
345.22	228.44
345.60	228.62
345.99	228.65
346.37	228.75
346.75	228.84
347.13	228.91
347.52	228.90
347.90	229.02
348.28	229.04
348.66	229.12
349.05	229.10
349.43	229.20
349.81	229.22
350.19	229.19
350.57	229.25
350.96	229.29
351.34	229.28
351.72	229.37
352.10	229.48
352.48	229.66
352.87	229.68
353.25	229.73
353.63	229.70
354.01	229.75
354.39	229.77
354.77	229.86
355.15	229.94
355.54	230.06
355.92	229.98
356.30	230.07
356.68	230.17
357.06	230.18
357.44	230.26
357.82	230.30
358.20	230.33
358.58	230.43
358.97	230.55
359.35	230.56
359.73	230.55
360.11	230.66
360.49	230.61
360.87	230.62
361.25	230.56
361.63	230.66
362.01	230.73
362.39	230.75
362.77	230.65
363.15	230.64
363.53	230.61
363.91	230.66
364.29	230.64
364.67	230.50
365.05	230.47
365.43	230.44
365.81	230.51
366.19	230.59
366.57	230.57
366.95	230.56
367.33	230.59
367.71	230.57
368.09	230.46
368.47	230.40
368.85	230.24
369.23	230.26
369.61	230.20
369.99	230.22
370.37	230.20
370.75	230.32
371.13	230.27
371.51	230.15
371.89	230.12
372.27	230.11
372.65	230.06
373.03	230.01
373.41	230.01
373.78	229.92
374.16	229.73
374.54	229.67
374.92	229.51
375.30	229.49
375.68	229.43
376.06	229.42
376.44	229.37
376.82	229.40
377.19	229.23
377.57	229.11
377.95	228.93
378.33	228.93
378.71	228.77
379.09	228.67
379.47	228.63
379.84	228.60
380.22	228.42
380.60	228.25
380.98	228.24
381.36	228.12
381.73	227.95
382.11	227.92
382.49	227.83
382.87	227.69
383.25	227.66
383.62	227.75
384.00	227.61
384.38	227.56
384.76	227.48
385.13	227.59
385.51	227.56
385.89	227.50
386.27	227.40
386.64	227.30
387.02	227.24
387.40	227.25
387.78	227.19
388.15	227.24
388.53	227.24
388.91	227.20
389.29	227.09
389.66	227.05
390.04	227.06
390.42	227.04
390.79	227.12
391.17	227.02
391.55	226.88
391.92	226.92
392.30	226.91
392.68	226.90
393.05	226.97
393.43	227.01
393.81	227.16
394.18	227.15
394.56	227.16
394.94	227.24
395.31	227.22
395.69	227.31
396.06	227.39
396.44	227.56
396.82	227.58
397.19	227.91
397.57	228.04
397.95	228.14
398.32	228.19
398.70	228.29
399.07	228.41
399.45	228.49
399.82	228.59
400.20	228.77
400.58	229.03
400.95	229.01
401.33	229.24
401.70	229.49
402.08	229.80
402.45	230.10
402.83	230.33
403.20	230.59
403.58	230.89
403.95	231.26
404.33	231.41
404.71	231.72
405.08	232.09
405.46	232.40
405.83	232.75
406.21	233.14
406.58	233.62
406.96	234.09
407.33	234.64
407.70	235.12
408.08	235.68
408.45	236.11
408.83	236.84
409.20	237.28
409.58	237.82
409.95	238.41
410.33	239.08
410.70	239.77
411.08	240.62
411.45	241.45
411.82	242.25
412.20	243.27
412.57	244.40
412.95	245.23
413.32	246.37
413.69	247.51
414.07	248.74
414.44	250.14
414.82	251.53
415.19	252.97
415.56	254.57
415.94	256.32
416.31	258.36
416.68	260.19
417.06	262.35
417.43	264.46
417.81	266.89
418.18	269.37
418.55	272.06
418.93	274.84
419.30	277.69
419.67	280.63
420.04	283.59
420.42	286.87
420.79	290.65
421.16	294.50
421.54	298.48
421.91	302.43
422.28	306.49
422.66	310.95
423.03	315.31
423.40	319.90
423.77	324.59
424.15	329.37
424.52	334.42
424.89	339.87
425.26	345.03
425.64	350.09
426.01	355.69
426.38	361.48
426.75	367.31
427.13	373.28
427.50	379.74
427.87	386.39
428.24	393.04
428.61	399.26
428.99	406.10
429.36	413.51
429.73	421.10
430.10	428.47
430.47	435.66
430.85	443.59
431.22	451.74
431.59	460.39
431.96	468.69
432.33	477.80
432.70	486.79
433.08	497.36
433.45	507.19
433.82	516.71
434.19	527.50
434.56	538.05
434.93	548.32
435.30	558.15
435.68	569.35
436.05	580.20
436.42	591.05
436.79	600.88
437.16	611.67
437.53	622.76
437.90	634.04
438.27	645.39
438.64	656.70
439.01	667.27
439.38	676.80
439.75	686.07
440.13	696.55
440.50	706.53
440.87	714.88
441.24	723.35
441.61	733.00
441.98	740.14
442.35	748.44
442.72	756.66
443.09	765.13
443.46	770.29
443.83	774.11
444.20	777.56
444.57	782.51
444.94	785.27
445.31	788.24
445.68	790.76
446.05	792.60
446.42	792.71
446.79	792.52
447.16	792.30
447.53	792.44
447.90	789.67
448.27	786.90
448.64	782.07
449.01	779.26
449.37	772.96
449.74	766.90
450.11	759.55
450.48	751.64
450.85	743.20
451.22	736.39
451.59	729.72
451.96	723.58
452.33	714.36
452.70	706.17
453.07	696.27
453.43	686.49
453.80	676.80
454.17	667.26
454.54	658.50
454.91	648.82
455.28	639.18
455.65	630.33
456.02	620.77
456.38	613.00
456.75	603.15
457.12	595.08
457.49	586.86
457.86	578.94
458.23	572.15
458.59	564.62
458.96	556.84
459.33	550.17
459.70	543.15
460.07	537.95
460.43	531.79
460.80	525.81
461.17	520.32
461.54	514.68
461.91	509.50
462.27	504.03
462.64	499.40
463.01	494.48
463.38	489.40
463.74	484.82
464.11	480.49
464.48	476.71
464.85	472.61
465.21	469.48
465.58	466.05
465.95	461.82
466.32	458.44
466.68	455.11
467.05	451.69
467.42	448.40
467.78	444.63
468.15	441.20
468.52	438.49
468.88	435.20
469.25	432.20
469.62	429.80
469.98	427.37
470.35	425.00
470.72	422.67
471.08	420.30
471.45	418.07
471.82	415.95
472.18	413.61
472.55	411.82
472.92	409.89
473.28	408.09
473.65	406.21
474.02	404.50
474.38	403.06
474.75	401.63
475.11	400.16
475.48	399.15
475.85	398.12
476.21	397.34
476.58	396.71
476.94	396.06
477.31	395.21
477.67	394.28
478.04	393.64
478.41	393.20
478.77	392.80
479.14	392.47
479.50	392.19
479.87	392.10
480.23	392.14
480.60	391.80
480.96	391.62
481.33	391.84
481.69	391.96
482.06	391.99
482.42	392.07
482.79	392.30
483.15	392.67
483.52	393.17
483.88	393.54
484.25	393.95
484.61	394.38
484.98	395.20
485.34	396.22
485.71	397.28
486.07	398.10
486.44	399.15
486.80	400.21
487.17	401.54
487.53	402.87
487.90	404.22
488.26	406.08
488.62	407.95
488.99	409.68
489.35	411.30
489.72	413.22
490.08	415.39
490.44	417.63
490.81	419.87
491.17	422.29
491.54	424.83
491.90	427.36
492.26	430.32
492.63	433.09
492.99	435.57
493.36	438.25
493.72	441.47
494.08	444.54
494.45	447.66
494.81	450.92
495.17	454.39
495.54	457.79
495.90	461.27
496.26	464.71
496.63	468.47
496.99	472.45
497.35	476.34
497.72	480.17
498.08	483.86
498.44	487.95
498.80	492.10
499.17	496.10
499.53	500.24
499.89	504.44
500.26	508.51
500.62	512.97
500.98	517.46
501.34	521.63
501.71	526.04
502.07	530.61
502.43	535.08
502.79	539.46
503.16	544.00
503.52	548.46
503.88	552.75
504.24	557.08
504.60	561.51
504.97	565.95
505.33	570.52
505.69	575.46
506.05	579.87
506.41	584.18
506.78	588.60
507.14	592.84
507.50	596.93
507.86	601.38
508.22	605.93
508.59	609.75
508.95	614.21
509.31	618.63
509.67	622.80
510.03	626.87
510.39	630.91
510.75	634.86
511.12	638.90
511.48	642.97
511.84	646.65
512.20	650.39
512.56	654.40
512.92	658.09
513.28	661.61
513.64	664.97
514.00	668.28
514.37	671.99
514.73	675.46
515.09	678.72
515.45	681.61
515.81	684.55
516.17	688.11
516.53	691.06
516.89	693.69
517.25	696.48
517.61	699.32
517.97	702.09
518.33	704.50
518.69	706.80
519.05	709.38
519.41	712.16
519.77	714.89
520.13	717.12
520.49	719.37
520.85	721.35
521.21	723.86
521.57	726.25
521.93	727.76
522.29	730.06
522.65	732.16
523.01	734.32
523.37	736.17
523.73	737.85
524.09	739.43
524.45	741.39
524.81	743.28
525.17	745.28
525.53	747.09
525.89	749.31
526.25	751.38
526.61	753.22
526.97	755.33
527.33	757.09
527.68	758.91
528.04	760.64
528.40	762.75
528.76	764.67
529.12	766.77
529.48	769.04
529.84	770.68
530.20	772.85
530.56	775.25
530.91	777.83
531.27	780.24
531.63	782.70
531.99	784.69
532.35	786.72
532.71	788.54
533.07	791.04
533.42	793.60
533.78	795.72
534.14	797.82
534.50	799.80
534.86	802.07
535.21	804.21
535.57	806.61
535.93	808.87
536.29	811.37
536.65	813.43
537.00	815.53
537.36	818.14
537.72	820.24
538.08	822.59
538.44	824.37
538.79	826.45
539.15	828.54
539.51	831.23
539.87	833.84
540.22	836.42
540.58	838.97
540.94	840.90
541.29	843.51
541.65	846.15
542.01	848.99
542.37	851.63
542.72	854.59
543.08	857.17
543.44	859.91
543.79	861.99
544.15	864.82
544.51	868.10
544.87	870.70
545.22	873.61
545.58	876.11
545.94	878.78
546.29	881.37
546.65	884.18
547.01	886.79
547.36	889.27
547.72	891.79
548.07	893.93
548.43	896.54
548.79	899.02
549.14	901.44
549.50	903.59
549.86	905.77
550.21	907.70
550.57	910.41
550.92	912.82
551.28	915.36
551.64	917.68
551.99	920.04
552.35	922.60
552.70	925.17
553.06	927.79
553.41	930.41
553.77	933.11
554.13	935.54
554.48	938.10
554.84	940.71
555.19	943.25
555.55	946.08
555.90	948.58
556.26	951.09
556.61	953.45
556.97	955.85
557.32	958.27
557.68	960.96
558.03	963.33
558.39	965.47
558.74	968.20
559.10	970.80
559.45	973.10
559.81	975.59
560.16	977.50
560.52	979.64
560.87	982.12
561.23	984.33
561.58	987.08
561.94	989.29
562.29	991.26
562.64	993.20
563.00	994.81
563.35	997.20
563.71	999.51
564.06	1002.02
564.42	1004.28
564.77	1006.50
565.12	1008.42
565.48	1010.68
565.83	1012.69
566.19	1014.42
566.54	1016.03
566.89	1017.99
567.25	1019.59
567.60	1021.75
567.96	1023.49
568.31	1025.10
568.66	1026.57
569.02	1027.71
569.37	1029.12
569.72	1030.93
570.08	1032.48
570.43	1034.33
570.78	1035.16
571.14	1036.10
571.49	1036.90
571.84	1038.09
572.20	1038.92
572.55	1039.99
572.90	1040.27
573.26	1041.20
573.61	1041.84
573.96	1042.41
574.31	1042.14
574.67	1042.12
575.02	1041.93
575.37	1042.00
575.72	1041.47
576.08	1041.87
576.43	1041.80
576.78	1041.68
577.13	1041.20
577.49	1041.31
577.84	1040.61
578.19	1040.31
578.54	1039.82
578.90	1039.37
579.25	1038.33
579.60	1037.74
579.95	1036.82
580.30	1035.90
580.66	1034.89
581.01	1033.69
581.36	1032.84
581.71	1032.26
582.06	1031.30
582.42	1030.37
582.77	1029.11
583.12	1028.24
583.47	1026.90
583.82	1025.63
584.17	1024.11
584.53	1022.96
584.88	1021.18
585.23	1020.02
585.58	1018.82
585.93	1017.29
586.28	1015.99
586.63	1015.14
586.98	1013.73
587.34	1012.69
587.69	1011.62
588.04	1010.50
588.39	1009.64
588.74	1007.40
589.09	1005.80
589.44	1004.05
589.79	1002.57
590.14	1001.37
590.49	999.89
590.84	998.19
591.19	996.64
591.54	994.70
591.89	992.33
592.25	991.07
592.60	988.92
592.95	986.59
593.30	984.55
593.65	982.30
594.00	979.53
594.35	977.78
594.70	974.88
595.05	972.57
595.40	970.09
595.75	967.38
596.10	965.72
596.45	963.45
596.80	961.56
597.15	959.37
597.50	956.48
597.85	953.96
598.19	951.55
598.54	949.16
598.89	947.17
599.24	945.39
599.59	942.53
599.94	940.39
600.29	938.04
600.64	935.60
600.99	932.75
601.34	930.47
601.69	927.40
602.04	925.09
602.39	922.37
602.74	919.79
603.08	917.50
603.43	915.18
603.78	912.73
604.13	910.03
604.48	907.34
604.83	905.23
605.18	903.08
605.53	900.44
605.87	897.43
606.22	894.43
606.57	891.53
606.92	888.80
607.27	886.10
607.62	883.79
607.96	881.28
608.31	878.95
608.66	875.90
609.01	872.84
609.36	869.75
609.70	866.41
610.05	863.16
610.40	859.89
610.75	856.57
611.10	852.85
611.44	849.32
611.79	846.01
612.14	842.53
612.49	838.67
612.83	835.10
613.18	831.67
613.53	828.49
613.88	824.85
614.22	821.57
614.57	817.40
614.92	813.71
615.27	810.13
615.61	806.39
615.96	803.26
616.31	800.12
616.65	797.18
617.00	794.17
617.35	791.22
617.70	787.65
618.04	783.90
618.39	781.03
618.74	778.15
619.08	774.67
619.43	771.42
619.78	768.16
620.12	765.00
620.47	761.79
620.82	758.33
621.16	755.14
621.51	751.78
621.85	749.18
622.20	745.81
622.55	742.71
622.89	739.67
623.24	736.54
623.59	733.50
623.93	730.29
624.28	727.29
624.62	724.05
624.97	721.16
625.32	718.36
625.66	715.30
626.01	712.14
626.35	709.27
626.70	706.20
627.04	703.27
627.39	700.03
627.73	697.20
628.08	694.30
628.43	691.39
628.77	688.43
629.12	685.08
629.46	682.25
629.81	678.92
630.15	676.03
630.50	672.73
630.84	669.36
631.19	666.07
631.53	662.95
631.88	659.70
632.22	656.27
632.57	653.49
632.91	650.40
633.26	647.17
633.60	644.06
633.95	640.95
634.29	638.11
634.64	635.35
634.98	632.15
635.32	629.40
635.67	626.77
636.01	623.99
636.36	621.33
636.70	618.57
637.05	615.88
637.39	613.21
637.73	610.76
638.08	608.58
638.42	606.15
638.77	603.53
639.11	600.94
639.45	598.67
639.80	595.84
640.14	593.25
640.49	590.94
640.83	588.49
641.17	585.87
641.52	583.30
641.86	580.87
642.20	578.68
642.55	576.10
642.89	573.53
643.23	570.89
643.58	568.69
643.92	566.15
644.26	563.88
644.61	561.47
644.95	558.90
645.29	555.89
645.64	553.30
645.98	550.75
646.32	548.24
646.66	545.80
647.01	543.20
647.35	540.79
647.69	538.21
648.04	535.86
648.38	533.32
648.72	530.74
649.06	527.82
649.41	525.42
649.75	522.65
650.09	519.97
650.43	517.67
650.78	514.81
651.12	512.24
651.46	509.69
651.80	507.17
652.14	504.90
652.49	502.99
652.83	500.72
653.17	498.36
653.51	496.09
653.85	493.67
654.20	491.45
654.54	488.96
654.88	486.58
655.22	483.94
655.56	481.70
655.90	479.40
656.25	477.31
656.59	474.91
656.93	473.07
657.27	470.92
657.61	468.37
657.95	466.41
658.29	464.29
658.64	462.10
658.98	459.56
659.32	457.14
659.66	454.59
660.00	452.54
660.34	450.45
660.68	448.12
661.02	445.83
661.36	443.80
661.70	441.70
662.05	439.85
662.39	438.24
662.73	436.27
663.07	434.40
663.41	432.65
663.75	430.48
664.09	428.48
664.43	426.51
664.77	424.78
665.11	422.79
665.45	420.86
665.79	419.17
666.13	417.56
666.47	415.93
666.81	414.21
667.15	412.21
667.49	410.42
667.83	408.75
668.17	407.10
668.51	405.15
668.85	403.55
669.19	401.90
669.53	400.04
669.87	398.34
670.21	396.81
670.55	395.23
670.89	393.97
671.23	392.49
671.57	391.08
671.91	389.61
672.25	388.15
672.58	386.71
672.92	385.24
673.26	383.84
673.60	382.43
673.94	380.97
674.28	379.61
674.62	378.46
674.96	377.17
675.30	375.85
675.64	374.60
675.97	373.30
676.31	371.84
676.65	370.56
676.99	369.51
677.33	368.12
677.67	366.68
678.01	365.27
678.34	363.90
678.68	362.70
679.02	361.45
679.36	360.22
679.70	358.98
680.04	357.59
680.37	356.33
680.71	355.08
681.05	354.06
681.39	353.05
681.73	351.76
682.06	350.71
682.40	349.70
682.74	348.70
683.08	347.47
683.42	346.34
683.75	345.21
684.09	343.98
684.43	342.90
684.77	341.80
685.10	340.93
685.44	339.81
685.78	338.60
686.12	337.50
686.45	336.39
686.79	335.41
687.13	334.39
687.46	333.31
687.80	332.28
688.14	331.21
688.48	330.18
688.81	329.09
689.15	328.11
689.49	327.07
689.82	326.04
690.16	325.15
690.50	324.17
690.83	323.23
691.17	322.27
691.51	321.31
691.84	320.50
692.18	319.40
692.52	318.47
692.85	317.56
693.19	316.73
693.52	315.92
693.86	314.97
694.20	314.22
694.53	313.45
694.87	312.49
695.21	311.54
695.54	310.57
695.88	309.74
696.21	308.60
696.55	307.74
696.88	306.97
697.22	306.07
697.56	305.32
697.89	304.49
698.23	303.71
698.56	302.92
698.90	302.06
699.23	301.33
699.57	300.62
699.90	299.92
700.24	299.18
700.58	298.43
700.91	297.58
701.25	296.88
701.58	296.20
701.92	295.53
702.25	294.85
702.59	294.13
702.92	293.40
703.26	292.80
703.59	292.08
703.93	291.52
704.26	290.90
704.60	290.19
704.93	289.47
705.26	288.70
705.60	288.18
705.93	287.55
706.27	286.97
706.60	286.41
706.94	285.78
707.27	285.10
707.61	284.50
707.94	283.97
708.27	283.22
708.61	282.41
708.94	281.81
709.28	281.22
709.61	280.70
709.94	280.19
710.28	279.68
710.61	279.23
710.95	278.44
711.28	277.98
711.61	277.33
711.95	276.82
712.28	276.33
712.61	275.67
712.95	275.17
713.28	274.65
713.61	273.93
713.95	273.39
714.28	272.96
714.61	272.38
714.95	271.87
715.28	271.36
715.61	270.88
715.95	270.40
716.28	269.93
716.61	269.45
716.95	268.82
717.28	268.37
717.61	267.85
717.94	267.47
718.28	266.96
718.61	266.62
718.94	266.14
719.27	265.74
719.61	265.39
719.94	264.97
720.27	264.43
720.60	264.11
720.94	263.76
721.27	263.30
721.60	262.96
721.93	262.62
722.27	262.39
722.60	262.12
722.93	261.82
723.26	261.57
723.59	261.22
723.93	261.05
724.26	260.69
724.59	260.38
724.92	260.00
725.25	259.71
725.59	259.50
725.92	259.26
726.25	258.97
726.58	258.64
726.91	258.35
727.24	258.06
727.57	257.80
727.91	257.49
728.24	257.26
728.57	257.10
728.90	256.83
729.23	256.58
729.56	256.46
729.89	256.15
730.22	255.79
730.55	255.54
730.89	255.29
731.22	255.18
731.55	254.97
731.88	254.75
732.21	254.50
732.54	254.20
732.87	253.96
733.20	253.64
733.53	253.47
733.86	253.29
734.19	253.12
734.52	252.97
734.85	252.90
735.18	252.59
735.51	252.33
735.84	252.17
736.17	251.90
736.50	251.58
736.83	251.67
737.16	251.61
737.49	251.49
737.82	251.23
738.15	251.04
738.48	250.81
738.81	250.64
739.14	250.38
739.47	250.27
739.80	250.09
740.13	249.99
740.46	249.71
740.79	249.54
741.12	249.26
741.45	248.95
741.78	248.72
742.11	248.64
742.44	248.39
742.77	248.16
743.10	247.96
743.43	247.80
743.75	247.44
744.08	247.40
744.41	247.12
744.74	246.94
745.07	246.72
745.40	246.57
745.73	246.43
746.06	246.37
746.39	246.14
746.71	246.02
747.04	245.73
747.37	245.57
747.70	245.42
748.03	245.32
748.36	245.18
748.68	244.93
749.01	244.74
749.34	244.62
749.67	244.53
750.00	244.35
750.33	244.28
750.65	244.07
750.98	243.67
751.31	243.48
751.64	243.34
751.97	243.23
752.29	242.99
752.62	242.78
752.95	242.52
753.28	242.35
753.60	242.09
753.93	242.07
754.26	241.86
754.59	241.69
754.91	241.50
755.24	241.39
755.57	241.27
755.90	241.00
756.22	240.86
756.55	240.72
756.88	240.59
757.20	240.27
757.53	240.02
757.86	239.90
758.19	239.78
758.51	239.65
758.84	239.43
759.17	239.30
759.49	239.16
759.82	239.20
760.15	239.07
760.47	238.92
760.80	238.67
761.13	238.58
761.45	238.36
761.78	238.26
762.11	238.05
762.43	237.93
762.76	237.95
763.08	237.79
763.41	237.57
763.74	237.45
764.06	237.36
764.39	237.30
764.71	237.17
765.04	237.06
765.37	236.92
765.69	236.77
766.02	236.73
766.34	236.60
766.67	236.32
767.00	236.24
767.32	236.32
767.65	236.30
767.97	236.25
768.30	236.24
768.62	236.11
768.95	236.11
769.27	235.90
769.60	235.74
769.92	235.57
770.25	235.46
770.57	235.34
770.90	235.24
771.22	235.19
771.55	235.12
771.87	235.07
772.20	235.05
772.52	235.26
772.85	235.39
773.17	235.30
773.50	235.22
773.82	235.17
774.15	234.93
774.47	234.79
774.80	234.67
775.12	234.55
775.45	234.50
775.77	234.50
776.09	234.55
776.42	234.44
776.74	234.47
777.07	234.35
777.39	234.38
777.72	234.37
778.04	234.31
778.36	234.28
778.69	234.19
779.01	234.06
779.33	233.87
779.66	233.70
779.98	233.62
780.31	233.60
780.63	233.55
780.95	233.61
781.28	233.61
781.60	233.58
781.92	233.55
782.25	233.50
782.57	233.34
782.89	233.30
783.22	233.29
783.54	233.22
783.86	233.29
784.19	233.05
784.51	233.03
784.83	232.88
785.16	232.76
785.48	232.81
785.80	232.81
786.12	232.69
786.45	232.60
786.77	232.67
787.09	232.73
787.42	232.58
787.74	232.44
788.06	232.45
788.38	232.39
788.71	232.22
789.03	232.22
789.35	232.22
789.67	232.25
789.99	232.13
790.32	232.11
790.64	232.06
790.96	232.39
791.28	232.30
791.61	232.22
791.93	232.23
792.25	232.13
792.57	232.16
