SpectraSuite Data File
++++++++++++++++++++++++++++++++++++
Date: Fri Feb 01 14:37:33 EST 2013
User: group
Dark Spectrum Present: No
Reference Spectrum Present: No
Number of Sampled Component Spectra: 1
Spectrometers: USB2E7196
Integration Time (usec): 70000 (USB2E7196)
Spectra Averaged: 10 (USB2E7196)
Boxcar Smoothing: 10 (USB2E7196)
Correct for Electrical Dark: No (USB2E7196)
Strobe/Lamp Enabled: No (USB2E7196)
Correct for Detector Non-linearity: No (USB2E7196)
Correct for Stray Light: No (USB2E7196)
Number of Pixels in Processed Spectrum: 2048
>>>>>Begin Processed Spectral Data<<<<<
339.09	0.00
339.48	214.50
339.86	215.60
340.24	219.00
340.63	218.70
341.01	226.30
341.39	222.00
341.78	224.60
342.16	225.70
342.54	225.20
342.93	213.88
343.31	224.75
343.69	225.42
344.07	225.95
344.46	226.35
344.84	226.78
345.22	226.83
345.60	227.15
345.99	227.35
346.37	227.44
346.75	227.59
347.13	227.71
347.52	227.67
347.90	227.80
348.28	227.80
348.66	227.80
349.05	227.79
349.43	227.93
349.81	228.02
350.19	228.03
350.57	228.06
350.96	228.16
351.34	228.17
351.72	228.20
352.10	228.32
352.48	228.39
352.87	228.31
353.25	228.43
353.63	228.41
354.01	228.38
354.39	228.50
354.77	228.59
355.15	228.68
355.54	228.86
355.92	228.80
356.30	228.88
356.68	229.11
357.06	229.19
357.44	229.15
357.82	229.27
358.20	229.39
358.58	229.45
358.97	229.48
359.35	229.58
359.73	229.67
360.11	229.65
360.49	229.77
360.87	229.96
361.25	230.01
361.63	230.24
362.01	230.38
362.39	230.35
362.77	230.39
363.15	230.36
363.53	230.31
363.91	230.29
364.29	230.37
364.67	230.21
365.05	230.42
365.43	230.51
365.81	230.47
366.19	230.57
366.57	230.63
366.95	230.71
367.33	230.62
367.71	230.46
368.09	230.56
368.47	230.49
368.85	230.49
369.23	230.42
369.61	230.32
369.99	230.37
370.37	230.41
370.75	230.46
371.13	230.48
371.51	230.41
371.89	230.42
372.27	230.30
372.65	230.32
373.03	230.30
373.41	230.21
373.78	230.18
374.16	230.02
374.54	229.89
374.92	229.76
375.30	229.75
375.68	229.74
376.06	229.69
376.44	229.60
376.82	229.50
377.19	229.47
377.57	229.36
377.95	229.10
378.33	228.90
378.71	228.76
379.09	228.58
379.47	228.63
379.84	228.44
380.22	228.39
380.60	228.20
380.98	227.98
381.36	227.87
381.73	227.67
382.11	227.58
382.49	227.58
382.87	227.39
383.25	227.34
383.62	227.47
384.00	227.36
384.38	227.36
384.76	227.28
385.13	227.23
385.51	227.08
385.89	227.04
386.27	226.97
386.64	226.87
387.02	226.87
387.40	226.71
387.78	226.70
388.15	226.72
388.53	226.72
388.91	226.67
389.29	226.67
389.66	226.76
390.04	226.75
390.42	226.66
390.79	226.71
391.17	226.68
391.55	226.55
391.92	226.47
392.30	226.47
392.68	226.42
393.05	226.53
393.43	226.54
393.81	226.50
394.18	226.51
394.56	226.62
394.94	226.70
395.31	226.81
395.69	226.93
396.06	226.97
396.44	227.00
396.82	226.97
397.19	227.09
397.57	227.04
397.95	227.21
398.32	227.25
398.70	227.37
399.07	227.47
399.45	227.50
399.82	227.67
400.20	227.73
400.58	227.88
400.95	227.89
401.33	228.03
401.70	228.37
402.08	228.57
402.45	228.66
402.83	228.86
403.20	228.97
403.58	229.16
403.95	229.39
404.33	229.68
404.71	230.02
405.08	230.33
405.46	230.48
405.83	230.57
406.21	230.73
406.58	230.85
406.96	231.10
407.33	231.42
407.70	231.68
408.08	232.08
408.45	232.38
408.83	232.73
409.20	233.10
409.58	233.35
409.95	233.74
410.33	234.05
410.70	234.36
411.08	234.80
411.45	235.13
411.82	235.50
412.20	235.99
412.57	236.57
412.95	236.96
413.32	237.66
413.69	238.30
414.07	239.06
414.44	239.79
414.82	240.46
415.19	241.25
415.56	242.07
415.94	243.01
416.31	244.05
416.68	244.99
417.06	246.11
417.43	247.20
417.81	248.42
418.18	249.72
418.55	251.06
418.93	252.44
419.30	254.03
419.67	255.53
420.04	257.04
420.42	258.62
420.79	260.56
421.16	262.44
421.54	264.41
421.91	266.40
422.28	268.62
422.66	270.82
423.03	273.00
423.40	275.26
423.77	277.56
424.15	280.02
424.52	282.61
424.89	285.27
425.26	287.83
425.64	290.23
426.01	293.00
426.38	295.89
426.75	298.76
427.13	301.75
427.50	305.02
427.87	308.38
428.24	311.68
428.61	314.74
428.99	318.21
429.36	321.96
429.73	325.54
430.10	329.02
430.47	332.74
430.85	336.63
431.22	340.70
431.59	345.01
431.96	348.95
432.33	353.37
432.70	357.79
433.08	363.06
433.45	367.91
433.82	372.66
434.19	377.96
434.56	383.16
434.93	388.14
435.30	392.94
435.68	398.41
436.05	403.71
436.42	408.95
436.79	413.89
437.16	419.00
437.53	424.55
437.90	429.95
438.27	435.37
438.64	440.75
439.01	445.74
439.38	450.02
439.75	454.54
440.13	459.61
440.50	464.47
440.87	468.28
441.24	472.37
441.61	476.92
441.98	480.14
442.35	484.05
442.72	487.97
443.09	491.81
443.46	494.11
443.83	495.75
444.20	497.36
444.57	499.39
444.94	500.62
445.31	501.88
445.68	503.26
446.05	504.03
446.42	504.00
446.79	503.96
447.16	504.09
447.53	504.14
447.90	502.80
448.27	501.31
448.64	499.00
449.01	497.53
449.37	494.43
449.74	491.55
450.11	488.01
450.48	483.94
450.85	479.89
451.22	476.47
451.59	473.23
451.96	469.99
452.33	465.66
452.70	461.56
453.07	456.69
453.43	451.75
453.80	446.83
454.17	442.19
454.54	437.70
454.91	432.68
455.28	427.93
455.65	423.34
456.02	418.87
456.38	415.02
456.75	410.37
457.12	406.29
457.49	402.33
457.86	398.42
458.23	395.10
458.59	391.32
458.96	387.50
459.33	384.19
459.70	380.90
460.07	378.08
460.43	375.17
460.80	372.19
461.17	369.56
461.54	366.96
461.91	364.36
462.27	361.70
462.64	359.49
463.01	356.98
463.38	354.61
463.74	352.12
464.11	350.10
464.48	348.09
464.85	346.06
465.21	344.46
465.58	342.62
465.95	340.57
466.32	338.86
466.68	337.01
467.05	335.13
467.42	333.40
467.78	331.63
468.15	329.74
468.52	328.41
468.88	326.58
469.25	324.99
469.62	323.81
469.98	322.46
470.35	321.10
470.72	319.88
471.08	318.53
471.45	317.26
471.82	316.06
472.18	314.80
472.55	313.72
472.92	312.54
473.28	311.55
473.65	310.50
474.02	309.56
474.38	308.79
474.75	308.13
475.11	307.24
475.48	306.56
475.85	306.04
476.21	305.40
476.58	304.76
476.94	304.20
477.31	303.60
477.67	303.07
478.04	302.63
478.41	302.07
478.77	301.73
479.14	301.18
479.50	300.78
479.87	300.39
480.23	300.19
480.60	299.79
480.96	299.51
481.33	299.36
481.69	299.19
482.06	299.05
482.42	298.75
482.79	298.70
483.15	298.55
483.52	298.50
483.88	298.33
484.25	298.32
484.61	298.29
484.98	298.27
485.34	298.48
485.71	298.60
486.07	298.80
486.44	298.88
486.80	299.17
487.17	299.36
487.53	299.84
487.90	300.17
488.26	300.61
488.62	301.01
488.99	301.32
489.35	301.68
489.72	302.05
490.08	302.55
490.44	302.96
490.81	303.49
491.17	303.90
491.54	304.50
491.90	305.03
492.26	305.60
492.63	306.13
492.99	306.53
493.36	307.05
493.72	307.68
494.08	308.23
494.45	308.97
494.81	309.70
495.17	310.20
495.54	310.82
495.90	311.50
496.26	312.11
496.63	312.84
496.99	313.51
497.35	314.18
497.72	314.84
498.08	315.52
498.44	316.27
498.80	317.08
499.17	317.72
499.53	318.48
499.89	319.15
500.26	319.85
500.62	320.53
500.98	321.18
501.34	321.76
501.71	322.55
502.07	323.01
502.43	323.46
502.79	324.12
503.16	324.66
503.52	325.20
503.88	325.79
504.24	326.20
504.60	326.70
504.97	327.23
505.33	327.67
505.69	328.24
506.05	328.45
506.41	328.76
506.78	329.06
507.14	329.32
507.50	329.71
507.86	330.02
508.22	330.21
508.59	330.45
508.95	330.72
509.31	330.89
509.67	331.12
510.03	331.38
510.39	331.49
510.75	331.67
511.12	331.73
511.48	331.77
511.84	332.13
512.20	332.22
512.56	332.32
512.92	332.62
513.28	332.49
513.64	332.59
514.00	332.59
514.37	332.71
514.73	332.94
515.09	333.03
515.45	333.09
515.81	333.26
516.17	333.47
516.53	333.51
516.89	333.62
517.25	333.87
517.61	334.03
517.97	334.21
518.33	334.36
518.69	334.63
519.05	335.01
519.41	335.10
519.77	335.63
520.13	336.04
520.49	336.24
520.85	336.79
521.21	337.44
521.57	338.24
521.93	338.92
522.29	339.57
522.65	340.23
523.01	340.98
523.37	341.78
523.73	342.68
524.09	343.77
524.45	344.88
524.81	346.05
525.17	347.31
525.53	348.61
525.89	350.02
526.25	351.53
526.61	352.85
526.97	354.59
527.33	356.07
527.68	358.02
528.04	359.94
528.40	361.83
528.76	363.86
529.12	365.73
529.48	367.74
529.84	369.93
530.20	372.22
530.56	374.68
530.91	377.31
531.27	379.79
531.63	382.42
531.99	385.02
532.35	387.59
532.71	390.32
533.07	393.30
533.42	396.43
533.78	399.24
534.14	402.40
534.50	405.40
534.86	408.67
535.21	411.70
535.57	415.18
535.93	418.50
536.29	422.10
536.65	425.91
537.00	429.66
537.36	433.39
537.72	437.26
538.08	441.15
538.44	444.88
538.79	448.95
539.15	452.94
539.51	457.15
539.87	461.36
540.22	465.67
540.58	469.93
540.94	474.00
541.29	478.37
541.65	482.79
542.01	487.40
542.37	491.66
542.72	496.25
543.08	500.55
543.44	505.30
543.79	509.87
544.15	514.38
544.51	519.14
544.87	523.77
545.22	528.34
545.58	533.00
545.94	537.61
546.29	542.35
546.65	547.11
547.01	551.71
547.36	556.42
547.72	561.03
548.07	565.80
548.43	570.69
548.79	575.77
549.14	580.44
549.50	585.34
549.86	590.34
550.21	595.13
550.57	600.34
550.92	605.14
551.28	609.84
551.64	614.62
551.99	619.52
552.35	624.37
552.70	629.05
553.06	633.94
553.41	638.98
553.77	643.91
554.13	648.62
554.48	653.66
554.84	658.49
555.19	663.44
555.55	668.29
555.90	672.98
556.26	677.68
556.61	682.44
556.97	686.87
557.32	691.85
557.68	696.50
558.03	700.98
558.39	705.64
558.74	710.49
559.10	715.16
559.45	719.63
559.81	724.33
560.16	729.05
560.52	733.34
560.87	737.89
561.23	742.16
561.58	746.88
561.94	751.06
562.29	755.42
562.64	759.40
563.00	763.53
563.35	767.95
563.71	772.33
564.06	776.67
564.42	780.84
564.77	784.61
565.12	788.78
565.48	792.69
565.83	796.75
566.19	800.44
566.54	804.20
566.89	808.03
567.25	811.85
567.60	815.76
567.96	819.79
568.31	823.40
568.66	826.74
569.02	830.02
569.37	833.20
569.72	836.55
570.08	839.77
570.43	843.01
570.78	845.95
571.14	848.58
571.49	851.40
571.84	854.70
572.20	857.26
572.55	859.81
572.90	862.55
573.26	865.14
573.61	867.89
573.96	870.38
574.31	872.36
574.67	874.28
575.02	876.08
575.37	877.74
575.72	879.30
576.08	881.35
576.43	882.94
576.78	884.96
577.13	886.76
577.49	888.85
577.84	890.45
578.19	891.69
578.54	893.18
578.90	894.49
579.25	895.39
579.60	896.94
579.95	898.09
580.30	899.12
580.66	899.73
581.01	900.19
581.36	900.98
581.71	902.01
582.06	903.13
582.42	903.97
582.77	904.67
583.12	905.16
583.47	905.80
583.82	906.51
584.17	906.93
584.53	907.39
584.88	907.61
585.23	907.70
585.58	908.44
585.93	908.40
586.28	908.78
586.63	908.98
586.98	909.04
587.34	909.20
587.69	909.27
588.04	909.76
588.39	910.12
588.74	909.74
589.09	909.59
589.44	909.06
589.79	908.93
590.14	908.69
590.49	908.53
590.84	908.10
591.19	907.78
591.54	907.10
591.89	905.91
592.25	905.50
592.60	904.98
592.95	903.80
593.30	903.24
593.65	902.24
594.00	901.21
594.35	900.57
594.70	899.39
595.05	898.37
595.40	897.10
595.75	895.70
596.10	894.63
596.45	893.76
596.80	892.88
597.15	891.83
597.50	890.73
597.85	889.95
598.19	888.82
598.54	887.77
598.89	886.65
599.24	885.88
599.59	884.54
599.94	883.11
600.29	881.99
600.64	880.74
600.99	879.00
601.34	877.61
601.69	875.82
602.04	874.52
602.39	872.95
602.74	871.60
603.08	870.51
603.43	869.64
603.78	868.00
604.13	866.37
604.48	864.85
604.83	863.33
605.18	861.64
605.53	859.92
605.87	857.61
606.22	856.07
606.57	854.28
606.92	852.41
607.27	850.87
607.62	849.46
607.96	847.61
608.31	846.23
608.66	844.30
609.01	842.31
609.36	840.00
609.70	837.47
610.05	835.23
610.40	832.92
610.75	830.37
611.10	827.78
611.44	825.10
611.79	822.67
612.14	820.25
612.49	817.69
612.83	815.06
613.18	812.77
613.53	810.34
613.88	807.63
614.22	804.90
614.57	801.97
614.92	798.77
615.27	796.18
615.61	793.50
615.96	790.77
616.31	788.29
616.65	786.31
617.00	784.44
617.35	781.88
617.70	779.23
618.04	776.36
618.39	773.96
618.74	771.63
619.08	768.81
619.43	766.00
619.78	763.28
620.12	760.73
620.47	758.38
620.82	755.35
621.16	752.71
621.51	750.18
621.85	747.66
622.20	745.35
622.55	742.76
622.89	740.24
623.24	738.00
623.59	735.46
623.93	732.85
624.28	729.96
624.62	727.31
624.97	724.82
625.32	722.68
625.66	720.26
626.01	717.62
626.35	715.10
626.70	712.69
627.04	710.36
627.39	707.61
627.73	704.87
628.08	702.51
628.43	700.04
628.77	697.43
629.12	694.72
629.46	691.92
629.81	688.92
630.15	685.72
630.50	682.86
630.84	679.81
631.19	676.63
631.53	673.81
631.88	670.85
632.22	667.86
632.57	664.76
632.91	661.55
633.26	658.61
633.60	655.66
633.95	652.83
634.29	649.97
634.64	647.39
634.98	644.52
635.32	641.70
635.67	639.40
636.01	636.72
636.36	634.03
636.70	631.57
637.05	629.27
637.39	627.02
637.73	624.58
638.08	622.35
638.42	620.37
638.77	617.99
639.11	615.41
639.45	612.90
639.80	610.64
640.14	608.40
640.49	606.00
640.83	603.54
641.17	601.17
641.52	598.70
641.86	596.24
642.20	593.79
642.55	591.38
642.89	588.57
643.23	586.09
643.58	583.88
643.92	581.37
644.26	578.83
644.61	576.45
644.95	573.80
645.29	570.91
645.64	567.95
645.98	565.29
646.32	563.11
646.66	560.53
647.01	557.80
647.35	555.33
647.69	552.97
648.04	550.66
648.38	548.18
648.72	545.58
649.06	542.88
649.41	540.27
649.75	537.66
650.09	535.14
650.43	532.51
650.78	529.73
651.12	526.98
651.46	524.42
651.80	521.90
652.14	519.64
652.49	517.41
652.83	515.03
653.17	512.67
653.51	510.03
653.85	507.63
654.20	505.20
654.54	502.74
654.88	500.10
655.22	497.46
655.56	494.79
655.90	492.28
656.25	489.90
656.59	487.60
656.93	485.46
657.27	483.20
657.61	480.91
657.95	478.85
658.29	476.80
658.64	474.71
658.98	472.24
659.32	469.65
659.66	467.36
660.00	465.20
660.34	462.89
660.68	460.64
661.02	458.47
661.36	456.44
661.70	454.39
662.05	452.61
662.39	450.70
662.73	448.99
663.07	447.30
663.41	445.57
663.75	443.75
664.09	441.54
664.43	439.60
664.77	437.77
665.11	435.83
665.45	433.88
665.79	431.94
666.13	430.34
666.47	428.69
666.81	426.77
667.15	424.89
667.49	423.20
667.83	421.64
668.17	419.78
668.51	417.94
668.85	416.13
669.19	414.36
669.53	412.68
669.87	410.79
670.21	408.97
670.55	407.37
670.89	405.91
671.23	404.45
671.57	402.73
671.91	401.04
672.25	399.43
672.58	397.95
672.92	396.31
673.26	394.81
673.60	393.21
673.94	391.97
674.28	390.69
674.62	389.39
674.96	388.00
675.30	386.72
675.64	385.34
675.97	384.09
676.31	382.71
676.65	381.21
676.99	379.93
677.33	378.37
677.67	376.83
678.01	375.20
678.34	373.80
678.68	372.58
679.02	371.42
679.36	370.15
679.70	368.84
680.04	367.57
680.37	366.28
680.71	364.99
681.05	363.75
681.39	362.43
681.73	361.17
682.06	359.71
682.40	358.50
682.74	357.38
683.08	356.03
683.42	354.69
683.75	353.57
684.09	352.29
684.43	351.19
684.77	350.01
685.10	348.86
685.44	347.65
685.78	346.40
686.12	345.08
686.45	343.87
686.79	342.61
687.13	341.52
687.46	340.33
687.80	339.29
688.14	337.90
688.48	336.67
688.81	335.33
689.15	334.27
689.49	333.11
689.82	332.06
690.16	330.98
690.50	330.10
690.83	329.10
691.17	327.93
691.51	326.95
691.84	326.04
692.18	324.97
692.52	323.96
692.85	322.89
693.19	321.84
693.52	320.87
693.86	319.87
694.20	318.78
694.53	317.75
694.87	316.75
695.21	315.90
695.54	314.87
695.88	313.94
696.21	312.93
696.55	311.93
696.88	310.90
697.22	309.98
697.56	308.98
697.89	308.05
698.23	307.36
698.56	306.55
698.90	305.51
699.23	304.57
699.57	303.73
699.90	302.91
700.24	302.06
700.58	301.19
700.91	300.33
701.25	299.70
701.58	298.94
701.92	298.10
702.25	297.40
702.59	296.61
702.92	295.89
703.26	295.21
703.59	294.57
703.93	293.92
704.26	293.24
704.60	292.56
704.93	291.79
705.26	290.98
705.60	290.26
705.93	289.67
706.27	289.30
706.60	288.75
706.94	288.16
707.27	287.53
707.61	286.97
707.94	286.41
708.27	285.68
708.61	285.08
708.94	284.58
709.28	284.03
709.61	283.51
709.94	283.06
710.28	282.41
710.61	281.84
710.95	281.14
711.28	280.69
711.61	280.10
711.95	279.69
712.28	279.04
712.61	278.54
712.95	277.99
713.28	277.44
713.61	276.88
713.95	276.30
714.28	275.88
714.61	275.33
714.95	274.85
715.28	274.42
715.61	273.89
715.95	273.32
716.28	272.71
716.61	272.28
716.95	271.73
717.28	271.31
717.61	270.84
717.94	270.50
718.28	269.84
718.61	269.38
718.94	268.81
719.27	268.56
719.61	268.09
719.94	267.72
720.27	267.25
720.60	266.82
720.94	266.34
721.27	266.01
721.60	265.64
721.93	265.18
722.27	264.80
722.60	264.47
722.93	264.18
723.26	263.89
723.59	263.50
723.93	263.21
724.26	262.91
724.59	262.62
724.92	262.22
725.25	261.97
725.59	261.54
725.92	261.16
726.25	260.82
726.58	260.49
726.91	260.10
727.24	259.80
727.57	259.46
727.91	259.20
728.24	258.76
728.57	258.44
728.90	258.37
729.23	257.96
729.56	257.63
729.89	257.30
730.22	256.98
730.55	256.71
730.89	256.39
731.22	256.19
731.55	255.81
731.88	255.56
732.21	255.27
732.54	255.02
732.87	254.78
733.20	254.42
733.53	254.10
733.86	253.84
734.19	253.58
734.52	253.28
734.85	253.20
735.18	253.02
735.51	252.76
735.84	252.39
736.17	252.29
736.50	251.92
736.83	251.90
737.16	251.70
737.49	251.42
737.82	251.27
738.15	250.89
738.48	250.61
738.81	250.23
739.14	249.97
739.47	249.77
739.80	249.59
740.13	249.46
740.46	249.22
740.79	248.94
741.12	248.63
741.45	248.40
741.78	248.08
742.11	247.90
742.44	247.71
742.77	247.47
743.10	247.19
743.43	247.09
743.75	246.70
744.08	246.62
744.41	246.48
744.74	246.06
745.07	245.91
745.40	245.80
745.73	245.74
746.06	245.70
746.39	245.55
746.71	245.30
747.04	244.96
747.37	244.84
747.70	244.68
748.03	244.52
748.36	244.35
748.68	244.14
749.01	243.90
749.34	243.67
749.67	243.54
750.00	243.29
750.33	243.18
750.65	242.90
750.98	242.60
751.31	242.36
751.64	242.32
751.97	242.24
752.29	242.12
752.62	241.90
752.95	241.70
753.28	241.57
753.60	241.40
753.93	241.41
754.26	241.18
754.59	240.95
754.91	240.84
755.24	240.78
755.57	240.68
755.90	240.57
756.22	240.47
756.55	240.26
756.88	240.26
757.20	240.03
757.53	239.99
757.86	239.75
758.19	239.74
758.51	239.50
758.84	239.32
759.17	239.12
759.49	239.07
759.82	238.85
760.15	238.75
760.47	238.84
760.80	238.56
761.13	238.55
761.45	238.52
761.78	238.32
762.11	238.27
762.43	238.05
762.76	238.01
763.08	237.91
763.41	237.77
763.74	237.63
764.06	237.58
764.39	237.48
764.71	237.40
765.04	237.18
765.37	237.19
765.69	237.00
766.02	236.84
766.34	236.68
766.67	236.56
767.00	236.44
767.32	236.30
767.65	236.40
767.97	236.17
768.30	236.11
768.62	236.15
768.95	235.97
769.27	235.99
769.60	235.75
769.92	235.67
770.25	235.62
770.57	235.45
770.90	235.34
771.22	235.20
771.55	235.16
771.87	235.10
772.20	234.95
772.52	235.11
772.85	235.32
773.17	235.27
773.50	235.09
773.82	234.95
774.15	234.73
774.47	234.50
774.80	234.49
775.12	234.30
775.45	234.18
775.77	233.98
776.09	233.83
776.42	233.81
776.74	233.84
777.07	233.83
777.39	233.76
777.72	233.64
778.04	233.65
778.36	233.60
778.69	233.47
779.01	233.41
779.33	233.22
779.66	232.97
779.98	232.91
780.31	233.01
780.63	233.11
780.95	233.03
781.28	232.89
781.60	232.83
781.92	232.87
782.25	232.72
782.57	232.72
782.89	232.61
783.22	232.57
783.54	232.40
783.86	232.29
784.19	232.32
784.51	232.26
784.83	232.25
785.16	232.18
785.48	232.22
785.80	232.20
786.12	232.11
786.45	232.04
786.77	231.97
787.09	231.87
787.42	231.80
787.74	231.89
788.06	231.97
788.38	231.97
788.71	231.89
789.03	231.89
789.35	231.94
789.67	231.98
789.99	232.04
790.32	231.96
790.64	232.03
790.96	232.08
791.28	232.06
791.61	231.98
791.93	232.02
792.25	232.02
792.57	232.21
792.89	232.16
793.21	232.23
793.54	232.29
793.86	232.22
794.18	232.20
