SpectraSuite Data File
++++++++++++++++++++++++++++++++++++
Date: Fri Feb 01 14:35:07 EST 2013
User: group
Dark Spectrum Present: No
Reference Spectrum Present: No
Number of Sampled Component Spectra: 1
Spectrometers: USB2E7196
Integration Time (usec): 70000 (USB2E7196)
Spectra Averaged: 10 (USB2E7196)
Boxcar Smoothing: 10 (USB2E7196)
Correct for Electrical Dark: No (USB2E7196)
Strobe/Lamp Enabled: No (USB2E7196)
Correct for Detector Non-linearity: No (USB2E7196)
Correct for Stray Light: No (USB2E7196)
Number of Pixels in Processed Spectrum: 2048
>>>>>Begin Processed Spectral Data<<<<<
339.09	0.00
339.48	214.60
339.86	218.10
340.24	218.10
340.63	221.20
341.01	224.30
341.39	223.30
341.78	224.90
342.16	226.30
342.54	225.70
342.93	214.64
343.31	225.53
343.69	226.02
344.07	226.43
344.46	226.85
344.84	227.22
345.22	227.44
345.60	227.69
345.99	227.82
346.37	227.86
346.75	228.08
347.13	228.05
347.52	228.20
347.90	228.27
348.28	228.35
348.66	228.39
349.05	228.37
349.43	228.40
349.81	228.40
350.19	228.50
350.57	228.44
350.96	228.58
351.34	228.64
351.72	228.81
352.10	228.96
352.48	229.06
352.87	229.14
353.25	229.19
353.63	229.28
354.01	229.28
354.39	229.51
354.77	229.42
355.15	229.64
355.54	229.58
355.92	229.67
356.30	229.71
356.68	229.81
357.06	229.92
357.44	229.86
357.82	229.95
358.20	229.92
358.58	230.07
358.97	230.03
359.35	230.16
359.73	230.34
360.11	230.32
360.49	230.43
360.87	230.40
361.25	230.43
361.63	230.43
362.01	230.53
362.39	230.48
362.77	230.48
363.15	230.42
363.53	230.39
363.91	230.30
364.29	230.28
364.67	230.16
365.05	230.05
365.43	230.10
365.81	230.23
366.19	230.31
366.57	230.30
366.95	230.33
367.33	230.24
367.71	230.22
368.09	230.24
368.47	230.19
368.85	230.18
369.23	230.21
369.61	230.17
369.99	230.20
370.37	230.12
370.75	230.31
371.13	230.25
371.51	230.23
371.89	230.22
372.27	230.24
372.65	230.24
373.03	230.19
373.41	230.03
373.78	229.89
374.16	229.79
374.54	229.69
374.92	229.64
375.30	229.51
375.68	229.33
376.06	229.26
376.44	229.13
376.82	229.08
377.19	228.91
377.57	228.83
377.95	228.70
378.33	228.69
378.71	228.46
379.09	228.46
379.47	228.41
379.84	228.39
380.22	228.27
380.60	228.13
380.98	228.13
381.36	228.20
381.73	228.09
382.11	228.00
382.49	227.89
382.87	227.82
383.25	227.62
383.62	227.73
384.00	227.68
384.38	227.70
384.76	227.65
385.13	227.70
385.51	227.68
385.89	227.62
386.27	227.51
386.64	227.54
387.02	227.41
387.40	227.35
387.78	227.28
388.15	227.24
388.53	227.12
388.91	227.04
389.29	226.96
389.66	226.86
390.04	226.89
390.42	227.00
390.79	226.95
391.17	227.07
391.55	226.92
391.92	226.95
392.30	226.87
392.68	226.90
393.05	226.84
393.43	226.82
393.81	226.84
394.18	226.89
394.56	226.82
394.94	226.97
395.31	226.94
395.69	226.92
396.06	227.08
396.44	227.27
396.82	227.26
397.19	227.44
397.57	227.60
397.95	227.78
398.32	227.69
398.70	227.87
399.07	227.97
399.45	228.10
399.82	228.13
400.20	228.26
400.58	228.30
400.95	228.40
401.33	228.67
401.70	228.94
402.08	229.08
402.45	229.31
402.83	229.46
403.20	229.70
403.58	230.07
403.95	230.26
404.33	230.45
404.71	230.76
405.08	231.11
405.46	231.42
405.83	231.64
406.21	231.94
406.58	232.16
406.96	232.60
407.33	232.97
407.70	233.50
408.08	234.08
408.45	234.66
408.83	235.21
409.20	235.62
409.58	236.08
409.95	236.71
410.33	237.37
410.70	238.06
411.08	238.80
411.45	239.44
411.82	240.18
412.20	241.07
412.57	242.10
412.95	242.96
413.32	243.99
413.69	245.08
414.07	246.39
414.44	247.64
414.82	248.96
415.19	250.41
415.56	251.82
415.94	253.37
416.31	255.19
416.68	256.94
417.06	259.06
417.43	260.92
417.81	263.10
418.18	265.25
418.55	267.57
418.93	270.07
419.30	272.80
419.67	275.52
420.04	278.34
420.42	281.29
420.79	284.55
421.16	287.87
421.54	291.36
421.91	294.91
422.28	298.68
422.66	302.61
423.03	306.44
423.40	310.46
423.77	314.69
424.15	318.74
424.52	323.41
424.89	328.28
425.26	333.12
425.64	337.63
426.01	342.65
426.38	347.79
426.75	352.94
427.13	358.12
427.50	363.88
427.87	369.71
428.24	375.69
428.61	381.51
428.99	387.60
429.36	394.35
429.73	400.92
430.10	407.54
430.47	414.20
430.85	421.14
431.22	428.52
431.59	436.44
431.96	443.88
432.33	451.78
432.70	459.67
433.08	468.66
433.45	477.53
433.82	486.18
434.19	495.86
434.56	505.55
434.93	514.73
435.30	523.65
435.68	533.50
436.05	543.14
436.42	552.83
436.79	561.69
437.16	571.20
437.53	581.20
437.90	591.09
438.27	600.80
438.64	611.07
439.01	620.31
439.38	628.45
439.75	636.56
440.13	645.98
440.50	654.91
440.87	662.40
441.24	670.00
441.61	678.49
441.98	684.75
442.35	691.83
442.72	699.11
443.09	706.24
443.46	711.10
443.83	714.60
444.20	717.58
444.57	721.91
444.94	724.34
445.31	726.93
445.68	729.29
446.05	731.15
446.42	731.25
446.79	731.34
447.16	731.21
447.53	731.75
447.90	729.18
448.27	726.50
448.64	722.37
449.01	719.80
449.37	714.35
449.74	708.80
450.11	702.34
450.48	695.09
450.85	687.72
451.22	681.59
451.59	675.54
451.96	669.67
452.33	661.55
452.70	654.26
453.07	645.45
453.43	636.66
453.80	627.73
454.17	619.13
454.54	611.17
454.91	602.54
455.28	593.93
455.65	586.08
456.02	577.78
456.38	570.89
456.75	562.00
457.12	554.59
457.49	547.63
457.86	540.56
458.23	534.80
458.59	528.04
458.96	521.02
459.33	514.96
459.70	509.23
460.07	504.62
460.43	498.96
460.80	493.52
461.17	488.69
461.54	483.80
461.91	479.03
462.27	474.00
462.64	469.83
463.01	465.15
463.38	460.56
463.74	456.30
464.11	452.58
464.48	449.19
464.85	445.38
465.21	442.35
465.58	439.31
465.95	435.55
466.32	432.54
466.68	429.52
467.05	426.41
467.42	423.26
467.78	419.77
468.15	416.70
468.52	414.46
468.88	411.50
469.25	408.84
469.62	406.96
469.98	404.84
470.35	402.75
470.72	400.79
471.08	398.67
471.45	396.75
471.82	394.69
472.18	392.62
472.55	391.20
472.92	389.42
473.28	387.73
473.65	386.10
474.02	384.58
474.38	383.22
474.75	382.03
475.11	380.66
475.48	379.79
475.85	378.90
476.21	378.03
476.58	377.17
476.94	376.53
477.31	375.58
477.67	374.74
478.04	373.99
478.41	373.56
478.77	373.26
479.14	372.70
479.50	372.44
479.87	372.18
480.23	371.91
480.60	371.65
480.96	371.50
481.33	371.64
481.69	371.80
482.06	371.77
482.42	371.81
482.79	371.77
483.15	371.99
483.52	372.56
483.88	372.92
484.25	373.38
484.61	373.79
484.98	374.17
485.34	375.03
485.71	376.02
486.07	376.79
486.44	377.47
486.80	378.56
487.17	379.68
487.53	381.04
487.90	382.45
488.26	384.04
488.62	385.43
488.99	386.82
489.35	388.17
489.72	389.75
490.08	391.50
490.44	393.46
490.81	395.34
491.17	397.11
491.54	399.02
491.90	401.11
492.26	403.36
492.63	405.80
492.99	407.86
493.36	410.00
493.72	412.41
494.08	414.90
494.45	417.44
494.81	419.97
495.17	422.54
495.54	425.23
495.90	427.90
496.26	430.65
496.63	433.65
496.99	436.69
497.35	439.91
497.72	443.03
498.08	445.95
498.44	449.16
498.80	452.52
499.17	455.77
499.53	459.07
499.89	462.31
500.26	465.52
500.62	468.78
500.98	472.17
501.34	475.58
501.71	479.11
502.07	482.59
502.43	485.91
502.79	489.30
503.16	492.55
503.52	495.83
503.88	499.28
504.24	502.62
504.60	505.80
504.97	509.00
505.33	512.34
505.69	515.90
506.05	519.26
506.41	522.16
506.78	525.55
507.14	528.56
507.50	531.98
507.86	535.04
508.22	538.26
508.59	541.32
508.95	544.28
509.31	547.14
509.67	549.93
510.03	552.86
510.39	555.67
510.75	558.49
511.12	561.43
511.48	564.02
511.84	566.54
512.20	569.29
512.56	571.98
512.92	574.31
513.28	576.66
513.64	578.75
514.00	581.28
514.37	583.29
514.73	585.61
515.09	587.34
515.45	589.39
515.81	591.30
516.17	593.25
516.53	595.13
516.89	596.82
517.25	598.59
517.61	600.47
517.97	602.09
518.33	603.63
518.69	604.92
519.05	606.61
519.41	608.04
519.77	609.60
520.13	610.97
520.49	612.42
520.85	613.65
521.21	615.04
521.57	616.45
521.93	617.71
522.29	619.11
522.65	620.41
523.01	621.58
523.37	622.60
523.73	623.82
524.09	624.87
524.45	625.97
524.81	627.10
525.17	628.39
525.53	629.69
525.89	630.93
526.25	632.47
526.61	633.58
526.97	634.89
527.33	636.00
527.68	637.43
528.04	638.77
528.40	640.25
528.76	642.02
529.12	643.35
529.48	644.95
529.84	646.31
530.20	648.06
530.56	649.96
530.91	652.02
531.27	653.63
531.63	655.49
531.99	657.54
532.35	659.50
532.71	661.12
533.07	663.05
533.42	665.22
533.78	666.95
534.14	669.07
534.50	671.03
534.86	673.36
535.21	675.25
535.57	677.68
535.93	680.02
536.29	681.90
536.65	684.17
537.00	686.26
537.36	688.56
537.72	690.79
538.08	692.98
538.44	695.32
538.79	697.82
539.15	700.08
539.51	702.44
539.87	705.07
540.22	707.76
540.58	710.49
540.94	713.04
541.29	715.80
541.65	718.60
542.01	721.60
542.37	724.31
542.72	727.16
543.08	729.91
543.44	732.60
543.79	735.30
544.15	738.30
544.51	741.59
544.87	744.83
545.22	747.71
545.58	750.43
545.94	753.22
546.29	756.31
546.65	759.39
547.01	762.55
547.36	765.48
547.72	768.43
548.07	771.32
548.43	774.20
548.79	777.12
549.14	779.88
549.50	782.67
549.86	785.65
550.21	788.57
550.57	791.67
550.92	794.68
551.28	797.70
551.64	800.65
551.99	803.51
552.35	806.40
552.70	809.67
553.06	813.07
553.41	816.12
553.77	819.37
554.13	822.69
554.48	825.86
554.84	829.04
555.19	831.89
555.55	835.35
555.90	838.43
556.26	841.69
556.61	844.81
556.97	847.65
557.32	850.60
557.68	853.83
558.03	856.61
558.39	859.66
558.74	863.07
559.10	866.08
559.45	869.09
559.81	872.25
560.16	875.01
560.52	878.00
560.87	881.09
561.23	883.64
561.58	886.62
561.94	889.40
562.29	891.83
562.64	894.50
563.00	896.70
563.35	899.60
563.71	902.58
564.06	905.45
564.42	908.23
564.77	911.07
565.12	914.05
565.48	916.73
565.83	919.14
566.19	921.44
566.54	923.80
566.89	926.14
567.25	928.37
567.60	931.09
567.96	933.49
568.31	935.84
568.66	938.13
569.02	940.04
569.37	941.92
569.72	944.06
570.08	946.21
570.43	948.00
570.78	949.59
571.14	950.86
571.49	952.67
571.84	954.63
572.20	955.74
572.55	956.67
572.90	957.93
573.26	959.39
573.61	960.70
573.96	962.08
574.31	962.90
574.67	963.47
575.02	963.70
575.37	964.08
575.72	964.38
576.08	964.90
576.43	965.16
576.78	965.67
577.13	966.23
577.49	966.62
577.84	967.20
578.19	967.56
578.54	967.79
578.90	967.76
579.25	967.46
579.60	967.63
579.95	967.40
580.30	967.06
580.66	966.60
581.01	966.20
581.36	965.61
581.71	965.53
582.06	965.30
582.42	965.09
582.77	964.72
583.12	964.43
583.47	964.04
583.82	963.58
584.17	962.80
584.53	962.23
584.88	961.42
585.23	960.44
585.58	959.97
585.93	959.46
586.28	958.55
586.63	958.07
586.98	957.36
587.34	956.59
587.69	955.89
588.04	955.50
588.39	954.50
588.74	953.14
589.09	951.75
589.44	950.33
589.79	949.08
590.14	948.04
590.49	946.63
590.84	945.26
591.19	944.31
591.54	943.04
591.89	941.27
592.25	939.92
592.60	938.18
592.95	936.25
593.30	934.03
593.65	932.25
594.00	930.11
594.35	928.71
594.70	926.66
595.05	924.82
595.40	922.18
595.75	920.24
596.10	918.82
596.45	917.22
596.80	915.81
597.15	914.43
597.50	912.34
597.85	910.50
598.19	908.45
598.54	906.49
598.89	905.01
599.24	903.50
599.59	901.62
599.94	900.09
600.29	898.28
600.64	896.49
600.99	894.16
601.34	892.13
601.69	889.50
602.04	887.68
602.39	885.45
602.74	883.99
603.08	882.00
603.43	879.93
603.78	877.78
604.13	875.43
604.48	872.90
604.83	870.68
605.18	868.69
605.53	866.35
605.87	863.39
606.22	860.50
606.57	857.88
606.92	855.19
607.27	852.82
607.62	850.33
607.96	848.33
608.31	846.18
608.66	843.58
609.01	840.98
609.36	838.04
609.70	835.07
610.05	831.96
610.40	829.07
610.75	826.19
611.10	823.19
611.44	820.12
611.79	817.28
612.14	814.51
612.49	811.06
612.83	808.10
613.18	805.50
613.53	802.46
613.88	799.08
614.22	796.26
614.57	792.94
614.92	789.72
615.27	786.51
615.61	783.33
615.96	780.35
616.31	777.39
616.65	775.00
617.00	772.36
617.35	769.36
617.70	766.33
618.04	762.99
618.39	760.00
618.74	757.19
619.08	753.91
619.43	750.93
619.78	748.24
620.12	745.20
620.47	742.04
620.82	738.94
621.16	736.32
621.51	733.63
621.85	730.79
622.20	727.91
622.55	724.71
622.89	721.68
623.24	718.87
623.59	715.99
623.93	712.81
624.28	709.85
624.62	707.12
624.97	704.41
625.32	701.82
625.66	698.88
626.01	696.18
626.35	693.50
626.70	690.63
627.04	687.80
627.39	684.85
627.73	682.05
628.08	679.55
628.43	676.84
628.77	673.65
629.12	670.80
629.46	667.75
629.81	664.81
630.15	661.90
630.50	658.89
630.84	655.75
631.19	652.85
631.53	649.95
631.88	646.79
632.22	643.60
632.57	640.73
632.91	638.17
633.26	635.19
633.60	632.20
633.95	629.38
634.29	626.56
634.64	624.25
634.98	621.69
635.32	619.00
635.67	616.35
636.01	613.81
636.36	610.94
636.70	608.57
637.05	606.06
637.39	603.71
637.73	601.34
638.08	599.23
638.42	596.93
638.77	594.63
639.11	592.35
639.45	590.07
639.80	587.54
640.14	584.93
640.49	582.36
640.83	580.10
641.17	577.74
641.52	575.09
641.86	572.33
642.20	569.82
642.55	567.27
642.89	564.85
643.23	562.46
643.58	560.40
643.92	557.78
644.26	555.40
644.61	553.05
644.95	550.73
645.29	547.95
645.64	545.21
645.98	542.56
646.32	540.09
646.66	537.70
647.01	535.23
647.35	532.82
647.69	530.59
648.04	528.25
648.38	525.79
648.72	523.52
649.06	521.00
649.41	518.56
649.75	516.10
650.09	513.47
650.43	510.90
650.78	508.18
651.12	505.90
651.46	503.60
651.80	501.23
652.14	498.69
652.49	496.56
652.83	494.31
653.17	492.22
653.51	489.85
653.85	487.50
654.20	485.32
654.54	482.90
654.88	480.43
655.22	477.88
655.56	475.42
655.90	473.29
656.25	471.17
656.59	469.16
656.93	467.07
657.27	464.96
657.61	462.70
657.95	460.91
658.29	458.83
658.64	456.56
658.98	454.33
659.32	452.39
659.66	450.16
660.00	448.12
660.34	445.85
660.68	443.93
661.02	441.76
661.36	439.63
661.70	437.75
662.05	436.00
662.39	434.35
662.73	432.65
663.07	430.86
663.41	429.07
663.75	427.05
664.09	425.18
664.43	423.31
664.77	421.64
665.11	419.66
665.45	417.69
665.79	416.12
666.13	414.44
666.47	412.71
666.81	411.00
667.15	409.05
667.49	407.32
667.83	405.61
668.17	404.03
668.51	402.49
668.85	400.88
669.19	399.07
669.53	397.37
669.87	395.71
670.21	394.18
670.55	392.83
670.89	391.54
671.23	390.10
671.57	388.55
671.91	387.20
672.25	385.78
672.58	384.48
672.92	383.07
673.26	381.71
673.60	380.37
673.94	379.13
674.28	378.08
674.62	377.03
674.96	375.79
675.30	374.67
675.64	373.39
675.97	372.24
676.31	371.11
676.65	369.89
676.99	368.90
677.33	367.59
677.67	366.13
678.01	364.69
678.34	363.49
678.68	362.26
679.02	360.94
679.36	359.83
679.70	358.66
680.04	357.39
680.37	356.20
680.71	354.97
681.05	353.86
681.39	352.63
681.73	351.43
682.06	350.35
682.40	349.14
682.74	348.10
683.08	346.92
683.42	345.78
683.75	344.72
684.09	343.31
684.43	342.24
684.77	341.39
685.10	340.33
685.44	339.13
685.78	338.12
686.12	337.16
686.45	336.02
686.79	335.02
687.13	333.93
687.46	332.84
687.80	331.88
688.14	330.81
688.48	329.75
688.81	328.60
689.15	327.58
689.49	326.60
689.82	325.40
690.16	324.35
690.50	323.41
690.83	322.38
691.17	321.39
691.51	320.38
691.84	319.27
692.18	318.25
692.52	317.33
692.85	316.43
693.19	315.42
693.52	314.51
693.86	313.37
694.20	312.54
694.53	311.57
694.87	310.47
695.21	309.44
695.54	308.54
695.88	307.68
696.21	306.72
696.55	305.76
696.88	304.96
697.22	304.05
697.56	303.14
697.89	302.34
698.23	301.61
698.56	300.71
698.90	299.94
699.23	299.17
699.57	298.30
699.90	297.49
700.24	296.70
700.58	295.85
700.91	295.30
701.25	294.59
701.58	293.92
701.92	293.33
702.25	292.73
702.59	292.03
702.92	291.38
703.26	290.70
703.59	290.18
703.93	289.72
704.26	289.22
704.60	288.59
704.93	287.90
705.26	287.22
705.60	286.72
705.93	286.01
706.27	285.51
706.60	285.10
706.94	284.62
707.27	284.01
707.61	283.53
707.94	282.91
708.27	282.26
708.61	281.68
708.94	281.02
709.28	280.45
709.61	279.94
709.94	279.41
710.28	278.99
710.61	278.42
710.95	277.71
711.28	277.28
711.61	276.84
711.95	276.39
712.28	275.87
712.61	275.30
712.95	274.95
713.28	274.43
713.61	273.90
713.95	273.28
714.28	272.81
714.61	272.30
714.95	271.91
715.28	271.34
715.61	270.89
715.95	270.44
716.28	270.01
716.61	269.60
716.95	269.08
717.28	268.61
717.61	268.21
717.94	267.88
718.28	267.30
718.61	266.85
718.94	266.50
719.27	266.04
719.61	265.58
719.94	265.15
720.27	264.76
720.60	264.33
720.94	264.23
721.27	263.90
721.60	263.54
721.93	263.21
722.27	263.03
722.60	262.77
722.93	262.45
723.26	262.14
723.59	261.74
723.93	261.40
724.26	261.07
724.59	260.63
724.92	260.25
725.25	260.03
725.59	259.67
725.92	259.29
726.25	259.00
726.58	258.77
726.91	258.55
727.24	258.24
727.57	257.97
727.91	257.46
728.24	257.12
728.57	256.86
728.90	256.58
729.23	256.20
729.56	255.95
729.89	255.63
730.22	255.28
730.55	254.90
730.89	254.61
731.22	254.18
731.55	253.97
731.88	253.70
732.21	253.30
732.54	253.14
732.87	252.85
733.20	252.64
733.53	252.30
733.86	252.02
734.19	251.73
734.52	251.48
734.85	251.31
735.18	251.08
735.51	250.85
735.84	250.59
736.17	250.42
736.50	250.07
736.83	250.13
737.16	249.91
737.49	249.86
737.82	249.67
738.15	249.62
738.48	249.42
738.81	249.14
739.14	248.85
739.47	248.67
739.80	248.49
740.13	248.30
740.46	248.12
740.79	247.76
741.12	247.44
741.45	247.27
741.78	246.96
742.11	246.76
742.44	246.51
742.77	246.30
743.10	246.09
743.43	245.85
743.75	245.43
744.08	245.54
744.41	245.32
744.74	245.12
745.07	244.85
745.40	244.62
745.73	244.50
746.06	244.43
746.39	244.21
746.71	243.96
747.04	243.68
747.37	243.49
747.70	243.40
748.03	243.27
748.36	243.15
748.68	243.10
749.01	242.82
749.34	242.71
749.67	242.54
750.00	242.45
750.33	242.44
750.65	242.28
750.98	241.78
751.31	241.65
751.64	241.52
751.97	241.47
752.29	241.32
752.62	241.18
752.95	241.00
753.28	240.85
753.60	240.75
753.93	240.75
754.26	240.69
754.59	240.53
754.91	240.41
755.24	240.21
755.57	240.08
755.90	240.02
756.22	239.83
756.55	239.65
756.88	239.38
757.20	239.26
757.53	239.14
757.86	239.08
758.19	238.91
758.51	238.89
758.84	238.72
759.17	238.63
759.49	238.45
759.82	238.38
760.15	238.20
760.47	238.09
760.80	237.89
761.13	237.86
761.45	237.72
761.78	237.62
762.11	237.53
762.43	237.41
762.76	237.34
763.08	237.32
763.41	237.30
763.74	237.27
764.06	237.12
764.39	237.02
764.71	236.86
765.04	236.81
765.37	236.67
765.69	236.50
766.02	236.40
766.34	236.43
766.67	236.28
767.00	236.19
767.32	236.22
767.65	236.22
767.97	236.05
768.30	236.00
768.62	235.91
768.95	235.83
769.27	235.74
769.60	235.69
769.92	235.63
770.25	235.43
770.57	235.39
770.90	235.22
771.22	235.08
771.55	235.09
771.87	235.04
772.20	234.93
772.52	235.04
772.85	235.20
773.17	235.08
773.50	235.01
773.82	234.90
774.15	234.74
774.47	234.60
774.80	234.56
775.12	234.52
775.45	234.49
775.77	234.43
776.09	234.40
776.42	234.32
776.74	234.19
777.07	234.18
777.39	234.07
777.72	234.13
778.04	234.08
778.36	233.93
778.69	233.82
779.01	233.81
779.33	233.73
779.66	233.51
779.98	233.41
780.31	233.47
780.63	233.51
780.95	233.46
781.28	233.45
781.60	233.36
781.92	233.26
782.25	233.20
782.57	233.13
782.89	233.03
783.22	232.93
783.54	232.79
783.86	232.76
784.19	232.62
784.51	232.58
784.83	232.60
785.16	232.60
785.48	232.63
785.80	232.56
786.12	232.44
786.45	232.33
786.77	232.38
787.09	232.35
787.42	232.31
787.74	232.23
788.06	232.14
788.38	232.13
788.71	232.03
789.03	232.08
789.35	232.08
789.67	232.05
789.99	232.00
790.32	232.07
790.64	232.04
790.96	232.26
791.28	232.26
791.61	232.12
791.93	232.18
792.25	232.10
792.57	232.26
792.89	232.22
793.21	232.29
793.54	232.20
793.86	232.08
794.18	232.20
