SpectraSuite Data File
++++++++++++++++++++++++++++++++++++
Date: Fri Feb 01 14:37:43 EST 2013
User: group
Dark Spectrum Present: No
Reference Spectrum Present: No
Number of Sampled Component Spectra: 1
Spectrometers: USB2E7196
Integration Time (usec): 70000 (USB2E7196)
Spectra Averaged: 10 (USB2E7196)
Boxcar Smoothing: 10 (USB2E7196)
Correct for Electrical Dark: No (USB2E7196)
Strobe/Lamp Enabled: No (USB2E7196)
Correct for Detector Non-linearity: No (USB2E7196)
Correct for Stray Light: No (USB2E7196)
Number of Pixels in Processed Spectrum: 2048
>>>>>Begin Processed Spectral Data<<<<<
339.09	0.00
339.48	216.40
339.86	219.40
340.24	219.70
340.63	220.20
341.01	226.00
341.39	223.00
341.78	223.70
342.16	225.30
342.54	225.40
342.93	214.78
343.31	225.54
343.69	226.10
344.07	226.42
344.46	226.84
344.84	227.17
345.22	227.24
345.60	227.43
345.99	227.61
346.37	227.69
346.75	227.76
347.13	227.85
347.52	228.00
347.90	228.19
348.28	228.11
348.66	228.12
349.05	228.14
349.43	228.15
349.81	228.17
350.19	228.23
350.57	228.31
350.96	228.38
351.34	228.58
351.72	228.64
352.10	228.81
352.48	228.79
352.87	228.90
353.25	229.00
353.63	229.09
354.01	229.25
354.39	229.41
354.77	229.48
355.15	229.59
355.54	229.52
355.92	229.50
356.30	229.66
356.68	229.84
357.06	229.85
357.44	229.85
357.82	229.90
358.20	229.90
358.58	229.83
358.97	229.80
359.35	229.87
359.73	229.99
360.11	230.00
360.49	230.00
360.87	230.00
361.25	230.04
361.63	230.17
362.01	230.08
362.39	229.93
362.77	229.92
363.15	229.91
363.53	229.90
363.91	229.91
364.29	229.91
364.67	229.68
365.05	229.62
365.43	229.58
365.81	229.62
366.19	229.80
366.57	229.84
366.95	229.94
367.33	229.86
367.71	229.79
368.09	229.77
368.47	229.80
368.85	229.72
369.23	229.69
369.61	229.53
369.99	229.58
370.37	229.67
370.75	229.81
371.13	229.84
371.51	229.73
371.89	229.66
372.27	229.54
372.65	229.50
373.03	229.51
373.41	229.51
373.78	229.31
374.16	229.01
374.54	228.89
374.92	228.76
375.30	228.60
375.68	228.40
376.06	228.29
376.44	228.24
376.82	228.26
377.19	228.23
377.57	228.24
377.95	228.15
378.33	228.06
378.71	227.81
379.09	227.62
379.47	227.69
379.84	227.63
380.22	227.54
380.60	227.44
380.98	227.27
381.36	227.18
381.73	227.19
382.11	227.15
382.49	227.07
382.87	226.97
383.25	226.93
383.62	227.17
384.00	227.09
384.38	226.97
384.76	226.90
385.13	226.88
385.51	226.76
385.89	226.64
386.27	226.54
386.64	226.45
387.02	226.36
387.40	226.19
387.78	226.12
388.15	226.21
388.53	226.23
388.91	226.20
389.29	226.13
389.66	226.08
390.04	226.09
390.42	226.11
390.79	226.17
391.17	226.09
391.55	225.81
391.92	225.82
392.30	225.81
392.68	225.74
393.05	225.63
393.43	225.64
393.81	225.69
394.18	225.77
394.56	225.87
394.94	225.99
395.31	226.02
395.69	226.20
396.06	226.22
396.44	226.27
396.82	226.33
397.19	226.49
397.57	226.55
397.95	226.58
398.32	226.62
398.70	226.64
399.07	226.90
399.45	227.12
399.82	227.18
400.20	227.37
400.58	227.47
400.95	227.62
401.33	227.77
401.70	228.02
402.08	228.06
402.45	228.20
402.83	228.29
403.20	228.47
403.58	228.45
403.95	228.68
404.33	228.80
404.71	228.98
405.08	229.21
405.46	229.50
405.83	229.83
406.21	230.05
406.58	230.42
406.96	230.59
407.33	230.77
407.70	231.12
408.08	231.52
408.45	231.86
408.83	232.23
409.20	232.60
409.58	232.83
409.95	233.25
410.33	233.63
410.70	234.10
411.08	234.52
411.45	235.13
411.82	235.45
412.20	236.09
412.57	236.80
412.95	237.30
413.32	237.78
413.69	238.40
414.07	239.07
414.44	239.76
414.82	240.43
415.19	241.22
415.56	241.89
415.94	242.73
416.31	243.60
416.68	244.52
417.06	245.53
417.43	246.63
417.81	247.82
418.18	249.05
418.55	250.17
418.93	251.42
419.30	252.63
419.67	254.12
420.04	255.60
420.42	257.05
420.79	258.88
421.16	260.62
421.54	262.43
421.91	264.30
422.28	266.28
422.66	268.45
423.03	270.52
423.40	272.76
423.77	274.87
424.15	277.29
424.52	279.68
424.89	282.26
425.26	284.55
425.64	286.86
426.01	289.44
426.38	292.13
426.75	294.92
427.13	297.77
427.50	300.73
427.87	303.87
428.24	306.87
428.61	309.71
428.99	313.06
429.36	316.59
429.73	320.17
430.10	323.44
430.47	326.98
430.85	330.40
431.22	334.18
431.59	338.34
431.96	342.22
432.33	346.54
432.70	350.64
433.08	355.66
433.45	360.25
433.82	364.80
434.19	369.98
434.56	374.91
434.93	379.72
435.30	384.40
435.68	389.59
436.05	394.67
436.42	399.67
436.79	404.27
437.16	409.11
437.53	414.10
437.90	419.44
438.27	424.45
438.64	429.83
439.01	434.91
439.38	439.28
439.75	443.51
440.13	448.10
440.50	452.69
440.87	456.43
441.24	460.37
441.61	464.59
441.98	467.68
442.35	471.47
442.72	475.20
443.09	479.14
443.46	481.41
443.83	483.10
444.20	484.75
444.57	486.74
444.94	487.94
445.31	489.40
445.68	490.54
446.05	491.48
446.42	491.51
446.79	491.34
447.16	491.07
447.53	491.05
447.90	489.69
448.27	488.32
448.64	486.02
449.01	484.70
449.37	481.75
449.74	478.99
450.11	475.70
450.48	471.79
450.85	467.77
451.22	464.38
451.59	461.29
451.96	458.18
452.33	453.87
452.70	450.17
453.07	445.59
453.43	440.72
453.80	435.97
454.17	431.46
454.54	427.13
454.91	422.50
455.28	417.92
455.65	413.72
456.02	409.46
456.38	406.06
456.75	401.37
457.12	397.53
457.49	393.72
457.86	389.73
458.23	386.69
458.59	383.02
458.96	379.42
459.33	376.29
459.70	373.10
460.07	370.61
460.43	367.61
460.80	364.50
461.17	361.98
461.54	359.40
461.91	356.90
462.27	354.32
462.64	352.19
463.01	349.84
463.38	347.47
463.74	345.03
464.11	342.79
464.48	340.87
464.85	339.00
465.21	337.47
465.58	335.81
465.95	333.69
466.32	331.97
466.68	330.35
467.05	328.61
467.42	326.86
467.78	325.08
468.15	323.36
468.52	322.26
468.88	320.66
469.25	319.11
469.62	317.90
469.98	316.57
470.35	315.24
470.72	314.05
471.08	312.84
471.45	311.76
471.82	310.66
472.18	309.46
472.55	308.50
472.92	307.27
473.28	306.30
473.65	305.48
474.02	304.50
474.38	303.51
474.75	302.73
475.11	302.00
475.48	301.38
475.85	300.70
476.21	299.94
476.58	299.33
476.94	298.80
477.31	298.17
477.67	297.72
478.04	297.13
478.41	296.74
478.77	296.42
479.14	295.99
479.50	295.55
479.87	295.36
480.23	295.10
480.60	294.84
480.96	294.41
481.33	294.22
481.69	294.10
482.06	294.02
482.42	293.78
482.79	293.53
483.15	293.39
483.52	293.40
483.88	293.38
484.25	293.46
484.61	293.55
484.98	293.47
485.34	293.63
485.71	293.96
486.07	294.01
486.44	294.10
486.80	294.22
487.17	294.47
487.53	294.80
487.90	294.93
488.26	295.22
488.62	295.76
488.99	296.01
489.35	296.23
489.72	296.60
490.08	297.10
490.44	297.49
490.81	297.94
491.17	298.23
491.54	298.76
491.90	299.19
492.26	299.62
492.63	300.26
492.99	300.75
493.36	301.14
493.72	301.76
494.08	302.21
494.45	302.73
494.81	303.31
495.17	303.81
495.54	304.59
495.90	305.29
496.26	305.98
496.63	306.65
496.99	307.46
497.35	308.01
497.72	308.59
498.08	309.18
498.44	309.87
498.80	310.71
499.17	311.21
499.53	311.60
499.89	311.96
500.26	312.40
500.62	312.81
500.98	313.51
501.34	314.02
501.71	314.58
502.07	315.15
502.43	315.67
502.79	316.06
503.16	316.40
503.52	316.78
503.88	316.99
504.24	317.33
504.60	317.59
504.97	317.92
505.33	318.16
505.69	318.63
506.05	318.93
506.41	319.10
506.78	319.32
507.14	319.69
507.50	320.09
507.86	320.40
508.22	320.61
508.59	320.66
508.95	320.86
509.31	321.04
509.67	321.21
510.03	321.31
510.39	321.53
510.75	321.77
511.12	321.90
511.48	322.02
511.84	322.03
512.20	322.06
512.56	322.30
512.92	322.42
513.28	322.51
513.64	322.57
514.00	322.69
514.37	322.81
514.73	322.95
515.09	323.25
515.45	323.31
515.81	323.49
516.17	323.79
516.53	324.00
516.89	324.21
517.25	324.51
517.61	324.80
517.97	325.15
518.33	325.23
518.69	325.61
519.05	326.11
519.41	326.65
519.77	327.35
520.13	327.95
520.49	328.50
520.85	329.09
521.21	329.91
521.57	330.79
521.93	331.60
522.29	332.66
522.65	333.54
523.01	334.52
523.37	335.52
523.73	336.57
524.09	337.69
524.45	339.04
524.81	340.33
525.17	341.73
525.53	343.20
525.89	344.98
526.25	346.71
526.61	348.35
526.97	350.13
527.33	351.88
527.68	353.92
528.04	356.07
528.40	358.28
528.76	360.53
529.12	362.80
529.48	365.25
529.84	367.58
530.20	370.09
530.56	372.90
530.91	375.78
531.27	378.52
531.63	381.32
531.99	384.34
532.35	387.35
532.71	390.42
533.07	393.54
533.42	396.93
533.78	400.12
534.14	403.56
534.50	407.05
534.86	410.61
535.21	414.05
535.57	417.75
535.93	421.37
536.29	425.01
536.65	428.82
537.00	432.53
537.36	436.62
537.72	440.62
538.08	444.75
538.44	448.89
538.79	453.19
539.15	457.32
539.51	461.73
539.87	466.07
540.22	470.59
540.58	475.28
540.94	479.54
541.29	484.12
541.65	488.70
542.01	493.55
542.37	498.18
542.72	502.91
543.08	507.64
543.44	512.70
543.79	517.44
544.15	522.27
544.51	527.38
544.87	532.31
545.22	537.49
545.58	542.41
545.94	547.14
546.29	552.07
546.65	557.16
547.01	561.81
547.36	566.73
547.72	571.75
548.07	576.63
548.43	581.53
548.79	586.47
549.14	591.39
549.50	596.30
549.86	601.53
550.21	606.61
550.57	611.66
550.92	616.39
551.28	621.49
551.64	626.45
551.99	631.48
552.35	636.41
552.70	641.20
553.06	646.24
553.41	651.25
553.77	656.56
554.13	661.73
554.48	666.87
554.84	671.76
555.19	676.54
555.55	681.40
555.90	686.46
556.26	691.25
556.61	696.23
556.97	700.85
557.32	705.60
557.68	710.19
558.03	714.91
558.39	719.75
558.74	724.48
559.10	729.41
559.45	734.16
559.81	739.00
560.16	743.50
560.52	747.98
560.87	752.69
561.23	756.68
561.58	761.16
561.94	765.41
562.29	769.94
562.64	774.17
563.00	778.47
563.35	782.80
563.71	787.60
564.06	791.77
564.42	795.84
564.77	800.00
565.12	804.33
565.48	808.73
565.83	812.73
566.19	817.01
566.54	820.80
566.89	824.46
567.25	828.26
567.60	832.29
567.96	836.09
568.31	839.85
568.66	843.76
569.02	847.22
569.37	850.67
569.72	853.96
570.08	857.27
570.43	860.35
570.78	863.50
571.14	866.04
571.49	868.94
571.84	872.23
572.20	874.96
572.55	877.43
572.90	879.70
573.26	882.39
573.61	884.55
573.96	886.95
574.31	889.12
574.67	890.85
575.02	892.66
575.37	894.31
575.72	895.98
576.08	897.62
576.43	899.32
576.78	901.14
577.13	903.00
577.49	904.73
577.84	906.44
578.19	907.80
578.54	909.20
578.90	910.63
579.25	911.49
579.60	912.41
579.95	913.73
580.30	914.62
580.66	915.29
581.01	916.07
581.36	916.81
581.71	917.85
582.06	918.65
582.42	919.21
582.77	919.94
583.12	920.70
583.47	921.44
583.82	922.22
584.17	922.62
584.53	923.01
584.88	923.63
585.23	924.06
585.58	924.31
585.93	924.63
586.28	925.01
586.63	925.51
586.98	926.00
587.34	926.01
587.69	926.28
588.04	926.63
588.39	926.79
588.74	926.27
589.09	925.80
589.44	925.44
589.79	925.32
590.14	925.43
590.49	924.95
590.84	924.20
591.19	923.64
591.54	922.63
591.89	921.50
592.25	920.74
592.60	919.44
592.95	918.52
593.30	917.46
593.65	916.29
594.00	914.91
594.35	914.15
594.70	912.90
595.05	911.70
595.40	910.34
595.75	909.24
596.10	908.53
596.45	907.73
596.80	906.99
597.15	905.99
597.50	904.55
597.85	903.44
598.19	902.56
598.54	901.34
598.89	900.41
599.24	899.79
599.59	898.56
599.94	897.74
600.29	896.52
600.64	895.26
600.99	893.52
601.34	892.64
601.69	890.80
602.04	889.37
602.39	888.00
602.74	886.93
603.08	885.40
603.43	884.07
603.78	882.49
604.13	880.93
604.48	879.13
604.83	877.70
605.18	876.05
605.53	874.12
605.87	872.06
606.22	870.48
606.57	868.46
606.92	866.41
607.27	864.63
607.62	863.08
607.96	861.68
608.31	860.35
608.66	858.20
609.01	856.09
609.36	853.79
609.70	851.40
610.05	848.55
610.40	846.26
610.75	843.70
611.10	841.13
611.44	838.29
611.79	835.87
612.14	833.22
612.49	830.42
612.83	827.83
613.18	825.36
613.53	822.76
613.88	820.04
614.22	817.48
614.57	814.50
614.92	811.52
615.27	808.56
615.61	805.71
615.96	802.86
616.31	800.43
616.65	798.31
617.00	795.84
617.35	793.49
617.70	790.52
618.04	787.80
618.39	785.23
618.74	782.98
619.08	780.10
619.43	777.59
619.78	775.10
620.12	772.50
620.47	769.67
620.82	766.69
621.16	764.10
621.51	761.54
621.85	758.89
622.20	756.10
622.55	753.25
622.89	750.67
623.24	748.26
623.59	745.70
623.93	743.15
624.28	740.54
624.62	738.00
624.97	735.78
625.32	733.10
625.66	730.46
626.01	727.61
626.35	725.14
626.70	722.31
627.04	719.58
627.39	716.84
627.73	714.23
628.08	711.86
628.43	709.04
628.77	705.97
629.12	703.06
629.46	700.50
629.81	697.64
630.15	694.58
630.50	691.46
630.84	688.14
631.19	684.87
631.53	681.87
631.88	678.64
632.22	675.48
632.57	672.80
632.91	669.77
633.26	666.73
633.60	663.84
633.95	661.10
634.29	658.53
634.64	656.08
634.98	653.24
635.32	650.53
635.67	648.02
636.01	645.52
636.36	642.82
636.70	640.13
637.05	637.66
637.39	635.24
637.73	632.80
638.08	630.72
638.42	628.45
638.77	626.01
639.11	623.41
639.45	620.88
639.80	618.28
640.14	615.86
640.49	613.59
640.83	611.06
641.17	608.36
641.52	605.77
641.86	602.88
642.20	600.55
642.55	597.86
642.89	595.29
643.23	592.63
643.58	590.42
643.92	587.81
644.26	585.27
644.61	582.68
644.95	580.10
645.29	577.23
645.64	574.39
645.98	571.84
646.32	569.44
646.66	566.92
647.01	564.29
647.35	561.76
647.69	559.30
648.04	557.13
648.38	554.54
648.72	551.67
649.06	549.20
649.41	546.69
649.75	543.97
650.09	541.18
650.43	538.45
650.78	535.61
651.12	532.98
651.46	530.48
651.80	527.97
652.14	525.63
652.49	523.17
652.83	520.75
653.17	518.10
653.51	515.70
653.85	513.28
654.20	510.82
654.54	508.20
654.88	505.49
655.22	502.66
655.56	500.18
655.90	498.01
656.25	495.60
656.59	493.17
656.93	491.10
657.27	488.95
657.61	486.80
657.95	484.82
658.29	482.61
658.64	480.24
658.98	477.92
659.32	475.31
659.66	472.96
660.00	470.74
660.34	468.56
660.68	466.27
661.02	463.84
661.36	461.70
661.70	459.73
662.05	457.90
662.39	456.00
662.73	454.01
663.07	451.93
663.41	449.84
663.75	447.86
664.09	445.76
664.43	443.77
664.77	441.91
665.11	439.67
665.45	437.75
665.79	435.92
666.13	434.08
666.47	432.32
666.81	430.61
667.15	428.49
667.49	426.63
667.83	424.91
668.17	423.14
668.51	421.35
668.85	419.45
669.19	417.70
669.53	415.80
669.87	413.93
670.21	412.22
670.55	410.55
670.89	408.85
671.23	407.26
671.57	405.63
671.91	403.94
672.25	402.52
672.58	400.89
672.92	399.17
673.26	397.63
673.60	396.23
673.94	394.64
674.28	393.38
674.62	391.92
674.96	390.41
675.30	389.14
675.64	387.71
675.97	386.45
676.31	384.87
676.65	383.26
676.99	382.00
677.33	380.54
677.67	379.13
678.01	377.43
678.34	375.92
678.68	374.52
679.02	373.10
679.36	371.63
679.70	370.36
680.04	369.06
680.37	367.60
680.71	366.05
681.05	364.80
681.39	363.45
681.73	362.16
682.06	361.01
682.40	359.68
682.74	358.43
683.08	357.20
683.42	355.91
683.75	354.91
684.09	353.69
684.43	352.43
684.77	351.25
685.10	350.28
685.44	349.05
685.78	347.77
686.12	346.67
686.45	345.52
686.79	344.26
687.13	343.13
687.46	342.02
687.80	341.05
688.14	339.88
688.48	338.88
688.81	337.73
689.15	336.53
689.49	335.45
689.82	334.50
690.16	333.20
690.50	332.10
690.83	331.09
691.17	330.07
691.51	328.98
691.84	327.87
692.18	326.80
692.52	325.80
692.85	324.80
693.19	323.79
693.52	322.78
693.86	321.67
694.20	320.66
694.53	319.67
694.87	318.51
695.21	317.41
695.54	316.35
695.88	315.38
696.21	314.28
696.55	313.33
696.88	312.19
697.22	311.32
697.56	310.36
697.89	309.43
698.23	308.38
698.56	307.53
698.90	306.70
699.23	305.68
699.57	304.92
699.90	304.02
700.24	303.09
700.58	302.28
700.91	301.66
701.25	300.94
701.58	300.16
701.92	299.44
702.25	298.84
702.59	298.01
702.92	297.12
703.26	296.53
703.59	295.80
703.93	295.26
704.26	294.58
704.60	294.02
704.93	293.19
705.26	292.52
705.60	291.86
705.93	291.22
706.27	290.80
706.60	290.12
706.94	289.53
707.27	288.90
707.61	288.33
707.94	287.66
708.27	286.90
708.61	286.29
708.94	285.61
709.28	284.93
709.61	284.53
709.94	284.08
710.28	283.50
710.61	282.89
710.95	282.04
711.28	281.56
711.61	280.88
711.95	280.49
712.28	279.82
712.61	279.27
712.95	278.67
713.28	278.04
713.61	277.48
713.95	276.90
714.28	276.43
714.61	275.79
714.95	275.38
715.28	274.80
715.61	274.18
715.95	273.76
716.28	273.20
716.61	272.57
716.95	272.12
717.28	271.57
717.61	271.02
717.94	270.54
718.28	269.99
718.61	269.40
718.94	268.80
719.27	268.56
719.61	268.12
719.94	267.76
720.27	267.27
720.60	266.84
720.94	266.48
721.27	266.10
721.60	265.71
721.93	265.23
722.27	264.95
722.60	264.70
722.93	264.35
723.26	264.02
723.59	263.61
723.93	263.26
724.26	262.87
724.59	262.62
724.92	262.37
725.25	262.04
725.59	261.81
725.92	261.56
726.25	261.08
726.58	260.77
726.91	260.35
727.24	260.02
727.57	259.69
727.91	259.16
728.24	258.78
728.57	258.39
728.90	258.02
729.23	257.80
729.56	257.47
729.89	257.10
730.22	256.77
730.55	256.52
730.89	256.17
731.22	255.89
731.55	255.56
731.88	255.29
732.21	254.86
732.54	254.55
732.87	254.18
733.20	254.00
733.53	253.75
733.86	253.50
734.19	253.26
734.52	253.04
734.85	253.03
735.18	252.80
735.51	252.70
735.84	252.44
736.17	252.11
736.50	251.81
736.83	251.68
737.16	251.48
737.49	251.23
737.82	251.10
738.15	250.84
738.48	250.51
738.81	250.24
739.14	250.06
739.47	249.93
739.80	249.75
740.13	249.43
740.46	249.09
740.79	248.96
741.12	248.72
741.45	248.41
741.78	248.16
742.11	247.93
742.44	247.64
742.77	247.47
743.10	247.32
743.43	247.13
743.75	246.87
744.08	246.91
744.41	246.69
744.74	246.39
745.07	246.23
745.40	246.10
745.73	246.03
746.06	245.82
746.39	245.53
746.71	245.37
747.04	245.16
747.37	245.01
747.70	244.72
748.03	244.50
748.36	244.30
748.68	244.01
749.01	243.88
749.34	243.66
749.67	243.52
750.00	243.30
750.33	243.16
750.65	242.99
750.98	242.52
751.31	242.35
751.64	242.16
751.97	242.15
752.29	242.00
752.62	241.70
752.95	241.54
753.28	241.37
753.60	241.17
753.93	241.06
754.26	240.90
754.59	240.67
754.91	240.59
755.24	240.45
755.57	240.41
755.90	240.20
756.22	240.15
756.55	239.94
756.88	239.82
757.20	239.61
757.53	239.38
757.86	239.21
758.19	239.08
758.51	238.93
758.84	238.68
759.17	238.46
759.49	238.45
759.82	238.50
760.15	238.53
760.47	238.35
760.80	238.17
761.13	238.08
761.45	238.07
761.78	237.90
762.11	237.96
762.43	237.85
762.76	237.65
763.08	237.61
763.41	237.63
763.74	237.47
764.06	237.34
764.39	237.36
764.71	237.32
765.04	237.25
765.37	237.21
765.69	237.11
766.02	237.07
766.34	236.96
766.67	236.74
767.00	236.58
767.32	236.60
767.65	236.77
767.97	236.73
768.30	236.72
768.62	236.66
768.95	236.45
769.27	236.32
769.60	236.42
769.92	236.33
770.25	236.19
770.57	236.05
770.90	235.96
771.22	235.76
771.55	235.66
771.87	235.59
772.20	235.51
772.52	235.62
772.85	235.82
773.17	235.75
773.50	235.68
773.82	235.60
774.15	235.43
774.47	235.13
774.80	235.00
775.12	234.89
775.45	234.84
775.77	234.78
776.09	234.81
776.42	234.81
776.74	234.64
777.07	234.58
777.39	234.51
777.72	234.48
778.04	234.46
778.36	234.38
778.69	234.34
779.01	234.30
779.33	234.01
779.66	233.73
779.98	233.63
780.31	233.62
780.63	233.73
780.95	233.79
781.28	233.82
781.60	233.72
781.92	233.67
782.25	233.66
782.57	233.60
782.89	233.51
783.22	233.32
783.54	233.30
783.86	233.32
784.19	233.37
784.51	233.48
784.83	233.55
785.16	233.54
785.48	233.44
785.80	233.41
786.12	233.44
786.45	233.38
786.77	233.30
787.09	233.22
787.42	233.10
787.74	233.10
788.06	233.03
788.38	232.99
788.71	232.93
789.03	232.89
789.35	232.86
789.67	232.76
789.99	232.80
790.32	232.79
790.64	232.71
790.96	232.70
791.28	232.56
791.61	232.50
791.93	232.49
792.25	232.46
792.57	232.51
792.89	232.52
793.21	232.51
793.54	232.53
793.86	232.49
794.18	232.39
