SpectraSuite Data File
++++++++++++++++++++++++++++++++++++
Date: Fri Feb 01 14:40:54 EST 2013
User: group
Dark Spectrum Present: No
Reference Spectrum Present: No
Number of Sampled Component Spectra: 1
Spectrometers: USB2E7196
Integration Time (usec): 70000 (USB2E7196)
Spectra Averaged: 10 (USB2E7196)
Boxcar Smoothing: 10 (USB2E7196)
Correct for Electrical Dark: No (USB2E7196)
Strobe/Lamp Enabled: No (USB2E7196)
Correct for Detector Non-linearity: No (USB2E7196)
Correct for Stray Light: No (USB2E7196)
Number of Pixels in Processed Spectrum: 2048
>>>>>Begin Processed Spectral Data<<<<<
339.09	0.00
339.48	215.50
339.86	216.10
340.24	218.10
340.63	220.70
341.01	224.80
341.39	223.20
341.78	223.30
342.16	225.60
342.54	226.10
342.93	214.51
343.31	225.39
343.69	225.93
344.07	226.45
344.46	226.87
344.84	227.16
345.22	227.29
345.60	227.46
345.99	227.66
346.37	227.77
346.75	227.88
347.13	228.02
347.52	228.08
347.90	228.02
348.28	228.02
348.66	228.09
349.05	228.13
349.43	228.18
349.81	228.19
350.19	228.29
350.57	228.30
350.96	228.29
351.34	228.44
351.72	228.49
352.10	228.60
352.48	228.71
352.87	228.78
353.25	228.87
353.63	228.98
354.01	229.06
354.39	229.18
354.77	229.27
355.15	229.31
355.54	229.34
355.92	229.32
356.30	229.52
356.68	229.68
357.06	229.80
357.44	229.86
357.82	229.95
358.20	230.06
358.58	230.18
358.97	230.47
359.35	230.44
359.73	230.50
360.11	230.67
360.49	230.78
360.87	230.90
361.25	230.97
361.63	231.21
362.01	231.29
362.39	231.32
362.77	231.42
363.15	231.48
363.53	231.60
363.91	231.67
364.29	231.58
364.67	231.41
365.05	231.39
365.43	231.42
365.81	231.51
366.19	231.51
366.57	231.50
366.95	231.40
367.33	231.36
367.71	231.43
368.09	231.30
368.47	231.32
368.85	231.40
369.23	231.43
369.61	231.21
369.99	231.28
370.37	231.14
370.75	231.22
371.13	231.13
371.51	230.97
371.89	231.02
372.27	230.97
372.65	230.96
373.03	230.89
373.41	230.77
373.78	230.58
374.16	230.43
374.54	230.40
374.92	230.27
375.30	230.23
375.68	230.17
376.06	230.04
376.44	229.90
376.82	229.82
377.19	229.69
377.57	229.62
377.95	229.39
378.33	229.30
378.71	229.01
379.09	228.90
379.47	228.90
379.84	228.74
380.22	228.64
380.60	228.53
380.98	228.50
381.36	228.45
381.73	228.46
382.11	228.43
382.49	228.35
382.87	228.20
383.25	228.13
383.62	228.29
384.00	228.26
384.38	228.07
384.76	227.98
385.13	227.95
385.51	227.93
385.89	227.88
386.27	227.98
386.64	227.96
387.02	227.93
387.40	227.82
387.78	227.83
388.15	227.78
388.53	227.77
388.91	227.63
389.29	227.64
389.66	227.60
390.04	227.43
390.42	227.39
390.79	227.44
391.17	227.46
391.55	227.21
391.92	227.23
392.30	227.28
392.68	227.25
393.05	227.29
393.43	227.27
393.81	227.24
394.18	227.20
394.56	227.26
394.94	227.29
395.31	227.36
395.69	227.42
396.06	227.52
396.44	227.61
396.82	227.64
397.19	227.78
397.57	227.80
397.95	227.97
398.32	227.97
398.70	228.09
399.07	228.17
399.45	228.29
399.82	228.30
400.20	228.44
400.58	228.60
400.95	228.62
401.33	228.69
401.70	229.03
402.08	229.16
402.45	229.14
402.83	229.35
403.20	229.50
403.58	229.60
403.95	229.78
404.33	229.86
404.71	230.11
405.08	230.35
405.46	230.50
405.83	230.64
406.21	230.84
406.58	230.94
406.96	231.11
407.33	231.22
407.70	231.52
408.08	231.72
408.45	231.87
408.83	232.13
409.20	232.38
409.58	232.42
409.95	232.72
410.33	233.07
410.70	233.32
411.08	233.75
411.45	234.03
411.82	234.32
412.20	234.74
412.57	235.19
412.95	235.42
413.32	235.89
413.69	236.35
414.07	236.91
414.44	237.43
414.82	237.96
415.19	238.63
415.56	239.20
415.94	239.90
416.31	240.54
416.68	241.20
417.06	242.01
417.43	242.83
417.81	243.62
418.18	244.44
418.55	245.25
418.93	246.11
419.30	246.97
419.67	247.88
420.04	248.89
420.42	249.90
420.79	251.29
421.16	252.47
421.54	253.78
421.91	254.98
422.28	256.40
422.66	257.68
423.03	259.02
423.40	260.44
423.77	261.88
424.15	263.37
424.52	265.00
424.89	266.69
425.26	268.31
425.64	269.86
426.01	271.50
426.38	273.29
426.75	275.01
427.13	276.98
427.50	278.91
427.87	280.83
428.24	282.79
428.61	284.37
428.99	286.47
429.36	288.66
429.73	290.86
430.10	292.90
430.47	295.17
430.85	297.38
431.22	299.74
431.59	302.25
431.96	304.59
432.33	307.07
432.70	309.69
433.08	312.75
433.45	315.47
433.82	318.24
434.19	321.31
434.56	324.34
434.93	327.11
435.30	329.93
435.68	332.94
436.05	335.90
436.42	338.91
436.79	341.64
437.16	344.45
437.53	347.36
437.90	350.31
438.27	353.31
438.64	356.25
439.01	359.07
439.38	361.49
439.75	363.91
440.13	366.65
440.50	368.95
440.87	370.81
441.24	372.80
441.61	375.11
441.98	376.66
442.35	378.41
442.72	380.32
443.09	382.26
443.46	383.35
443.83	383.85
444.20	384.50
444.57	385.32
444.94	385.51
445.31	385.96
445.68	386.60
446.05	386.56
446.42	386.08
446.79	385.58
447.16	384.98
447.53	384.67
447.90	383.45
448.27	382.33
448.64	380.64
449.01	379.56
449.37	377.45
449.74	375.29
450.11	373.08
450.48	370.46
450.85	367.71
451.22	365.33
451.59	363.35
451.96	361.16
452.33	358.41
452.70	355.91
453.07	352.82
453.43	349.42
453.80	346.47
454.17	343.74
454.54	340.94
454.91	338.17
455.28	335.22
455.65	332.49
456.02	329.92
456.38	327.64
456.75	324.66
457.12	322.27
457.49	319.89
457.86	317.46
458.23	315.49
458.59	313.33
458.96	311.20
459.33	309.17
459.70	307.18
460.07	305.47
460.43	303.65
460.80	301.89
461.17	300.42
461.54	298.69
461.91	297.00
462.27	295.36
462.64	293.94
463.01	292.47
463.38	291.07
463.74	289.40
464.11	288.09
464.48	287.03
464.85	285.81
465.21	284.98
465.58	283.98
465.95	282.67
466.32	281.66
466.68	280.72
467.05	279.72
467.42	278.77
467.78	277.80
468.15	276.91
468.52	276.10
468.88	275.06
469.25	274.20
469.62	273.57
469.98	272.89
470.35	272.03
470.72	271.35
471.08	270.53
471.45	269.85
471.82	269.20
472.18	268.50
472.55	267.96
472.92	267.28
473.28	266.66
473.65	266.03
474.02	265.38
474.38	264.69
474.75	264.13
475.11	263.55
475.48	263.14
475.85	262.68
476.21	262.31
476.58	261.94
476.94	261.55
477.31	261.18
477.67	260.70
478.04	260.48
478.41	260.19
478.77	260.14
479.14	259.86
479.50	259.71
479.87	259.49
480.23	259.30
480.60	259.13
480.96	258.86
481.33	259.03
481.69	259.01
482.06	259.00
482.42	258.98
482.79	258.91
483.15	258.79
483.52	258.82
483.88	258.81
484.25	258.90
484.61	259.16
484.98	259.28
485.34	259.63
485.71	259.94
486.07	260.13
486.44	260.21
486.80	260.51
487.17	260.74
487.53	261.20
487.90	261.62
488.26	262.05
488.62	262.64
488.99	262.95
489.35	263.45
489.72	263.94
490.08	264.49
490.44	265.14
490.81	265.84
491.17	266.54
491.54	267.41
491.90	268.17
492.26	269.11
492.63	270.00
492.99	270.88
493.36	271.84
493.72	272.94
494.08	274.20
494.45	275.48
494.81	276.89
495.17	278.21
495.54	279.68
495.90	281.27
496.26	282.95
496.63	284.76
496.99	286.59
497.35	288.60
497.72	290.71
498.08	292.94
498.44	295.19
498.80	297.60
499.17	300.06
499.53	302.66
499.89	305.42
500.26	308.29
500.62	311.31
500.98	314.41
501.34	317.64
501.71	321.05
502.07	324.61
502.43	328.09
502.79	331.91
503.16	335.93
503.52	340.05
503.88	344.20
504.24	348.67
504.60	353.32
504.97	358.17
505.33	363.21
505.69	368.31
506.05	373.61
506.41	379.04
506.78	384.80
507.14	390.58
507.50	396.50
507.86	402.84
508.22	409.37
508.59	415.99
508.95	422.90
509.31	429.87
509.67	437.21
510.03	444.60
510.39	452.18
510.75	460.05
511.12	467.91
511.48	476.12
511.84	484.43
512.20	492.98
512.56	501.93
512.92	510.82
513.28	520.05
513.64	529.54
514.00	539.20
514.37	549.02
514.73	559.18
515.09	569.39
515.45	579.80
515.81	590.17
516.17	601.03
516.53	611.82
516.89	622.90
517.25	633.91
517.61	645.70
517.97	657.11
518.33	668.68
518.69	681.00
519.05	693.30
519.41	705.88
519.77	718.58
520.13	731.30
520.49	744.04
520.85	757.06
521.21	770.31
521.57	783.80
521.93	797.09
522.29	810.83
522.65	824.55
523.01	838.13
523.37	851.69
523.73	865.74
524.09	879.90
524.45	894.34
524.81	908.73
525.17	923.30
525.53	938.37
525.89	953.14
526.25	967.74
526.61	982.23
526.97	997.01
527.33	1012.11
527.68	1027.40
528.04	1042.62
528.40	1058.19
528.76	1073.62
529.12	1088.77
529.48	1104.64
529.84	1119.68
530.20	1135.25
530.56	1151.72
530.91	1168.36
531.27	1184.42
531.63	1200.30
531.99	1215.99
532.35	1231.91
532.71	1247.22
533.07	1262.89
533.42	1278.80
533.78	1294.50
534.14	1310.68
534.50	1325.90
534.86	1341.42
535.21	1356.40
535.57	1372.40
535.93	1387.97
536.29	1403.32
536.65	1418.97
537.00	1433.48
537.36	1449.01
537.72	1464.00
538.08	1478.57
538.44	1492.82
538.79	1507.06
539.15	1521.70
539.51	1536.43
539.87	1551.25
540.22	1565.84
540.58	1580.29
540.94	1594.66
541.29	1608.75
541.65	1622.40
542.01	1637.13
542.37	1650.78
542.72	1664.63
543.08	1677.60
543.44	1690.55
543.79	1702.96
544.15	1715.82
544.51	1729.56
544.87	1742.48
545.22	1755.13
545.58	1766.90
545.94	1778.48
546.29	1790.28
546.65	1801.83
547.01	1813.05
547.36	1824.27
547.72	1835.05
548.07	1845.75
548.43	1856.10
548.79	1866.41
549.14	1876.80
549.50	1885.97
549.86	1895.54
550.21	1904.66
550.57	1914.68
550.92	1923.98
551.28	1933.24
551.64	1941.90
551.99	1950.63
552.35	1958.90
552.70	1967.58
553.06	1976.44
553.41	1985.72
553.77	1994.25
554.13	2002.74
554.48	2011.08
554.84	2018.66
555.19	2026.81
555.55	2034.39
555.90	2041.43
556.26	2048.70
556.61	2055.90
556.97	2062.82
557.32	2069.57
557.68	2076.60
558.03	2083.00
558.39	2089.53
558.74	2096.71
559.10	2103.38
559.45	2109.56
559.81	2116.52
560.16	2121.82
560.52	2127.32
560.87	2132.89
561.23	2137.56
561.58	2142.73
561.94	2147.22
562.29	2151.67
562.64	2155.90
563.00	2160.06
563.35	2165.39
563.71	2170.48
564.06	2175.17
564.42	2179.98
564.77	2184.78
565.12	2189.26
565.48	2193.33
565.83	2196.76
566.19	2200.24
566.54	2203.70
566.89	2206.49
567.25	2208.99
567.60	2213.20
567.96	2216.50
568.31	2219.27
568.66	2222.10
569.02	2224.59
569.37	2226.60
569.72	2229.27
570.08	2231.60
570.43	2233.43
570.78	2234.26
571.14	2234.99
571.49	2235.70
571.84	2237.29
572.20	2237.74
572.55	2237.84
572.90	2237.50
573.26	2237.83
573.61	2237.71
573.96	2237.23
574.31	2236.10
574.67	2234.48
575.02	2231.97
575.37	2230.38
575.72	2227.67
576.08	2226.79
576.43	2224.65
576.78	2223.18
577.13	2221.77
577.49	2219.36
577.84	2217.42
578.19	2215.62
578.54	2213.25
578.90	2210.14
579.25	2206.04
579.60	2202.53
579.95	2199.36
580.30	2195.36
580.66	2191.55
581.01	2187.57
581.36	2183.80
581.71	2180.98
582.06	2178.01
582.42	2174.47
582.77	2170.39
583.12	2166.85
583.47	2162.90
583.82	2159.50
584.17	2155.50
584.53	2150.93
584.88	2147.01
585.23	2142.85
585.58	2138.67
585.93	2134.46
586.28	2130.83
586.63	2127.55
586.98	2123.68
587.34	2119.68
587.69	2116.27
588.04	2112.29
588.39	2107.73
588.74	2102.27
589.09	2096.67
589.44	2091.17
589.79	2086.83
590.14	2082.28
590.49	2077.52
590.84	2071.82
591.19	2066.40
591.54	2060.31
591.89	2053.44
592.25	2047.36
592.60	2041.07
592.95	2034.01
593.30	2027.65
593.65	2021.03
594.00	2013.93
594.35	2008.08
594.70	2000.77
595.05	1994.63
595.40	1987.89
595.75	1981.15
596.10	1975.83
596.45	1970.52
596.80	1965.07
597.15	1958.76
597.50	1952.28
597.85	1946.47
598.19	1940.90
598.54	1934.72
598.89	1929.07
599.24	1924.46
599.59	1918.76
599.94	1913.35
600.29	1907.87
600.64	1901.79
600.99	1894.94
601.34	1889.06
601.69	1882.35
602.04	1876.91
602.39	1870.24
602.74	1864.70
603.08	1859.44
603.43	1853.07
603.78	1846.41
604.13	1839.98
604.48	1834.02
604.83	1827.90
605.18	1821.43
605.53	1813.61
605.87	1806.11
606.22	1799.37
606.57	1791.72
606.92	1784.85
607.27	1777.59
607.62	1771.04
607.96	1763.93
608.31	1757.91
608.66	1750.36
609.01	1742.54
609.36	1734.70
609.70	1726.61
610.05	1718.36
610.40	1710.35
610.75	1702.40
611.10	1694.30
611.44	1685.64
611.79	1677.07
612.14	1668.97
612.49	1659.95
612.83	1652.06
613.18	1643.94
613.53	1635.79
613.88	1626.98
614.22	1618.61
614.57	1610.14
614.92	1601.76
615.27	1593.75
615.61	1585.43
615.96	1577.60
616.31	1570.47
616.65	1563.32
617.00	1556.22
617.35	1548.56
617.70	1540.35
618.04	1532.61
618.39	1525.18
618.74	1518.03
619.08	1510.30
619.43	1502.84
619.78	1495.51
620.12	1488.40
620.47	1480.95
620.82	1473.00
621.16	1466.15
621.51	1458.84
621.85	1451.33
622.20	1443.25
622.55	1435.91
622.89	1428.47
623.24	1421.34
623.59	1414.08
623.93	1406.52
624.28	1399.44
624.62	1391.70
624.97	1384.53
625.32	1377.13
625.66	1369.95
626.01	1362.81
626.35	1355.46
626.70	1347.50
627.04	1340.74
627.39	1332.85
627.73	1325.62
628.08	1318.73
628.43	1311.56
628.77	1304.25
629.12	1297.01
629.46	1290.07
629.81	1282.21
630.15	1274.20
630.50	1266.49
630.84	1258.09
631.19	1249.84
631.53	1241.61
631.88	1233.99
632.22	1226.22
632.57	1219.20
632.91	1210.87
633.26	1202.68
633.60	1194.96
633.95	1187.69
634.29	1180.19
634.64	1173.55
634.98	1166.04
635.32	1158.98
635.67	1151.95
636.01	1144.70
636.36	1137.66
636.70	1130.81
637.05	1124.30
637.39	1118.10
637.73	1111.33
638.08	1105.57
638.42	1099.53
638.77	1093.44
639.11	1087.40
639.45	1080.96
639.80	1073.83
640.14	1067.86
640.49	1061.64
640.83	1055.33
641.17	1049.10
641.52	1042.34
641.86	1035.42
642.20	1029.31
642.55	1022.60
642.89	1016.39
643.23	1010.27
643.58	1004.34
643.92	997.71
644.26	991.46
644.61	985.35
644.95	979.30
645.29	972.29
645.64	965.54
645.98	958.95
646.32	952.48
646.66	946.40
647.01	940.28
647.35	934.19
647.69	927.86
648.04	922.05
648.38	915.78
648.72	909.64
649.06	903.64
649.41	897.64
649.75	891.50
650.09	885.17
650.43	878.86
650.78	872.09
651.12	866.03
651.46	859.87
651.80	853.77
652.14	847.75
652.49	842.05
652.83	836.51
653.17	830.37
653.51	824.40
653.85	818.69
654.20	812.78
654.54	806.71
654.88	800.73
655.22	794.27
655.56	788.24
655.90	782.80
656.25	777.24
656.59	771.46
656.93	766.31
657.27	760.74
657.61	755.10
657.95	750.04
658.29	744.86
658.64	739.46
658.98	734.09
659.32	728.55
659.66	723.34
660.00	717.82
660.34	712.85
660.68	707.75
661.02	702.31
661.36	697.34
661.70	692.69
662.05	688.22
662.39	683.97
662.73	679.44
663.07	674.54
663.41	669.95
663.75	665.42
664.09	660.60
664.43	656.11
664.77	651.80
665.11	647.48
665.45	643.23
665.79	639.14
666.13	634.71
666.47	630.29
666.81	625.82
667.15	621.59
667.49	617.56
667.83	613.60
668.17	609.56
668.51	605.55
668.85	601.16
669.19	597.21
669.53	593.23
669.87	589.09
670.21	585.45
670.55	581.70
670.89	578.30
671.23	574.72
671.57	571.21
671.91	567.49
672.25	563.81
672.58	560.18
672.92	556.60
673.26	553.33
673.60	550.39
673.94	547.16
674.28	544.30
674.62	541.07
674.96	537.99
675.30	534.95
675.64	531.81
675.97	529.05
676.31	526.16
676.65	522.97
676.99	520.41
677.33	517.25
677.67	514.30
678.01	511.05
678.34	508.06
678.68	505.10
679.02	502.28
679.36	499.56
679.70	496.63
680.04	493.73
680.37	490.89
680.71	488.02
681.05	485.56
681.39	482.65
681.73	480.15
682.06	477.45
682.40	475.00
682.74	472.56
683.08	470.02
683.42	467.28
683.75	464.72
684.09	461.90
684.43	459.47
684.77	456.94
685.10	454.53
685.44	452.06
685.78	449.55
686.12	447.09
686.45	444.46
686.79	442.15
687.13	439.80
687.46	437.40
687.80	434.91
688.14	432.30
688.48	430.09
688.81	427.70
689.15	425.38
689.49	423.05
689.82	420.77
690.16	418.47
690.50	416.39
690.83	414.20
691.17	411.99
691.51	409.93
691.84	407.91
692.18	405.69
692.52	403.58
692.85	401.65
693.19	399.71
693.52	397.86
693.86	395.91
694.20	393.96
694.53	392.13
694.87	390.32
695.21	388.40
695.54	386.42
695.88	384.36
696.21	382.40
696.55	380.51
696.88	378.80
697.22	376.98
697.56	375.18
697.89	373.45
698.23	371.82
698.56	369.99
698.90	368.21
699.23	366.41
699.57	364.64
699.90	362.90
700.24	361.08
700.58	359.26
700.91	357.56
701.25	355.98
701.58	354.47
701.92	352.89
702.25	351.47
702.59	349.94
702.92	348.52
703.26	347.07
703.59	345.69
703.93	344.28
704.26	342.82
704.60	341.32
704.93	340.01
705.26	338.61
705.60	337.39
705.93	336.19
706.27	335.04
706.60	333.98
706.94	332.78
707.27	331.67
707.61	330.54
707.94	329.35
708.27	328.08
708.61	326.74
708.94	325.69
709.28	324.60
709.61	323.53
709.94	322.50
710.28	321.37
710.61	320.28
710.95	318.93
711.28	317.87
711.61	316.73
711.95	315.57
712.28	314.43
712.61	313.28
712.95	312.10
713.28	311.13
713.61	309.99
713.95	308.93
714.28	307.90
714.61	306.93
714.95	306.06
715.28	305.17
715.61	304.10
715.95	303.04
716.28	302.15
716.61	301.30
716.95	300.37
717.28	299.56
717.61	298.68
717.94	297.87
718.28	297.01
718.61	296.21
718.94	295.59
719.27	294.89
719.61	294.13
719.94	293.39
720.27	292.50
720.60	291.87
720.94	291.21
721.27	290.65
721.60	290.09
721.93	289.37
722.27	288.69
722.60	288.14
722.93	287.51
723.26	286.80
723.59	286.17
723.93	285.61
724.26	284.99
724.59	284.36
724.92	283.88
725.25	283.35
725.59	282.84
725.92	282.20
726.25	281.70
726.58	281.18
726.91	280.64
727.24	280.31
727.57	279.75
727.91	279.10
728.24	278.50
728.57	277.92
728.90	277.42
729.23	276.91
729.56	276.56
729.89	276.10
730.22	275.48
730.55	274.97
730.89	274.44
731.22	273.98
731.55	273.44
731.88	272.93
732.21	272.32
732.54	271.80
732.87	271.40
733.20	270.90
733.53	270.40
733.86	270.00
734.19	269.42
734.52	268.95
734.85	268.58
735.18	268.02
735.51	267.51
735.84	267.00
736.17	266.57
736.50	265.99
736.83	265.81
737.16	265.34
737.49	264.95
737.82	264.48
738.15	264.09
738.48	263.69
738.81	263.27
739.14	262.91
739.47	262.47
739.80	261.97
740.13	261.53
740.46	261.12
740.79	260.61
741.12	260.28
741.45	259.96
741.78	259.57
742.11	259.34
742.44	258.95
742.77	258.60
743.10	258.18
743.43	257.81
743.75	257.12
744.08	257.13
744.41	256.79
744.74	256.50
745.07	256.14
745.40	255.84
745.73	255.48
746.06	255.06
746.39	254.80
746.71	254.48
747.04	254.06
747.37	253.71
747.70	253.40
748.03	252.94
748.36	252.66
748.68	252.31
749.01	251.92
749.34	251.70
749.67	251.52
750.00	251.22
750.33	251.03
750.65	250.91
750.98	250.34
751.31	249.97
751.64	249.75
751.97	249.63
752.29	249.41
752.62	249.17
752.95	249.06
753.28	248.76
753.60	248.46
753.93	248.29
754.26	248.06
754.59	247.90
754.91	247.77
755.24	247.50
755.57	247.35
755.90	247.07
756.22	246.84
756.55	246.58
756.88	246.38
757.20	246.08
757.53	245.71
757.86	245.54
758.19	245.39
758.51	245.17
758.84	244.85
759.17	244.60
759.49	244.45
759.82	244.33
760.15	244.20
760.47	244.13
760.80	243.87
761.13	243.83
761.45	243.69
761.78	243.54
762.11	243.36
762.43	243.10
762.76	243.01
763.08	242.83
763.41	242.68
763.74	242.54
764.06	242.35
764.39	242.20
764.71	242.00
765.04	241.76
765.37	241.68
765.69	241.53
766.02	241.43
766.34	241.19
766.67	240.97
767.00	240.89
767.32	240.84
767.65	240.93
767.97	240.75
768.30	240.56
768.62	240.46
768.95	240.29
769.27	240.26
769.60	240.19
769.92	240.08
770.25	239.93
770.57	239.79
770.90	239.70
771.22	239.63
771.55	239.60
771.87	239.57
772.20	239.36
772.52	239.40
772.85	239.42
773.17	239.46
773.50	239.39
773.82	239.18
774.15	238.99
774.47	238.71
774.80	238.62
775.12	238.44
775.45	238.27
775.77	238.11
776.09	237.92
776.42	237.85
776.74	237.79
777.07	237.65
777.39	237.57
777.72	237.45
778.04	237.38
778.36	237.35
778.69	237.27
779.01	237.19
779.33	236.93
779.66	236.72
779.98	236.53
780.31	236.30
780.63	236.26
780.95	236.08
781.28	236.07
781.60	235.84
781.92	235.84
782.25	235.75
782.57	235.76
782.89	235.67
783.22	235.51
783.54	235.47
783.86	235.45
784.19	235.27
784.51	235.19
784.83	235.06
785.16	234.92
785.48	234.79
785.80	234.75
786.12	234.57
786.45	234.49
786.77	234.40
787.09	234.40
