SpectraSuite Data File
++++++++++++++++++++++++++++++++++++
Date: Fri Feb 01 14:39:26 EST 2013
User: group
Dark Spectrum Present: No
Reference Spectrum Present: No
Number of Sampled Component Spectra: 1
Spectrometers: USB2E7196
Integration Time (usec): 70000 (USB2E7196)
Spectra Averaged: 10 (USB2E7196)
Boxcar Smoothing: 10 (USB2E7196)
Correct for Electrical Dark: No (USB2E7196)
Strobe/Lamp Enabled: No (USB2E7196)
Correct for Detector Non-linearity: No (USB2E7196)
Correct for Stray Light: No (USB2E7196)
Number of Pixels in Processed Spectrum: 2048
>>>>>Begin Processed Spectral Data<<<<<
339.09	0.00
339.48	215.60
339.86	216.50
340.24	218.00
340.63	220.10
341.01	225.20
341.39	223.20
341.78	224.70
342.16	227.00
342.54	223.60
342.93	214.23
343.31	224.98
343.69	225.56
344.07	226.02
344.46	226.43
344.84	226.75
345.22	226.76
345.60	226.91
345.99	227.04
346.37	227.00
346.75	227.13
347.13	227.11
347.52	227.10
347.90	227.16
348.28	227.14
348.66	227.22
349.05	227.23
349.43	227.18
349.81	227.11
350.19	227.15
350.57	227.21
350.96	227.25
351.34	227.40
351.72	227.44
352.10	227.54
352.48	227.61
352.87	227.57
353.25	227.63
353.63	227.67
354.01	227.67
354.39	227.80
354.77	227.84
355.15	227.94
355.54	227.86
355.92	227.81
356.30	227.86
356.68	228.07
357.06	228.15
357.44	228.26
357.82	228.36
358.20	228.40
358.58	228.36
358.97	228.42
359.35	228.49
359.73	228.62
360.11	228.62
360.49	228.68
360.87	228.90
361.25	229.10
361.63	229.22
362.01	229.32
362.39	229.34
362.77	229.50
363.15	229.50
363.53	229.67
363.91	229.69
364.29	229.80
364.67	229.61
365.05	229.56
365.43	229.59
365.81	229.64
366.19	229.68
366.57	229.92
366.95	230.02
367.33	229.93
367.71	229.92
368.09	230.03
368.47	230.02
368.85	229.92
369.23	229.87
369.61	229.80
369.99	229.90
370.37	229.93
370.75	229.90
371.13	229.80
371.51	229.77
371.89	229.73
372.27	229.70
372.65	229.68
373.03	229.56
373.41	229.47
373.78	229.43
374.16	229.22
374.54	229.07
374.92	228.98
375.30	229.04
375.68	228.93
376.06	228.87
376.44	228.76
376.82	228.70
377.19	228.63
377.57	228.53
377.95	228.37
378.33	228.27
378.71	228.18
379.09	228.20
379.47	228.19
379.84	228.22
380.22	228.11
380.60	228.06
380.98	228.07
381.36	227.98
381.73	227.93
382.11	228.01
382.49	228.01
382.87	227.94
383.25	227.85
383.62	228.00
384.00	227.89
384.38	227.91
384.76	227.93
385.13	227.93
385.51	227.94
385.89	227.84
386.27	227.79
386.64	227.76
387.02	227.62
387.40	227.56
387.78	227.49
388.15	227.41
388.53	227.35
388.91	227.38
389.29	227.36
389.66	227.28
390.04	227.11
390.42	227.05
390.79	227.03
391.17	227.00
391.55	226.81
391.92	226.79
392.30	226.73
392.68	226.71
393.05	226.75
393.43	226.75
393.81	226.74
394.18	226.63
394.56	226.60
394.94	226.64
395.31	226.56
395.69	226.60
396.06	226.64
396.44	226.65
396.82	226.60
397.19	226.74
397.57	226.75
397.95	226.86
398.32	226.81
398.70	226.88
399.07	226.90
399.45	226.81
399.82	226.90
400.20	226.96
400.58	226.90
400.95	226.90
401.33	227.00
401.70	227.11
402.08	227.24
402.45	227.32
402.83	227.47
403.20	227.63
403.58	227.73
403.95	227.79
404.33	227.93
404.71	228.02
405.08	228.24
405.46	228.27
405.83	228.38
406.21	228.54
406.58	228.66
406.96	228.88
407.33	229.07
407.70	229.25
408.08	229.54
408.45	229.77
408.83	230.04
409.20	230.17
409.58	230.38
409.95	230.78
410.33	231.03
410.70	231.27
411.08	231.63
411.45	231.89
411.82	232.31
412.20	232.72
412.57	233.13
412.95	233.40
413.32	233.91
413.69	234.41
414.07	234.84
414.44	235.30
414.82	235.80
415.19	236.35
415.56	237.00
415.94	237.57
416.31	238.36
416.68	239.05
417.06	239.80
417.43	240.64
417.81	241.39
418.18	242.31
418.55	243.18
418.93	244.05
419.30	245.03
419.67	245.94
420.04	246.86
420.42	248.02
420.79	249.29
421.16	250.53
421.54	251.85
421.91	253.17
422.28	254.46
422.66	255.77
423.03	257.34
423.40	258.69
423.77	260.16
424.15	261.71
424.52	263.14
424.89	264.93
425.26	266.49
425.64	268.00
426.01	269.55
426.38	271.28
426.75	273.07
427.13	275.02
427.50	277.04
427.87	279.10
428.24	281.15
428.61	283.09
428.99	285.31
429.36	287.54
429.73	289.90
430.10	292.19
430.47	294.43
430.85	296.58
431.22	298.89
431.59	301.60
431.96	304.09
432.33	306.84
432.70	309.50
433.08	312.65
433.45	315.63
433.82	318.53
434.19	321.91
434.56	325.08
434.93	327.93
435.30	330.97
435.68	334.14
436.05	337.19
436.42	340.50
436.79	343.36
437.16	346.45
437.53	349.64
437.90	352.90
438.27	356.26
438.64	359.66
439.01	362.79
439.38	365.28
439.75	367.78
440.13	370.78
440.50	373.55
440.87	375.86
441.24	378.02
441.61	380.70
441.98	382.54
442.35	384.80
442.72	387.10
443.09	389.25
443.46	390.67
443.83	391.65
444.20	392.13
444.57	393.16
444.94	393.72
445.31	394.29
445.68	395.05
446.05	395.26
446.42	394.89
446.79	394.77
447.16	394.62
447.53	394.41
447.90	393.28
448.27	392.19
448.64	390.61
449.01	389.85
449.37	387.85
449.74	385.78
450.11	383.30
450.48	380.61
450.85	377.88
451.22	375.62
451.59	373.47
451.96	371.33
452.33	368.52
452.70	365.92
453.07	362.80
453.43	359.47
453.80	356.38
454.17	353.45
454.54	350.53
454.91	347.35
455.28	344.46
455.65	341.66
456.02	339.16
456.38	336.67
456.75	333.50
457.12	330.98
457.49	328.52
457.86	326.10
458.23	324.04
458.59	321.74
458.96	319.39
459.33	317.27
459.70	315.25
460.07	313.56
460.43	311.65
460.80	309.97
461.17	308.27
461.54	306.54
461.91	304.86
462.27	303.20
462.64	301.87
463.01	300.28
463.38	298.82
463.74	296.99
464.11	295.65
464.48	294.47
464.85	293.09
465.21	292.07
465.58	290.97
465.95	289.73
466.32	288.63
466.68	287.44
467.05	286.35
467.42	285.31
467.78	284.16
468.15	283.08
468.52	282.11
468.88	281.16
469.25	280.20
469.62	279.51
469.98	278.64
470.35	277.81
470.72	276.99
471.08	276.10
471.45	275.42
471.82	274.71
472.18	273.88
472.55	273.27
472.92	272.54
473.28	271.90
473.65	271.23
474.02	270.56
474.38	270.07
474.75	269.50
475.11	268.89
475.48	268.52
475.85	268.06
476.21	267.53
476.58	266.99
476.94	266.70
477.31	266.21
477.67	265.74
478.04	265.42
478.41	265.02
478.77	264.97
479.14	264.58
479.50	264.37
479.87	264.24
480.23	263.98
480.60	263.80
480.96	263.49
481.33	263.41
481.69	263.23
482.06	263.06
482.42	262.94
482.79	262.83
483.15	262.60
483.52	262.51
483.88	262.48
484.25	262.50
484.61	262.44
484.98	262.42
485.34	262.47
485.71	262.40
486.07	262.47
486.44	262.18
486.80	262.20
487.17	262.02
487.53	262.05
487.90	262.13
488.26	262.15
488.62	262.31
488.99	262.25
489.35	262.34
489.72	262.39
490.08	262.49
490.44	262.62
490.81	262.90
491.17	263.02
491.54	263.24
491.90	263.42
492.26	263.43
492.63	263.63
492.99	263.85
493.36	264.07
493.72	264.30
494.08	264.73
494.45	264.98
494.81	265.39
495.17	265.65
495.54	265.92
495.90	266.27
496.26	266.55
496.63	266.93
496.99	267.44
497.35	267.92
497.72	268.30
498.08	268.71
498.44	269.11
498.80	269.68
499.17	270.09
499.53	270.52
499.89	271.30
500.26	271.95
500.62	272.54
500.98	273.25
501.34	273.96
501.71	274.65
502.07	275.60
502.43	276.31
502.79	277.04
503.16	277.90
503.52	278.72
503.88	279.57
504.24	280.57
504.60	281.47
504.97	282.58
505.33	283.71
505.69	284.90
506.05	286.11
506.41	287.31
506.78	288.52
507.14	289.91
507.50	291.21
507.86	292.56
508.22	294.12
508.59	295.58
508.95	297.19
509.31	298.97
509.67	300.50
510.03	302.30
510.39	304.30
510.75	306.34
511.12	308.43
511.48	310.61
511.84	312.88
512.20	315.10
512.56	317.37
512.92	319.90
513.28	322.45
513.64	325.07
514.00	327.67
514.37	330.53
514.73	333.26
515.09	336.21
515.45	339.30
515.81	342.47
516.17	345.75
516.53	349.12
516.89	352.28
517.25	355.81
517.61	359.52
517.97	363.09
518.33	366.81
518.69	370.68
519.05	374.60
519.41	378.50
519.77	382.91
520.13	387.22
520.49	391.47
520.85	395.80
521.21	400.20
521.57	405.03
521.93	409.62
522.29	414.52
522.65	419.39
523.01	424.37
523.37	429.37
523.73	434.61
524.09	439.92
524.45	445.35
524.81	450.67
525.17	456.06
525.53	461.94
525.89	467.68
526.25	473.60
526.61	479.49
526.97	485.48
527.33	491.44
527.68	497.90
528.04	504.07
528.40	510.28
528.76	516.92
529.12	523.16
529.48	529.90
529.84	536.53
530.20	543.35
530.56	550.40
530.91	557.25
531.27	564.26
531.63	571.00
531.99	578.10
532.35	585.53
532.71	592.51
533.07	599.76
533.42	607.28
533.78	614.62
534.14	622.03
534.50	629.39
534.86	637.01
535.21	644.16
535.57	652.12
535.93	660.10
536.29	667.91
536.65	675.93
537.00	683.75
537.36	691.57
537.72	699.09
538.08	706.66
538.44	714.60
538.79	722.36
539.15	730.21
539.51	738.57
539.87	746.61
540.22	755.03
540.58	763.20
540.94	771.00
541.29	778.77
541.65	786.57
542.01	794.91
542.37	802.82
542.72	810.85
543.08	818.55
543.44	826.45
543.79	833.71
544.15	841.39
544.51	849.58
544.87	857.43
545.22	865.44
545.58	873.20
545.94	880.70
546.29	888.24
546.65	895.75
547.01	902.66
547.36	909.70
547.72	916.75
548.07	923.76
548.43	930.75
548.79	937.98
549.14	945.16
549.50	952.26
549.86	958.92
550.21	965.74
550.57	972.90
550.92	979.74
551.28	986.81
551.64	993.54
551.99	1000.04
552.35	1006.55
552.70	1012.94
553.06	1019.78
553.41	1026.38
553.77	1033.24
554.13	1040.11
554.48	1046.92
554.84	1053.60
555.19	1060.02
555.55	1066.31
555.90	1072.67
556.26	1078.84
556.61	1084.84
556.97	1090.40
557.32	1096.37
557.68	1102.37
558.03	1107.93
558.39	1113.48
558.74	1119.39
559.10	1124.74
559.45	1130.14
559.81	1136.14
560.16	1141.69
560.52	1146.62
560.87	1152.19
561.23	1156.88
561.58	1161.91
561.94	1166.81
562.29	1171.40
562.64	1176.24
563.00	1181.11
563.35	1186.17
563.71	1191.26
564.06	1196.55
564.42	1201.35
564.77	1205.98
565.12	1210.76
565.48	1215.40
565.83	1219.60
566.19	1223.75
566.54	1228.15
566.89	1231.99
567.25	1235.57
567.60	1239.52
567.96	1243.40
568.31	1246.84
568.66	1250.42
569.02	1253.74
569.37	1256.94
569.72	1260.32
570.08	1263.24
570.43	1266.12
570.78	1268.38
571.14	1270.47
571.49	1272.56
571.84	1275.20
572.20	1277.60
572.55	1279.56
572.90	1281.14
573.26	1283.38
573.61	1285.13
573.96	1286.60
574.31	1288.01
574.67	1288.80
575.02	1289.84
575.37	1291.07
575.72	1291.51
576.08	1292.75
576.43	1293.50
576.78	1294.51
577.13	1295.32
577.49	1296.34
577.84	1296.80
578.19	1297.55
578.54	1298.14
578.90	1298.27
579.25	1297.98
579.60	1297.62
579.95	1297.46
580.30	1297.47
580.66	1296.73
581.01	1296.46
581.36	1296.24
581.71	1296.36
582.06	1296.38
582.42	1295.65
582.77	1294.93
583.12	1294.47
583.47	1293.68
583.82	1293.20
584.17	1292.16
584.53	1291.51
584.88	1290.69
585.23	1289.75
585.58	1289.00
585.93	1287.78
586.28	1287.07
586.63	1286.42
586.98	1285.67
587.34	1284.68
587.69	1283.40
588.04	1282.67
588.39	1281.10
588.74	1279.38
589.09	1277.63
589.44	1275.66
589.79	1274.30
590.14	1272.77
590.49	1271.17
590.84	1269.14
591.19	1267.19
591.54	1264.56
591.89	1261.65
592.25	1259.17
592.60	1256.39
592.95	1253.53
593.30	1251.13
593.65	1248.49
594.00	1245.68
594.35	1243.63
594.70	1240.69
595.05	1238.04
595.40	1235.00
595.75	1232.06
596.10	1229.82
596.45	1227.12
596.80	1224.89
597.15	1222.27
597.50	1219.42
597.85	1216.94
598.19	1214.85
598.54	1212.43
598.89	1210.14
599.24	1208.13
599.59	1205.54
599.94	1203.37
600.29	1200.87
600.64	1198.31
600.99	1195.32
601.34	1192.56
601.69	1189.27
602.04	1186.75
602.39	1184.10
602.74	1181.66
603.08	1179.36
603.43	1176.79
603.78	1174.15
604.13	1171.22
604.48	1168.25
604.83	1165.27
605.18	1162.35
605.53	1158.82
605.87	1154.80
606.22	1151.69
606.57	1148.20
606.92	1144.94
607.27	1141.63
607.62	1138.86
607.96	1135.43
608.31	1132.71
608.66	1129.49
609.01	1125.85
609.36	1121.77
609.70	1117.49
610.05	1113.34
610.40	1109.48
610.75	1105.11
611.10	1100.67
611.44	1096.49
611.79	1092.68
612.14	1088.96
612.49	1084.55
612.83	1080.04
613.18	1076.19
613.53	1072.28
613.88	1067.63
614.22	1063.57
614.57	1059.11
614.92	1054.38
615.27	1050.48
615.61	1045.80
615.96	1041.28
616.31	1037.32
616.65	1033.89
617.00	1030.36
617.35	1026.40
617.70	1022.45
618.04	1018.08
618.39	1014.14
618.74	1010.27
619.08	1005.72
619.43	1001.37
619.78	997.35
620.12	993.60
620.47	989.44
620.82	985.00
621.16	981.04
621.51	976.94
621.85	972.90
622.20	968.72
622.55	964.40
622.89	960.42
623.24	956.53
623.59	952.26
623.93	947.80
624.28	943.60
624.62	939.45
624.97	935.10
625.32	931.31
625.66	927.45
626.01	923.33
626.35	919.50
626.70	915.47
627.04	911.90
627.39	907.43
627.73	903.16
628.08	899.22
628.43	895.30
628.77	891.08
629.12	886.87
629.46	882.65
629.81	878.22
630.15	873.66
630.50	869.36
630.84	864.91
631.19	860.33
631.53	856.04
631.88	851.30
632.22	846.65
632.57	842.60
632.91	838.03
633.26	833.53
633.60	829.03
633.95	824.63
634.29	820.25
634.64	816.55
634.98	812.45
635.32	808.43
635.67	804.66
636.01	800.45
636.36	796.34
636.70	792.40
637.05	788.63
637.39	785.05
637.73	781.36
638.08	778.03
638.42	774.70
638.77	770.91
639.11	767.49
639.45	764.00
639.80	760.06
640.14	756.22
640.49	752.43
640.83	748.77
641.17	744.92
641.52	741.11
641.86	737.20
642.20	733.54
642.55	729.76
642.89	726.08
643.23	722.53
643.58	719.32
643.92	715.63
644.26	711.99
644.61	708.39
644.95	704.59
645.29	700.43
645.64	696.30
645.98	692.45
646.32	688.80
646.66	684.87
647.01	681.11
647.35	677.75
647.69	674.31
648.04	670.97
648.38	667.50
648.72	663.64
649.06	659.85
649.41	656.33
649.75	652.40
650.09	648.40
650.43	644.62
650.78	640.80
651.12	637.29
651.46	633.67
651.80	629.98
652.14	626.51
652.49	623.10
652.83	620.02
653.17	616.35
653.51	612.95
653.85	609.78
654.20	606.36
654.54	602.61
654.88	598.98
655.22	595.20
655.56	591.64
655.90	588.47
656.25	585.18
656.59	581.98
656.93	578.94
657.27	575.79
657.61	572.27
657.95	569.17
658.29	565.92
658.64	562.55
658.98	559.29
659.32	555.79
659.66	552.80
660.00	549.40
660.34	546.45
660.68	543.33
661.02	540.19
661.36	537.31
661.70	534.38
662.05	531.63
662.39	528.95
662.73	526.15
663.07	523.23
663.41	520.47
663.75	517.60
664.09	514.77
664.43	511.92
664.77	509.34
665.11	506.33
665.45	503.64
665.79	501.08
666.13	498.30
666.47	495.82
666.81	492.82
667.15	489.95
667.49	487.43
667.83	484.88
668.17	482.27
668.51	479.47
668.85	476.99
669.19	474.60
669.53	471.98
669.87	469.49
670.21	466.80
670.55	464.43
670.89	462.21
671.23	459.87
671.57	457.58
671.91	455.45
672.25	453.31
672.58	450.90
672.92	448.60
673.26	446.61
673.60	444.41
673.94	442.50
674.28	440.67
674.62	438.60
674.96	436.53
675.30	434.57
675.64	432.63
675.97	430.63
676.31	428.65
676.65	426.75
676.99	424.98
677.33	423.12
677.67	421.12
678.01	419.02
678.34	417.28
678.68	415.58
679.02	413.55
679.36	411.66
679.70	409.88
680.04	408.14
680.37	406.02
680.71	404.29
681.05	402.60
681.39	400.73
681.73	399.08
682.06	397.41
682.40	395.86
682.74	394.13
683.08	392.59
683.42	390.73
683.75	389.10
684.09	387.33
684.43	385.83
684.77	384.32
685.10	382.88
685.44	381.21
685.78	379.56
686.12	378.16
686.45	376.63
686.79	375.11
687.13	373.63
687.46	372.24
687.80	370.71
688.14	369.14
688.48	367.79
688.81	366.26
689.15	364.83
689.49	363.20
689.82	361.84
690.16	360.36
690.50	359.16
690.83	357.71
691.17	356.33
691.51	354.82
691.84	353.48
692.18	352.06
692.52	350.58
692.85	349.08
693.19	347.71
693.52	346.34
693.86	345.08
694.20	343.78
694.53	342.67
694.87	341.33
695.21	340.03
695.54	338.87
695.88	337.55
696.21	336.26
696.55	335.10
696.88	333.90
697.22	332.75
697.56	331.54
697.89	330.31
698.23	329.29
698.56	328.22
698.90	327.09
699.23	325.93
699.57	324.91
699.90	323.88
700.24	322.80
700.58	321.74
700.91	320.64
701.25	319.75
701.58	318.71
701.92	317.78
702.25	316.91
702.59	315.92
702.92	315.00
703.26	314.12
703.59	313.13
703.93	312.38
704.26	311.36
704.60	310.38
704.93	309.55
705.26	308.55
705.60	307.64
705.93	306.80
706.27	305.97
706.60	305.33
706.94	304.64
707.27	303.59
707.61	302.72
707.94	302.04
708.27	301.11
708.61	300.24
708.94	299.36
709.28	298.46
709.61	297.62
709.94	296.84
710.28	296.03
710.61	295.32
710.95	294.31
711.28	293.63
711.61	292.96
711.95	292.25
712.28	291.54
712.61	290.81
712.95	290.06
713.28	289.37
713.61	288.45
713.95	287.63
714.28	287.05
714.61	286.32
714.95	285.57
715.28	284.75
715.61	283.91
715.95	283.36
716.28	282.84
716.61	282.11
716.95	281.49
717.28	280.85
717.61	280.21
717.94	279.62
718.28	279.03
718.61	278.44
718.94	277.92
719.27	277.27
719.61	276.68
719.94	276.10
720.27	275.52
720.60	275.02
720.94	274.56
721.27	274.14
721.60	273.73
721.93	273.27
722.27	272.89
722.60	272.62
722.93	272.07
723.26	271.54
723.59	271.04
723.93	270.55
724.26	270.14
724.59	269.65
724.92	269.20
725.25	268.84
725.59	268.26
725.92	267.77
726.25	267.34
726.58	267.03
726.91	266.55
727.24	266.05
727.57	265.51
727.91	265.07
728.24	264.65
728.57	264.24
728.90	263.88
729.23	263.49
729.56	263.13
729.89	262.75
730.22	262.33
730.55	261.99
730.89	261.71
731.22	261.29
731.55	260.99
731.88	260.67
732.21	260.15
732.54	259.76
732.87	259.54
733.20	259.30
733.53	258.98
733.86	258.74
734.19	258.47
734.52	258.40
734.85	258.12
735.18	257.80
735.51	257.58
735.84	257.29
736.17	257.02
736.50	256.62
736.83	256.65
737.16	256.39
737.49	256.18
737.82	255.86
738.15	255.63
738.48	255.37
738.81	255.06
739.14	254.89
739.47	254.72
739.80	254.33
740.13	253.99
740.46	253.65
740.79	253.40
741.12	253.21
741.45	252.80
741.78	252.55
742.11	252.40
742.44	252.04
742.77	251.80
743.10	251.49
743.43	251.23
743.75	250.61
744.08	250.68
744.41	250.51
744.74	250.21
745.07	249.92
745.40	249.70
745.73	249.66
746.06	249.36
746.39	249.17
746.71	248.93
747.04	248.70
747.37	248.48
747.70	248.21
748.03	248.02
748.36	247.86
748.68	247.59
749.01	247.30
749.34	247.19
749.67	246.99
750.00	246.74
750.33	246.65
750.65	246.52
750.98	245.95
751.31	245.62
751.64	245.45
751.97	245.38
752.29	245.15
752.62	244.77
752.95	244.57
753.28	244.38
753.60	244.15
753.93	244.06
754.26	243.85
754.59	243.53
754.91	243.27
755.24	243.02
755.57	242.88
755.90	242.63
756.22	242.37
756.55	242.10
756.88	241.98
757.20	241.66
757.53	241.46
757.86	241.27
758.19	241.15
758.51	240.99
758.84	240.72
759.17	240.57
759.49	240.49
759.82	240.40
760.15	240.22
760.47	240.16
760.80	239.89
761.13	239.80
761.45	239.76
761.78	239.64
762.11	239.66
762.43	239.53
762.76	239.47
763.08	239.37
763.41	239.23
763.74	239.16
764.06	239.10
764.39	239.06
764.71	239.07
765.04	238.99
765.37	238.90
765.69	238.81
766.02	238.68
766.34	238.48
766.67	238.39
767.00	238.33
767.32	238.33
767.65	238.36
767.97	238.25
768.30	238.18
768.62	238.02
768.95	237.84
769.27	237.75
769.60	237.70
769.92	237.58
770.25	237.49
770.57	237.37
770.90	237.31
771.22	237.15
771.55	236.97
771.87	236.80
772.20	236.70
772.52	236.77
772.85	236.95
773.17	236.94
773.50	236.71
773.82	236.65
774.15	236.52
774.47	236.43
774.80	236.33
775.12	236.26
775.45	236.19
775.77	236.09
776.09	235.97
776.42	235.83
776.74	235.86
777.07	235.74
777.39	235.61
777.72	235.50
778.04	235.39
778.36	235.40
778.69	235.35
779.01	235.36
779.33	235.00
779.66	234.70
779.98	234.56
780.31	234.58
780.63	234.63
780.95	234.55
781.28	234.43
781.60	234.38
781.92	234.31
782.25	234.28
782.57	234.26
782.89	234.20
783.22	234.15
783.54	233.94
783.86	233.97
784.19	233.86
784.51	233.90
784.83	233.94
785.16	233.80
785.48	233.80
785.80	233.67
786.12	233.74
786.45	233.73
786.77	233.75
787.09	233.72
787.42	233.40
787.74	233.31
788.06	233.26
788.38	233.16
788.71	233.11
789.03	233.09
789.35	233.01
789.67	233.00
789.99	232.97
