SpectraSuite Data File
++++++++++++++++++++++++++++++++++++
Date: Fri Feb 01 14:39:23 EST 2013
User: group
Dark Spectrum Present: No
Reference Spectrum Present: No
Number of Sampled Component Spectra: 1
Spectrometers: USB2E7196
Integration Time (usec): 70000 (USB2E7196)
Spectra Averaged: 10 (USB2E7196)
Boxcar Smoothing: 10 (USB2E7196)
Correct for Electrical Dark: No (USB2E7196)
Strobe/Lamp Enabled: No (USB2E7196)
Correct for Detector Non-linearity: No (USB2E7196)
Correct for Stray Light: No (USB2E7196)
Number of Pixels in Processed Spectrum: 2048
>>>>>Begin Processed Spectral Data<<<<<
339.09	0.00
339.48	218.10
339.86	218.10
340.24	220.00
340.63	222.40
341.01	225.20
341.39	225.20
341.78	223.70
342.16	227.70
342.54	226.50
342.93	215.53
343.31	226.31
343.69	226.90
344.07	227.38
344.46	227.78
344.84	228.07
345.22	228.14
345.60	228.34
345.99	228.45
346.37	228.50
346.75	228.55
347.13	228.54
347.52	228.53
347.90	228.57
348.28	228.47
348.66	228.43
349.05	228.50
349.43	228.50
349.81	228.43
350.19	228.45
350.57	228.55
350.96	228.52
351.34	228.71
351.72	228.74
352.10	228.90
352.48	229.00
352.87	228.93
353.25	229.05
353.63	229.10
354.01	229.24
354.39	229.29
354.77	229.38
355.15	229.52
355.54	229.60
355.92	229.64
356.30	229.75
356.68	229.92
357.06	229.91
357.44	229.93
357.82	230.00
358.20	230.10
358.58	230.14
358.97	230.21
359.35	230.29
359.73	230.21
360.11	230.12
360.49	230.05
360.87	230.28
361.25	230.38
361.63	230.49
362.01	230.56
362.39	230.60
362.77	230.63
363.15	230.67
363.53	230.59
363.91	230.60
364.29	230.54
364.67	230.40
365.05	230.40
365.43	230.31
365.81	230.29
366.19	230.25
366.57	230.21
366.95	230.14
367.33	229.99
367.71	229.98
368.09	230.01
368.47	230.01
368.85	229.85
369.23	229.81
369.61	229.69
369.99	229.67
370.37	229.66
370.75	229.71
371.13	229.58
371.51	229.55
371.89	229.56
372.27	229.60
372.65	229.54
373.03	229.40
373.41	229.38
373.78	229.30
374.16	229.18
374.54	229.11
374.92	229.05
375.30	228.99
375.68	228.83
376.06	228.68
376.44	228.62
376.82	228.64
377.19	228.59
377.57	228.43
377.95	228.30
378.33	228.17
378.71	228.00
379.09	227.97
379.47	227.93
379.84	227.80
380.22	227.67
380.60	227.61
380.98	227.60
381.36	227.70
381.73	227.58
382.11	227.49
382.49	227.37
382.87	227.25
383.25	227.23
383.62	227.47
384.00	227.40
384.38	227.40
384.76	227.36
385.13	227.37
385.51	227.34
385.89	227.34
386.27	227.34
386.64	227.27
387.02	227.21
387.40	227.18
387.78	227.18
388.15	227.14
388.53	227.08
388.91	227.04
389.29	226.83
389.66	226.78
390.04	226.77
390.42	226.85
390.79	226.90
391.17	226.84
391.55	226.67
391.92	226.66
392.30	226.61
392.68	226.50
393.05	226.39
393.43	226.43
393.81	226.40
394.18	226.43
394.56	226.49
394.94	226.55
395.31	226.55
395.69	226.61
396.06	226.57
396.44	226.66
396.82	226.80
397.19	227.00
397.57	227.08
397.95	227.30
398.32	227.15
398.70	227.25
399.07	227.46
399.45	227.48
399.82	227.61
400.20	227.68
400.58	227.78
400.95	227.76
401.33	227.85
401.70	228.02
402.08	228.12
402.45	228.21
402.83	228.36
403.20	228.49
403.58	228.64
403.95	228.84
404.33	229.05
404.71	229.16
405.08	229.40
405.46	229.60
405.83	229.71
406.21	229.95
406.58	230.17
406.96	230.28
407.33	230.37
407.70	230.60
408.08	230.97
408.45	231.19
408.83	231.62
409.20	231.80
409.58	231.97
409.95	232.21
410.33	232.53
410.70	232.65
411.08	232.93
411.45	233.28
411.82	233.61
412.20	233.90
412.57	234.26
412.95	234.49
413.32	234.95
413.69	235.23
414.07	235.82
414.44	236.30
414.82	236.86
415.19	237.56
415.56	238.12
415.94	238.70
416.31	239.38
416.68	239.97
417.06	240.72
417.43	241.53
417.81	242.29
418.18	243.00
418.55	243.92
418.93	244.80
419.30	245.65
419.67	246.59
420.04	247.64
420.42	248.70
420.79	249.98
421.16	251.13
421.54	252.48
421.91	253.64
422.28	254.84
422.66	256.10
423.03	257.61
423.40	258.94
423.77	260.31
424.15	261.86
424.52	263.40
424.89	265.24
425.26	266.79
425.64	268.30
426.01	269.98
426.38	271.70
426.75	273.74
427.13	275.50
427.50	277.43
427.87	279.41
428.24	281.39
428.61	283.25
428.99	285.47
429.36	287.70
429.73	289.98
430.10	292.29
430.47	294.65
430.85	296.77
431.22	299.39
431.59	302.11
431.96	304.57
432.33	307.20
432.70	309.82
433.08	313.13
433.45	316.07
433.82	318.95
434.19	322.30
434.56	325.30
434.93	328.27
435.30	331.18
435.68	334.47
436.05	337.86
436.42	341.11
436.79	344.04
437.16	347.05
437.53	350.32
437.90	353.45
438.27	356.70
438.64	359.98
439.01	363.01
439.38	365.78
439.75	368.43
440.13	371.51
440.50	374.31
440.87	376.47
441.24	378.83
441.61	381.61
441.98	383.52
442.35	385.83
442.72	388.35
443.09	390.81
443.46	392.19
443.83	393.00
444.20	393.65
444.57	394.65
444.94	395.30
445.31	396.06
445.68	396.89
446.05	397.02
446.42	396.92
446.79	396.79
447.16	396.28
447.53	396.18
447.90	395.09
448.27	393.89
448.64	392.18
449.01	391.22
449.37	389.10
449.74	387.10
450.11	384.74
450.48	382.02
450.85	379.24
451.22	376.81
451.59	374.57
451.96	372.56
452.33	369.81
452.70	367.29
453.07	364.12
453.43	360.89
453.80	358.10
454.17	355.10
454.54	352.14
454.91	349.18
455.28	346.15
455.65	343.35
456.02	340.80
456.38	338.59
456.75	335.47
457.12	333.01
457.49	330.42
457.86	327.94
458.23	325.92
458.59	323.65
458.96	321.39
459.33	319.36
459.70	317.38
460.07	315.65
460.43	313.69
460.80	311.86
461.17	310.27
461.54	308.51
461.91	306.78
462.27	305.07
462.64	303.50
463.01	301.93
463.38	300.46
463.74	298.68
464.11	297.04
464.48	295.97
464.85	294.63
465.21	293.68
465.58	292.60
465.95	291.24
466.32	290.03
466.68	288.87
467.05	287.76
467.42	286.57
467.78	285.51
468.15	284.57
468.52	283.79
468.88	282.50
469.25	281.44
469.62	280.73
469.98	279.88
470.35	279.07
470.72	278.28
471.08	277.34
471.45	276.74
471.82	276.07
472.18	275.26
472.55	274.52
472.92	273.67
473.28	272.95
473.65	272.25
474.02	271.73
474.38	271.18
474.75	270.52
475.11	269.90
475.48	269.32
475.85	268.68
476.21	268.07
476.58	267.78
476.94	267.30
477.31	266.96
477.67	266.51
478.04	266.17
478.41	265.75
478.77	265.66
479.14	265.20
479.50	265.00
479.87	264.72
480.23	264.64
480.60	264.35
480.96	264.01
481.33	263.86
481.69	263.51
482.06	263.25
482.42	263.10
482.79	262.97
483.15	262.74
483.52	262.67
483.88	262.52
484.25	262.43
484.61	262.37
484.98	262.14
485.34	262.09
485.71	262.11
486.07	262.14
486.44	261.96
486.80	261.98
487.17	261.95
487.53	262.15
487.90	262.10
488.26	262.32
488.62	262.51
488.99	262.61
489.35	262.86
489.72	263.10
490.08	263.28
490.44	263.37
490.81	263.69
491.17	263.79
491.54	264.02
491.90	264.24
492.26	264.53
492.63	264.85
492.99	265.05
493.36	265.27
493.72	265.46
494.08	265.72
494.45	266.10
494.81	266.49
495.17	266.65
495.54	267.04
495.90	267.30
496.26	267.63
496.63	268.08
496.99	268.49
497.35	268.92
497.72	269.42
498.08	269.89
498.44	270.15
498.80	270.83
499.17	271.34
499.53	271.76
499.89	272.31
500.26	272.87
500.62	273.59
500.98	274.28
501.34	274.97
501.71	275.80
502.07	276.56
502.43	277.32
502.79	278.09
503.16	278.86
503.52	279.70
503.88	280.50
504.24	281.40
504.60	282.22
504.97	283.20
505.33	284.14
505.69	285.20
506.05	286.41
506.41	287.42
506.78	288.64
507.14	289.88
507.50	291.12
507.86	292.50
508.22	293.87
508.59	295.22
508.95	296.72
509.31	298.18
509.67	299.70
510.03	301.32
510.39	303.13
510.75	304.95
511.12	306.92
511.48	308.88
511.84	310.97
512.20	313.12
512.56	315.14
512.92	317.32
513.28	319.84
513.64	322.20
514.00	324.70
514.37	327.30
514.73	329.94
515.09	332.72
515.45	335.50
515.81	338.42
516.17	341.53
516.53	344.63
516.89	347.72
517.25	350.95
517.61	354.24
517.97	357.61
518.33	361.14
518.69	364.67
519.05	368.35
519.41	372.00
519.77	376.06
520.13	380.27
520.49	384.45
520.85	388.52
521.21	392.99
521.57	397.47
521.93	401.64
522.29	406.29
522.65	411.02
523.01	415.69
523.37	420.41
523.73	425.11
524.09	430.22
524.45	435.28
524.81	440.58
525.17	446.07
525.53	451.39
525.89	456.86
526.25	462.56
526.61	468.29
526.97	473.99
527.33	479.91
527.68	485.81
528.04	491.90
528.40	498.01
528.76	504.34
529.12	510.69
529.48	517.46
529.84	524.04
530.20	530.45
530.56	537.42
530.91	544.40
531.27	551.58
531.63	558.57
531.99	565.60
532.35	572.55
532.71	579.31
533.07	586.61
533.42	593.86
533.78	601.20
534.14	608.72
534.50	616.00
534.86	623.11
535.21	630.56
535.57	638.18
535.93	645.93
536.29	653.34
536.65	661.10
537.00	668.57
537.36	676.24
537.72	684.10
538.08	691.69
538.44	699.27
538.79	707.03
539.15	714.28
539.51	722.38
539.87	730.26
540.22	738.24
540.58	746.04
540.94	754.01
541.29	761.53
541.65	768.98
542.01	776.95
542.37	784.99
542.72	792.80
543.08	800.67
543.44	808.47
543.79	816.02
544.15	823.77
544.51	831.77
544.87	839.29
545.22	846.86
545.58	854.45
545.94	861.87
546.29	869.30
546.65	877.31
547.01	884.52
547.36	891.92
547.72	898.91
548.07	906.33
548.43	913.17
548.79	920.53
549.14	927.65
549.50	934.68
549.86	941.49
550.21	948.48
550.57	955.25
550.92	961.87
551.28	968.44
551.64	974.53
551.99	981.15
552.35	987.80
552.70	994.23
553.06	1000.83
553.41	1007.50
553.77	1013.77
554.13	1020.09
554.48	1026.45
554.84	1032.42
555.19	1039.00
555.55	1045.04
555.90	1051.00
556.26	1057.08
556.61	1063.11
556.97	1068.63
557.32	1074.34
557.68	1079.98
558.03	1085.50
558.39	1091.11
558.74	1097.53
559.10	1103.71
559.45	1109.00
559.81	1114.74
560.16	1119.96
560.52	1125.02
560.87	1130.66
561.23	1135.41
561.58	1140.54
561.94	1145.24
562.29	1150.01
562.64	1154.50
563.00	1158.87
563.35	1164.00
563.71	1168.75
564.06	1173.37
564.42	1178.35
564.77	1182.95
565.12	1187.48
565.48	1192.04
565.83	1196.22
566.19	1199.95
566.54	1203.51
566.89	1207.54
567.25	1211.45
567.60	1215.55
567.96	1219.32
568.31	1222.39
568.66	1226.31
569.02	1229.80
569.37	1233.08
569.72	1236.31
570.08	1239.47
570.43	1242.61
570.78	1245.45
571.14	1247.80
571.49	1250.78
571.84	1253.81
572.20	1256.20
572.55	1258.44
572.90	1260.56
573.26	1262.74
573.61	1264.61
573.96	1266.51
574.31	1267.71
574.67	1268.64
575.02	1269.68
575.37	1270.88
575.72	1271.68
576.08	1272.72
576.43	1273.42
576.78	1274.34
577.13	1275.69
577.49	1276.61
577.84	1277.16
578.19	1277.60
578.54	1278.13
578.90	1277.84
579.25	1277.39
579.60	1277.26
579.95	1277.29
580.30	1276.79
580.66	1276.20
581.01	1275.74
581.36	1275.43
581.71	1275.69
582.06	1275.30
582.42	1274.73
582.77	1273.88
583.12	1273.28
583.47	1272.60
583.82	1272.12
584.17	1271.32
584.53	1270.19
584.88	1269.22
585.23	1268.74
585.58	1267.80
585.93	1266.87
586.28	1266.16
586.63	1265.46
586.98	1264.80
587.34	1263.83
587.69	1262.93
588.04	1262.09
588.39	1261.08
588.74	1259.32
589.09	1257.52
589.44	1255.93
589.79	1254.46
590.14	1253.65
590.49	1252.55
590.84	1251.06
591.19	1249.23
591.54	1247.11
591.89	1244.71
592.25	1242.59
592.60	1240.03
592.95	1237.57
593.30	1235.36
593.65	1233.21
594.00	1230.38
594.35	1228.10
594.70	1224.98
595.05	1222.59
595.40	1220.05
595.75	1217.18
596.10	1215.10
596.45	1212.94
596.80	1210.90
597.15	1208.98
597.50	1205.86
597.85	1203.19
598.19	1200.91
598.54	1198.21
598.89	1196.19
599.24	1194.44
599.59	1192.32
599.94	1190.29
600.29	1187.98
600.64	1185.41
600.99	1182.37
601.34	1179.99
601.69	1177.11
602.04	1174.59
602.39	1171.71
602.74	1169.08
603.08	1166.78
603.43	1164.39
603.78	1161.38
604.13	1158.44
604.48	1155.19
604.83	1152.47
605.18	1149.27
605.53	1145.66
605.87	1142.02
606.22	1138.85
606.57	1135.27
606.92	1132.01
607.27	1128.40
607.62	1125.14
607.96	1121.94
608.31	1118.89
608.66	1115.20
609.01	1111.40
609.36	1107.53
609.70	1103.46
610.05	1099.46
610.40	1095.73
610.75	1091.75
611.10	1088.00
611.44	1083.74
611.79	1079.69
612.14	1075.63
612.49	1071.37
612.83	1067.20
613.18	1063.56
613.53	1059.54
613.88	1055.05
614.22	1050.73
614.57	1046.41
614.92	1042.05
615.27	1037.79
615.61	1033.55
615.96	1029.57
616.31	1025.71
616.65	1022.45
617.00	1018.84
617.35	1014.67
617.70	1010.27
618.04	1005.63
618.39	1001.17
618.74	997.30
619.08	993.15
619.43	989.07
619.78	985.39
620.12	981.63
620.47	977.28
620.82	972.68
621.16	968.82
621.51	964.85
621.85	960.92
622.20	956.73
622.55	952.71
622.89	948.56
623.24	944.63
623.59	940.74
623.93	936.53
624.28	932.58
624.62	929.05
624.97	925.26
625.32	921.56
625.66	917.96
626.01	913.91
626.35	909.84
626.70	905.85
627.04	901.75
627.39	897.57
627.73	893.62
628.08	889.94
628.43	886.10
628.77	881.97
629.12	877.77
629.46	873.70
629.81	869.31
630.15	865.12
630.50	860.65
630.84	856.13
631.19	851.65
631.53	847.47
631.88	842.87
632.22	838.46
632.57	834.45
632.91	829.85
633.26	825.58
633.60	821.71
633.95	817.60
634.29	813.67
634.64	809.78
634.98	805.88
635.32	801.91
635.67	797.85
636.01	794.16
636.36	790.47
636.70	787.02
637.05	783.34
637.39	779.82
637.73	776.23
638.08	772.93
638.42	769.60
638.77	765.96
639.11	762.23
639.45	758.48
639.80	754.69
640.14	751.32
640.49	747.83
640.83	743.86
641.17	740.09
641.52	736.32
641.86	732.54
642.20	729.14
642.55	725.48
642.89	722.00
643.23	718.30
643.58	714.67
643.92	710.73
644.26	707.15
644.61	703.66
644.95	700.03
645.29	695.80
645.64	691.79
645.98	688.05
646.32	684.57
646.66	680.91
647.01	676.99
647.35	673.42
647.69	669.76
648.04	666.31
648.38	662.57
648.72	658.90
649.06	655.07
649.41	651.39
649.75	647.53
650.09	643.83
650.43	640.03
650.78	636.11
651.12	632.45
651.46	628.89
651.80	625.21
652.14	621.92
652.49	618.69
652.83	615.42
653.17	611.77
653.51	608.11
653.85	604.60
654.20	601.32
654.54	597.30
654.88	593.81
655.22	590.16
655.56	586.76
655.90	583.32
656.25	580.20
656.59	576.76
656.93	573.79
657.27	570.48
657.61	566.97
657.95	563.91
658.29	560.80
658.64	557.70
658.98	554.31
659.32	550.82
659.66	547.67
660.00	544.53
660.34	541.29
660.68	538.29
661.02	535.48
661.36	532.73
661.70	530.22
662.05	527.19
662.39	524.67
662.73	521.97
663.07	519.32
663.41	516.50
663.75	513.75
664.09	510.83
664.43	508.25
664.77	505.76
665.11	503.17
665.45	500.57
665.79	497.80
666.13	495.16
666.47	492.70
666.81	489.88
667.15	487.02
667.49	484.95
667.83	482.55
668.17	479.91
668.51	477.21
668.85	474.65
669.19	472.37
669.53	469.78
669.87	467.22
670.21	464.78
670.55	462.39
670.89	460.20
671.23	458.04
671.57	455.76
671.91	453.48
672.25	451.24
672.58	449.09
672.92	446.95
673.26	445.04
673.60	442.93
673.94	441.01
674.28	439.32
674.62	437.24
674.96	435.25
675.30	433.39
675.64	431.40
675.97	429.40
676.31	427.45
676.65	425.66
676.99	423.89
677.33	421.98
677.67	420.04
678.01	418.04
678.34	416.15
678.68	414.35
679.02	412.46
679.36	410.62
679.70	408.80
680.04	406.99
680.37	405.18
680.71	403.30
681.05	401.74
681.39	399.90
681.73	398.19
682.06	396.43
682.40	394.74
682.74	393.20
683.08	391.69
683.42	390.11
683.75	388.44
684.09	386.97
684.43	385.45
684.77	383.88
685.10	382.20
685.44	380.58
685.78	379.10
686.12	377.65
686.45	376.15
686.79	374.56
687.13	373.08
687.46	371.57
687.80	370.27
688.14	368.66
688.48	367.30
688.81	365.70
689.15	364.32
689.49	362.82
689.82	361.41
690.16	359.91
690.50	358.54
690.83	357.26
691.17	355.73
691.51	354.37
691.84	353.11
692.18	351.84
692.52	350.41
692.85	348.92
693.19	347.58
693.52	346.23
693.86	344.97
694.20	343.65
694.53	342.28
694.87	340.94
695.21	339.64
695.54	338.22
695.88	336.88
696.21	335.54
696.55	334.29
696.88	333.05
697.22	331.97
697.56	330.72
697.89	329.35
698.23	328.17
698.56	326.99
698.90	325.89
699.23	324.63
699.57	323.62
699.90	322.52
700.24	321.41
700.58	320.29
700.91	319.27
701.25	318.23
701.58	317.27
701.92	316.22
702.25	315.21
702.59	314.21
702.92	313.25
703.26	312.30
703.59	311.24
703.93	310.34
704.26	309.34
704.60	308.48
704.93	307.67
705.26	306.67
705.60	305.66
705.93	304.68
706.27	303.96
706.60	303.09
706.94	302.24
707.27	301.40
707.61	300.52
707.94	299.68
708.27	298.77
708.61	297.87
708.94	297.14
709.28	296.42
709.61	295.58
709.94	294.80
710.28	294.15
710.61	293.53
710.95	292.67
711.28	292.08
711.61	291.26
711.95	290.66
712.28	290.07
712.61	289.43
712.95	288.71
713.28	288.08
713.61	287.42
713.95	286.64
714.28	286.00
714.61	285.39
714.95	284.78
715.28	284.16
715.61	283.51
715.95	282.79
716.28	282.17
716.61	281.70
716.95	281.12
717.28	280.38
717.61	279.80
717.94	279.28
718.28	278.55
718.61	277.98
718.94	277.45
719.27	276.79
719.61	276.24
719.94	275.73
720.27	275.15
720.60	274.56
720.94	274.20
721.27	273.74
721.60	273.31
721.93	272.75
722.27	272.32
722.60	271.91
722.93	271.42
723.26	270.95
723.59	270.46
723.93	270.13
724.26	269.90
724.59	269.50
724.92	269.00
725.25	268.55
725.59	268.20
725.92	267.64
726.25	267.43
726.58	267.11
726.91	266.75
727.24	266.45
727.57	266.11
727.91	265.60
728.24	265.19
728.57	264.80
728.90	264.50
729.23	264.06
729.56	263.73
729.89	263.35
730.22	262.93
730.55	262.55
730.89	262.17
731.22	261.70
731.55	261.39
731.88	261.09
732.21	260.85
732.54	260.38
732.87	260.14
733.20	259.72
733.53	259.46
733.86	259.11
734.19	258.69
734.52	258.23
734.85	258.06
735.18	257.73
735.51	257.51
735.84	257.26
736.17	256.96
736.50	256.60
736.83	256.56
737.16	256.30
737.49	255.98
737.82	255.61
738.15	255.38
738.48	255.06
738.81	254.88
739.14	254.58
739.47	254.49
739.80	254.10
740.13	253.85
740.46	253.35
740.79	253.12
741.12	252.80
741.45	252.59
741.78	252.23
742.11	251.88
742.44	251.47
742.77	251.17
743.10	250.89
743.43	250.67
743.75	250.23
744.08	250.19
744.41	249.89
744.74	249.70
745.07	249.37
745.40	249.06
745.73	248.73
746.06	248.42
746.39	248.01
746.71	247.67
747.04	247.36
747.37	247.15
747.70	246.97
748.03	246.82
748.36	246.64
748.68	246.35
749.01	246.23
749.34	246.08
749.67	245.80
750.00	245.69
750.33	245.43
750.65	245.23
750.98	244.81
751.31	244.61
751.64	244.34
751.97	244.24
752.29	244.04
752.62	243.77
752.95	243.52
753.28	243.31
753.60	243.17
753.93	243.05
754.26	242.86
754.59	242.45
754.91	242.23
755.24	242.05
755.57	241.94
755.90	241.73
756.22	241.53
756.55	241.40
756.88	241.14
757.20	240.95
757.53	240.70
757.86	240.55
758.19	240.41
758.51	240.32
758.84	240.09
759.17	240.03
759.49	239.98
759.82	239.96
760.15	239.81
760.47	239.70
760.80	239.50
761.13	239.56
761.45	239.59
761.78	239.46
762.11	239.34
762.43	239.21
762.76	239.18
763.08	239.14
763.41	239.05
763.74	238.95
764.06	238.82
764.39	238.70
764.71	238.66
765.04	238.48
765.37	238.35
765.69	238.25
766.02	238.08
766.34	237.93
766.67	237.73
767.00	237.82
767.32	237.88
767.65	238.00
767.97	237.82
768.30	237.66
768.62	237.56
768.95	237.42
769.27	237.36
769.60	237.20
769.92	237.04
770.25	236.86
770.57	236.75
770.90	236.68
771.22	236.68
771.55	236.51
771.87	236.56
772.20	236.45
772.52	236.57
772.85	236.64
773.17	236.56
773.50	236.50
773.82	236.39
774.15	236.20
774.47	235.96
774.80	235.87
775.12	235.85
775.45	235.72
775.77	235.60
776.09	235.46
776.42	235.48
776.74	235.44
777.07	235.45
777.39	235.34
777.72	235.28
778.04	235.17
778.36	235.17
778.69	235.06
779.01	235.00
779.33	234.76
779.66	234.58
779.98	234.50
780.31	234.54
780.63	234.48
780.95	234.46
781.28	234.36
781.60	234.19
781.92	234.10
782.25	234.10
782.57	234.17
782.89	234.12
783.22	233.95
783.54	233.90
783.86	233.80
784.19	233.80
784.51	233.80
784.83	233.71
785.16	233.60
785.48	233.51
785.80	233.40
786.12	233.29
786.45	233.16
786.77	233.13
787.09	233.03
787.42	232.93
787.74	232.84
788.06	232.75
788.38	232.74
788.71	232.67
789.03	232.53
789.35	232.46
789.67	232.40
789.99	232.43
790.32	232.25
