SpectraSuite Data File
++++++++++++++++++++++++++++++++++++
Date: Fri Feb 01 14:39:19 EST 2013
User: group
Dark Spectrum Present: No
Reference Spectrum Present: No
Number of Sampled Component Spectra: 1
Spectrometers: USB2E7196
Integration Time (usec): 70000 (USB2E7196)
Spectra Averaged: 10 (USB2E7196)
Boxcar Smoothing: 10 (USB2E7196)
Correct for Electrical Dark: No (USB2E7196)
Strobe/Lamp Enabled: No (USB2E7196)
Correct for Detector Non-linearity: No (USB2E7196)
Correct for Stray Light: No (USB2E7196)
Number of Pixels in Processed Spectrum: 2048
>>>>>Begin Processed Spectral Data<<<<<
339.09	0.00
339.48	216.20
339.86	216.90
340.24	218.40
340.63	221.00
341.01	223.40
341.39	224.00
341.78	224.10
342.16	225.40
342.54	227.50
342.93	214.80
343.31	225.62
343.69	226.07
344.07	226.58
344.46	227.08
344.84	227.43
345.22	227.63
345.60	227.80
345.99	228.00
346.37	228.17
346.75	228.24
347.13	228.17
347.52	228.18
347.90	228.20
348.28	228.25
348.66	228.34
349.05	228.27
349.43	228.43
349.81	228.50
350.19	228.52
350.57	228.50
350.96	228.61
351.34	228.71
351.72	228.81
352.10	228.81
352.48	228.75
352.87	228.81
353.25	228.98
353.63	228.98
354.01	229.09
354.39	229.11
354.77	229.18
355.15	229.36
355.54	229.45
355.92	229.60
356.30	229.59
356.68	229.77
357.06	229.81
357.44	229.69
357.82	229.67
358.20	229.84
358.58	229.93
358.97	229.93
359.35	230.04
359.73	230.12
360.11	230.26
360.49	230.37
360.87	230.30
361.25	230.30
361.63	230.37
362.01	230.44
362.39	230.46
362.77	230.47
363.15	230.50
363.53	230.48
363.91	230.35
364.29	230.41
364.67	230.25
365.05	230.30
365.43	230.42
365.81	230.53
366.19	230.50
366.57	230.42
366.95	230.49
367.33	230.35
367.71	230.38
368.09	230.39
368.47	230.28
368.85	230.36
369.23	230.20
369.61	230.24
369.99	230.14
370.37	230.06
370.75	230.04
371.13	229.82
371.51	229.74
371.89	229.80
372.27	229.70
372.65	229.62
373.03	229.58
373.41	229.35
373.78	229.28
374.16	229.09
374.54	229.07
374.92	228.90
375.30	228.95
375.68	228.84
376.06	228.74
376.44	228.70
376.82	228.64
377.19	228.70
377.57	228.61
377.95	228.42
378.33	228.35
378.71	228.17
379.09	228.21
379.47	228.15
379.84	228.01
380.22	227.94
380.60	227.80
380.98	227.63
381.36	227.60
381.73	227.38
382.11	227.42
382.49	227.30
382.87	227.22
383.25	227.07
383.62	227.27
384.00	227.10
384.38	227.07
384.76	227.07
385.13	226.97
385.51	226.93
385.89	226.98
386.27	226.96
386.64	226.96
387.02	226.86
387.40	226.77
387.78	226.80
388.15	226.83
388.53	226.79
388.91	226.73
389.29	226.67
389.66	226.71
390.04	226.67
390.42	226.75
390.79	226.71
391.17	226.69
391.55	226.46
391.92	226.50
392.30	226.52
392.68	226.43
393.05	226.46
393.43	226.50
393.81	226.46
394.18	226.48
394.56	226.59
394.94	226.70
395.31	226.75
395.69	226.80
396.06	226.85
396.44	226.91
396.82	227.10
397.19	227.35
397.57	227.42
397.95	227.44
398.32	227.38
398.70	227.54
399.07	227.70
399.45	227.72
399.82	227.84
400.20	227.91
400.58	228.05
400.95	228.13
401.33	228.12
401.70	228.35
402.08	228.45
402.45	228.49
402.83	228.61
403.20	228.70
403.58	228.90
403.95	229.14
404.33	229.43
404.71	229.47
405.08	229.69
405.46	229.78
405.83	230.06
406.21	230.22
406.58	230.37
406.96	230.51
407.33	230.73
407.70	230.86
408.08	231.27
408.45	231.46
408.83	231.74
409.20	232.10
409.58	232.25
409.95	232.52
410.33	232.78
410.70	232.92
411.08	233.30
411.45	233.49
411.82	233.73
412.20	233.94
412.57	234.39
412.95	234.56
413.32	235.02
413.69	235.33
414.07	235.78
414.44	236.31
414.82	236.74
415.19	237.22
415.56	237.86
415.94	238.37
416.31	238.94
416.68	239.56
417.06	240.21
417.43	240.89
417.81	241.66
418.18	242.46
418.55	243.28
418.93	244.10
419.30	244.98
419.67	245.81
420.04	246.80
420.42	247.84
420.79	249.16
421.16	250.36
421.54	251.66
421.91	252.91
422.28	254.12
422.66	255.50
423.03	257.01
423.40	258.41
423.77	259.77
424.15	261.40
424.52	262.88
424.89	264.64
425.26	266.38
425.64	267.96
426.01	269.70
426.38	271.52
426.75	273.48
427.13	275.46
427.50	277.46
427.87	279.54
428.24	281.57
428.61	283.42
428.99	285.66
429.36	287.90
429.73	290.40
430.10	292.67
430.47	295.07
430.85	297.34
431.22	299.83
431.59	302.63
431.96	305.06
432.33	307.95
432.70	310.58
433.08	313.72
433.45	316.66
433.82	319.56
434.19	322.94
434.56	326.14
434.93	329.22
435.30	332.40
435.68	335.85
436.05	339.10
436.42	342.28
436.79	345.20
437.16	348.42
437.53	351.75
437.90	355.11
438.27	358.31
438.64	361.62
439.01	364.70
439.38	367.33
439.75	370.04
440.13	373.15
440.50	376.28
440.87	378.62
441.24	381.04
441.61	383.76
441.98	385.65
442.35	387.72
442.72	389.87
443.09	392.07
443.46	393.37
443.83	394.39
444.20	395.31
444.57	396.37
444.94	396.86
445.31	397.31
445.68	398.05
446.05	398.50
446.42	398.32
446.79	398.18
447.16	397.95
447.53	397.79
447.90	396.70
448.27	395.38
448.64	393.80
449.01	392.77
449.37	390.84
449.74	388.88
450.11	386.60
450.48	384.17
450.85	381.45
451.22	379.03
451.59	376.80
451.96	374.66
452.33	371.94
452.70	369.40
453.07	366.23
453.43	362.90
453.80	359.73
454.17	356.84
454.54	354.00
454.91	350.94
455.28	348.05
455.65	345.17
456.02	342.51
456.38	340.08
456.75	337.07
457.12	334.46
457.49	331.98
457.86	329.46
458.23	327.36
458.59	324.85
458.96	322.57
459.33	320.44
459.70	318.20
460.07	316.41
460.43	314.45
460.80	312.60
461.17	311.00
461.54	309.28
461.91	307.60
462.27	305.82
462.64	304.31
463.01	302.55
463.38	300.92
463.74	299.05
464.11	297.58
464.48	296.35
464.85	295.02
465.21	293.94
465.58	292.96
465.95	291.50
466.32	290.48
466.68	289.38
467.05	288.22
467.42	287.20
467.78	286.05
468.15	284.96
468.52	284.17
468.88	282.99
469.25	281.88
469.62	281.08
469.98	280.18
470.35	279.22
470.72	278.47
471.08	277.58
471.45	276.81
471.82	276.13
472.18	275.20
472.55	274.60
472.92	273.87
473.28	273.21
473.65	272.49
474.02	271.75
474.38	271.15
474.75	270.78
475.11	270.12
475.48	269.64
475.85	269.17
476.21	268.66
476.58	268.29
476.94	268.00
477.31	267.50
477.67	267.12
478.04	266.81
478.41	266.50
478.77	266.46
479.14	266.29
479.50	265.93
479.87	265.76
480.23	265.34
480.60	265.02
480.96	264.61
481.33	264.55
481.69	264.49
482.06	264.21
482.42	263.97
482.79	263.89
483.15	263.72
483.52	263.70
483.88	263.53
484.25	263.39
484.61	263.25
484.98	263.07
485.34	263.10
485.71	263.13
486.07	263.02
486.44	262.76
486.80	262.70
487.17	262.75
487.53	262.86
487.90	263.01
488.26	263.15
488.62	263.36
488.99	263.41
489.35	263.54
489.72	263.83
490.08	263.91
490.44	264.08
490.81	264.25
491.17	264.42
491.54	264.80
491.90	265.07
492.26	265.39
492.63	265.69
492.99	265.96
493.36	266.24
493.72	266.65
494.08	266.98
494.45	267.26
494.81	267.64
495.17	267.96
495.54	268.32
495.90	268.60
496.26	268.94
496.63	269.32
496.99	269.74
497.35	270.17
497.72	270.65
498.08	271.13
498.44	271.57
498.80	271.96
499.17	272.29
499.53	272.65
499.89	273.19
500.26	273.86
500.62	274.40
500.98	274.97
501.34	275.40
501.71	276.08
502.07	276.80
502.43	277.37
502.79	277.97
503.16	278.70
503.52	279.50
503.88	280.28
504.24	281.11
504.60	281.94
504.97	282.71
505.33	283.69
505.69	284.62
506.05	285.73
506.41	286.75
506.78	287.87
507.14	289.12
507.50	290.21
507.86	291.30
508.22	292.54
508.59	293.85
508.95	295.39
509.31	296.79
509.67	298.37
510.03	299.86
510.39	301.50
510.75	303.17
511.12	304.66
511.48	306.48
511.84	308.35
512.20	310.15
512.56	312.20
512.92	314.20
513.28	316.47
513.64	318.67
514.00	321.04
514.37	323.46
514.73	326.02
515.09	328.64
515.45	331.22
515.81	333.88
516.17	336.68
516.53	339.58
516.89	342.52
517.25	345.44
517.61	348.70
517.97	351.96
518.33	355.28
518.69	358.97
519.05	362.63
519.41	366.25
519.77	370.19
520.13	374.06
520.49	377.84
520.85	381.74
521.21	385.80
521.57	389.99
521.93	394.20
522.29	398.53
522.65	402.88
523.01	407.47
523.37	412.00
523.73	416.75
524.09	421.38
524.45	426.27
524.81	431.41
525.17	436.61
525.53	441.71
525.89	446.84
526.25	452.25
526.61	457.55
526.97	463.14
527.33	468.77
527.68	474.44
528.04	480.50
528.40	486.26
528.76	492.42
529.12	498.36
529.48	504.69
529.84	510.86
530.20	517.27
530.56	523.99
530.91	530.75
531.27	537.25
531.63	544.08
531.99	550.73
532.35	557.30
532.71	563.95
533.07	571.00
533.42	578.18
533.78	585.13
534.14	592.14
534.50	599.11
534.86	606.25
535.21	613.12
535.57	620.50
535.93	627.85
536.29	635.18
536.65	642.89
537.00	649.97
537.36	657.34
537.72	664.58
538.08	671.88
538.44	679.14
538.79	686.89
539.15	694.17
539.51	701.97
539.87	709.76
540.22	717.45
540.58	725.23
540.94	732.69
541.29	740.15
541.65	747.81
542.01	755.68
542.37	763.48
542.72	771.53
543.08	778.84
543.44	786.52
543.79	793.82
544.15	801.36
544.51	809.07
544.87	816.89
545.22	824.63
545.58	831.86
545.94	839.06
546.29	846.26
546.65	853.50
547.01	860.57
547.36	867.75
547.72	874.81
548.07	881.68
548.43	888.63
548.79	895.90
549.14	902.75
549.50	909.54
549.86	916.03
550.21	922.69
550.57	929.41
550.92	936.26
551.28	942.63
551.64	948.87
551.99	955.53
552.35	961.77
552.70	968.04
553.06	974.82
553.41	981.27
553.77	987.56
554.13	993.95
554.48	1000.41
554.84	1006.53
555.19	1012.70
555.55	1018.85
555.90	1024.56
556.26	1030.40
556.61	1035.96
556.97	1041.28
557.32	1047.22
557.68	1052.86
558.03	1058.53
558.39	1063.79
558.74	1069.94
559.10	1075.54
559.45	1080.91
559.81	1086.60
560.16	1091.79
560.52	1096.72
560.87	1102.24
561.23	1107.07
561.58	1112.24
561.94	1116.95
562.29	1121.56
562.64	1125.81
563.00	1130.48
563.35	1135.88
563.71	1140.80
564.06	1145.92
564.42	1150.85
564.77	1155.48
565.12	1160.30
565.48	1164.67
565.83	1168.81
566.19	1172.80
566.54	1176.66
566.89	1180.30
567.25	1183.80
567.60	1188.19
567.96	1192.12
568.31	1195.83
568.66	1199.58
569.02	1202.97
569.37	1206.24
569.72	1209.37
570.08	1213.12
570.43	1216.32
570.78	1218.91
571.14	1221.09
571.49	1223.68
571.84	1226.68
572.20	1229.03
572.55	1230.87
572.90	1232.79
573.26	1235.46
573.61	1237.32
573.96	1239.55
574.31	1241.12
574.67	1242.28
575.02	1243.32
575.37	1244.86
575.72	1245.45
576.08	1246.69
576.43	1247.68
576.78	1248.80
577.13	1250.17
577.49	1251.14
577.84	1251.45
578.19	1252.15
578.54	1252.75
578.90	1253.07
579.25	1252.63
579.60	1252.50
579.95	1252.17
580.30	1252.32
580.66	1251.99
581.01	1251.58
581.36	1251.61
581.71	1252.03
582.06	1252.16
582.42	1251.69
582.77	1250.93
583.12	1250.29
583.47	1249.96
583.82	1249.79
584.17	1249.06
584.53	1248.42
584.88	1247.68
585.23	1247.36
585.58	1246.70
585.93	1246.20
586.28	1245.66
586.63	1244.93
586.98	1244.24
587.34	1243.99
587.69	1242.96
588.04	1241.92
588.39	1241.02
588.74	1239.10
589.09	1237.24
589.44	1235.50
589.79	1234.42
590.14	1233.04
590.49	1231.94
590.84	1230.12
591.19	1228.20
591.54	1226.00
591.89	1223.40
592.25	1221.58
592.60	1218.89
592.95	1216.34
593.30	1213.79
593.65	1210.99
594.00	1208.48
594.35	1206.39
594.70	1203.52
595.05	1201.41
595.40	1198.79
595.75	1196.29
596.10	1194.16
596.45	1192.25
596.80	1190.46
597.15	1188.00
597.50	1185.33
597.85	1182.98
598.19	1180.74
598.54	1178.39
598.89	1176.53
599.24	1174.99
599.59	1172.01
599.94	1169.90
600.29	1167.49
600.64	1165.26
600.99	1162.73
601.34	1160.90
601.69	1157.89
602.04	1155.61
602.39	1152.52
602.74	1150.26
603.08	1147.85
603.43	1145.30
603.78	1142.21
604.13	1139.29
604.48	1136.04
604.83	1133.57
605.18	1130.73
605.53	1127.30
605.87	1123.90
606.22	1120.82
606.57	1117.32
606.92	1114.46
607.27	1111.61
607.62	1109.02
607.96	1105.84
608.31	1102.71
608.66	1098.83
609.01	1095.22
609.36	1091.05
609.70	1087.32
610.05	1083.16
610.40	1079.25
610.75	1075.47
611.10	1071.87
611.44	1067.72
611.79	1064.30
612.14	1060.26
612.49	1056.10
612.83	1052.32
613.18	1048.38
613.53	1044.07
613.88	1039.61
614.22	1035.63
614.57	1031.11
614.92	1026.46
615.27	1022.31
615.61	1018.18
615.96	1013.98
616.31	1010.33
616.65	1006.99
617.00	1003.46
617.35	999.78
617.70	995.90
618.04	991.45
618.39	987.31
618.74	983.49
619.08	979.09
619.43	975.00
619.78	971.11
620.12	967.21
620.47	963.30
620.82	959.19
621.16	955.50
621.51	951.52
621.85	947.75
622.20	943.81
622.55	939.89
622.89	935.94
623.24	932.23
623.59	928.43
623.93	924.81
624.28	920.95
624.62	917.19
624.97	913.53
625.32	910.07
625.66	906.27
626.01	902.26
626.35	898.49
626.70	894.62
627.04	890.92
627.39	886.76
627.73	882.76
628.08	878.99
628.43	875.32
628.77	871.09
629.12	866.92
629.46	863.06
629.81	858.78
630.15	855.02
630.50	851.12
630.84	846.63
631.19	842.04
631.53	838.04
631.88	833.24
632.22	828.63
632.57	824.52
632.91	820.43
633.26	816.32
633.60	812.23
633.95	808.25
634.29	804.26
634.64	800.22
634.98	796.30
635.32	792.75
635.67	788.76
636.01	785.17
636.36	781.51
636.70	777.80
637.05	774.23
637.39	770.41
637.73	766.67
638.08	763.37
638.42	760.02
638.77	756.36
639.11	753.10
639.45	749.73
639.80	746.06
640.14	742.42
640.49	738.75
640.83	735.13
641.17	731.46
641.52	727.57
641.86	724.41
642.20	720.80
642.55	716.80
642.89	713.35
643.23	709.53
643.58	706.18
643.92	702.47
644.26	698.84
644.61	695.30
644.95	691.91
645.29	688.07
645.64	684.38
645.98	680.70
646.32	677.23
646.66	673.63
647.01	670.01
647.35	666.45
647.69	662.92
648.04	659.66
648.38	655.93
648.72	652.40
649.06	648.57
649.41	645.07
649.75	641.45
650.09	637.75
650.43	634.19
650.78	630.22
651.12	626.71
651.46	623.40
651.80	619.93
652.14	616.34
652.49	612.92
652.83	609.42
653.17	605.86
653.51	602.10
653.85	598.67
654.20	595.39
654.54	591.90
654.88	588.57
655.22	584.77
655.56	581.49
655.90	578.20
656.25	574.99
656.59	571.84
656.93	568.96
657.27	565.78
657.61	562.42
657.95	559.37
658.29	556.27
658.64	552.98
658.98	549.57
659.32	546.08
659.66	543.01
660.00	539.95
660.34	536.86
660.68	534.10
661.02	530.99
661.36	527.90
661.70	525.12
662.05	522.52
662.39	520.08
662.73	517.33
663.07	514.77
663.41	511.99
663.75	509.23
664.09	506.41
664.43	503.65
664.77	501.34
665.11	498.85
665.45	496.20
665.79	493.57
666.13	491.14
666.47	488.88
666.81	486.40
667.15	483.70
667.49	481.10
667.83	478.79
668.17	476.33
668.51	473.84
668.85	471.38
669.19	468.88
669.53	466.36
669.87	463.94
670.21	461.46
670.55	459.19
670.89	457.29
671.23	455.06
671.57	452.85
671.91	450.60
672.25	448.45
672.58	446.39
672.92	444.28
673.26	442.36
673.60	440.33
673.94	438.09
674.28	436.35
674.62	434.67
674.96	432.71
675.30	430.83
675.64	429.05
675.97	427.19
676.31	425.36
676.65	423.70
676.99	421.97
677.33	420.10
677.67	418.26
678.01	416.07
678.34	414.43
678.68	412.62
679.02	410.76
679.36	408.97
679.70	407.14
680.04	405.37
680.37	403.40
680.71	401.68
681.05	400.29
681.39	398.54
681.73	396.84
682.06	395.14
682.40	393.68
682.74	391.93
683.08	390.29
683.42	388.54
683.75	386.86
684.09	385.24
684.43	383.66
684.77	381.97
685.10	380.30
685.44	378.51
685.78	377.10
686.12	375.62
686.45	373.97
686.79	372.43
687.13	371.05
687.46	369.65
687.80	368.12
688.14	366.48
688.48	365.10
688.81	363.52
689.15	361.99
689.49	360.40
689.82	359.01
690.16	357.45
690.50	356.06
690.83	354.51
691.17	353.05
691.51	351.79
691.84	350.59
692.18	349.34
692.52	347.94
692.85	346.55
693.19	345.20
693.52	343.98
693.86	342.61
694.20	341.27
694.53	340.02
694.87	338.76
695.21	337.34
695.54	335.95
695.88	334.65
696.21	333.43
696.55	332.25
696.88	331.09
697.22	329.87
697.56	328.72
697.89	327.68
698.23	326.54
698.56	325.39
698.90	324.15
699.23	323.09
699.57	322.02
699.90	320.76
700.24	319.61
700.58	318.36
700.91	317.40
701.25	316.36
701.58	315.36
701.92	314.20
702.25	313.31
702.59	312.37
702.92	311.43
703.26	310.46
703.59	309.55
703.93	308.72
704.26	307.87
704.60	306.96
704.93	305.99
705.26	305.06
705.60	304.03
705.93	303.15
706.27	302.28
706.60	301.62
706.94	301.11
707.27	300.30
707.61	299.70
707.94	299.00
708.27	298.20
708.61	297.30
708.94	296.61
709.28	295.90
709.61	295.08
709.94	294.44
710.28	293.78
710.61	293.02
710.95	292.14
711.28	291.71
711.61	290.93
711.95	290.18
712.28	289.43
712.61	288.92
712.95	288.25
713.28	287.62
713.61	286.73
713.95	285.91
714.28	285.25
714.61	284.65
714.95	283.93
715.28	283.30
715.61	282.80
715.95	282.26
716.28	281.62
716.61	281.17
716.95	280.61
717.28	280.03
717.61	279.52
717.94	279.03
718.28	278.34
718.61	277.82
718.94	277.30
719.27	276.90
719.61	276.36
719.94	275.90
720.27	275.36
720.60	274.88
720.94	274.41
721.27	274.02
721.60	273.52
721.93	273.05
722.27	272.60
722.60	272.16
722.93	271.63
723.26	271.30
723.59	270.82
723.93	270.37
724.26	269.82
724.59	269.30
724.92	268.80
725.25	268.37
725.59	268.07
725.92	267.64
726.25	267.09
726.58	266.79
726.91	266.44
727.24	266.09
727.57	265.73
727.91	265.26
728.24	264.94
728.57	264.45
728.90	264.12
729.23	263.66
729.56	263.41
729.89	263.03
730.22	262.52
730.55	262.11
730.89	261.66
731.22	261.40
731.55	260.97
731.88	260.67
732.21	260.29
732.54	259.83
732.87	259.45
733.20	259.16
733.53	258.74
733.86	258.41
734.19	257.90
734.52	257.65
734.85	257.43
735.18	256.91
735.51	256.70
735.84	256.22
736.17	256.05
736.50	255.62
736.83	255.57
737.16	255.15
737.49	254.81
737.82	254.35
738.15	254.00
738.48	253.70
738.81	253.42
739.14	253.09
739.47	252.97
739.80	252.76
740.13	252.59
740.46	252.26
740.79	251.95
741.12	251.81
741.45	251.37
741.78	251.03
742.11	250.93
742.44	250.61
742.77	250.40
743.10	249.99
743.43	249.58
743.75	249.18
744.08	249.33
744.41	249.08
744.74	249.00
745.07	248.74
745.40	248.66
745.73	248.52
746.06	248.42
746.39	248.20
746.71	247.91
747.04	247.60
747.37	247.34
747.70	247.13
748.03	246.90
748.36	246.90
748.68	246.75
749.01	246.55
749.34	246.40
749.67	246.25
750.00	246.14
750.33	246.18
750.65	245.92
750.98	245.52
751.31	245.46
751.64	245.30
751.97	245.26
752.29	244.95
752.62	244.66
752.95	244.33
753.28	244.04
753.60	243.98
753.93	243.93
754.26	243.90
754.59	243.65
754.91	243.52
755.24	243.22
755.57	243.05
755.90	242.86
756.22	242.60
756.55	242.41
756.88	242.25
757.20	241.95
757.53	241.81
757.86	241.73
758.19	241.51
758.51	241.43
758.84	241.17
759.17	241.11
759.49	241.06
759.82	241.06
760.15	241.03
760.47	240.79
760.80	240.59
761.13	240.42
761.45	240.32
761.78	240.10
762.11	240.04
762.43	239.93
762.76	239.75
763.08	239.67
763.41	239.66
763.74	239.54
764.06	239.47
764.39	239.32
764.71	239.14
765.04	238.92
765.37	238.71
765.69	238.55
766.02	238.45
766.34	238.32
766.67	238.14
767.00	238.00
767.32	238.23
767.65	238.18
767.97	238.05
768.30	237.97
768.62	237.87
768.95	237.71
769.27	237.54
769.60	237.47
769.92	237.39
770.25	237.12
770.57	237.05
770.90	236.87
771.22	236.77
771.55	236.62
771.87	236.66
772.20	236.61
772.52	236.83
772.85	236.87
773.17	236.61
773.50	236.54
773.82	236.37
774.15	235.98
774.47	235.78
774.80	235.66
775.12	235.56
775.45	235.57
775.77	235.43
776.09	235.31
776.42	235.22
776.74	235.17
777.07	235.19
777.39	235.03
777.72	234.91
778.04	234.80
778.36	234.67
778.69	234.45
779.01	234.42
779.33	234.07
779.66	233.78
779.98	233.76
780.31	233.65
780.63	233.64
780.95	233.63
781.28	233.51
781.60	233.46
781.92	233.36
782.25	233.32
782.57	233.34
782.89	233.30
783.22	233.23
783.54	233.10
783.86	233.07
784.19	232.98
784.51	233.05
784.83	232.98
785.16	232.98
785.48	232.97
785.80	232.86
786.12	232.89
786.45	232.90
786.77	232.99
787.09	232.96
787.42	232.88
787.74	232.75
788.06	232.73
788.38	232.73
788.71	232.74
789.03	232.63
789.35	232.62
789.67	232.56
789.99	232.56
790.32	232.57
