SpectraSuite Data File
++++++++++++++++++++++++++++++++++++
Date: Fri Feb 01 14:35:53 EST 2013
User: group
Dark Spectrum Present: No
Reference Spectrum Present: No
Number of Sampled Component Spectra: 1
Spectrometers: USB2E7196
Integration Time (usec): 70000 (USB2E7196)
Spectra Averaged: 10 (USB2E7196)
Boxcar Smoothing: 10 (USB2E7196)
Correct for Electrical Dark: No (USB2E7196)
Strobe/Lamp Enabled: No (USB2E7196)
Correct for Detector Non-linearity: No (USB2E7196)
Correct for Stray Light: No (USB2E7196)
Number of Pixels in Processed Spectrum: 2048
>>>>>Begin Processed Spectral Data<<<<<
339.09	0.00
339.48	213.70
339.86	218.10
340.24	219.20
340.63	219.20
341.01	224.20
341.39	223.50
341.78	224.50
342.16	226.10
342.54	227.50
342.93	214.43
343.31	225.32
343.69	226.01
344.07	226.46
344.46	226.88
344.84	227.30
345.22	227.44
345.60	227.63
345.99	227.78
346.37	227.81
346.75	227.80
347.13	227.87
347.52	227.91
347.90	227.92
348.28	227.98
348.66	227.92
349.05	227.82
349.43	227.88
349.81	227.95
350.19	227.98
350.57	228.17
350.96	228.24
351.34	228.12
351.72	228.14
352.10	228.17
352.48	228.22
352.87	228.23
353.25	228.29
353.63	228.32
354.01	228.37
354.39	228.49
354.77	228.53
355.15	228.63
355.54	228.65
355.92	228.68
356.30	228.74
356.68	229.00
357.06	229.22
357.44	229.30
357.82	229.42
358.20	229.48
358.58	229.49
358.97	229.61
359.35	229.80
359.73	229.82
360.11	229.93
360.49	229.94
360.87	230.06
361.25	230.07
361.63	230.22
362.01	230.30
362.39	230.26
362.77	230.38
363.15	230.25
363.53	230.26
363.91	230.23
364.29	230.24
364.67	230.11
365.05	230.01
365.43	230.05
365.81	230.05
366.19	230.07
366.57	230.15
366.95	230.10
367.33	230.06
367.71	230.12
368.09	230.05
368.47	230.03
368.85	229.94
369.23	229.98
369.61	229.94
369.99	229.93
370.37	230.00
370.75	230.12
371.13	230.15
371.51	230.07
371.89	230.16
372.27	230.12
372.65	230.00
373.03	229.93
373.41	229.77
373.78	229.68
374.16	229.50
374.54	229.32
374.92	229.21
375.30	229.17
375.68	229.15
376.06	229.15
376.44	229.10
376.82	229.07
377.19	229.03
377.57	228.88
377.95	228.80
378.33	228.69
378.71	228.44
379.09	228.43
379.47	228.43
379.84	228.31
380.22	228.25
380.60	228.14
380.98	228.12
381.36	228.13
381.73	228.05
382.11	228.10
382.49	228.14
382.87	228.10
383.25	228.08
383.62	228.14
384.00	228.05
384.38	227.95
384.76	227.91
385.13	227.91
385.51	227.84
385.89	227.80
386.27	227.65
386.64	227.60
387.02	227.55
387.40	227.36
387.78	227.30
388.15	227.20
388.53	227.31
388.91	227.29
389.29	227.25
389.66	227.19
390.04	227.15
390.42	227.13
390.79	227.14
391.17	227.04
391.55	226.79
391.92	226.74
392.30	226.78
392.68	226.75
393.05	226.76
393.43	226.73
393.81	226.73
394.18	226.86
394.56	226.85
394.94	226.90
395.31	226.96
395.69	227.07
396.06	227.20
396.44	227.09
396.82	227.13
397.19	227.22
397.57	227.30
397.95	227.21
398.32	227.14
398.70	227.10
399.07	227.32
399.45	227.43
399.82	227.50
400.20	227.67
400.58	227.80
400.95	227.90
401.33	228.13
401.70	228.40
402.08	228.60
402.45	228.73
402.83	228.90
403.20	229.16
403.58	229.28
403.95	229.47
404.33	229.69
404.71	229.91
405.08	230.26
405.46	230.50
405.83	230.92
406.21	231.23
406.58	231.69
406.96	232.00
407.33	232.39
407.70	232.75
408.08	233.22
408.45	233.64
408.83	234.06
409.20	234.49
409.58	234.84
409.95	235.42
410.33	236.07
410.70	236.62
411.08	237.36
411.45	238.02
411.82	238.70
412.20	239.56
412.57	240.46
412.95	241.22
413.32	242.20
413.69	243.10
414.07	244.03
414.44	245.07
414.82	246.20
415.19	247.44
415.56	248.75
415.94	250.02
416.31	251.54
416.68	252.94
417.06	254.64
417.43	256.28
417.81	258.08
418.18	259.84
418.55	261.81
418.93	263.80
419.30	265.98
419.67	268.30
420.04	270.61
420.42	273.05
420.79	275.73
421.16	278.39
421.54	281.33
421.91	284.40
422.28	287.56
422.66	290.65
423.03	293.83
423.40	297.25
423.77	300.79
424.15	304.39
424.52	308.25
424.89	312.36
425.26	316.21
425.64	319.95
426.01	324.09
426.38	328.40
426.75	332.68
427.13	337.29
427.50	341.92
427.87	346.85
428.24	351.76
428.61	356.59
428.99	361.89
429.36	367.35
429.73	372.79
430.10	378.11
430.47	383.75
430.85	389.50
431.22	395.37
431.59	401.76
431.96	407.77
432.33	414.53
432.70	421.05
433.08	428.73
433.45	436.04
433.82	443.25
434.19	451.23
434.56	459.10
434.93	466.44
435.30	473.61
435.68	481.64
436.05	489.74
436.42	497.62
436.79	504.71
437.16	512.60
437.53	520.92
437.90	529.21
438.27	537.26
438.64	545.78
439.01	553.71
439.38	560.85
439.75	567.60
440.13	575.28
440.50	582.52
440.87	588.69
441.24	594.89
441.61	602.02
441.98	606.96
442.35	612.92
442.72	619.00
443.09	625.32
443.46	629.44
443.83	632.00
444.20	634.49
444.57	638.28
444.94	640.44
445.31	642.47
445.68	644.61
446.05	646.00
446.42	645.89
446.79	645.83
447.16	645.57
447.53	645.90
447.90	643.70
448.27	641.63
448.64	638.09
449.01	635.91
449.37	631.14
449.74	626.84
450.11	621.40
450.48	615.28
450.85	608.85
451.22	603.45
451.59	598.60
451.96	593.99
452.33	587.14
452.70	580.95
453.07	573.75
453.43	566.01
453.80	558.93
454.17	552.10
454.54	545.42
454.91	538.25
455.28	531.11
455.65	524.59
456.02	517.78
456.38	512.19
456.75	504.90
457.12	499.00
457.49	492.88
457.86	487.15
458.23	482.36
458.59	476.93
458.96	471.26
459.33	466.11
459.70	460.94
460.07	457.05
460.43	452.50
460.80	447.74
461.17	443.94
461.54	439.84
461.91	435.68
462.27	431.65
462.64	428.04
463.01	424.23
463.38	420.50
463.74	416.98
464.11	413.65
464.48	410.82
464.85	407.74
465.21	405.54
465.58	402.98
465.95	399.81
466.32	397.38
466.68	394.84
467.05	392.46
467.42	390.14
467.78	387.27
468.15	384.66
468.52	382.88
468.88	380.34
469.25	378.06
469.62	376.39
469.98	374.36
470.35	372.58
470.72	370.74
471.08	368.89
471.45	367.23
471.82	365.60
472.18	363.59
472.55	362.11
472.92	360.45
473.28	358.98
473.65	357.64
474.02	356.11
474.38	354.89
474.75	353.85
475.11	352.40
475.48	351.61
475.85	350.82
476.21	349.97
476.58	349.19
476.94	348.42
477.31	347.62
477.67	346.93
478.04	346.22
478.41	345.81
478.77	345.48
479.14	344.90
479.50	344.60
479.87	344.52
480.23	344.24
480.60	344.05
480.96	343.88
481.33	343.71
481.69	343.79
482.06	343.84
482.42	343.50
482.79	343.55
483.15	343.50
483.52	343.75
483.88	343.92
484.25	344.20
484.61	344.49
484.98	344.90
485.34	345.50
485.71	346.06
486.07	346.48
486.44	346.84
486.80	347.53
487.17	348.16
487.53	349.09
487.90	349.98
488.26	350.78
488.62	351.73
488.99	352.77
489.35	353.73
489.72	354.79
490.08	356.03
490.44	357.30
490.81	358.65
491.17	359.78
491.54	361.16
491.90	362.57
492.26	364.09
492.63	365.50
492.99	367.08
493.36	368.71
493.72	370.50
494.08	372.30
494.45	374.12
494.81	375.99
495.17	377.62
495.54	379.46
495.90	381.47
496.26	383.33
496.63	385.47
496.99	387.50
497.35	389.54
497.72	391.60
498.08	393.75
498.44	395.84
498.80	398.00
499.17	400.16
499.53	402.29
499.89	404.52
500.26	406.62
500.62	408.76
500.98	410.97
501.34	413.27
501.71	415.61
502.07	417.60
502.43	419.60
502.79	421.89
503.16	423.99
503.52	426.08
503.88	428.13
504.24	429.95
504.60	431.96
504.97	433.92
505.33	435.85
505.69	437.71
506.05	439.53
506.41	441.38
506.78	443.08
507.14	444.82
507.50	446.40
507.86	448.28
508.22	449.98
508.59	451.50
508.95	452.98
509.31	454.44
509.67	455.93
510.03	457.43
510.39	458.94
510.75	460.40
511.12	461.82
511.48	463.11
511.84	464.44
512.20	465.52
512.56	466.86
512.92	468.27
513.28	469.40
513.64	470.35
514.00	471.28
514.37	472.41
514.73	473.31
515.09	474.23
515.45	474.98
515.81	475.65
516.17	476.38
516.53	477.12
516.89	477.56
517.25	478.20
517.61	478.78
517.97	479.13
518.33	479.41
518.69	479.70
519.05	480.15
519.41	480.70
519.77	481.37
520.13	481.84
520.49	482.16
520.85	482.62
521.21	483.18
521.57	483.90
521.93	484.28
522.29	484.83
522.65	485.24
523.01	485.83
523.37	486.16
523.73	486.77
524.09	487.27
524.45	487.75
524.81	488.46
525.17	489.25
525.53	490.13
525.89	490.92
526.25	491.84
526.61	492.59
526.97	493.36
527.33	494.22
527.68	495.17
528.04	496.00
528.40	496.99
528.76	498.14
529.12	499.35
529.48	500.77
529.84	501.94
530.20	503.30
530.56	504.62
530.91	506.36
531.27	507.96
531.63	509.53
531.99	511.37
532.35	512.89
532.71	514.57
533.07	516.38
533.42	518.52
533.78	520.35
534.14	522.53
534.50	524.53
534.86	526.67
535.21	528.54
535.57	530.97
535.93	533.20
536.29	535.65
536.65	537.80
537.00	539.90
537.36	542.36
537.72	544.99
538.08	547.53
538.44	550.10
538.79	552.68
539.15	555.20
539.51	558.06
539.87	560.91
540.22	563.73
540.58	566.49
540.94	569.38
541.29	572.44
541.65	575.25
542.01	578.59
542.37	581.54
542.72	584.90
543.08	588.07
543.44	591.55
543.79	594.68
544.15	598.32
544.51	601.99
544.87	605.70
545.22	609.09
545.58	612.64
545.94	615.75
546.29	619.17
546.65	622.69
547.01	626.30
547.36	629.97
547.72	633.31
548.07	636.94
548.43	640.30
548.79	643.78
549.14	647.49
549.50	650.79
549.86	654.50
550.21	658.10
550.57	661.74
550.92	665.30
551.28	668.98
551.64	672.34
551.99	676.02
552.35	679.42
552.70	683.18
553.06	687.00
553.41	691.11
553.77	695.23
554.13	699.24
554.48	703.04
554.84	706.84
555.19	710.75
555.55	714.81
555.90	718.68
556.26	722.45
556.61	726.21
556.97	729.74
557.32	733.67
557.68	737.29
558.03	741.00
558.39	744.72
558.74	748.39
559.10	752.09
559.45	755.72
559.81	759.61
560.16	763.07
560.52	766.59
560.87	770.13
561.23	773.21
561.58	776.86
561.94	780.15
562.29	783.47
562.64	786.96
563.00	789.99
563.35	793.61
563.71	797.22
564.06	800.61
564.42	804.15
564.77	807.36
565.12	810.92
565.48	814.23
565.83	817.45
566.19	820.80
566.54	824.11
566.89	826.95
567.25	829.92
567.60	833.22
567.96	836.03
568.31	839.20
568.66	842.28
569.02	844.83
569.37	847.42
569.72	850.20
570.08	852.82
570.43	855.34
570.78	857.52
571.14	859.69
571.49	862.08
571.84	864.68
572.20	866.80
572.55	868.76
572.90	870.67
573.26	872.46
573.61	874.26
573.96	876.03
574.31	877.68
574.67	879.01
575.02	880.14
575.37	881.58
575.72	882.40
576.08	883.84
576.43	884.95
576.78	886.35
577.13	887.58
577.49	888.88
577.84	889.93
578.19	890.95
578.54	892.05
578.90	892.70
579.25	893.06
579.60	893.53
579.95	894.15
580.30	894.46
580.66	894.83
581.01	895.31
581.36	895.66
581.71	896.23
582.06	896.81
582.42	897.08
582.77	897.34
583.12	897.68
583.47	897.68
583.82	897.83
584.17	897.68
584.53	897.48
584.88	897.11
585.23	897.24
585.58	897.11
585.93	896.76
586.28	896.70
586.63	896.60
586.98	896.74
587.34	896.50
587.69	896.61
588.04	896.48
588.39	896.24
588.74	895.35
589.09	894.67
589.44	893.84
589.79	893.73
590.14	893.44
590.49	892.84
590.84	892.15
591.19	891.60
591.54	890.71
591.89	889.49
592.25	888.75
592.60	887.31
592.95	886.15
593.30	884.81
593.65	883.64
594.00	882.33
594.35	881.53
594.70	879.81
595.05	878.54
595.40	877.25
595.75	875.46
596.10	874.28
596.45	873.30
596.80	872.36
597.15	870.82
597.50	869.21
597.85	867.89
598.19	866.64
598.54	865.24
598.89	864.00
599.24	863.27
599.59	861.91
599.94	860.66
600.29	859.30
600.64	857.95
600.99	856.14
601.34	854.63
601.69	852.57
602.04	851.14
602.39	849.27
602.74	847.74
603.08	846.46
603.43	845.15
603.78	843.30
604.13	841.57
604.48	839.75
604.83	838.00
605.18	836.40
605.53	834.26
605.87	831.85
606.22	830.06
606.57	827.71
606.92	825.85
607.27	823.90
607.62	822.06
607.96	820.38
608.31	818.53
608.66	816.62
609.01	814.03
609.36	811.73
609.70	809.31
610.05	806.86
610.40	804.37
610.75	801.75
611.10	799.14
611.44	796.09
611.79	793.69
612.14	790.95
612.49	787.60
612.83	784.82
613.18	782.38
613.53	779.59
613.88	776.80
614.22	773.82
614.57	770.61
614.92	767.50
615.27	764.68
615.61	761.69
615.96	758.69
616.31	756.27
616.65	753.84
617.00	751.24
617.35	748.52
617.70	745.64
618.04	742.72
618.39	739.85
618.74	737.38
619.08	734.32
619.43	731.69
619.78	729.40
620.12	726.65
620.47	723.91
620.82	721.22
621.16	718.64
621.51	716.10
621.85	713.70
622.20	711.26
622.55	708.54
622.89	706.05
623.24	703.54
623.59	700.94
623.93	698.40
624.28	695.77
624.62	693.15
624.97	690.98
625.32	688.60
625.66	686.23
626.01	683.79
626.35	681.46
626.70	678.75
627.04	676.16
627.39	673.82
627.73	671.39
628.08	668.69
628.43	666.04
628.77	663.39
629.12	660.82
629.46	658.04
629.81	655.20
630.15	652.40
630.50	649.58
630.84	646.64
631.19	643.68
631.53	641.04
631.88	638.07
632.22	634.87
632.57	632.37
632.91	629.70
633.26	627.09
633.60	624.18
633.95	621.90
634.29	619.14
634.64	616.77
634.98	614.10
635.32	611.77
635.67	609.59
636.01	606.97
636.36	604.45
636.70	602.27
637.05	599.94
637.39	598.04
637.73	595.77
638.08	593.79
638.42	591.82
638.77	589.79
639.11	587.56
639.45	585.37
639.80	582.69
640.14	580.37
640.49	577.97
640.83	575.90
641.17	573.50
641.52	571.36
641.86	568.73
642.20	566.57
642.55	564.19
642.89	561.80
643.23	559.68
643.58	557.79
643.92	555.31
644.26	553.04
644.61	550.58
644.95	548.52
645.29	546.03
645.64	543.44
645.98	540.80
646.32	538.64
646.66	536.35
647.01	534.16
647.35	531.94
647.69	529.62
648.04	527.41
648.38	524.89
648.72	522.45
649.06	519.97
649.41	517.70
649.75	515.20
650.09	512.55
650.43	510.07
650.78	507.45
651.12	505.19
651.46	503.02
651.80	500.92
652.14	498.49
652.49	496.10
652.83	493.98
653.17	491.70
653.51	489.38
653.85	487.10
654.20	484.77
654.54	482.37
654.88	479.97
655.22	477.42
655.56	475.05
655.90	472.87
656.25	470.90
656.59	468.56
656.93	466.51
657.27	464.51
657.61	462.17
657.95	460.19
658.29	458.05
658.64	455.98
658.98	453.55
659.32	451.22
659.66	449.25
660.00	447.00
660.34	445.05
660.68	442.85
661.02	440.91
661.36	438.94
661.70	436.91
662.05	435.09
662.39	433.34
662.73	431.53
663.07	429.76
663.41	427.85
663.75	425.98
664.09	424.20
664.43	422.38
664.77	420.77
665.11	418.86
665.45	417.03
665.79	415.10
666.13	413.31
666.47	411.62
666.81	409.71
667.15	407.88
667.49	406.16
667.83	404.67
668.17	402.75
668.51	400.96
668.85	399.39
669.19	397.84
669.53	396.08
669.87	394.57
670.21	392.96
670.55	391.54
670.89	390.24
671.23	388.73
671.57	387.34
671.91	385.90
672.25	384.48
672.58	383.05
672.92	381.60
673.26	380.20
673.60	378.93
673.94	377.71
674.28	376.55
674.62	375.29
674.96	373.97
675.30	372.88
675.64	371.79
675.97	370.60
676.31	369.31
676.65	368.30
676.99	367.14
677.33	365.90
677.67	364.65
678.01	363.18
678.34	361.92
678.68	360.77
679.02	359.54
679.36	358.45
679.70	357.25
680.04	356.12
680.37	354.94
680.71	353.86
681.05	352.96
681.39	352.03
681.73	350.84
682.06	349.66
682.40	348.77
682.74	347.79
683.08	346.74
683.42	345.61
683.75	344.56
684.09	343.45
684.43	342.46
684.77	341.28
685.10	340.36
685.44	339.34
685.78	338.38
686.12	337.42
686.45	336.15
686.79	335.18
687.13	334.31
687.46	333.38
687.80	332.33
688.14	331.25
688.48	330.16
688.81	329.22
689.15	328.41
689.49	327.26
689.82	326.15
690.16	325.20
690.50	324.34
690.83	323.27
691.17	322.24
691.51	321.33
691.84	320.65
692.18	319.72
692.52	318.70
692.85	317.59
693.19	316.75
693.52	315.99
693.86	315.10
694.20	314.19
694.53	313.36
694.87	312.35
695.21	311.40
695.54	310.43
695.88	309.45
696.21	308.51
696.55	307.55
696.88	306.76
697.22	305.80
697.56	304.86
697.89	303.96
698.23	303.21
698.56	302.13
698.90	301.22
699.23	300.35
699.57	299.60
699.90	298.75
700.24	297.80
700.58	296.92
700.91	296.19
701.25	295.40
701.58	294.58
701.92	293.90
702.25	293.07
702.59	292.34
702.92	291.68
703.26	291.04
703.59	290.55
703.93	289.96
704.26	289.26
704.60	288.51
704.93	287.84
705.26	287.02
705.60	286.59
705.93	285.78
706.27	285.30
706.60	284.80
706.94	284.28
707.27	283.60
707.61	283.05
707.94	282.35
708.27	281.50
708.61	280.87
708.94	280.30
709.28	279.82
709.61	279.19
709.94	278.66
710.28	278.03
710.61	277.40
710.95	276.66
711.28	276.31
711.61	275.96
711.95	275.38
712.28	275.03
712.61	274.48
712.95	274.06
713.28	273.60
713.61	272.95
713.95	272.47
714.28	272.08
714.61	271.60
714.95	271.20
715.28	270.90
715.61	270.46
715.95	270.05
716.28	269.53
716.61	269.23
716.95	268.79
717.28	268.38
717.61	267.83
717.94	267.57
718.28	267.05
718.61	266.60
718.94	266.29
719.27	265.73
719.61	265.43
719.94	265.15
720.27	264.65
720.60	264.26
720.94	263.87
721.27	263.63
721.60	263.31
721.93	262.95
722.27	262.57
722.60	262.36
722.93	262.08
723.26	261.70
723.59	261.42
723.93	261.17
724.26	260.86
724.59	260.75
724.92	260.46
725.25	260.24
725.59	260.01
725.92	259.80
726.25	259.58
726.58	259.17
726.91	258.90
727.24	258.65
727.57	258.52
727.91	258.23
728.24	257.93
728.57	257.65
728.90	257.38
729.23	257.11
729.56	256.90
729.89	256.63
730.22	256.43
730.55	256.17
730.89	255.88
731.22	255.67
731.55	255.36
731.88	255.17
732.21	254.84
732.54	254.50
732.87	254.18
733.20	254.00
733.53	253.91
733.86	253.60
734.19	253.26
734.52	252.92
734.85	252.72
735.18	252.32
735.51	252.11
735.84	251.83
736.17	251.65
736.50	251.29
736.83	251.15
737.16	250.98
737.49	250.69
737.82	250.41
738.15	250.17
738.48	249.80
738.81	249.50
739.14	249.23
739.47	249.00
739.80	248.88
740.13	248.68
740.46	248.38
740.79	248.17
741.12	247.91
741.45	247.65
741.78	247.44
742.11	247.34
742.44	247.09
742.77	246.94
743.10	246.74
743.43	246.49
743.75	246.12
744.08	246.04
744.41	245.76
744.74	245.43
745.07	245.22
745.40	245.07
745.73	244.85
746.06	244.66
746.39	244.47
746.71	244.09
747.04	243.72
747.37	243.49
747.70	243.29
748.03	243.17
748.36	242.93
748.68	242.68
749.01	242.51
749.34	242.35
749.67	242.13
750.00	241.89
750.33	241.90
750.65	241.77
750.98	241.44
751.31	241.28
751.64	241.23
751.97	241.14
752.29	240.96
752.62	240.69
752.95	240.54
753.28	240.25
753.60	240.16
753.93	240.10
754.26	239.93
754.59	239.82
754.91	239.64
755.24	239.60
755.57	239.52
755.90	239.30
756.22	239.20
756.55	239.07
756.88	238.95
757.20	238.63
757.53	238.45
757.86	238.27
758.19	238.20
758.51	238.11
758.84	237.88
759.17	237.75
759.49	237.71
759.82	237.70
760.15	237.70
760.47	237.67
760.80	237.64
761.13	237.52
761.45	237.31
761.78	237.30
762.11	237.19
762.43	236.98
762.76	236.94
763.08	236.83
763.41	236.80
763.74	236.74
764.06	236.60
764.39	236.57
764.71	236.53
765.04	236.51
765.37	236.39
765.69	236.33
766.02	236.39
766.34	236.33
766.67	236.21
767.00	236.20
767.32	236.13
767.65	236.14
767.97	236.15
768.30	236.22
768.62	236.08
768.95	235.94
769.27	236.03
769.60	235.99
769.92	235.96
770.25	235.76
770.57	235.66
770.90	235.70
771.22	235.60
771.55	235.55
771.87	235.58
772.20	235.50
772.52	235.61
772.85	235.66
773.17	235.55
773.50	235.54
773.82	235.38
774.15	235.22
774.47	235.08
774.80	234.98
775.12	234.83
775.45	234.72
775.77	234.73
776.09	234.55
776.42	234.52
776.74	234.46
777.07	234.47
777.39	234.42
777.72	234.28
778.04	234.26
778.36	234.21
778.69	234.01
779.01	233.98
779.33	233.78
779.66	233.50
779.98	233.47
780.31	233.27
780.63	233.29
780.95	233.23
781.28	233.14
781.60	232.98
781.92	232.92
782.25	232.93
782.57	232.90
782.89	232.84
783.22	232.70
783.54	232.51
783.86	232.50
784.19	232.44
784.51	232.50
784.83	232.35
785.16	232.17
785.48	232.16
785.80	232.11
786.12	232.05
786.45	232.00
786.77	231.93
787.09	231.91
787.42	231.84
787.74	231.77
788.06	231.75
788.38	231.81
788.71	231.71
789.03	231.63
789.35	231.52
789.67	231.45
789.99	231.40
790.32	231.45
790.64	231.41
790.96	231.56
791.28	231.40
791.61	231.35
791.93	231.40
792.25	231.32
792.57	231.31
792.89	231.30
793.21	231.29
793.54	231.19
793.86	231.13
794.18	231.09
