SpectraSuite Data File
++++++++++++++++++++++++++++++++++++
Date: Fri Feb 01 14:36:47 EST 2013
User: group
Dark Spectrum Present: No
Reference Spectrum Present: No
Number of Sampled Component Spectra: 1
Spectrometers: USB2E7196
Integration Time (usec): 70000 (USB2E7196)
Spectra Averaged: 10 (USB2E7196)
Boxcar Smoothing: 10 (USB2E7196)
Correct for Electrical Dark: No (USB2E7196)
Strobe/Lamp Enabled: No (USB2E7196)
Correct for Detector Non-linearity: No (USB2E7196)
Correct for Stray Light: No (USB2E7196)
Number of Pixels in Processed Spectrum: 2048
>>>>>Begin Processed Spectral Data<<<<<
339.09	0.00
339.48	217.40
339.86	216.60
340.24	219.50
340.63	221.30
341.01	225.40
341.39	223.70
341.78	225.30
342.16	225.70
342.54	225.90
342.93	214.88
343.31	225.76
343.69	226.30
344.07	226.82
344.46	227.20
344.84	227.59
345.22	227.77
345.60	228.06
345.99	228.20
346.37	228.32
346.75	228.45
347.13	228.48
347.52	228.45
347.90	228.57
348.28	228.59
348.66	228.70
349.05	228.61
349.43	228.64
349.81	228.65
350.19	228.69
350.57	228.75
350.96	228.86
351.34	228.97
351.72	229.01
352.10	229.15
352.48	229.15
352.87	229.10
353.25	229.10
353.63	229.10
354.01	229.17
354.39	229.20
354.77	229.24
355.15	229.42
355.54	229.56
355.92	229.54
356.30	229.56
356.68	229.70
357.06	229.87
357.44	229.91
357.82	230.01
358.20	230.07
358.58	230.07
358.97	230.17
359.35	230.17
359.73	230.19
360.11	230.15
360.49	230.30
360.87	230.39
361.25	230.47
361.63	230.51
362.01	230.58
362.39	230.56
362.77	230.61
363.15	230.55
363.53	230.55
363.91	230.61
364.29	230.71
364.67	230.53
365.05	230.44
365.43	230.45
365.81	230.40
366.19	230.47
366.57	230.53
366.95	230.40
367.33	230.30
367.71	230.22
368.09	230.17
368.47	230.09
368.85	230.05
369.23	230.05
369.61	229.97
369.99	229.90
370.37	229.97
370.75	229.97
371.13	229.92
371.51	229.79
371.89	229.75
372.27	229.69
372.65	229.73
373.03	229.69
373.41	229.66
373.78	229.56
374.16	229.40
374.54	229.31
374.92	229.24
375.30	229.20
375.68	229.17
376.06	229.18
376.44	229.12
376.82	229.03
377.19	228.89
377.57	228.76
377.95	228.63
378.33	228.52
378.71	228.39
379.09	228.27
379.47	228.12
379.84	228.00
380.22	227.82
380.60	227.62
380.98	227.55
381.36	227.47
381.73	227.40
382.11	227.36
382.49	227.26
382.87	227.21
383.25	227.15
383.62	227.35
384.00	227.22
384.38	227.18
384.76	227.21
385.13	227.21
385.51	227.22
385.89	227.09
386.27	227.08
386.64	227.03
387.02	227.00
387.40	226.99
387.78	227.00
388.15	226.91
388.53	226.91
388.91	226.81
389.29	226.73
389.66	226.65
390.04	226.62
390.42	226.67
390.79	226.64
391.17	226.71
391.55	226.45
391.92	226.42
392.30	226.41
392.68	226.33
393.05	226.40
393.43	226.42
393.81	226.51
394.18	226.45
394.56	226.50
394.94	226.56
395.31	226.61
395.69	226.75
396.06	226.88
396.44	226.88
396.82	227.00
397.19	227.26
397.57	227.34
397.95	227.44
398.32	227.45
398.70	227.56
399.07	227.62
399.45	227.62
399.82	227.74
400.20	227.80
400.58	227.90
400.95	227.83
401.33	227.95
401.70	228.17
402.08	228.33
402.45	228.43
402.83	228.61
403.20	228.77
403.58	228.80
403.95	229.01
404.33	229.37
404.71	229.54
405.08	229.80
405.46	230.03
405.83	230.30
406.21	230.52
406.58	230.81
406.96	231.03
407.33	231.34
407.70	231.62
408.08	232.18
408.45	232.70
408.83	233.20
409.20	233.56
409.58	233.93
409.95	234.47
410.33	234.90
410.70	235.30
411.08	235.86
411.45	236.35
411.82	236.88
412.20	237.40
412.57	238.12
412.95	238.63
413.32	239.42
413.69	240.16
414.07	240.92
414.44	241.80
414.82	242.76
415.19	243.79
415.56	244.80
415.94	245.75
416.31	246.83
416.68	247.99
417.06	249.21
417.43	250.47
417.81	251.83
418.18	253.40
418.55	254.96
418.93	256.66
419.30	258.57
419.67	260.42
420.04	262.24
420.42	264.24
420.79	266.48
421.16	268.68
421.54	271.02
421.91	273.47
422.28	275.81
422.66	278.43
423.03	281.00
423.40	283.73
423.77	286.68
424.15	289.52
424.52	292.55
424.89	295.90
425.26	299.13
425.64	302.14
426.01	305.41
426.38	308.79
426.75	312.23
427.13	315.78
427.50	319.53
427.87	323.68
428.24	327.53
428.61	331.24
428.99	335.39
429.36	339.92
429.73	344.27
430.10	348.79
430.47	353.23
430.85	357.96
431.22	362.88
431.59	368.07
431.96	373.00
432.33	378.41
432.70	383.85
433.08	390.13
433.45	395.96
433.82	401.79
434.19	408.35
434.56	414.65
434.93	420.55
435.30	426.49
435.68	433.05
436.05	439.56
436.42	446.20
436.79	451.99
437.16	458.21
437.53	464.92
437.90	471.46
438.27	477.93
438.64	484.81
439.01	491.19
439.38	496.79
439.75	502.09
440.13	508.39
440.50	514.24
440.87	519.03
441.24	524.09
441.61	529.73
441.98	533.85
442.35	538.56
442.72	543.61
443.09	548.42
443.46	551.56
443.83	553.71
444.20	555.64
444.57	558.55
444.94	560.06
445.31	561.76
445.68	563.58
446.05	564.68
446.42	564.56
446.79	564.31
447.16	563.96
447.53	564.08
447.90	562.44
448.27	560.59
448.64	557.81
449.01	556.02
449.37	552.20
449.74	548.60
450.11	544.39
450.48	539.52
450.85	534.51
451.22	530.20
451.59	526.14
451.96	522.26
452.33	516.86
452.70	512.33
453.07	506.39
453.43	500.10
453.80	494.11
454.17	488.39
454.54	483.05
454.91	477.27
455.28	471.70
455.65	466.17
456.02	460.80
456.38	456.09
456.75	450.45
457.12	445.69
457.49	440.85
457.86	436.18
458.23	432.13
458.59	427.77
458.96	423.09
459.33	419.27
459.70	415.07
460.07	411.59
460.43	407.50
460.80	403.90
461.17	400.75
461.54	397.65
461.91	394.41
462.27	391.17
462.64	388.36
463.01	385.22
463.38	382.26
463.74	379.25
464.11	376.60
464.48	374.09
464.85	371.48
465.21	369.56
465.58	367.56
465.95	364.91
466.32	362.84
466.68	360.64
467.05	358.45
467.42	356.41
467.78	354.30
468.15	352.26
468.52	350.65
468.88	348.57
469.25	346.60
469.62	345.07
469.98	343.39
470.35	341.91
470.72	340.38
471.08	338.71
471.45	337.30
471.82	335.91
472.18	334.33
472.55	333.28
472.92	331.90
473.28	330.40
473.65	329.34
474.02	328.01
474.38	327.07
474.75	326.17
475.11	325.34
475.48	324.54
475.85	323.73
476.21	322.96
476.58	322.36
476.94	321.77
477.31	321.29
477.67	320.54
478.04	319.83
478.41	319.46
478.77	319.16
479.14	318.64
479.50	318.18
479.87	318.01
480.23	317.60
480.60	317.27
480.96	317.02
481.33	316.90
481.69	316.80
482.06	316.61
482.42	316.36
482.79	316.24
483.15	316.43
483.52	316.67
483.88	316.64
484.25	316.70
484.61	316.87
484.98	316.86
485.34	317.30
485.71	317.77
486.07	318.19
486.44	318.35
486.80	318.83
487.17	319.40
487.53	319.97
487.90	320.63
488.26	321.24
488.62	322.01
488.99	322.56
489.35	323.26
489.72	324.14
490.08	324.90
490.44	325.51
490.81	326.28
491.17	326.89
491.54	327.90
491.90	328.78
492.26	329.77
492.63	330.87
492.99	331.80
493.36	332.86
493.72	333.94
494.08	335.21
494.45	336.18
494.81	337.27
495.17	338.29
495.54	339.40
495.90	340.63
496.26	341.85
496.63	342.99
496.99	344.22
497.35	345.43
497.72	346.80
498.08	348.17
498.44	349.42
498.80	350.88
499.17	352.06
499.53	353.20
499.89	354.37
500.26	355.56
500.62	356.72
500.98	357.93
501.34	358.95
501.71	360.07
502.07	361.32
502.43	362.35
502.79	363.56
503.16	364.66
503.52	365.56
503.88	366.40
504.24	367.52
504.60	368.35
504.97	369.14
505.33	369.87
505.69	370.81
506.05	371.63
506.41	372.25
506.78	372.99
507.14	373.78
507.50	374.41
507.86	374.96
508.22	375.71
508.59	376.09
508.95	376.70
509.31	377.25
509.67	377.71
510.03	378.15
510.39	378.61
510.75	378.95
511.12	379.40
511.48	379.83
511.84	380.06
512.20	380.47
512.56	380.98
512.92	381.40
513.28	381.54
513.64	381.74
514.00	381.80
514.37	381.94
514.73	382.08
515.09	382.30
515.45	382.38
515.81	382.35
516.17	382.39
516.53	382.48
516.89	382.35
517.25	382.52
517.61	382.77
517.97	382.89
518.33	382.97
518.69	383.00
519.05	383.05
519.41	383.15
519.77	383.29
520.13	383.30
520.49	383.23
520.85	383.28
521.21	383.52
521.57	384.04
521.93	384.32
522.29	384.66
522.65	384.89
523.01	385.38
523.37	385.62
523.73	386.42
524.09	387.00
524.45	387.70
524.81	388.20
525.17	388.83
525.53	389.49
525.89	390.17
526.25	391.00
526.61	391.80
526.97	392.88
527.33	393.96
527.68	395.22
528.04	396.51
528.40	397.86
528.76	399.00
529.12	400.28
529.48	401.85
529.84	403.32
530.20	404.92
530.56	406.59
530.91	408.62
531.27	410.21
531.63	411.95
531.99	413.90
532.35	416.03
532.71	418.05
533.07	420.11
533.42	422.44
533.78	424.82
534.14	427.35
534.50	429.54
534.86	432.10
535.21	434.52
535.57	437.19
535.93	439.84
536.29	442.81
536.65	445.59
537.00	448.41
537.36	451.50
537.72	454.47
538.08	457.61
538.44	460.75
538.79	463.99
539.15	467.35
539.51	470.63
539.87	474.13
540.22	477.81
540.58	481.36
540.94	484.98
541.29	488.70
541.65	492.32
542.01	496.40
542.37	500.20
542.72	503.89
543.08	507.79
543.44	511.88
543.79	515.55
544.15	519.69
544.51	523.92
544.87	528.05
545.22	532.24
545.58	536.32
545.94	540.26
546.29	544.37
546.65	548.43
547.01	552.83
547.36	556.74
547.72	560.91
548.07	565.11
548.43	569.34
548.79	573.54
549.14	577.67
549.50	581.87
549.86	585.99
550.21	590.34
550.57	594.68
550.92	598.77
551.28	603.13
551.64	607.50
551.99	611.79
552.35	616.13
552.70	620.46
553.06	624.87
553.41	629.32
553.77	633.78
554.13	638.35
554.48	642.34
554.84	646.78
555.19	650.84
555.55	655.32
555.90	659.58
556.26	664.02
556.61	668.42
556.97	672.46
557.32	676.80
557.68	681.09
558.03	685.27
558.39	689.46
558.74	693.69
559.10	697.84
559.45	701.95
559.81	706.08
560.16	710.23
560.52	714.20
560.87	718.20
561.23	722.17
561.58	726.19
561.94	730.50
562.29	734.42
562.64	738.48
563.00	742.41
563.35	746.34
563.71	750.43
564.06	754.46
564.42	758.25
564.77	762.14
565.12	766.04
565.48	770.05
565.83	773.91
566.19	777.77
566.54	781.24
566.89	784.63
567.25	788.02
567.60	791.76
567.96	795.41
568.31	799.01
568.66	802.33
569.02	805.30
569.37	808.54
569.72	811.81
570.08	814.65
570.43	817.56
570.78	820.60
571.14	823.31
571.49	826.05
571.84	829.27
572.20	831.75
572.55	834.18
572.90	836.45
573.26	839.00
573.61	841.26
573.96	843.48
574.31	845.68
574.67	847.60
575.02	849.34
575.37	851.14
575.72	852.89
576.08	854.69
576.43	856.77
576.78	858.24
577.13	860.07
577.49	861.78
577.84	863.32
578.19	864.65
578.54	865.83
578.90	866.69
579.25	867.30
579.60	868.20
579.95	869.04
580.30	869.84
580.66	870.50
581.01	870.95
581.36	871.63
581.71	872.53
582.06	873.33
582.42	873.82
582.77	874.51
583.12	874.93
583.47	875.60
583.82	876.15
584.17	876.49
584.53	876.89
584.88	877.31
585.23	877.40
585.58	877.66
585.93	877.69
586.28	878.42
586.63	878.90
586.98	879.32
587.34	879.82
587.69	880.04
588.04	880.32
588.39	880.76
588.74	880.77
589.09	880.37
589.44	880.17
589.79	879.83
590.14	879.79
590.49	879.51
590.84	878.93
591.19	878.18
591.54	877.53
591.89	876.37
592.25	875.74
592.60	874.72
592.95	873.73
593.30	872.98
593.65	871.81
594.00	870.79
594.35	870.19
594.70	868.84
595.05	867.76
595.40	866.40
595.75	865.23
596.10	864.37
596.45	863.35
596.80	862.42
597.15	861.61
597.50	860.09
597.85	859.33
598.19	858.33
598.54	857.24
598.89	856.43
599.24	855.68
599.59	854.58
599.94	853.59
600.29	852.46
600.64	851.27
600.99	850.03
601.34	848.67
601.69	846.60
602.04	845.19
602.39	843.64
602.74	842.65
603.08	841.30
603.43	840.20
603.78	839.03
604.13	837.69
604.48	836.29
604.83	834.90
605.18	833.24
605.53	831.37
605.87	829.48
606.22	827.69
606.57	825.66
606.92	823.87
607.27	822.47
607.62	820.78
607.96	819.21
608.31	817.56
608.66	815.56
609.01	813.80
609.36	811.64
609.70	809.43
610.05	806.88
610.40	804.80
610.75	802.28
611.10	799.84
611.44	797.18
611.79	794.81
612.14	792.21
612.49	789.37
612.83	786.84
613.18	784.35
613.53	782.07
613.88	779.52
614.22	776.78
614.57	773.64
614.92	770.89
615.27	768.15
615.61	765.30
615.96	762.85
616.31	760.47
616.65	758.52
617.00	756.39
617.35	754.15
617.70	751.41
618.04	748.68
618.39	746.04
618.74	743.68
619.08	740.80
619.43	738.46
619.78	736.17
620.12	733.76
620.47	731.29
620.82	728.32
621.16	725.76
621.51	723.71
621.85	721.53
622.20	718.94
622.55	716.33
622.89	713.87
623.24	711.66
623.59	709.28
623.93	706.62
624.28	704.20
624.62	701.54
624.97	699.15
625.32	696.71
625.66	694.42
626.01	691.90
626.35	689.59
626.70	687.00
627.04	684.60
627.39	681.95
627.73	679.62
628.08	677.44
628.43	675.01
628.77	672.17
629.12	669.50
629.46	667.09
629.81	664.33
630.15	661.74
630.50	658.80
630.84	655.95
631.19	653.20
631.53	650.21
631.88	647.30
632.22	644.48
632.57	641.92
632.91	639.24
633.26	636.53
633.60	633.87
633.95	631.49
634.29	628.82
634.64	626.62
634.98	624.02
635.32	621.32
635.67	619.13
636.01	616.57
636.36	614.14
636.70	611.80
637.05	609.60
637.39	607.27
637.73	604.95
638.08	602.77
638.42	600.62
638.77	598.50
639.11	596.19
639.45	593.89
639.80	591.39
640.14	589.04
640.49	586.65
640.83	584.37
641.17	581.72
641.52	579.22
641.86	576.67
642.20	574.31
642.55	571.85
642.89	569.37
643.23	567.26
643.58	564.97
643.92	562.55
644.26	560.08
644.61	557.88
644.95	555.57
645.29	552.90
645.64	550.06
645.98	547.60
646.32	545.29
646.66	542.88
647.01	540.58
647.35	538.17
647.69	535.97
648.04	533.76
648.38	531.45
648.72	529.04
649.06	526.58
649.41	524.10
649.75	521.68
650.09	519.23
650.43	516.60
650.78	514.24
651.12	511.72
651.46	509.38
651.80	506.90
652.14	504.58
652.49	502.37
652.83	500.35
653.17	497.93
653.51	495.75
653.85	493.43
654.20	491.19
654.54	488.85
654.88	486.41
655.22	483.73
655.56	481.44
655.90	479.15
656.25	477.11
656.59	474.98
656.93	472.80
657.27	470.67
657.61	468.45
657.95	466.35
658.29	464.39
658.64	462.31
658.98	460.18
659.32	457.82
659.66	455.66
660.00	453.43
660.34	451.33
660.68	449.16
661.02	447.01
661.36	444.89
661.70	443.00
662.05	440.93
662.39	439.28
662.73	437.49
663.07	435.75
663.41	433.81
663.75	431.81
664.09	430.08
664.43	428.12
664.77	426.48
665.11	424.70
665.45	422.88
665.79	421.09
666.13	419.08
666.47	417.27
666.81	415.50
667.15	413.80
667.49	412.33
667.83	410.76
668.17	409.25
668.51	407.58
668.85	405.70
669.19	404.28
669.53	402.64
669.87	400.83
670.21	399.20
670.55	397.60
670.89	396.31
671.23	394.82
671.57	393.45
671.91	391.88
672.25	390.30
672.58	388.82
672.92	387.39
673.26	386.14
673.60	384.95
673.94	383.61
674.28	382.37
674.62	380.91
674.96	379.52
675.30	378.15
675.64	376.83
675.97	375.57
676.31	374.31
676.65	372.98
676.99	371.82
677.33	370.54
677.67	369.13
678.01	367.55
678.34	366.21
678.68	364.90
679.02	363.72
679.36	362.53
679.70	361.35
680.04	360.02
680.37	358.69
680.71	357.41
681.05	356.39
681.39	355.18
681.73	354.00
682.06	352.90
682.40	351.90
682.74	350.81
683.08	349.83
683.42	348.52
683.75	347.52
684.09	346.27
684.43	345.26
684.77	344.28
685.10	343.41
685.44	342.37
685.78	341.23
686.12	339.93
686.45	338.68
686.79	337.59
687.13	336.59
687.46	335.66
687.80	334.65
688.14	333.39
688.48	332.27
688.81	331.17
689.15	330.20
689.49	328.89
689.82	327.95
690.16	326.78
690.50	325.81
690.83	324.64
691.17	323.60
691.51	322.46
691.84	321.60
692.18	320.54
692.52	319.49
692.85	318.50
693.19	317.60
693.52	316.80
693.86	315.88
694.20	314.88
694.53	313.89
694.87	312.82
695.21	311.90
695.54	310.96
695.88	309.98
696.21	308.93
696.55	308.24
696.88	307.28
697.22	306.50
697.56	305.60
697.89	304.85
698.23	304.12
698.56	303.37
698.90	302.33
699.23	301.50
699.57	300.69
699.90	299.73
700.24	298.95
700.58	298.03
700.91	297.27
701.25	296.66
701.58	296.02
701.92	295.39
702.25	294.65
702.59	294.00
702.92	293.44
703.26	292.88
703.59	292.14
703.93	291.60
704.26	290.99
704.60	290.45
704.93	289.82
705.26	289.10
705.60	288.50
705.93	287.95
706.27	287.37
706.60	286.77
706.94	286.35
707.27	285.78
707.61	285.24
707.94	284.60
708.27	283.97
708.61	283.26
708.94	282.75
709.28	282.27
709.61	281.70
709.94	281.18
710.28	280.47
710.61	279.93
710.95	279.17
711.28	278.64
711.61	277.97
711.95	277.38
712.28	276.78
712.61	276.15
712.95	275.69
713.28	275.21
713.61	274.77
713.95	274.19
714.28	273.77
714.61	273.30
714.95	272.78
715.28	272.33
715.61	271.80
715.95	271.29
716.28	270.85
716.61	270.41
716.95	270.05
717.28	269.66
717.61	269.10
717.94	268.71
718.28	268.13
718.61	267.70
718.94	267.20
719.27	266.70
719.61	266.41
719.94	266.05
720.27	265.60
720.60	265.12
720.94	264.81
721.27	264.37
721.60	263.96
721.93	263.61
722.27	263.19
722.60	262.80
722.93	262.32
723.26	261.98
723.59	261.53
723.93	260.99
724.26	260.70
724.59	260.42
724.92	260.12
725.25	259.89
725.59	259.61
725.92	259.32
726.25	259.20
726.58	258.79
726.91	258.35
727.24	257.99
727.57	257.67
727.91	257.31
728.24	256.98
728.57	256.73
728.90	256.41
729.23	256.07
729.56	255.91
729.89	255.70
730.22	255.31
730.55	255.00
730.89	254.81
731.22	254.38
731.55	254.10
731.88	253.72
732.21	253.32
732.54	252.93
732.87	252.63
733.20	252.33
733.53	252.11
733.86	251.82
734.19	251.66
734.52	251.53
734.85	251.41
735.18	251.12
735.51	250.97
735.84	250.71
736.17	250.62
736.50	250.37
736.83	250.27
737.16	250.13
737.49	249.87
737.82	249.54
738.15	249.49
738.48	249.29
738.81	249.11
739.14	248.89
739.47	248.81
739.80	248.66
740.13	248.41
740.46	248.21
740.79	248.04
741.12	247.63
741.45	247.24
741.78	246.96
742.11	246.82
742.44	246.55
742.77	246.45
743.10	246.10
743.43	245.84
743.75	245.65
744.08	245.70
744.41	245.60
744.74	245.53
745.07	245.21
745.40	245.04
745.73	244.99
746.06	244.86
746.39	244.78
746.71	244.67
747.04	244.62
747.37	244.36
747.70	244.25
748.03	244.36
748.36	244.41
748.68	244.30
749.01	244.12
749.34	244.02
749.67	243.84
750.00	243.75
750.33	243.75
750.65	243.62
750.98	243.20
751.31	243.02
751.64	242.94
751.97	243.00
752.29	242.89
752.62	242.65
752.95	242.55
753.28	242.43
753.60	242.30
753.93	242.20
754.26	242.18
754.59	242.09
754.91	241.91
755.24	241.70
755.57	241.53
755.90	241.48
756.22	241.28
756.55	241.12
756.88	241.01
757.20	240.69
757.53	240.44
757.86	240.36
758.19	240.35
758.51	240.17
758.84	239.97
759.17	239.85
759.49	239.74
759.82	239.73
760.15	239.59
760.47	239.43
760.80	239.35
761.13	239.31
761.45	239.14
761.78	238.95
762.11	238.91
762.43	238.89
762.76	238.73
763.08	238.72
763.41	238.68
763.74	238.58
764.06	238.55
764.39	238.50
764.71	238.32
765.04	238.22
765.37	238.06
765.69	237.92
766.02	237.77
766.34	237.56
766.67	237.34
767.00	237.18
767.32	237.15
767.65	236.99
767.97	236.81
768.30	236.71
768.62	236.60
768.95	236.51
769.27	236.30
769.60	236.23
769.92	236.09
770.25	236.01
770.57	235.87
770.90	235.77
771.22	235.63
771.55	235.66
771.87	235.49
772.20	235.46
772.52	235.56
772.85	235.72
773.17	235.80
773.50	235.71
773.82	235.60
774.15	235.43
774.47	235.21
774.80	235.05
775.12	234.92
775.45	234.98
775.77	234.83
776.09	234.73
776.42	234.56
776.74	234.50
777.07	234.34
777.39	234.20
777.72	234.01
778.04	233.93
778.36	233.80
778.69	233.68
779.01	233.51
779.33	233.18
779.66	232.92
779.98	232.78
780.31	232.63
780.63	232.64
780.95	232.57
781.28	232.58
781.60	232.43
781.92	232.40
782.25	232.18
782.57	232.04
782.89	231.92
783.22	231.97
783.54	231.80
783.86	231.69
784.19	231.70
784.51	231.71
784.83	231.64
785.16	231.55
785.48	231.50
785.80	231.56
786.12	231.61
786.45	231.58
786.77	231.62
787.09	231.67
787.42	231.50
787.74	231.46
788.06	231.45
788.38	231.51
788.71	231.52
789.03	231.59
789.35	231.74
789.67	231.72
789.99	231.75
790.32	231.84
790.64	231.92
790.96	232.04
791.28	231.99
791.61	232.03
791.93	232.10
792.25	232.10
792.57	232.15
792.89	232.10
793.21	232.12
793.54	232.06
793.86	231.96
794.18	232.07
