SpectraSuite Data File
++++++++++++++++++++++++++++++++++++
Date: Fri Feb 01 14:41:51 EST 2013
User: group
Dark Spectrum Present: No
Reference Spectrum Present: No
Number of Sampled Component Spectra: 1
Spectrometers: USB2E7196
Integration Time (usec): 70000 (USB2E7196)
Spectra Averaged: 10 (USB2E7196)
Boxcar Smoothing: 10 (USB2E7196)
Correct for Electrical Dark: No (USB2E7196)
Strobe/Lamp Enabled: No (USB2E7196)
Correct for Detector Non-linearity: No (USB2E7196)
Correct for Stray Light: No (USB2E7196)
Number of Pixels in Processed Spectrum: 2048
>>>>>Begin Processed Spectral Data<<<<<
339.09	0.00
339.48	216.50
339.86	217.70
340.24	220.60
340.63	219.90
341.01	224.50
341.39	224.00
341.78	225.20
342.16	227.60
342.54	225.60
342.93	215.10
343.31	225.97
343.69	226.58
344.07	227.08
344.46	227.45
344.84	227.86
345.22	228.10
345.60	228.40
345.99	228.60
346.37	228.65
346.75	228.79
347.13	228.87
347.52	228.98
347.90	229.17
348.28	229.32
348.66	229.33
349.05	229.43
349.43	229.52
349.81	229.56
350.19	229.50
350.57	229.47
350.96	229.45
351.34	229.59
351.72	229.56
352.10	229.58
352.48	229.70
352.87	229.81
353.25	229.82
353.63	229.74
354.01	229.71
354.39	229.81
354.77	229.90
355.15	230.04
355.54	230.15
355.92	230.16
356.30	230.20
356.68	230.40
357.06	230.42
357.44	230.41
357.82	230.41
358.20	230.54
358.58	230.59
358.97	230.80
359.35	230.79
359.73	230.96
360.11	231.08
360.49	231.08
360.87	231.07
361.25	231.19
361.63	231.35
362.01	231.55
362.39	231.55
362.77	231.54
363.15	231.57
363.53	231.43
363.91	231.48
364.29	231.42
364.67	231.21
365.05	231.17
365.43	231.20
365.81	231.25
366.19	231.35
366.57	231.40
366.95	231.33
367.33	231.28
367.71	231.23
368.09	231.19
368.47	231.14
368.85	231.12
369.23	231.23
369.61	231.01
369.99	231.05
370.37	231.02
370.75	231.15
371.13	231.01
371.51	230.96
371.89	230.93
372.27	230.87
372.65	230.87
373.03	230.84
373.41	230.71
373.78	230.60
374.16	230.43
374.54	230.32
374.92	230.22
375.30	230.20
375.68	230.08
376.06	230.03
376.44	229.97
376.82	229.81
377.19	229.50
377.57	229.49
377.95	229.12
378.33	229.01
378.71	228.75
379.09	228.65
379.47	228.61
379.84	228.43
380.22	228.44
380.60	228.31
380.98	228.18
381.36	228.22
381.73	228.21
382.11	228.16
382.49	228.12
382.87	227.95
383.25	227.96
383.62	228.11
384.00	228.00
384.38	227.92
384.76	228.00
385.13	228.09
385.51	228.09
385.89	228.14
386.27	228.14
386.64	228.05
387.02	227.99
387.40	228.08
387.78	228.06
388.15	228.00
388.53	227.98
388.91	227.90
389.29	227.79
389.66	227.81
390.04	227.80
390.42	227.81
390.79	227.88
391.17	227.80
391.55	227.55
391.92	227.69
392.30	227.68
392.68	227.64
393.05	227.59
393.43	227.65
393.81	227.68
394.18	227.64
394.56	227.80
394.94	227.88
395.31	227.84
395.69	228.02
396.06	228.14
396.44	228.26
396.82	228.29
397.19	228.48
397.57	228.55
397.95	228.58
398.32	228.59
398.70	228.74
399.07	228.81
399.45	229.00
399.82	229.09
400.20	229.25
400.58	229.33
400.95	229.43
401.33	229.60
401.70	229.93
402.08	230.15
402.45	230.37
402.83	230.57
403.20	230.66
403.58	230.65
403.95	230.85
404.33	231.00
404.71	231.20
405.08	231.51
405.46	231.67
405.83	231.91
406.21	232.13
406.58	232.36
406.96	232.68
407.33	232.90
407.70	233.07
408.08	233.50
408.45	233.84
408.83	234.30
409.20	234.52
409.58	234.70
409.95	235.05
410.33	235.30
410.70	235.55
411.08	236.09
411.45	236.57
411.82	236.84
412.20	237.33
412.57	237.95
412.95	238.22
413.32	238.84
413.69	239.40
414.07	240.04
414.44	240.70
414.82	241.31
415.19	242.05
415.56	242.85
415.94	243.61
416.31	244.50
416.68	245.27
417.06	246.28
417.43	247.24
417.81	248.37
418.18	249.45
418.55	250.78
418.93	251.92
419.30	253.24
419.67	254.73
420.04	256.03
420.42	257.50
420.79	259.21
421.16	260.76
421.54	262.52
421.91	264.20
422.28	265.88
422.66	267.85
423.03	269.80
423.40	271.77
423.77	273.78
424.15	275.79
424.52	277.92
424.89	280.29
425.26	282.55
425.64	284.56
426.01	286.82
426.38	289.12
426.75	291.56
427.13	294.03
427.50	296.57
427.87	299.35
428.24	301.89
428.61	304.42
428.99	307.39
429.36	310.37
429.73	313.39
430.10	316.43
430.47	319.34
430.85	322.40
431.22	325.63
431.59	329.02
431.96	332.41
432.33	335.95
432.70	339.19
433.08	343.19
433.45	347.04
433.82	350.93
434.19	355.14
434.56	359.27
434.93	363.12
435.30	366.99
435.68	371.22
436.05	375.41
436.42	379.49
436.79	383.08
437.16	387.01
437.53	390.97
437.90	394.88
438.27	398.87
438.64	402.87
439.01	406.49
439.38	409.60
439.75	412.56
440.13	416.13
440.50	419.62
440.87	422.35
441.24	425.04
441.61	427.99
441.98	430.10
442.35	432.53
442.72	435.18
443.09	437.69
443.46	438.94
443.83	439.72
444.20	440.43
444.57	441.40
444.94	441.83
445.31	442.37
445.68	443.05
446.05	443.12
446.42	442.51
446.79	441.90
447.16	441.16
447.53	440.60
447.90	438.92
448.27	437.21
448.64	434.93
449.01	433.41
449.37	430.68
449.74	427.87
450.11	424.70
450.48	421.07
450.85	417.33
451.22	414.13
451.59	411.25
451.96	408.34
452.33	404.56
452.70	401.08
453.07	397.02
453.43	392.65
453.80	388.68
454.17	384.80
454.54	381.10
454.91	377.22
455.28	373.52
455.65	370.06
456.02	366.64
456.38	363.50
456.75	359.51
457.12	356.17
457.49	352.96
457.86	349.80
458.23	346.98
458.59	343.95
458.96	341.10
459.33	338.29
459.70	335.54
460.07	333.45
460.43	331.05
460.80	328.69
461.17	326.68
461.54	324.49
461.91	322.44
462.27	320.38
462.64	318.67
463.01	316.66
463.38	314.70
463.74	312.57
464.11	310.80
464.48	309.40
464.85	307.73
465.21	306.42
465.58	305.02
465.95	303.53
466.32	302.34
466.68	300.98
467.05	299.68
467.42	298.44
467.78	296.99
468.15	295.44
468.52	294.42
468.88	293.16
469.25	291.87
469.62	290.84
469.98	289.76
470.35	288.78
470.72	287.76
471.08	286.62
471.45	285.72
471.82	284.85
472.18	283.99
472.55	283.33
472.92	282.52
473.28	281.65
473.65	280.95
474.02	280.24
474.38	279.62
474.75	279.13
475.11	278.53
475.48	278.05
475.85	277.76
476.21	277.29
476.58	276.92
476.94	276.59
477.31	276.20
477.67	276.02
478.04	275.63
478.41	275.54
478.77	275.66
479.14	275.62
479.50	275.51
479.87	275.40
480.23	275.35
480.60	275.31
480.96	275.39
481.33	275.56
481.69	275.63
482.06	275.71
482.42	275.88
482.79	275.99
483.15	276.26
483.52	276.53
483.88	276.93
484.25	277.25
484.61	277.79
484.98	278.43
485.34	278.88
485.71	279.51
486.07	280.09
486.44	280.55
486.80	281.14
487.17	281.81
487.53	282.61
487.90	283.63
488.26	284.75
488.62	285.87
488.99	286.98
489.35	288.20
489.72	289.51
490.08	290.80
490.44	292.20
490.81	293.82
491.17	295.37
491.54	296.99
491.90	298.76
492.26	300.67
492.63	302.56
492.99	304.65
493.36	307.00
493.72	309.40
494.08	311.78
494.45	314.51
494.81	317.53
495.17	320.51
495.54	323.53
495.90	326.73
496.26	330.26
496.63	333.82
496.99	337.58
497.35	341.52
497.72	345.75
498.08	350.25
498.44	354.94
498.80	359.88
499.17	365.03
499.53	370.27
499.89	375.75
500.26	381.34
500.62	387.14
500.98	393.38
501.34	399.71
501.71	406.50
502.07	413.32
502.43	420.44
502.79	427.66
503.16	435.28
503.52	443.10
503.88	451.07
504.24	459.67
504.60	468.41
504.97	477.67
505.33	486.92
505.69	497.01
506.05	507.12
506.41	517.21
506.78	527.47
507.14	538.37
507.50	549.78
507.86	561.45
508.22	573.40
508.59	585.30
508.95	597.98
509.31	610.79
509.67	624.07
510.03	637.44
510.39	651.50
510.75	665.65
511.12	680.15
511.48	695.24
511.84	710.38
512.20	725.93
512.56	741.82
512.92	758.21
513.28	774.48
513.64	791.08
514.00	808.26
514.37	826.10
514.73	843.96
515.09	861.40
515.45	879.62
515.81	898.14
516.17	917.20
516.53	936.33
516.89	955.56
517.25	974.94
517.61	994.80
517.97	1014.66
518.33	1034.60
518.69	1054.97
519.05	1075.71
519.41	1096.71
519.77	1118.00
520.13	1139.67
520.49	1161.08
520.85	1182.49
521.21	1204.10
521.57	1226.30
521.93	1248.00
522.29	1270.41
522.65	1292.86
523.01	1314.87
523.37	1337.20
523.73	1359.94
524.09	1382.38
524.45	1405.30
524.81	1428.47
525.17	1451.86
525.53	1475.43
525.89	1499.16
526.25	1522.99
526.61	1545.67
526.97	1569.52
527.33	1592.60
527.68	1615.69
528.04	1639.09
528.40	1662.77
528.76	1687.19
529.12	1710.92
529.48	1734.63
529.84	1757.86
530.20	1781.65
530.56	1806.60
530.91	1831.40
531.27	1855.29
531.63	1878.92
531.99	1902.84
532.35	1926.16
532.71	1949.05
533.07	1972.48
533.42	1995.67
533.78	2018.35
534.14	2041.72
534.50	2063.41
534.86	2086.23
535.21	2108.08
535.57	2131.17
535.93	2153.59
536.29	2175.28
536.65	2197.15
537.00	2218.89
537.36	2240.69
537.72	2261.86
538.08	2281.73
538.44	2301.66
538.79	2322.08
539.15	2341.89
539.51	2362.47
539.87	2383.05
540.22	2403.00
540.58	2422.93
540.94	2442.43
541.29	2461.66
541.65	2480.74
542.01	2500.54
542.37	2519.62
542.72	2538.16
543.08	2555.91
543.44	2573.79
543.79	2590.23
544.15	2607.25
544.51	2625.17
544.87	2641.97
545.22	2658.72
545.58	2675.34
545.94	2690.05
546.29	2705.20
546.65	2720.62
547.01	2734.45
547.36	2748.55
547.72	2762.22
548.07	2775.32
548.43	2788.44
548.79	2801.09
549.14	2813.20
549.50	2824.35
549.86	2835.68
550.21	2846.94
550.57	2857.54
550.92	2868.40
551.28	2879.43
551.64	2889.93
551.99	2899.83
552.35	2909.39
552.70	2919.17
553.06	2929.46
553.41	2940.52
553.77	2950.39
554.13	2959.79
554.48	2969.67
554.84	2978.32
555.19	2987.34
555.55	2995.68
555.90	3003.38
556.26	3011.89
556.61	3020.07
556.97	3027.98
557.32	3035.41
557.68	3043.29
558.03	3051.24
558.39	3057.79
558.74	3065.50
559.10	3072.03
559.45	3078.43
559.81	3086.01
560.16	3091.97
560.52	3096.54
560.87	3102.05
561.23	3106.36
561.58	3111.67
561.94	3115.79
562.29	3119.52
562.64	3123.15
563.00	3127.10
563.35	3132.10
563.71	3136.98
564.06	3141.65
564.42	3145.75
564.77	3149.94
565.12	3154.10
565.48	3157.47
565.83	3160.70
566.19	3163.25
566.54	3165.27
566.89	3166.80
567.25	3168.12
567.60	3171.01
567.96	3173.28
568.31	3174.11
568.66	3175.78
569.02	3177.07
569.37	3177.30
569.72	3178.52
570.08	3179.15
570.43	3179.94
570.78	3179.57
571.14	3177.97
571.49	3176.46
571.84	3176.22
572.20	3173.77
572.55	3171.41
572.90	3168.22
573.26	3166.29
573.61	3164.09
573.96	3161.70
574.31	3158.05
574.67	3153.54
575.02	3148.42
575.37	3144.90
575.72	3139.91
576.08	3136.07
576.43	3130.82
576.78	3126.58
577.13	3122.24
577.49	3117.99
577.84	3112.44
578.19	3106.74
578.54	3101.14
578.90	3095.42
579.25	3088.14
579.60	3082.75
579.95	3076.01
580.30	3069.20
580.66	3061.85
581.01	3054.44
581.36	3047.99
581.71	3042.77
582.06	3036.12
582.42	3029.14
582.77	3021.29
583.12	3014.38
583.47	3007.23
583.82	3001.23
584.17	2993.72
584.53	2986.26
584.88	2978.82
585.23	2971.38
585.58	2964.47
585.93	2957.22
586.28	2950.62
586.63	2944.02
586.98	2936.30
587.34	2929.14
587.69	2921.94
588.04	2914.65
588.39	2907.20
588.74	2897.81
589.09	2888.39
589.44	2879.96
589.79	2872.12
590.14	2864.75
590.49	2856.98
590.84	2847.61
591.19	2838.40
591.54	2828.64
591.89	2818.09
592.25	2808.61
592.60	2798.14
592.95	2787.30
593.30	2776.65
593.65	2765.54
594.00	2755.00
594.35	2745.57
594.70	2734.59
595.05	2725.07
595.40	2714.60
595.75	2704.02
596.10	2695.32
596.45	2686.31
596.80	2677.57
597.15	2668.34
597.50	2658.14
597.85	2648.67
598.19	2639.54
598.54	2630.10
598.89	2621.53
599.24	2613.38
599.59	2604.00
599.94	2595.45
600.29	2586.69
600.64	2577.89
600.99	2567.87
601.34	2558.49
601.69	2548.40
602.04	2539.57
602.39	2529.88
602.74	2521.28
603.08	2512.15
603.43	2502.58
603.78	2492.83
604.13	2482.84
604.48	2472.29
604.83	2462.33
605.18	2452.55
605.53	2441.28
605.87	2429.45
606.22	2419.10
606.57	2408.19
606.92	2397.61
607.27	2387.80
607.62	2377.99
607.96	2367.82
608.31	2358.10
608.66	2347.40
609.01	2336.02
609.36	2324.60
609.70	2312.62
610.05	2300.31
610.40	2289.12
610.75	2277.83
611.10	2265.88
611.44	2253.51
611.79	2242.52
612.14	2231.01
612.49	2217.87
612.83	2206.77
613.18	2195.88
613.53	2184.41
613.88	2172.73
614.22	2160.58
614.57	2147.78
614.92	2135.66
615.27	2123.84
615.61	2112.31
615.96	2100.70
616.31	2090.21
616.65	2080.09
617.00	2069.54
617.35	2058.83
617.70	2047.16
618.04	2035.70
618.39	2024.92
618.74	2014.70
619.08	2003.08
619.43	1991.99
619.78	1982.23
620.12	1971.57
620.47	1961.26
620.82	1950.16
621.16	1939.59
621.51	1929.34
621.85	1918.83
622.20	1907.77
622.55	1897.30
622.89	1886.64
623.24	1876.23
623.59	1865.30
623.93	1854.71
624.28	1844.42
624.62	1833.83
624.97	1823.71
625.32	1813.36
625.66	1803.25
626.01	1792.90
626.35	1782.77
626.70	1772.18
627.04	1761.97
627.39	1751.54
627.73	1740.40
628.08	1730.13
628.43	1719.71
628.77	1709.63
629.12	1698.91
629.46	1688.67
629.81	1677.33
630.15	1666.37
630.50	1655.58
630.84	1644.89
631.19	1633.56
631.53	1622.57
631.88	1611.84
632.22	1600.92
632.57	1590.92
632.91	1580.03
633.26	1569.07
633.60	1558.28
633.95	1547.97
634.29	1537.62
634.64	1527.83
634.98	1517.77
635.32	1508.19
635.67	1498.75
636.01	1489.07
636.36	1479.57
636.70	1470.16
637.05	1461.40
637.39	1452.57
637.73	1443.15
638.08	1434.56
638.42	1426.19
638.77	1417.52
639.11	1408.12
639.45	1399.08
639.80	1389.52
640.14	1380.56
640.49	1371.31
640.83	1362.44
641.17	1353.30
641.52	1344.29
641.86	1334.78
642.20	1325.91
642.55	1316.72
642.89	1307.45
643.23	1298.10
643.58	1289.83
643.92	1280.60
644.26	1271.19
644.61	1262.16
644.95	1253.54
645.29	1243.51
645.64	1233.52
645.98	1224.72
646.32	1216.42
646.66	1207.70
647.01	1198.89
647.35	1190.17
647.69	1181.72
648.04	1173.39
648.38	1164.72
648.72	1155.70
649.06	1146.69
649.41	1138.32
649.75	1129.29
650.09	1120.40
650.43	1111.52
650.78	1102.20
651.12	1093.48
651.46	1085.24
651.80	1077.22
652.14	1069.04
652.49	1061.27
652.83	1053.76
653.17	1044.93
653.51	1036.47
653.85	1028.27
654.20	1019.90
654.54	1011.30
654.88	1003.03
655.22	994.44
655.56	986.17
655.90	978.47
656.25	970.96
656.59	963.11
656.93	955.80
657.27	948.65
657.61	941.11
657.95	934.11
658.29	926.85
658.64	919.41
658.98	911.45
659.32	903.71
659.66	896.33
660.00	888.84
660.34	881.65
660.68	874.56
661.02	867.25
661.36	860.59
661.70	854.16
662.05	847.82
662.39	841.19
662.73	834.92
663.07	828.46
663.41	822.43
663.75	816.23
664.09	809.74
664.43	803.19
664.77	797.13
665.11	790.98
665.45	785.18
665.79	779.41
666.13	773.63
666.47	767.87
666.81	761.76
667.15	755.67
667.49	750.26
667.83	744.81
668.17	739.40
668.51	733.51
668.85	727.91
669.19	722.46
669.53	717.26
669.87	711.71
670.21	706.48
670.55	700.97
670.89	696.00
671.23	691.20
671.57	686.20
671.91	681.31
672.25	676.26
672.58	671.02
672.92	666.15
673.26	661.40
673.60	656.86
673.94	652.69
674.28	648.35
674.62	644.15
674.96	639.65
675.30	635.31
675.64	631.22
675.97	627.04
676.31	622.88
676.65	618.68
676.99	615.00
677.33	610.78
677.67	606.78
678.01	602.37
678.34	598.17
678.68	594.12
679.02	589.95
679.36	585.94
679.70	582.15
680.04	578.09
680.37	574.10
680.71	570.20
681.05	566.52
681.39	562.79
681.73	558.94
682.06	555.44
682.40	552.02
682.74	548.50
683.08	545.09
683.42	541.32
683.75	537.99
684.09	534.26
684.43	530.71
684.77	527.21
685.10	523.91
685.44	520.54
685.78	517.46
686.12	514.33
686.45	511.14
686.79	507.95
687.13	504.88
687.46	501.92
687.80	498.84
688.14	495.36
688.48	492.54
688.81	489.44
689.15	486.43
689.49	483.31
689.82	480.43
690.16	477.24
690.50	474.44
690.83	471.29
691.17	468.30
691.51	465.58
691.84	462.97
692.18	460.13
692.52	457.23
692.85	454.28
693.19	451.46
693.52	448.68
693.86	445.92
694.20	443.27
694.53	440.49
694.87	437.65
695.21	435.04
695.54	432.27
695.88	429.76
696.21	427.05
696.55	424.57
696.88	422.05
697.22	419.75
697.56	417.21
697.89	414.81
698.23	412.43
698.56	410.16
698.90	407.79
699.23	405.54
699.57	403.35
699.90	401.18
700.24	398.87
700.58	396.66
700.91	394.51
701.25	392.57
701.58	390.60
701.92	388.62
702.25	386.71
702.59	384.81
702.92	382.85
703.26	381.01
703.59	379.14
703.93	377.33
704.26	375.38
704.60	373.58
704.93	371.73
705.26	369.97
705.60	368.32
705.93	366.58
706.27	364.99
706.60	363.41
706.94	361.82
707.27	360.28
707.61	358.72
707.94	357.30
708.27	355.58
708.61	353.98
708.94	352.55
709.28	351.20
709.61	349.85
709.94	348.52
710.28	347.15
710.61	345.79
710.95	344.29
711.28	342.96
711.61	341.64
711.95	340.39
712.28	339.06
712.61	337.50
712.95	336.16
713.28	334.83
713.61	333.51
713.95	332.07
714.28	330.87
714.61	329.74
714.95	328.52
715.28	327.32
715.61	326.09
715.95	325.01
716.28	323.88
716.61	322.69
716.95	321.50
717.28	320.39
717.61	319.25
717.94	318.21
718.28	317.15
718.61	316.32
718.94	315.26
719.27	314.44
719.61	313.67
719.94	312.80
720.27	311.67
720.60	310.70
720.94	309.91
721.27	309.05
721.60	308.18
721.93	307.39
722.27	306.52
722.60	305.72
722.93	304.66
723.26	303.85
723.59	303.04
723.93	302.18
724.26	301.40
724.59	300.57
724.92	299.67
725.25	298.94
725.59	298.04
725.92	297.37
726.25	296.53
726.58	295.68
726.91	294.94
727.24	294.26
727.57	293.52
727.91	292.71
728.24	291.94
728.57	291.23
728.90	290.40
729.23	289.64
729.56	289.04
729.89	288.41
730.22	287.69
730.55	286.80
730.89	286.19
731.22	285.53
731.55	284.99
731.88	284.37
732.21	283.60
732.54	282.94
732.87	282.31
733.20	281.65
733.53	280.97
733.86	280.40
734.19	279.70
734.52	279.15
734.85	278.64
735.18	278.09
735.51	277.45
735.84	276.91
736.17	276.44
736.50	275.76
736.83	275.55
737.16	274.87
737.49	274.42
737.82	273.81
738.15	273.25
738.48	272.64
738.81	272.18
739.14	271.70
739.47	271.09
739.80	270.54
740.13	270.07
740.46	269.53
740.79	268.90
741.12	268.49
741.45	267.97
741.78	267.56
742.11	267.00
742.44	266.60
742.77	266.13
743.10	265.64
743.43	265.15
743.75	264.44
744.08	264.22
744.41	263.90
744.74	263.54
745.07	263.10
745.40	262.70
745.73	262.23
746.06	261.82
746.39	261.48
746.71	261.03
747.04	260.65
747.37	260.32
747.70	259.91
748.03	259.49
748.36	259.21
748.68	258.71
749.01	258.37
749.34	257.88
749.67	257.48
750.00	257.12
750.33	256.92
750.65	256.60
750.98	256.15
751.31	255.66
751.64	255.33
751.97	255.05
752.29	254.75
752.62	254.28
752.95	253.90
753.28	253.54
753.60	253.41
753.93	253.18
754.26	253.02
754.59	252.86
754.91	252.62
755.24	252.33
755.57	252.21
755.90	251.96
756.22	251.82
756.55	251.62
756.88	251.42
757.20	251.05
757.53	250.70
757.86	250.36
758.19	250.13
758.51	249.80
758.84	249.59
759.17	249.35
759.49	249.19
759.82	249.18
760.15	248.99
760.47	248.68
760.80	248.39
761.13	248.09
761.45	247.81
761.78	247.70
762.11	247.34
762.43	247.06
762.76	246.83
763.08	246.66
763.41	246.49
763.74	246.30
764.06	246.11
764.39	245.93
764.71	245.81
765.04	245.74
765.37	245.60
765.69	245.33
766.02	245.09
766.34	244.93
766.67	244.65
767.00	244.49
767.32	244.35
767.65	244.12
767.97	243.93
768.30	243.82
768.62	243.60
768.95	243.56
769.27	243.30
769.60	243.14
769.92	242.89
770.25	242.64
770.57	242.29
770.90	242.04
771.22	241.83
771.55	241.62
771.87	241.43
772.20	241.24
772.52	241.16
772.85	241.21
773.17	241.03
773.50	240.80
773.82	240.59
774.15	240.37
774.47	240.14
774.80	240.00
775.12	239.69
775.45	239.47
775.77	239.29
776.09	239.18
776.42	239.05
776.74	238.88
777.07	238.65
777.39	238.49
777.72	238.39
778.04	238.34
778.36	238.15
778.69	237.95
779.01	237.91
779.33	237.64
779.66	237.25
779.98	237.18
780.31	237.04
780.63	237.03
780.95	237.02
781.28	237.07
781.60	236.86
781.92	236.75
782.25	236.57
782.57	236.43
782.89	236.31
783.22	236.20
783.54	236.04
783.86	235.98
784.19	235.86
784.51	235.70
784.83	235.67
785.16	235.55
785.48	235.51
785.80	235.36
