SpectraSuite Data File
++++++++++++++++++++++++++++++++++++
Date: Fri Feb 01 14:37:09 EST 2013
User: group
Dark Spectrum Present: No
Reference Spectrum Present: No
Number of Sampled Component Spectra: 1
Spectrometers: USB2E7196
Integration Time (usec): 70000 (USB2E7196)
Spectra Averaged: 10 (USB2E7196)
Boxcar Smoothing: 10 (USB2E7196)
Correct for Electrical Dark: No (USB2E7196)
Strobe/Lamp Enabled: No (USB2E7196)
Correct for Detector Non-linearity: No (USB2E7196)
Correct for Stray Light: No (USB2E7196)
Number of Pixels in Processed Spectrum: 2048
>>>>>Begin Processed Spectral Data<<<<<
339.09	0.00
339.48	218.30
339.86	218.80
340.24	219.10
340.63	219.80
341.01	224.40
341.39	224.10
341.78	222.50
342.16	225.30
342.54	226.90
342.93	214.79
343.31	225.66
343.69	226.22
344.07	226.62
344.46	227.09
344.84	227.47
345.22	227.60
345.60	227.81
345.99	228.09
346.37	228.27
346.75	228.31
347.13	228.43
347.52	228.45
347.90	228.55
348.28	228.50
348.66	228.64
349.05	228.56
349.43	228.63
349.81	228.73
350.19	228.81
350.57	228.81
350.96	228.94
351.34	228.99
351.72	228.94
352.10	229.06
352.48	229.13
352.87	229.21
353.25	229.29
353.63	229.29
354.01	229.35
354.39	229.40
354.77	229.52
355.15	229.66
355.54	229.64
355.92	229.72
356.30	229.85
356.68	229.88
357.06	230.08
357.44	230.11
357.82	230.09
358.20	230.09
358.58	230.13
358.97	230.12
359.35	230.24
359.73	230.32
360.11	230.40
360.49	230.38
360.87	230.36
361.25	230.54
361.63	230.61
362.01	230.68
362.39	230.69
362.77	230.70
363.15	230.71
363.53	230.75
363.91	230.71
364.29	230.73
364.67	230.58
365.05	230.47
365.43	230.44
365.81	230.45
366.19	230.48
366.57	230.62
366.95	230.65
367.33	230.53
367.71	230.46
368.09	230.40
368.47	230.36
368.85	230.34
369.23	230.20
369.61	230.20
369.99	230.11
370.37	230.02
370.75	230.12
371.13	229.90
371.51	229.83
371.89	229.68
372.27	229.62
372.65	229.61
373.03	229.49
373.41	229.47
373.78	229.32
374.16	229.21
374.54	229.00
374.92	228.91
375.30	228.74
375.68	228.67
376.06	228.63
376.44	228.53
376.82	228.46
377.19	228.36
377.57	228.17
377.95	228.08
378.33	227.96
378.71	227.69
379.09	227.68
379.47	227.66
379.84	227.49
380.22	227.28
380.60	227.18
380.98	227.12
381.36	227.05
381.73	226.98
382.11	226.82
382.49	226.72
382.87	226.64
383.25	226.73
383.62	226.81
384.00	226.72
384.38	226.68
384.76	226.65
385.13	226.65
385.51	226.59
385.89	226.53
386.27	226.53
386.64	226.49
387.02	226.48
387.40	226.48
387.78	226.63
388.15	226.70
388.53	226.60
388.91	226.60
389.29	226.70
389.66	226.72
390.04	226.83
390.42	226.85
390.79	226.86
391.17	226.75
391.55	226.62
391.92	226.55
392.30	226.63
392.68	226.62
393.05	226.73
393.43	226.89
393.81	226.90
394.18	226.91
394.56	227.01
394.94	227.13
395.31	227.11
395.69	227.10
396.06	227.10
396.44	227.30
396.82	227.37
397.19	227.37
397.57	227.40
397.95	227.51
398.32	227.57
398.70	227.71
399.07	227.89
399.45	227.93
399.82	228.06
400.20	228.13
400.58	228.30
400.95	228.25
401.33	228.41
401.70	228.65
402.08	228.87
402.45	229.00
402.83	229.14
403.20	229.23
403.58	229.48
403.95	229.67
404.33	229.79
404.71	229.98
405.08	230.32
405.46	230.53
405.83	230.73
406.21	231.00
406.58	231.20
406.96	231.37
407.33	231.67
407.70	231.99
408.08	232.40
408.45	232.70
408.83	233.11
409.20	233.36
409.58	233.63
409.95	233.91
410.33	234.26
410.70	234.56
411.08	235.10
411.45	235.47
411.82	236.05
412.20	236.66
412.57	237.32
412.95	237.67
413.32	238.43
413.69	239.05
414.07	239.80
414.44	240.49
414.82	241.30
415.19	242.27
415.56	243.23
415.94	244.12
416.31	245.26
416.68	246.30
417.06	247.59
417.43	248.90
417.81	250.34
418.18	251.77
418.55	253.33
418.93	254.80
419.30	256.47
419.67	258.10
420.04	259.75
420.42	261.49
420.79	263.61
421.16	265.58
421.54	267.71
421.91	269.88
422.28	272.31
422.66	274.75
423.03	277.10
423.40	279.43
423.77	282.12
424.15	284.67
424.52	287.49
424.89	290.45
425.26	293.27
425.64	296.02
426.01	299.11
426.38	302.18
426.75	305.59
427.13	308.89
427.50	312.43
427.87	316.04
428.24	319.66
428.61	323.21
428.99	327.25
429.36	331.55
429.73	335.71
430.10	339.66
430.47	343.80
430.85	348.08
431.22	352.57
431.59	357.30
431.96	361.91
432.33	367.04
432.70	371.90
433.08	377.50
433.45	382.82
433.82	388.01
434.19	393.96
434.56	399.66
434.93	405.18
435.30	410.67
435.68	416.82
436.05	422.78
436.42	428.77
436.79	434.15
437.16	439.90
437.53	445.99
437.90	452.16
438.27	458.30
438.64	464.54
439.01	470.45
439.38	475.44
439.75	480.32
440.13	485.77
440.50	491.21
440.87	495.89
441.24	500.63
441.61	505.87
441.98	509.79
442.35	514.38
442.72	519.03
443.09	523.57
443.46	526.57
443.83	528.45
444.20	530.30
444.57	532.70
444.94	534.07
445.31	535.50
445.68	537.00
446.05	537.90
446.42	537.98
446.79	537.77
447.16	537.89
447.53	538.17
447.90	536.72
448.27	535.01
448.64	532.35
449.01	530.66
449.37	527.14
449.74	523.83
450.11	519.64
450.48	514.96
450.85	510.21
451.22	506.18
451.59	502.55
451.96	498.90
452.33	493.93
452.70	489.64
453.07	484.24
453.43	478.51
453.80	473.13
454.17	467.75
454.54	462.78
454.91	457.34
455.28	451.85
455.65	446.84
456.02	441.93
456.38	437.70
456.75	432.30
457.12	428.02
457.49	423.57
457.86	419.29
458.23	415.71
458.59	411.52
458.96	407.26
459.33	403.60
459.70	399.94
460.07	396.80
460.43	393.20
460.80	389.90
461.17	387.11
461.54	384.00
461.91	381.08
462.27	378.13
462.64	375.45
463.01	372.73
463.38	370.10
463.74	367.18
464.11	364.76
464.48	362.58
464.85	360.09
465.21	358.23
465.58	356.21
465.95	353.70
466.32	351.80
466.68	349.82
467.05	347.80
467.42	345.65
467.78	343.64
468.15	341.62
468.52	340.21
468.88	338.34
469.25	336.61
469.62	335.16
469.98	333.78
470.35	332.44
470.72	331.15
471.08	329.76
471.45	328.53
471.82	327.05
472.18	325.60
472.55	324.39
472.92	323.12
473.28	321.88
473.65	320.86
474.02	319.69
474.38	318.75
474.75	318.01
475.11	317.17
475.48	316.47
475.85	315.78
476.21	315.04
476.58	314.25
476.94	313.61
477.31	313.04
477.67	312.30
478.04	311.72
478.41	311.22
478.77	310.80
479.14	310.44
479.50	310.25
479.87	310.23
480.23	310.20
480.60	309.86
480.96	309.69
481.33	309.56
481.69	309.40
482.06	309.38
482.42	309.14
482.79	308.92
483.15	308.94
483.52	309.07
483.88	308.99
484.25	309.15
484.61	309.34
484.98	309.38
485.34	309.70
485.71	309.90
486.07	310.12
486.44	310.19
486.80	310.48
487.17	310.80
487.53	311.12
487.90	311.50
488.26	312.08
488.62	312.59
488.99	313.13
489.35	313.60
489.72	314.03
490.08	314.73
490.44	315.47
490.81	316.14
491.17	316.60
491.54	317.40
491.90	318.08
492.26	318.86
492.63	319.81
492.99	320.52
493.36	321.42
493.72	322.38
494.08	323.33
494.45	324.15
494.81	325.02
495.17	325.89
495.54	326.72
495.90	327.66
496.26	328.58
496.63	329.52
496.99	330.62
497.35	331.62
497.72	332.53
498.08	333.66
498.44	334.73
498.80	335.95
499.17	336.85
499.53	337.86
499.89	338.70
500.26	339.46
500.62	340.40
500.98	341.24
501.34	342.08
501.71	343.04
502.07	343.95
502.43	344.76
502.79	345.50
503.16	346.30
503.52	346.85
503.88	347.55
504.24	348.17
504.60	348.90
504.97	349.55
505.33	350.30
505.69	350.97
506.05	351.41
506.41	351.94
506.78	352.41
507.14	352.93
507.50	353.44
507.86	354.01
508.22	354.48
508.59	354.83
508.95	355.16
509.31	355.39
509.67	355.67
510.03	356.04
510.39	356.30
510.75	356.54
511.12	356.88
511.48	357.11
511.84	357.29
512.20	357.29
512.56	357.45
512.92	357.51
513.28	357.50
513.64	357.55
514.00	357.61
514.37	357.48
514.73	357.39
515.09	357.32
515.45	357.27
515.81	357.13
516.17	357.06
516.53	357.09
516.89	357.04
517.25	357.05
517.61	357.08
517.97	357.26
518.33	357.40
518.69	357.46
519.05	357.54
519.41	357.81
519.77	358.23
520.13	358.46
520.49	358.69
520.85	358.83
521.21	359.31
521.57	359.57
521.93	360.16
522.29	360.63
522.65	361.18
523.01	361.73
523.37	362.30
523.73	363.18
524.09	363.76
524.45	364.57
524.81	365.37
525.17	366.10
525.53	366.97
525.89	367.91
526.25	368.89
526.61	369.92
526.97	370.91
527.33	372.14
527.68	373.70
528.04	375.10
528.40	376.70
528.76	378.20
529.12	379.92
529.48	381.63
529.84	383.32
530.20	385.31
530.56	387.26
530.91	389.44
531.27	391.27
531.63	393.61
531.99	395.92
532.35	398.21
532.71	400.61
533.07	402.97
533.42	405.79
533.78	408.50
534.14	411.39
534.50	414.38
534.86	417.13
535.21	419.73
535.57	422.66
535.93	425.49
536.29	428.59
536.65	431.65
537.00	434.78
537.36	438.27
537.72	441.53
538.08	445.10
538.44	448.51
538.79	452.11
539.15	455.56
539.51	459.10
539.87	462.91
540.22	466.73
540.58	470.83
540.94	474.40
541.29	478.44
541.65	482.26
542.01	486.21
542.37	490.32
542.72	494.34
543.08	498.33
543.44	502.54
543.79	506.67
544.15	511.05
544.51	515.58
544.87	519.76
545.22	523.97
545.58	528.25
545.94	532.51
546.29	536.97
546.65	541.30
547.01	545.82
547.36	550.11
547.72	554.43
548.07	558.71
548.43	563.16
548.79	567.36
549.14	571.76
549.50	576.04
549.86	580.23
550.21	584.63
550.57	589.45
550.92	594.11
551.28	598.47
551.64	602.87
551.99	607.17
552.35	611.53
552.70	616.14
553.06	620.84
553.41	625.36
553.77	629.94
554.13	634.72
554.48	639.35
554.84	643.91
555.19	648.54
555.55	652.98
555.90	657.47
556.26	662.21
556.61	666.53
556.97	671.00
557.32	675.76
557.68	680.22
558.03	684.39
558.39	688.72
558.74	693.38
559.10	698.04
559.45	702.31
559.81	707.09
560.16	711.20
560.52	715.14
560.87	719.58
561.23	723.71
561.58	728.09
561.94	732.02
562.29	736.28
562.64	740.26
563.00	744.36
563.35	748.49
563.71	752.43
564.06	756.59
564.42	760.59
564.77	764.49
565.12	768.55
565.48	772.64
565.83	776.61
566.19	780.35
566.54	783.69
566.89	787.46
567.25	790.86
567.60	795.06
567.96	798.70
568.31	802.13
568.66	805.78
569.02	808.92
569.37	812.18
569.72	815.50
570.08	818.87
570.43	822.07
570.78	824.97
571.14	828.00
571.49	830.89
571.84	834.05
572.20	836.60
572.55	839.23
572.90	841.65
573.26	844.43
573.61	846.90
573.96	849.40
574.31	851.51
574.67	853.20
575.02	854.85
575.37	856.80
575.72	858.44
576.08	860.23
576.43	861.81
576.78	863.67
577.13	865.48
577.49	867.06
577.84	868.69
578.19	870.24
578.54	871.47
578.90	872.78
579.25	873.69
579.60	874.93
579.95	876.03
580.30	877.01
580.66	877.49
581.01	878.19
581.36	878.88
581.71	879.89
582.06	881.24
582.42	881.92
582.77	882.53
583.12	883.24
583.47	883.67
583.82	884.41
584.17	884.79
584.53	885.20
584.88	885.40
585.23	885.28
585.58	885.78
585.93	885.92
586.28	886.40
586.63	886.76
586.98	887.08
587.34	887.64
587.69	887.99
588.04	888.35
588.39	888.32
588.74	888.13
589.09	887.86
589.44	887.23
589.79	887.29
590.14	887.11
590.49	887.08
590.84	886.99
591.19	886.53
591.54	885.93
591.89	884.77
592.25	884.42
592.60	883.80
592.95	882.80
593.30	882.03
593.65	880.81
594.00	879.72
594.35	879.24
594.70	877.69
595.05	876.71
595.40	875.64
595.75	874.36
596.10	873.52
596.45	872.65
596.80	872.19
597.15	871.10
597.50	869.77
597.85	868.64
598.19	867.37
598.54	866.29
598.89	865.21
599.24	864.83
599.59	863.81
599.94	862.83
600.29	861.43
600.64	860.29
600.99	859.05
601.34	857.86
601.69	855.82
602.04	854.51
602.39	852.70
602.74	851.21
603.08	850.28
603.43	849.27
603.78	847.90
604.13	846.44
604.48	844.96
604.83	843.94
605.18	842.37
605.53	840.41
605.87	838.37
606.22	836.82
606.57	834.68
606.92	832.57
607.27	831.00
607.62	829.65
607.96	827.92
608.31	826.45
608.66	824.29
609.01	822.50
609.36	820.27
609.70	817.98
610.05	815.61
610.40	813.31
610.75	810.89
611.10	808.43
611.44	805.59
611.79	803.16
612.14	800.27
612.49	797.37
612.83	794.98
613.18	792.54
613.53	789.83
613.88	787.27
614.22	784.68
614.57	781.66
614.92	778.78
615.27	776.42
615.61	773.56
615.96	771.17
616.31	768.79
616.65	766.81
617.00	764.83
617.35	762.43
617.70	759.98
618.04	757.09
618.39	754.58
618.74	752.21
619.08	749.22
619.43	746.86
619.78	744.73
620.12	742.32
620.47	740.04
620.82	737.59
621.16	734.91
621.51	732.50
621.85	730.36
622.20	727.80
622.55	725.13
622.89	722.72
623.24	720.45
623.59	717.71
623.93	714.95
624.28	712.28
624.62	709.99
624.97	707.40
625.32	705.34
625.66	702.89
626.01	700.35
626.35	697.99
626.70	695.29
627.04	692.71
627.39	689.96
627.73	687.30
628.08	684.94
628.43	682.47
628.77	679.82
629.12	676.98
629.46	674.45
629.81	671.73
630.15	668.98
630.50	666.19
630.84	663.39
631.19	660.57
631.53	657.79
631.88	654.68
632.22	651.80
632.57	648.80
632.91	646.11
633.26	643.28
633.60	640.49
633.95	637.92
634.29	635.43
634.64	633.10
634.98	630.37
635.32	627.87
635.67	625.37
636.01	622.93
636.36	620.63
636.70	618.37
637.05	615.91
637.39	613.68
637.73	611.30
638.08	609.40
638.42	607.11
638.77	605.10
639.11	602.60
639.45	600.37
639.80	598.01
640.14	595.57
640.49	593.13
640.83	590.90
641.17	588.78
641.52	586.14
641.86	583.57
642.20	581.34
642.55	578.78
642.89	576.41
643.23	573.98
643.58	571.52
643.92	568.91
644.26	566.39
644.61	563.95
644.95	561.45
645.29	558.56
645.64	556.04
645.98	553.40
646.32	551.46
646.66	548.86
647.01	546.40
647.35	544.10
647.69	541.88
648.04	539.71
648.38	537.19
648.72	534.69
649.06	532.20
649.41	529.71
649.75	527.00
650.09	524.61
650.43	522.20
650.78	519.68
651.12	517.23
651.46	514.85
651.80	512.58
652.14	510.23
652.49	508.00
652.83	505.72
653.17	503.27
653.51	500.81
653.85	498.50
654.20	496.19
654.54	493.73
654.88	491.34
655.22	488.62
655.56	486.11
655.90	483.92
656.25	481.81
656.59	479.73
656.93	477.65
657.27	475.34
657.61	472.93
657.95	470.92
658.29	468.77
658.64	466.71
658.98	464.26
659.32	462.04
659.66	459.80
660.00	457.58
660.34	455.44
660.68	453.05
661.02	451.17
661.36	449.12
661.70	447.00
662.05	445.14
662.39	443.49
662.73	441.76
663.07	439.92
663.41	438.07
663.75	436.07
664.09	434.30
664.43	432.51
664.77	430.83
665.11	429.01
665.45	427.29
665.79	425.32
666.13	423.55
666.47	421.86
666.81	420.13
667.15	418.30
667.49	416.67
667.83	415.28
668.17	413.25
668.51	411.61
668.85	410.09
669.19	408.57
669.53	406.75
669.87	405.00
670.21	403.35
670.55	401.82
670.89	400.39
671.23	398.85
671.57	397.20
671.91	395.82
672.25	394.20
672.58	392.59
672.92	391.14
673.26	389.85
673.60	388.37
673.94	386.90
674.28	385.75
674.62	384.30
674.96	382.70
675.30	381.53
675.64	380.10
675.97	378.68
676.31	377.21
676.65	376.00
676.99	374.89
677.33	373.45
677.67	371.95
678.01	370.50
678.34	369.09
678.68	367.87
679.02	366.38
679.36	365.09
679.70	363.81
680.04	362.49
680.37	360.99
680.71	359.70
681.05	358.60
681.39	357.44
681.73	356.23
682.06	355.22
682.40	354.09
682.74	352.82
683.08	351.71
683.42	350.40
683.75	349.20
684.09	347.66
684.43	346.54
684.77	345.44
685.10	344.29
685.44	343.18
685.78	342.10
686.12	341.06
686.45	339.87
686.79	338.82
687.13	337.90
687.46	336.82
687.80	335.71
688.14	334.45
688.48	333.18
688.81	331.99
689.15	330.90
689.49	329.77
689.82	328.82
690.16	327.72
690.50	326.78
690.83	325.70
691.17	324.84
691.51	323.91
691.84	322.94
692.18	321.89
692.52	320.85
692.85	319.78
693.19	318.64
693.52	317.71
693.86	316.66
694.20	315.75
694.53	314.95
694.87	314.08
695.21	313.17
695.54	312.30
695.88	311.32
696.21	310.32
696.55	309.50
696.88	308.57
697.22	307.69
697.56	306.80
697.89	305.99
698.23	305.17
698.56	304.18
698.90	303.24
699.23	302.42
699.57	301.59
699.90	300.85
700.24	300.13
700.58	299.46
700.91	298.71
701.25	297.92
701.58	297.19
701.92	296.55
702.25	295.90
702.59	295.24
702.92	294.65
703.26	294.05
703.59	293.37
703.93	292.84
704.26	292.21
704.60	291.63
704.93	291.07
705.26	290.29
705.60	289.91
705.93	289.46
706.27	289.06
706.60	288.53
706.94	287.96
707.27	287.32
707.61	286.68
707.94	286.17
708.27	285.51
708.61	284.80
708.94	284.10
709.28	283.59
709.61	283.05
709.94	282.60
710.28	282.00
710.61	281.46
710.95	280.84
711.28	280.46
711.61	279.80
711.95	279.30
712.28	278.80
712.61	278.09
712.95	277.60
713.28	277.02
713.61	276.53
713.95	276.01
714.28	275.56
714.61	275.03
714.95	274.40
715.28	273.86
715.61	273.46
715.95	273.07
716.28	272.57
716.61	272.07
716.95	271.56
717.28	271.14
717.61	270.61
717.94	270.14
718.28	269.43
718.61	269.00
718.94	268.46
719.27	268.15
719.61	267.91
719.94	267.44
720.27	267.00
720.60	266.59
720.94	266.18
721.27	265.93
721.60	265.57
721.93	265.29
722.27	264.95
722.60	264.56
722.93	264.19
723.26	263.82
723.59	263.43
723.93	262.96
724.26	262.59
724.59	262.21
724.92	261.87
725.25	261.62
725.59	261.35
725.92	261.04
726.25	260.60
726.58	260.20
726.91	259.90
727.24	259.55
727.57	259.29
727.91	258.95
728.24	258.54
728.57	258.18
728.90	257.90
729.23	257.49
729.56	257.28
729.89	256.81
730.22	256.38
730.55	256.04
730.89	255.86
731.22	255.49
731.55	255.22
731.88	254.97
732.21	254.57
732.54	254.30
732.87	253.93
733.20	253.72
733.53	253.50
733.86	253.13
734.19	252.76
734.52	252.51
734.85	252.29
735.18	251.93
735.51	251.74
735.84	251.39
736.17	251.30
736.50	250.80
736.83	250.82
737.16	250.61
737.49	250.40
737.82	250.14
738.15	250.02
738.48	249.77
738.81	249.45
739.14	249.34
739.47	249.02
739.80	248.80
740.13	248.53
740.46	248.16
740.79	247.96
741.12	247.78
741.45	247.44
741.78	247.11
742.11	246.92
742.44	246.56
742.77	246.41
743.10	246.08
743.43	245.96
743.75	245.60
744.08	245.68
744.41	245.55
744.74	245.36
745.07	245.03
745.40	244.91
745.73	244.84
746.06	244.65
746.39	244.50
746.71	244.42
747.04	244.25
747.37	244.10
747.70	244.03
748.03	243.94
748.36	243.82
748.68	243.68
749.01	243.63
749.34	243.58
749.67	243.46
750.00	243.39
750.33	243.47
750.65	243.34
750.98	243.05
751.31	242.81
751.64	242.73
751.97	242.87
752.29	242.75
752.62	242.54
752.95	242.37
753.28	242.32
753.60	242.12
753.93	241.96
754.26	241.95
754.59	241.80
754.91	241.59
755.24	241.52
755.57	241.40
755.90	241.26
756.22	241.10
756.55	241.01
756.88	240.92
757.20	240.69
757.53	240.62
757.86	240.46
758.19	240.38
758.51	240.26
758.84	240.00
759.17	239.86
759.49	239.72
759.82	239.63
760.15	239.47
760.47	239.33
760.80	239.29
761.13	239.11
761.45	238.98
761.78	238.86
762.11	238.70
762.43	238.60
762.76	238.45
763.08	238.44
763.41	238.32
763.74	238.20
764.06	238.07
764.39	237.90
764.71	237.84
765.04	237.85
765.37	237.81
765.69	237.62
766.02	237.54
766.34	237.40
766.67	237.30
767.00	237.19
767.32	237.18
767.65	237.20
767.97	236.95
768.30	236.80
768.62	236.73
768.95	236.66
769.27	236.58
769.60	236.49
769.92	236.26
770.25	236.14
770.57	235.95
770.90	235.84
771.22	235.69
771.55	235.50
771.87	235.29
772.20	235.10
772.52	235.16
772.85	235.18
773.17	235.13
773.50	235.01
773.82	234.83
774.15	234.66
774.47	234.48
774.80	234.53
775.12	234.43
775.45	234.36
775.77	234.22
776.09	234.04
776.42	233.93
776.74	233.93
777.07	233.84
777.39	233.83
777.72	233.65
778.04	233.62
778.36	233.63
778.69	233.55
779.01	233.43
779.33	233.18
779.66	232.94
779.98	232.87
780.31	232.70
780.63	232.73
780.95	232.79
781.28	232.74
781.60	232.69
781.92	232.62
782.25	232.66
782.57	232.59
782.89	232.58
783.22	232.57
783.54	232.59
783.86	232.60
784.19	232.41
784.51	232.51
784.83	232.48
785.16	232.35
785.48	232.34
785.80	232.31
786.12	232.29
786.45	232.26
786.77	232.35
787.09	232.44
787.42	232.46
787.74	232.41
788.06	232.40
788.38	232.40
788.71	232.41
789.03	232.28
789.35	232.38
789.67	232.46
789.99	232.40
790.32	232.30
790.64	232.21
790.96	232.47
791.28	232.44
791.61	232.40
791.93	232.43
792.25	232.49
792.57	232.68
792.89	232.71
793.21	232.78
793.54	232.61
793.86	232.53
794.18	232.41
