SpectraSuite Data File
++++++++++++++++++++++++++++++++++++
Date: Fri Feb 01 14:37:29 EST 2013
User: group
Dark Spectrum Present: No
Reference Spectrum Present: No
Number of Sampled Component Spectra: 1
Spectrometers: USB2E7196
Integration Time (usec): 70000 (USB2E7196)
Spectra Averaged: 10 (USB2E7196)
Boxcar Smoothing: 10 (USB2E7196)
Correct for Electrical Dark: No (USB2E7196)
Strobe/Lamp Enabled: No (USB2E7196)
Correct for Detector Non-linearity: No (USB2E7196)
Correct for Stray Light: No (USB2E7196)
Number of Pixels in Processed Spectrum: 2048
>>>>>Begin Processed Spectral Data<<<<<
339.09	0.00
339.48	215.10
339.86	219.10
340.24	219.70
340.63	218.60
341.01	225.10
341.39	222.50
341.78	224.00
342.16	225.20
342.54	227.20
342.93	214.49
343.31	225.29
343.69	225.92
344.07	226.32
344.46	226.69
344.84	227.16
345.22	227.37
345.60	227.62
345.99	227.85
346.37	227.97
346.75	228.06
347.13	228.26
347.52	228.42
347.90	228.54
348.28	228.52
348.66	228.60
349.05	228.54
349.43	228.56
349.81	228.53
350.19	228.56
350.57	228.55
350.96	228.51
351.34	228.66
351.72	228.67
352.10	228.82
352.48	228.87
352.87	228.93
353.25	228.90
353.63	228.97
354.01	229.00
354.39	229.15
354.77	229.19
355.15	229.24
355.54	229.28
355.92	229.26
356.30	229.42
356.68	229.66
357.06	229.71
357.44	229.76
357.82	229.90
358.20	229.95
358.58	230.00
358.97	230.03
359.35	230.01
359.73	230.10
360.11	230.01
360.49	230.06
360.87	230.09
361.25	230.16
361.63	230.30
362.01	230.33
362.39	230.31
362.77	230.29
363.15	230.25
363.53	230.15
363.91	230.20
364.29	230.11
364.67	229.90
365.05	229.90
365.43	229.91
365.81	229.85
366.19	229.91
366.57	230.02
366.95	229.97
367.33	230.04
367.71	230.05
368.09	230.06
368.47	230.07
368.85	230.00
369.23	230.01
369.61	229.79
369.99	229.74
370.37	229.62
370.75	229.65
371.13	229.66
371.51	229.70
371.89	229.62
372.27	229.66
372.65	229.57
373.03	229.51
373.41	229.32
373.78	229.27
374.16	229.10
374.54	228.90
374.92	228.89
375.30	228.80
375.68	228.68
376.06	228.67
376.44	228.63
376.82	228.47
377.19	228.35
377.57	228.30
377.95	228.24
378.33	228.08
378.71	227.92
379.09	227.83
379.47	227.77
379.84	227.65
380.22	227.55
380.60	227.44
380.98	227.39
381.36	227.39
381.73	227.30
382.11	227.31
382.49	227.29
382.87	227.12
383.25	227.05
383.62	227.16
384.00	227.02
384.38	226.88
384.76	226.95
385.13	226.94
385.51	226.91
385.89	226.87
386.27	226.99
386.64	226.99
387.02	226.96
387.40	226.90
387.78	226.97
388.15	227.05
388.53	227.02
388.91	226.95
389.29	227.02
389.66	227.05
390.04	226.99
390.42	227.11
390.79	227.29
391.17	227.32
391.55	227.12
391.92	227.18
392.30	227.25
392.68	227.31
393.05	227.44
393.43	227.47
393.81	227.55
394.18	227.61
394.56	227.64
394.94	227.65
395.31	227.70
395.69	227.79
396.06	227.80
396.44	227.87
396.82	228.02
397.19	228.14
397.57	228.30
397.95	228.43
398.32	228.33
398.70	228.33
399.07	228.45
399.45	228.56
399.82	228.61
400.20	228.73
400.58	228.78
400.95	228.70
401.33	228.77
401.70	229.02
402.08	229.08
402.45	229.14
402.83	229.33
403.20	229.42
403.58	229.39
403.95	229.53
404.33	229.66
404.71	229.76
405.08	230.01
405.46	230.09
405.83	230.36
406.21	230.58
406.58	230.72
406.96	230.91
407.33	231.14
407.70	231.44
408.08	231.79
408.45	232.16
408.83	232.45
409.20	232.84
409.58	232.97
409.95	233.38
410.33	233.90
410.70	234.24
411.08	234.76
411.45	235.26
411.82	235.68
412.20	236.30
412.57	236.86
412.95	237.23
413.32	237.88
413.69	238.29
414.07	238.91
414.44	239.67
414.82	240.32
415.19	241.18
415.56	242.01
415.94	242.87
416.31	243.74
416.68	244.76
417.06	245.80
417.43	246.95
417.81	248.14
418.18	249.28
418.55	250.70
418.93	252.08
419.30	253.57
419.67	255.07
420.04	256.57
420.42	258.30
420.79	260.20
421.16	261.98
421.54	264.05
421.91	266.13
422.28	268.27
422.66	270.46
423.03	272.60
423.40	274.88
423.77	277.21
424.15	279.71
424.52	282.29
424.89	285.01
425.26	287.66
425.64	290.20
426.01	293.02
426.38	295.84
426.75	298.73
427.13	301.80
427.50	305.07
427.87	308.41
428.24	311.62
428.61	314.84
428.99	318.41
429.36	322.20
429.73	325.91
430.10	329.40
430.47	333.22
430.85	337.17
431.22	341.41
431.59	345.93
431.96	350.12
432.33	354.81
432.70	359.39
433.08	364.59
433.45	369.65
433.82	374.56
434.19	380.11
434.56	385.57
434.93	390.58
435.30	395.72
435.68	401.44
436.05	406.96
436.42	412.27
436.79	417.27
437.16	422.66
437.53	428.43
437.90	434.09
438.27	439.52
438.64	445.21
439.01	450.33
439.38	454.95
439.75	459.54
440.13	464.57
440.50	469.52
440.87	473.58
441.24	477.74
441.61	482.30
441.98	485.79
442.35	489.83
442.72	494.19
443.09	498.22
443.46	500.71
443.83	502.54
444.20	504.30
444.57	506.56
444.94	507.86
445.31	509.21
445.68	510.82
446.05	512.04
446.42	512.04
446.79	512.04
447.16	511.78
447.53	511.72
447.90	510.27
448.27	508.81
448.64	506.45
449.01	504.97
449.37	502.10
449.74	499.03
450.11	495.21
450.48	490.82
450.85	486.46
451.22	482.82
451.59	479.39
451.96	476.20
452.33	471.58
452.70	467.43
453.07	462.34
453.43	457.09
453.80	451.90
454.17	447.00
454.54	442.40
454.91	437.59
455.28	432.77
455.65	428.30
456.02	423.66
456.38	419.76
456.75	414.75
457.12	410.43
457.49	406.27
457.86	402.22
458.23	398.90
458.59	395.08
458.96	391.29
459.33	387.89
459.70	384.30
460.07	381.58
460.43	378.34
460.80	375.13
461.17	372.47
461.54	369.54
461.91	366.87
462.27	364.08
462.64	361.67
463.01	359.00
463.38	356.48
463.74	353.85
464.11	351.53
464.48	349.54
464.85	347.45
465.21	345.70
465.58	343.88
465.95	341.53
466.32	339.81
466.68	337.86
467.05	336.01
467.42	334.23
467.78	332.17
468.15	330.32
468.52	329.13
468.88	327.24
469.25	325.70
469.62	324.46
469.98	322.99
470.35	321.61
470.72	320.32
471.08	318.90
471.45	317.68
471.82	316.43
472.18	315.06
472.55	313.98
472.92	312.87
473.28	311.86
473.65	310.91
474.02	309.82
474.38	309.00
474.75	308.15
475.11	307.35
475.48	306.72
475.85	306.13
476.21	305.40
476.58	304.81
476.94	304.35
477.31	303.78
477.67	303.32
478.04	302.80
478.41	302.53
478.77	302.32
479.14	301.88
479.50	301.57
479.87	301.35
480.23	301.17
480.60	300.87
480.96	300.66
481.33	300.70
481.69	300.55
482.06	300.40
482.42	300.34
482.79	300.21
483.15	300.22
483.52	300.30
483.88	300.26
484.25	300.31
484.61	300.30
484.98	300.31
485.34	300.58
485.71	300.83
486.07	300.94
486.44	301.00
486.80	301.41
487.17	301.85
487.53	302.23
487.90	302.59
488.26	302.96
488.62	303.30
488.99	303.70
489.35	304.20
489.72	304.67
490.08	305.15
490.44	305.72
490.81	306.36
491.17	306.71
491.54	307.34
491.90	307.84
492.26	308.60
492.63	309.23
492.99	309.74
493.36	310.33
493.72	311.09
494.08	311.69
494.45	312.42
494.81	313.11
495.17	313.78
495.54	314.44
495.90	315.36
496.26	316.23
496.63	316.93
496.99	317.63
497.35	318.37
497.72	319.27
498.08	319.96
498.44	320.56
498.80	321.54
499.17	322.12
499.53	322.94
499.89	323.62
500.26	324.19
500.62	324.75
500.98	325.47
501.34	326.08
501.71	326.93
502.07	327.48
502.43	328.04
502.79	328.61
503.16	329.20
503.52	329.56
503.88	329.90
504.24	330.36
504.60	330.81
504.97	331.31
505.33	331.61
505.69	332.26
506.05	332.70
506.41	332.98
506.78	333.40
507.14	333.75
507.50	334.10
507.86	334.41
508.22	334.77
508.59	334.93
508.95	335.13
509.31	335.23
509.67	335.43
510.03	335.59
510.39	335.78
510.75	335.81
511.12	335.88
511.48	335.98
511.84	335.97
512.20	335.97
512.56	335.95
512.92	335.93
513.28	335.72
513.64	335.65
514.00	335.64
514.37	335.56
514.73	335.49
515.09	335.41
515.45	335.49
515.81	335.43
516.17	335.49
516.53	335.50
516.89	335.47
517.25	335.44
517.61	335.57
517.97	335.66
518.33	335.94
518.69	336.20
519.05	336.62
519.41	336.99
519.77	337.40
520.13	337.79
520.49	338.24
520.85	338.86
521.21	339.57
521.57	340.25
521.93	340.80
522.29	341.55
522.65	342.06
523.01	342.83
523.37	343.59
523.73	344.43
524.09	345.41
524.45	346.55
524.81	347.69
525.17	348.77
525.53	349.97
525.89	351.16
526.25	352.51
526.61	353.71
526.97	355.09
527.33	356.58
527.68	358.30
528.04	360.03
528.40	361.65
528.76	363.37
529.12	365.36
529.48	367.51
529.84	369.46
530.20	371.92
530.56	374.28
530.91	376.92
531.27	379.44
531.63	381.82
531.99	384.35
532.35	387.06
532.71	389.67
533.07	392.70
533.42	395.81
533.78	398.78
534.14	401.96
534.50	405.09
534.86	408.40
535.21	411.52
535.57	414.96
535.93	418.42
536.29	422.02
536.65	425.49
537.00	429.24
537.36	433.06
537.72	436.61
538.08	440.34
538.44	444.08
538.79	447.95
539.15	451.98
539.51	456.08
539.87	460.15
540.22	464.43
540.58	468.62
540.94	472.67
541.29	476.98
541.65	481.26
542.01	485.79
542.37	490.19
542.72	494.63
543.08	498.97
543.44	503.50
543.79	507.71
544.15	512.27
544.51	516.82
544.87	521.46
545.22	526.25
545.58	530.85
545.94	535.59
546.29	540.29
546.65	545.02
547.01	549.61
547.36	554.57
547.72	559.27
548.07	563.86
548.43	568.62
548.79	573.31
549.14	577.85
549.50	582.46
549.86	587.09
550.21	591.92
550.57	596.72
550.92	601.56
551.28	606.60
551.64	611.30
551.99	616.15
552.35	621.04
552.70	625.85
553.06	630.77
553.41	635.53
553.77	640.40
554.13	645.19
554.48	650.16
554.84	654.68
555.19	659.39
555.55	664.24
555.90	669.08
556.26	673.97
556.61	679.05
556.97	683.62
557.32	688.36
557.68	693.11
558.03	697.90
558.39	702.43
558.74	707.11
559.10	711.91
559.45	716.34
559.81	720.98
560.16	725.20
560.52	729.54
560.87	734.09
561.23	738.46
561.58	743.25
561.94	747.47
562.29	751.70
562.64	755.91
563.00	760.03
563.35	764.10
563.71	768.27
564.06	772.33
564.42	776.65
564.77	780.77
565.12	784.69
565.48	788.71
565.83	792.63
566.19	796.46
566.54	799.92
566.89	803.91
567.25	807.80
567.60	811.88
567.96	815.46
568.31	819.07
568.66	822.52
569.02	825.68
569.37	829.08
569.72	832.49
570.08	835.69
570.43	838.81
570.78	841.97
571.14	844.75
571.49	847.60
571.84	850.73
572.20	853.50
572.55	856.26
572.90	858.50
573.26	861.21
573.61	863.60
573.96	866.01
574.31	868.02
574.67	869.66
575.02	871.29
575.37	873.41
575.72	875.02
576.08	876.95
576.43	878.54
576.78	880.18
577.13	881.89
577.49	883.64
577.84	885.03
578.19	886.60
578.54	888.15
578.90	889.44
579.25	890.31
579.60	891.36
579.95	892.52
580.30	893.60
580.66	894.22
581.01	895.09
581.36	896.06
581.71	896.98
582.06	897.74
582.42	898.64
582.77	899.30
583.12	899.93
583.47	900.68
583.82	901.57
584.17	902.19
584.53	902.61
584.88	903.38
585.23	904.01
585.58	904.05
585.93	904.39
586.28	904.77
586.63	905.07
586.98	905.54
587.34	905.92
587.69	906.37
588.04	906.82
588.39	907.06
588.74	906.78
589.09	906.96
589.44	906.72
589.79	906.73
590.14	906.91
590.49	906.59
590.84	905.86
591.19	905.53
591.54	904.92
591.89	903.91
592.25	903.01
592.60	901.83
592.95	900.92
593.30	899.93
593.65	899.13
594.00	898.11
594.35	897.20
594.70	895.72
595.05	894.48
595.40	893.22
595.75	891.88
596.10	890.84
596.45	889.60
596.80	888.92
597.15	887.80
597.50	886.31
597.85	885.31
598.19	884.51
598.54	883.08
598.89	881.83
599.24	881.18
599.59	879.91
599.94	879.25
600.29	878.40
600.64	877.22
600.99	875.52
601.34	874.41
601.69	872.88
602.04	871.83
602.39	870.65
602.74	869.56
603.08	868.50
603.43	867.45
603.78	865.86
604.13	864.28
604.48	862.77
604.83	861.31
605.18	859.82
605.53	857.73
605.87	855.70
606.22	854.00
606.57	852.10
606.92	850.28
607.27	848.58
607.62	846.92
607.96	845.21
608.31	843.72
608.66	841.53
609.01	839.24
609.36	836.79
609.70	834.22
610.05	831.83
610.40	829.47
610.75	827.00
611.10	824.51
611.44	821.70
611.79	819.25
612.14	816.71
612.49	813.90
612.83	811.43
613.18	809.04
613.53	806.66
613.88	803.89
614.22	801.29
614.57	798.15
614.92	795.28
615.27	792.62
615.61	789.58
615.96	787.13
616.31	784.99
616.65	782.90
617.00	780.54
617.35	777.95
617.70	775.12
618.04	772.14
618.39	769.71
618.74	767.32
619.08	764.48
619.43	761.81
619.78	759.42
620.12	757.15
620.47	754.64
620.82	751.71
621.16	749.00
621.51	746.63
621.85	744.28
622.20	741.51
622.55	738.93
622.89	736.61
623.24	734.26
623.59	731.63
623.93	728.82
624.28	726.19
624.62	723.72
624.97	721.40
625.32	719.41
625.66	716.98
626.01	714.47
626.35	712.10
626.70	709.59
627.04	707.08
627.39	704.21
627.73	701.64
628.08	699.20
628.43	696.72
628.77	693.89
629.12	691.14
629.46	688.52
629.81	685.66
630.15	682.76
630.50	679.70
630.84	676.34
631.19	673.32
631.53	670.58
631.88	667.34
632.22	664.19
632.57	661.23
632.91	658.18
633.26	655.30
633.60	652.22
633.95	649.40
634.29	646.67
634.64	644.28
634.98	641.59
635.32	639.10
635.67	636.75
636.01	634.30
636.36	631.77
636.70	629.32
637.05	626.82
637.39	624.53
637.73	622.19
638.08	620.42
638.42	618.32
638.77	615.97
639.11	613.53
639.45	611.23
639.80	608.79
640.14	606.38
640.49	604.02
640.83	601.76
641.17	599.44
641.52	596.80
641.86	594.20
642.20	591.61
642.55	589.26
642.89	586.78
643.23	584.06
643.58	581.65
643.92	579.08
644.26	576.58
644.61	574.29
644.95	571.80
645.29	568.96
645.64	566.06
645.98	563.48
646.32	561.23
646.66	558.91
647.01	556.28
647.35	553.94
647.69	551.58
648.04	549.33
648.38	546.82
648.72	544.29
649.06	541.74
649.41	539.34
649.75	536.55
650.09	533.95
650.43	531.67
650.78	529.08
651.12	526.60
651.46	524.10
651.80	521.45
652.14	519.20
652.49	516.97
652.83	514.85
653.17	512.41
653.51	510.07
653.85	507.44
654.20	505.09
654.54	502.44
654.88	499.68
655.22	496.90
655.56	494.23
655.90	492.04
656.25	489.70
656.59	487.40
656.93	485.19
657.27	482.76
657.61	480.21
657.95	477.98
658.29	475.74
658.64	473.44
658.98	471.12
659.32	468.50
659.66	466.20
660.00	463.86
660.34	461.57
660.68	459.16
661.02	456.96
661.36	454.77
661.70	452.77
662.05	450.98
662.39	449.07
662.73	447.25
663.07	445.33
663.41	443.41
663.75	441.52
664.09	439.40
664.43	437.48
664.77	435.68
665.11	433.78
665.45	432.01
665.79	430.15
666.13	428.24
666.47	426.42
666.81	424.52
667.15	422.56
667.49	420.72
667.83	419.13
668.17	417.26
668.51	415.50
668.85	413.70
669.19	412.01
669.53	410.34
669.87	408.51
670.21	406.83
670.55	404.95
670.89	403.36
671.23	401.90
671.57	400.51
671.91	399.08
672.25	397.61
672.58	395.88
672.92	394.39
673.26	392.97
673.60	391.57
673.94	390.15
674.28	388.96
674.62	387.64
674.96	386.17
675.30	384.90
675.64	383.60
675.97	382.44
676.31	381.07
676.65	379.63
676.99	378.37
677.33	376.93
677.67	375.63
678.01	374.19
678.34	372.76
678.68	371.40
679.02	369.91
679.36	368.48
679.70	367.20
680.04	366.00
680.37	364.67
680.71	363.39
681.05	362.14
681.39	360.87
681.73	359.73
682.06	358.44
682.40	357.57
682.74	356.41
683.08	355.30
683.42	354.16
683.75	353.05
684.09	351.94
684.43	350.86
684.77	349.63
685.10	348.45
685.44	347.38
685.78	346.23
686.12	345.16
686.45	344.06
686.79	342.99
687.13	341.78
687.46	340.70
687.80	339.55
688.14	338.24
688.48	337.02
688.81	335.77
689.15	334.73
689.49	333.33
689.82	332.08
690.16	330.72
690.50	329.66
690.83	328.77
691.17	327.58
691.51	326.53
691.84	325.61
692.18	324.64
692.52	323.48
692.85	322.43
693.19	321.38
693.52	320.38
693.86	319.31
694.20	318.39
694.53	317.50
694.87	316.60
695.21	315.67
695.54	314.66
695.88	313.80
696.21	312.77
696.55	311.84
696.88	310.95
697.22	310.00
697.56	309.05
697.89	307.95
698.23	307.16
698.56	306.30
698.90	305.41
699.23	304.39
699.57	303.53
699.90	302.65
700.24	301.76
700.58	300.95
700.91	300.18
701.25	299.32
701.58	298.50
701.92	297.60
702.25	296.85
702.59	296.19
702.92	295.46
703.26	294.74
703.59	294.10
703.93	293.57
704.26	292.99
704.60	292.26
704.93	291.47
705.26	290.67
705.60	289.89
705.93	289.25
706.27	288.68
706.60	288.10
706.94	287.54
707.27	286.94
707.61	286.21
707.94	285.63
708.27	284.92
708.61	284.29
708.94	283.75
709.28	283.18
709.61	282.62
709.94	282.10
710.28	281.57
710.61	280.98
710.95	280.28
711.28	279.77
711.61	279.15
711.95	278.70
712.28	278.20
712.61	277.62
712.95	277.08
713.28	276.70
713.61	276.10
713.95	275.43
714.28	274.83
714.61	274.39
714.95	273.84
715.28	273.28
715.61	272.59
715.95	272.14
716.28	271.64
716.61	271.14
716.95	270.60
717.28	270.13
717.61	269.55
717.94	269.09
718.28	268.49
718.61	268.02
718.94	267.54
719.27	267.13
719.61	266.79
719.94	266.36
720.27	265.80
720.60	265.51
720.94	265.19
721.27	264.92
721.60	264.63
721.93	264.31
722.27	264.25
722.60	264.04
722.93	263.71
723.26	263.42
723.59	262.98
723.93	262.60
724.26	262.25
724.59	262.07
724.92	261.82
725.25	261.64
725.59	261.44
725.92	261.19
726.25	260.84
726.58	260.49
726.91	260.37
727.24	260.20
727.57	259.88
727.91	259.51
728.24	259.29
728.57	258.96
728.90	258.66
729.23	258.13
729.56	257.91
729.89	257.57
730.22	257.23
730.55	257.02
730.89	256.82
731.22	256.59
731.55	256.28
731.88	256.03
732.21	255.68
732.54	255.29
732.87	255.01
733.20	254.76
733.53	254.59
733.86	254.26
734.19	253.86
734.52	253.69
734.85	253.58
735.18	253.16
735.51	253.04
735.84	252.94
736.17	252.85
736.50	252.50
736.83	252.54
737.16	252.28
737.49	252.14
737.82	251.88
738.15	251.75
738.48	251.48
738.81	251.15
739.14	250.99
739.47	250.82
739.80	250.56
740.13	250.39
740.46	249.99
740.79	249.80
741.12	249.59
741.45	249.30
741.78	249.03
742.11	248.96
742.44	248.69
742.77	248.30
743.10	248.02
743.43	247.78
743.75	247.27
744.08	247.32
744.41	247.00
744.74	246.77
745.07	246.44
745.40	246.23
745.73	246.20
746.06	245.91
746.39	245.66
746.71	245.52
747.04	245.24
747.37	245.05
747.70	244.71
748.03	244.55
748.36	244.40
748.68	244.25
749.01	243.92
749.34	243.60
749.67	243.44
750.00	243.20
750.33	243.18
750.65	242.99
750.98	242.57
751.31	242.45
751.64	242.19
751.97	242.04
752.29	241.86
752.62	241.53
752.95	241.34
753.28	241.22
753.60	241.02
753.93	240.88
754.26	240.75
754.59	240.55
754.91	240.24
755.24	239.96
755.57	239.67
755.90	239.56
756.22	239.48
756.55	239.30
756.88	239.26
757.20	238.98
757.53	238.84
757.86	238.69
758.19	238.50
758.51	238.44
758.84	238.23
759.17	238.12
759.49	238.00
759.82	238.00
760.15	237.83
760.47	237.73
760.80	237.58
761.13	237.48
761.45	237.44
761.78	237.49
762.11	237.36
762.43	237.27
762.76	237.18
763.08	236.95
763.41	236.88
763.74	236.70
764.06	236.55
764.39	236.48
764.71	236.44
765.04	236.35
765.37	236.25
765.69	236.15
766.02	236.09
766.34	236.00
766.67	235.85
767.00	235.73
767.32	235.70
767.65	235.75
767.97	235.68
768.30	235.63
768.62	235.49
768.95	235.48
769.27	235.42
769.60	235.45
769.92	235.50
770.25	235.35
770.57	235.32
770.90	235.34
771.22	235.25
771.55	235.16
771.87	235.14
772.20	235.06
772.52	235.22
772.85	235.35
773.17	235.30
773.50	235.25
773.82	235.28
774.15	235.09
774.47	234.99
774.80	234.91
775.12	234.80
775.45	234.80
775.77	234.71
776.09	234.72
776.42	234.60
776.74	234.48
777.07	234.49
777.39	234.40
777.72	234.30
778.04	234.30
778.36	234.23
778.69	234.28
779.01	234.31
779.33	234.02
779.66	233.81
779.98	233.74
780.31	233.73
780.63	233.73
780.95	233.83
781.28	233.75
781.60	233.69
781.92	233.61
782.25	233.56
782.57	233.51
782.89	233.40
783.22	233.29
783.54	233.25
783.86	233.19
784.19	233.10
784.51	233.09
784.83	233.02
785.16	232.93
785.48	232.85
785.80	232.72
786.12	232.75
786.45	232.63
786.77	232.61
787.09	232.43
787.42	232.35
787.74	232.25
788.06	232.22
788.38	232.20
788.71	232.17
789.03	232.08
789.35	232.04
789.67	232.05
789.99	232.01
790.32	231.98
790.64	231.98
790.96	232.15
791.28	232.02
791.61	231.95
791.93	232.02
792.25	231.92
792.57	232.03
792.89	231.91
793.21	231.88
793.54	231.79
793.86	231.77
794.18	231.77
