SpectraSuite Data File
++++++++++++++++++++++++++++++++++++
Date: Fri Feb 01 14:40:20 EST 2013
User: group
Dark Spectrum Present: No
Reference Spectrum Present: No
Number of Sampled Component Spectra: 1
Spectrometers: USB2E7196
Integration Time (usec): 70000 (USB2E7196)
Spectra Averaged: 10 (USB2E7196)
Boxcar Smoothing: 10 (USB2E7196)
Correct for Electrical Dark: No (USB2E7196)
Strobe/Lamp Enabled: No (USB2E7196)
Correct for Detector Non-linearity: No (USB2E7196)
Correct for Stray Light: No (USB2E7196)
Number of Pixels in Processed Spectrum: 2048
>>>>>Begin Processed Spectral Data<<<<<
339.09	0.00
339.48	218.00
339.86	216.30
340.24	219.70
340.63	223.00
341.01	224.60
341.39	223.60
341.78	223.80
342.16	227.30
342.54	227.20
342.93	215.11
343.31	226.00
343.69	226.51
344.07	226.93
344.46	227.32
344.84	227.63
345.22	227.82
345.60	228.12
345.99	228.44
346.37	228.44
346.75	228.50
347.13	228.57
347.52	228.61
347.90	228.71
348.28	228.68
348.66	228.71
349.05	228.65
349.43	228.63
349.81	228.71
350.19	228.66
350.57	228.73
350.96	228.80
351.34	228.76
351.72	228.83
352.10	229.09
352.48	229.15
352.87	229.21
353.25	229.27
353.63	229.25
354.01	229.19
354.39	229.39
354.77	229.43
355.15	229.57
355.54	229.72
355.92	229.77
356.30	229.89
356.68	230.03
357.06	230.10
357.44	230.15
357.82	230.21
358.20	230.44
358.58	230.42
358.97	230.45
359.35	230.67
359.73	230.72
360.11	230.77
360.49	230.80
360.87	230.78
361.25	230.86
361.63	230.98
362.01	230.98
362.39	230.95
362.77	231.05
363.15	231.03
363.53	230.95
363.91	230.96
364.29	231.00
364.67	230.86
365.05	230.95
365.43	231.08
365.81	231.07
366.19	231.10
366.57	231.16
366.95	231.12
367.33	231.01
367.71	230.97
368.09	230.91
368.47	230.83
368.85	230.78
369.23	230.71
369.61	230.58
369.99	230.62
370.37	230.56
370.75	230.60
371.13	230.51
371.51	230.47
371.89	230.37
372.27	230.31
372.65	230.24
373.03	230.10
373.41	229.98
373.78	229.92
374.16	229.77
374.54	229.64
374.92	229.61
375.30	229.46
375.68	229.29
376.06	229.18
376.44	229.20
376.82	229.27
377.19	229.21
377.57	229.17
377.95	229.11
378.33	228.95
378.71	228.70
379.09	228.64
379.47	228.43
379.84	228.33
380.22	228.17
380.60	227.99
380.98	227.95
381.36	227.82
381.73	227.66
382.11	227.56
382.49	227.55
382.87	227.43
383.25	227.45
383.62	227.70
384.00	227.64
384.38	227.59
384.76	227.40
385.13	227.43
385.51	227.38
385.89	227.25
386.27	227.22
386.64	227.20
387.02	227.04
387.40	227.04
387.78	227.13
388.15	227.13
388.53	227.16
388.91	227.15
389.29	227.10
389.66	227.14
390.04	227.09
390.42	227.16
390.79	227.10
391.17	227.03
391.55	226.82
391.92	226.80
392.30	226.78
392.68	226.88
393.05	226.87
393.43	226.82
393.81	226.95
394.18	227.01
394.56	227.14
394.94	227.25
395.31	227.31
395.69	227.24
396.06	227.35
396.44	227.45
396.82	227.40
397.19	227.60
397.57	227.67
397.95	227.74
398.32	227.65
398.70	227.73
399.07	227.80
399.45	227.81
399.82	227.90
400.20	227.84
400.58	227.83
400.95	227.81
401.33	228.00
401.70	228.06
402.08	228.15
402.45	228.16
402.83	228.32
403.20	228.40
403.58	228.51
403.95	228.64
404.33	228.80
404.71	228.97
405.08	229.13
405.46	229.21
405.83	229.32
406.21	229.54
406.58	229.69
406.96	229.89
407.33	230.12
407.70	230.28
408.08	230.69
408.45	230.94
408.83	231.25
409.20	231.44
409.58	231.57
409.95	231.80
410.33	232.11
410.70	232.39
411.08	232.68
411.45	232.98
411.82	233.26
412.20	233.56
412.57	234.00
412.95	234.26
413.32	234.64
413.69	235.09
414.07	235.50
414.44	235.98
414.82	236.34
415.19	236.80
415.56	237.21
415.94	237.74
416.31	238.36
416.68	238.90
417.06	239.58
417.43	240.22
417.81	241.00
418.18	241.70
418.55	242.39
418.93	243.25
419.30	244.17
419.67	245.00
420.04	245.92
420.42	246.84
420.79	248.06
421.16	249.19
421.54	250.33
421.91	251.47
422.28	252.63
422.66	254.10
423.03	255.48
423.40	256.88
423.77	258.12
424.15	259.49
424.52	260.91
424.89	262.49
425.26	263.99
425.64	265.32
426.01	266.92
426.38	268.53
426.75	270.16
427.13	271.87
427.50	273.70
427.87	275.56
428.24	277.37
428.61	278.99
428.99	280.87
429.36	282.85
429.73	284.95
430.10	286.98
430.47	288.84
430.85	290.78
431.22	292.98
431.59	295.58
431.96	297.71
432.33	300.19
432.70	302.46
433.08	305.35
433.45	308.03
433.82	310.57
434.19	313.48
434.56	316.40
434.93	319.01
435.30	321.52
435.68	324.45
436.05	327.25
436.42	329.98
436.79	332.60
437.16	335.33
437.53	338.17
437.90	341.00
438.27	343.95
438.64	346.92
439.01	349.58
439.38	351.80
439.75	354.12
440.13	356.47
440.50	358.95
440.87	360.87
441.24	362.83
441.61	365.09
441.98	366.56
442.35	368.27
442.72	370.18
443.09	372.10
443.46	372.96
443.83	373.65
444.20	374.29
444.57	375.15
444.94	375.58
445.31	375.93
445.68	376.54
446.05	376.55
446.42	376.13
446.79	375.88
447.16	375.38
447.53	375.19
447.90	374.23
448.27	373.09
448.64	371.57
449.01	370.45
449.37	368.44
449.74	366.57
450.11	364.42
450.48	361.86
450.85	359.43
451.22	357.47
451.59	355.53
451.96	353.47
452.33	350.94
452.70	348.60
453.07	345.85
453.43	342.78
453.80	340.11
454.17	337.44
454.54	334.82
454.91	332.16
455.28	329.50
455.65	327.01
456.02	324.75
456.38	322.54
456.75	319.94
457.12	317.68
457.49	315.62
457.86	313.44
458.23	311.80
458.59	309.74
458.96	307.74
459.33	305.76
459.70	303.95
460.07	302.39
460.43	300.51
460.80	298.85
461.17	297.39
461.54	295.80
461.91	294.38
462.27	292.91
462.64	291.57
463.01	290.12
463.38	288.89
463.74	287.22
464.11	285.91
464.48	284.80
464.85	283.70
465.21	282.78
465.58	281.75
465.95	280.50
466.32	279.51
466.68	278.45
467.05	277.60
467.42	276.65
467.78	275.59
468.15	274.71
468.52	273.86
468.88	272.90
469.25	272.06
469.62	271.43
469.98	270.58
470.35	269.95
470.72	269.23
471.08	268.30
471.45	267.73
471.82	267.17
472.18	266.46
472.55	265.91
472.92	265.16
473.28	264.62
473.65	263.98
474.02	263.34
474.38	262.89
474.75	262.44
475.11	262.02
475.48	261.65
475.85	261.30
476.21	260.93
476.58	260.66
476.94	260.32
477.31	259.83
477.67	259.54
478.04	259.05
478.41	258.65
478.77	258.56
479.14	258.23
479.50	257.96
479.87	257.77
480.23	257.56
480.60	257.48
480.96	257.19
481.33	257.05
481.69	256.95
482.06	256.71
482.42	256.64
482.79	256.50
483.15	256.40
483.52	256.33
483.88	256.29
484.25	256.14
484.61	256.13
484.98	256.09
485.34	256.13
485.71	256.32
486.07	256.42
486.44	256.40
486.80	256.44
487.17	256.68
487.53	256.90
487.90	257.01
488.26	257.17
488.62	257.51
488.99	257.82
489.35	258.12
489.72	258.40
490.08	258.59
490.44	258.96
490.81	259.41
491.17	259.72
491.54	260.15
491.90	260.61
492.26	261.14
492.63	261.71
492.99	262.27
493.36	262.83
493.72	263.53
494.08	264.20
494.45	265.00
494.81	265.74
495.17	266.49
495.54	267.39
495.90	268.22
496.26	269.16
496.63	270.02
496.99	271.16
497.35	272.32
497.72	273.50
498.08	274.73
498.44	275.93
498.80	277.41
499.17	278.82
499.53	280.33
499.89	281.87
500.26	283.67
500.62	285.35
500.98	287.14
501.34	288.89
501.71	290.90
502.07	292.85
502.43	294.89
502.79	297.04
503.16	299.32
503.52	301.86
503.88	304.24
504.24	306.89
504.60	309.50
504.97	312.34
505.33	315.22
505.69	318.32
506.05	321.41
506.41	324.57
506.78	327.86
507.14	331.31
507.50	334.88
507.86	338.47
508.22	342.46
508.59	346.36
508.95	350.56
509.31	354.85
509.67	359.38
510.03	363.90
510.39	368.78
510.75	373.57
511.12	378.44
511.48	383.55
511.84	388.81
512.20	394.05
512.56	399.58
512.92	405.41
513.28	411.16
513.64	417.22
514.00	423.42
514.37	429.83
514.73	436.34
515.09	442.82
515.45	449.55
515.81	456.16
516.17	463.14
516.53	470.15
516.89	477.24
517.25	484.56
517.61	492.00
517.97	499.60
518.33	507.28
518.69	514.99
519.05	523.30
519.41	531.54
519.77	540.28
520.13	548.89
520.49	557.30
520.85	566.09
521.21	574.78
521.57	583.81
521.93	592.61
522.29	601.91
522.65	611.27
523.01	620.58
523.37	629.97
523.73	639.45
524.09	649.15
524.45	659.19
524.81	669.23
525.17	679.73
525.53	689.75
525.89	700.22
526.25	710.84
526.61	721.01
526.97	731.46
527.33	741.88
527.68	752.74
528.04	763.68
528.40	774.49
528.76	785.97
529.12	797.09
529.48	808.74
529.84	819.59
530.20	831.11
530.56	842.79
530.91	854.97
531.27	867.15
531.63	878.78
531.99	890.24
532.35	901.80
532.71	913.06
533.07	925.20
533.42	936.89
533.78	948.64
534.14	960.50
534.50	972.45
534.86	984.35
535.21	995.65
535.57	1007.97
535.93	1019.88
536.29	1031.55
536.65	1043.36
537.00	1054.58
537.36	1066.61
537.72	1078.08
538.08	1089.69
538.44	1100.86
538.79	1112.37
539.15	1123.90
539.51	1135.79
539.87	1147.54
540.22	1159.05
540.58	1170.37
540.94	1181.68
541.29	1192.83
541.65	1204.03
542.01	1215.20
542.37	1226.43
542.72	1237.60
543.08	1248.16
543.44	1259.00
543.79	1269.19
544.15	1279.81
544.51	1291.09
544.87	1301.69
545.22	1312.25
545.58	1322.36
545.94	1332.25
546.29	1341.67
546.65	1351.67
547.01	1360.87
547.36	1370.28
547.72	1379.80
548.07	1389.02
548.43	1398.26
548.79	1407.38
549.14	1416.06
549.50	1424.79
549.86	1432.70
550.21	1440.96
550.57	1449.36
550.92	1457.72
551.28	1465.93
551.64	1473.54
551.99	1481.34
552.35	1488.93
552.70	1496.74
553.06	1504.61
553.41	1512.52
553.77	1520.13
554.13	1527.44
554.48	1535.24
554.84	1542.63
555.19	1549.65
555.55	1556.75
555.90	1563.20
556.26	1570.12
556.61	1577.06
556.97	1583.29
557.32	1589.93
557.68	1596.63
558.03	1603.08
558.39	1609.30
558.74	1615.93
559.10	1622.60
559.45	1628.45
559.81	1635.08
560.16	1640.48
560.52	1645.82
560.87	1651.34
561.23	1656.42
561.58	1661.86
561.94	1666.76
562.29	1671.51
562.64	1676.30
563.00	1681.18
563.35	1686.22
563.71	1691.23
564.06	1696.03
564.42	1700.57
564.77	1705.54
565.12	1709.85
565.48	1713.84
565.83	1717.42
566.19	1721.19
566.54	1724.62
566.89	1728.04
567.25	1731.54
567.60	1735.63
567.96	1738.87
568.31	1742.03
568.66	1745.46
569.02	1748.48
569.37	1750.90
569.72	1753.30
570.08	1755.47
570.43	1757.40
570.78	1759.66
571.14	1760.81
571.49	1762.42
571.84	1764.65
572.20	1765.84
572.55	1766.88
572.90	1767.80
573.26	1769.51
573.61	1770.61
573.96	1771.40
574.31	1771.69
574.67	1770.86
575.02	1770.05
575.37	1770.31
575.72	1769.56
576.08	1769.13
576.43	1768.60
576.78	1768.40
577.13	1768.17
577.49	1768.04
577.84	1767.47
578.19	1766.59
578.54	1765.75
578.90	1764.42
579.25	1762.21
579.60	1760.56
579.95	1758.97
580.30	1757.11
580.66	1754.81
581.01	1752.44
581.36	1750.56
581.71	1748.91
582.06	1747.38
582.42	1745.39
582.77	1742.99
583.12	1740.87
583.47	1739.10
583.82	1736.97
584.17	1734.39
584.53	1731.80
584.88	1728.83
585.23	1726.08
585.58	1723.40
585.93	1721.07
586.28	1719.12
586.63	1717.15
586.98	1714.47
587.34	1711.98
587.69	1709.56
588.04	1706.86
588.39	1703.97
588.74	1700.40
589.09	1696.56
589.44	1692.52
589.79	1689.65
590.14	1686.80
590.49	1683.28
590.84	1679.28
591.19	1675.48
591.54	1671.05
591.89	1666.55
592.25	1663.25
592.60	1658.74
592.95	1654.20
593.30	1649.21
593.65	1644.38
594.00	1639.81
594.35	1636.13
594.70	1631.21
595.05	1626.76
595.40	1621.60
595.75	1616.85
596.10	1612.57
596.45	1608.86
596.80	1605.11
597.15	1600.51
597.50	1595.72
597.85	1591.70
598.19	1587.71
598.54	1582.90
598.89	1578.93
599.24	1575.51
599.59	1570.82
599.94	1566.86
600.29	1562.66
600.64	1558.80
600.99	1553.30
601.34	1548.82
601.69	1543.36
602.04	1538.86
602.39	1533.82
602.74	1529.96
603.08	1525.95
603.43	1521.62
603.78	1516.71
604.13	1511.88
604.48	1506.94
604.83	1502.00
605.18	1497.23
605.53	1491.47
605.87	1486.24
606.22	1481.30
606.57	1475.84
606.92	1470.47
607.27	1465.28
607.62	1460.31
607.96	1454.95
608.31	1450.59
608.66	1444.81
609.01	1438.96
609.36	1433.02
609.70	1426.96
610.05	1420.87
610.40	1414.72
610.75	1408.51
611.10	1402.46
611.44	1395.83
611.79	1389.94
612.14	1383.70
612.49	1376.72
612.83	1370.75
613.18	1364.74
613.53	1358.66
613.88	1351.54
614.22	1345.31
614.57	1338.81
614.92	1332.27
615.27	1326.21
615.61	1319.76
615.96	1313.88
616.31	1308.78
616.65	1303.82
617.00	1298.30
617.35	1292.32
617.70	1286.08
618.04	1279.72
618.39	1273.70
618.74	1268.70
619.08	1262.56
619.43	1256.99
619.78	1251.68
620.12	1245.81
620.47	1240.18
620.82	1233.90
621.16	1228.91
621.51	1223.43
621.85	1217.47
622.20	1211.55
622.55	1205.63
622.89	1199.95
623.24	1194.20
623.59	1188.41
623.93	1182.39
624.28	1176.80
624.62	1170.95
624.97	1165.43
625.32	1160.14
625.66	1154.63
626.01	1148.44
626.35	1142.81
626.70	1136.87
627.04	1131.30
627.39	1125.38
627.73	1119.17
628.08	1113.65
628.43	1107.72
628.77	1101.89
629.12	1096.46
629.46	1090.68
629.81	1084.29
630.15	1078.22
630.50	1072.29
630.84	1065.67
631.19	1059.25
631.53	1053.20
631.88	1047.15
632.22	1040.88
632.57	1035.02
632.91	1028.85
633.26	1022.81
633.60	1016.83
633.95	1010.94
634.29	1005.20
634.64	999.84
634.98	994.19
635.32	988.79
635.67	983.30
636.01	977.71
636.36	971.96
636.70	966.63
637.05	961.76
637.39	956.68
637.73	951.48
638.08	947.02
638.42	942.25
638.77	937.14
639.11	932.20
639.45	927.11
639.80	921.74
640.14	916.65
640.49	911.73
640.83	906.40
641.17	901.36
641.52	896.05
641.86	890.67
642.20	885.70
642.55	880.45
642.89	875.23
643.23	869.90
643.58	865.15
643.92	859.94
644.26	854.59
644.61	849.79
644.95	844.74
645.29	838.65
645.64	833.07
645.98	827.91
646.32	822.70
646.66	817.67
647.01	812.86
647.35	808.26
647.69	803.20
648.04	798.63
648.38	793.50
648.72	788.16
649.06	783.23
649.41	778.56
649.75	773.46
650.09	768.54
650.43	763.52
650.78	758.11
651.12	752.98
651.46	748.36
651.80	743.43
652.14	738.65
652.49	734.23
652.83	729.77
653.17	724.84
653.51	720.11
653.85	715.48
654.20	710.71
654.54	705.53
654.88	700.82
655.22	695.76
655.56	690.90
655.90	686.65
656.25	681.99
656.59	677.26
656.93	673.05
657.27	668.69
657.61	664.25
657.95	660.12
658.29	656.20
658.64	651.82
658.98	647.15
659.32	642.57
659.66	638.43
660.00	634.16
660.34	629.91
660.68	625.90
661.02	621.83
661.36	617.80
661.70	614.08
662.05	610.42
662.39	607.00
662.73	603.54
663.07	599.96
663.41	596.38
663.75	592.84
664.09	589.13
664.43	585.35
664.77	581.90
665.11	578.49
665.45	575.02
665.79	571.65
666.13	568.31
666.47	564.93
666.81	561.39
667.15	557.69
667.49	554.53
667.83	551.20
668.17	547.90
668.51	544.38
668.85	541.02
669.19	537.83
669.53	534.52
669.87	531.22
670.21	528.02
670.55	524.95
670.89	522.08
671.23	519.16
671.57	516.30
671.91	513.27
672.25	510.19
672.58	507.35
672.92	504.48
673.26	501.82
673.60	499.25
673.94	496.64
674.28	494.66
674.62	492.04
674.96	489.51
675.30	487.03
675.64	484.77
675.97	482.32
676.31	479.80
676.65	477.32
676.99	475.00
677.33	472.29
677.67	469.85
678.01	467.11
678.34	464.62
678.68	462.28
679.02	459.91
679.36	457.60
679.70	455.05
680.04	452.71
680.37	450.19
680.71	447.90
681.05	445.65
681.39	443.12
681.73	440.97
682.06	438.82
682.40	436.72
682.74	434.57
683.08	432.40
683.42	430.29
683.75	428.15
684.09	425.89
684.43	423.84
684.77	421.64
685.10	419.70
685.44	417.54
685.78	415.60
686.12	413.86
686.45	411.76
686.79	409.63
687.13	407.73
687.46	405.86
687.80	403.72
688.14	401.81
688.48	399.91
688.81	397.86
689.15	395.80
689.49	393.68
689.82	391.78
690.16	389.80
690.50	388.00
690.83	386.21
691.17	384.42
691.51	382.85
691.84	381.27
692.18	379.60
692.52	377.87
692.85	375.96
693.19	374.13
693.52	372.68
693.86	371.04
694.20	369.26
694.53	367.60
694.87	365.96
695.21	364.18
695.54	362.53
695.88	360.94
696.21	359.32
696.55	357.97
696.88	356.29
697.22	354.80
697.56	353.23
697.89	351.79
698.23	350.25
698.56	348.70
698.90	347.25
699.23	345.70
699.57	344.32
699.90	342.92
700.24	341.34
700.58	339.85
700.91	338.56
701.25	337.33
701.58	336.09
701.92	334.78
702.25	333.59
702.59	332.30
702.92	331.15
703.26	330.00
703.59	328.70
703.93	327.77
704.26	326.65
704.60	325.30
704.93	324.16
705.26	323.10
705.60	322.01
705.93	320.99
706.27	319.95
706.60	318.85
706.94	317.77
707.27	316.77
707.61	315.73
707.94	314.72
708.27	313.59
708.61	312.54
708.94	311.65
709.28	310.77
709.61	309.94
709.94	309.09
710.28	308.08
710.61	307.23
710.95	306.12
711.28	305.28
711.61	304.48
711.95	303.37
712.28	302.54
712.61	301.69
712.95	300.75
713.28	299.97
713.61	299.18
713.95	298.46
714.28	297.72
714.61	296.93
714.95	296.25
715.28	295.59
715.61	294.87
715.95	294.14
716.28	293.32
716.61	292.50
716.95	291.65
717.28	291.08
717.61	290.46
717.94	289.91
718.28	289.07
718.61	288.38
718.94	287.99
719.27	287.30
719.61	286.61
719.94	286.08
720.27	285.39
720.60	284.86
720.94	284.25
721.27	283.72
721.60	283.08
721.93	282.47
722.27	281.82
722.60	281.21
722.93	280.64
723.26	280.19
723.59	279.70
723.93	279.19
724.26	278.64
724.59	278.01
724.92	277.27
725.25	276.87
725.59	276.44
725.92	275.80
726.25	275.32
726.58	274.82
726.91	274.20
727.24	273.71
727.57	273.16
727.91	272.63
728.24	272.13
728.57	271.72
728.90	271.29
729.23	270.83
729.56	270.53
729.89	270.06
730.22	269.53
730.55	268.93
730.89	268.53
731.22	267.98
731.55	267.44
731.88	267.10
732.21	266.67
732.54	266.08
732.87	265.59
733.20	264.99
733.53	264.60
733.86	264.24
734.19	263.85
734.52	263.44
734.85	263.17
735.18	262.67
735.51	262.35
735.84	261.97
736.17	261.62
736.50	261.03
736.83	260.88
737.16	260.54
737.49	260.27
737.82	259.80
738.15	259.47
738.48	259.20
738.81	258.81
739.14	258.36
739.47	258.02
739.80	257.66
740.13	257.50
740.46	257.12
740.79	256.78
741.12	256.35
741.45	256.01
741.78	255.63
742.11	255.36
742.44	254.99
742.77	254.73
743.10	254.23
743.43	253.96
743.75	253.42
744.08	253.34
744.41	253.02
744.74	252.75
745.07	252.46
745.40	252.12
745.73	251.94
746.06	251.59
746.39	251.32
746.71	251.07
747.04	250.74
747.37	250.38
747.70	250.17
748.03	249.93
748.36	249.67
748.68	249.40
749.01	249.20
749.34	248.89
749.67	248.59
750.00	248.48
750.33	248.36
750.65	248.20
750.98	247.68
751.31	247.45
751.64	247.22
751.97	247.27
752.29	247.07
752.62	246.74
752.95	246.64
753.28	246.60
753.60	246.51
753.93	246.39
754.26	246.23
754.59	245.94
754.91	245.75
755.24	245.59
755.57	245.29
755.90	245.13
756.22	245.06
756.55	244.91
756.88	244.77
757.20	244.48
757.53	244.22
757.86	244.12
758.19	243.99
758.51	243.86
758.84	243.50
759.17	243.52
759.49	243.54
759.82	243.39
760.15	243.09
760.47	242.85
760.80	242.60
761.13	242.52
761.45	242.30
761.78	242.14
762.11	242.05
762.43	241.97
762.76	241.79
763.08	241.57
763.41	241.40
763.74	241.20
764.06	241.05
764.39	241.04
764.71	240.74
765.04	240.61
765.37	240.44
765.69	240.24
766.02	239.90
766.34	239.63
766.67	239.51
767.00	239.49
767.32	239.50
767.65	239.58
767.97	239.50
768.30	239.49
768.62	239.39
768.95	239.19
769.27	239.17
769.60	239.01
769.92	238.84
770.25	238.66
770.57	238.52
770.90	238.44
771.22	238.17
771.55	238.20
771.87	238.01
772.20	237.91
772.52	237.92
772.85	238.10
773.17	237.90
773.50	237.82
773.82	237.64
774.15	237.42
774.47	237.09
774.80	236.84
775.12	236.69
775.45	236.66
775.77	236.56
776.09	236.41
776.42	236.34
776.74	236.32
777.07	236.26
777.39	236.28
777.72	236.10
778.04	236.10
778.36	235.95
778.69	235.95
779.01	235.85
779.33	235.61
779.66	235.28
779.98	235.33
780.31	235.27
780.63	235.31
780.95	235.25
781.28	235.18
781.60	235.14
781.92	235.12
782.25	235.08
782.57	235.03
782.89	234.85
783.22	234.73
783.54	234.67
783.86	234.50
784.19	234.46
784.51	234.49
784.83	234.44
785.16	234.39
785.48	234.26
785.80	234.21
786.12	234.13
786.45	234.15
786.77	234.08
787.09	234.00
787.42	233.93
787.74	233.85
788.06	233.82
788.38	233.73
