SpectraSuite Data File
++++++++++++++++++++++++++++++++++++
Date: Fri Feb 01 14:39:41 EST 2013
User: group
Dark Spectrum Present: No
Reference Spectrum Present: No
Number of Sampled Component Spectra: 1
Spectrometers: USB2E7196
Integration Time (usec): 70000 (USB2E7196)
Spectra Averaged: 10 (USB2E7196)
Boxcar Smoothing: 10 (USB2E7196)
Correct for Electrical Dark: No (USB2E7196)
Strobe/Lamp Enabled: No (USB2E7196)
Correct for Detector Non-linearity: No (USB2E7196)
Correct for Stray Light: No (USB2E7196)
Number of Pixels in Processed Spectrum: 2048
>>>>>Begin Processed Spectral Data<<<<<
339.09	0.00
339.48	216.10
339.86	217.40
340.24	218.20
340.63	220.20
341.01	225.80
341.39	222.90
341.78	223.70
342.16	226.00
342.54	225.80
342.93	214.42
343.31	225.31
343.69	225.81
344.07	226.20
344.46	226.70
344.84	227.05
345.22	227.15
345.60	227.37
345.99	227.51
346.37	227.60
346.75	227.72
347.13	227.85
347.52	227.95
347.90	227.95
348.28	228.09
348.66	228.12
349.05	228.07
349.43	227.99
349.81	228.03
350.19	227.97
350.57	228.03
350.96	228.08
351.34	228.03
351.72	228.13
352.10	228.30
352.48	228.28
352.87	228.36
353.25	228.36
353.63	228.45
354.01	228.53
354.39	228.63
354.77	228.63
355.15	228.60
355.54	228.56
355.92	228.63
356.30	228.61
356.68	228.83
357.06	228.84
357.44	228.90
357.82	228.98
358.20	228.97
358.58	229.03
358.97	229.08
359.35	229.25
359.73	229.25
360.11	229.20
360.49	229.27
360.87	229.40
361.25	229.46
361.63	229.49
362.01	229.61
362.39	229.57
362.77	229.71
363.15	229.80
363.53	230.01
363.91	229.99
364.29	230.05
364.67	229.93
365.05	230.01
365.43	230.10
365.81	230.15
366.19	230.33
366.57	230.44
366.95	230.44
367.33	230.39
367.71	230.38
368.09	230.47
368.47	230.43
368.85	230.29
369.23	230.31
369.61	230.24
369.99	230.23
370.37	230.29
370.75	230.33
371.13	230.24
371.51	230.08
371.89	229.98
372.27	229.92
372.65	229.86
373.03	229.86
373.41	229.81
373.78	229.59
374.16	229.47
374.54	229.25
374.92	229.13
375.30	229.05
375.68	229.02
376.06	228.92
376.44	228.91
376.82	228.88
377.19	228.83
377.57	228.84
377.95	228.67
378.33	228.59
378.71	228.42
379.09	228.41
379.47	228.30
379.84	228.17
380.22	228.10
380.60	228.05
380.98	227.94
381.36	227.92
381.73	227.86
382.11	227.70
382.49	227.63
382.87	227.57
383.25	227.39
383.62	227.48
384.00	227.36
384.38	227.24
384.76	227.22
385.13	227.26
385.51	227.07
385.89	227.05
386.27	227.03
386.64	226.90
387.02	226.89
387.40	226.93
387.78	226.94
388.15	226.95
388.53	226.80
388.91	226.79
389.29	226.75
389.66	226.75
390.04	226.80
390.42	226.84
390.79	226.87
391.17	226.88
391.55	226.69
391.92	226.73
392.30	226.78
392.68	226.72
393.05	226.68
393.43	226.72
393.81	226.70
394.18	226.60
394.56	226.66
394.94	226.58
395.31	226.49
395.69	226.55
396.06	226.52
396.44	226.64
396.82	226.60
397.19	226.60
397.57	226.61
397.95	226.69
398.32	226.69
398.70	226.67
399.07	226.86
399.45	226.81
399.82	226.84
400.20	226.80
400.58	226.87
400.95	226.82
401.33	227.00
401.70	227.22
402.08	227.37
402.45	227.46
402.83	227.62
403.20	227.81
403.58	227.87
403.95	227.96
404.33	228.10
404.71	228.20
405.08	228.40
405.46	228.48
405.83	228.66
406.21	228.82
406.58	229.14
406.96	229.25
407.33	229.43
407.70	229.68
408.08	230.13
408.45	230.35
408.83	230.67
409.20	230.85
409.58	231.05
409.95	231.33
410.33	231.62
410.70	231.89
411.08	232.24
411.45	232.60
411.82	233.03
412.20	233.37
412.57	233.94
412.95	234.23
413.32	234.73
413.69	235.12
414.07	235.53
414.44	235.84
414.82	236.39
415.19	237.10
415.56	237.56
415.94	238.02
416.31	238.60
416.68	239.20
417.06	239.91
417.43	240.63
417.81	241.30
418.18	242.04
418.55	242.90
418.93	243.70
419.30	244.60
419.67	245.49
420.04	246.40
420.42	247.39
420.79	248.67
421.16	249.80
421.54	251.00
421.91	252.29
422.28	253.65
422.66	254.92
423.03	256.32
423.40	257.78
423.77	259.33
424.15	260.91
424.52	262.57
424.89	264.23
425.26	265.76
425.64	267.31
426.01	268.96
426.38	270.62
426.75	272.39
427.13	274.20
427.50	276.14
427.87	278.09
428.24	280.02
428.61	281.72
428.99	283.75
429.36	285.98
429.73	288.19
430.10	290.24
430.47	292.44
430.85	294.69
431.22	297.10
431.59	299.53
431.96	301.81
432.33	304.25
432.70	306.78
433.08	309.68
433.45	312.51
433.82	315.34
434.19	318.40
434.56	321.41
434.93	324.22
435.30	326.91
435.68	329.98
436.05	332.97
436.42	335.95
436.79	338.75
437.16	341.67
437.53	344.67
437.90	347.70
438.27	350.76
438.64	353.72
439.01	356.50
439.38	358.85
439.75	361.19
440.13	363.93
440.50	366.50
440.87	368.56
441.24	370.69
441.61	373.08
441.98	374.74
442.35	376.76
442.72	378.93
443.09	381.05
443.46	382.19
443.83	382.94
444.20	383.64
444.57	384.57
444.94	384.82
445.31	385.43
445.68	386.16
446.05	386.38
446.42	386.04
446.79	385.74
447.16	385.38
447.53	385.26
447.90	384.19
448.27	383.02
448.64	381.45
449.01	380.30
449.37	378.40
449.74	376.51
450.11	374.30
450.48	371.70
450.85	369.10
451.22	367.10
451.59	365.19
451.96	363.27
452.33	360.76
452.70	358.43
453.07	355.42
453.43	352.38
453.80	349.48
454.17	346.84
454.54	344.12
454.91	341.26
455.28	338.52
455.65	335.97
456.02	333.65
456.38	331.53
456.75	328.78
457.12	326.41
457.49	324.19
457.86	321.87
458.23	319.93
458.59	317.69
458.96	315.39
459.33	313.22
459.70	311.25
460.07	309.64
460.43	307.89
460.80	306.09
461.17	304.60
461.54	303.09
461.91	301.51
462.27	300.06
462.64	298.69
463.01	297.25
463.38	295.85
463.74	294.10
464.11	292.84
464.48	291.75
464.85	290.49
465.21	289.46
465.58	288.52
465.95	287.34
466.32	286.48
466.68	285.52
467.05	284.63
467.42	283.61
467.78	282.51
468.15	281.53
468.52	280.80
468.88	279.66
469.25	278.66
469.62	277.86
469.98	276.99
470.35	276.37
470.72	275.52
471.08	274.70
471.45	274.06
471.82	273.29
472.18	272.52
472.55	271.93
472.92	271.23
473.28	270.38
473.65	269.66
474.02	268.90
474.38	268.32
474.75	267.72
475.11	267.17
475.48	266.64
475.85	266.13
476.21	265.68
476.58	265.36
476.94	264.85
477.31	264.41
477.67	264.02
478.04	263.58
478.41	263.29
478.77	263.14
479.14	262.76
479.50	262.48
479.87	262.24
480.23	261.98
480.60	261.69
480.96	261.52
481.33	261.43
481.69	261.27
482.06	261.18
482.42	260.88
482.79	260.69
483.15	260.56
483.52	260.41
483.88	260.20
484.25	259.90
484.61	259.86
484.98	259.86
485.34	259.89
485.71	259.90
486.07	259.79
486.44	259.55
486.80	259.55
487.17	259.52
487.53	259.51
487.90	259.47
488.26	259.76
488.62	259.85
488.99	259.78
489.35	259.90
489.72	259.84
490.08	260.08
490.44	260.16
490.81	260.27
491.17	260.45
491.54	260.60
491.90	260.87
492.26	261.11
492.63	261.26
492.99	261.31
493.36	261.60
493.72	262.06
494.08	262.48
494.45	262.89
494.81	263.28
495.17	263.62
495.54	264.16
495.90	264.34
496.26	264.85
496.63	265.53
496.99	266.09
497.35	266.79
497.72	267.42
498.08	268.03
498.44	268.59
498.80	269.33
499.17	270.12
499.53	270.77
499.89	271.62
500.26	272.51
500.62	273.41
500.98	274.26
501.34	275.00
501.71	275.89
502.07	276.87
502.43	277.90
502.79	279.08
503.16	280.10
503.52	281.25
503.88	282.36
504.24	283.50
504.60	284.82
504.97	286.08
505.33	287.44
505.69	289.02
506.05	290.83
506.41	292.49
506.78	294.28
507.14	296.10
507.50	297.87
507.86	299.74
508.22	301.64
508.59	303.64
508.95	305.90
509.31	308.21
509.67	310.65
510.03	313.14
510.39	315.52
510.75	318.13
511.12	320.90
511.48	323.71
511.84	326.52
512.20	329.39
512.56	332.56
512.92	335.77
513.28	338.94
513.64	342.25
514.00	345.66
514.37	349.05
514.73	352.73
515.09	356.43
515.45	360.14
515.81	364.21
516.17	368.34
516.53	372.45
516.89	376.55
517.25	380.61
517.61	384.82
517.97	389.28
518.33	393.80
518.69	398.30
519.05	403.12
519.41	407.95
519.77	413.13
520.13	418.19
520.49	423.30
520.85	428.67
521.21	433.84
521.57	439.50
521.93	444.82
522.29	450.53
522.65	456.08
523.01	461.92
523.37	467.75
523.73	473.76
524.09	479.82
524.45	486.08
524.81	492.59
525.17	499.28
525.53	506.18
525.89	512.94
526.25	519.99
526.61	526.68
526.97	533.80
527.33	540.66
527.68	547.95
528.04	555.19
528.40	562.47
528.76	570.02
529.12	577.22
529.48	585.38
529.84	592.75
530.20	600.69
530.56	608.96
530.91	617.08
531.27	625.25
531.63	633.53
531.99	641.61
532.35	649.73
532.71	657.52
533.07	665.74
533.42	674.36
533.78	682.56
534.14	691.25
534.50	699.66
534.86	708.40
535.21	716.63
535.57	725.18
535.93	733.73
536.29	742.43
536.65	751.24
537.00	759.64
537.36	768.79
537.72	777.46
538.08	785.90
538.44	794.32
538.79	802.88
539.15	811.31
539.51	820.24
539.87	829.19
540.22	838.30
540.58	847.57
540.94	855.90
541.29	864.66
541.65	873.17
542.01	882.15
542.37	890.61
542.72	899.25
543.08	907.90
543.44	916.82
543.79	925.08
544.15	933.37
544.51	941.97
544.87	950.43
545.22	958.99
545.58	967.09
545.94	975.27
546.29	983.43
546.65	991.73
547.01	999.48
547.36	1007.40
547.72	1015.40
548.07	1022.49
548.43	1030.39
548.79	1037.91
549.14	1045.29
549.50	1052.30
549.86	1059.44
550.21	1066.77
550.57	1074.14
550.92	1081.11
551.28	1088.17
551.64	1095.47
551.99	1102.35
552.35	1109.16
552.70	1115.92
553.06	1123.36
553.41	1130.80
553.77	1137.42
554.13	1144.13
554.48	1151.06
554.84	1157.58
555.19	1163.91
555.55	1170.46
555.90	1176.62
556.26	1182.82
556.61	1189.21
556.97	1195.60
557.32	1201.91
557.68	1208.13
558.03	1214.12
558.39	1219.82
558.74	1226.17
559.10	1231.73
559.45	1237.75
559.81	1243.85
560.16	1249.37
560.52	1254.41
560.87	1259.47
561.23	1264.83
561.58	1269.99
561.94	1274.77
562.29	1279.38
562.64	1284.00
563.00	1288.70
563.35	1293.85
563.71	1298.99
564.06	1304.05
564.42	1308.53
564.77	1313.38
565.12	1317.55
565.48	1321.99
565.83	1326.00
566.19	1330.00
566.54	1333.78
566.89	1337.25
567.25	1340.34
567.60	1344.40
567.96	1348.12
568.31	1351.58
568.66	1355.01
569.02	1358.17
569.37	1361.60
569.72	1364.88
570.08	1368.00
570.43	1370.72
570.78	1372.97
571.14	1374.94
571.49	1377.26
571.84	1380.00
572.20	1381.80
572.55	1383.64
572.90	1385.33
573.26	1387.58
573.61	1389.12
573.96	1391.02
574.31	1392.05
574.67	1392.75
575.02	1393.11
575.37	1394.11
575.72	1394.47
576.08	1395.05
576.43	1395.70
576.78	1395.96
577.13	1396.92
577.49	1397.47
577.84	1398.06
578.19	1398.34
578.54	1398.55
578.90	1397.81
579.25	1396.85
579.60	1396.38
579.95	1396.11
580.30	1395.41
580.66	1394.38
581.01	1393.35
581.36	1392.50
581.71	1392.20
582.06	1391.76
582.42	1390.98
582.77	1389.48
583.12	1388.65
583.47	1387.93
583.82	1387.08
584.17	1386.03
584.53	1384.27
584.88	1382.61
585.23	1381.24
585.58	1379.93
585.93	1378.91
586.28	1378.02
586.63	1377.14
586.98	1376.32
587.34	1375.17
587.69	1374.09
588.04	1372.99
588.39	1371.90
588.74	1369.76
589.09	1367.79
589.44	1366.07
589.79	1364.30
590.14	1362.67
590.49	1360.48
590.84	1357.95
591.19	1355.73
591.54	1353.12
591.89	1350.20
592.25	1347.92
592.60	1344.71
592.95	1341.66
593.30	1338.58
593.65	1335.50
594.00	1332.15
594.35	1329.04
594.70	1325.62
595.05	1322.42
595.40	1318.99
595.75	1315.64
596.10	1312.83
596.45	1310.38
596.80	1307.65
597.15	1304.61
597.50	1301.90
597.85	1299.34
598.19	1296.89
598.54	1294.10
598.89	1291.34
599.24	1289.22
599.59	1286.32
599.94	1283.94
600.29	1281.30
600.64	1278.03
600.99	1274.62
601.34	1271.48
601.69	1267.91
602.04	1264.64
602.39	1261.40
602.74	1258.31
603.08	1255.31
603.43	1252.65
603.78	1248.99
604.13	1245.27
604.48	1241.82
604.83	1238.00
605.18	1234.62
605.53	1230.35
605.87	1226.00
606.22	1222.31
606.57	1218.21
606.92	1214.49
607.27	1210.75
607.62	1207.31
607.96	1203.75
608.31	1200.50
608.66	1196.78
609.01	1192.59
609.36	1188.37
609.70	1183.78
610.05	1179.37
610.40	1175.04
610.75	1170.24
611.10	1165.61
611.44	1160.97
611.79	1156.70
612.14	1152.28
612.49	1147.03
612.83	1142.40
613.18	1137.97
613.53	1133.71
613.88	1128.67
614.22	1123.84
614.57	1118.72
614.92	1113.61
615.27	1109.23
615.61	1104.50
615.96	1099.98
616.31	1095.80
616.65	1092.14
617.00	1087.80
617.35	1083.32
617.70	1078.68
618.04	1073.76
618.39	1069.05
618.74	1064.82
619.08	1060.19
619.43	1055.50
619.78	1051.36
620.12	1047.03
620.47	1042.49
620.82	1037.56
621.16	1033.23
621.51	1028.86
621.85	1024.35
622.20	1019.70
622.55	1015.10
622.89	1010.51
623.24	1005.97
623.59	1001.32
623.93	996.61
624.28	992.30
624.62	987.93
624.97	983.45
625.32	979.40
625.66	975.20
626.01	970.79
626.35	966.21
626.70	961.85
627.04	957.36
627.39	952.94
627.73	948.62
628.08	944.26
628.43	940.12
628.77	935.77
629.12	931.20
629.46	926.76
629.81	921.94
630.15	917.12
630.50	912.56
630.84	907.77
631.19	902.54
631.53	897.75
631.88	892.99
632.22	888.07
632.57	883.60
632.91	878.84
633.26	874.08
633.60	869.30
633.95	864.75
634.29	860.39
634.64	856.15
634.98	851.50
635.32	847.16
635.67	842.95
636.01	838.53
636.36	834.36
636.70	830.35
637.05	826.34
637.39	822.49
637.73	818.40
638.08	814.72
638.42	811.12
638.77	807.32
639.11	803.25
639.45	799.65
639.80	795.45
640.14	791.55
640.49	787.79
640.83	784.06
641.17	780.13
641.52	776.04
641.86	771.73
642.20	768.07
642.55	764.04
642.89	760.07
643.23	756.00
643.58	752.39
643.92	748.18
644.26	743.93
644.61	740.18
644.95	736.22
645.29	731.85
645.64	727.61
645.98	723.50
646.32	719.78
646.66	715.57
647.01	711.54
647.35	707.88
647.69	703.63
648.04	699.85
648.38	695.67
648.72	691.65
649.06	687.58
649.41	683.56
649.75	679.51
650.09	675.28
650.43	671.11
650.78	666.75
651.12	662.80
651.46	659.07
651.80	655.03
652.14	651.33
652.49	647.85
652.83	644.35
653.17	640.44
653.51	636.58
653.85	632.80
654.20	629.07
654.54	624.80
654.88	620.98
655.22	616.89
655.56	613.39
655.90	609.76
656.25	606.43
656.59	602.73
656.93	599.16
657.27	595.79
657.61	592.35
657.95	589.01
658.29	585.50
658.64	581.95
658.98	578.10
659.32	574.45
659.66	570.83
660.00	567.20
660.34	563.77
660.68	560.34
661.02	557.09
661.36	553.98
661.70	551.07
662.05	548.37
662.39	545.51
662.73	542.29
663.07	539.52
663.41	536.42
663.75	533.36
664.09	530.38
664.43	527.22
664.77	524.51
665.11	521.70
665.45	518.94
665.79	516.29
666.13	513.60
666.47	510.79
666.81	508.09
667.15	505.26
667.49	502.70
667.83	500.07
668.17	497.19
668.51	494.17
668.85	491.59
669.19	488.89
669.53	486.34
669.87	483.69
670.21	481.04
670.55	478.57
670.89	476.21
671.23	473.86
671.57	471.51
671.91	468.97
672.25	466.50
672.58	464.13
672.92	461.70
673.26	459.57
673.60	457.22
673.94	454.96
674.28	452.84
674.62	450.78
674.96	448.46
675.30	446.58
675.64	444.68
675.97	442.47
676.31	440.20
676.65	438.13
676.99	436.38
677.33	434.25
677.67	432.17
678.01	429.94
678.34	427.99
678.68	425.88
679.02	423.89
679.36	421.97
679.70	419.91
680.04	417.97
680.37	415.90
680.71	414.10
681.05	412.28
681.39	410.69
681.73	408.85
682.06	407.31
682.40	405.38
682.74	403.54
683.08	401.75
683.42	400.03
683.75	398.25
684.09	396.26
684.43	394.47
684.77	392.60
685.10	390.98
685.44	389.30
685.78	387.63
686.12	385.91
686.45	384.12
686.79	382.54
687.13	380.90
687.46	379.41
687.80	377.85
688.14	376.23
688.48	374.59
688.81	372.87
689.15	371.17
689.49	369.51
689.82	368.05
690.16	366.46
690.50	365.00
690.83	363.40
691.17	362.06
691.51	360.60
691.84	359.27
692.18	357.76
692.52	356.19
692.85	354.80
693.19	353.54
693.52	352.36
693.86	350.99
694.20	349.66
694.53	348.37
694.87	346.99
695.21	345.51
695.54	344.01
695.88	342.62
696.21	341.26
696.55	340.12
696.88	338.84
697.22	337.61
697.56	336.34
697.89	335.13
698.23	333.81
698.56	332.61
698.90	331.43
699.23	330.28
699.57	329.06
699.90	327.87
700.24	326.60
700.58	325.39
700.91	324.23
701.25	323.15
701.58	321.99
701.92	320.80
702.25	319.85
702.59	318.87
702.92	317.90
703.26	317.15
703.59	316.05
703.93	315.29
704.26	314.38
704.60	313.33
704.93	312.43
705.26	311.51
705.60	310.56
705.93	309.59
706.27	308.82
706.60	308.08
706.94	307.15
707.27	306.26
707.61	305.35
707.94	304.45
708.27	303.65
708.61	302.80
708.94	302.09
709.28	301.22
709.61	300.30
709.94	299.51
710.28	298.51
710.61	297.85
710.95	296.82
711.28	296.17
711.61	295.44
711.95	294.70
712.28	293.93
712.61	293.06
712.95	292.39
713.28	291.66
713.61	290.94
713.95	290.22
714.28	289.54
714.61	288.87
714.95	288.25
715.28	287.39
715.61	286.64
715.95	285.90
716.28	285.19
716.61	284.69
716.95	284.07
717.28	283.50
717.61	282.72
717.94	282.14
718.28	281.30
718.61	280.69
718.94	280.06
719.27	279.47
719.61	279.08
719.94	278.50
720.27	277.90
720.60	277.22
720.94	276.81
721.27	276.47
721.60	276.04
721.93	275.58
722.27	275.22
722.60	274.79
722.93	274.39
723.26	273.97
723.59	273.42
723.93	272.93
724.26	272.50
724.59	272.09
724.92	271.55
725.25	271.10
725.59	270.61
725.92	270.22
726.25	269.72
726.58	269.22
726.91	268.90
727.24	268.40
727.57	267.98
727.91	267.62
728.24	266.98
728.57	266.55
728.90	266.20
729.23	265.73
729.56	265.46
729.89	264.97
730.22	264.51
730.55	264.04
730.89	263.66
731.22	263.27
731.55	262.85
731.88	262.49
732.21	262.16
732.54	261.89
732.87	261.40
733.20	261.11
733.53	260.77
733.86	260.33
734.19	259.94
734.52	259.60
734.85	259.30
735.18	258.97
735.51	258.55
735.84	258.08
736.17	257.77
736.50	257.28
736.83	257.18
737.16	256.85
737.49	256.55
737.82	256.19
738.15	255.80
738.48	255.57
738.81	255.38
739.14	255.09
739.47	254.77
739.80	254.46
740.13	254.16
740.46	253.77
740.79	253.41
741.12	253.13
741.45	252.87
741.78	252.42
742.11	252.19
742.44	251.94
742.77	251.72
743.10	251.40
743.43	251.07
743.75	250.58
744.08	250.63
744.41	250.47
744.74	250.29
745.07	250.00
745.40	249.73
745.73	249.42
746.06	249.23
746.39	248.95
746.71	248.74
747.04	248.48
747.37	248.23
747.70	248.10
748.03	247.87
748.36	247.69
748.68	247.47
749.01	247.12
749.34	246.91
749.67	246.64
750.00	246.55
750.33	246.50
750.65	246.43
750.98	245.95
751.31	245.55
751.64	245.25
751.97	245.13
752.29	244.93
752.62	244.64
752.95	244.38
753.28	244.23
753.60	244.14
753.93	244.02
754.26	243.86
754.59	243.58
754.91	243.44
755.24	243.23
755.57	243.00
755.90	242.91
756.22	242.62
756.55	242.50
756.88	242.25
757.20	241.99
757.53	241.73
757.86	241.62
758.19	241.65
758.51	241.62
758.84	241.47
759.17	241.35
759.49	241.31
759.82	241.25
760.15	241.02
760.47	240.87
760.80	240.60
761.13	240.57
761.45	240.39
761.78	240.24
762.11	240.17
762.43	240.16
762.76	240.09
763.08	240.00
763.41	239.79
763.74	239.67
764.06	239.48
764.39	239.39
764.71	239.28
765.04	239.12
765.37	238.95
765.69	238.72
766.02	238.58
766.34	238.43
766.67	238.33
767.00	238.30
767.32	238.26
767.65	238.31
767.97	238.24
768.30	238.27
768.62	238.21
768.95	238.00
769.27	237.88
769.60	237.76
769.92	237.69
770.25	237.68
770.57	237.47
770.90	237.45
771.22	237.32
771.55	237.20
771.87	237.00
772.20	236.94
772.52	237.19
772.85	237.31
773.17	237.23
773.50	237.10
773.82	237.00
774.15	236.80
774.47	236.65
774.80	236.57
775.12	236.45
775.45	236.40
775.77	236.34
776.09	236.29
776.42	236.16
776.74	236.18
777.07	236.10
777.39	236.07
777.72	235.99
778.04	235.94
778.36	235.87
778.69	235.92
779.01	235.86
779.33	235.57
779.66	235.34
779.98	235.26
780.31	235.08
780.63	235.12
780.95	235.10
781.28	235.02
781.60	234.80
781.92	234.65
782.25	234.46
782.57	234.30
782.89	234.20
783.22	234.19
783.54	234.09
783.86	234.05
784.19	234.01
784.51	233.97
784.83	233.87
785.16	233.78
785.48	233.61
785.80	233.51
786.12	233.45
786.45	233.28
786.77	233.23
787.09	233.26
787.42	233.09
787.74	233.01
788.06	232.95
788.38	232.93
788.71	232.82
789.03	232.82
789.35	232.91
789.67	232.91
