SpectraSuite Data File
++++++++++++++++++++++++++++++++++++
Date: Fri Feb 01 14:34:44 EST 2013
User: group
Dark Spectrum Present: No
Reference Spectrum Present: No
Number of Sampled Component Spectra: 1
Spectrometers: USB2E7196
Integration Time (usec): 70000 (USB2E7196)
Spectra Averaged: 10 (USB2E7196)
Boxcar Smoothing: 10 (USB2E7196)
Correct for Electrical Dark: No (USB2E7196)
Strobe/Lamp Enabled: No (USB2E7196)
Correct for Detector Non-linearity: No (USB2E7196)
Correct for Stray Light: No (USB2E7196)
Number of Pixels in Processed Spectrum: 2048
>>>>>Begin Processed Spectral Data<<<<<
339.09	0.00
339.48	217.30
339.86	219.30
340.24	219.20
340.63	221.30
341.01	225.10
341.39	223.60
341.78	227.70
342.16	227.10
342.54	227.40
342.93	215.39
343.31	226.28
343.69	226.85
344.07	227.22
344.46	227.51
344.84	227.88
345.22	228.02
345.60	228.35
345.99	228.41
346.37	228.55
346.75	228.59
347.13	228.61
347.52	228.70
347.90	228.74
348.28	228.78
348.66	228.89
349.05	228.79
349.43	228.74
349.81	228.63
350.19	228.76
350.57	228.80
350.96	228.95
351.34	229.00
351.72	229.06
352.10	229.13
352.48	229.31
352.87	229.36
353.25	229.43
353.63	229.35
354.01	229.32
354.39	229.40
354.77	229.53
355.15	229.64
355.54	229.58
355.92	229.60
356.30	229.68
356.68	229.77
357.06	229.81
357.44	229.90
357.82	230.05
358.20	230.08
358.58	230.13
358.97	230.17
359.35	230.18
359.73	230.22
360.11	230.25
360.49	230.36
360.87	230.40
361.25	230.36
361.63	230.43
362.01	230.55
362.39	230.41
362.77	230.41
363.15	230.46
363.53	230.41
363.91	230.44
364.29	230.45
364.67	230.34
365.05	230.35
365.43	230.35
365.81	230.32
366.19	230.24
366.57	230.30
366.95	230.21
367.33	230.19
367.71	230.07
368.09	230.18
368.47	230.08
368.85	230.05
369.23	230.01
369.61	230.01
369.99	229.98
370.37	230.04
370.75	230.01
371.13	229.82
371.51	229.90
371.89	229.83
372.27	229.84
372.65	229.74
373.03	229.77
373.41	229.73
373.78	229.69
374.16	229.62
374.54	229.40
374.92	229.33
375.30	229.28
375.68	229.27
376.06	229.06
376.44	228.99
376.82	228.90
377.19	228.93
377.57	228.83
377.95	228.70
378.33	228.52
378.71	228.32
379.09	228.28
379.47	228.25
379.84	228.19
380.22	228.02
380.60	227.88
380.98	227.77
381.36	227.76
381.73	227.58
382.11	227.51
382.49	227.55
382.87	227.47
383.25	227.43
383.62	227.59
384.00	227.62
384.38	227.67
384.76	227.68
385.13	227.73
385.51	227.71
385.89	227.70
386.27	227.68
386.64	227.70
387.02	227.69
387.40	227.55
387.78	227.49
388.15	227.52
388.53	227.62
388.91	227.50
389.29	227.35
389.66	227.36
390.04	227.41
390.42	227.44
390.79	227.47
391.17	227.52
391.55	227.28
391.92	227.28
392.30	227.17
392.68	227.14
393.05	227.20
393.43	227.15
393.81	227.21
394.18	227.30
394.56	227.41
394.94	227.46
395.31	227.62
395.69	227.73
396.06	227.83
396.44	227.86
396.82	228.04
397.19	228.34
397.57	228.51
397.95	228.60
398.32	228.67
398.70	228.82
399.07	228.87
399.45	228.99
399.82	229.09
400.20	229.29
400.58	229.43
400.95	229.41
401.33	229.63
401.70	229.90
402.08	230.00
402.45	230.18
402.83	230.35
403.20	230.57
403.58	230.76
403.95	230.93
404.33	231.16
404.71	231.42
405.08	231.72
405.46	232.00
405.83	232.27
406.21	232.50
406.58	232.82
406.96	233.09
407.33	233.53
407.70	234.03
408.08	234.58
408.45	235.08
408.83	235.62
409.20	236.18
409.58	236.70
409.95	237.47
410.33	238.14
410.70	238.89
411.08	239.67
411.45	240.55
411.82	241.42
412.20	242.35
412.57	243.47
412.95	244.35
413.32	245.48
413.69	246.56
414.07	247.91
414.44	249.34
414.82	250.82
415.19	252.36
415.56	253.91
415.94	255.69
416.31	257.60
416.68	259.49
417.06	261.55
417.43	263.53
417.81	265.80
418.18	268.14
418.55	270.70
418.93	273.31
419.30	276.08
419.67	278.96
420.04	281.94
420.42	285.00
420.79	288.62
421.16	292.32
421.54	296.16
421.91	300.01
422.28	303.95
422.66	308.31
423.03	312.53
423.40	316.88
423.77	321.36
424.15	326.04
424.52	330.91
424.89	336.34
425.26	341.50
425.64	346.31
426.01	351.70
426.38	357.22
426.75	362.94
427.13	368.77
427.50	374.88
427.87	381.23
428.24	387.59
428.61	393.73
428.99	400.43
429.36	407.60
429.73	414.80
430.10	421.78
430.47	428.78
430.85	436.23
431.22	444.06
431.59	452.26
431.96	460.30
432.33	469.05
432.70	477.52
433.08	487.60
433.45	497.02
433.82	506.45
434.19	516.86
434.56	527.00
434.93	536.85
435.30	546.73
435.68	557.56
436.05	568.17
436.42	578.69
436.79	587.95
437.16	598.49
437.53	609.27
437.90	620.05
438.27	630.83
438.64	641.98
439.01	652.26
439.38	661.49
439.75	670.49
440.13	680.81
440.50	690.34
440.87	698.24
441.24	706.77
441.61	715.83
441.98	722.82
442.35	730.85
442.72	738.77
443.09	746.61
443.46	751.92
443.83	755.60
444.20	758.82
444.57	763.98
444.94	766.70
445.31	769.61
445.68	772.32
446.05	774.37
446.42	774.51
446.79	774.60
447.16	774.59
447.53	774.84
447.90	772.10
448.27	769.50
448.64	764.90
449.01	762.08
449.37	756.20
449.74	750.44
450.11	743.24
450.48	735.36
450.85	727.23
451.22	720.30
451.59	713.79
451.96	707.59
452.33	698.62
452.70	690.80
453.07	680.98
453.43	671.48
453.80	661.95
454.17	652.56
454.54	643.68
454.91	634.16
455.28	624.65
455.65	616.02
456.02	606.92
456.38	599.60
456.75	590.13
457.12	582.27
457.49	574.36
457.86	566.80
458.23	560.52
458.59	553.13
458.96	545.56
459.33	539.16
459.70	532.48
460.07	527.26
460.43	521.00
460.80	515.23
461.17	509.86
461.54	504.39
461.91	499.51
462.27	494.22
462.64	489.77
463.01	484.87
463.38	479.98
463.74	475.49
464.11	471.42
464.48	467.50
464.85	463.27
465.21	460.08
465.58	456.72
465.95	452.50
466.32	449.29
466.68	446.13
467.05	442.72
467.42	439.60
467.78	435.90
468.15	432.47
468.52	430.14
468.88	427.04
469.25	424.34
469.62	421.93
469.98	419.57
470.35	417.35
470.72	415.13
471.08	412.75
471.45	410.68
471.82	408.40
472.18	406.21
472.55	404.71
472.92	402.73
473.28	400.92
473.65	399.38
474.02	397.69
474.38	396.26
474.75	395.01
475.11	393.72
475.48	392.61
475.85	391.67
476.21	390.60
476.58	389.90
476.94	389.07
477.31	388.09
477.67	387.41
478.04	386.71
478.41	386.29
478.77	385.91
479.14	385.36
479.50	385.09
479.87	384.98
480.23	384.82
480.60	384.65
480.96	384.56
481.33	384.62
481.69	384.85
482.06	384.90
482.42	384.93
482.79	385.12
483.15	385.75
483.52	386.48
483.88	386.92
484.25	387.25
484.61	387.76
484.98	388.51
485.34	389.34
485.71	390.33
486.07	391.46
486.44	392.46
486.80	393.71
487.17	395.05
487.53	396.48
487.90	398.04
488.26	399.73
488.62	401.56
488.99	403.28
489.35	405.04
489.72	407.04
490.08	409.00
490.44	411.08
490.81	413.14
491.17	415.34
491.54	417.77
491.90	420.47
492.26	423.04
492.63	425.65
492.99	428.43
493.36	431.13
493.72	433.92
494.08	436.65
494.45	439.50
494.81	442.65
495.17	445.84
495.54	449.09
495.90	452.47
496.26	455.68
496.63	459.22
496.99	462.76
497.35	466.30
497.72	469.93
498.08	473.53
498.44	477.48
498.80	481.24
499.17	485.13
499.53	488.65
499.89	492.65
500.26	496.56
500.62	500.28
500.98	504.21
501.34	508.07
501.71	512.53
502.07	516.76
502.43	520.69
502.79	524.72
503.16	528.70
503.52	532.63
503.88	536.62
504.24	540.66
504.60	544.71
504.97	548.86
505.33	553.20
505.69	557.47
506.05	561.49
506.41	565.17
506.78	568.86
507.14	572.91
507.50	576.73
507.86	580.73
508.22	584.60
508.59	588.45
508.95	592.32
509.31	596.00
509.67	599.74
510.03	603.37
510.39	607.05
510.75	610.59
511.12	614.11
511.48	617.68
511.84	620.88
512.20	624.24
512.56	627.62
512.92	630.78
513.28	633.87
513.64	636.87
514.00	640.18
514.37	643.34
514.73	646.37
515.09	649.22
515.45	651.89
515.81	654.70
516.17	657.37
516.53	659.93
516.89	662.46
517.25	664.78
517.61	667.19
517.97	669.37
518.33	671.61
518.69	673.77
519.05	675.68
519.41	678.06
519.77	680.32
520.13	682.43
520.49	684.29
520.85	686.06
521.21	687.96
521.57	689.80
521.93	691.59
522.29	693.68
522.65	695.54
523.01	697.15
523.37	698.76
523.73	700.55
524.09	702.17
524.45	703.83
524.81	705.51
525.17	707.58
525.53	709.49
525.89	711.13
526.25	712.92
526.61	714.69
526.97	716.26
527.33	717.94
527.68	719.60
528.04	721.43
528.40	723.38
528.76	725.27
529.12	727.45
529.48	729.53
529.84	731.10
530.20	733.12
530.56	735.61
530.91	737.79
531.27	739.92
531.63	742.15
531.99	744.13
532.35	746.33
532.71	748.13
533.07	750.40
533.42	752.71
533.78	754.99
534.14	757.33
534.50	759.32
534.86	761.47
535.21	763.24
535.57	765.76
535.93	767.91
536.29	769.97
536.65	772.08
537.00	774.18
537.36	776.59
537.72	778.90
538.08	781.11
538.44	783.47
538.79	785.81
539.15	787.93
539.51	790.28
539.87	792.76
540.22	795.42
540.58	798.30
540.94	800.61
541.29	803.00
541.65	805.54
542.01	808.50
542.37	811.15
542.72	814.06
543.08	816.38
543.44	819.10
543.79	821.71
544.15	824.54
544.51	827.54
544.87	830.21
545.22	832.91
545.58	835.40
545.94	838.17
546.29	840.53
546.65	843.60
547.01	846.42
547.36	848.99
547.72	851.43
548.07	853.81
548.43	856.60
548.79	859.30
549.14	861.79
549.50	864.24
549.86	866.91
550.21	869.43
550.57	872.23
550.92	874.72
551.28	877.43
551.64	879.92
551.99	882.68
552.35	885.36
552.70	888.02
553.06	890.92
553.41	893.57
553.77	896.52
554.13	899.11
554.48	901.65
554.84	904.50
555.19	907.43
555.55	910.09
555.90	912.58
556.26	915.24
556.61	917.94
556.97	920.45
557.32	922.93
557.68	925.65
558.03	928.32
558.39	930.98
558.74	933.68
559.10	936.30
559.45	938.56
559.81	941.40
560.16	943.75
560.52	946.10
560.87	948.54
561.23	950.85
561.58	953.25
561.94	955.91
562.29	957.80
562.64	959.71
563.00	961.68
563.35	964.43
563.71	966.84
564.06	969.45
564.42	971.84
564.77	973.80
565.12	976.16
565.48	978.44
565.83	980.76
566.19	983.24
566.54	985.26
566.89	987.33
567.25	989.16
567.60	991.37
567.96	993.49
568.31	995.41
568.66	997.26
569.02	998.88
569.37	1000.17
569.72	1002.20
570.08	1003.81
570.43	1005.48
570.78	1006.61
571.14	1007.78
571.49	1008.57
571.84	1010.34
572.20	1011.89
572.55	1012.81
572.90	1013.45
573.26	1014.33
573.61	1014.62
573.96	1015.25
574.31	1015.55
574.67	1015.81
575.02	1015.92
575.37	1016.01
575.72	1016.02
576.08	1016.39
576.43	1016.63
576.78	1017.01
577.13	1017.46
577.49	1017.80
577.84	1017.67
578.19	1017.80
578.54	1017.69
578.90	1017.83
579.25	1016.69
579.60	1015.99
579.95	1015.63
580.30	1015.10
580.66	1014.23
581.01	1013.69
581.36	1012.79
581.71	1012.11
582.06	1011.29
582.42	1010.66
582.77	1009.73
583.12	1009.07
583.47	1008.08
583.82	1006.89
584.17	1005.80
584.53	1004.22
584.88	1002.93
585.23	1001.91
585.58	1000.34
585.93	999.12
586.28	998.15
586.63	997.47
586.98	996.72
587.34	995.48
587.69	994.59
588.04	993.60
588.39	992.57
588.74	991.25
589.09	990.00
589.44	988.34
589.79	987.18
590.14	985.77
590.49	983.90
590.84	982.29
591.19	981.14
591.54	979.19
591.89	977.02
592.25	975.34
592.60	973.11
592.95	971.14
593.30	968.90
593.65	966.28
594.00	963.82
594.35	961.94
594.70	959.34
595.05	956.86
595.40	954.43
595.75	951.72
596.10	949.51
596.45	947.63
596.80	945.84
597.15	943.20
597.50	940.82
597.85	938.89
598.19	936.86
598.54	934.72
598.89	932.82
599.24	931.31
599.59	928.84
599.94	926.87
600.29	924.48
600.64	922.38
600.99	920.18
601.34	917.98
601.69	915.05
602.04	912.93
602.39	910.50
602.74	908.33
603.08	906.42
603.43	904.56
603.78	901.76
604.13	899.21
604.48	896.82
604.83	894.63
605.18	891.93
605.53	889.01
605.87	885.61
606.22	882.96
606.57	879.92
606.92	877.38
607.27	874.94
607.62	872.90
607.96	870.45
608.31	868.01
608.66	865.18
609.01	862.02
609.36	858.91
609.70	855.85
610.05	852.70
610.40	849.51
610.75	846.14
611.10	843.09
611.44	839.61
611.79	836.76
612.14	833.45
612.49	829.90
612.83	826.53
613.18	823.68
613.53	820.35
613.88	817.29
614.22	814.12
614.57	810.34
614.92	806.94
615.27	803.66
615.61	800.00
615.96	796.65
616.31	793.94
616.65	791.16
617.00	788.11
617.35	784.81
617.70	781.66
618.04	778.11
618.39	774.86
618.74	771.87
619.08	768.43
619.43	765.31
619.78	762.59
620.12	759.76
620.47	756.65
620.82	753.36
621.16	750.15
621.51	747.21
621.85	744.29
622.20	740.63
622.55	737.31
622.89	734.47
623.24	731.63
623.59	728.57
623.93	725.41
624.28	722.56
624.62	719.97
624.97	716.83
625.32	714.27
625.66	711.42
626.01	708.68
626.35	705.74
626.70	702.81
627.04	700.01
627.39	697.01
627.73	694.08
628.08	691.35
628.43	688.45
628.77	685.42
629.12	682.57
629.46	679.94
629.81	676.96
630.15	673.87
630.50	670.76
630.84	667.37
631.19	664.21
631.53	661.05
631.88	657.62
632.22	654.40
632.57	651.27
632.91	648.30
633.26	645.24
633.60	642.01
633.95	639.10
634.29	636.14
634.64	633.15
634.98	630.23
635.32	627.46
635.67	624.75
636.01	621.77
636.36	618.88
636.70	616.34
637.05	613.67
637.39	610.97
637.73	608.50
638.08	606.27
638.42	603.79
638.77	601.33
639.11	599.06
639.45	596.80
639.80	594.20
640.14	591.51
640.49	588.95
640.83	586.53
641.17	583.87
641.52	581.28
641.86	578.62
642.20	576.22
642.55	573.52
642.89	570.88
643.23	568.41
643.58	566.30
643.92	563.50
644.26	561.00
644.61	558.81
644.95	556.20
645.29	553.45
645.64	551.02
645.98	548.37
646.32	545.84
646.66	543.16
647.01	540.88
647.35	538.64
647.69	536.35
648.04	534.14
648.38	531.77
648.72	529.14
649.06	526.74
649.41	524.36
649.75	521.93
650.09	519.46
650.43	516.88
650.78	513.97
651.12	511.46
651.46	509.32
651.80	506.92
652.14	504.53
652.49	502.31
652.83	499.87
653.17	497.46
653.51	494.89
653.85	492.59
654.20	490.05
654.54	487.47
654.88	484.85
655.22	482.37
655.56	479.87
655.90	477.65
656.25	475.36
656.59	472.92
656.93	470.78
657.27	468.86
657.61	466.67
657.95	464.81
658.29	462.69
658.64	460.36
658.98	457.81
659.32	455.58
659.66	453.43
660.00	451.26
660.34	449.12
660.68	447.14
661.02	445.11
661.36	443.18
661.70	441.25
662.05	439.23
662.39	437.20
662.73	435.49
663.07	433.86
663.41	432.15
663.75	430.28
664.09	428.37
664.43	426.18
664.77	424.47
665.11	422.44
665.45	420.84
665.79	418.89
666.13	417.37
666.47	415.66
666.81	413.89
667.15	411.99
667.49	410.24
667.83	408.60
668.17	406.86
668.51	404.95
668.85	403.29
669.19	401.72
669.53	400.11
669.87	398.36
670.21	396.53
670.55	394.76
670.89	393.36
671.23	391.68
671.57	390.30
671.91	388.78
672.25	387.30
672.58	385.76
672.92	384.43
673.26	383.06
673.60	381.68
673.94	380.30
674.28	379.10
674.62	377.84
674.96	376.42
675.30	375.03
675.64	373.83
675.97	372.53
676.31	371.26
676.65	370.02
676.99	368.74
677.33	367.38
677.67	366.13
678.01	364.58
678.34	363.31
678.68	362.08
679.02	360.70
679.36	359.50
679.70	358.22
680.04	357.01
680.37	355.71
680.71	354.55
681.05	353.44
681.39	352.31
681.73	351.10
682.06	350.06
682.40	349.17
682.74	348.18
683.08	347.12
683.42	345.93
683.75	344.72
684.09	343.60
684.43	342.64
684.77	341.59
685.10	340.62
685.44	339.70
685.78	338.57
686.12	337.64
686.45	336.37
686.79	335.35
687.13	334.29
687.46	333.10
687.80	332.03
688.14	330.78
688.48	329.78
688.81	328.88
689.15	327.78
689.49	326.63
689.82	325.53
690.16	324.40
690.50	323.58
690.83	322.63
691.17	321.56
691.51	320.50
691.84	319.64
692.18	318.66
692.52	317.61
692.85	316.58
693.19	315.67
693.52	314.81
693.86	313.74
694.20	312.80
694.53	312.07
694.87	311.07
695.21	310.29
695.54	309.41
695.88	308.43
696.21	307.38
696.55	306.59
696.88	305.85
697.22	305.04
697.56	304.11
697.89	303.26
698.23	302.53
698.56	301.77
698.90	300.91
699.23	299.98
699.57	299.12
699.90	298.42
700.24	297.51
700.58	296.83
700.91	296.27
701.25	295.66
701.58	295.00
701.92	294.31
702.25	293.60
702.59	292.86
702.92	292.29
703.26	291.70
703.59	290.96
703.93	290.31
704.26	289.66
704.60	289.06
704.93	288.55
705.26	287.89
705.60	287.27
705.93	286.65
706.27	286.30
706.60	285.87
706.94	285.24
707.27	284.67
707.61	284.09
707.94	283.55
708.27	282.87
708.61	282.25
708.94	281.74
709.28	281.26
709.61	280.64
709.94	280.19
710.28	279.69
710.61	279.17
710.95	278.55
711.28	278.12
711.61	277.65
711.95	277.05
712.28	276.50
712.61	275.94
712.95	275.41
713.28	274.92
713.61	274.35
713.95	273.86
714.28	273.38
714.61	272.85
714.95	272.29
715.28	271.72
715.61	271.13
715.95	270.67
716.28	270.18
716.61	269.94
716.95	269.45
717.28	268.97
717.61	268.54
717.94	268.04
718.28	267.57
718.61	267.12
718.94	266.75
719.27	266.47
719.61	266.14
719.94	265.82
720.27	265.34
720.60	264.99
720.94	264.79
721.27	264.50
721.60	264.18
721.93	263.84
722.27	263.63
722.60	263.34
722.93	262.94
723.26	262.68
723.59	262.24
723.93	261.85
724.26	261.61
724.59	261.29
724.92	261.06
725.25	260.67
725.59	260.30
725.92	260.00
726.25	259.59
726.58	259.21
726.91	258.80
727.24	258.50
727.57	258.25
727.91	257.78
728.24	257.52
728.57	257.27
728.90	256.95
729.23	256.66
729.56	256.44
729.89	256.20
730.22	255.90
730.55	255.60
730.89	255.32
731.22	255.04
731.55	254.70
731.88	254.36
732.21	254.14
732.54	253.95
732.87	253.69
733.20	253.41
733.53	253.21
733.86	253.04
734.19	252.80
734.52	252.43
734.85	252.33
735.18	252.10
735.51	251.88
735.84	251.70
736.17	251.40
736.50	251.07
736.83	251.05
737.16	250.80
737.49	250.56
737.82	250.23
738.15	250.05
738.48	249.86
738.81	249.70
739.14	249.52
739.47	249.32
739.80	249.10
740.13	249.03
740.46	248.82
740.79	248.56
741.12	248.32
741.45	248.21
741.78	247.95
742.11	247.65
742.44	247.45
742.77	247.17
743.10	247.06
743.43	246.86
743.75	246.42
744.08	246.46
744.41	246.27
744.74	246.27
745.07	246.07
745.40	245.94
745.73	245.89
746.06	245.69
746.39	245.52
746.71	245.24
747.04	244.97
747.37	244.78
747.70	244.70
748.03	244.60
748.36	244.42
748.68	244.29
749.01	244.10
749.34	243.95
749.67	243.87
750.00	243.68
750.33	243.57
750.65	243.44
750.98	243.02
751.31	242.90
751.64	242.58
751.97	242.47
752.29	242.30
752.62	241.97
752.95	241.70
753.28	241.44
753.60	241.40
753.93	241.32
754.26	241.23
754.59	240.97
754.91	240.76
755.24	240.65
755.57	240.38
755.90	240.26
756.22	240.05
756.55	239.93
756.88	239.72
757.20	239.60
757.53	239.40
757.86	239.30
758.19	239.11
758.51	238.98
758.84	238.85
759.17	238.75
759.49	238.64
759.82	238.72
760.15	238.63
760.47	238.49
760.80	238.32
761.13	238.10
761.45	237.97
761.78	237.89
762.11	237.67
762.43	237.59
762.76	237.47
763.08	237.40
763.41	237.30
763.74	237.25
764.06	236.99
764.39	236.90
764.71	236.83
765.04	236.62
765.37	236.59
765.69	236.42
766.02	236.25
766.34	236.17
766.67	235.98
767.00	235.93
767.32	235.92
767.65	235.94
767.97	235.90
768.30	235.87
768.62	235.78
768.95	235.84
769.27	235.78
769.60	235.69
769.92	235.54
770.25	235.36
770.57	235.27
770.90	235.32
771.22	235.24
771.55	235.13
771.87	235.23
772.20	235.10
772.52	235.17
772.85	235.36
773.17	235.24
773.50	235.13
773.82	235.12
774.15	234.89
774.47	234.75
774.80	234.57
775.12	234.52
775.45	234.44
775.77	234.37
776.09	234.24
776.42	234.22
776.74	234.26
777.07	234.27
777.39	234.23
777.72	234.18
778.04	234.19
778.36	234.16
778.69	234.10
779.01	234.04
779.33	233.83
779.66	233.51
779.98	233.50
780.31	233.50
780.63	233.44
780.95	233.53
781.28	233.46
781.60	233.55
781.92	233.55
782.25	233.54
782.57	233.47
782.89	233.47
783.22	233.50
783.54	233.43
783.86	233.43
784.19	233.37
784.51	233.36
784.83	233.25
785.16	233.05
785.48	232.96
785.80	232.94
786.12	232.91
786.45	232.85
786.77	232.76
787.09	232.60
787.42	232.44
787.74	232.38
788.06	232.39
788.38	232.26
788.71	232.04
789.03	231.94
789.35	231.89
789.67	231.88
789.99	231.69
790.32	231.67
790.64	231.51
790.96	231.61
791.28	231.51
791.61	231.44
791.93	231.62
792.25	231.57
792.57	231.58
792.89	231.53
793.21	231.56
