SpectraSuite Data File
++++++++++++++++++++++++++++++++++++
Date: Fri Feb 01 14:36:12 EST 2013
User: group
Dark Spectrum Present: No
Reference Spectrum Present: No
Number of Sampled Component Spectra: 1
Spectrometers: USB2E7196
Integration Time (usec): 70000 (USB2E7196)
Spectra Averaged: 10 (USB2E7196)
Boxcar Smoothing: 10 (USB2E7196)
Correct for Electrical Dark: No (USB2E7196)
Strobe/Lamp Enabled: No (USB2E7196)
Correct for Detector Non-linearity: No (USB2E7196)
Correct for Stray Light: No (USB2E7196)
Number of Pixels in Processed Spectrum: 2048
>>>>>Begin Processed Spectral Data<<<<<
339.09	0.00
339.48	215.90
339.86	217.10
340.24	218.40
340.63	220.70
341.01	225.60
341.39	222.60
341.78	224.10
342.16	226.20
342.54	225.70
342.93	214.92
343.31	225.73
343.69	226.31
344.07	226.80
344.46	227.30
344.84	227.57
345.22	227.76
345.60	228.06
345.99	228.23
346.37	228.34
346.75	228.42
347.13	228.41
347.52	228.43
347.90	228.56
348.28	228.55
348.66	228.55
349.05	228.54
349.43	228.66
349.81	228.60
350.19	228.56
350.57	228.58
350.96	228.63
351.34	228.73
351.72	228.78
352.10	228.83
352.48	228.85
352.87	229.03
353.25	229.02
353.63	229.09
354.01	229.15
354.39	229.23
354.77	229.30
355.15	229.40
355.54	229.47
355.92	229.51
356.30	229.46
356.68	229.61
357.06	229.67
357.44	229.56
357.82	229.63
358.20	229.61
358.58	229.59
358.97	229.71
359.35	229.84
359.73	229.84
360.11	229.91
360.49	229.92
360.87	229.95
361.25	229.95
361.63	230.02
362.01	230.06
362.39	230.02
362.77	230.16
363.15	230.30
363.53	230.27
363.91	230.22
364.29	230.34
364.67	230.25
365.05	230.26
365.43	230.31
365.81	230.29
366.19	230.34
366.57	230.47
366.95	230.36
367.33	230.20
367.71	230.18
368.09	230.13
368.47	230.12
368.85	230.09
369.23	230.09
369.61	229.98
369.99	229.96
370.37	229.95
370.75	229.89
371.13	229.63
371.51	229.50
371.89	229.47
372.27	229.31
372.65	229.30
373.03	229.22
373.41	229.12
373.78	229.10
374.16	229.03
374.54	228.97
374.92	228.94
375.30	228.98
375.68	228.99
376.06	228.97
376.44	228.93
376.82	228.88
377.19	228.80
377.57	228.70
377.95	228.60
378.33	228.50
378.71	228.28
379.09	228.33
379.47	228.36
379.84	228.15
380.22	228.13
380.60	227.95
380.98	227.76
381.36	227.66
381.73	227.42
382.11	227.41
382.49	227.31
382.87	227.20
383.25	227.11
383.62	227.19
384.00	227.03
384.38	227.01
384.76	226.99
385.13	227.00
385.51	226.89
385.89	226.80
386.27	226.76
386.64	226.82
387.02	226.72
387.40	226.57
387.78	226.58
388.15	226.50
388.53	226.51
388.91	226.57
389.29	226.62
389.66	226.76
390.04	226.60
390.42	226.60
390.79	226.57
391.17	226.53
391.55	226.29
391.92	226.26
392.30	226.12
392.68	226.05
393.05	226.11
393.43	226.14
393.81	226.11
394.18	226.15
394.56	226.10
394.94	226.20
395.31	226.16
395.69	226.41
396.06	226.49
396.44	226.59
396.82	226.62
397.19	226.79
397.57	226.80
397.95	227.00
398.32	226.97
398.70	227.08
399.07	227.26
399.45	227.39
399.82	227.60
400.20	227.86
400.58	227.99
400.95	228.05
401.33	228.21
401.70	228.67
402.08	228.87
402.45	229.10
402.83	229.29
403.20	229.57
403.58	229.62
403.95	229.84
404.33	230.00
404.71	230.27
405.08	230.48
405.46	230.68
405.83	230.84
406.21	231.15
406.58	231.60
406.96	231.86
407.33	232.18
407.70	232.55
408.08	233.00
408.45	233.43
408.83	233.80
409.20	234.26
409.58	234.51
409.95	234.96
410.33	235.52
410.70	236.04
411.08	236.53
411.45	237.12
411.82	237.77
412.20	238.49
412.57	239.23
412.95	239.97
413.32	240.81
413.69	241.69
414.07	242.61
414.44	243.35
414.82	244.27
415.19	245.50
415.56	246.59
415.94	247.70
416.31	249.01
416.68	250.45
417.06	251.94
417.43	253.32
417.81	254.92
418.18	256.41
418.55	258.23
418.93	260.23
419.30	262.27
419.67	264.35
420.04	266.58
420.42	268.85
420.79	271.40
421.16	274.00
421.54	276.70
421.91	279.46
422.28	282.45
422.66	285.54
423.03	288.39
423.40	291.55
423.77	294.80
424.15	298.20
424.52	301.55
424.89	305.36
425.26	309.04
425.64	312.64
426.01	316.53
426.38	320.36
426.75	324.42
427.13	328.66
427.50	333.00
427.87	337.41
428.24	341.86
428.61	346.12
428.99	350.98
429.36	356.19
429.73	361.34
430.10	366.24
430.47	371.40
430.85	376.74
431.22	382.21
431.59	388.12
431.96	393.76
432.33	399.94
432.70	405.95
433.08	413.08
433.45	419.64
433.82	426.41
434.19	434.08
434.56	441.26
434.93	448.13
435.30	454.97
435.68	462.70
436.05	470.26
436.42	478.03
436.79	484.87
437.16	492.14
437.53	499.42
437.90	507.03
438.27	514.69
438.64	522.35
439.01	529.71
439.38	535.98
439.75	542.07
440.13	549.39
440.50	556.20
440.87	561.89
441.24	567.90
441.61	574.30
441.98	579.00
442.35	584.57
442.72	590.21
443.09	595.97
443.46	599.50
443.83	602.16
444.20	604.10
444.57	607.33
444.94	609.30
445.31	611.59
445.68	613.73
446.05	614.87
446.42	615.22
446.79	615.17
447.16	615.26
447.53	615.59
447.90	613.73
448.27	611.84
448.64	608.50
449.01	606.50
449.37	602.21
449.74	598.05
450.11	593.12
450.48	587.41
450.85	581.46
451.22	576.58
451.59	571.98
451.96	567.82
452.33	561.53
452.70	555.90
453.07	549.10
453.43	542.02
453.80	535.40
454.17	528.85
454.54	522.67
454.91	516.01
455.28	509.47
455.65	503.19
456.02	496.84
456.38	491.51
456.75	484.65
457.12	479.02
457.49	473.36
457.86	467.86
458.23	463.31
458.59	457.95
458.96	452.68
459.33	447.92
459.70	443.05
460.07	439.29
460.43	434.85
460.80	430.72
461.17	427.07
461.54	423.09
461.91	419.30
462.27	415.56
462.64	412.34
463.01	408.56
463.38	405.08
463.74	401.60
464.11	398.71
464.48	396.04
464.85	393.15
465.21	390.93
465.58	388.54
465.95	385.76
466.32	383.60
466.68	381.21
467.05	378.80
467.42	376.50
467.78	373.90
468.15	371.49
468.52	369.59
468.88	367.38
469.25	365.38
469.62	363.70
469.98	361.81
470.35	360.01
470.72	358.58
471.08	356.81
471.45	355.32
471.82	353.77
472.18	352.05
472.55	350.69
472.92	349.25
473.28	347.97
473.65	346.48
474.02	345.16
474.38	344.00
474.75	343.12
475.11	341.94
475.48	341.08
475.85	340.32
476.21	339.59
476.58	338.65
476.94	338.01
477.31	337.32
477.67	336.80
478.04	336.27
478.41	335.78
478.77	335.49
479.14	334.97
479.50	334.65
479.87	334.50
480.23	334.40
480.60	334.18
480.96	333.89
481.33	334.00
481.69	333.96
482.06	333.93
482.42	333.68
482.79	333.76
483.15	333.85
483.52	334.16
483.88	334.07
484.25	334.30
484.61	334.40
484.98	334.75
485.34	335.11
485.71	335.53
486.07	336.02
486.44	336.50
486.80	337.07
487.17	337.64
487.53	338.39
487.90	339.16
488.26	340.05
488.62	340.94
488.99	341.87
489.35	342.61
489.72	343.73
490.08	344.82
490.44	345.96
490.81	347.14
491.17	348.20
491.54	349.61
491.90	350.93
492.26	352.27
492.63	353.50
492.99	354.78
493.36	356.15
493.72	357.55
494.08	358.90
494.45	360.50
494.81	362.21
495.17	363.76
495.54	365.49
495.90	367.08
496.26	368.51
496.63	369.96
496.99	371.77
497.35	373.25
497.72	374.98
498.08	376.64
498.44	378.39
498.80	380.18
499.17	381.91
499.53	383.60
499.89	385.37
500.26	387.05
500.62	388.74
500.98	390.55
501.34	392.24
501.71	393.98
502.07	395.51
502.43	397.07
502.79	398.65
503.16	400.18
503.52	401.66
503.88	403.22
504.24	404.90
504.60	406.55
504.97	408.14
505.33	409.56
505.69	411.12
506.05	412.50
506.41	413.79
506.78	415.05
507.14	416.26
507.50	417.71
507.86	419.09
508.22	420.26
508.59	421.30
508.95	422.42
509.31	423.73
509.67	424.86
510.03	425.71
510.39	426.62
510.75	427.50
511.12	428.42
511.48	429.45
511.84	430.22
512.20	430.92
512.56	431.58
512.92	432.22
513.28	432.73
513.64	433.29
514.00	433.87
514.37	434.46
514.73	434.92
515.09	435.30
515.45	435.72
515.81	436.05
516.17	436.46
516.53	436.78
516.89	436.99
517.25	437.37
517.61	437.90
517.97	438.23
518.33	438.51
518.69	438.84
519.05	439.16
519.41	439.47
519.77	439.77
520.13	440.16
520.49	440.64
520.85	440.84
521.21	441.24
521.57	441.56
521.93	441.77
522.29	442.44
522.65	442.72
523.01	443.06
523.37	443.53
523.73	443.92
524.09	444.48
524.45	444.96
524.81	445.58
525.17	446.32
525.53	446.98
525.89	447.81
526.25	448.54
526.61	449.00
526.97	449.96
527.33	450.88
527.68	451.88
528.04	452.68
528.40	453.93
528.76	455.04
529.12	456.26
529.48	457.72
529.84	458.80
530.20	460.17
530.56	461.70
530.91	463.41
531.27	465.18
531.63	466.77
531.99	468.50
532.35	470.21
532.71	471.90
533.07	473.81
533.42	475.75
533.78	477.61
534.14	480.01
534.50	481.93
534.86	484.15
535.21	486.34
535.57	488.91
535.93	491.32
536.29	493.86
536.65	496.42
537.00	498.77
537.36	501.67
537.72	504.30
538.08	507.02
538.44	509.87
538.79	512.62
539.15	515.58
539.51	518.63
539.87	521.78
540.22	524.77
540.58	527.90
540.94	531.00
541.29	534.09
541.65	537.20
542.01	540.82
542.37	544.33
542.72	547.49
543.08	550.86
543.44	554.35
543.79	557.60
544.15	561.30
544.51	565.27
544.87	568.88
545.22	572.59
545.58	576.16
545.94	579.70
546.29	583.53
546.65	587.26
547.01	590.90
547.36	594.51
547.72	598.31
548.07	601.88
548.43	605.70
548.79	609.65
549.14	613.59
549.50	617.32
549.86	620.89
550.21	624.91
550.57	628.74
550.92	632.70
551.28	636.73
551.64	640.48
551.99	644.25
552.35	647.99
552.70	652.03
553.06	656.15
553.41	660.21
553.77	664.18
554.13	668.12
554.48	672.07
554.84	676.02
555.19	679.92
555.55	684.40
555.90	688.23
556.26	692.31
556.61	696.19
556.97	699.92
557.32	703.97
557.68	707.97
558.03	712.07
558.39	715.87
558.74	719.85
559.10	723.80
559.45	727.72
559.81	731.80
560.16	735.48
560.52	739.10
560.87	742.92
561.23	746.35
561.58	750.39
561.94	754.08
562.29	757.39
562.64	760.79
563.00	764.25
563.35	768.10
563.71	771.92
564.06	775.54
564.42	779.07
564.77	782.74
565.12	786.40
565.48	789.93
565.83	793.00
566.19	796.33
566.54	799.73
566.89	802.98
567.25	806.17
567.60	809.69
567.96	813.04
568.31	816.12
568.66	819.44
569.02	822.14
569.37	825.07
569.72	828.30
570.08	831.57
570.43	834.29
570.78	836.86
571.14	839.06
571.49	841.57
571.84	844.41
572.20	846.40
572.55	848.42
572.90	850.40
573.26	852.90
573.61	854.91
573.96	856.77
574.31	858.50
574.67	860.13
575.02	861.66
575.37	862.92
575.72	863.76
576.08	865.20
576.43	866.82
576.78	868.30
577.13	869.96
577.49	871.15
577.84	872.32
578.19	873.60
578.54	874.74
578.90	875.71
579.25	876.20
579.60	877.10
579.95	878.00
580.30	878.55
580.66	879.06
581.01	879.72
581.36	880.32
581.71	880.96
582.06	881.51
582.42	881.76
582.77	882.35
583.12	883.11
583.47	883.43
583.82	883.72
584.17	883.74
584.53	883.68
584.88	883.78
585.23	884.03
585.58	883.80
585.93	883.96
586.28	884.25
586.63	884.52
586.98	884.46
587.34	884.55
587.69	884.55
588.04	884.51
588.39	884.30
588.74	883.57
589.09	883.12
589.44	882.54
589.79	882.30
590.14	882.22
590.49	882.22
590.84	881.81
591.19	881.20
591.54	880.43
591.89	879.30
592.25	878.66
592.60	877.43
592.95	876.35
593.30	875.28
593.65	873.73
594.00	872.47
594.35	871.87
594.70	870.30
595.05	869.35
595.40	868.06
595.75	866.75
596.10	865.94
596.45	864.80
596.80	863.95
597.15	862.83
597.50	861.27
597.85	859.88
598.19	858.25
598.54	856.95
598.89	855.73
599.24	854.91
599.59	853.47
599.94	852.26
600.29	851.19
600.64	849.61
600.99	848.46
601.34	846.85
601.69	845.02
602.04	843.44
602.39	841.85
602.74	840.49
603.08	839.05
603.43	837.41
603.78	835.87
604.13	834.10
604.48	832.19
604.83	830.62
605.18	829.06
605.53	827.32
605.87	825.17
606.22	823.30
606.57	821.17
606.92	819.23
607.27	817.46
607.62	815.62
607.96	814.00
608.31	812.21
608.66	810.21
609.01	808.00
609.36	805.86
609.70	803.31
610.05	800.79
610.40	798.54
610.75	796.14
611.10	793.64
611.44	790.85
611.79	788.62
612.14	786.07
612.49	782.70
612.83	780.30
613.18	777.80
613.53	775.43
613.88	772.69
614.22	770.07
614.57	767.37
614.92	764.89
615.27	762.46
615.61	759.65
615.96	757.15
616.31	754.85
616.65	752.77
617.00	750.35
617.35	748.07
617.70	745.31
618.04	742.74
618.39	740.21
618.74	737.97
619.08	735.31
619.43	732.49
619.78	730.44
620.12	727.94
620.47	725.51
620.82	722.79
621.16	720.39
621.51	717.94
621.85	715.34
622.20	712.38
622.55	709.64
622.89	707.14
623.24	704.86
623.59	702.20
623.93	699.59
624.28	697.12
624.62	694.57
624.97	692.39
625.32	690.07
625.66	687.68
626.01	685.21
626.35	682.81
626.70	680.52
627.04	677.99
627.39	675.12
627.73	672.66
628.08	670.25
628.43	667.75
628.77	665.29
629.12	662.76
629.46	660.29
629.81	657.58
630.15	654.67
630.50	651.91
630.84	649.00
631.19	646.14
631.53	643.50
631.88	640.69
632.22	637.75
632.57	634.96
632.91	632.17
633.26	629.41
633.60	626.52
633.95	623.79
634.29	621.17
634.64	618.98
634.98	616.22
635.32	613.73
635.67	611.43
636.01	608.70
636.36	606.03
636.70	603.55
637.05	601.27
637.39	599.02
637.73	596.73
638.08	594.87
638.42	592.81
638.77	590.55
639.11	588.03
639.45	585.65
639.80	583.26
640.14	581.02
640.49	578.67
640.83	576.41
641.17	574.20
641.52	571.95
641.86	569.46
642.20	567.39
642.55	564.96
642.89	562.48
643.23	560.41
643.58	558.34
643.92	555.96
644.26	553.56
644.61	551.48
644.95	549.04
645.29	546.24
645.64	543.44
645.98	540.98
646.32	538.90
646.66	536.59
647.01	534.28
647.35	531.88
647.69	529.52
648.04	527.37
648.38	525.01
648.72	522.37
649.06	519.84
649.41	517.36
649.75	514.96
650.09	512.56
650.43	509.81
650.78	507.20
651.12	504.84
651.46	502.46
651.80	500.09
652.14	498.05
652.49	495.94
652.83	494.01
653.17	491.79
653.51	489.33
653.85	487.19
654.20	484.89
654.54	482.60
654.88	480.18
655.22	477.74
655.56	475.26
655.90	473.19
656.25	471.19
656.59	469.06
656.93	467.12
657.27	465.19
657.61	463.10
657.95	461.32
658.29	459.45
658.64	457.46
658.98	455.23
659.32	452.79
659.66	450.74
660.00	448.57
660.34	446.35
660.68	444.48
661.02	442.30
661.36	440.44
661.70	438.54
662.05	436.83
662.39	435.19
662.73	433.47
663.07	431.70
663.41	429.99
663.75	428.11
664.09	426.21
664.43	424.12
664.77	422.37
665.11	420.60
665.45	418.79
665.79	416.84
666.13	415.15
666.47	413.44
666.81	411.70
667.15	409.93
667.49	408.49
667.83	406.87
668.17	405.39
668.51	403.60
668.85	401.91
669.19	400.50
669.53	398.78
669.87	397.19
670.21	395.72
670.55	394.06
670.89	392.80
671.23	391.45
671.57	390.18
671.91	388.74
672.25	387.01
672.58	385.65
672.92	384.38
673.26	382.94
673.60	381.64
673.94	380.28
674.28	379.12
674.62	377.84
674.96	376.34
675.30	375.02
675.64	373.93
675.97	372.85
676.31	371.43
676.65	370.16
676.99	369.16
677.33	367.78
677.67	366.53
678.01	364.97
678.34	363.64
678.68	362.41
679.02	361.28
679.36	360.29
679.70	359.00
680.04	357.72
680.37	356.59
680.71	355.48
681.05	354.40
681.39	353.23
681.73	352.11
682.06	351.08
682.40	349.95
682.74	348.77
683.08	347.63
683.42	346.48
683.75	345.44
684.09	344.10
684.43	343.09
684.77	342.02
685.10	340.98
685.44	339.66
685.78	338.47
686.12	337.29
686.45	336.15
686.79	334.98
687.13	333.90
687.46	332.85
687.80	331.75
688.14	330.54
688.48	329.44
688.81	328.29
689.15	327.33
689.49	326.20
689.82	325.10
690.16	323.95
690.50	322.96
690.83	321.85
691.17	320.76
691.51	319.78
691.84	318.90
692.18	317.97
692.52	317.25
692.85	316.42
693.19	315.53
693.52	314.60
693.86	313.73
694.20	312.94
694.53	312.07
694.87	311.16
695.21	310.35
695.54	309.41
695.88	308.49
696.21	307.41
696.55	306.61
696.88	305.90
697.22	305.13
697.56	304.31
697.89	303.59
698.23	302.96
698.56	302.05
698.90	301.32
699.23	300.36
699.57	299.40
699.90	298.55
700.24	297.79
700.58	296.99
700.91	296.23
701.25	295.59
701.58	295.00
701.92	294.33
702.25	293.69
702.59	293.20
702.92	292.52
703.26	291.95
703.59	291.25
703.93	290.78
704.26	290.16
704.60	289.56
704.93	288.84
705.26	288.21
705.60	287.77
705.93	287.06
706.27	286.65
706.60	286.32
706.94	285.79
707.27	285.23
707.61	284.73
707.94	284.27
708.27	283.50
708.61	282.74
708.94	282.15
709.28	281.56
709.61	280.95
709.94	280.54
710.28	279.99
710.61	279.54
710.95	278.65
711.28	278.32
711.61	277.76
711.95	277.30
712.28	276.67
712.61	276.07
712.95	275.64
713.28	275.27
713.61	274.65
713.95	274.08
714.28	273.67
714.61	273.14
714.95	272.65
715.28	272.28
715.61	271.83
715.95	271.44
716.28	270.93
716.61	270.46
716.95	269.83
717.28	269.53
717.61	269.10
717.94	268.76
718.28	268.04
718.61	267.70
718.94	267.34
719.27	267.02
719.61	266.70
719.94	266.26
720.27	265.68
720.60	265.21
720.94	264.91
721.27	264.52
721.60	264.20
721.93	263.81
722.27	263.47
722.60	263.20
722.93	262.79
723.26	262.48
723.59	262.10
723.93	261.92
724.26	261.48
724.59	261.08
724.92	260.85
725.25	260.70
725.59	260.30
725.92	259.82
726.25	259.58
726.58	259.24
726.91	258.95
727.24	258.65
727.57	258.25
727.91	257.83
728.24	257.52
728.57	257.25
728.90	256.90
729.23	256.56
729.56	256.21
729.89	255.95
730.22	255.78
730.55	255.42
730.89	255.03
731.22	254.74
731.55	254.44
731.88	254.04
732.21	253.57
732.54	253.25
732.87	253.00
733.20	252.64
733.53	252.34
733.86	252.07
734.19	251.77
734.52	251.69
734.85	251.58
735.18	251.25
735.51	250.93
735.84	250.80
736.17	250.63
736.50	250.32
736.83	250.28
737.16	249.94
737.49	249.75
737.82	249.45
738.15	249.29
738.48	249.10
738.81	248.88
739.14	248.73
739.47	248.45
739.80	248.20
740.13	247.96
740.46	247.70
740.79	247.36
741.12	247.07
741.45	246.81
741.78	246.53
742.11	246.37
742.44	246.20
742.77	245.86
743.10	245.62
743.43	245.44
743.75	244.91
744.08	245.00
744.41	244.71
744.74	244.65
745.07	244.33
745.40	244.24
745.73	244.10
746.06	243.90
746.39	243.84
746.71	243.73
747.04	243.55
747.37	243.37
747.70	243.35
748.03	243.29
748.36	243.12
748.68	242.87
749.01	242.71
749.34	242.60
749.67	242.45
750.00	242.21
750.33	242.26
750.65	242.24
750.98	241.79
751.31	241.77
751.64	241.64
751.97	241.62
752.29	241.44
752.62	241.33
752.95	241.21
753.28	241.10
753.60	240.98
753.93	240.93
754.26	240.78
754.59	240.54
754.91	240.50
755.24	240.41
755.57	240.34
755.90	240.13
756.22	239.96
756.55	239.91
756.88	239.90
757.20	239.57
757.53	239.43
757.86	239.35
758.19	239.28
758.51	239.18
758.84	239.00
759.17	238.88
759.49	238.73
759.82	238.65
760.15	238.53
760.47	238.36
760.80	238.16
761.13	238.12
761.45	237.98
761.78	237.82
762.11	237.67
762.43	237.51
762.76	237.51
763.08	237.43
763.41	237.36
763.74	237.22
764.06	237.19
764.39	236.99
764.71	236.89
765.04	236.67
765.37	236.49
765.69	236.38
766.02	236.24
766.34	236.09
766.67	236.00
767.00	235.93
767.32	235.95
767.65	236.05
767.97	235.93
768.30	235.93
768.62	235.85
768.95	235.76
769.27	235.72
769.60	235.54
769.92	235.44
770.25	235.26
770.57	235.02
770.90	234.91
771.22	234.92
771.55	234.75
771.87	234.55
772.20	234.46
772.52	234.67
772.85	234.82
773.17	234.70
773.50	234.60
773.82	234.49
774.15	234.27
774.47	234.06
774.80	233.98
775.12	233.91
775.45	233.80
775.77	233.70
776.09	233.59
776.42	233.63
776.74	233.53
777.07	233.50
777.39	233.54
777.72	233.46
778.04	233.30
778.36	233.29
778.69	233.37
779.01	233.29
779.33	232.87
779.66	232.60
779.98	232.54
780.31	232.58
780.63	232.60
780.95	232.70
781.28	232.50
781.60	232.46
781.92	232.32
782.25	232.22
782.57	232.25
782.89	232.22
783.22	232.07
783.54	232.04
783.86	231.95
784.19	231.86
784.51	231.95
784.83	231.92
785.16	231.86
785.48	231.82
785.80	231.85
786.12	231.97
786.45	231.87
786.77	231.85
787.09	231.80
787.42	231.65
787.74	231.60
788.06	231.68
788.38	231.64
788.71	231.60
789.03	231.61
789.35	231.60
789.67	231.60
789.99	231.61
790.32	231.59
790.64	231.63
790.96	231.82
791.28	231.64
791.61	231.67
791.93	231.66
792.25	231.65
792.57	231.80
792.89	231.78
793.21	231.86
793.54	231.86
793.86	231.82
794.18	231.80
