SpectraSuite Data File
++++++++++++++++++++++++++++++++++++
Date: Fri Feb 01 14:38:39 EST 2013
User: group
Dark Spectrum Present: No
Reference Spectrum Present: No
Number of Sampled Component Spectra: 1
Spectrometers: USB2E7196
Integration Time (usec): 70000 (USB2E7196)
Spectra Averaged: 10 (USB2E7196)
Boxcar Smoothing: 10 (USB2E7196)
Correct for Electrical Dark: No (USB2E7196)
Strobe/Lamp Enabled: No (USB2E7196)
Correct for Detector Non-linearity: No (USB2E7196)
Correct for Stray Light: No (USB2E7196)
Number of Pixels in Processed Spectrum: 2048
>>>>>Begin Processed Spectral Data<<<<<
339.09	0.00
339.48	216.50
339.86	218.10
340.24	220.50
340.63	219.00
341.01	225.70
341.39	221.30
341.78	222.40
342.16	223.90
342.54	226.00
342.93	214.03
343.31	224.80
343.69	225.30
344.07	225.68
344.46	226.01
344.84	226.43
345.22	226.53
345.60	226.81
345.99	227.05
346.37	227.15
346.75	227.33
347.13	227.37
347.52	227.39
347.90	227.49
348.28	227.51
348.66	227.61
349.05	227.46
349.43	227.37
349.81	227.41
350.19	227.46
350.57	227.48
350.96	227.60
351.34	227.65
351.72	227.69
352.10	227.76
352.48	227.77
352.87	227.96
353.25	227.90
353.63	227.92
354.01	227.96
354.39	228.10
354.77	228.03
355.15	228.25
355.54	228.30
355.92	228.18
356.30	228.23
356.68	228.36
357.06	228.55
357.44	228.62
357.82	228.63
358.20	228.71
358.58	228.86
358.97	228.92
359.35	229.16
359.73	229.26
360.11	229.34
360.49	229.36
360.87	229.23
361.25	229.40
361.63	229.54
362.01	229.67
362.39	229.68
362.77	229.68
363.15	229.69
363.53	229.79
363.91	229.97
364.29	230.04
364.67	229.89
365.05	229.85
365.43	229.90
365.81	229.96
366.19	230.00
366.57	230.00
366.95	230.00
367.33	229.88
367.71	229.93
368.09	230.00
368.47	230.04
368.85	230.08
369.23	230.09
369.61	230.04
369.99	230.08
370.37	230.13
370.75	230.30
371.13	230.23
371.51	230.19
371.89	230.13
372.27	230.07
372.65	230.10
373.03	230.07
373.41	230.04
373.78	229.93
374.16	229.81
374.54	229.74
374.92	229.57
375.30	229.50
375.68	229.32
376.06	229.21
376.44	229.13
376.82	229.11
377.19	229.04
377.57	228.95
377.95	228.78
378.33	228.65
378.71	228.45
379.09	228.38
379.47	228.34
379.84	228.27
380.22	228.18
380.60	227.97
380.98	228.01
381.36	227.90
381.73	227.80
382.11	227.75
382.49	227.66
382.87	227.59
383.25	227.47
383.62	227.69
384.00	227.58
384.38	227.48
384.76	227.39
385.13	227.34
385.51	227.23
385.89	227.16
386.27	227.07
386.64	226.94
387.02	226.84
387.40	226.73
387.78	226.56
388.15	226.54
388.53	226.55
388.91	226.38
389.29	226.33
389.66	226.40
390.04	226.38
390.42	226.25
390.79	226.25
391.17	226.25
391.55	225.95
391.92	226.02
392.30	226.12
392.68	226.08
393.05	226.08
393.43	226.19
393.81	226.11
394.18	226.14
394.56	226.16
394.94	226.20
395.31	226.16
395.69	226.22
396.06	226.20
396.44	226.32
396.82	226.32
397.19	226.47
397.57	226.49
397.95	226.58
398.32	226.70
398.70	226.88
399.07	226.96
399.45	227.08
399.82	227.07
400.20	227.16
400.58	227.24
400.95	227.23
401.33	227.21
401.70	227.49
402.08	227.52
402.45	227.70
402.83	227.88
403.20	228.01
403.58	228.23
403.95	228.47
404.33	228.58
404.71	228.82
405.08	229.08
405.46	229.18
405.83	229.36
406.21	229.52
406.58	229.72
406.96	230.01
407.33	230.16
407.70	230.43
408.08	230.71
408.45	230.97
408.83	231.30
409.20	231.67
409.58	231.79
409.95	232.20
410.33	232.54
410.70	232.85
411.08	233.22
411.45	233.53
411.82	233.75
412.20	234.14
412.57	234.63
412.95	234.92
413.32	235.50
413.69	235.90
414.07	236.49
414.44	236.97
414.82	237.48
415.19	238.17
415.56	238.87
415.94	239.51
416.31	240.30
416.68	241.11
417.06	241.98
417.43	242.86
417.81	243.77
418.18	244.56
418.55	245.43
418.93	246.48
419.30	247.62
419.67	248.87
420.04	250.13
420.42	251.25
420.79	252.74
421.16	254.13
421.54	255.66
421.91	257.10
422.28	258.60
422.66	260.27
423.03	261.93
423.40	263.52
423.77	265.23
424.15	266.96
424.52	268.80
424.89	270.58
425.26	272.57
425.64	274.45
426.01	276.58
426.38	278.79
426.75	280.94
427.13	283.14
427.50	285.55
427.87	287.88
428.24	290.46
428.61	292.59
428.99	295.13
429.36	297.93
429.73	300.60
430.10	303.32
430.47	306.00
430.85	308.71
431.22	311.62
431.59	314.93
431.96	317.84
432.33	321.00
432.70	324.43
433.08	328.21
433.45	331.65
433.82	335.16
434.19	339.14
434.56	342.88
434.93	346.42
435.30	349.94
435.68	353.86
436.05	357.71
436.42	361.54
436.79	365.07
437.16	368.71
437.53	372.69
437.90	376.55
438.27	380.24
438.64	384.29
439.01	388.13
439.38	391.13
439.75	394.38
440.13	398.07
440.50	401.31
440.87	404.01
441.24	406.83
441.61	410.15
441.98	412.35
442.35	415.30
442.72	418.10
443.09	420.85
443.46	422.65
443.83	423.78
444.20	424.90
444.57	426.29
444.94	427.11
445.31	427.95
445.68	428.86
446.05	429.42
446.42	429.21
446.79	428.87
447.16	428.71
447.53	428.62
447.90	427.32
448.27	426.12
448.64	424.19
449.01	423.13
449.37	420.61
449.74	418.34
450.11	415.53
450.48	412.44
450.85	409.27
451.22	406.49
451.59	403.87
451.96	401.52
452.33	398.12
452.70	395.24
453.07	391.66
453.43	387.90
453.80	384.41
454.17	380.93
454.54	377.65
454.91	374.16
455.28	370.65
455.65	367.45
456.02	364.25
456.38	361.57
456.75	358.01
457.12	355.07
457.49	352.04
457.86	349.01
458.23	346.68
458.59	343.87
458.96	341.15
459.33	338.60
459.70	336.10
460.07	334.11
460.43	331.68
460.80	329.31
461.17	327.43
461.54	325.34
461.91	323.40
462.27	321.42
462.64	319.58
463.01	317.75
463.38	315.89
463.74	313.98
464.11	312.34
464.48	310.88
464.85	309.27
465.21	308.14
465.58	306.88
465.95	305.32
466.32	304.03
466.68	302.72
467.05	301.45
467.42	300.17
467.78	298.83
468.15	297.40
468.52	296.54
468.88	295.12
469.25	293.97
469.62	293.05
469.98	291.95
470.35	291.11
470.72	290.18
471.08	289.16
471.45	288.29
471.82	287.40
472.18	286.52
472.55	285.80
472.92	284.84
473.28	283.98
473.65	283.20
474.02	282.47
474.38	281.78
474.75	281.15
475.11	280.46
475.48	279.85
475.85	279.53
476.21	278.99
476.58	278.52
476.94	278.08
477.31	277.59
477.67	277.22
478.04	276.68
478.41	276.26
478.77	276.12
479.14	275.67
479.50	275.24
479.87	274.90
480.23	274.70
480.60	274.45
480.96	274.27
481.33	274.06
481.69	273.85
482.06	273.62
482.42	273.47
482.79	273.16
483.15	273.15
483.52	272.98
483.88	272.68
484.25	272.57
484.61	272.56
484.98	272.52
485.34	272.57
485.71	272.57
486.07	272.57
486.44	272.52
486.80	272.64
487.17	272.73
487.53	272.91
487.90	273.09
488.26	273.43
488.62	273.51
488.99	273.52
489.35	273.62
489.72	273.80
490.08	274.04
490.44	274.31
490.81	274.44
491.17	274.57
491.54	274.86
491.90	275.17
492.26	275.31
492.63	275.47
492.99	275.57
493.36	275.86
493.72	276.19
494.08	276.36
494.45	276.69
494.81	277.03
495.17	277.26
495.54	277.45
495.90	277.65
496.26	278.05
496.63	278.57
496.99	278.92
497.35	279.25
497.72	279.50
498.08	279.89
498.44	280.26
498.80	280.61
499.17	281.07
499.53	281.44
499.89	281.74
500.26	282.16
500.62	282.53
500.98	282.93
501.34	283.27
501.71	283.70
502.07	284.11
502.43	284.42
502.79	284.73
503.16	285.16
503.52	285.47
503.88	285.79
504.24	286.13
504.60	286.61
504.97	287.11
505.33	287.59
505.69	288.08
506.05	288.46
506.41	288.96
506.78	289.37
507.14	289.79
507.50	290.31
507.86	290.78
508.22	291.40
508.59	291.77
508.95	292.37
509.31	292.96
509.67	293.49
510.03	294.21
510.39	294.94
510.75	295.62
511.12	296.43
511.48	297.23
511.84	297.96
512.20	298.80
512.56	299.51
512.92	300.47
513.28	301.36
513.64	302.48
514.00	303.57
514.37	304.66
514.73	305.77
515.09	307.07
515.45	308.38
515.81	309.75
516.17	311.17
516.53	312.56
516.89	314.02
517.25	315.55
517.61	317.19
517.97	318.85
518.33	320.48
518.69	322.31
519.05	324.13
519.41	326.06
519.77	328.08
520.13	330.22
520.49	332.30
520.85	334.39
521.21	336.65
521.57	339.07
521.93	341.40
522.29	344.04
522.65	346.61
523.01	349.20
523.37	351.76
523.73	354.70
524.09	357.45
524.45	360.30
524.81	363.44
525.17	366.70
525.53	369.86
525.89	373.28
526.25	376.72
526.61	380.19
526.97	383.81
527.33	387.36
527.68	391.31
528.04	395.23
528.40	399.35
528.76	403.33
529.12	407.33
529.48	411.72
529.84	415.81
530.20	420.22
530.56	424.75
530.91	429.48
531.27	434.10
531.63	438.90
531.99	443.82
532.35	448.60
532.71	453.28
533.07	458.50
533.42	463.77
533.78	468.60
534.14	473.88
534.50	479.00
534.86	484.46
535.21	489.49
535.57	494.74
535.93	500.17
536.29	505.92
536.65	511.63
537.00	517.16
537.36	523.02
537.72	528.73
538.08	534.45
538.44	539.99
538.79	545.74
539.15	551.40
539.51	557.36
539.87	563.47
540.22	569.55
540.58	575.68
540.94	581.39
541.29	587.45
541.65	593.48
542.01	599.93
542.37	606.03
542.72	612.30
543.08	618.63
543.44	624.82
543.79	630.71
544.15	637.04
544.51	643.37
544.87	649.60
545.22	655.79
545.58	662.09
545.94	668.36
546.29	674.53
546.65	681.15
547.01	687.34
547.36	693.25
547.72	699.45
548.07	705.56
548.43	711.68
548.79	718.07
549.14	724.11
549.50	729.74
549.86	735.77
550.21	741.66
550.57	747.66
550.92	753.80
551.28	759.76
551.64	765.32
551.99	771.16
552.35	776.78
552.70	782.46
553.06	788.30
553.41	794.14
553.77	800.01
554.13	805.60
554.48	811.46
554.84	817.34
555.19	822.78
555.55	828.24
555.90	833.77
556.26	839.14
556.61	844.62
556.97	850.18
557.32	855.37
557.68	860.65
558.03	865.85
558.39	871.00
558.74	876.54
559.10	881.73
559.45	886.90
559.81	892.50
560.16	897.56
560.52	902.36
560.87	907.43
561.23	912.09
561.58	916.85
561.94	921.39
562.29	926.00
562.64	930.65
563.00	934.69
563.35	939.41
563.71	944.23
564.06	948.86
564.42	953.38
564.77	957.70
565.12	962.42
565.48	966.88
565.83	970.94
566.19	974.90
566.54	978.82
566.89	982.77
567.25	986.55
567.60	990.79
567.96	994.73
568.31	998.51
568.66	1002.15
569.02	1005.74
569.37	1009.14
569.72	1012.46
570.08	1015.52
570.43	1019.18
570.78	1022.00
571.14	1024.44
571.49	1027.21
571.84	1029.89
572.20	1032.74
572.55	1035.19
572.90	1037.34
573.26	1039.93
573.61	1042.25
573.96	1044.64
574.31	1046.25
574.67	1047.92
575.02	1049.09
575.37	1050.59
575.72	1051.91
576.08	1053.51
576.43	1054.98
576.78	1056.45
577.13	1058.06
577.49	1059.74
577.84	1060.93
578.19	1062.31
578.54	1063.55
578.90	1064.29
579.25	1065.09
579.60	1065.68
579.95	1066.26
580.30	1066.93
580.66	1067.29
581.01	1067.43
581.36	1067.80
581.71	1068.68
582.06	1069.15
582.42	1069.60
582.77	1069.96
583.12	1070.06
583.47	1070.26
583.82	1070.60
584.17	1070.62
584.53	1070.39
584.88	1070.13
585.23	1070.18
585.58	1070.00
585.93	1070.04
586.28	1070.08
586.63	1070.18
586.98	1070.26
587.34	1069.82
587.69	1069.70
588.04	1069.46
588.39	1069.38
588.74	1068.76
589.09	1068.01
589.44	1066.93
589.79	1066.52
590.14	1065.79
590.49	1065.07
590.84	1064.35
591.19	1063.16
591.54	1062.00
591.89	1060.43
592.25	1059.40
592.60	1057.76
592.95	1056.26
593.30	1054.56
593.65	1052.88
594.00	1050.99
594.35	1049.66
594.70	1047.88
595.05	1046.07
595.40	1043.97
595.75	1042.05
596.10	1040.63
596.45	1039.32
596.80	1038.11
597.15	1036.44
597.50	1034.72
597.85	1033.20
598.19	1031.91
598.54	1030.71
598.89	1028.93
599.24	1028.15
599.59	1026.22
599.94	1024.90
600.29	1023.12
600.64	1021.10
600.99	1019.11
601.34	1017.28
601.69	1014.81
602.04	1012.92
602.39	1011.10
602.74	1009.50
603.08	1007.76
603.43	1005.94
603.78	1003.42
604.13	1001.20
604.48	999.01
604.83	996.76
605.18	994.56
605.53	991.77
605.87	988.74
606.22	986.70
606.57	983.87
606.92	981.58
607.27	979.01
607.62	976.84
607.96	974.95
608.31	972.79
608.66	970.26
609.01	967.70
609.36	964.96
609.70	961.80
610.05	958.64
610.40	955.55
610.75	952.28
611.10	949.31
611.44	945.82
611.79	942.92
612.14	939.97
612.49	936.43
612.83	932.70
613.18	929.72
613.53	926.48
613.88	923.07
614.22	919.76
614.57	916.29
614.92	912.72
615.27	909.19
615.61	905.64
615.96	902.22
616.31	898.97
616.65	896.19
617.00	893.05
617.35	890.24
617.70	886.84
618.04	883.31
618.39	880.23
618.74	877.21
619.08	873.52
619.43	870.09
619.78	867.00
620.12	863.99
620.47	860.61
620.82	857.12
621.16	853.73
621.51	850.63
621.85	847.29
622.20	843.78
622.55	840.44
622.89	837.37
623.24	834.45
623.59	831.09
623.93	827.82
624.28	824.70
624.62	821.16
624.97	818.41
625.32	815.54
625.66	812.29
626.01	809.27
626.35	806.13
626.70	803.00
627.04	799.96
627.39	796.77
627.73	793.44
628.08	790.24
628.43	786.91
628.77	783.55
629.12	780.26
629.46	777.26
629.81	773.53
630.15	770.01
630.50	766.34
630.84	762.79
631.19	758.99
631.53	755.37
631.88	751.61
632.22	747.72
632.57	744.57
632.91	741.08
633.26	737.58
633.60	733.88
633.95	730.27
634.29	726.94
634.64	723.90
634.98	720.54
635.32	717.19
635.67	714.23
636.01	710.87
636.36	707.66
636.70	704.56
637.05	701.74
637.39	698.77
637.73	695.94
638.08	693.34
638.42	690.82
638.77	688.09
639.11	685.46
639.45	682.34
639.80	678.80
640.14	675.61
640.49	672.65
640.83	669.77
641.17	667.04
641.52	663.86
641.86	660.58
642.20	657.69
642.55	654.59
642.89	651.61
643.23	648.62
643.58	645.89
643.92	642.70
644.26	639.79
644.61	636.81
644.95	633.66
645.29	630.12
645.64	626.74
645.98	623.63
646.32	620.80
646.66	617.81
647.01	614.96
647.35	612.17
647.69	609.13
648.04	606.45
648.38	603.21
648.72	600.04
649.06	597.00
649.41	593.99
649.75	590.88
650.09	587.57
650.43	584.44
650.78	581.05
651.12	578.14
651.46	575.16
651.80	572.16
652.14	569.34
652.49	566.64
652.83	563.81
653.17	560.68
653.51	557.56
653.85	554.66
654.20	551.57
654.54	548.38
654.88	545.29
655.22	541.99
655.56	539.19
655.90	536.56
656.25	533.86
656.59	530.94
656.93	528.30
657.27	525.63
657.61	522.92
657.95	520.63
658.29	517.79
658.64	515.04
658.98	512.23
659.32	509.23
659.66	506.72
660.00	504.00
660.34	501.42
660.68	498.64
661.02	496.06
661.36	493.45
661.70	491.05
662.05	488.82
662.39	486.68
662.73	484.20
663.07	481.69
663.41	479.34
663.75	477.05
664.09	474.62
664.43	472.35
664.77	470.14
665.11	467.58
665.45	465.50
665.79	463.19
666.13	460.92
666.47	458.62
666.81	456.27
667.15	453.99
667.49	451.90
667.83	449.94
668.17	447.81
668.51	445.80
668.85	443.78
669.19	441.78
669.53	439.77
669.87	437.65
670.21	435.65
670.55	433.67
670.89	431.86
671.23	429.98
671.57	428.13
671.91	426.22
672.25	424.33
672.58	422.36
672.92	420.53
673.26	418.86
673.60	417.33
673.94	415.56
674.28	414.01
674.62	412.37
674.96	410.62
675.30	409.09
675.64	407.52
675.97	405.88
676.31	404.03
676.65	402.22
676.99	400.71
677.33	398.99
677.67	397.29
678.01	395.40
678.34	393.82
678.68	392.20
679.02	390.58
679.36	388.98
679.70	387.46
680.04	385.92
680.37	384.31
680.71	382.73
681.05	381.28
681.39	379.84
681.73	378.39
682.06	376.97
682.40	375.46
682.74	374.06
683.08	372.73
683.42	371.30
683.75	370.00
684.09	368.77
684.43	367.46
684.77	366.10
685.10	364.91
685.44	363.61
685.78	362.16
686.12	360.84
686.45	359.54
686.79	358.20
687.13	356.94
687.46	355.58
687.80	354.34
688.14	352.99
688.48	351.55
688.81	350.09
689.15	348.91
689.49	347.64
689.82	346.34
690.16	345.05
690.50	343.79
690.83	342.50
691.17	341.00
691.51	339.77
691.84	338.67
692.18	337.52
692.52	336.20
692.85	335.14
693.19	334.07
693.52	333.11
693.86	331.93
694.20	330.73
694.53	329.61
694.87	328.44
695.21	327.32
695.54	326.27
695.88	325.21
696.21	323.92
696.55	322.86
696.88	321.67
697.22	320.57
697.56	319.67
697.89	318.67
698.23	317.83
698.56	316.89
698.90	315.77
699.23	314.62
699.57	313.66
699.90	312.54
700.24	311.34
700.58	310.10
700.91	309.25
701.25	308.54
701.58	307.79
701.92	306.91
702.25	306.04
702.59	305.18
702.92	304.39
703.26	303.47
703.59	302.66
703.93	302.00
704.26	301.23
704.60	300.36
704.93	299.54
705.26	298.73
705.60	298.06
705.93	297.33
706.27	296.84
706.60	296.12
706.94	295.49
707.27	294.86
707.61	294.25
707.94	293.49
708.27	292.57
708.61	291.78
708.94	291.03
709.28	290.45
709.61	289.78
709.94	289.12
710.28	288.54
710.61	287.77
710.95	286.99
711.28	286.42
711.61	285.76
711.95	285.25
712.28	284.60
712.61	283.79
712.95	283.21
713.28	282.50
713.61	281.91
713.95	281.28
714.28	280.85
714.61	280.22
714.95	279.66
715.28	279.01
715.61	278.32
715.95	277.78
716.28	277.20
716.61	276.53
716.95	275.90
717.28	275.46
717.61	274.90
717.94	274.46
718.28	273.78
718.61	273.29
718.94	272.70
719.27	272.16
719.61	271.75
719.94	271.23
720.27	270.69
720.60	270.20
720.94	269.82
721.27	269.30
721.60	268.85
721.93	268.46
722.27	268.27
722.60	267.87
722.93	267.45
723.26	267.06
723.59	266.69
723.93	266.30
724.26	265.89
724.59	265.55
724.92	265.24
725.25	264.90
725.59	264.52
725.92	264.20
726.25	263.80
726.58	263.37
726.91	263.10
727.24	262.74
727.57	262.48
727.91	262.10
728.24	261.76
728.57	261.47
728.90	261.10
729.23	260.54
729.56	260.29
729.89	259.90
730.22	259.45
730.55	259.14
730.89	258.89
731.22	258.49
731.55	258.16
731.88	257.76
732.21	257.40
732.54	257.09
732.87	256.71
733.20	256.43
733.53	256.20
733.86	255.81
734.19	255.51
734.52	255.19
734.85	254.91
735.18	254.45
735.51	254.22
735.84	253.93
736.17	253.78
736.50	253.47
736.83	253.40
737.16	253.21
737.49	252.94
737.82	252.60
738.15	252.49
738.48	252.28
738.81	251.88
739.14	251.63
739.47	251.38
739.80	251.09
740.13	250.79
740.46	250.56
740.79	250.31
741.12	250.01
741.45	249.83
741.78	249.57
742.11	249.45
742.44	249.06
742.77	248.88
743.10	248.67
743.43	248.43
743.75	248.05
744.08	248.01
744.41	247.82
744.74	247.60
745.07	247.25
745.40	247.10
745.73	247.15
746.06	247.03
746.39	246.79
746.71	246.76
747.04	246.59
747.37	246.34
747.70	246.16
748.03	246.03
748.36	245.63
748.68	245.48
749.01	245.26
749.34	245.17
749.67	244.92
750.00	244.69
750.33	244.65
750.65	244.50
750.98	244.14
751.31	243.93
751.64	243.78
751.97	243.74
752.29	243.54
752.62	243.25
752.95	243.06
753.28	242.93
753.60	242.70
753.93	242.58
754.26	242.39
754.59	242.24
754.91	242.14
755.24	242.12
755.57	241.96
755.90	241.83
756.22	241.83
756.55	241.64
756.88	241.50
757.20	241.17
757.53	241.07
757.86	240.98
758.19	240.92
758.51	240.90
758.84	240.66
759.17	240.49
759.49	240.32
759.82	240.24
760.15	240.19
760.47	240.10
760.80	240.00
761.13	240.06
761.45	240.00
761.78	239.83
762.11	239.71
762.43	239.57
762.76	239.53
763.08	239.34
763.41	239.24
763.74	239.08
764.06	238.99
764.39	238.75
764.71	238.63
765.04	238.44
765.37	238.24
765.69	238.11
766.02	238.01
766.34	237.92
766.67	237.78
767.00	237.64
767.32	237.56
767.65	237.59
767.97	237.37
768.30	237.14
768.62	237.04
768.95	236.97
769.27	236.87
769.60	236.71
769.92	236.51
770.25	236.40
770.57	236.27
770.90	236.13
771.22	236.08
771.55	235.90
771.87	235.80
772.20	235.61
772.52	235.76
772.85	235.89
773.17	235.70
773.50	235.63
773.82	235.56
774.15	235.43
774.47	235.11
774.80	235.10
775.12	235.00
775.45	234.74
775.77	234.49
776.09	234.31
776.42	234.21
776.74	234.20
777.07	234.10
777.39	234.01
777.72	233.96
778.04	233.84
778.36	233.75
778.69	233.71
779.01	233.75
779.33	233.48
779.66	233.14
779.98	233.17
780.31	232.99
780.63	232.96
780.95	232.88
781.28	232.90
781.60	232.75
781.92	232.64
782.25	232.70
782.57	232.80
782.89	232.84
783.22	232.72
783.54	232.62
783.86	232.56
784.19	232.51
784.51	232.53
784.83	232.53
785.16	232.46
785.48	232.39
785.80	232.33
786.12	232.33
786.45	232.31
786.77	232.21
787.09	232.15
787.42	232.05
787.74	231.95
788.06	231.96
788.38	231.82
788.71	231.96
789.03	231.96
789.35	231.96
789.67	231.94
789.99	231.96
790.32	231.92
790.64	232.06
790.96	232.23
791.28	232.14
791.61	232.20
791.93	232.25
792.25	232.22
