SpectraSuite Data File
++++++++++++++++++++++++++++++++++++
Date: Fri Feb 01 14:35:03 EST 2013
User: group
Dark Spectrum Present: No
Reference Spectrum Present: No
Number of Sampled Component Spectra: 1
Spectrometers: USB2E7196
Integration Time (usec): 70000 (USB2E7196)
Spectra Averaged: 10 (USB2E7196)
Boxcar Smoothing: 10 (USB2E7196)
Correct for Electrical Dark: No (USB2E7196)
Strobe/Lamp Enabled: No (USB2E7196)
Correct for Detector Non-linearity: No (USB2E7196)
Correct for Stray Light: No (USB2E7196)
Number of Pixels in Processed Spectrum: 2048
>>>>>Begin Processed Spectral Data<<<<<
339.09	0.00
339.48	218.40
339.86	218.70
340.24	216.90
340.63	222.70
341.01	224.80
341.39	223.50
341.78	224.50
342.16	225.10
342.54	226.20
342.93	214.86
343.31	225.72
343.69	226.18
344.07	226.61
344.46	227.10
344.84	227.40
345.22	227.54
345.60	227.81
345.99	227.93
346.37	228.08
346.75	228.08
347.13	228.10
347.52	228.16
347.90	228.29
348.28	228.22
348.66	228.27
349.05	228.13
349.43	228.19
349.81	228.23
350.19	228.18
350.57	228.24
350.96	228.40
351.34	228.39
351.72	228.45
352.10	228.50
352.48	228.60
352.87	228.59
353.25	228.71
353.63	228.69
354.01	228.78
354.39	228.85
354.77	228.97
355.15	229.07
355.54	229.12
355.92	229.06
356.30	229.27
356.68	229.53
357.06	229.71
357.44	229.74
357.82	229.73
358.20	229.88
358.58	229.96
358.97	229.89
359.35	230.06
359.73	230.21
360.11	230.20
360.49	230.23
360.87	230.17
361.25	230.14
361.63	230.31
362.01	230.35
362.39	230.35
362.77	230.38
363.15	230.54
363.53	230.50
363.91	230.55
364.29	230.57
364.67	230.30
365.05	230.24
365.43	230.26
365.81	230.24
366.19	230.28
366.57	230.23
366.95	230.27
367.33	230.21
367.71	230.20
368.09	230.37
368.47	230.39
368.85	230.51
369.23	230.54
369.61	230.37
369.99	230.48
370.37	230.46
370.75	230.59
371.13	230.42
371.51	230.41
371.89	230.40
372.27	230.23
372.65	230.30
373.03	230.30
373.41	230.14
373.78	230.09
374.16	229.95
374.54	229.89
374.92	229.74
375.30	229.69
375.68	229.46
376.06	229.28
376.44	229.13
376.82	229.04
377.19	228.98
377.57	228.84
377.95	228.67
378.33	228.61
378.71	228.33
379.09	228.21
379.47	228.02
379.84	227.83
380.22	227.77
380.60	227.59
380.98	227.58
381.36	227.50
381.73	227.48
382.11	227.33
382.49	227.17
382.87	227.08
383.25	227.03
383.62	227.20
384.00	227.17
384.38	227.13
384.76	227.10
385.13	227.07
385.51	227.08
385.89	226.91
386.27	226.88
386.64	226.91
387.02	226.96
387.40	226.92
387.78	227.03
388.15	227.11
388.53	227.13
388.91	226.96
389.29	226.92
389.66	226.97
390.04	227.08
390.42	227.15
390.79	227.18
391.17	227.08
391.55	226.88
391.92	226.81
392.30	226.85
392.68	226.80
393.05	226.86
393.43	226.86
393.81	226.93
394.18	226.91
394.56	226.90
394.94	226.84
395.31	226.93
395.69	227.00
396.06	227.03
396.44	227.14
396.82	227.18
397.19	227.42
397.57	227.41
397.95	227.45
398.32	227.52
398.70	227.64
399.07	227.78
399.45	227.86
399.82	228.06
400.20	228.24
400.58	228.38
400.95	228.44
401.33	228.59
401.70	228.86
402.08	229.05
402.45	229.28
402.83	229.53
403.20	229.72
403.58	230.01
403.95	230.33
404.33	230.55
404.71	230.93
405.08	231.22
405.46	231.50
405.83	231.88
406.21	232.25
406.58	232.60
406.96	233.02
407.33	233.49
407.70	233.96
408.08	234.55
408.45	235.07
408.83	235.68
409.20	236.32
409.58	236.84
409.95	237.45
410.33	238.03
410.70	238.70
411.08	239.49
411.45	240.19
411.82	241.02
412.20	241.90
412.57	242.93
412.95	243.79
413.32	244.75
413.69	245.80
414.07	247.00
414.44	248.31
414.82	249.58
415.19	251.00
415.56	252.44
415.94	253.83
416.31	255.68
416.68	257.35
417.06	259.31
417.43	261.27
417.81	263.53
418.18	265.92
418.55	268.30
418.93	270.90
419.30	273.46
419.67	276.20
420.04	278.99
420.42	281.86
420.79	285.29
421.16	288.80
421.54	292.27
421.91	295.74
422.28	299.48
422.66	303.51
423.03	307.39
423.40	311.43
423.77	315.81
424.15	320.09
424.52	324.60
424.89	329.57
425.26	334.26
425.64	338.78
426.01	343.66
426.38	348.91
426.75	354.10
427.13	359.56
427.50	365.10
427.87	371.15
428.24	377.20
428.61	382.90
428.99	389.22
429.36	396.11
429.73	403.08
430.10	409.73
430.47	416.54
430.85	423.71
431.22	431.12
431.59	438.95
431.96	446.48
432.33	454.85
432.70	463.03
433.08	472.49
433.45	481.61
433.82	490.56
434.19	500.29
434.56	509.96
434.93	519.13
435.30	528.34
435.68	538.29
436.05	548.24
436.42	558.08
436.79	567.02
437.16	576.56
437.53	586.62
437.90	596.71
438.27	606.64
438.64	617.06
439.01	626.66
439.38	635.24
439.75	643.66
440.13	652.83
440.50	661.61
440.87	669.06
441.24	676.54
441.61	685.14
441.98	691.66
442.35	699.11
442.72	706.56
443.09	714.08
443.46	719.25
443.83	722.56
444.20	725.75
444.57	730.22
444.94	732.91
445.31	735.62
445.68	738.22
446.05	740.12
446.42	740.18
446.79	740.15
447.16	740.13
447.53	740.40
447.90	738.20
448.27	735.70
448.64	731.55
449.01	729.13
449.37	723.43
449.74	718.06
450.11	711.24
450.48	704.01
450.85	696.45
451.22	689.85
451.59	683.90
451.96	678.18
452.33	669.83
452.70	662.48
453.07	653.35
453.43	644.09
453.80	635.10
454.17	626.53
454.54	618.59
454.91	609.64
455.28	600.88
455.65	592.82
456.02	584.53
456.38	577.59
456.75	568.58
457.12	561.29
457.49	553.99
457.86	547.06
458.23	541.08
458.59	534.20
458.96	527.02
459.33	520.82
459.70	514.52
460.07	509.71
460.43	503.84
460.80	498.21
461.17	493.54
461.54	488.62
461.91	483.69
462.27	478.59
462.64	474.42
463.01	469.83
463.38	465.23
463.74	460.83
464.11	456.85
464.48	453.35
464.85	449.44
465.21	446.45
465.58	443.18
465.95	439.38
466.32	436.20
466.68	433.35
467.05	430.30
467.42	427.28
467.78	424.01
468.15	421.06
468.52	418.90
468.88	415.74
469.25	412.93
469.62	410.86
469.98	408.50
470.35	406.18
470.72	404.12
471.08	401.87
471.45	399.79
471.82	397.79
472.18	395.60
472.55	394.05
472.92	392.15
473.28	390.58
473.65	388.87
474.02	387.28
474.38	385.74
474.75	384.47
475.11	383.10
475.48	381.89
475.85	380.90
476.21	379.93
476.58	379.21
476.94	378.40
477.31	377.52
477.67	376.68
478.04	375.97
478.41	375.39
478.77	375.15
479.14	374.74
479.50	374.47
479.87	374.26
480.23	374.10
480.60	373.86
480.96	373.53
481.33	373.70
481.69	373.91
482.06	374.06
482.42	374.01
482.79	374.17
483.15	374.58
483.52	375.14
483.88	375.58
484.25	375.97
484.61	376.58
484.98	376.99
485.34	377.87
485.71	378.82
486.07	379.59
486.44	380.34
486.80	381.24
487.17	382.28
487.53	383.70
487.90	384.96
488.26	386.15
488.62	387.70
488.99	389.04
489.35	390.42
489.72	392.07
490.08	393.91
490.44	395.62
490.81	397.58
491.17	399.31
491.54	401.26
491.90	403.40
492.26	405.65
492.63	408.06
492.99	410.32
493.36	412.89
493.72	415.40
494.08	417.90
494.45	420.67
494.81	423.46
495.17	426.20
495.54	429.18
495.90	432.32
496.26	435.31
496.63	438.44
496.99	441.61
497.35	444.86
497.72	448.10
498.08	451.28
498.44	454.46
498.80	457.98
499.17	461.55
499.53	464.88
499.89	468.24
500.26	471.53
500.62	474.81
500.98	478.29
501.34	481.86
501.71	485.62
502.07	489.07
502.43	492.52
502.79	495.87
503.16	499.41
503.52	502.85
503.88	506.29
504.24	509.59
504.60	513.11
504.97	516.72
505.33	520.00
505.69	523.63
506.05	527.10
506.41	530.26
506.78	533.46
507.14	536.90
507.50	540.20
507.86	543.79
508.22	547.27
508.59	550.38
508.95	553.35
509.31	556.32
509.67	559.63
510.03	562.71
510.39	565.76
510.75	568.50
511.12	571.48
511.48	574.35
511.84	577.33
512.20	579.77
512.56	582.35
512.92	585.09
513.28	587.73
513.64	590.15
514.00	592.56
514.37	594.94
514.73	597.11
515.09	599.27
515.45	601.11
515.81	603.14
516.17	605.05
516.53	607.37
516.89	609.12
517.25	610.98
517.61	612.84
517.97	614.58
518.33	616.17
518.69	617.62
519.05	619.40
519.41	620.81
519.77	622.88
520.13	624.48
520.49	626.09
520.85	627.39
521.21	628.79
521.57	630.22
521.93	631.65
522.29	633.38
522.65	634.88
523.01	636.21
523.37	637.39
523.73	638.80
524.09	639.84
524.45	641.16
524.81	642.43
525.17	643.80
525.53	645.26
525.89	646.81
526.25	648.39
526.61	649.58
526.97	651.14
527.33	652.18
527.68	653.59
528.04	654.89
528.40	656.44
528.76	658.20
529.12	659.82
529.48	661.45
529.84	662.69
530.20	664.40
530.56	666.33
530.91	668.44
531.27	670.28
531.63	672.15
531.99	674.10
532.35	675.85
532.71	677.69
533.07	679.45
533.42	681.55
533.78	683.55
534.14	685.51
534.50	687.50
534.86	689.85
535.21	691.67
535.57	694.12
535.93	696.25
536.29	698.50
536.65	700.98
537.00	703.01
537.36	705.49
537.72	707.73
538.08	710.12
538.44	712.46
538.79	714.77
539.15	717.17
539.51	719.90
539.87	722.70
540.22	725.48
540.58	728.39
540.94	730.89
541.29	733.45
541.65	736.09
542.01	739.14
542.37	742.10
542.72	744.92
543.08	747.52
543.44	750.50
543.79	753.02
544.15	755.72
544.51	759.02
544.87	762.19
545.22	765.41
545.58	768.50
545.94	771.37
546.29	774.33
546.65	777.46
547.01	780.17
547.36	783.10
547.72	785.93
548.07	788.99
548.43	791.95
548.79	794.94
549.14	798.00
549.50	800.74
549.86	803.21
550.21	806.00
550.57	809.05
550.92	811.90
551.28	814.78
551.64	817.63
551.99	820.48
552.35	823.10
552.70	825.75
553.06	828.67
553.41	831.53
553.77	834.59
554.13	837.43
554.48	840.73
554.84	843.56
555.19	846.41
555.55	849.34
555.90	852.11
556.26	854.82
556.61	857.53
556.97	860.34
557.32	863.40
557.68	866.48
558.03	869.13
558.39	872.00
558.74	875.22
559.10	878.12
559.45	881.03
559.81	884.41
560.16	887.14
560.52	889.72
560.87	892.78
561.23	895.54
561.58	898.40
561.94	900.97
562.29	903.49
562.64	906.00
563.00	907.99
563.35	910.85
563.71	913.80
564.06	916.66
564.42	919.39
564.77	921.98
565.12	924.83
565.48	927.53
565.83	930.01
566.19	932.49
566.54	934.77
566.89	937.09
567.25	939.00
567.60	941.94
567.96	944.47
568.31	946.56
568.66	948.71
569.02	950.60
569.37	952.21
569.72	954.38
570.08	956.40
570.43	958.61
570.78	960.24
571.14	961.80
571.49	963.57
571.84	965.28
572.20	966.57
572.55	967.79
572.90	968.91
573.26	970.12
573.61	971.13
573.96	972.43
574.31	972.94
574.67	973.40
575.02	973.70
575.37	974.22
575.72	974.40
576.08	974.90
576.43	975.36
576.78	976.10
577.13	976.47
577.49	976.95
577.84	977.11
578.19	977.37
578.54	977.53
578.90	977.35
579.25	977.00
579.60	977.08
579.95	976.71
580.30	976.42
580.66	976.16
581.01	975.70
581.36	975.15
581.71	974.90
582.06	974.75
582.42	973.90
582.77	973.44
583.12	973.15
583.47	972.63
583.82	972.48
584.17	971.47
584.53	970.56
584.88	969.40
585.23	968.68
585.58	967.81
585.93	967.11
586.28	966.49
586.63	965.81
586.98	965.27
587.34	964.51
587.69	963.89
588.04	962.84
588.39	962.21
588.74	960.94
589.09	959.88
589.44	958.53
589.79	957.65
590.14	956.25
590.49	955.05
590.84	953.67
591.19	952.22
591.54	950.57
591.89	948.88
592.25	947.51
592.60	945.67
592.95	943.79
593.30	941.74
593.65	939.69
594.00	937.37
594.35	935.71
594.70	933.46
595.05	931.40
595.40	929.41
595.75	926.79
596.10	924.94
596.45	923.28
596.80	921.48
597.15	919.50
597.50	917.60
597.85	915.50
598.19	913.80
598.54	911.90
598.89	910.34
599.24	908.73
599.59	906.94
599.94	905.23
600.29	903.16
600.64	901.26
600.99	898.96
601.34	896.96
601.69	894.11
602.04	892.18
602.39	890.12
602.74	888.18
603.08	886.51
603.43	884.75
603.78	882.33
604.13	880.17
604.48	877.83
604.83	875.44
605.18	873.30
605.53	870.44
605.87	867.57
606.22	864.96
606.57	862.17
606.92	859.57
607.27	856.97
607.62	854.85
607.96	852.53
608.31	850.52
608.66	847.81
609.01	845.13
609.36	842.23
609.70	838.90
610.05	835.80
610.40	832.82
610.75	829.52
611.10	826.61
611.44	823.41
611.79	820.52
612.14	817.56
612.49	814.25
612.83	811.13
613.18	808.11
613.53	805.23
613.88	802.28
614.22	798.87
614.57	795.84
614.92	792.50
615.27	789.24
615.61	785.50
615.96	782.65
616.31	779.91
616.65	777.42
617.00	774.82
617.35	772.00
617.70	768.84
618.04	765.47
618.39	762.34
618.74	759.49
619.08	756.23
619.43	753.21
619.78	750.32
620.12	747.29
620.47	744.31
620.82	741.17
621.16	738.11
621.51	735.57
621.85	732.59
622.20	729.50
622.55	726.48
622.89	723.88
623.24	721.20
623.59	718.17
623.93	715.14
624.28	712.22
624.62	709.51
624.97	707.02
625.32	704.70
625.66	702.06
626.01	699.08
626.35	696.35
626.70	693.50
627.04	690.75
627.39	687.83
627.73	685.08
628.08	682.49
628.43	679.69
628.77	676.61
629.12	673.90
629.46	671.07
629.81	667.92
630.15	664.68
630.50	661.69
630.84	658.57
631.19	655.47
631.53	652.53
631.88	649.38
632.22	645.93
632.57	643.26
632.91	640.12
633.26	637.38
633.60	634.40
633.95	631.58
634.29	628.84
634.64	626.41
634.98	623.68
635.32	620.91
635.67	618.35
636.01	615.78
636.36	612.90
636.70	610.54
637.05	608.33
637.39	606.05
637.73	603.54
638.08	601.17
638.42	598.65
638.77	596.36
639.11	593.79
639.45	591.49
639.80	588.79
640.14	586.50
640.49	584.22
640.83	581.86
641.17	579.30
641.52	576.62
641.86	574.11
642.20	571.77
642.55	569.39
642.89	566.96
643.23	564.54
643.58	562.15
643.92	559.52
644.26	556.98
644.61	554.80
644.95	552.37
645.29	549.82
645.64	547.35
645.98	544.80
646.32	542.48
646.66	540.20
647.01	537.62
647.35	535.03
647.69	532.65
648.04	530.29
648.38	527.90
648.72	525.46
649.06	522.77
649.41	520.04
649.75	517.20
650.09	514.64
650.43	512.05
650.78	509.51
651.12	507.09
651.46	504.65
651.80	501.85
652.14	499.35
652.49	497.08
652.83	494.80
653.17	492.39
653.51	490.03
653.85	487.48
654.20	485.10
654.54	482.66
654.88	479.94
655.22	477.48
655.56	475.08
655.90	472.88
656.25	470.76
656.59	468.64
656.93	466.57
657.27	464.44
657.61	462.11
657.95	460.15
658.29	458.09
658.64	455.95
658.98	453.91
659.32	451.74
659.66	449.72
660.00	447.64
660.34	445.46
660.68	443.32
661.02	441.22
661.36	439.29
661.70	437.31
662.05	435.60
662.39	433.96
662.73	432.20
663.07	430.39
663.41	428.58
663.75	426.75
664.09	425.09
664.43	423.26
664.77	421.49
665.11	419.48
665.45	417.66
665.79	415.77
666.13	414.06
666.47	412.30
666.81	410.40
667.15	408.67
667.49	407.11
667.83	405.52
668.17	403.97
668.51	402.29
668.85	400.76
669.19	399.10
669.53	397.33
669.87	395.76
670.21	394.09
670.55	392.61
670.89	391.23
671.23	389.67
671.57	388.20
671.91	386.99
672.25	385.61
672.58	384.30
672.92	383.03
673.26	381.63
673.60	380.42
673.94	379.17
674.28	377.84
674.62	376.58
674.96	375.29
675.30	374.04
675.64	372.94
675.97	371.73
676.31	370.57
676.65	369.36
676.99	368.16
677.33	367.04
677.67	365.77
678.01	364.42
678.34	363.16
678.68	361.95
679.02	360.61
679.36	359.46
679.70	358.16
680.04	356.97
680.37	355.78
680.71	354.55
681.05	353.35
681.39	352.30
681.73	351.07
682.06	349.98
682.40	349.03
682.74	347.84
683.08	346.80
683.42	345.60
683.75	344.47
684.09	343.23
684.43	342.10
684.77	341.04
685.10	339.98
685.44	339.01
685.78	337.91
686.12	336.90
686.45	335.90
686.79	334.75
687.13	333.75
687.46	332.87
687.80	331.89
688.14	330.86
688.48	329.67
688.81	328.59
689.15	327.55
689.49	326.27
689.82	325.15
690.16	324.01
690.50	322.99
690.83	322.02
691.17	321.04
691.51	320.06
691.84	319.08
692.18	318.07
692.52	316.86
692.85	315.89
693.19	315.10
693.52	314.13
693.86	313.34
694.20	312.38
694.53	311.36
694.87	310.31
695.21	309.39
695.54	308.62
695.88	307.83
696.21	306.94
696.55	306.32
696.88	305.47
697.22	304.74
697.56	303.90
697.89	303.11
698.23	302.34
698.56	301.49
698.90	300.76
699.23	299.89
699.57	299.27
699.90	298.48
700.24	297.51
700.58	296.74
700.91	296.03
701.25	295.45
701.58	294.77
701.92	294.20
702.25	293.55
702.59	292.72
702.92	292.10
703.26	291.35
703.59	290.67
703.93	290.22
704.26	289.50
704.60	288.96
704.93	288.20
705.26	287.58
705.60	286.91
705.93	286.23
706.27	285.73
706.60	285.10
706.94	284.55
707.27	283.87
707.61	283.22
707.94	282.59
708.27	281.82
708.61	281.20
708.94	280.74
709.28	280.19
709.61	279.80
709.94	279.21
710.28	278.71
710.61	278.06
710.95	277.41
711.28	277.06
711.61	276.45
711.95	276.03
712.28	275.49
712.61	275.03
712.95	274.45
713.28	274.00
713.61	273.41
713.95	272.85
714.28	272.52
714.61	272.02
714.95	271.50
715.28	271.05
715.61	270.53
715.95	269.85
716.28	269.47
716.61	269.01
716.95	268.49
717.28	268.13
717.61	267.77
717.94	267.23
718.28	266.65
718.61	266.11
718.94	265.65
719.27	265.31
719.61	265.00
719.94	264.66
720.27	264.32
720.60	263.99
720.94	263.67
721.27	263.37
721.60	263.12
721.93	262.75
722.27	262.46
722.60	262.27
722.93	262.08
723.26	261.57
723.59	261.15
723.93	260.86
724.26	260.45
724.59	260.16
724.92	259.78
725.25	259.60
725.59	259.40
725.92	259.14
726.25	258.79
726.58	258.41
726.91	258.18
727.24	257.87
727.57	257.54
727.91	257.17
728.24	256.86
728.57	256.59
728.90	256.34
729.23	256.13
729.56	255.86
729.89	255.48
730.22	255.22
730.55	254.90
730.89	254.72
731.22	254.52
731.55	254.23
731.88	254.00
732.21	253.67
732.54	253.51
732.87	253.22
733.20	252.95
733.53	252.76
733.86	252.50
734.19	252.14
734.52	251.97
734.85	251.90
735.18	251.57
735.51	251.37
735.84	251.20
736.17	250.95
736.50	250.63
736.83	250.71
737.16	250.60
737.49	250.52
737.82	250.24
738.15	249.99
738.48	249.74
738.81	249.70
739.14	249.54
739.47	249.22
739.80	249.07
740.13	248.97
740.46	248.70
740.79	248.44
741.12	248.26
741.45	248.11
741.78	247.96
742.11	247.84
742.44	247.55
742.77	247.40
743.10	247.20
743.43	247.12
743.75	246.75
744.08	246.75
744.41	246.59
744.74	246.38
745.07	246.24
745.40	246.09
745.73	245.86
746.06	245.70
746.39	245.65
746.71	245.45
747.04	245.28
747.37	245.04
747.70	244.92
748.03	244.80
748.36	244.69
748.68	244.42
749.01	244.18
749.34	244.07
749.67	243.86
750.00	243.61
750.33	243.46
750.65	243.26
750.98	242.90
751.31	242.66
751.64	242.48
751.97	242.38
752.29	242.25
752.62	242.07
752.95	241.80
753.28	241.51
753.60	241.30
753.93	241.15
754.26	241.09
754.59	240.88
754.91	240.60
755.24	240.47
755.57	240.30
755.90	240.23
756.22	240.07
756.55	239.94
756.88	239.93
757.20	239.70
757.53	239.62
757.86	239.41
758.19	239.29
758.51	239.25
758.84	239.04
759.17	238.84
759.49	238.74
759.82	238.70
760.15	238.61
760.47	238.61
760.80	238.41
761.13	238.37
761.45	238.23
761.78	238.32
762.11	238.13
762.43	238.05
762.76	237.94
763.08	237.89
763.41	237.81
763.74	237.63
764.06	237.50
764.39	237.35
764.71	237.20
765.04	237.11
765.37	237.00
765.69	236.88
766.02	236.81
766.34	236.66
766.67	236.50
767.00	236.50
767.32	236.52
767.65	236.65
767.97	236.50
768.30	236.50
768.62	236.22
768.95	236.17
769.27	236.14
769.60	236.17
769.92	236.00
770.25	235.89
770.57	235.74
770.90	235.68
771.22	235.58
771.55	235.65
771.87	235.57
772.20	235.50
772.52	235.63
772.85	235.80
773.17	235.72
773.50	235.73
773.82	235.66
774.15	235.51
774.47	235.28
774.80	235.11
775.12	235.10
775.45	235.12
775.77	235.00
776.09	234.95
776.42	234.84
776.74	234.79
777.07	234.71
777.39	234.69
777.72	234.60
778.04	234.53
778.36	234.44
778.69	234.38
779.01	234.20
779.33	233.90
779.66	233.54
779.98	233.50
780.31	233.36
780.63	233.36
780.95	233.19
781.28	233.03
781.60	233.00
781.92	232.84
782.25	232.72
782.57	232.72
782.89	232.59
783.22	232.52
783.54	232.41
783.86	232.30
784.19	232.15
784.51	232.18
784.83	232.09
785.16	231.94
785.48	231.94
785.80	231.99
786.12	231.90
786.45	231.96
786.77	231.97
787.09	231.98
787.42	231.80
787.74	231.75
788.06	231.76
788.38	231.74
788.71	231.70
789.03	231.72
789.35	231.68
789.67	231.64
789.99	231.58
790.32	231.62
790.64	231.68
790.96	231.85
791.28	231.77
791.61	231.82
791.93	231.83
792.25	231.73
792.57	231.87
792.89	231.90
793.21	231.85
793.54	231.70
793.86	231.62
794.18	231.60
