SpectraSuite Data File
++++++++++++++++++++++++++++++++++++
Date: Fri Feb 01 14:35:01 EST 2013
User: group
Dark Spectrum Present: No
Reference Spectrum Present: No
Number of Sampled Component Spectra: 1
Spectrometers: USB2E7196
Integration Time (usec): 70000 (USB2E7196)
Spectra Averaged: 10 (USB2E7196)
Boxcar Smoothing: 10 (USB2E7196)
Correct for Electrical Dark: No (USB2E7196)
Strobe/Lamp Enabled: No (USB2E7196)
Correct for Detector Non-linearity: No (USB2E7196)
Correct for Stray Light: No (USB2E7196)
Number of Pixels in Processed Spectrum: 2048
>>>>>Begin Processed Spectral Data<<<<<
339.09	0.00
339.48	213.80
339.86	216.80
340.24	218.30
340.63	218.90
341.01	225.20
341.39	222.00
341.78	223.10
342.16	226.60
342.54	225.60
342.93	214.46
343.31	225.31
343.69	225.98
344.07	226.53
344.46	227.09
344.84	227.52
345.22	227.66
345.60	228.03
345.99	228.25
346.37	228.39
346.75	228.45
347.13	228.53
347.52	228.59
347.90	228.73
348.28	228.71
348.66	228.60
349.05	228.53
349.43	228.51
349.81	228.60
350.19	228.63
350.57	228.70
350.96	228.73
351.34	228.76
351.72	228.83
352.10	228.87
352.48	228.85
352.87	229.00
353.25	229.08
353.63	229.08
354.01	229.26
354.39	229.27
354.77	229.44
355.15	229.65
355.54	229.69
355.92	229.80
356.30	229.98
356.68	230.33
357.06	230.46
357.44	230.50
357.82	230.50
358.20	230.69
358.58	230.73
358.97	230.71
359.35	230.90
359.73	231.02
360.11	231.14
360.49	231.21
360.87	231.26
361.25	231.32
361.63	231.45
362.01	231.46
362.39	231.56
362.77	231.64
363.15	231.61
363.53	231.72
363.91	231.60
364.29	231.59
364.67	231.19
365.05	231.15
365.43	231.20
365.81	231.28
366.19	231.23
366.57	231.31
366.95	231.31
367.33	231.19
367.71	231.13
368.09	231.04
368.47	231.00
368.85	230.90
369.23	230.96
369.61	230.81
369.99	230.71
370.37	230.65
370.75	230.53
371.13	230.32
371.51	230.22
371.89	230.24
372.27	230.13
372.65	230.24
373.03	230.17
373.41	230.07
373.78	230.00
374.16	229.91
374.54	229.76
374.92	229.69
375.30	229.63
375.68	229.49
376.06	229.41
376.44	229.29
376.82	229.27
377.19	229.10
377.57	229.04
377.95	229.12
378.33	228.96
378.71	228.90
379.09	228.87
379.47	228.75
379.84	228.62
380.22	228.71
380.60	228.57
380.98	228.48
381.36	228.40
381.73	228.20
382.11	228.14
382.49	228.00
382.87	227.86
383.25	227.82
383.62	228.09
384.00	227.99
384.38	227.97
384.76	228.00
385.13	227.97
385.51	227.83
385.89	227.60
386.27	227.58
386.64	227.61
387.02	227.55
387.40	227.45
387.78	227.44
388.15	227.33
388.53	227.31
388.91	227.35
389.29	227.33
389.66	227.41
390.04	227.33
390.42	227.42
390.79	227.57
391.17	227.57
391.55	227.33
391.92	227.37
392.30	227.32
392.68	227.23
393.05	227.37
393.43	227.44
393.81	227.59
394.18	227.67
394.56	227.59
394.94	227.77
395.31	227.84
395.69	227.91
396.06	227.99
396.44	228.06
396.82	228.12
397.19	228.34
397.57	228.46
397.95	228.59
398.32	228.62
398.70	228.64
399.07	228.70
399.45	228.71
399.82	228.85
400.20	229.00
400.58	229.12
400.95	229.17
401.33	229.38
401.70	229.52
402.08	229.68
402.45	229.85
402.83	230.06
403.20	230.29
403.58	230.49
403.95	230.65
404.33	230.97
404.71	231.21
405.08	231.59
405.46	231.85
405.83	232.25
406.21	232.64
406.58	233.10
406.96	233.52
407.33	234.00
407.70	234.35
408.08	234.96
408.45	235.45
408.83	235.92
409.20	236.45
409.58	237.00
409.95	237.60
410.33	238.31
410.70	238.85
411.08	239.62
411.45	240.41
411.82	241.24
412.20	242.14
412.57	243.15
412.95	243.97
413.32	244.93
413.69	245.98
414.07	247.03
414.44	248.23
414.82	249.66
415.19	251.17
415.56	252.75
415.94	254.26
416.31	255.97
416.68	257.84
417.06	259.77
417.43	261.70
417.81	263.92
418.18	266.13
418.55	268.59
418.93	271.06
419.30	273.64
419.67	276.45
420.04	279.34
420.42	282.36
420.79	285.86
421.16	289.36
421.54	292.83
421.91	296.47
422.28	300.20
422.66	304.21
423.03	308.05
423.40	312.03
423.77	316.50
424.15	320.95
424.52	325.50
424.89	330.51
425.26	335.37
425.64	339.92
426.01	345.03
426.38	350.27
426.75	355.60
427.13	361.23
427.50	366.94
427.87	372.97
428.24	378.88
428.61	384.53
428.99	390.94
429.36	397.96
429.73	404.81
430.10	411.52
430.47	418.30
430.85	425.38
431.22	432.72
431.59	440.45
431.96	448.04
432.33	456.28
432.70	464.23
433.08	473.74
433.45	482.83
433.82	491.66
434.19	501.47
434.56	511.29
434.93	520.51
435.30	529.72
435.68	539.74
436.05	549.94
436.42	559.93
436.79	568.95
437.16	578.50
437.53	588.73
437.90	598.95
438.27	608.89
438.64	619.50
439.01	629.28
439.38	638.11
439.75	646.32
440.13	655.88
440.50	664.86
440.87	672.27
441.24	679.89
441.61	688.52
441.98	695.06
442.35	702.46
442.72	710.07
443.09	717.67
443.46	722.66
443.83	725.80
444.20	728.73
444.57	733.07
444.94	735.57
445.31	738.38
445.68	740.79
446.05	742.64
446.42	742.46
446.79	742.56
447.16	742.51
447.53	743.05
447.90	740.81
448.27	738.57
448.64	734.40
449.01	731.95
449.37	726.26
449.74	721.04
450.11	714.07
450.48	706.64
450.85	698.84
451.22	692.28
451.59	686.23
451.96	680.54
452.33	672.31
452.70	665.10
453.07	655.98
453.43	646.91
453.80	637.86
454.17	629.41
454.54	621.15
454.91	611.91
455.28	603.05
455.65	594.76
456.02	586.22
456.38	579.21
456.75	570.14
457.12	562.74
457.49	555.05
457.86	548.13
458.23	541.88
458.59	535.18
458.96	528.21
459.33	522.17
459.70	515.94
460.07	510.99
460.43	505.14
460.80	499.34
461.17	494.47
461.54	489.34
461.91	484.38
462.27	479.47
462.64	475.25
463.01	470.48
463.38	465.87
463.74	461.37
464.11	457.41
464.48	453.90
464.85	450.10
465.21	447.17
465.58	444.03
465.95	440.30
466.32	436.91
466.68	433.76
467.05	430.52
467.42	427.44
467.78	424.09
468.15	420.77
468.52	418.43
468.88	415.50
469.25	412.81
469.62	410.65
469.98	408.22
470.35	405.93
470.72	403.89
471.08	401.59
471.45	399.57
471.82	397.47
472.18	395.34
472.55	393.80
472.92	391.96
473.28	390.37
473.65	388.71
474.02	387.10
474.38	385.77
474.75	384.62
475.11	383.30
475.48	382.29
475.85	381.57
476.21	380.83
476.58	379.93
476.94	379.34
477.31	378.53
477.67	377.97
478.04	377.50
478.41	377.01
478.77	376.73
479.14	376.28
479.50	376.06
479.87	375.91
480.23	375.75
480.60	375.50
480.96	375.12
481.33	375.31
481.69	375.47
482.06	375.47
482.42	375.51
482.79	375.59
483.15	375.85
483.52	376.39
483.88	376.68
484.25	377.09
484.61	377.61
484.98	378.26
485.34	378.97
485.71	379.81
486.07	380.73
486.44	381.52
486.80	382.82
487.17	383.89
487.53	385.25
487.90	386.66
488.26	388.16
488.62	389.68
488.99	390.97
489.35	392.38
489.72	394.12
490.08	395.95
490.44	397.88
490.81	399.89
491.17	401.72
491.54	404.00
491.90	406.07
492.26	408.18
492.63	410.34
492.99	412.70
493.36	415.05
493.72	417.68
494.08	420.17
494.45	422.80
494.81	425.50
495.17	428.10
495.54	430.82
495.90	433.84
496.26	436.98
496.63	440.36
496.99	443.68
497.35	446.91
497.72	450.04
498.08	453.39
498.44	456.59
498.80	460.08
499.17	463.47
499.53	467.10
499.89	470.77
500.26	474.24
500.62	477.58
500.98	481.26
501.34	484.62
501.71	488.46
502.07	491.98
502.43	495.86
502.79	499.40
503.16	503.03
503.52	506.47
503.88	509.83
504.24	513.05
504.60	516.64
504.97	520.19
505.33	523.73
505.69	527.29
506.05	530.94
506.41	534.19
506.78	537.30
507.14	540.49
507.50	543.84
507.86	547.46
508.22	550.72
508.59	553.83
508.95	557.18
509.31	560.20
509.67	563.34
510.03	566.28
510.39	569.37
510.75	572.27
511.12	575.28
511.48	578.19
511.84	581.21
512.20	583.79
512.56	586.42
512.92	588.96
513.28	591.65
513.64	594.02
514.00	596.51
514.37	599.02
514.73	601.39
515.09	603.66
515.45	605.56
515.81	607.78
516.17	610.03
516.53	612.20
516.89	614.10
517.25	616.04
517.61	617.74
517.97	619.53
518.33	621.27
518.69	622.90
519.05	624.63
519.41	626.27
519.77	628.23
520.13	630.01
520.49	631.67
520.85	632.80
521.21	634.29
521.57	635.82
521.93	637.08
522.29	638.60
522.65	639.76
523.01	641.27
523.37	642.63
523.73	643.95
524.09	645.02
524.45	646.50
524.81	648.00
525.17	649.45
525.53	651.02
525.89	652.50
526.25	653.99
526.61	655.29
526.97	656.64
527.33	657.92
527.68	659.29
528.04	660.79
528.40	662.33
528.76	663.86
529.12	665.48
529.48	667.47
529.84	668.89
530.20	670.70
530.56	672.48
530.91	674.45
531.27	676.51
531.63	678.38
531.99	680.36
532.35	682.02
532.71	683.75
533.07	685.84
533.42	687.81
533.78	689.71
534.14	692.00
534.50	693.95
534.86	696.26
535.21	698.04
535.57	700.43
535.93	702.84
536.29	705.24
536.65	707.33
537.00	709.27
537.36	711.73
537.72	714.28
538.08	716.80
538.44	719.14
538.79	721.01
539.15	723.34
539.51	725.73
539.87	728.25
540.22	731.08
540.58	733.57
540.94	736.23
541.29	738.87
541.65	741.23
542.01	744.24
542.37	746.93
542.72	749.87
543.08	752.59
543.44	755.57
543.79	758.16
544.15	761.35
544.51	764.80
544.87	767.94
545.22	770.80
545.58	773.37
545.94	776.03
546.29	779.20
546.65	782.21
547.01	784.94
547.36	787.87
547.72	790.73
548.07	793.40
548.43	796.17
548.79	799.25
549.14	802.40
549.50	805.02
549.86	807.61
550.21	810.21
550.57	813.12
550.92	815.91
551.28	818.76
551.64	821.47
551.99	824.25
552.35	826.88
552.70	829.61
553.06	832.94
553.41	836.24
553.77	839.30
554.13	842.30
554.48	845.39
554.84	848.32
555.19	851.16
555.55	854.55
555.90	857.39
556.26	860.30
556.61	863.02
556.97	865.88
557.32	868.91
557.68	872.10
558.03	874.89
558.39	877.70
558.74	881.09
559.10	883.82
559.45	886.58
559.81	889.79
560.16	892.71
560.52	895.19
560.87	898.16
561.23	900.47
561.58	903.60
561.94	906.20
562.29	908.67
562.64	911.31
563.00	913.57
563.35	916.55
563.71	919.19
564.06	921.91
564.42	924.52
564.77	927.10
565.12	929.59
565.48	932.29
565.83	934.43
566.19	936.48
566.54	938.67
566.89	940.96
567.25	943.07
567.60	945.71
567.96	948.15
568.31	949.93
568.66	952.30
569.02	953.91
569.37	955.87
569.72	958.12
570.08	959.87
570.43	961.44
570.78	962.65
571.14	964.45
571.49	965.95
571.84	968.08
572.20	969.36
572.55	970.75
572.90	971.79
573.26	973.26
573.61	974.52
573.96	975.87
574.31	976.43
574.67	976.88
575.02	976.99
575.37	977.36
575.72	977.37
576.08	977.91
576.43	978.23
576.78	978.59
577.13	978.82
577.49	979.55
577.84	980.10
578.19	980.88
578.54	980.35
578.90	980.33
579.25	979.66
579.60	979.26
579.95	978.89
580.30	978.42
580.66	978.17
581.01	977.65
581.36	977.21
581.71	976.94
582.06	976.78
582.42	976.21
582.77	975.77
583.12	975.49
583.47	974.89
583.82	974.52
584.17	973.66
584.53	973.02
584.88	972.08
585.23	971.35
585.58	970.20
585.93	969.75
586.28	969.32
586.63	968.70
586.98	968.33
587.34	967.57
587.69	966.71
588.04	965.46
588.39	964.71
588.74	963.35
589.09	962.29
589.44	960.99
589.79	959.74
590.14	958.72
590.49	957.82
590.84	956.27
591.19	954.67
591.54	953.06
591.89	951.00
592.25	949.40
592.60	947.48
592.95	945.66
593.30	943.77
593.65	941.54
594.00	939.59
594.35	937.76
594.70	935.40
595.05	933.64
595.40	931.84
595.75	929.53
596.10	927.65
596.45	925.78
596.80	923.87
597.15	921.98
597.50	919.57
597.85	917.62
598.19	915.77
598.54	913.97
598.89	912.40
599.24	911.02
599.59	908.74
599.94	906.80
600.29	904.84
600.64	902.94
600.99	900.43
601.34	898.18
601.69	895.76
602.04	893.70
602.39	891.35
602.74	889.18
603.08	887.21
603.43	885.41
603.78	882.95
604.13	880.77
604.48	878.49
604.83	876.42
605.18	873.85
605.53	871.29
605.87	868.42
606.22	865.70
606.57	862.66
606.92	860.40
607.27	858.17
607.62	855.82
607.96	853.06
608.31	851.01
608.66	848.56
609.01	845.80
609.36	843.12
609.70	839.94
610.05	836.79
610.40	833.82
610.75	830.40
611.10	827.55
611.44	824.10
611.79	821.04
612.14	817.93
612.49	814.40
612.83	811.20
613.18	808.30
613.53	805.31
613.88	802.24
614.22	798.88
614.57	795.27
614.92	791.98
615.27	788.96
615.61	785.51
615.96	782.40
616.31	779.54
616.65	777.09
617.00	774.75
617.35	772.05
617.70	768.74
618.04	765.68
618.39	762.61
618.74	760.00
619.08	757.10
619.43	754.01
619.78	751.47
620.12	748.79
620.47	745.73
620.82	742.90
621.16	740.26
621.51	737.70
621.85	734.97
622.20	731.90
622.55	728.96
622.89	725.99
623.24	723.04
623.59	720.10
623.93	717.13
624.28	714.13
624.62	711.14
624.97	708.56
625.32	706.27
625.66	703.82
626.01	700.99
626.35	698.20
626.70	695.40
627.04	692.42
627.39	689.41
627.73	686.59
628.08	683.77
628.43	680.68
628.77	677.48
629.12	674.42
629.46	671.68
629.81	668.60
630.15	666.00
630.50	663.16
630.84	659.89
631.19	656.61
631.53	653.53
631.88	650.63
632.22	647.42
632.57	644.30
632.91	641.14
633.26	637.98
633.60	635.06
633.95	632.40
634.29	629.97
634.64	627.58
634.98	624.91
635.32	622.18
635.67	619.86
636.01	617.37
636.36	614.67
636.70	612.08
637.05	609.70
637.39	607.18
637.73	604.49
638.08	602.62
638.42	600.32
638.77	597.90
639.11	595.36
639.45	593.22
639.80	590.40
640.14	587.95
640.49	585.71
640.83	583.03
641.17	580.30
641.52	577.53
641.86	574.75
642.20	572.29
642.55	569.78
642.89	567.09
643.23	564.50
643.58	562.15
643.92	559.48
644.26	556.81
644.61	554.30
644.95	551.97
645.29	548.94
645.64	546.30
645.98	543.84
646.32	541.44
646.66	538.78
647.01	536.47
647.35	533.89
647.69	531.36
648.04	529.21
648.38	526.75
648.72	524.10
649.06	521.67
649.41	519.28
649.75	516.74
650.09	514.19
650.43	511.89
650.78	509.39
651.12	506.92
651.46	504.61
651.80	502.20
652.14	499.92
652.49	497.80
652.83	495.60
653.17	493.10
653.51	490.56
653.85	488.21
654.20	485.96
654.54	483.58
654.88	481.07
655.22	478.69
655.56	476.51
655.90	474.42
656.25	472.00
656.59	469.70
656.93	467.38
657.27	465.37
657.61	462.98
657.95	461.02
658.29	459.12
658.64	457.15
658.98	455.13
659.32	452.78
659.66	450.55
660.00	448.35
660.34	446.56
660.68	444.62
661.02	442.38
661.36	440.32
661.70	438.43
662.05	436.80
662.39	435.01
662.73	433.08
663.07	431.20
663.41	429.55
663.75	427.82
664.09	426.19
664.43	424.26
664.77	422.51
665.11	420.72
665.45	418.91
665.79	417.17
666.13	415.37
666.47	413.46
666.81	411.68
667.15	409.85
667.49	408.00
667.83	406.40
668.17	404.99
668.51	403.34
668.85	401.79
669.19	400.37
669.53	398.75
669.87	397.31
670.21	395.97
670.55	394.38
670.89	392.96
671.23	391.51
671.57	390.15
671.91	388.80
672.25	387.27
672.58	385.84
672.92	384.19
673.26	382.83
673.60	381.77
673.94	380.50
674.28	379.42
674.62	378.22
674.96	376.96
675.30	375.69
675.64	374.58
675.97	373.30
676.31	371.76
676.65	370.55
676.99	369.29
677.33	367.99
677.67	366.62
678.01	365.14
678.34	363.87
678.68	362.70
679.02	361.40
679.36	360.29
679.70	359.10
680.04	357.96
680.37	356.68
680.71	355.42
681.05	354.37
681.39	353.27
681.73	352.04
682.06	350.87
682.40	349.69
682.74	348.48
683.08	347.42
683.42	346.30
683.75	345.12
684.09	343.92
684.43	342.75
684.77	341.80
685.10	340.78
685.44	339.65
685.78	338.55
686.12	337.46
686.45	336.34
686.79	335.27
687.13	334.47
687.46	333.42
687.80	332.28
688.14	331.15
688.48	329.98
688.81	328.97
689.15	327.95
689.49	326.90
689.82	325.78
690.16	324.62
690.50	323.70
690.83	322.70
691.17	321.67
691.51	320.56
691.84	319.61
692.18	318.56
692.52	317.51
692.85	316.45
693.19	315.55
693.52	314.60
693.86	313.60
694.20	312.51
694.53	311.65
694.87	310.76
695.21	309.88
695.54	308.86
695.88	307.80
696.21	306.79
696.55	305.86
696.88	305.08
697.22	304.30
697.56	303.54
697.89	302.65
698.23	301.90
698.56	301.17
698.90	300.40
699.23	299.58
699.57	298.77
699.90	297.92
700.24	297.12
700.58	296.26
700.91	295.50
701.25	294.84
701.58	294.15
701.92	293.51
702.25	292.79
702.59	292.20
702.92	291.69
703.26	291.15
703.59	290.67
703.93	290.16
704.26	289.49
704.60	288.75
704.93	288.09
705.26	287.45
705.60	286.90
705.93	286.19
706.27	285.69
706.60	285.29
706.94	284.81
707.27	284.21
707.61	283.69
707.94	283.22
708.27	282.60
708.61	281.99
708.94	281.41
709.28	280.90
709.61	280.36
709.94	279.75
710.28	279.20
710.61	278.68
710.95	278.00
711.28	277.53
711.61	277.09
711.95	276.73
712.28	276.22
712.61	275.70
712.95	275.30
713.28	274.98
713.61	274.46
713.95	273.93
714.28	273.56
714.61	273.13
714.95	272.54
715.28	272.01
715.61	271.55
715.95	271.18
716.28	270.74
716.61	270.30
716.95	269.87
717.28	269.49
717.61	269.00
717.94	268.55
718.28	268.00
718.61	267.56
718.94	267.09
719.27	266.71
719.61	266.33
719.94	265.98
720.27	265.40
720.60	264.94
720.94	264.70
721.27	264.35
721.60	264.12
721.93	263.78
722.27	263.49
722.60	263.11
722.93	262.63
723.26	262.22
723.59	261.91
723.93	261.58
724.26	261.24
724.59	260.92
724.92	260.60
725.25	260.38
725.59	260.06
725.92	259.72
726.25	259.37
726.58	259.06
726.91	258.64
727.24	258.39
727.57	258.12
727.91	257.69
728.24	257.30
728.57	256.82
728.90	256.54
729.23	256.12
729.56	255.89
729.89	255.62
730.22	255.29
730.55	254.94
730.89	254.64
731.22	254.30
731.55	253.97
731.88	253.76
732.21	253.45
732.54	253.18
732.87	252.90
733.20	252.57
733.53	252.27
733.86	252.07
734.19	251.70
734.52	251.49
734.85	251.36
735.18	251.14
735.51	250.98
735.84	250.73
736.17	250.60
736.50	250.30
736.83	250.27
737.16	250.09
737.49	249.88
737.82	249.63
738.15	249.32
738.48	249.11
738.81	248.82
739.14	248.57
739.47	248.28
739.80	247.97
740.13	247.76
740.46	247.59
740.79	247.34
741.12	247.19
741.45	246.78
741.78	246.50
742.11	246.31
742.44	246.02
742.77	245.82
743.10	245.61
743.43	245.49
743.75	245.07
744.08	245.12
744.41	244.92
744.74	244.78
745.07	244.63
745.40	244.48
745.73	244.36
746.06	244.20
746.39	244.06
746.71	243.97
747.04	243.89
747.37	243.70
747.70	243.58
748.03	243.42
748.36	243.44
748.68	243.21
749.01	242.96
749.34	242.82
749.67	242.76
750.00	242.61
750.33	242.48
750.65	242.43
750.98	242.00
751.31	241.81
751.64	241.70
751.97	241.67
752.29	241.50
752.62	241.28
752.95	241.20
753.28	240.93
753.60	240.75
753.93	240.71
754.26	240.51
754.59	240.44
754.91	240.33
755.24	240.24
755.57	240.13
755.90	240.14
756.22	240.00
756.55	239.75
756.88	239.60
757.20	239.42
757.53	239.30
757.86	239.21
758.19	239.12
758.51	239.01
758.84	239.01
759.17	238.85
759.49	238.85
759.82	238.86
760.15	238.89
760.47	238.85
760.80	238.66
761.13	238.60
761.45	238.34
761.78	238.33
762.11	238.23
762.43	238.23
762.76	238.02
763.08	237.97
763.41	238.02
763.74	238.00
764.06	237.90
764.39	237.78
764.71	237.74
765.04	237.66
765.37	237.60
765.69	237.43
766.02	237.45
766.34	237.35
766.67	237.13
767.00	237.08
767.32	237.12
767.65	237.17
767.97	237.13
768.30	237.11
768.62	236.97
768.95	236.85
769.27	236.66
769.60	236.70
769.92	236.60
770.25	236.43
770.57	236.21
770.90	236.00
771.22	235.90
771.55	235.82
771.87	235.76
772.20	235.62
772.52	235.58
772.85	235.59
773.17	235.47
773.50	235.31
773.82	235.09
774.15	234.89
774.47	234.60
774.80	234.37
775.12	234.20
775.45	234.03
775.77	233.85
776.09	233.83
776.42	233.75
776.74	233.72
777.07	233.61
777.39	233.55
777.72	233.55
778.04	233.47
778.36	233.32
778.69	233.32
779.01	233.28
779.33	233.10
779.66	232.80
779.98	232.73
780.31	232.66
780.63	232.86
780.95	232.80
781.28	232.68
781.60	232.71
781.92	232.66
782.25	232.73
782.57	232.69
782.89	232.58
783.22	232.44
783.54	232.40
783.86	232.33
784.19	232.38
784.51	232.35
784.83	232.30
785.16	232.27
785.48	232.16
785.80	232.12
786.12	232.00
786.45	232.04
786.77	232.01
787.09	231.99
787.42	231.92
787.74	231.95
788.06	232.04
788.38	232.06
788.71	232.08
789.03	231.93
789.35	232.01
789.67	232.00
789.99	231.97
790.32	231.87
790.64	232.00
790.96	232.14
791.28	232.02
791.61	232.06
791.93	232.07
792.25	232.06
792.57	232.13
792.89	232.12
793.21	232.12
793.54	232.12
793.86	232.11
794.18	232.00
