SpectraSuite Data File
++++++++++++++++++++++++++++++++++++
Date: Fri Feb 01 14:34:36 EST 2013
User: group
Dark Spectrum Present: No
Reference Spectrum Present: No
Number of Sampled Component Spectra: 1
Spectrometers: USB2E7196
Integration Time (usec): 70000 (USB2E7196)
Spectra Averaged: 10 (USB2E7196)
Boxcar Smoothing: 10 (USB2E7196)
Correct for Electrical Dark: No (USB2E7196)
Strobe/Lamp Enabled: No (USB2E7196)
Correct for Detector Non-linearity: No (USB2E7196)
Correct for Stray Light: No (USB2E7196)
Number of Pixels in Processed Spectrum: 2048
>>>>>Begin Processed Spectral Data<<<<<
339.09	0.00
339.48	215.30
339.86	216.90
340.24	218.20
340.63	221.70
341.01	226.40
341.39	222.10
341.78	223.70
342.16	225.70
342.54	225.90
342.93	214.54
343.31	225.42
343.69	226.04
344.07	226.50
344.46	226.90
344.84	227.20
345.22	227.31
345.60	227.71
345.99	227.96
346.37	228.02
346.75	228.10
347.13	228.11
347.52	228.16
347.90	228.19
348.28	228.28
348.66	228.28
349.05	228.23
349.43	228.30
349.81	228.43
350.19	228.39
350.57	228.54
350.96	228.57
351.34	228.60
351.72	228.63
352.10	228.78
352.48	228.94
352.87	228.97
353.25	228.97
353.63	229.00
354.01	229.12
354.39	229.24
354.77	229.31
355.15	229.52
355.54	229.55
355.92	229.52
356.30	229.47
356.68	229.50
357.06	229.66
357.44	229.75
357.82	229.76
358.20	229.95
358.58	229.96
358.97	230.11
359.35	230.24
359.73	230.31
360.11	230.30
360.49	230.33
360.87	230.37
361.25	230.47
361.63	230.50
362.01	230.48
362.39	230.57
362.77	230.71
363.15	230.70
363.53	230.75
363.91	230.90
364.29	231.04
364.67	230.91
365.05	230.87
365.43	230.96
365.81	231.01
366.19	231.10
366.57	231.19
366.95	231.06
367.33	231.03
367.71	231.11
368.09	231.16
368.47	231.16
368.85	231.16
369.23	231.23
369.61	231.15
369.99	231.30
370.37	231.24
370.75	231.25
371.13	231.13
371.51	231.08
371.89	230.94
372.27	230.88
372.65	230.87
373.03	230.84
373.41	230.81
373.78	230.71
374.16	230.53
374.54	230.40
374.92	230.40
375.30	230.21
375.68	230.02
376.06	229.96
376.44	229.88
376.82	229.74
377.19	229.59
377.57	229.42
377.95	229.15
378.33	229.02
378.71	228.82
379.09	228.83
379.47	228.72
379.84	228.60
380.22	228.49
380.60	228.42
380.98	228.32
381.36	228.08
381.73	227.93
382.11	227.85
382.49	227.80
382.87	227.67
383.25	227.70
383.62	227.85
384.00	227.69
384.38	227.63
384.76	227.66
385.13	227.62
385.51	227.65
385.89	227.65
386.27	227.61
386.64	227.62
387.02	227.47
387.40	227.38
387.78	227.39
388.15	227.32
388.53	227.25
388.91	227.29
389.29	227.38
389.66	227.54
390.04	227.61
390.42	227.62
390.79	227.65
391.17	227.59
391.55	227.42
391.92	227.52
392.30	227.60
392.68	227.62
393.05	227.68
393.43	227.64
393.81	227.63
394.18	227.62
394.56	227.53
394.94	227.62
395.31	227.74
395.69	227.95
396.06	228.05
396.44	228.17
396.82	228.27
397.19	228.36
397.57	228.35
397.95	228.36
398.32	228.33
398.70	228.50
399.07	228.70
399.45	228.72
399.82	228.85
400.20	228.94
400.58	229.06
400.95	229.19
401.33	229.38
401.70	229.77
402.08	230.05
402.45	230.36
402.83	230.75
403.20	230.98
403.58	231.10
403.95	231.46
404.33	231.76
404.71	232.00
405.08	232.38
405.46	232.69
405.83	233.05
406.21	233.48
406.58	233.91
406.96	234.30
407.33	234.83
407.70	235.44
408.08	236.06
408.45	236.71
408.83	237.37
409.20	238.00
409.58	238.45
409.95	239.12
410.33	239.86
410.70	240.41
411.08	241.18
411.45	241.97
411.82	242.83
412.20	243.72
412.57	244.83
412.95	245.82
413.32	247.08
413.69	248.29
414.07	249.53
414.44	250.77
414.82	252.18
415.19	253.79
415.56	255.38
415.94	257.06
416.31	258.96
416.68	260.80
417.06	262.96
417.43	264.94
417.81	267.20
418.18	269.58
418.55	272.21
418.93	275.02
419.30	277.93
419.67	280.84
420.04	283.93
420.42	287.21
420.79	290.88
421.16	294.56
421.54	298.37
421.91	302.26
422.28	306.52
422.66	310.89
423.03	315.20
423.40	319.52
423.77	324.19
424.15	329.00
424.52	334.04
424.89	339.54
425.26	344.92
425.64	350.02
426.01	355.49
426.38	361.20
426.75	366.91
427.13	372.92
427.50	379.21
427.87	385.85
428.24	392.23
428.61	398.37
428.99	405.09
429.36	412.66
429.73	420.11
430.10	427.37
430.47	434.78
430.85	442.58
431.22	450.80
431.59	459.41
431.96	467.47
432.33	476.37
432.70	484.98
433.08	495.39
433.45	505.06
433.82	514.69
434.19	525.51
434.56	535.96
434.93	546.05
435.30	556.19
435.68	567.14
436.05	578.22
436.42	589.14
436.79	598.87
437.16	609.34
437.53	620.32
437.90	631.24
438.27	642.04
438.64	653.16
439.01	663.69
439.38	673.06
439.75	682.20
440.13	692.74
440.50	702.68
440.87	710.66
441.24	719.23
441.61	728.86
441.98	735.74
442.35	744.05
442.72	752.47
443.09	760.59
443.46	766.04
443.83	769.61
444.20	773.00
444.57	778.16
444.94	780.82
445.31	784.08
445.68	786.90
446.05	789.06
446.42	789.31
446.79	789.10
447.16	789.11
447.53	789.49
447.90	786.56
448.27	783.95
448.64	779.47
449.01	776.60
449.37	770.25
449.74	764.31
450.11	756.99
450.48	748.69
450.85	740.40
451.22	733.40
451.59	726.72
451.96	720.55
452.33	711.49
452.70	703.57
453.07	693.51
453.43	683.55
453.80	673.58
454.17	664.26
454.54	655.50
454.91	645.67
455.28	636.09
455.65	627.40
456.02	618.05
456.38	610.37
456.75	600.66
457.12	592.79
457.49	584.83
457.86	577.08
458.23	570.55
458.59	563.02
458.96	555.28
459.33	548.76
459.70	542.05
460.07	536.67
460.43	530.34
460.80	524.43
461.17	519.14
461.54	513.74
461.91	508.25
462.27	502.90
462.64	498.34
463.01	493.40
463.38	488.40
463.74	483.65
464.11	479.40
464.48	475.66
464.85	471.47
465.21	468.14
465.58	464.67
465.95	460.54
466.32	457.30
466.68	453.94
467.05	450.37
467.42	446.78
467.78	443.01
468.15	439.66
468.52	437.06
468.88	433.81
469.25	430.94
469.62	428.60
469.98	425.96
470.35	423.65
470.72	421.43
471.08	418.96
471.45	416.95
471.82	414.75
472.18	412.29
472.55	410.54
472.92	408.73
473.28	406.92
473.65	405.18
474.02	403.32
474.38	401.80
474.75	400.60
475.11	399.30
475.48	398.33
475.85	397.39
476.21	396.38
476.58	395.46
476.94	394.61
477.31	394.00
477.67	393.13
478.04	392.39
478.41	391.75
478.77	391.49
479.14	390.90
479.50	390.67
479.87	390.59
480.23	390.48
480.60	390.16
480.96	390.08
481.33	390.24
481.69	390.46
482.06	390.44
482.42	390.50
482.79	390.55
483.15	391.19
483.52	391.65
483.88	392.09
484.25	392.71
484.61	393.40
484.98	393.91
485.34	394.98
485.71	395.95
486.07	397.08
486.44	398.00
486.80	399.13
487.17	400.41
487.53	402.00
487.90	403.47
488.26	405.16
488.62	407.00
488.99	408.62
489.35	410.21
489.72	412.20
490.08	414.26
490.44	416.48
490.81	418.44
491.17	420.80
491.54	423.32
491.90	425.79
492.26	428.53
492.63	431.23
492.99	433.88
493.36	436.67
493.72	439.56
494.08	442.69
494.45	446.04
494.81	449.22
495.17	452.32
495.54	455.56
495.90	458.94
496.26	462.23
496.63	466.03
496.99	469.90
497.35	473.70
497.72	477.67
498.08	481.42
498.44	485.35
498.80	489.56
499.17	493.61
499.53	497.64
499.89	501.75
500.26	505.92
500.62	510.05
500.98	514.51
501.34	518.80
501.71	523.23
502.07	527.40
502.43	531.54
502.79	536.14
503.16	540.59
503.52	544.90
503.88	549.34
504.24	553.47
504.60	557.82
504.97	562.37
505.33	566.36
505.69	571.31
506.05	575.69
506.41	579.67
506.78	583.75
507.14	588.05
507.50	592.28
507.86	596.70
508.22	600.89
508.59	604.70
508.95	608.79
509.31	612.62
509.67	616.69
510.03	620.71
510.39	624.49
510.75	628.40
511.12	632.37
511.48	636.37
511.84	640.03
512.20	643.49
512.56	646.94
512.92	650.84
513.28	654.20
513.64	657.31
514.00	660.61
514.37	663.93
514.73	667.10
515.09	670.02
515.45	672.87
515.81	675.96
516.17	679.01
516.53	681.91
516.89	684.84
517.25	687.52
517.61	690.34
517.97	692.93
518.33	695.43
518.69	697.81
519.05	700.01
519.41	702.65
519.77	705.40
520.13	708.02
520.49	710.18
520.85	712.19
521.21	714.51
521.57	716.87
521.93	718.85
522.29	721.16
522.65	723.34
523.01	725.32
523.37	727.02
523.73	728.86
524.09	730.63
524.45	732.63
524.81	734.65
525.17	736.43
525.53	738.37
525.89	740.25
526.25	742.31
526.61	743.99
526.97	745.87
527.33	747.35
527.68	749.29
528.04	750.85
528.40	752.71
528.76	754.87
529.12	757.03
529.48	759.31
529.84	760.99
530.20	763.02
530.56	765.32
530.91	767.92
531.27	770.23
531.63	772.48
531.99	774.48
532.35	776.43
532.71	778.56
533.07	780.77
533.42	783.17
533.78	785.30
534.14	787.82
534.50	789.68
534.86	792.09
535.21	793.90
535.57	796.73
535.93	798.93
536.29	801.37
536.65	803.61
537.00	805.87
537.36	808.52
537.72	811.02
538.08	813.36
538.44	815.57
538.79	817.76
539.15	820.02
539.51	822.60
539.87	825.46
540.22	828.11
540.58	830.75
540.94	833.06
541.29	835.54
541.65	837.80
542.01	840.64
542.37	843.40
542.72	846.20
543.08	848.62
543.44	851.60
543.79	853.66
544.15	856.24
544.51	859.39
544.87	862.03
545.22	864.56
545.58	867.00
545.94	869.34
546.29	872.14
546.65	874.98
547.01	877.31
547.36	879.70
547.72	882.06
548.07	884.59
548.43	887.07
548.79	889.59
549.14	892.19
549.50	894.61
549.86	896.84
550.21	899.28
550.57	901.67
550.92	904.09
551.28	906.61
551.64	909.08
551.99	911.37
552.35	913.68
552.70	916.18
553.06	918.81
553.41	921.50
553.77	924.05
554.13	926.50
554.48	929.25
554.84	931.92
555.19	934.50
555.55	937.24
555.90	939.60
556.26	942.33
556.61	944.79
556.97	947.00
557.32	949.60
557.68	951.99
558.03	954.86
558.39	956.89
558.74	959.70
559.10	962.13
559.45	964.46
559.81	967.33
560.16	969.67
560.52	971.86
560.87	974.20
561.23	976.42
561.58	978.84
561.94	981.20
562.29	983.01
562.64	985.35
563.00	987.10
563.35	989.77
563.71	992.00
564.06	994.56
564.42	996.97
564.77	999.08
565.12	1001.41
565.48	1003.27
565.83	1005.18
566.19	1007.24
566.54	1008.98
566.89	1010.86
567.25	1012.36
567.60	1014.28
567.96	1016.50
568.31	1018.47
568.66	1020.21
569.02	1021.62
569.37	1022.63
569.72	1024.19
570.08	1025.55
570.43	1026.90
570.78	1027.68
571.14	1028.24
571.49	1029.21
571.84	1030.81
572.20	1031.88
572.55	1032.50
572.90	1033.18
573.26	1034.31
573.61	1035.16
573.96	1035.50
574.31	1035.37
574.67	1035.29
575.02	1035.31
575.37	1035.19
575.72	1034.82
576.08	1034.93
576.43	1034.64
576.78	1034.95
577.13	1035.08
577.49	1034.85
577.84	1034.79
578.19	1035.00
578.54	1034.82
578.90	1034.32
579.25	1033.20
579.60	1032.50
579.95	1032.16
580.30	1031.44
580.66	1030.44
581.01	1029.25
581.36	1028.81
581.71	1028.52
582.06	1027.99
582.42	1027.12
582.77	1026.08
583.12	1025.10
583.47	1023.76
583.82	1022.87
584.17	1021.60
584.53	1020.58
584.88	1019.60
585.23	1018.25
585.58	1016.38
585.93	1015.23
586.28	1014.20
586.63	1013.07
586.98	1011.98
587.34	1010.62
587.69	1009.57
588.04	1008.45
588.39	1007.07
588.74	1005.30
589.09	1003.44
589.44	1001.84
589.79	1000.41
590.14	998.86
590.49	997.51
590.84	996.27
591.19	994.57
591.54	992.56
591.89	990.25
592.25	988.22
592.60	985.69
592.95	983.88
593.30	981.68
593.65	979.09
594.00	976.85
594.35	974.75
594.70	971.86
595.05	969.40
595.40	966.99
595.75	964.37
596.10	962.21
596.45	960.20
596.80	958.19
597.15	955.82
597.50	953.12
597.85	950.72
598.19	948.32
598.54	946.33
598.89	944.28
599.24	942.20
599.59	939.88
599.94	938.09
600.29	935.71
600.64	933.45
600.99	930.70
601.34	928.05
601.69	925.36
602.04	923.16
602.39	920.69
602.74	918.51
603.08	916.37
603.43	914.08
603.78	911.81
604.13	908.89
604.48	906.26
604.83	903.88
605.18	901.28
605.53	898.08
605.87	894.80
606.22	892.10
606.57	889.44
606.92	886.77
607.27	884.16
607.62	881.73
607.96	879.10
608.31	876.78
608.66	873.81
609.01	870.51
609.36	867.49
609.70	863.88
610.05	860.44
610.40	857.27
610.75	853.92
611.10	850.13
611.44	846.52
611.79	843.15
612.14	840.11
612.49	836.50
612.83	833.30
613.18	830.11
613.53	826.60
613.88	822.89
614.22	819.19
614.57	815.13
614.92	811.43
615.27	807.91
615.61	804.46
615.96	801.39
616.31	798.46
616.65	795.41
617.00	792.54
617.35	789.40
617.70	785.93
618.04	782.53
618.39	779.59
618.74	776.60
619.08	773.35
619.43	769.80
619.78	766.76
620.12	763.68
620.47	760.43
620.82	757.10
621.16	753.95
621.51	751.04
621.85	748.42
622.20	745.25
622.55	742.28
622.89	739.15
623.24	736.03
623.59	733.03
623.93	729.86
624.28	727.01
624.62	723.88
624.97	721.04
625.32	718.24
625.66	715.10
626.01	712.29
626.35	709.44
626.70	706.63
627.04	703.78
627.39	700.59
627.73	697.64
628.08	694.81
628.43	691.75
628.77	688.73
629.12	685.40
629.46	682.34
629.81	679.02
630.15	675.72
630.50	672.74
630.84	669.20
631.19	665.99
631.53	662.78
631.88	659.56
632.22	656.20
632.57	653.07
632.91	650.01
633.26	646.81
633.60	643.46
633.95	640.45
634.29	637.42
634.64	634.70
634.98	631.80
635.32	629.08
635.67	626.58
636.01	623.72
636.36	621.03
636.70	618.34
637.05	615.67
637.39	613.33
637.73	610.69
638.08	608.61
638.42	606.18
638.77	603.72
639.11	601.19
639.45	598.58
639.80	595.89
640.14	593.28
640.49	590.80
640.83	588.52
641.17	585.94
641.52	583.33
641.86	580.75
642.20	578.39
642.55	575.90
642.89	573.30
643.23	570.87
643.58	568.53
643.92	565.96
644.26	563.61
644.61	561.15
644.95	558.58
645.29	555.50
645.64	552.85
645.98	550.23
646.32	547.78
646.66	545.31
647.01	542.90
647.35	540.69
647.69	538.36
648.04	536.04
648.38	533.40
648.72	530.84
649.06	528.35
649.41	525.69
649.75	522.94
650.09	520.14
650.43	517.70
650.78	514.99
651.12	512.47
651.46	509.85
651.80	507.39
652.14	504.89
652.49	502.88
652.83	500.69
653.17	498.20
653.51	495.78
653.85	493.60
654.20	491.22
654.54	488.42
654.88	485.81
655.22	483.16
655.56	480.88
655.90	478.56
656.25	476.19
656.59	473.91
656.93	471.86
657.27	469.85
657.61	467.39
657.95	465.36
658.29	463.41
658.64	461.19
658.98	458.76
659.32	456.46
659.66	454.23
660.00	451.91
660.34	449.65
660.68	447.50
661.02	445.40
661.36	443.36
661.70	441.50
662.05	439.68
662.39	437.83
662.73	436.10
663.07	434.38
663.41	432.48
663.75	430.56
664.09	428.53
664.43	426.52
664.77	424.68
665.11	422.84
665.45	420.81
665.79	419.21
666.13	417.43
666.47	415.70
666.81	413.66
667.15	411.81
667.49	410.09
667.83	408.21
668.17	406.28
668.51	404.44
668.85	402.65
669.19	401.13
669.53	399.42
669.87	397.64
670.21	395.93
670.55	394.42
670.89	393.00
671.23	391.46
671.57	390.00
671.91	388.56
672.25	387.00
672.58	385.60
672.92	384.08
673.26	382.70
673.60	381.40
673.94	380.18
674.28	379.00
674.62	377.86
674.96	376.72
675.30	375.50
675.64	374.27
675.97	373.12
676.31	371.70
676.65	370.41
676.99	369.31
677.33	367.98
677.67	366.67
678.01	365.21
678.34	363.90
678.68	362.70
679.02	361.44
679.36	360.31
679.70	359.10
680.04	357.88
680.37	356.65
680.71	355.50
681.05	354.42
681.39	353.26
681.73	352.01
682.06	350.95
682.40	349.86
682.74	348.82
683.08	347.80
683.42	346.57
683.75	345.43
684.09	344.17
684.43	343.09
684.77	341.94
685.10	340.92
685.44	339.86
685.78	338.76
686.12	337.75
686.45	336.58
686.79	335.50
687.13	334.54
687.46	333.64
687.80	332.54
688.14	331.49
688.48	330.40
688.81	329.31
689.15	328.32
689.49	327.37
689.82	326.33
690.16	325.15
690.50	324.30
690.83	323.34
691.17	322.38
691.51	321.34
691.84	320.40
692.18	319.48
692.52	318.57
692.85	317.66
693.19	316.70
693.52	315.78
693.86	314.76
694.20	313.77
694.53	312.79
694.87	312.02
695.21	310.99
695.54	310.07
695.88	309.04
696.21	307.94
696.55	306.98
696.88	306.06
697.22	305.19
697.56	304.10
697.89	303.34
698.23	302.41
698.56	301.64
698.90	300.86
699.23	299.97
699.57	299.09
699.90	298.27
700.24	297.42
700.58	296.69
700.91	295.95
701.25	295.25
701.58	294.49
701.92	293.55
702.25	292.88
702.59	292.18
702.92	291.53
703.26	290.92
703.59	290.29
703.93	289.89
704.26	289.21
704.60	288.76
704.93	288.05
705.26	287.46
705.60	286.73
705.93	286.07
706.27	285.52
706.60	284.96
706.94	284.39
707.27	283.77
707.61	283.14
707.94	282.63
708.27	281.81
708.61	281.15
708.94	280.61
709.28	280.09
709.61	279.51
709.94	279.09
710.28	278.55
710.61	277.89
710.95	277.06
711.28	276.73
711.61	276.15
711.95	275.57
712.28	274.97
712.61	274.53
712.95	274.08
713.28	273.65
713.61	273.26
713.95	272.73
714.28	272.29
714.61	271.74
714.95	271.28
715.28	270.87
715.61	270.44
715.95	270.02
716.28	269.60
716.61	269.16
716.95	268.59
717.28	268.10
717.61	267.90
717.94	267.47
718.28	266.91
718.61	266.58
718.94	266.20
719.27	265.86
719.61	265.56
719.94	265.21
720.27	264.70
720.60	264.16
720.94	263.81
721.27	263.54
721.60	263.24
721.93	262.90
722.27	262.66
722.60	262.47
722.93	262.18
723.26	261.82
723.59	261.54
723.93	261.29
724.26	261.07
724.59	260.61
724.92	260.30
725.25	259.97
725.59	259.60
725.92	259.35
726.25	259.08
726.58	258.77
726.91	258.32
727.24	258.03
727.57	257.84
727.91	257.60
728.24	257.28
728.57	257.02
728.90	256.72
729.23	256.40
729.56	256.18
729.89	255.87
730.22	255.59
730.55	255.25
730.89	255.06
731.22	254.74
731.55	254.55
731.88	254.38
732.21	254.10
732.54	253.87
732.87	253.71
733.20	253.45
733.53	253.19
733.86	253.08
734.19	252.85
734.52	252.59
734.85	252.40
735.18	252.15
735.51	252.02
735.84	251.85
736.17	251.70
736.50	251.31
736.83	251.28
737.16	251.14
737.49	251.06
737.82	250.79
738.15	250.59
738.48	250.41
738.81	250.19
739.14	250.03
739.47	249.79
739.80	249.52
740.13	249.32
740.46	249.00
740.79	248.86
741.12	248.73
741.45	248.55
741.78	248.24
742.11	248.00
742.44	247.72
742.77	247.51
743.10	247.21
743.43	246.96
743.75	246.63
744.08	246.58
744.41	246.28
744.74	246.01
745.07	245.86
745.40	245.64
745.73	245.38
746.06	245.27
746.39	245.05
746.71	244.84
747.04	244.69
747.37	244.55
747.70	244.35
748.03	244.00
748.36	243.88
748.68	243.77
749.01	243.61
749.34	243.41
749.67	243.20
750.00	243.11
750.33	243.12
750.65	243.06
750.98	242.67
751.31	242.43
751.64	242.35
751.97	242.36
752.29	242.14
752.62	242.05
752.95	241.83
753.28	241.66
753.60	241.53
753.93	241.42
754.26	241.40
754.59	241.07
754.91	241.01
755.24	240.78
755.57	240.61
755.90	240.40
756.22	240.33
756.55	240.14
756.88	239.95
757.20	239.69
757.53	239.29
757.86	239.17
758.19	239.12
758.51	239.05
758.84	238.78
759.17	238.68
759.49	238.64
759.82	238.53
760.15	238.52
760.47	238.36
760.80	238.19
761.13	238.10
761.45	238.11
761.78	238.03
762.11	238.08
762.43	238.00
762.76	237.99
763.08	237.84
763.41	237.86
763.74	237.70
764.06	237.54
764.39	237.56
764.71	237.46
765.04	237.40
765.37	237.27
765.69	237.22
766.02	237.13
766.34	236.96
766.67	236.82
767.00	236.80
767.32	236.83
767.65	236.85
767.97	236.73
768.30	236.59
768.62	236.52
768.95	236.28
769.27	236.14
769.60	236.05
769.92	235.90
770.25	235.70
770.57	235.72
770.90	235.68
771.22	235.59
771.55	235.58
771.87	235.47
772.20	235.40
772.52	235.43
772.85	235.59
773.17	235.53
773.50	235.49
773.82	235.28
774.15	235.13
774.47	234.96
774.80	234.87
775.12	234.75
775.45	234.70
775.77	234.72
776.09	234.64
776.42	234.49
776.74	234.65
777.07	234.59
777.39	234.50
777.72	234.46
778.04	234.52
778.36	234.40
778.69	234.26
779.01	234.26
779.33	234.06
779.66	233.80
779.98	233.65
780.31	233.62
780.63	233.68
780.95	233.69
781.28	233.60
781.60	233.47
781.92	233.47
782.25	233.41
782.57	233.30
782.89	233.25
783.22	233.25
783.54	232.99
783.86	233.05
784.19	232.93
784.51	232.91
784.83	232.85
785.16	232.84
785.48	233.02
785.80	232.90
786.12	232.85
786.45	232.82
786.77	232.87
787.09	232.84
787.42	232.69
787.74	232.55
788.06	232.40
788.38	232.46
788.71	232.47
789.03	232.37
789.35	232.41
789.67	232.42
789.99	232.43
790.32	232.37
790.64	232.26
790.96	232.38
791.28	232.28
791.61	232.24
791.93	232.17
792.25	232.07
792.57	232.23
792.89	232.19
