SpectraSuite Data File
++++++++++++++++++++++++++++++++++++
Date: Fri Feb 01 14:34:30 EST 2013
User: group
Dark Spectrum Present: No
Reference Spectrum Present: No
Number of Sampled Component Spectra: 1
Spectrometers: USB2E7196
Integration Time (usec): 70000 (USB2E7196)
Spectra Averaged: 10 (USB2E7196)
Boxcar Smoothing: 10 (USB2E7196)
Correct for Electrical Dark: No (USB2E7196)
Strobe/Lamp Enabled: No (USB2E7196)
Correct for Detector Non-linearity: No (USB2E7196)
Correct for Stray Light: No (USB2E7196)
Number of Pixels in Processed Spectrum: 2048
>>>>>Begin Processed Spectral Data<<<<<
339.09	0.00
339.48	216.80
339.86	217.00
340.24	219.10
340.63	220.50
341.01	223.60
341.39	223.00
341.78	225.00
342.16	225.50
342.54	225.60
342.93	214.61
343.31	225.41
343.69	225.87
344.07	226.40
344.46	226.81
344.84	227.16
345.22	227.37
345.60	227.63
345.99	227.82
346.37	227.94
346.75	228.11
347.13	228.14
347.52	228.25
347.90	228.43
348.28	228.41
348.66	228.46
349.05	228.42
349.43	228.47
349.81	228.50
350.19	228.61
350.57	228.68
350.96	228.89
351.34	228.97
351.72	229.07
352.10	229.15
352.48	229.21
352.87	229.32
353.25	229.41
353.63	229.45
354.01	229.47
354.39	229.65
354.77	229.70
355.15	229.79
355.54	229.74
355.92	229.64
356.30	229.76
356.68	229.90
357.06	229.93
357.44	229.89
357.82	229.96
358.20	230.04
358.58	230.09
358.97	230.11
359.35	230.15
359.73	230.26
360.11	230.22
360.49	230.35
360.87	230.32
361.25	230.38
361.63	230.44
362.01	230.40
362.39	230.35
362.77	230.40
363.15	230.43
363.53	230.55
363.91	230.60
364.29	230.64
364.67	230.46
365.05	230.57
365.43	230.60
365.81	230.69
366.19	230.70
366.57	230.76
366.95	230.62
367.33	230.64
367.71	230.60
368.09	230.60
368.47	230.50
368.85	230.50
369.23	230.48
369.61	230.32
369.99	230.41
370.37	230.38
370.75	230.44
371.13	230.36
371.51	230.22
371.89	230.23
372.27	230.20
372.65	230.20
373.03	230.02
373.41	229.95
373.78	229.82
374.16	229.69
374.54	229.51
374.92	229.56
375.30	229.55
375.68	229.46
376.06	229.42
376.44	229.33
376.82	229.32
377.19	229.25
377.57	229.30
377.95	229.10
378.33	229.02
378.71	228.80
379.09	228.79
379.47	228.75
379.84	228.64
380.22	228.52
380.60	228.34
380.98	228.28
381.36	228.17
381.73	228.11
382.11	228.10
382.49	228.03
382.87	227.89
383.25	227.71
383.62	227.88
384.00	227.88
384.38	227.79
384.76	227.70
385.13	227.65
385.51	227.66
385.89	227.64
386.27	227.46
386.64	227.44
387.02	227.26
387.40	227.25
387.78	227.28
388.15	227.23
388.53	227.29
388.91	227.27
389.29	227.22
389.66	227.23
390.04	227.16
390.42	227.22
390.79	227.17
391.17	227.18
391.55	227.07
391.92	227.02
392.30	227.09
392.68	227.12
393.05	227.12
393.43	226.99
393.81	227.05
394.18	227.19
394.56	227.20
394.94	227.33
395.31	227.38
395.69	227.39
396.06	227.56
396.44	227.58
396.82	227.50
397.19	227.86
397.57	227.84
397.95	228.03
398.32	228.10
398.70	228.28
399.07	228.50
399.45	228.49
399.82	228.66
400.20	228.82
400.58	229.05
400.95	229.16
401.33	229.44
401.70	229.79
402.08	230.00
402.45	230.16
402.83	230.49
403.20	230.60
403.58	230.86
403.95	231.02
404.33	231.40
404.71	231.91
405.08	232.19
405.46	232.54
405.83	232.87
406.21	233.22
406.58	233.77
406.96	234.12
407.33	234.62
407.70	235.14
408.08	235.76
408.45	236.16
408.83	236.90
409.20	237.40
409.58	237.81
409.95	238.57
410.33	239.40
410.70	240.02
411.08	240.96
411.45	241.86
411.82	242.70
412.20	243.64
412.57	244.70
412.95	245.68
413.32	246.88
413.69	248.03
414.07	249.43
414.44	250.74
414.82	252.18
415.19	253.83
415.56	255.26
415.94	257.00
416.31	258.97
416.68	260.90
417.06	263.26
417.43	265.47
417.81	267.79
418.18	270.17
418.55	272.89
418.93	275.70
419.30	278.33
419.67	281.31
420.04	284.39
420.42	287.71
420.79	291.59
421.16	295.33
421.54	299.26
421.91	303.17
422.28	307.34
422.66	311.73
423.03	316.26
423.40	321.07
423.77	325.88
424.15	330.80
424.52	335.89
424.89	341.18
425.26	346.65
425.64	351.68
426.01	357.31
426.38	363.22
426.75	369.06
427.13	375.28
427.50	381.82
427.87	388.57
428.24	395.18
428.61	401.35
428.99	408.22
429.36	415.93
429.73	423.35
430.10	430.71
430.47	438.34
430.85	445.94
431.22	453.88
431.59	462.48
431.96	470.83
432.33	479.98
432.70	488.92
433.08	499.18
433.45	509.07
433.82	519.03
434.19	529.78
434.56	540.48
434.93	550.73
435.30	560.87
435.68	572.08
436.05	583.10
436.42	594.29
436.79	604.48
437.16	615.34
437.53	626.64
437.90	637.63
438.27	648.69
438.64	660.51
439.01	671.19
439.38	680.71
439.75	689.98
440.13	700.83
440.50	710.89
440.87	719.31
441.24	728.27
441.61	737.96
441.98	745.25
442.35	753.81
442.72	762.28
443.09	770.81
443.46	776.12
443.83	780.20
444.20	783.64
444.57	788.42
444.94	790.91
445.31	794.13
445.68	797.23
446.05	799.25
446.42	799.22
446.79	799.51
447.16	799.64
447.53	799.98
447.90	797.10
448.27	794.51
448.64	789.84
449.01	786.90
449.37	780.43
449.74	774.32
450.11	766.59
450.48	758.38
450.85	749.68
451.22	742.67
451.59	735.72
451.96	729.20
452.33	720.07
452.70	712.16
453.07	702.05
453.43	691.77
453.80	681.97
454.17	672.39
454.54	663.30
454.91	653.36
455.28	643.55
455.65	634.37
456.02	624.88
456.38	617.22
456.75	607.38
457.12	599.23
457.49	591.03
457.86	583.25
458.23	576.55
458.59	569.02
458.96	561.27
459.33	554.35
459.70	547.49
460.07	542.09
460.43	535.54
460.80	529.48
461.17	524.21
461.54	518.53
461.91	513.08
462.27	507.50
462.64	502.83
463.01	497.68
463.38	492.61
463.74	487.74
464.11	483.36
464.48	479.32
464.85	474.88
465.21	471.52
465.58	467.98
465.95	463.85
466.32	460.49
466.68	457.00
467.05	453.62
467.42	450.16
467.78	446.42
468.15	442.99
468.52	440.43
468.88	437.19
469.25	434.07
469.62	431.81
469.98	429.24
470.35	426.76
470.72	424.55
471.08	422.02
471.45	419.90
471.82	417.57
472.18	415.04
472.55	413.23
472.92	411.32
473.28	409.47
473.65	407.57
474.02	405.68
474.38	404.20
474.75	402.80
475.11	401.33
475.48	400.24
475.85	399.34
476.21	398.19
476.58	397.33
476.94	396.75
477.31	395.78
477.67	395.00
478.04	394.30
478.41	393.73
478.77	393.38
479.14	392.84
479.50	392.58
479.87	392.60
480.23	392.70
480.60	392.57
480.96	392.32
481.33	392.58
481.69	392.61
482.06	392.60
482.42	392.74
482.79	392.92
483.15	393.53
483.52	394.00
483.88	394.45
484.25	395.01
484.61	395.71
484.98	396.47
485.34	397.51
485.71	398.53
486.07	399.68
486.44	400.77
486.80	402.19
487.17	403.55
487.53	405.12
487.90	406.80
488.26	408.56
488.62	410.55
488.99	412.10
489.35	414.10
489.72	416.30
490.08	418.49
490.44	420.73
490.81	423.03
491.17	425.38
491.54	428.04
491.90	430.50
492.26	433.29
492.63	436.08
492.99	438.84
493.36	441.85
493.72	444.85
494.08	448.05
494.45	451.17
494.81	454.53
495.17	457.84
495.54	461.07
495.90	464.54
496.26	468.07
496.63	472.01
496.99	475.91
497.35	479.82
497.72	483.86
498.08	488.01
498.44	491.97
498.80	496.56
499.17	500.57
499.53	505.07
499.89	509.40
500.26	513.76
500.62	517.94
500.98	522.60
501.34	527.18
501.71	531.76
502.07	536.28
502.43	540.75
502.79	545.23
503.16	549.82
503.52	554.50
503.88	559.12
504.24	563.76
504.60	568.28
504.97	572.86
505.33	577.39
505.69	582.17
506.05	586.80
506.41	590.93
506.78	595.60
507.14	599.89
507.50	604.30
507.86	608.80
508.22	613.45
508.59	617.54
508.95	621.97
509.31	626.41
509.67	630.86
510.03	635.20
510.39	639.28
510.75	643.56
511.12	647.37
511.48	651.43
511.84	655.31
512.20	659.31
512.56	663.30
512.92	667.00
513.28	670.67
513.64	674.37
514.00	678.08
514.37	681.67
514.73	685.26
515.09	688.38
515.45	691.36
515.81	694.60
516.17	697.77
516.53	700.89
516.89	703.55
517.25	706.50
517.61	709.40
517.97	712.26
518.33	714.84
518.69	717.63
519.05	720.24
519.41	722.80
519.77	725.39
520.13	727.85
520.49	730.53
520.85	732.64
521.21	734.93
521.57	737.33
521.93	739.33
522.29	741.49
522.65	743.69
523.01	745.90
523.37	747.68
523.73	749.62
524.09	751.53
524.45	753.62
524.81	755.55
525.17	757.73
525.53	760.13
525.89	762.20
526.25	764.42
526.61	766.27
526.97	768.37
527.33	770.19
527.68	772.24
528.04	773.94
528.40	776.10
528.76	778.36
529.12	780.45
529.48	782.70
529.84	784.58
530.20	786.70
530.56	789.04
530.91	791.72
531.27	794.35
531.63	796.52
531.99	798.80
532.35	801.04
532.71	802.96
533.07	805.04
533.42	807.59
533.78	809.94
534.14	812.53
534.50	814.51
534.86	816.70
535.21	818.83
535.57	821.55
535.93	823.86
536.29	825.87
536.65	827.98
537.00	830.03
537.36	832.42
537.72	834.70
538.08	837.08
538.44	839.04
538.79	841.37
539.15	843.60
539.51	845.92
539.87	848.56
540.22	851.17
540.58	853.81
540.94	856.20
541.29	858.49
541.65	860.89
542.01	863.89
542.37	866.66
542.72	869.08
543.08	871.36
543.44	874.00
543.79	876.46
544.15	879.29
544.51	882.60
544.87	885.40
545.22	888.14
545.58	890.59
545.94	893.05
546.29	895.36
546.65	898.14
547.01	901.01
547.36	903.25
547.72	905.58
548.07	907.85
548.43	909.99
548.79	912.39
549.14	914.46
549.50	916.73
549.86	919.04
550.21	921.48
550.57	924.05
550.92	926.37
551.28	928.86
551.64	931.09
551.99	933.11
552.35	935.81
552.70	938.30
553.06	941.02
553.41	943.64
553.77	946.37
554.13	948.70
554.48	951.20
554.84	953.81
555.19	956.24
555.55	958.58
555.90	960.87
556.26	963.06
556.61	965.68
556.97	967.61
557.32	970.10
557.68	972.53
558.03	974.65
558.39	976.89
558.74	979.48
559.10	981.66
559.45	984.00
559.81	985.99
560.16	988.24
560.52	990.07
560.87	992.64
561.23	994.57
561.58	997.15
561.94	998.95
562.29	1001.10
562.64	1003.11
563.00	1004.96
563.35	1007.58
563.71	1009.94
564.06	1012.36
564.42	1014.80
564.77	1016.69
565.12	1018.75
565.48	1021.12
565.83	1023.22
566.19	1025.12
566.54	1026.76
566.89	1028.81
567.25	1030.61
567.60	1032.60
567.96	1034.83
568.31	1036.33
568.66	1037.56
569.02	1038.52
569.37	1040.00
569.72	1041.22
570.08	1042.56
570.43	1044.25
570.78	1044.87
571.14	1045.69
571.49	1046.30
571.84	1047.48
572.20	1048.38
572.55	1049.01
572.90	1049.28
573.26	1050.00
573.61	1050.31
573.96	1050.86
574.31	1050.47
574.67	1050.34
575.02	1049.86
575.37	1049.82
575.72	1049.43
576.08	1049.52
576.43	1049.51
576.78	1049.37
577.13	1049.17
577.49	1049.01
577.84	1048.43
578.19	1048.33
578.54	1048.22
578.90	1047.87
579.25	1046.78
579.60	1045.96
579.95	1045.16
580.30	1044.15
580.66	1042.84
581.01	1041.85
581.36	1040.96
581.71	1040.38
582.06	1039.61
582.42	1038.93
582.77	1037.56
583.12	1036.45
583.47	1035.56
583.82	1034.76
584.17	1033.52
584.53	1032.42
584.88	1030.93
585.23	1029.70
585.58	1028.75
585.93	1027.44
586.28	1026.30
586.63	1025.25
586.98	1024.15
587.34	1023.02
587.69	1021.74
588.04	1020.60
588.39	1019.24
588.74	1017.38
589.09	1015.28
589.44	1013.26
589.79	1011.54
590.14	1009.98
590.49	1008.33
590.84	1006.28
591.19	1004.19
591.54	1002.00
591.89	999.38
592.25	997.66
592.60	995.36
592.95	992.64
593.30	990.14
593.65	987.45
594.00	984.91
594.35	983.05
594.70	980.32
595.05	977.98
595.40	975.43
595.75	972.82
596.10	970.78
596.45	968.79
596.80	967.01
597.15	964.47
597.50	961.86
597.85	959.52
598.19	957.39
598.54	955.17
598.89	952.88
599.24	950.78
599.59	948.03
599.94	945.65
600.29	943.09
600.64	940.41
600.99	937.44
601.34	934.99
601.69	931.79
602.04	929.18
602.39	926.37
602.74	923.98
603.08	921.55
603.43	919.19
603.78	916.71
604.13	913.88
604.48	911.43
604.83	909.02
605.18	906.56
605.53	903.30
605.87	899.96
606.22	897.06
606.57	894.04
606.92	891.39
607.27	888.82
607.62	886.38
607.96	883.62
608.31	881.35
608.66	878.19
609.01	875.03
609.36	871.90
609.70	868.80
610.05	865.25
610.40	861.98
610.75	858.24
611.10	854.69
611.44	851.19
611.79	847.98
612.14	844.52
612.49	840.60
612.83	837.24
613.18	833.77
613.53	830.42
613.88	827.02
614.22	823.32
614.57	819.72
614.92	816.05
615.27	812.87
615.61	808.95
615.96	805.63
616.31	802.43
616.65	799.61
617.00	796.66
617.35	793.52
617.70	790.48
618.04	787.20
618.39	783.95
618.74	780.80
619.08	777.04
619.43	773.80
619.78	770.76
620.12	767.68
620.47	764.71
620.82	761.59
621.16	758.34
621.51	755.55
621.85	752.25
622.20	749.00
622.55	745.74
622.89	742.82
623.24	739.79
623.59	736.60
623.93	733.34
624.28	730.19
624.62	727.23
624.97	724.12
625.32	721.28
625.66	718.50
626.01	715.55
626.35	712.71
626.70	709.72
627.04	706.85
627.39	703.95
627.73	700.84
628.08	697.85
628.43	694.99
628.77	691.90
629.12	688.81
629.46	685.90
629.81	682.72
630.15	679.69
630.50	676.40
630.84	673.15
631.19	669.98
631.53	666.89
631.88	663.61
632.22	660.10
632.57	656.96
632.91	653.65
633.26	650.46
633.60	647.41
633.95	644.45
634.29	641.37
634.64	638.37
634.98	635.41
635.32	632.67
635.67	630.18
636.01	627.31
636.36	624.49
636.70	621.74
637.05	619.06
637.39	616.29
637.73	613.89
638.08	611.42
638.42	609.00
638.77	606.48
639.11	603.79
639.45	601.35
639.80	598.78
640.14	596.27
640.49	593.70
640.83	591.04
641.17	588.28
641.52	585.68
641.86	583.11
642.20	580.54
642.55	577.62
642.89	574.90
643.23	572.24
643.58	569.93
643.92	567.23
644.26	564.54
644.61	562.29
644.95	559.73
645.29	556.85
645.64	553.98
645.98	551.25
646.32	548.83
646.66	546.21
647.01	543.56
647.35	540.96
647.69	538.38
648.04	536.13
648.38	533.55
648.72	531.02
649.06	528.41
649.41	525.95
649.75	523.21
650.09	520.50
650.43	518.01
650.78	515.36
651.12	512.82
651.46	510.60
651.80	507.94
652.14	505.46
652.49	503.35
652.83	501.03
653.17	498.74
653.51	496.24
653.85	493.82
654.20	491.34
654.54	488.86
654.88	486.25
655.22	483.66
655.56	481.36
655.90	478.99
656.25	476.62
656.59	474.33
656.93	472.28
657.27	470.15
657.61	467.60
657.95	465.30
658.29	463.23
658.64	460.79
658.98	458.59
659.32	456.32
659.66	454.04
660.00	451.78
660.34	449.44
660.68	447.38
661.02	445.47
661.36	443.62
661.70	441.71
662.05	440.00
662.39	438.20
662.73	436.26
663.07	434.50
663.41	432.67
663.75	430.82
664.09	429.00
664.43	427.04
664.77	425.54
665.11	423.80
665.45	421.92
665.79	420.14
666.13	418.31
666.47	416.50
666.81	414.75
667.15	412.90
667.49	411.28
667.83	409.59
668.17	407.77
668.51	406.07
668.85	404.32
669.19	402.75
669.53	400.98
669.87	399.27
670.21	397.44
670.55	396.09
670.89	394.70
671.23	393.35
671.57	391.91
671.91	390.33
672.25	388.87
672.58	387.46
672.92	386.03
673.26	384.69
673.60	383.39
673.94	382.12
674.28	380.91
674.62	379.69
674.96	378.32
675.30	377.00
675.64	375.64
675.97	374.46
676.31	373.28
676.65	371.98
676.99	370.82
677.33	369.57
677.67	368.18
678.01	366.68
678.34	365.34
678.68	364.00
679.02	362.72
679.36	361.55
679.70	360.36
680.04	359.35
680.37	358.07
680.71	356.75
681.05	355.58
681.39	354.44
681.73	353.15
682.06	352.10
682.40	351.00
682.74	349.89
683.08	348.73
683.42	347.33
683.75	346.26
684.09	345.03
684.43	344.02
684.77	342.92
685.10	341.80
685.44	340.61
685.78	339.60
686.12	338.57
686.45	337.40
686.79	336.15
687.13	335.02
687.46	334.03
687.80	333.05
688.14	331.88
688.48	330.83
688.81	329.84
689.15	328.83
689.49	327.81
689.82	326.85
690.16	325.88
690.50	324.95
690.83	323.93
691.17	322.86
691.51	321.85
691.84	320.89
692.18	319.94
692.52	318.92
692.85	317.94
693.19	317.03
693.52	316.09
693.86	315.16
694.20	314.17
694.53	313.26
694.87	312.38
695.21	311.42
695.54	310.33
695.88	309.25
696.21	308.29
696.55	307.45
696.88	306.44
697.22	305.36
697.56	304.50
697.89	303.63
698.23	302.82
698.56	301.91
698.90	300.99
699.23	300.10
699.57	299.38
699.90	298.51
700.24	297.54
700.58	296.68
700.91	295.89
701.25	295.22
701.58	294.49
701.92	293.70
702.25	293.09
702.59	292.47
702.92	291.85
703.26	291.11
703.59	290.33
703.93	289.92
704.26	289.39
704.60	288.70
704.93	288.10
705.26	287.37
705.60	286.88
705.93	286.24
706.27	285.69
706.60	285.04
706.94	284.57
707.27	283.95
707.61	283.53
707.94	283.01
708.27	282.43
708.61	281.71
708.94	281.15
709.28	280.55
709.61	280.10
709.94	279.64
710.28	279.15
710.61	278.69
710.95	278.00
711.28	277.64
711.61	277.00
711.95	276.40
712.28	275.87
712.61	275.12
712.95	274.74
713.28	274.29
713.61	273.78
713.95	273.21
714.28	272.87
714.61	272.34
714.95	271.92
715.28	271.31
715.61	270.90
715.95	270.42
716.28	270.03
716.61	269.60
716.95	269.10
717.28	268.64
717.61	268.17
717.94	267.67
718.28	267.01
718.61	266.66
718.94	266.37
719.27	266.14
719.61	265.89
719.94	265.42
720.27	265.05
720.60	264.80
720.94	264.53
721.27	264.20
721.60	263.99
721.93	263.66
722.27	263.49
722.60	263.28
722.93	262.97
723.26	262.61
723.59	262.14
723.93	261.89
724.26	261.61
724.59	261.31
724.92	261.13
725.25	260.87
725.59	260.66
725.92	260.42
726.25	260.08
726.58	259.91
726.91	259.66
727.24	259.36
727.57	259.03
727.91	258.69
728.24	258.37
728.57	257.90
728.90	257.63
729.23	257.15
729.56	256.80
729.89	256.62
730.22	256.33
730.55	256.02
730.89	255.69
731.22	255.20
731.55	254.94
731.88	254.56
732.21	254.37
732.54	254.00
732.87	253.60
733.20	253.33
733.53	252.91
733.86	252.61
734.19	252.37
734.52	251.97
734.85	251.83
735.18	251.48
735.51	251.22
735.84	250.91
736.17	250.72
736.50	250.47
736.83	250.35
737.16	250.12
737.49	249.94
737.82	249.73
738.15	249.71
738.48	249.57
738.81	249.37
739.14	249.04
739.47	248.95
739.80	248.75
740.13	248.60
740.46	248.40
740.79	248.15
741.12	247.84
741.45	247.61
741.78	247.28
742.11	247.14
742.44	246.96
742.77	246.73
743.10	246.53
743.43	246.28
743.75	245.80
744.08	245.71
744.41	245.59
744.74	245.36
745.07	245.14
745.40	244.88
745.73	244.72
746.06	244.48
746.39	244.20
746.71	243.99
747.04	243.74
747.37	243.50
747.70	243.39
748.03	243.29
748.36	243.31
748.68	243.08
749.01	242.87
749.34	242.71
749.67	242.54
750.00	242.44
750.33	242.50
750.65	242.32
750.98	242.11
751.31	242.00
751.64	241.86
751.97	241.78
752.29	241.70
752.62	241.50
752.95	241.46
753.28	241.32
753.60	241.23
753.93	241.13
754.26	241.04
754.59	240.79
754.91	240.58
755.24	240.46
755.57	240.34
755.90	240.23
756.22	240.06
756.55	239.96
756.88	239.79
757.20	239.53
757.53	239.42
757.86	239.28
758.19	239.20
758.51	239.07
758.84	238.93
759.17	238.71
759.49	238.59
759.82	238.62
760.15	238.52
760.47	238.45
760.80	238.34
761.13	238.36
761.45	238.36
761.78	238.31
762.11	238.14
762.43	238.11
762.76	238.04
763.08	238.03
763.41	237.98
763.74	237.92
764.06	237.76
764.39	237.77
764.71	237.64
765.04	237.47
765.37	237.32
765.69	237.22
766.02	237.11
766.34	237.05
766.67	236.84
767.00	236.88
767.32	236.79
767.65	236.75
767.97	236.59
768.30	236.51
768.62	236.47
768.95	236.39
769.27	236.26
769.60	236.23
769.92	236.15
770.25	236.04
770.57	235.90
770.90	235.89
771.22	235.81
771.55	235.84
771.87	235.65
772.20	235.60
772.52	235.70
772.85	235.79
773.17	235.66
773.50	235.55
773.82	235.39
774.15	235.38
774.47	235.17
774.80	235.08
775.12	234.94
775.45	234.76
775.77	234.66
776.09	234.59
776.42	234.54
776.74	234.44
777.07	234.32
777.39	234.20
777.72	234.20
778.04	234.17
778.36	234.02
778.69	234.12
779.01	234.15
779.33	233.92
779.66	233.71
779.98	233.72
780.31	233.71
780.63	233.66
780.95	233.55
781.28	233.42
781.60	233.29
781.92	233.27
782.25	233.22
782.57	233.20
782.89	233.06
783.22	232.90
783.54	232.94
783.86	232.93
784.19	232.94
784.51	232.73
784.83	232.58
785.16	232.49
785.48	232.45
785.80	232.27
786.12	232.14
786.45	232.08
786.77	232.07
787.09	231.99
787.42	231.89
787.74	231.87
788.06	231.88
788.38	231.92
788.71	231.84
789.03	231.81
789.35	231.76
789.67	231.78
789.99	231.82
790.32	231.61
790.64	231.62
790.96	231.63
791.28	231.64
791.61	231.56
791.93	231.60
792.25	231.48
792.57	231.67
