SpectraSuite Data File
++++++++++++++++++++++++++++++++++++
Date: Fri Feb 01 14:41:58 EST 2013
User: group
Dark Spectrum Present: No
Reference Spectrum Present: No
Number of Sampled Component Spectra: 1
Spectrometers: USB2E7196
Integration Time (usec): 70000 (USB2E7196)
Spectra Averaged: 10 (USB2E7196)
Boxcar Smoothing: 10 (USB2E7196)
Correct for Electrical Dark: No (USB2E7196)
Strobe/Lamp Enabled: No (USB2E7196)
Correct for Detector Non-linearity: No (USB2E7196)
Correct for Stray Light: No (USB2E7196)
Number of Pixels in Processed Spectrum: 2048
>>>>>Begin Processed Spectral Data<<<<<
339.09	0.00
339.48	218.10
339.86	219.10
340.24	219.50
340.63	218.70
341.01	225.30
341.39	222.70
341.78	225.10
342.16	227.50
342.54	226.80
342.93	214.91
343.31	225.79
343.69	226.27
344.07	226.66
344.46	227.03
344.84	227.61
345.22	227.79
345.60	228.14
345.99	228.32
346.37	228.39
346.75	228.45
347.13	228.63
347.52	228.70
347.90	228.83
348.28	228.90
348.66	228.98
349.05	228.97
349.43	228.98
349.81	228.99
350.19	229.02
350.57	229.11
350.96	229.14
351.34	229.28
351.72	229.41
352.10	229.53
352.48	229.71
352.87	229.75
353.25	229.85
353.63	229.94
354.01	229.99
354.39	230.11
354.77	230.21
355.15	230.30
355.54	230.34
355.92	230.33
356.30	230.35
356.68	230.61
357.06	230.70
357.44	230.82
357.82	230.85
358.20	230.97
358.58	231.01
358.97	231.14
359.35	231.15
359.73	231.26
360.11	231.33
360.49	231.34
360.87	231.37
361.25	231.40
361.63	231.45
362.01	231.47
362.39	231.40
362.77	231.45
363.15	231.58
363.53	231.66
363.91	231.77
364.29	231.77
364.67	231.47
365.05	231.53
365.43	231.56
365.81	231.60
366.19	231.54
366.57	231.69
366.95	231.52
367.33	231.46
367.71	231.34
368.09	231.35
368.47	231.33
368.85	231.30
369.23	231.31
369.61	231.14
369.99	231.20
370.37	231.23
370.75	231.27
371.13	231.03
371.51	230.94
371.89	230.82
372.27	230.77
372.65	230.78
373.03	230.70
373.41	230.52
373.78	230.45
374.16	230.40
374.54	230.12
374.92	230.07
375.30	230.01
375.68	229.91
376.06	229.85
376.44	229.67
376.82	229.51
377.19	229.37
377.57	229.39
377.95	229.29
378.33	229.18
378.71	228.92
379.09	228.95
379.47	228.78
379.84	228.64
380.22	228.64
380.60	228.44
380.98	228.36
381.36	228.30
381.73	228.24
382.11	228.12
382.49	228.08
382.87	228.04
383.25	227.94
383.62	228.09
384.00	227.90
384.38	227.94
384.76	228.00
385.13	228.05
385.51	227.92
385.89	227.84
386.27	227.82
386.64	227.82
387.02	227.70
387.40	227.78
387.78	227.83
388.15	227.77
388.53	227.81
388.91	227.75
389.29	227.84
389.66	227.80
390.04	227.74
390.42	227.84
390.79	227.89
391.17	227.87
391.55	227.68
391.92	227.72
392.30	227.72
392.68	227.62
393.05	227.54
393.43	227.62
393.81	227.61
394.18	227.74
394.56	227.79
394.94	227.90
395.31	227.92
395.69	228.03
396.06	228.10
396.44	228.18
396.82	228.29
397.19	228.34
397.57	228.46
397.95	228.73
398.32	228.80
398.70	228.83
399.07	229.07
399.45	229.13
399.82	229.20
400.20	229.34
400.58	229.44
400.95	229.48
401.33	229.59
401.70	229.97
402.08	229.91
402.45	230.03
402.83	230.23
403.20	230.42
403.58	230.56
403.95	230.87
404.33	231.15
404.71	231.26
405.08	231.51
405.46	231.74
405.83	231.88
406.21	232.12
406.58	232.56
406.96	232.80
407.33	233.12
407.70	233.44
408.08	233.78
408.45	234.20
408.83	234.60
409.20	234.91
409.58	235.12
409.95	235.61
410.33	236.10
410.70	236.33
411.08	236.80
411.45	237.18
411.82	237.47
412.20	237.85
412.57	238.43
412.95	238.84
413.32	239.44
413.69	240.00
414.07	240.64
414.44	241.18
414.82	241.86
415.19	242.60
415.56	243.48
415.94	244.30
416.31	245.21
416.68	246.13
417.06	247.22
417.43	248.21
417.81	249.24
418.18	250.34
418.55	251.60
418.93	252.92
419.30	254.39
419.67	255.82
420.04	257.38
420.42	258.95
420.79	260.74
421.16	262.44
421.54	264.16
421.91	265.91
422.28	267.82
422.66	269.77
423.03	271.81
423.40	273.82
423.77	275.90
424.15	278.04
424.52	280.23
424.89	282.61
425.26	284.78
425.64	286.93
426.01	289.33
426.38	291.88
426.75	294.44
427.13	296.92
427.50	299.65
427.87	302.39
428.24	305.16
428.61	307.80
428.99	310.69
429.36	313.81
429.73	316.90
430.10	319.91
430.47	322.96
430.85	326.14
431.22	329.38
431.59	333.04
431.96	336.44
432.33	340.30
432.70	343.82
433.08	348.07
433.45	352.12
433.82	356.17
434.19	360.58
434.56	364.57
434.93	368.64
435.30	372.61
435.68	377.00
436.05	381.31
436.42	385.51
436.79	389.33
437.16	393.48
437.53	397.82
437.90	402.18
438.27	406.31
438.64	410.61
439.01	414.69
439.38	417.93
439.75	421.10
440.13	424.77
440.50	428.27
440.87	431.24
441.24	434.02
441.61	437.30
441.98	439.66
442.35	442.49
442.72	445.18
443.09	447.88
443.46	449.23
443.83	450.01
444.20	450.66
444.57	451.90
444.94	452.24
445.31	452.72
445.68	453.09
446.05	453.09
446.42	452.41
446.79	451.74
447.16	451.03
447.53	450.63
447.90	449.05
448.27	447.36
448.64	444.80
449.01	443.08
449.37	439.84
449.74	436.80
450.11	433.41
450.48	429.60
450.85	425.86
451.22	422.75
451.59	419.76
451.96	416.96
452.33	413.00
452.70	409.35
453.07	405.00
453.43	400.71
453.80	396.59
454.17	392.40
454.54	388.42
454.91	384.31
455.28	380.28
455.65	376.19
456.02	372.50
456.38	369.34
456.75	365.45
457.12	362.22
457.49	358.94
457.86	355.62
458.23	352.84
458.59	349.55
458.96	346.34
459.33	343.54
459.70	340.61
460.07	338.33
460.43	335.88
460.80	333.45
461.17	331.20
461.54	329.05
461.91	327.04
462.27	324.78
462.64	322.91
463.01	320.78
463.38	318.97
463.74	316.86
464.11	314.86
464.48	313.20
464.85	311.40
465.21	309.92
465.58	308.42
465.95	306.70
466.32	305.24
466.68	303.83
467.05	302.29
467.42	300.93
467.78	299.44
468.15	297.98
468.52	296.98
468.88	295.50
469.25	294.14
469.62	293.12
469.98	292.06
470.35	291.00
470.72	289.97
471.08	288.87
471.45	287.93
471.82	287.10
472.18	286.13
472.55	285.42
472.92	284.53
473.28	283.90
473.65	283.11
474.02	282.45
474.38	281.86
474.75	281.40
475.11	280.70
475.48	280.18
475.85	279.80
476.21	279.22
476.58	278.94
476.94	278.68
477.31	278.27
477.67	278.03
478.04	277.83
478.41	277.72
478.77	277.71
479.14	277.55
479.50	277.50
479.87	277.59
480.23	277.57
480.60	277.59
480.96	277.52
481.33	277.72
481.69	277.82
482.06	277.95
482.42	278.01
482.79	278.19
483.15	278.60
483.52	279.12
483.88	279.49
484.25	279.89
484.61	280.24
484.98	280.71
485.34	281.33
485.71	281.94
486.07	282.61
486.44	283.32
486.80	284.18
487.17	285.13
487.53	286.12
487.90	287.20
488.26	288.45
488.62	289.57
488.99	290.70
489.35	292.04
489.72	293.33
490.08	294.73
490.44	296.47
490.81	298.12
491.17	299.72
491.54	301.57
491.90	303.51
492.26	305.81
492.63	308.02
492.99	310.30
493.36	312.71
493.72	315.29
494.08	317.79
494.45	320.59
494.81	323.65
495.17	326.67
495.54	330.04
495.90	333.38
496.26	336.99
496.63	340.98
496.99	345.06
497.35	349.42
497.72	354.01
498.08	358.58
498.44	363.37
498.80	368.57
499.17	373.91
499.53	379.45
499.89	385.13
500.26	391.19
500.62	397.35
500.98	403.87
501.34	410.42
501.71	417.58
502.07	424.81
502.43	432.21
502.79	440.05
503.16	448.18
503.52	456.55
503.88	465.21
504.24	474.17
504.60	483.46
504.97	493.19
505.33	503.05
505.69	513.45
506.05	524.23
506.41	534.79
506.78	545.91
507.14	557.35
507.50	569.38
507.86	581.50
508.22	594.15
508.59	606.98
508.95	620.58
509.31	634.17
509.67	648.41
510.03	662.78
510.39	677.54
510.75	692.50
511.12	707.78
511.48	723.74
511.84	739.64
512.20	756.02
512.56	772.80
512.92	790.21
513.28	807.58
513.64	825.15
514.00	843.41
514.37	861.89
514.73	880.57
515.09	899.25
515.45	918.60
515.81	938.05
516.17	958.18
516.53	978.26
516.89	998.44
517.25	1018.93
517.61	1039.90
517.97	1060.75
518.33	1081.75
518.69	1103.26
519.05	1125.00
519.41	1147.35
519.77	1169.66
520.13	1192.40
520.49	1214.81
520.85	1237.66
521.21	1260.46
521.57	1283.84
521.93	1306.53
522.29	1330.33
522.65	1353.78
523.01	1377.27
523.37	1400.12
523.73	1423.44
524.09	1446.92
524.45	1470.89
524.81	1495.27
525.17	1519.48
525.53	1544.23
525.89	1568.88
526.25	1593.68
526.61	1617.89
526.97	1642.51
527.33	1667.00
527.68	1691.42
528.04	1715.78
528.40	1740.77
528.76	1765.76
529.12	1790.51
529.48	1815.79
529.84	1839.58
530.20	1864.32
530.56	1889.69
530.91	1916.13
531.27	1941.72
531.63	1966.51
531.99	1991.72
532.35	2015.16
532.71	2038.88
533.07	2063.26
533.42	2087.40
533.78	2111.57
534.14	2135.30
534.50	2158.04
534.86	2181.68
535.21	2204.33
535.57	2228.14
535.93	2251.11
536.29	2273.40
536.65	2295.93
537.00	2317.87
537.36	2340.47
537.72	2362.30
538.08	2383.48
538.44	2404.04
538.79	2424.55
539.15	2444.94
539.51	2465.65
539.87	2487.84
540.22	2509.14
540.58	2529.95
540.94	2549.99
541.29	2568.97
541.65	2588.48
542.01	2608.74
542.37	2628.08
542.72	2646.70
543.08	2665.17
543.44	2683.15
543.79	2700.23
544.15	2717.63
544.51	2736.07
544.87	2753.44
545.22	2770.73
545.58	2787.27
545.94	2802.53
546.29	2818.54
546.65	2834.55
547.01	2849.29
547.36	2862.97
547.72	2876.34
548.07	2889.20
548.43	2902.26
548.79	2915.48
549.14	2927.74
549.50	2939.18
549.86	2950.40
550.21	2962.24
550.57	2973.34
550.92	2984.89
551.28	2996.51
551.64	3007.08
551.99	3017.39
552.35	3027.42
552.70	3037.27
553.06	3047.26
553.41	3058.14
553.77	3067.67
554.13	3077.16
554.48	3086.79
554.84	3095.44
555.19	3104.48
555.55	3113.06
555.90	3120.96
556.26	3129.42
556.61	3137.98
556.97	3145.82
557.32	3153.74
557.68	3161.36
558.03	3168.91
558.39	3175.00
558.74	3182.86
559.10	3190.20
559.45	3196.52
559.81	3204.10
560.16	3209.99
560.52	3215.77
560.87	3221.48
561.23	3225.99
561.58	3231.47
561.94	3235.75
562.29	3239.40
562.64	3243.43
563.00	3247.42
563.35	3252.82
563.71	3257.19
564.06	3261.81
564.42	3266.16
564.77	3269.91
565.12	3274.20
565.48	3277.60
565.83	3280.48
566.19	3283.08
566.54	3284.79
566.89	3286.43
567.25	3287.53
567.60	3290.40
567.96	3291.85
568.31	3292.89
568.66	3293.86
569.02	3294.58
569.37	3294.85
569.72	3296.58
570.08	3296.80
570.43	3296.96
570.78	3295.69
571.14	3294.04
571.49	3292.28
571.84	3292.12
572.20	3289.74
572.55	3286.84
572.90	3283.80
573.26	3282.38
573.61	3279.35
573.96	3276.55
574.31	3272.67
574.67	3267.94
575.02	3262.65
575.37	3258.16
575.72	3253.01
576.08	3249.20
576.43	3243.94
576.78	3239.27
577.13	3234.77
577.49	3230.36
577.84	3224.85
578.19	3219.56
578.54	3213.92
578.90	3208.07
579.25	3199.84
579.60	3193.73
579.95	3186.85
580.30	3180.21
580.66	3172.06
581.01	3163.99
581.36	3156.70
581.71	3150.91
582.06	3143.94
582.42	3136.57
582.77	3128.80
583.12	3120.90
583.47	3113.38
583.82	3106.31
584.17	3098.32
584.53	3090.11
584.88	3081.69
585.23	3073.82
585.58	3065.89
585.93	3058.27
586.28	3050.83
586.63	3043.87
586.98	3036.10
587.34	3028.66
587.69	3020.47
588.04	3012.83
588.39	3005.82
588.74	2995.88
589.09	2986.03
589.44	2976.84
589.79	2968.19
590.14	2960.79
590.49	2952.58
590.84	2943.06
591.19	2933.84
591.54	2923.49
591.89	2911.79
592.25	2902.16
592.60	2890.88
592.95	2880.32
593.30	2869.50
593.65	2858.50
594.00	2847.62
594.35	2837.79
594.70	2826.07
595.05	2815.64
595.40	2804.85
595.75	2793.41
596.10	2784.87
596.45	2775.41
596.80	2766.73
597.15	2756.92
597.50	2745.92
597.85	2735.72
598.19	2726.62
598.54	2716.80
598.89	2707.92
599.24	2700.50
599.59	2691.00
599.94	2682.23
600.29	2672.60
600.64	2663.05
600.99	2652.02
601.34	2641.83
601.69	2630.90
602.04	2621.70
602.39	2611.36
602.74	2602.50
603.08	2593.38
603.43	2583.35
603.78	2573.12
604.13	2562.03
604.48	2551.75
604.83	2541.37
605.18	2531.49
605.53	2519.61
605.87	2507.45
606.22	2496.92
606.57	2485.01
606.92	2473.92
607.27	2463.78
607.62	2452.99
607.96	2442.61
608.31	2432.90
608.66	2422.06
609.01	2410.62
609.36	2398.83
609.70	2387.06
610.05	2373.96
610.40	2361.96
610.75	2349.82
611.10	2337.72
611.44	2325.06
611.79	2313.65
612.14	2301.66
612.49	2288.55
612.83	2276.49
613.18	2264.89
613.53	2252.39
613.88	2240.06
614.22	2227.93
614.57	2214.69
614.92	2202.81
615.27	2191.11
615.61	2178.82
615.96	2166.46
616.31	2155.43
616.65	2145.01
617.00	2134.19
617.35	2123.42
617.70	2111.83
618.04	2099.58
618.39	2088.15
618.74	2077.77
619.08	2065.36
619.43	2054.25
619.78	2043.62
620.12	2032.97
620.47	2022.18
620.82	2010.81
621.16	2000.10
621.51	1989.11
621.85	1978.40
622.20	1966.68
622.55	1955.09
622.89	1944.60
623.24	1934.21
623.59	1923.65
623.93	1912.52
624.28	1901.73
624.62	1890.66
624.97	1880.06
625.32	1870.21
625.66	1859.91
626.01	1849.00
626.35	1838.39
626.70	1827.36
627.04	1817.26
627.39	1805.93
627.73	1794.84
628.08	1784.67
628.43	1773.57
628.77	1762.87
629.12	1751.90
629.46	1741.46
629.81	1730.24
630.15	1718.35
630.50	1707.45
630.84	1695.60
631.19	1684.07
631.53	1672.86
631.88	1661.86
632.22	1650.09
632.57	1639.61
632.91	1628.10
633.26	1616.69
633.60	1605.58
633.95	1594.50
634.29	1583.59
634.64	1573.59
634.98	1563.11
635.32	1552.78
635.67	1543.31
636.01	1532.83
636.36	1522.99
636.70	1513.34
637.05	1503.88
637.39	1494.97
637.73	1485.21
638.08	1476.51
638.42	1467.55
638.77	1458.05
639.11	1448.36
639.45	1439.25
639.80	1428.73
640.14	1419.13
640.49	1410.37
640.83	1401.04
641.17	1392.09
641.52	1382.47
641.86	1372.92
642.20	1363.98
642.55	1354.55
642.89	1345.08
643.23	1335.71
643.58	1326.55
643.92	1316.66
644.26	1306.83
644.61	1297.85
644.95	1288.85
645.29	1278.50
645.64	1268.65
645.98	1259.46
646.32	1250.82
646.66	1241.90
647.01	1233.19
647.35	1224.56
647.69	1215.37
648.04	1207.30
648.38	1197.99
648.72	1188.67
649.06	1179.58
649.41	1170.45
649.75	1161.29
650.09	1151.95
650.43	1142.90
650.78	1133.54
651.12	1124.62
651.46	1116.14
651.80	1107.18
652.14	1098.67
652.49	1090.53
652.83	1082.36
653.17	1073.66
653.51	1064.58
653.85	1056.05
654.20	1047.57
654.54	1038.64
654.88	1030.17
655.22	1020.98
655.56	1012.70
655.90	1004.69
656.25	996.67
656.59	988.48
656.93	980.78
657.27	973.18
657.61	965.20
657.95	957.93
658.29	950.56
658.64	942.87
658.98	935.12
659.32	927.02
659.66	919.53
660.00	911.86
660.34	904.45
660.68	897.37
661.02	889.83
661.36	882.89
661.70	876.22
662.05	869.47
662.39	862.95
662.73	856.37
663.07	849.98
663.41	843.58
663.75	837.22
664.09	830.56
664.43	824.14
664.77	818.21
665.11	811.96
665.45	805.85
665.79	799.99
666.13	793.67
666.47	787.59
666.81	781.23
667.15	774.67
667.49	768.70
667.83	762.72
668.17	757.02
668.51	750.98
668.85	745.24
669.19	739.61
669.53	733.81
669.87	728.05
670.21	722.83
670.55	717.23
670.89	712.00
671.23	706.90
671.57	701.64
671.91	696.27
672.25	691.16
672.58	686.14
672.92	680.93
673.26	676.28
673.60	671.51
673.94	667.01
674.28	663.02
674.62	658.62
674.96	654.00
675.30	649.69
675.64	645.38
675.97	640.86
676.31	636.42
676.65	632.11
676.99	627.96
677.33	622.96
677.67	618.70
678.01	614.12
678.34	609.71
678.68	605.47
679.02	601.14
679.36	596.77
679.70	592.69
680.04	588.54
680.37	584.26
680.71	580.25
681.05	576.30
681.39	572.30
681.73	568.56
682.06	565.10
682.40	561.40
682.74	557.71
683.08	554.31
683.42	550.44
683.75	546.81
684.09	543.19
684.43	539.68
684.77	536.10
685.10	532.75
685.44	529.24
685.78	525.92
686.12	522.92
686.45	519.56
686.79	516.12
687.13	513.01
687.46	509.71
687.80	506.40
688.14	503.24
688.48	500.10
688.81	496.73
689.15	493.42
689.49	490.29
689.82	487.28
690.16	484.17
690.50	481.28
690.83	478.55
691.17	475.36
691.51	472.54
691.84	469.87
692.18	467.00
692.52	464.12
692.85	461.16
693.19	458.24
693.52	455.56
693.86	452.87
694.20	450.23
694.53	447.55
694.87	445.05
695.21	442.20
695.54	439.67
695.88	436.94
696.21	434.29
696.55	431.64
696.88	429.00
697.22	426.47
697.56	424.11
697.89	421.50
698.23	419.29
698.56	416.90
698.90	414.46
699.23	411.86
699.57	409.50
699.90	407.24
700.24	405.06
700.58	402.86
700.91	400.60
701.25	398.42
701.58	396.45
701.92	394.30
702.25	392.28
702.59	390.24
702.92	388.24
703.26	386.35
703.59	384.44
703.93	382.68
704.26	380.80
704.60	378.93
704.93	377.05
705.26	375.25
705.60	373.42
705.93	371.78
706.27	370.30
706.60	368.73
706.94	367.06
707.27	365.16
707.61	363.55
707.94	361.95
708.27	360.11
708.61	358.49
708.94	356.95
709.28	355.54
709.61	353.85
709.94	352.55
710.28	351.05
710.61	349.60
710.95	347.92
711.28	346.50
711.61	345.02
711.95	343.64
712.28	342.04
712.61	340.57
712.95	339.19
713.28	337.81
713.61	336.49
713.95	335.16
714.28	333.93
714.61	332.51
714.95	331.13
715.28	329.84
715.61	328.53
715.95	327.32
716.28	326.10
716.61	324.98
716.95	323.82
717.28	322.65
717.61	321.55
717.94	320.45
718.28	319.17
718.61	318.08
718.94	316.94
719.27	316.04
719.61	315.13
719.94	314.01
720.27	312.97
720.60	312.06
720.94	311.09
721.27	310.25
721.60	309.44
721.93	308.59
722.27	307.84
722.60	306.92
722.93	306.07
723.26	305.26
723.59	304.35
723.93	303.33
724.26	302.50
724.59	301.50
724.92	300.64
725.25	299.90
725.59	299.01
725.92	298.17
726.25	297.42
726.58	296.66
726.91	295.87
727.24	294.98
727.57	294.06
727.91	293.23
728.24	292.43
728.57	291.65
728.90	290.97
729.23	290.12
729.56	289.65
729.89	288.81
730.22	288.08
730.55	287.30
730.89	286.73
731.22	286.00
731.55	285.30
731.88	284.76
732.21	284.12
732.54	283.49
732.87	282.93
733.20	282.30
733.53	281.67
733.86	281.17
734.19	280.73
734.52	280.23
734.85	279.90
735.18	279.25
735.51	278.68
735.84	278.01
736.17	277.52
736.50	276.65
736.83	276.34
737.16	275.73
737.49	275.13
737.82	274.53
738.15	274.12
738.48	273.72
738.81	273.22
739.14	272.62
739.47	272.17
739.80	271.65
740.13	271.21
740.46	270.54
740.79	269.92
741.12	269.33
741.45	268.81
741.78	268.13
742.11	267.72
742.44	267.15
742.77	266.82
743.10	266.24
743.43	265.89
743.75	265.28
744.08	265.07
744.41	264.85
744.74	264.46
745.07	263.98
745.40	263.58
745.73	263.15
746.06	262.79
746.39	262.36
746.71	262.04
747.04	261.56
747.37	261.34
747.70	261.07
748.03	260.91
748.36	260.55
748.68	260.29
749.01	259.96
749.34	259.64
749.67	259.26
750.00	259.07
750.33	258.86
750.65	258.63
750.98	258.02
751.31	257.55
751.64	257.14
751.97	256.76
752.29	256.44
752.62	255.95
752.95	255.62
753.28	255.30
753.60	254.84
753.93	254.67
754.26	254.43
754.59	254.06
754.91	253.50
755.24	253.23
755.57	252.89
755.90	252.48
756.22	252.25
756.55	252.02
756.88	251.61
757.20	251.22
757.53	250.78
757.86	250.56
758.19	250.38
758.51	250.00
758.84	249.75
759.17	249.41
759.49	249.18
759.82	248.99
760.15	248.77
760.47	248.63
760.80	248.20
761.13	248.01
761.45	247.69
761.78	247.50
762.11	247.18
762.43	246.91
762.76	246.62
763.08	246.43
763.41	246.10
763.74	245.86
764.06	245.57
764.39	245.28
764.71	245.16
765.04	244.96
765.37	244.94
765.69	244.75
766.02	244.45
766.34	244.27
766.67	243.98
767.00	243.85
767.32	243.60
767.65	243.48
767.97	243.29
768.30	243.10
768.62	242.99
768.95	242.85
769.27	242.69
769.60	242.60
769.92	242.38
770.25	242.20
770.57	242.05
770.90	241.91
771.22	241.84
771.55	241.65
771.87	241.49
772.20	241.26
772.52	241.26
772.85	241.41
773.17	241.36
773.50	241.12
773.82	240.93
774.15	240.82
774.47	240.64
774.80	240.46
775.12	240.36
775.45	240.23
775.77	240.09
776.09	240.00
776.42	239.91
776.74	239.86
777.07	239.72
777.39	239.62
777.72	239.49
778.04	239.45
778.36	239.27
778.69	239.10
779.01	239.06
779.33	238.88
779.66	238.57
779.98	238.49
780.31	238.51
780.63	238.49
780.95	238.38
781.28	238.27
781.60	238.21
781.92	238.05
782.25	237.90
782.57	237.81
782.89	237.66
783.22	237.59
783.54	237.63
783.86	237.59
784.19	237.55
784.51	237.58
784.83	237.43
785.16	237.42
785.48	237.40
785.80	237.31
