SpectraSuite Data File
++++++++++++++++++++++++++++++++++++
Date: Fri Feb 01 14:38:40 EST 2013
User: group
Dark Spectrum Present: No
Reference Spectrum Present: No
Number of Sampled Component Spectra: 1
Spectrometers: USB2E7196
Integration Time (usec): 70000 (USB2E7196)
Spectra Averaged: 10 (USB2E7196)
Boxcar Smoothing: 10 (USB2E7196)
Correct for Electrical Dark: No (USB2E7196)
Strobe/Lamp Enabled: No (USB2E7196)
Correct for Detector Non-linearity: No (USB2E7196)
Correct for Stray Light: No (USB2E7196)
Number of Pixels in Processed Spectrum: 2048
>>>>>Begin Processed Spectral Data<<<<<
339.09	0.00
339.48	217.30
339.86	218.20
340.24	219.50
340.63	220.70
341.01	225.00
341.39	223.70
341.78	224.10
342.16	226.50
342.54	227.50
342.93	215.20
343.31	226.10
343.69	226.62
344.07	227.11
344.46	227.52
344.84	227.93
345.22	228.11
345.60	228.33
345.99	228.50
346.37	228.67
346.75	228.79
347.13	228.80
347.52	228.73
347.90	228.77
348.28	228.78
348.66	228.77
349.05	228.78
349.43	228.90
349.81	228.91
350.19	228.98
350.57	229.04
350.96	229.12
351.34	229.17
351.72	229.27
352.10	229.30
352.48	229.40
352.87	229.42
353.25	229.49
353.63	229.56
354.01	229.73
354.39	229.66
354.77	229.67
355.15	229.82
355.54	229.95
355.92	229.97
356.30	229.93
356.68	230.06
357.06	230.10
357.44	230.08
357.82	230.14
358.20	230.15
358.58	230.25
358.97	230.26
359.35	230.37
359.73	230.39
360.11	230.41
360.49	230.42
360.87	230.42
361.25	230.40
361.63	230.35
362.01	230.28
362.39	230.38
362.77	230.33
363.15	230.29
363.53	230.27
363.91	230.31
364.29	230.33
364.67	230.21
365.05	230.22
365.43	230.24
365.81	230.19
366.19	230.27
366.57	230.30
366.95	230.26
367.33	230.07
367.71	229.94
368.09	229.96
368.47	229.94
368.85	229.91
369.23	229.99
369.61	230.05
369.99	230.08
370.37	230.00
370.75	230.10
371.13	229.96
371.51	229.96
371.89	229.84
372.27	229.96
372.65	229.85
373.03	229.73
373.41	229.63
373.78	229.59
374.16	229.43
374.54	229.25
374.92	229.13
375.30	229.11
375.68	229.00
376.06	228.90
376.44	228.65
376.82	228.50
377.19	228.33
377.57	228.22
377.95	228.10
378.33	228.02
378.71	227.78
379.09	227.73
379.47	227.50
379.84	227.40
380.22	227.14
380.60	227.02
380.98	226.92
381.36	226.91
381.73	226.83
382.11	226.82
382.49	226.87
382.87	226.78
383.25	226.70
383.62	226.90
384.00	226.69
384.38	226.76
384.76	226.67
385.13	226.70
385.51	226.63
385.89	226.52
386.27	226.52
386.64	226.48
387.02	226.41
387.40	226.31
387.78	226.27
388.15	226.20
388.53	226.15
388.91	226.07
389.29	225.97
389.66	226.03
390.04	225.88
390.42	225.79
390.79	225.85
391.17	225.82
391.55	225.61
391.92	225.69
392.30	225.74
392.68	225.86
393.05	225.89
393.43	225.98
393.81	226.07
394.18	226.01
394.56	226.10
394.94	226.15
395.31	226.28
395.69	226.40
396.06	226.56
396.44	226.63
396.82	226.78
397.19	226.90
397.57	226.93
397.95	227.06
398.32	227.06
398.70	227.04
399.07	227.17
399.45	227.26
399.82	227.48
400.20	227.52
400.58	227.58
400.95	227.58
401.33	227.67
401.70	227.81
402.08	227.96
402.45	228.09
402.83	228.32
403.20	228.47
403.58	228.49
403.95	228.55
404.33	228.78
404.71	228.98
405.08	229.15
405.46	229.17
405.83	229.38
406.21	229.61
406.58	229.83
406.96	230.06
407.33	230.23
407.70	230.40
408.08	230.71
408.45	230.98
408.83	231.23
409.20	231.47
409.58	231.74
409.95	232.08
410.33	232.38
410.70	232.60
411.08	232.92
411.45	233.31
411.82	233.71
412.20	234.07
412.57	234.59
412.95	234.91
413.32	235.45
413.69	235.86
414.07	236.28
414.44	236.89
414.82	237.39
415.19	238.15
415.56	238.71
415.94	239.25
416.31	240.04
416.68	240.77
417.06	241.53
417.43	242.39
417.81	243.20
418.18	244.06
418.55	245.01
418.93	246.09
419.30	247.21
419.67	248.23
420.04	249.38
420.42	250.47
420.79	252.01
421.16	253.48
421.54	254.95
421.91	256.47
422.28	257.98
422.66	259.67
423.03	261.30
423.40	263.01
423.77	264.80
424.15	266.57
424.52	268.43
424.89	270.40
425.26	272.18
425.64	274.10
426.01	276.14
426.38	278.36
426.75	280.53
427.13	282.78
427.50	285.05
427.87	287.47
428.24	289.92
428.61	292.02
428.99	294.60
429.36	297.39
429.73	300.16
430.10	302.86
430.47	305.52
430.85	308.23
431.22	311.24
431.59	314.41
431.96	317.28
432.33	320.51
432.70	323.79
433.08	327.54
433.45	330.90
433.82	334.36
434.19	338.08
434.56	341.76
434.93	345.30
435.30	349.09
435.68	353.06
436.05	356.89
436.42	360.82
436.79	364.17
437.16	367.92
437.53	371.78
437.90	375.59
438.27	379.49
438.64	383.46
439.01	387.12
439.38	390.31
439.75	393.48
440.13	397.24
440.50	400.49
440.87	403.36
441.24	406.36
441.61	409.57
441.98	411.99
442.35	414.67
442.72	417.59
443.09	420.20
443.46	421.84
443.83	423.01
444.20	424.14
444.57	425.78
444.94	426.37
445.31	427.28
445.68	428.26
446.05	428.67
446.42	428.49
446.79	428.28
447.16	428.12
447.53	428.12
447.90	426.60
448.27	425.47
448.64	423.72
449.01	422.54
449.37	420.31
449.74	418.07
450.11	415.46
450.48	412.36
450.85	409.28
451.22	406.73
451.59	404.30
451.96	401.83
452.33	398.51
452.70	395.72
453.07	392.05
453.43	388.36
453.80	384.88
454.17	381.41
454.54	378.01
454.91	374.27
455.28	370.87
455.65	367.85
456.02	364.80
456.38	361.92
456.75	358.46
457.12	355.38
457.49	352.36
457.86	349.47
458.23	347.02
458.59	344.20
458.96	341.38
459.33	338.79
459.70	336.31
460.07	334.25
460.43	331.80
460.80	329.60
461.17	327.53
461.54	325.40
461.91	323.54
462.27	321.63
462.64	320.13
463.01	318.14
463.38	316.30
463.74	314.35
464.11	312.66
464.48	311.16
464.85	309.67
465.21	308.60
465.58	307.31
465.95	305.63
466.32	304.35
466.68	302.93
467.05	301.74
467.42	300.43
467.78	298.96
468.15	297.75
468.52	296.71
468.88	295.40
469.25	294.31
469.62	293.30
469.98	292.19
470.35	291.12
470.72	290.23
471.08	289.33
471.45	288.49
471.82	287.63
472.18	286.69
472.55	285.96
472.92	285.08
473.28	284.30
473.65	283.62
474.02	282.95
474.38	282.45
474.75	281.73
475.11	281.05
475.48	280.60
475.85	280.15
476.21	279.54
476.58	279.09
476.94	278.48
477.31	277.93
477.67	277.52
478.04	277.11
478.41	276.77
478.77	276.60
479.14	276.20
479.50	275.95
479.87	275.71
480.23	275.34
480.60	274.92
480.96	274.65
481.33	274.49
481.69	274.27
482.06	273.89
482.42	273.64
482.79	273.49
483.15	273.31
483.52	273.18
483.88	273.19
484.25	273.15
484.61	273.13
484.98	273.11
485.34	273.18
485.71	273.28
486.07	273.29
486.44	273.04
486.80	273.01
487.17	272.95
487.53	272.99
487.90	273.07
488.26	273.33
488.62	273.55
488.99	273.66
489.35	273.88
489.72	274.14
490.08	274.30
490.44	274.45
490.81	274.67
491.17	274.75
491.54	274.91
491.90	275.03
492.26	275.20
492.63	275.32
492.99	275.52
493.36	275.58
493.72	275.85
494.08	276.11
494.45	276.42
494.81	276.75
495.17	277.00
495.54	277.39
495.90	277.68
496.26	277.84
496.63	278.25
496.99	278.50
497.35	278.75
497.72	279.18
498.08	279.52
498.44	279.83
498.80	280.30
499.17	280.66
499.53	281.03
499.89	281.61
500.26	282.06
500.62	282.47
500.98	283.02
501.34	283.30
501.71	283.72
502.07	284.06
502.43	284.27
502.79	284.62
503.16	284.97
503.52	285.21
503.88	285.58
504.24	285.84
504.60	286.29
504.97	286.70
505.33	287.14
505.69	287.74
506.05	288.16
506.41	288.56
506.78	289.01
507.14	289.50
507.50	289.93
507.86	290.52
508.22	291.07
508.59	291.46
508.95	292.06
509.31	292.68
509.67	293.43
510.03	294.31
510.39	295.10
510.75	295.83
511.12	296.64
511.48	297.45
511.84	298.28
512.20	299.02
512.56	299.84
512.92	300.84
513.28	301.70
513.64	302.77
514.00	303.91
514.37	304.96
514.73	306.19
515.09	307.40
515.45	308.59
515.81	309.91
516.17	311.40
516.53	312.89
516.89	314.39
517.25	315.83
517.61	317.52
517.97	319.24
518.33	321.05
518.69	322.91
519.05	324.91
519.41	326.90
519.77	329.22
520.13	331.44
520.49	333.48
520.85	335.69
521.21	338.20
521.57	340.59
521.93	342.97
522.29	345.57
522.65	348.16
523.01	350.87
523.37	353.55
523.73	356.47
524.09	359.39
524.45	362.31
524.81	365.44
525.17	368.58
525.53	371.90
525.89	375.19
526.25	378.64
526.61	382.13
526.97	385.72
527.33	389.24
527.68	393.12
528.04	397.14
528.40	401.08
528.76	404.93
529.12	409.25
529.48	413.69
529.84	417.78
530.20	422.24
530.56	426.98
530.91	431.56
531.27	436.17
531.63	440.90
531.99	445.77
532.35	450.62
532.71	455.57
533.07	460.55
533.42	465.79
533.78	470.87
534.14	476.12
534.50	481.48
534.86	487.00
535.21	492.31
535.57	497.57
535.93	503.19
536.29	508.93
536.65	514.56
537.00	520.18
537.36	526.01
537.72	531.88
538.08	537.59
538.44	543.49
538.79	549.37
539.15	555.17
539.51	561.39
539.87	567.45
540.22	573.61
540.58	579.79
540.94	585.72
541.29	591.92
541.65	598.09
542.01	604.25
542.37	610.20
542.72	616.54
543.08	622.95
543.44	629.39
543.79	635.33
544.15	641.58
544.51	648.07
544.87	654.49
545.22	660.56
545.58	666.47
545.94	672.75
546.29	678.82
546.65	684.99
547.01	691.01
547.36	697.06
547.72	703.06
548.07	709.12
548.43	715.20
548.79	721.12
549.14	727.03
549.50	732.77
549.86	738.82
550.21	744.65
550.57	750.60
550.92	756.36
551.28	762.30
551.64	768.12
551.99	773.59
552.35	779.20
552.70	784.96
553.06	791.22
553.41	796.80
553.77	802.86
554.13	808.70
554.48	814.53
554.84	820.37
555.19	825.70
555.55	831.16
555.90	836.87
556.26	842.68
556.61	848.20
556.97	853.63
557.32	859.00
557.68	864.36
558.03	869.60
558.39	874.87
558.74	880.34
559.10	885.49
559.45	890.98
559.81	896.84
560.16	901.97
560.52	906.81
560.87	912.15
561.23	916.82
561.58	921.82
561.94	926.42
562.29	930.91
562.64	935.55
563.00	940.18
563.35	944.86
563.71	949.42
564.06	954.24
564.42	958.92
564.77	963.44
565.12	967.96
565.48	972.46
565.83	976.66
566.19	980.48
566.54	984.65
566.89	988.49
567.25	991.73
567.60	996.05
567.96	1000.03
568.31	1003.59
568.66	1007.31
569.02	1010.73
569.37	1014.08
569.72	1017.57
570.08	1021.02
570.43	1024.42
570.78	1027.29
571.14	1030.20
571.49	1032.75
571.84	1035.91
572.20	1038.30
572.55	1040.75
572.90	1043.20
573.26	1045.40
573.61	1047.93
573.96	1050.05
574.31	1052.03
574.67	1053.91
575.02	1055.10
575.37	1056.55
575.72	1058.06
576.08	1059.87
576.43	1061.08
576.78	1062.45
577.13	1063.89
577.49	1065.30
577.84	1066.21
578.19	1067.65
578.54	1068.40
578.90	1069.46
579.25	1069.76
579.60	1070.77
579.95	1071.23
580.30	1071.61
580.66	1072.17
581.01	1072.18
581.36	1072.45
581.71	1072.95
582.06	1073.54
582.42	1073.70
582.77	1073.98
583.12	1074.00
583.47	1073.75
583.82	1073.95
584.17	1073.72
584.53	1073.47
584.88	1073.42
585.23	1073.36
585.58	1072.86
585.93	1072.76
586.28	1072.55
586.63	1072.59
586.98	1072.12
587.34	1071.81
587.69	1071.34
588.04	1071.03
588.39	1070.92
588.74	1070.18
589.09	1069.11
589.44	1067.89
589.79	1067.17
590.14	1066.66
590.49	1065.85
590.84	1064.94
591.19	1064.33
591.54	1063.40
591.89	1061.95
592.25	1060.58
592.60	1058.98
592.95	1057.30
593.30	1055.64
593.65	1053.78
594.00	1051.91
594.35	1050.70
594.70	1048.77
595.05	1047.12
595.40	1045.24
595.75	1043.30
596.10	1041.80
596.45	1040.49
596.80	1038.98
597.15	1037.31
597.50	1035.30
597.85	1033.68
598.19	1031.92
598.54	1030.11
598.89	1028.33
599.24	1027.37
599.59	1025.67
599.94	1024.16
600.29	1022.73
600.64	1021.01
600.99	1019.17
601.34	1017.30
601.69	1015.13
602.04	1013.65
602.39	1011.60
602.74	1010.16
603.08	1008.43
603.43	1006.70
603.78	1004.68
604.13	1002.75
604.48	1000.88
604.83	999.00
605.18	996.76
605.53	994.39
605.87	991.67
606.22	989.35
606.57	986.67
606.92	984.16
607.27	981.89
607.62	979.66
607.96	977.60
608.31	975.49
608.66	972.81
609.01	970.04
609.36	967.10
609.70	964.18
610.05	960.84
610.40	957.98
610.75	954.74
611.10	951.54
611.44	948.15
611.79	945.20
612.14	941.85
612.49	938.41
612.83	935.26
613.18	932.03
613.53	928.90
613.88	925.41
614.22	922.25
614.57	918.73
614.92	915.22
615.27	911.88
615.61	908.28
615.96	905.20
616.31	902.16
616.65	899.16
617.00	896.07
617.35	892.97
617.70	889.60
618.04	886.18
618.39	882.89
618.74	879.80
619.08	876.14
619.43	872.83
619.78	869.93
620.12	866.62
620.47	863.27
620.82	859.75
621.16	856.33
621.51	853.05
621.85	849.62
622.20	845.93
622.55	842.28
622.89	839.00
623.24	835.73
623.59	832.63
623.93	829.29
624.28	826.07
624.62	822.79
624.97	819.46
625.32	816.31
625.66	813.33
626.01	810.20
626.35	806.92
626.70	803.55
627.04	800.20
627.39	796.87
627.73	793.71
628.08	790.62
628.43	787.36
628.77	783.90
629.12	780.44
629.46	777.48
629.81	773.89
630.15	770.27
630.50	766.63
630.84	762.65
631.19	759.06
631.53	755.54
631.88	751.69
632.22	748.07
632.57	744.71
632.91	740.96
633.26	737.36
633.60	734.05
633.95	730.70
634.29	727.18
634.64	723.80
634.98	720.41
635.32	717.12
635.67	714.14
636.01	711.10
636.36	708.16
636.70	705.02
637.05	702.10
637.39	699.15
637.73	696.00
638.08	693.40
638.42	690.77
638.77	687.93
639.11	685.07
639.45	682.01
639.80	678.70
640.14	675.58
640.49	672.66
640.83	669.51
641.17	666.49
641.52	663.67
641.86	660.89
642.20	658.05
642.55	654.85
642.89	651.76
643.23	648.79
643.58	646.00
643.92	642.72
644.26	639.76
644.61	637.03
644.95	634.27
645.29	630.98
645.64	627.46
645.98	624.39
646.32	621.56
646.66	618.65
647.01	615.91
647.35	613.32
647.69	610.35
648.04	607.63
648.38	604.60
648.72	601.52
649.06	598.31
649.41	595.26
649.75	592.35
650.09	589.35
650.43	586.10
650.78	582.85
651.12	579.90
651.46	576.98
651.80	574.02
652.14	571.11
652.49	568.27
652.83	565.70
653.17	562.52
653.51	559.50
653.85	556.72
654.20	553.61
654.54	550.62
654.88	547.62
655.22	544.48
655.56	541.47
655.90	538.55
656.25	535.81
656.59	532.98
656.93	530.22
657.27	527.39
657.61	524.40
657.95	521.85
658.29	519.28
658.64	516.63
658.98	513.66
659.32	510.92
659.66	508.13
660.00	505.40
660.34	502.78
660.68	500.02
661.02	497.23
661.36	494.86
661.70	492.23
662.05	489.76
662.39	487.58
662.73	485.28
663.07	482.86
663.41	480.60
663.75	478.20
664.09	475.83
664.43	473.46
664.77	471.42
665.11	469.08
665.45	466.72
665.79	464.37
666.13	462.20
666.47	459.94
666.81	457.69
667.15	455.25
667.49	453.28
667.83	451.32
668.17	449.32
668.51	447.00
668.85	444.80
669.19	442.95
669.53	440.64
669.87	438.44
670.21	436.55
670.55	434.42
670.89	432.68
671.23	430.95
671.57	429.19
671.91	427.24
672.25	425.28
672.58	423.48
672.92	421.71
673.26	419.94
673.60	418.01
673.94	416.38
674.28	414.83
674.62	413.19
674.96	411.50
675.30	409.80
675.64	408.07
675.97	406.60
676.31	404.73
676.65	403.16
676.99	401.60
677.33	399.90
677.67	398.29
678.01	396.57
678.34	394.79
678.68	393.18
679.02	391.54
679.36	389.97
679.70	388.36
680.04	386.74
680.37	385.13
680.71	383.63
681.05	382.21
681.39	380.65
681.73	379.25
682.06	377.80
682.40	376.51
682.74	375.29
683.08	373.97
683.42	372.61
683.75	371.22
684.09	369.80
684.43	368.34
684.77	366.92
685.10	365.56
685.44	364.17
685.78	362.77
686.12	361.53
686.45	360.00
686.79	358.51
687.13	357.22
687.46	355.72
687.80	354.55
688.14	352.99
688.48	351.78
688.81	350.33
689.15	349.09
689.49	347.63
689.82	346.32
690.16	344.82
690.50	343.65
690.83	342.46
691.17	341.18
691.51	340.05
691.84	338.80
692.18	337.54
692.52	336.39
692.85	335.24
693.19	334.07
693.52	333.05
693.86	331.93
694.20	330.86
694.53	329.90
694.87	328.70
695.21	327.63
695.54	326.57
695.88	325.37
696.21	324.14
696.55	323.25
696.88	322.11
697.22	321.10
697.56	320.09
697.89	318.95
698.23	318.04
698.56	317.02
698.90	316.11
699.23	315.07
699.57	314.04
699.90	312.92
700.24	311.97
700.58	311.07
700.91	310.21
701.25	309.40
701.58	308.62
701.92	307.72
702.25	306.86
702.59	305.90
702.92	305.17
703.26	304.43
703.59	303.45
703.93	302.80
704.26	302.05
704.60	301.06
704.93	300.38
705.26	299.51
705.60	298.64
705.93	297.98
706.27	297.36
706.60	296.78
706.94	296.13
707.27	295.32
707.61	294.50
707.94	293.83
708.27	292.91
708.61	292.15
708.94	291.55
709.28	290.84
709.61	290.27
709.94	289.59
710.28	289.00
710.61	288.41
710.95	287.70
711.28	287.10
711.61	286.56
711.95	285.83
712.28	285.18
712.61	284.65
712.95	284.00
713.28	283.30
713.61	282.55
713.95	281.88
714.28	281.33
714.61	280.84
714.95	280.17
715.28	279.56
715.61	278.82
715.95	278.28
716.28	277.76
716.61	277.11
716.95	276.56
717.28	275.83
717.61	275.25
717.94	274.68
718.28	274.01
718.61	273.50
718.94	273.05
719.27	272.60
719.61	272.10
719.94	271.55
720.27	270.98
720.60	270.60
720.94	270.15
721.27	269.75
721.60	269.19
721.93	268.72
722.27	268.37
722.60	267.95
722.93	267.47
723.26	267.06
723.59	266.58
723.93	266.17
724.26	265.68
724.59	265.22
724.92	264.79
725.25	264.45
725.59	264.06
725.92	263.60
726.25	263.17
726.58	262.73
726.91	262.35
727.24	262.02
727.57	261.58
727.91	261.29
728.24	260.90
728.57	260.50
728.90	260.11
729.23	259.65
729.56	259.49
729.89	259.08
730.22	258.76
730.55	258.41
730.89	258.10
731.22	257.81
731.55	257.59
731.88	257.34
732.21	257.05
732.54	256.73
732.87	256.50
733.20	256.20
733.53	255.91
733.86	255.74
734.19	255.41
734.52	255.24
734.85	255.05
735.18	254.77
735.51	254.70
735.84	254.69
736.17	254.59
736.50	254.18
736.83	254.14
737.16	253.96
737.49	253.81
737.82	253.57
738.15	253.31
738.48	253.00
738.81	252.70
739.14	252.42
739.47	252.08
739.80	251.87
740.13	251.76
740.46	251.64
740.79	251.34
741.12	251.29
741.45	250.94
741.78	250.72
742.11	250.57
742.44	250.26
742.77	249.96
743.10	249.58
743.43	249.42
743.75	249.00
744.08	248.95
744.41	248.61
744.74	248.47
745.07	248.47
745.40	248.30
745.73	248.17
746.06	247.96
746.39	247.84
746.71	247.69
747.04	247.41
747.37	247.11
747.70	246.98
748.03	246.78
748.36	246.61
748.68	246.35
749.01	246.13
749.34	245.98
749.67	245.71
750.00	245.55
750.33	245.50
750.65	245.43
750.98	244.98
751.31	244.88
751.64	244.60
751.97	244.47
752.29	244.37
752.62	244.08
752.95	243.89
753.28	243.78
753.60	243.49
753.93	243.33
754.26	243.09
754.59	242.76
754.91	242.54
755.24	242.40
755.57	242.23
755.90	241.94
756.22	241.65
756.55	241.50
756.88	241.37
757.20	241.08
757.53	240.79
757.86	240.68
758.19	240.45
758.51	240.40
758.84	240.10
759.17	239.90
759.49	239.76
759.82	239.71
760.15	239.53
760.47	239.48
760.80	239.24
761.13	239.23
761.45	239.06
761.78	238.85
762.11	238.72
762.43	238.43
762.76	238.32
763.08	238.20
763.41	238.11
763.74	237.93
764.06	237.74
764.39	237.69
764.71	237.52
765.04	237.43
765.37	237.14
765.69	237.02
766.02	236.90
766.34	236.78
766.67	236.56
767.00	236.42
767.32	236.34
767.65	236.38
767.97	236.20
768.30	236.22
768.62	236.02
768.95	235.87
769.27	235.86
769.60	235.87
769.92	235.84
770.25	235.68
770.57	235.59
770.90	235.61
771.22	235.44
771.55	235.31
771.87	235.28
772.20	235.15
772.52	235.14
772.85	235.33
773.17	235.26
773.50	235.16
773.82	235.11
774.15	234.83
774.47	234.73
774.80	234.66
775.12	234.47
775.45	234.53
775.77	234.56
776.09	234.47
776.42	234.40
776.74	234.37
777.07	234.33
777.39	234.29
777.72	234.08
778.04	234.09
778.36	234.10
778.69	234.00
779.01	234.10
779.33	234.02
779.66	233.76
779.98	233.71
780.31	233.83
780.63	233.80
780.95	233.85
781.28	233.74
781.60	233.67
781.92	233.81
782.25	233.82
782.57	233.74
782.89	233.84
783.22	233.80
783.54	233.78
783.86	233.81
784.19	233.80
784.51	233.92
784.83	233.97
785.16	234.03
785.48	234.03
785.80	234.01
786.12	233.99
786.45	233.89
786.77	233.83
787.09	233.67
787.42	233.60
787.74	233.69
788.06	233.64
788.38	233.61
788.71	233.50
789.03	233.44
789.35	233.50
789.67	233.42
789.99	233.46
790.32	233.43
790.64	233.48
790.96	233.66
791.28	233.49
791.61	233.35
791.93	233.21
