SpectraSuite Data File
++++++++++++++++++++++++++++++++++++
Date: Fri Feb 01 14:41:53 EST 2013
User: group
Dark Spectrum Present: No
Reference Spectrum Present: No
Number of Sampled Component Spectra: 1
Spectrometers: USB2E7196
Integration Time (usec): 70000 (USB2E7196)
Spectra Averaged: 10 (USB2E7196)
Boxcar Smoothing: 10 (USB2E7196)
Correct for Electrical Dark: No (USB2E7196)
Strobe/Lamp Enabled: No (USB2E7196)
Correct for Detector Non-linearity: No (USB2E7196)
Correct for Stray Light: No (USB2E7196)
Number of Pixels in Processed Spectrum: 2048
>>>>>Begin Processed Spectral Data<<<<<
339.09	0.00
339.48	217.50
339.86	219.40
340.24	216.90
340.63	219.10
341.01	224.80
341.39	222.50
341.78	224.80
342.16	224.90
342.54	226.60
342.93	214.65
343.31	225.47
343.69	225.91
344.07	226.39
344.46	226.97
344.84	227.45
345.22	227.50
345.60	227.84
345.99	228.10
346.37	228.32
346.75	228.46
347.13	228.61
347.52	228.69
347.90	228.86
348.28	228.88
348.66	229.00
349.05	229.10
349.43	229.20
349.81	229.33
350.19	229.44
350.57	229.46
350.96	229.57
351.34	229.74
351.72	229.85
352.10	229.88
352.48	229.95
352.87	229.93
353.25	230.13
353.63	230.10
354.01	230.13
354.39	230.18
354.77	230.22
355.15	230.26
355.54	230.29
355.92	230.36
356.30	230.40
356.68	230.60
357.06	230.64
357.44	230.70
357.82	230.70
358.20	230.70
358.58	230.80
358.97	230.82
359.35	230.85
359.73	230.95
360.11	230.94
360.49	230.99
360.87	230.95
361.25	231.01
361.63	231.18
362.01	231.20
362.39	231.10
362.77	231.17
363.15	231.21
363.53	231.23
363.91	231.06
364.29	230.95
364.67	230.70
365.05	230.65
365.43	230.61
365.81	230.59
366.19	230.70
366.57	230.74
366.95	230.72
367.33	230.62
367.71	230.66
368.09	230.68
368.47	230.57
368.85	230.69
369.23	230.61
369.61	230.48
369.99	230.60
370.37	230.66
370.75	230.67
371.13	230.54
371.51	230.46
371.89	230.48
372.27	230.56
372.65	230.51
373.03	230.49
373.41	230.39
373.78	230.28
374.16	230.01
374.54	229.85
374.92	229.72
375.30	229.70
375.68	229.51
376.06	229.53
376.44	229.50
376.82	229.52
377.19	229.51
377.57	229.51
377.95	229.17
378.33	229.12
378.71	228.90
379.09	228.99
379.47	228.98
379.84	228.90
380.22	228.70
380.60	228.70
380.98	228.50
381.36	228.49
381.73	228.50
382.11	228.53
382.49	228.50
382.87	228.49
383.25	228.42
383.62	228.68
384.00	228.56
384.38	228.43
384.76	228.26
385.13	228.23
385.51	228.06
385.89	227.98
386.27	227.97
386.64	227.95
387.02	227.82
387.40	227.82
387.78	227.80
388.15	227.84
388.53	227.61
388.91	227.72
389.29	227.64
389.66	227.58
390.04	227.60
390.42	227.59
390.79	227.60
391.17	227.60
391.55	227.46
391.92	227.41
392.30	227.48
392.68	227.49
393.05	227.57
393.43	227.64
393.81	227.72
394.18	227.65
394.56	227.71
394.94	227.86
395.31	227.87
395.69	227.98
396.06	228.06
396.44	228.25
396.82	228.24
397.19	228.39
397.57	228.46
397.95	228.53
398.32	228.60
398.70	228.81
399.07	228.92
399.45	228.83
399.82	228.91
400.20	229.01
400.58	229.19
400.95	229.12
401.33	229.30
401.70	229.65
402.08	229.79
402.45	229.87
402.83	229.97
403.20	230.06
403.58	230.22
403.95	230.50
404.33	230.67
404.71	230.88
405.08	231.11
405.46	231.30
405.83	231.54
406.21	231.70
406.58	231.80
406.96	232.01
407.33	232.35
407.70	232.61
408.08	233.05
408.45	233.33
408.83	233.80
409.20	234.10
409.58	234.33
409.95	234.70
410.33	235.10
410.70	235.43
411.08	235.90
411.45	236.42
411.82	236.80
412.20	237.40
412.57	238.03
412.95	238.45
413.32	239.10
413.69	239.63
414.07	240.38
414.44	241.06
414.82	241.81
415.19	242.63
415.56	243.51
415.94	244.33
416.31	245.31
416.68	246.15
417.06	247.25
417.43	248.23
417.81	249.40
418.18	250.52
418.55	251.82
418.93	253.12
419.30	254.33
419.67	255.76
420.04	257.11
420.42	258.50
420.79	260.32
421.16	261.87
421.54	263.70
421.91	265.49
422.28	267.33
422.66	269.20
423.03	271.01
423.40	272.90
423.77	274.79
424.15	276.84
424.52	279.00
424.89	281.41
425.26	283.61
425.64	285.70
426.01	288.09
426.38	290.48
426.75	292.87
427.13	295.47
427.50	298.01
427.87	300.70
428.24	303.46
428.61	305.88
428.99	308.82
429.36	311.67
429.73	314.68
430.10	317.60
430.47	320.69
430.85	323.76
431.22	327.05
431.59	330.62
431.96	333.83
432.33	337.39
432.70	340.60
433.08	344.73
433.45	348.46
433.82	352.31
434.19	356.60
434.56	360.78
434.93	364.64
435.30	368.53
435.68	372.80
436.05	376.83
436.42	381.06
436.79	384.60
437.16	388.50
437.53	392.43
437.90	396.55
438.27	400.40
438.64	404.57
439.01	408.27
439.38	411.55
439.75	414.66
440.13	418.26
440.50	421.62
440.87	424.28
441.24	427.32
441.61	430.31
441.98	432.34
442.35	434.88
442.72	437.47
443.09	440.07
443.46	441.31
443.83	442.15
444.20	442.58
444.57	443.92
444.94	444.54
445.31	445.15
445.68	445.74
446.05	445.76
446.42	445.07
446.79	444.45
447.16	443.79
447.53	443.35
447.90	441.72
448.27	440.23
448.64	437.84
449.01	436.14
449.37	433.35
449.74	430.50
450.11	427.17
450.48	423.29
450.85	419.46
451.22	416.42
451.59	413.56
451.96	410.86
452.33	406.96
452.70	403.31
453.07	399.05
453.43	394.66
453.80	390.69
454.17	386.71
454.54	383.01
454.91	379.00
455.28	374.94
455.65	371.19
456.02	367.67
456.38	364.60
456.75	360.64
457.12	357.28
457.49	354.11
457.86	350.99
458.23	348.40
458.59	345.33
458.96	342.30
459.33	339.50
459.70	336.78
460.07	334.59
460.43	332.11
460.80	329.70
461.17	327.58
461.54	325.47
461.91	323.40
462.27	321.25
462.64	319.31
463.01	317.36
463.38	315.51
463.74	313.31
464.11	311.60
464.48	309.92
464.85	308.18
465.21	306.90
465.58	305.48
465.95	303.91
466.32	302.71
466.68	301.32
467.05	299.98
467.42	298.54
467.78	296.98
468.15	295.63
468.52	294.72
468.88	293.36
469.25	292.14
469.62	291.25
469.98	290.14
470.35	289.12
470.72	288.19
471.08	287.14
471.45	286.25
471.82	285.36
472.18	284.52
472.55	283.91
472.92	282.99
473.28	282.16
473.65	281.45
474.02	280.78
474.38	280.26
474.75	279.75
475.11	279.20
475.48	278.80
475.85	278.51
476.21	278.03
476.58	277.73
476.94	277.49
477.31	277.10
477.67	276.86
478.04	276.72
478.41	276.58
478.77	276.63
479.14	276.57
479.50	276.52
479.87	276.54
480.23	276.64
480.60	276.60
480.96	276.62
481.33	276.85
481.69	276.97
482.06	277.09
482.42	277.19
482.79	277.49
483.15	277.95
483.52	278.33
483.88	278.73
484.25	279.18
484.61	279.46
484.98	280.04
485.34	280.76
485.71	281.46
486.07	282.12
486.44	282.65
486.80	283.43
487.17	284.19
487.53	285.03
487.90	285.93
488.26	287.18
488.62	288.45
488.99	289.64
489.35	290.83
489.72	292.10
490.08	293.39
490.44	294.83
490.81	296.21
491.17	297.75
491.54	299.43
491.90	301.36
492.26	303.51
492.63	305.52
492.99	307.70
493.36	309.77
493.72	312.21
494.08	314.87
494.45	317.65
494.81	320.61
495.17	323.73
495.54	327.00
495.90	330.20
496.26	333.58
496.63	337.22
496.99	340.98
497.35	345.10
497.72	349.40
498.08	353.76
498.44	358.48
498.80	363.39
499.17	368.57
499.53	373.81
499.89	379.25
500.26	384.98
500.62	390.78
500.98	397.18
501.34	403.68
501.71	410.29
502.07	417.07
502.43	424.18
502.79	431.50
503.16	439.14
503.52	447.22
503.88	455.54
504.24	463.82
504.60	472.73
504.97	481.81
505.33	491.39
505.69	501.45
506.05	511.76
506.41	521.97
506.78	532.60
507.14	543.65
507.50	555.15
507.86	567.03
508.22	579.19
508.59	591.51
508.95	604.08
509.31	617.33
509.67	630.92
510.03	644.63
510.39	658.67
510.75	673.23
511.12	688.10
511.48	703.32
511.84	718.95
512.20	734.80
512.56	751.21
512.92	767.87
513.28	784.74
513.64	801.77
514.00	819.33
514.37	837.23
514.73	855.07
515.09	873.12
515.45	891.64
515.81	910.51
516.17	929.88
516.53	949.70
516.89	969.12
517.25	988.87
517.61	1009.27
517.97	1029.72
518.33	1049.94
518.69	1070.60
519.05	1091.79
519.41	1113.24
519.77	1134.87
520.13	1156.66
520.49	1178.45
520.85	1200.44
521.21	1222.45
521.57	1245.14
521.93	1267.21
522.29	1290.07
522.65	1312.72
523.01	1335.11
523.37	1357.79
523.73	1380.38
524.09	1402.90
524.45	1426.30
524.81	1450.32
525.17	1474.26
525.53	1498.24
525.89	1522.40
526.25	1546.06
526.61	1569.02
526.97	1593.02
527.33	1616.97
527.68	1640.74
528.04	1664.74
528.40	1688.37
528.76	1712.81
529.12	1736.94
529.48	1761.38
529.84	1785.06
530.20	1809.59
530.56	1834.55
530.91	1859.59
531.27	1884.56
531.63	1908.92
531.99	1932.96
532.35	1955.81
532.71	1978.27
533.07	2002.00
533.42	2024.96
533.78	2048.41
534.14	2072.12
534.50	2094.16
534.86	2116.83
535.21	2139.19
535.57	2162.14
535.93	2185.35
536.29	2207.16
536.65	2228.82
537.00	2250.22
537.36	2272.19
537.72	2292.96
538.08	2314.00
538.44	2334.12
538.79	2354.45
539.15	2374.73
539.51	2395.29
539.87	2415.90
540.22	2436.38
540.58	2456.62
540.94	2476.02
541.29	2495.34
541.65	2514.26
542.01	2534.31
542.37	2553.22
542.72	2571.66
543.08	2589.12
543.44	2606.74
543.79	2623.53
544.15	2640.63
544.51	2658.82
544.87	2676.21
545.22	2693.17
545.58	2708.77
545.94	2723.93
546.29	2739.04
546.65	2753.68
547.01	2767.75
547.36	2782.05
547.72	2795.82
548.07	2808.88
548.43	2822.54
548.79	2835.39
549.14	2847.83
549.50	2859.59
549.86	2871.10
550.21	2882.66
550.57	2894.27
550.92	2905.46
551.28	2916.59
551.64	2927.32
551.99	2937.14
552.35	2946.71
552.70	2956.90
553.06	2967.19
553.41	2977.81
553.77	2987.14
554.13	2996.91
554.48	3006.61
554.84	3015.05
555.19	3023.90
555.55	3031.97
555.90	3039.56
556.26	3047.23
556.61	3055.15
556.97	3062.54
557.32	3070.67
557.68	3077.79
558.03	3084.56
558.39	3090.96
558.74	3098.74
559.10	3105.55
559.45	3112.19
559.81	3119.97
560.16	3125.41
560.52	3131.02
560.87	3137.05
561.23	3141.58
561.58	3146.79
561.94	3151.19
562.29	3155.50
562.64	3159.11
563.00	3163.40
563.35	3168.89
563.71	3174.39
564.06	3179.14
564.42	3183.46
564.77	3187.02
565.12	3191.78
565.48	3195.94
565.83	3198.83
566.19	3201.69
566.54	3203.78
566.89	3205.31
567.25	3206.00
567.60	3208.35
567.96	3209.83
568.31	3210.49
568.66	3212.57
569.02	3214.14
569.37	3214.68
569.72	3215.88
570.08	3216.94
570.43	3217.19
570.78	3215.85
571.14	3214.08
571.49	3212.68
571.84	3212.69
572.20	3210.44
572.55	3207.55
572.90	3204.19
573.26	3202.78
573.61	3199.61
573.96	3197.04
574.31	3193.68
574.67	3188.95
575.02	3184.93
575.37	3181.40
575.72	3176.29
576.08	3171.80
576.43	3166.30
576.78	3162.29
577.13	3158.07
577.49	3153.64
577.84	3148.37
578.19	3143.17
578.54	3137.64
578.90	3131.70
579.25	3123.57
579.60	3117.53
579.95	3110.83
580.30	3104.36
580.66	3096.62
581.01	3089.41
581.36	3082.51
581.71	3075.98
582.06	3069.90
582.42	3062.14
582.77	3054.08
583.12	3046.96
583.47	3039.68
583.82	3033.26
584.17	3025.43
584.53	3017.66
584.88	3009.85
585.23	3002.22
585.58	2994.32
585.93	2986.90
586.28	2980.07
586.63	2973.40
586.98	2965.79
587.34	2958.52
587.69	2951.00
588.04	2943.74
588.39	2936.88
588.74	2927.43
589.09	2918.80
589.44	2909.58
589.79	2901.73
590.14	2894.13
590.49	2885.85
590.84	2877.22
591.19	2867.98
591.54	2857.97
591.89	2846.86
592.25	2837.02
592.60	2826.41
592.95	2816.02
593.30	2805.19
593.65	2794.22
594.00	2783.86
594.35	2774.32
594.70	2763.08
595.05	2753.50
595.40	2742.73
595.75	2731.09
596.10	2722.33
596.45	2712.69
596.80	2704.39
597.15	2694.67
597.50	2683.97
597.85	2674.68
598.19	2665.18
598.54	2655.83
598.89	2646.80
599.24	2638.64
599.59	2629.49
599.94	2620.88
600.29	2611.90
600.64	2602.92
600.99	2592.31
601.34	2582.38
601.69	2571.79
602.04	2562.51
602.39	2552.50
602.74	2543.56
603.08	2535.11
603.43	2525.98
603.78	2516.40
604.13	2505.71
604.48	2495.47
604.83	2486.01
605.18	2476.10
605.53	2464.74
605.87	2452.77
606.22	2442.24
606.57	2431.10
606.92	2420.65
607.27	2410.37
607.62	2400.73
607.96	2390.64
608.31	2381.24
608.66	2370.91
609.01	2359.71
609.36	2348.42
609.70	2336.00
610.05	2323.53
610.40	2311.40
610.75	2299.36
611.10	2287.42
611.44	2274.77
611.79	2263.85
612.14	2252.03
612.49	2238.98
612.83	2227.29
613.18	2216.28
613.53	2204.93
613.88	2192.91
614.22	2180.71
614.57	2168.31
614.92	2156.56
615.27	2145.00
615.61	2133.35
615.96	2121.41
616.31	2110.81
616.65	2100.84
617.00	2090.98
617.35	2080.52
617.70	2069.21
618.04	2057.46
618.39	2046.32
618.74	2035.93
619.08	2024.17
619.43	2013.31
619.78	2003.23
620.12	1992.82
620.47	1981.82
620.82	1970.20
621.16	1959.76
621.51	1948.99
621.85	1938.02
622.20	1926.58
622.55	1915.28
622.89	1904.59
623.24	1894.27
623.59	1884.20
623.93	1873.53
624.28	1862.85
624.62	1851.43
624.97	1841.61
625.32	1831.77
625.66	1821.46
626.01	1811.27
626.35	1800.68
626.70	1790.00
627.04	1779.82
627.39	1769.31
627.73	1758.82
628.08	1749.19
628.43	1738.57
628.77	1728.25
629.12	1717.57
629.46	1706.73
629.81	1695.46
630.15	1684.27
630.50	1673.44
630.84	1661.62
631.19	1650.04
631.53	1638.74
631.88	1627.81
632.22	1616.38
632.57	1605.64
632.91	1594.95
633.26	1583.66
633.60	1572.74
633.95	1561.96
634.29	1551.13
634.64	1541.20
634.98	1530.48
635.32	1520.34
635.67	1511.04
636.01	1500.61
636.36	1491.18
636.70	1481.69
637.05	1472.38
637.39	1463.50
637.73	1453.90
638.08	1445.25
638.42	1436.36
638.77	1427.20
639.11	1418.26
639.45	1409.29
639.80	1399.66
640.14	1390.27
640.49	1381.53
640.83	1372.13
641.17	1363.02
641.52	1353.69
641.86	1344.01
642.20	1335.72
642.55	1326.24
642.89	1317.20
643.23	1307.89
643.58	1299.38
643.92	1290.29
644.26	1281.13
644.61	1272.27
644.95	1263.55
645.29	1253.73
645.64	1244.42
645.98	1235.44
646.32	1226.90
646.66	1217.70
647.01	1208.94
647.35	1200.47
647.69	1191.74
648.04	1184.04
648.38	1175.48
648.72	1166.94
649.06	1158.10
649.41	1149.24
649.75	1140.15
650.09	1131.07
650.43	1122.99
650.78	1113.47
651.12	1104.74
651.46	1096.63
651.80	1087.98
652.14	1079.90
652.49	1071.72
652.83	1063.66
653.17	1055.24
653.51	1046.75
653.85	1038.70
654.20	1030.46
654.54	1021.91
654.88	1013.50
655.22	1004.70
655.56	996.44
655.90	988.43
656.25	980.75
656.59	972.89
656.93	965.62
657.27	958.12
657.61	949.97
657.95	942.92
658.29	935.70
658.64	928.02
658.98	919.98
659.32	911.64
659.66	904.25
660.00	896.81
660.34	889.79
660.68	882.80
661.02	875.59
661.36	868.67
661.70	861.86
662.05	855.55
662.39	849.13
662.73	842.75
663.07	836.36
663.41	829.93
663.75	823.50
664.09	816.91
664.43	810.34
664.77	804.32
665.11	798.08
665.45	791.89
665.79	786.03
666.13	780.32
666.47	774.44
666.81	768.48
667.15	762.42
667.49	756.60
667.83	750.72
668.17	744.98
668.51	739.25
668.85	733.52
669.19	727.62
669.53	721.98
669.87	716.19
670.21	710.89
670.55	705.59
670.89	700.53
671.23	695.62
671.57	690.70
671.91	685.83
672.25	680.73
672.58	675.74
672.92	670.75
673.26	666.07
673.60	661.66
673.94	657.16
674.28	652.71
674.62	648.31
674.96	644.01
675.30	639.85
675.64	635.57
675.97	631.30
676.31	627.06
676.65	622.85
676.99	618.77
677.33	614.20
677.67	609.94
678.01	605.36
678.34	601.12
678.68	597.02
679.02	592.78
679.36	588.54
679.70	584.67
680.04	580.79
680.37	576.78
680.71	572.87
681.05	569.21
681.39	565.42
681.73	561.75
682.06	558.26
682.40	554.62
682.74	550.96
683.08	547.59
683.42	544.00
683.75	540.65
684.09	536.99
684.43	533.60
684.77	530.07
685.10	526.96
685.44	523.49
685.78	520.18
686.12	516.97
686.45	513.90
686.79	510.61
687.13	507.48
687.46	504.26
687.80	500.80
688.14	497.32
688.48	494.26
688.81	490.94
689.15	487.78
689.49	484.67
689.82	481.63
690.16	478.48
690.50	475.62
690.83	472.59
691.17	469.74
691.51	466.88
691.84	464.29
692.18	461.54
692.52	458.80
692.85	455.81
693.19	453.00
693.52	450.23
693.86	447.57
694.20	445.06
694.53	442.38
694.87	439.92
695.21	437.54
695.54	434.84
695.88	432.22
696.21	429.57
696.55	427.03
696.88	424.60
697.22	422.13
697.56	419.84
697.89	417.37
698.23	415.20
698.56	412.87
698.90	410.60
699.23	408.08
699.57	405.90
699.90	403.73
700.24	401.63
700.58	399.47
700.91	397.43
701.25	395.20
701.58	393.20
701.92	391.18
702.25	389.07
702.59	387.27
702.92	385.52
703.26	383.61
703.59	381.74
703.93	379.99
704.26	378.32
704.60	376.53
704.93	374.81
705.26	372.85
705.60	371.22
705.93	369.70
706.27	368.20
706.60	366.51
706.94	364.93
707.27	363.23
707.61	361.61
707.94	359.91
708.27	358.12
708.61	356.46
708.94	354.98
709.28	353.50
709.61	351.93
709.94	350.57
710.28	349.05
710.61	347.50
710.95	345.85
711.28	344.32
711.61	342.85
711.95	341.41
712.28	339.88
712.61	338.45
712.95	336.88
713.28	335.65
713.61	334.33
713.95	333.01
714.28	331.76
714.61	330.52
714.95	329.28
715.28	328.09
715.61	326.82
715.95	325.59
716.28	324.34
716.61	323.14
716.95	321.77
717.28	320.70
717.61	319.72
717.94	318.66
718.28	317.40
718.61	316.33
718.94	315.28
719.27	314.44
719.61	313.45
719.94	312.37
720.27	311.15
720.60	310.16
720.94	309.13
721.27	308.26
721.60	307.36
721.93	306.39
722.27	305.62
722.60	304.82
722.93	303.92
723.26	303.11
723.59	302.18
723.93	301.31
724.26	300.42
724.59	299.42
724.92	298.67
725.25	297.98
725.59	297.10
725.92	296.40
726.25	295.56
726.58	294.69
726.91	294.00
727.24	293.38
727.57	292.51
727.91	291.85
728.24	291.10
728.57	290.17
728.90	289.40
729.23	288.70
729.56	288.18
729.89	287.45
730.22	286.67
730.55	286.13
730.89	285.59
731.22	284.98
731.55	284.34
731.88	283.61
732.21	283.02
732.54	282.44
732.87	281.87
733.20	281.26
733.53	280.70
733.86	280.18
734.19	279.37
734.52	278.90
734.85	278.45
735.18	277.76
735.51	277.37
735.84	276.95
736.17	276.29
736.50	275.45
736.83	275.18
737.16	274.66
737.49	274.19
737.82	273.64
738.15	273.20
738.48	272.81
738.81	272.28
739.14	271.85
739.47	271.44
739.80	270.99
740.13	270.60
740.46	270.12
740.79	269.67
741.12	269.30
741.45	268.87
741.78	268.33
742.11	267.92
742.44	267.45
742.77	267.08
743.10	266.64
743.43	266.32
743.75	265.66
744.08	265.58
744.41	265.20
744.74	264.77
745.07	264.35
745.40	263.90
745.73	263.65
746.06	263.15
746.39	262.65
746.71	262.14
747.04	261.69
747.37	261.35
747.70	260.89
748.03	260.61
748.36	260.14
748.68	259.67
749.01	259.24
749.34	258.97
749.67	258.51
750.00	258.17
750.33	257.96
750.65	257.60
750.98	256.96
751.31	256.46
751.64	256.06
751.97	255.71
752.29	255.41
752.62	254.97
752.95	254.64
753.28	254.31
753.60	253.94
753.93	253.65
754.26	253.27
754.59	252.91
754.91	252.39
755.24	252.17
755.57	251.95
755.90	251.80
756.22	251.31
756.55	251.05
756.88	250.69
757.20	250.28
757.53	250.07
757.86	249.90
758.19	249.66
758.51	249.40
758.84	249.07
759.17	248.86
759.49	248.55
759.82	248.40
760.15	248.11
760.47	247.94
760.80	247.61
761.13	247.38
761.45	247.17
761.78	247.02
762.11	246.71
762.43	246.46
762.76	246.06
763.08	245.95
763.41	245.69
763.74	245.54
764.06	245.31
764.39	245.02
764.71	244.80
765.04	244.62
765.37	244.45
765.69	244.30
766.02	244.15
766.34	244.03
766.67	243.72
767.00	243.56
767.32	243.50
767.65	243.42
767.97	243.30
768.30	243.13
768.62	242.97
768.95	242.85
769.27	242.69
769.60	242.64
769.92	242.51
770.25	242.27
770.57	242.15
770.90	242.00
771.22	241.86
771.55	241.63
771.87	241.46
772.20	241.32
772.52	241.41
772.85	241.44
773.17	241.41
773.50	241.32
773.82	241.24
774.15	241.05
774.47	240.89
774.80	240.71
775.12	240.60
775.45	240.51
775.77	240.40
776.09	240.31
776.42	240.26
776.74	240.20
777.07	240.26
777.39	240.17
777.72	240.08
778.04	239.93
778.36	239.91
778.69	239.74
779.01	239.62
779.33	239.36
779.66	239.02
779.98	238.84
780.31	238.74
780.63	238.84
780.95	238.77
781.28	238.75
781.60	238.72
781.92	238.62
782.25	238.50
782.57	238.49
782.89	238.45
783.22	238.43
783.54	238.32
783.86	238.18
784.19	238.03
784.51	238.05
784.83	237.92
785.16	237.80
785.48	237.84
785.80	237.73
