SpectraSuite Data File
++++++++++++++++++++++++++++++++++++
Date: Fri Feb 01 14:39:59 EST 2013
User: group
Dark Spectrum Present: No
Reference Spectrum Present: No
Number of Sampled Component Spectra: 1
Spectrometers: USB2E7196
Integration Time (usec): 70000 (USB2E7196)
Spectra Averaged: 10 (USB2E7196)
Boxcar Smoothing: 10 (USB2E7196)
Correct for Electrical Dark: No (USB2E7196)
Strobe/Lamp Enabled: No (USB2E7196)
Correct for Detector Non-linearity: No (USB2E7196)
Correct for Stray Light: No (USB2E7196)
Number of Pixels in Processed Spectrum: 2048
>>>>>Begin Processed Spectral Data<<<<<
339.09	0.00
339.48	216.30
339.86	217.00
340.24	219.90
340.63	220.80
341.01	224.40
341.39	224.00
341.78	223.30
342.16	224.90
342.54	226.50
342.93	214.44
343.31	225.23
343.69	225.80
344.07	226.28
344.46	226.53
344.84	226.82
345.22	227.00
345.60	227.15
345.99	227.28
346.37	227.47
346.75	227.58
347.13	227.60
347.52	227.75
347.90	227.70
348.28	227.65
348.66	227.61
349.05	227.51
349.43	227.50
349.81	227.61
350.19	227.54
350.57	227.62
350.96	227.76
351.34	227.87
351.72	227.88
352.10	227.87
352.48	228.08
352.87	228.17
353.25	228.15
353.63	228.16
354.01	228.34
354.39	228.35
354.77	228.34
355.15	228.43
355.54	228.46
355.92	228.56
356.30	228.64
356.68	228.80
357.06	228.91
357.44	228.93
357.82	228.97
358.20	229.00
358.58	229.06
358.97	229.09
359.35	229.16
359.73	229.21
360.11	229.29
360.49	229.38
360.87	229.38
361.25	229.49
361.63	229.64
362.01	229.67
362.39	229.74
362.77	229.80
363.15	229.73
363.53	229.77
363.91	229.73
364.29	229.72
364.67	229.66
365.05	229.60
365.43	229.71
365.81	229.75
366.19	229.85
366.57	229.83
366.95	229.90
367.33	229.84
367.71	229.84
368.09	229.94
368.47	229.90
368.85	229.88
369.23	229.92
369.61	229.80
369.99	229.77
370.37	229.74
370.75	229.85
371.13	229.89
371.51	229.78
371.89	229.83
372.27	229.91
372.65	229.83
373.03	229.80
373.41	229.73
373.78	229.71
374.16	229.68
374.54	229.63
374.92	229.51
375.30	229.48
375.68	229.47
376.06	229.40
376.44	229.28
376.82	229.17
377.19	229.10
377.57	229.00
377.95	229.01
378.33	228.90
378.71	228.74
379.09	228.71
379.47	228.71
379.84	228.57
380.22	228.46
380.60	228.35
380.98	228.43
381.36	228.35
381.73	228.17
382.11	228.06
382.49	228.01
382.87	227.90
383.25	227.84
383.62	228.03
384.00	227.85
384.38	227.88
384.76	228.01
385.13	228.04
385.51	228.07
385.89	227.89
386.27	227.78
386.64	227.72
387.02	227.60
387.40	227.64
387.78	227.66
388.15	227.55
388.53	227.43
388.91	227.38
389.29	227.40
389.66	227.39
390.04	227.34
390.42	227.35
390.79	227.29
391.17	227.31
391.55	227.15
391.92	227.29
392.30	227.21
392.68	227.20
393.05	227.10
393.43	227.08
393.81	227.15
394.18	227.10
394.56	227.12
394.94	227.22
395.31	227.14
395.69	227.23
396.06	227.30
396.44	227.51
396.82	227.54
397.19	227.66
397.57	227.67
397.95	227.78
398.32	227.75
398.70	227.88
399.07	227.95
399.45	227.81
399.82	227.86
400.20	227.99
400.58	227.91
400.95	228.05
401.33	228.15
401.70	228.29
402.08	228.49
402.45	228.57
402.83	228.72
403.20	228.87
403.58	228.91
403.95	229.03
404.33	229.14
404.71	229.26
405.08	229.50
405.46	229.63
405.83	229.67
406.21	229.95
406.58	230.13
406.96	230.26
407.33	230.53
407.70	230.66
408.08	230.82
408.45	231.15
408.83	231.29
409.20	231.52
409.58	231.66
409.95	231.84
410.33	232.10
410.70	232.29
411.08	232.58
411.45	232.91
411.82	233.27
412.20	233.52
412.57	233.91
412.95	234.00
413.32	234.52
413.69	235.00
414.07	235.29
414.44	235.72
414.82	236.14
415.19	236.65
415.56	237.26
415.94	237.74
416.31	238.29
416.68	238.91
417.06	239.56
417.43	240.27
417.81	241.13
418.18	241.91
418.55	242.68
418.93	243.51
419.30	244.33
419.67	245.25
420.04	246.30
420.42	247.27
420.79	248.59
421.16	249.66
421.54	250.91
421.91	252.10
422.28	253.34
422.66	254.75
423.03	256.12
423.40	257.34
423.77	258.82
424.15	260.30
424.52	261.76
424.89	263.40
425.26	264.85
425.64	266.37
426.01	268.00
426.38	269.74
426.75	271.46
427.13	273.25
427.50	275.10
427.87	276.83
428.24	278.65
428.61	280.29
428.99	282.22
429.36	284.29
429.73	286.60
430.10	288.65
430.47	290.70
430.85	292.81
431.22	295.14
431.59	297.80
431.96	300.09
432.33	302.67
432.70	304.99
433.08	307.86
433.45	310.50
433.82	313.01
434.19	316.00
434.56	318.92
434.93	321.56
435.30	324.21
435.68	327.38
436.05	330.44
436.42	333.30
436.79	335.91
437.16	338.61
437.53	341.37
437.90	344.36
438.27	347.26
438.64	350.22
439.01	352.93
439.38	355.14
439.75	357.31
440.13	359.98
440.50	362.46
440.87	364.42
441.24	366.36
441.61	368.79
441.98	370.41
442.35	372.40
442.72	374.30
443.09	376.18
443.46	377.19
443.83	377.61
444.20	378.38
444.57	379.36
444.94	379.69
445.31	380.10
445.68	380.57
446.05	380.50
446.42	380.02
446.79	379.53
447.16	379.05
447.53	378.89
447.90	377.70
448.27	376.81
448.64	375.49
449.01	374.50
449.37	372.52
449.74	370.60
450.11	368.43
450.48	366.09
450.85	363.56
451.22	361.39
451.59	359.37
451.96	357.36
452.33	354.82
452.70	352.54
453.07	349.69
453.43	346.69
453.80	344.04
454.17	341.46
454.54	338.79
454.91	336.06
455.28	333.33
455.65	330.76
456.02	328.20
456.38	325.75
456.75	323.03
457.12	320.77
457.49	318.44
457.86	316.06
458.23	314.12
458.59	312.01
458.96	309.86
459.33	308.12
459.70	306.18
460.07	304.55
460.43	302.69
460.80	301.00
461.17	299.53
461.54	297.97
461.91	296.39
462.27	294.97
462.64	293.56
463.01	292.18
463.38	290.83
463.74	289.30
464.11	288.12
464.48	287.01
464.85	285.70
465.21	284.80
465.58	283.76
465.95	282.64
466.32	281.57
466.68	280.64
467.05	279.54
467.42	278.50
467.78	277.43
468.15	276.49
468.52	275.73
468.88	274.63
469.25	273.76
469.62	273.08
469.98	272.26
470.35	271.59
470.72	270.79
471.08	269.97
471.45	269.34
471.82	268.74
472.18	267.95
472.55	267.42
472.92	266.66
473.28	266.00
473.65	265.41
474.02	264.94
474.38	264.34
474.75	263.98
475.11	263.51
475.48	263.10
475.85	262.73
476.21	262.36
476.58	262.06
476.94	261.77
477.31	261.46
477.67	261.32
478.04	261.01
478.41	260.71
478.77	260.67
479.14	260.32
479.50	260.06
479.87	259.81
480.23	259.58
480.60	259.50
480.96	259.32
481.33	259.14
481.69	258.96
482.06	258.85
482.42	258.64
482.79	258.46
483.15	258.41
483.52	258.36
483.88	258.21
484.25	258.08
484.61	257.95
484.98	257.85
485.34	257.87
485.71	257.82
486.07	257.83
486.44	257.66
486.80	257.68
487.17	257.65
487.53	257.81
487.90	257.90
488.26	258.06
488.62	258.20
488.99	258.35
489.35	258.66
489.72	258.78
490.08	258.97
490.44	259.17
490.81	259.35
491.17	259.54
491.54	259.90
491.90	260.23
492.26	260.58
492.63	260.84
492.99	261.10
493.36	261.47
493.72	261.95
494.08	262.48
494.45	262.97
494.81	263.55
495.17	263.98
495.54	264.68
495.90	265.09
496.26	265.77
496.63	266.29
496.99	266.74
497.35	267.45
497.72	268.27
498.08	269.05
498.44	269.88
498.80	270.80
499.17	271.76
499.53	272.72
499.89	273.67
500.26	274.72
500.62	275.77
500.98	277.02
501.34	278.11
501.71	279.31
502.07	280.71
502.43	281.94
502.79	283.32
503.16	284.75
503.52	286.35
503.88	287.80
504.24	289.61
504.60	291.50
504.97	293.44
505.33	295.32
505.69	297.46
506.05	299.59
506.41	301.79
506.78	303.96
507.14	306.22
507.50	308.67
507.86	311.31
508.22	313.91
508.59	316.56
508.95	319.58
509.31	322.46
509.67	325.39
510.03	328.59
510.39	332.02
510.75	335.32
511.12	338.83
511.48	342.45
511.84	346.12
512.20	349.97
512.56	353.81
512.92	357.89
513.28	362.02
513.64	366.30
514.00	370.65
514.37	375.16
514.73	379.92
515.09	384.72
515.45	389.33
515.81	394.08
516.17	399.18
516.53	404.41
516.89	409.82
517.25	415.38
517.61	420.99
517.97	426.65
518.33	432.31
518.69	438.20
519.05	444.17
519.41	450.42
519.77	456.72
520.13	463.28
520.49	469.74
520.85	476.18
521.21	482.91
521.57	489.79
521.93	496.45
522.29	503.63
522.65	510.66
523.01	518.05
523.37	525.52
523.73	532.76
524.09	539.90
524.45	547.27
524.81	554.92
525.17	562.99
525.53	570.86
525.89	579.10
526.25	587.26
526.61	595.41
526.97	603.62
527.33	611.90
527.68	620.49
528.04	629.09
528.40	637.81
528.76	646.61
529.12	655.66
529.48	664.76
529.84	673.39
530.20	682.53
530.56	691.90
530.91	701.22
531.27	710.87
531.63	720.41
531.99	730.22
532.35	739.57
532.71	748.54
533.07	758.07
533.42	767.64
533.78	777.37
534.14	786.99
534.50	796.36
534.86	806.09
535.21	815.55
535.57	825.36
535.93	835.13
536.29	845.03
536.65	854.60
537.00	864.46
537.36	874.23
537.72	883.65
538.08	893.05
538.44	902.82
538.79	912.41
539.15	922.08
539.51	931.77
539.87	942.01
540.22	952.00
540.58	962.03
540.94	971.75
541.29	981.50
541.65	991.38
542.01	1001.24
542.37	1010.87
542.72	1020.22
543.08	1029.76
543.44	1039.12
543.79	1047.89
544.15	1057.14
544.51	1066.86
544.87	1076.15
545.22	1085.64
545.58	1094.61
545.94	1103.23
546.29	1112.00
546.65	1120.79
547.01	1129.30
547.36	1137.42
547.72	1145.81
548.07	1154.04
548.43	1162.16
548.79	1170.00
549.14	1177.68
549.50	1185.38
549.86	1193.02
550.21	1200.76
550.57	1208.13
550.92	1215.94
551.28	1223.77
551.64	1231.28
551.99	1238.37
552.35	1245.55
552.70	1252.62
553.06	1260.45
553.41	1267.81
553.77	1274.84
554.13	1282.02
554.48	1289.01
554.84	1295.92
555.19	1302.64
555.55	1309.49
555.90	1315.79
556.26	1322.46
556.61	1329.02
556.97	1335.38
557.32	1342.07
557.68	1348.25
558.03	1354.58
558.39	1360.32
558.74	1366.49
559.10	1372.22
559.45	1377.93
559.81	1384.18
560.16	1389.91
560.52	1395.11
560.87	1400.82
561.23	1405.94
561.58	1411.36
561.94	1416.41
562.29	1420.82
562.64	1425.96
563.00	1430.46
563.35	1435.99
563.71	1440.95
564.06	1446.16
564.42	1451.00
564.77	1455.18
565.12	1459.88
565.48	1464.12
565.83	1468.32
566.19	1472.14
566.54	1476.08
566.89	1479.88
567.25	1483.55
567.60	1487.37
567.96	1491.21
568.31	1494.21
568.66	1497.81
569.02	1500.61
569.37	1503.51
569.72	1506.86
570.08	1509.42
570.43	1512.23
570.78	1514.17
571.14	1515.90
571.49	1517.69
571.84	1520.26
572.20	1521.89
572.55	1523.34
572.90	1524.79
573.26	1526.41
573.61	1527.87
573.96	1528.96
574.31	1529.54
574.67	1529.46
575.02	1530.09
575.37	1530.35
575.72	1530.72
576.08	1530.97
576.43	1531.16
576.78	1531.20
577.13	1531.60
577.49	1531.81
577.84	1531.30
578.19	1531.32
578.54	1530.76
578.90	1530.10
579.25	1528.52
579.60	1527.75
579.95	1526.81
580.30	1525.60
580.66	1524.26
581.01	1523.16
581.36	1522.20
581.71	1521.37
582.06	1520.38
582.42	1518.98
582.77	1517.23
583.12	1515.60
583.47	1514.43
583.82	1513.21
584.17	1511.63
584.53	1510.08
584.88	1508.26
585.23	1506.84
585.58	1505.18
585.93	1504.10
586.28	1502.80
586.63	1501.55
586.98	1500.10
587.34	1498.39
587.69	1496.81
588.04	1495.38
588.39	1493.55
588.74	1490.45
589.09	1487.91
589.44	1485.23
589.79	1482.55
590.14	1480.69
590.49	1478.38
590.84	1475.54
591.19	1472.62
591.54	1469.29
591.89	1465.38
592.25	1462.41
592.60	1458.54
592.95	1454.51
593.30	1450.50
593.65	1446.64
594.00	1442.89
594.35	1439.37
594.70	1435.49
595.05	1431.76
595.40	1427.60
595.75	1423.26
596.10	1420.42
596.45	1417.20
596.80	1414.31
597.15	1410.97
597.50	1407.14
597.85	1404.14
598.19	1400.84
598.54	1397.54
598.89	1394.55
599.24	1392.19
599.59	1388.76
599.94	1386.00
600.29	1383.00
600.64	1379.81
600.99	1375.75
601.34	1372.39
601.69	1368.54
602.04	1365.34
602.39	1361.93
602.74	1358.91
603.08	1355.94
603.43	1352.56
603.78	1348.88
604.13	1345.20
604.48	1341.23
604.83	1337.62
605.18	1333.54
605.53	1328.69
605.87	1323.76
606.22	1320.10
606.57	1315.08
606.92	1310.48
607.27	1306.20
607.62	1302.25
607.96	1297.99
608.31	1294.53
608.66	1289.94
609.01	1285.32
609.36	1280.05
609.70	1275.01
610.05	1269.64
610.40	1264.53
610.75	1259.45
611.10	1254.04
611.44	1248.33
611.79	1243.55
612.14	1237.83
612.49	1231.98
612.83	1226.98
613.18	1222.06
613.53	1216.52
613.88	1211.11
614.22	1205.99
614.57	1200.40
614.92	1194.64
615.27	1189.47
615.61	1183.92
615.96	1178.63
616.31	1173.68
616.65	1169.45
617.00	1164.58
617.35	1159.73
617.70	1154.50
618.04	1148.86
618.39	1143.80
618.74	1139.08
619.08	1133.61
619.43	1128.79
619.78	1124.08
620.12	1119.28
620.47	1114.51
620.82	1109.06
621.16	1104.11
621.51	1099.03
621.85	1094.18
622.20	1089.00
622.55	1083.87
622.89	1078.60
623.24	1073.82
623.59	1068.82
623.93	1063.85
624.28	1058.93
624.62	1053.90
624.97	1048.89
625.32	1044.50
625.66	1039.98
626.01	1035.44
626.35	1030.76
626.70	1025.79
627.04	1020.89
627.39	1015.85
627.73	1010.68
628.08	1005.90
628.43	1001.09
628.77	996.21
629.12	990.93
629.46	985.90
629.81	980.47
630.15	975.40
630.50	970.16
630.84	964.77
631.19	959.29
631.53	953.71
631.88	948.37
632.22	942.95
632.57	937.87
632.91	932.49
633.26	926.95
633.60	921.81
633.95	916.66
634.29	911.80
634.64	907.08
634.98	902.23
635.32	897.59
635.67	892.98
636.01	888.20
636.36	883.45
636.70	878.97
637.05	874.72
637.39	870.31
637.73	865.71
638.08	861.70
638.42	857.13
638.77	853.12
639.11	848.77
639.45	844.75
639.80	840.08
640.14	835.88
640.49	831.50
640.83	826.92
641.17	822.62
641.52	818.17
641.86	813.24
642.20	809.09
642.55	804.54
642.89	800.01
643.23	795.63
643.58	791.80
643.92	787.38
644.26	783.08
644.61	779.18
644.95	774.89
645.29	769.92
645.64	765.41
645.98	761.09
646.32	756.96
646.66	752.58
647.01	748.18
647.35	743.71
647.69	739.52
648.04	735.56
648.38	731.32
648.72	726.80
649.06	722.58
649.41	717.99
649.75	713.40
650.09	709.18
650.43	704.78
650.78	699.93
651.12	695.62
651.46	691.44
651.80	686.81
652.14	682.61
652.49	678.80
652.83	675.05
653.17	670.73
653.51	666.37
653.85	662.28
654.20	658.40
654.54	654.01
654.88	649.79
655.22	645.44
655.56	641.03
655.90	637.12
656.25	633.40
656.59	629.66
656.93	626.10
657.27	622.26
657.61	618.20
657.95	614.68
658.29	610.89
658.64	606.89
658.98	603.11
659.32	599.33
659.66	595.63
660.00	591.92
660.34	588.25
660.68	584.69
661.02	580.88
661.36	577.26
661.70	574.03
662.05	570.76
662.39	567.64
662.73	564.63
663.07	561.40
663.41	558.29
663.75	554.93
664.09	551.70
664.43	548.45
664.77	545.63
665.11	542.45
665.45	539.50
665.79	536.63
666.13	533.54
666.47	530.38
666.81	527.11
667.15	523.69
667.49	520.57
667.83	517.56
668.17	514.65
668.51	511.68
668.85	508.60
669.19	505.72
669.53	502.87
669.87	499.86
670.21	497.01
670.55	494.19
670.89	491.73
671.23	489.28
671.57	486.89
671.91	484.04
672.25	481.48
672.58	479.02
672.92	476.20
673.26	473.76
673.60	471.51
673.94	469.17
674.28	467.11
674.62	464.98
674.96	462.80
675.30	460.64
675.64	458.37
675.97	456.27
676.31	454.07
676.65	451.82
676.99	449.83
677.33	447.58
677.67	445.33
678.01	442.82
678.34	440.51
678.68	438.31
679.02	436.48
679.36	434.27
679.70	432.09
680.04	430.22
680.37	428.22
680.71	426.35
681.05	424.59
681.39	422.60
681.73	420.61
682.06	418.72
682.40	416.90
682.74	415.13
683.08	413.27
683.42	411.47
683.75	409.64
684.09	407.73
684.43	405.97
684.77	404.15
685.10	402.55
685.44	400.80
685.78	398.94
686.12	396.97
686.45	395.32
686.79	393.50
687.13	391.67
687.46	389.85
687.80	387.96
688.14	386.19
688.48	384.55
688.81	382.77
689.15	381.12
689.49	379.40
689.82	377.75
690.16	376.02
690.50	374.30
690.83	372.62
691.17	370.92
691.51	369.56
691.84	368.06
692.18	366.48
692.52	364.81
692.85	363.27
693.19	361.81
693.52	360.22
693.86	358.70
694.20	357.33
694.53	355.84
694.87	354.33
695.21	352.77
695.54	351.14
695.88	349.75
696.21	348.26
696.55	346.92
696.88	345.45
697.22	344.09
697.56	342.83
697.89	341.30
698.23	340.03
698.56	338.57
698.90	337.23
699.23	335.85
699.57	334.44
699.90	333.18
700.24	331.85
700.58	330.61
700.91	329.43
701.25	328.24
701.58	327.08
701.92	325.89
702.25	324.70
702.59	323.58
702.92	322.42
703.26	321.30
703.59	320.18
703.93	319.16
704.26	318.03
704.60	316.84
704.93	315.95
705.26	314.98
705.60	313.97
705.93	312.99
706.27	311.95
706.60	311.11
706.94	310.20
707.27	309.27
707.61	308.37
707.94	307.33
708.27	306.31
708.61	305.45
708.94	304.52
709.28	303.66
709.61	302.68
709.94	301.85
710.28	300.86
710.61	300.01
710.95	299.04
711.28	298.46
711.61	297.66
711.95	296.86
712.28	296.01
712.61	295.07
712.95	294.13
713.28	293.52
713.61	292.77
713.95	291.89
714.28	291.15
714.61	290.31
714.95	289.68
715.28	288.91
715.61	288.00
715.95	287.40
716.28	286.69
716.61	286.13
716.95	285.55
717.28	285.04
717.61	284.30
717.94	283.77
718.28	282.87
718.61	282.34
718.94	281.74
719.27	281.05
719.61	280.61
719.94	280.27
720.27	279.67
720.60	279.12
720.94	278.68
721.27	278.20
721.60	277.83
721.93	277.40
722.27	277.02
722.60	276.68
722.93	276.14
723.26	275.72
723.59	275.21
723.93	274.68
724.26	274.12
724.59	273.74
724.92	273.27
725.25	273.03
725.59	272.60
725.92	272.16
726.25	271.76
726.58	271.29
726.91	270.87
727.24	270.48
727.57	270.02
727.91	269.64
728.24	269.23
728.57	268.79
728.90	268.29
729.23	267.81
729.56	267.37
729.89	266.97
730.22	266.59
730.55	266.23
730.89	265.85
731.22	265.48
731.55	265.06
731.88	264.64
732.21	264.13
732.54	263.70
732.87	263.30
733.20	262.90
733.53	262.57
733.86	262.25
734.19	261.90
734.52	261.54
734.85	261.19
735.18	260.82
735.51	260.46
735.84	260.18
736.17	259.87
736.50	259.53
736.83	259.45
737.16	259.03
737.49	258.61
737.82	258.20
738.15	257.89
738.48	257.54
738.81	257.29
739.14	257.02
739.47	256.69
739.80	256.36
740.13	256.09
740.46	255.81
740.79	255.38
741.12	255.08
741.45	254.89
741.78	254.52
742.11	254.22
742.44	253.90
742.77	253.58
743.10	253.20
743.43	252.89
743.75	252.36
744.08	252.32
744.41	252.17
744.74	251.89
745.07	251.63
745.40	251.48
745.73	251.27
746.06	250.90
746.39	250.59
746.71	250.39
747.04	250.18
747.37	249.87
747.70	249.68
748.03	249.30
748.36	248.95
748.68	248.66
749.01	248.41
749.34	248.28
749.67	248.06
750.00	247.90
750.33	247.82
750.65	247.69
750.98	247.27
751.31	247.00
751.64	246.88
751.97	246.69
752.29	246.40
752.62	246.15
752.95	246.10
753.28	245.94
753.60	245.65
753.93	245.43
754.26	245.26
754.59	245.00
754.91	244.85
755.24	244.65
755.57	244.49
755.90	244.27
756.22	243.97
756.55	243.77
756.88	243.46
757.20	243.15
757.53	242.79
757.86	242.70
758.19	242.53
758.51	242.41
758.84	242.12
759.17	241.96
759.49	241.77
759.82	241.61
760.15	241.39
760.47	241.29
760.80	240.99
761.13	240.81
761.45	240.66
761.78	240.47
762.11	240.30
762.43	240.18
762.76	240.10
763.08	240.04
763.41	239.93
763.74	239.86
764.06	239.71
764.39	239.66
764.71	239.47
765.04	239.37
765.37	239.19
765.69	239.12
766.02	238.92
766.34	238.75
766.67	238.57
767.00	238.56
767.32	238.57
767.65	238.68
767.97	238.54
768.30	238.47
768.62	238.47
768.95	238.42
769.27	238.22
769.60	238.13
769.92	238.07
770.25	238.00
770.57	237.92
770.90	237.78
771.22	237.72
771.55	237.70
771.87	237.67
772.20	237.52
772.52	237.61
772.85	237.83
773.17	237.76
773.50	237.63
773.82	237.48
774.15	237.27
774.47	237.05
774.80	237.02
775.12	236.93
775.45	236.75
775.77	236.71
776.09	236.76
776.42	236.69
776.74	236.61
777.07	236.53
777.39	236.57
777.72	236.61
778.04	236.56
778.36	236.40
778.69	236.27
779.01	236.30
779.33	236.09
779.66	235.80
779.98	235.72
780.31	235.76
780.63	235.72
780.95	235.59
781.28	235.54
781.60	235.41
781.92	235.25
782.25	235.14
782.57	235.01
782.89	234.90
783.22	234.77
783.54	234.60
783.86	234.50
784.19	234.48
784.51	234.35
784.83	234.20
785.16	234.20
785.48	234.18
785.80	234.08
786.12	234.06
786.45	233.89
786.77	233.80
787.09	233.68
787.42	233.62
787.74	233.68
788.06	233.65
788.38	233.53
788.71	233.47
789.03	233.49
