SpectraSuite Data File
++++++++++++++++++++++++++++++++++++
Date: Fri Feb 01 14:34:47 EST 2013
User: group
Dark Spectrum Present: No
Reference Spectrum Present: No
Number of Sampled Component Spectra: 1
Spectrometers: USB2E7196
Integration Time (usec): 70000 (USB2E7196)
Spectra Averaged: 10 (USB2E7196)
Boxcar Smoothing: 10 (USB2E7196)
Correct for Electrical Dark: No (USB2E7196)
Strobe/Lamp Enabled: No (USB2E7196)
Correct for Detector Non-linearity: No (USB2E7196)
Correct for Stray Light: No (USB2E7196)
Number of Pixels in Processed Spectrum: 2048
>>>>>Begin Processed Spectral Data<<<<<
339.09	0.00
339.48	216.40
339.86	216.70
340.24	216.40
340.63	221.30
341.01	224.90
341.39	224.40
341.78	223.10
342.16	227.30
342.54	225.90
342.93	214.15
343.31	224.95
343.69	225.47
344.07	225.94
344.46	226.55
344.84	226.87
345.22	226.93
345.60	227.07
345.99	227.21
346.37	227.24
346.75	227.34
347.13	227.30
347.52	227.39
347.90	227.52
348.28	227.55
348.66	227.70
349.05	227.68
349.43	227.70
349.81	227.83
350.19	227.78
350.57	227.77
350.96	227.97
351.34	228.08
351.72	228.20
352.10	228.30
352.48	228.20
352.87	228.34
353.25	228.51
353.63	228.60
354.01	228.71
354.39	228.82
354.77	228.82
355.15	229.09
355.54	229.07
355.92	229.17
356.30	229.23
356.68	229.42
357.06	229.49
357.44	229.54
357.82	229.61
358.20	229.71
358.58	229.77
358.97	229.87
359.35	229.94
359.73	230.03
360.11	230.14
360.49	230.36
360.87	230.34
361.25	230.35
361.63	230.42
362.01	230.57
362.39	230.55
362.77	230.72
363.15	230.75
363.53	230.82
363.91	230.73
364.29	230.79
364.67	230.61
365.05	230.72
365.43	230.71
365.81	230.81
366.19	230.95
366.57	231.06
366.95	231.00
367.33	230.96
367.71	230.92
368.09	230.91
368.47	230.81
368.85	230.79
369.23	230.84
369.61	230.75
369.99	230.72
370.37	230.77
370.75	230.74
371.13	230.65
371.51	230.58
371.89	230.63
372.27	230.56
372.65	230.58
373.03	230.40
373.41	230.38
373.78	230.23
374.16	230.08
374.54	229.96
374.92	229.83
375.30	229.76
375.68	229.60
376.06	229.52
376.44	229.55
376.82	229.48
377.19	229.38
377.57	229.32
377.95	229.22
378.33	229.12
378.71	228.94
379.09	228.87
379.47	228.84
379.84	228.65
380.22	228.58
380.60	228.43
380.98	228.31
381.36	228.18
381.73	228.02
382.11	227.96
382.49	227.94
382.87	227.74
383.25	227.65
383.62	227.81
384.00	227.72
384.38	227.60
384.76	227.50
385.13	227.54
385.51	227.46
385.89	227.29
386.27	227.15
386.64	227.16
387.02	227.11
387.40	227.05
387.78	227.09
388.15	226.99
388.53	226.97
388.91	226.95
389.29	226.90
389.66	227.03
390.04	227.00
390.42	227.00
390.79	227.09
391.17	227.09
391.55	226.94
391.92	226.89
392.30	226.82
392.68	226.88
393.05	226.74
393.43	226.83
393.81	226.94
394.18	226.98
394.56	227.09
394.94	227.18
395.31	227.21
395.69	227.27
396.06	227.34
396.44	227.47
396.82	227.64
397.19	227.87
397.57	227.87
397.95	227.90
398.32	227.90
398.70	228.03
399.07	228.25
399.45	228.33
399.82	228.57
400.20	228.79
400.58	228.92
400.95	229.11
401.33	229.30
401.70	229.63
402.08	229.83
402.45	229.97
402.83	230.24
403.20	230.47
403.58	230.72
403.95	231.02
404.33	231.25
404.71	231.52
405.08	231.91
405.46	232.16
405.83	232.53
406.21	232.99
406.58	233.36
406.96	233.74
407.33	234.20
407.70	234.73
408.08	235.46
408.45	236.05
408.83	236.55
409.20	237.17
409.58	237.67
409.95	238.36
410.33	239.10
410.70	239.70
411.08	240.47
411.45	241.35
411.82	242.16
412.20	243.24
412.57	244.30
412.95	245.20
413.32	246.41
413.69	247.60
414.07	248.86
414.44	250.19
414.82	251.56
415.19	253.04
415.56	254.51
415.94	255.97
416.31	257.81
416.68	259.74
417.06	261.76
417.43	263.77
417.81	266.05
418.18	268.37
418.55	270.93
418.93	273.61
419.30	276.28
419.67	279.20
420.04	282.14
420.42	285.30
420.79	288.82
421.16	292.46
421.54	296.09
421.91	299.89
422.28	303.90
422.66	308.07
423.03	312.14
423.40	316.54
423.77	321.08
424.15	325.68
424.52	330.56
424.89	335.85
425.26	341.08
425.64	345.93
426.01	351.18
426.38	356.65
426.75	362.17
427.13	368.00
427.50	374.19
427.87	380.43
428.24	386.69
428.61	392.74
428.99	399.31
429.36	406.60
429.73	413.59
430.10	420.65
430.47	427.88
430.85	435.40
431.22	443.25
431.59	451.35
431.96	459.18
432.33	467.84
432.70	476.19
433.08	485.92
433.45	495.47
433.82	504.77
434.19	515.24
434.56	525.27
434.93	535.03
435.30	544.55
435.68	555.08
436.05	565.57
436.42	576.02
436.79	585.48
437.16	595.79
437.53	606.50
437.90	617.25
438.27	627.69
438.64	638.61
439.01	648.68
439.38	657.71
439.75	666.62
440.13	676.67
440.50	686.39
440.87	694.48
441.24	702.52
441.61	711.64
441.98	718.34
442.35	726.39
442.72	734.29
443.09	742.16
443.46	747.36
443.83	750.86
444.20	754.23
444.57	758.88
444.94	761.48
445.31	764.48
445.68	767.08
446.05	768.93
446.42	769.07
446.79	769.02
447.16	769.14
447.53	769.42
447.90	766.69
448.27	763.63
448.64	758.92
449.01	756.20
449.37	750.20
449.74	744.53
450.11	737.37
450.48	729.57
450.85	721.65
451.22	715.02
451.59	708.85
451.96	702.54
452.33	693.89
452.70	686.05
453.07	676.49
453.43	666.86
453.80	657.40
454.17	648.40
454.54	639.78
454.91	630.33
455.28	621.10
455.65	612.48
456.02	603.72
456.38	596.56
456.75	587.23
457.12	579.62
457.49	571.78
457.86	564.26
458.23	557.74
458.59	550.50
458.96	542.93
459.33	536.32
459.70	529.88
460.07	524.60
460.43	518.47
460.80	512.70
461.17	507.54
461.54	502.31
461.91	497.21
462.27	491.90
462.64	487.69
463.01	482.69
463.38	478.01
463.74	473.32
464.11	469.15
464.48	465.32
464.85	461.13
465.21	458.07
465.58	454.80
465.95	450.97
466.32	447.73
466.68	444.69
467.05	441.45
467.42	438.28
467.78	434.77
468.15	431.54
468.52	429.13
468.88	426.12
469.25	423.21
469.62	421.02
469.98	418.65
470.35	416.20
470.72	414.12
471.08	411.80
471.45	409.91
471.82	407.73
472.18	405.50
472.55	403.94
472.92	401.95
473.28	400.30
473.65	398.51
474.02	396.75
474.38	395.16
474.75	393.84
475.11	392.33
475.48	391.24
475.85	390.35
476.21	389.30
476.58	388.39
476.94	387.90
477.31	386.93
477.67	386.14
478.04	385.46
478.41	384.95
478.77	384.52
479.14	384.10
479.50	383.89
479.87	383.96
480.23	383.87
480.60	383.62
480.96	383.39
481.33	383.62
481.69	383.67
482.06	383.75
482.42	383.79
482.79	383.91
483.15	384.42
483.52	384.98
483.88	385.30
484.25	385.74
484.61	386.12
484.98	386.73
485.34	387.58
485.71	388.55
486.07	389.49
486.44	390.62
486.80	391.67
487.17	392.74
487.53	393.97
487.90	395.34
488.26	397.02
488.62	398.61
488.99	400.17
489.35	401.78
489.72	403.61
490.08	405.70
490.44	407.88
490.81	410.10
491.17	412.04
491.54	414.45
491.90	416.68
492.26	419.16
492.63	421.81
492.99	424.44
493.36	427.06
493.72	429.84
494.08	432.65
494.45	435.52
494.81	438.79
495.17	441.68
495.54	444.80
495.90	448.02
496.26	451.32
496.63	454.82
496.99	458.37
497.35	462.04
497.72	465.60
498.08	469.20
498.44	472.76
498.80	476.97
499.17	480.71
499.53	484.59
499.89	488.52
500.26	492.24
500.62	495.99
500.98	499.87
501.34	503.96
501.71	507.92
502.07	512.04
502.43	515.95
502.79	519.92
503.16	523.95
503.52	527.94
503.88	532.02
504.24	535.98
504.60	539.93
504.97	543.77
505.33	547.74
505.69	552.12
506.05	556.10
506.41	559.69
506.78	563.50
507.14	567.47
507.50	571.35
507.86	575.14
508.22	579.05
508.59	582.81
508.95	586.42
509.31	590.23
509.67	593.97
510.03	597.52
510.39	601.27
510.75	604.69
511.12	608.05
511.48	611.43
511.84	614.44
512.20	617.90
512.56	621.26
512.92	624.39
513.28	627.04
513.64	630.01
514.00	632.91
514.37	635.81
514.73	638.64
515.09	641.22
515.45	643.89
515.81	646.42
516.17	649.08
516.53	651.50
516.89	653.76
517.25	656.01
517.61	658.44
517.97	660.61
518.33	662.81
518.69	664.98
519.05	667.04
519.41	669.33
519.77	671.39
520.13	673.46
520.49	675.53
520.85	677.47
521.21	679.20
521.57	681.34
521.93	682.89
522.29	684.84
522.65	686.74
523.01	688.37
523.37	689.94
523.73	691.54
524.09	693.12
524.45	694.81
524.81	696.45
525.17	698.13
525.53	699.87
525.89	701.40
526.25	703.14
526.61	704.55
526.97	706.13
527.33	707.55
527.68	709.38
528.04	710.83
528.40	712.47
528.76	714.44
529.12	716.31
529.48	718.46
529.84	719.89
530.20	721.65
530.56	723.73
530.91	725.92
531.27	727.96
531.63	730.19
531.99	732.12
532.35	734.15
532.71	735.83
533.07	737.88
533.42	740.24
533.78	742.09
534.14	744.43
534.50	746.64
534.86	748.88
535.21	750.57
535.57	752.88
535.93	755.13
536.29	757.35
536.65	759.37
537.00	761.55
537.36	764.13
537.72	766.42
538.08	768.69
538.44	770.92
538.79	773.26
539.15	775.33
539.51	777.98
539.87	780.62
540.22	783.43
540.58	786.27
540.94	788.66
541.29	791.14
541.65	794.04
542.01	796.75
542.37	799.30
542.72	802.07
543.08	804.90
543.44	807.81
543.79	810.30
544.15	813.10
544.51	816.31
544.87	819.41
545.22	822.33
545.58	825.09
545.94	827.85
546.29	830.64
546.65	833.64
547.01	836.36
547.36	838.96
547.72	841.41
548.07	843.96
548.43	846.76
548.79	849.78
549.14	852.30
549.50	854.66
549.86	857.55
550.21	860.14
550.57	862.90
550.92	865.51
551.28	868.31
551.64	870.69
551.99	873.00
552.35	875.31
552.70	877.85
553.06	880.76
553.41	883.63
553.77	886.60
554.13	889.07
554.48	891.66
554.84	894.29
555.19	897.10
555.55	899.84
555.90	902.22
556.26	904.90
556.61	907.40
556.97	910.12
557.32	912.66
557.68	915.62
558.03	918.07
558.39	920.61
558.74	923.38
559.10	926.28
559.45	929.09
559.81	931.95
560.16	934.35
560.52	937.01
560.87	939.64
561.23	941.94
561.58	944.87
561.94	947.20
562.29	949.49
562.64	951.95
563.00	954.27
563.35	956.94
563.71	959.68
564.06	962.36
564.42	964.91
564.77	967.56
565.12	969.78
565.48	972.09
565.83	974.27
566.19	976.56
566.54	978.53
566.89	980.59
567.25	982.47
567.60	985.19
567.96	987.16
568.31	988.89
568.66	990.70
569.02	992.28
569.37	994.00
569.72	995.73
570.08	997.02
570.43	998.43
570.78	999.90
571.14	1000.97
571.49	1002.22
571.84	1003.80
572.20	1004.52
572.55	1005.29
572.90	1006.33
573.26	1007.37
573.61	1007.73
573.96	1008.70
574.31	1008.72
574.67	1008.86
575.02	1008.56
575.37	1008.84
575.72	1009.04
576.08	1009.12
576.43	1009.12
576.78	1009.34
577.13	1009.82
577.49	1010.22
577.84	1010.50
578.19	1010.70
578.54	1010.62
578.90	1010.17
579.25	1009.36
579.60	1009.34
579.95	1008.98
580.30	1008.43
580.66	1007.65
581.01	1007.40
581.36	1006.75
581.71	1006.71
582.06	1006.25
582.42	1005.81
582.77	1004.94
583.12	1004.13
583.47	1003.50
583.82	1002.76
584.17	1001.81
584.53	1000.79
584.88	999.81
585.23	998.51
585.58	997.24
585.93	996.14
586.28	994.98
586.63	994.18
586.98	992.72
587.34	991.69
587.69	990.75
588.04	989.82
588.39	988.65
588.74	986.80
589.09	985.32
589.44	983.88
589.79	982.57
590.14	981.22
590.49	979.75
590.84	978.17
591.19	976.70
591.54	974.92
591.89	972.56
592.25	970.94
592.60	968.94
592.95	966.68
593.30	964.52
593.65	962.72
594.00	960.44
594.35	959.05
594.70	956.51
595.05	954.24
595.40	952.02
595.75	949.29
596.10	947.35
596.45	945.09
596.80	943.01
597.15	940.66
597.50	938.35
597.85	936.35
598.19	934.23
598.54	932.14
598.89	930.08
599.24	928.24
599.59	926.08
599.94	924.03
600.29	921.77
600.64	919.75
600.99	917.07
601.34	914.80
601.69	911.73
602.04	909.67
602.39	906.92
602.74	904.59
603.08	902.63
603.43	900.79
603.78	898.53
604.13	896.13
604.48	893.52
604.83	891.07
605.18	888.36
605.53	885.45
605.87	882.61
606.22	879.91
606.57	877.05
606.92	874.17
607.27	871.60
607.62	869.53
607.96	866.65
608.31	864.29
608.66	861.41
609.01	858.74
609.36	855.70
609.70	852.60
610.05	849.18
610.40	846.23
610.75	842.74
611.10	839.35
611.44	835.99
611.79	833.08
612.14	829.96
612.49	826.70
612.83	823.47
613.18	820.15
613.53	817.08
613.88	814.02
614.22	810.64
614.57	807.36
614.92	803.56
615.27	800.42
615.61	797.00
615.96	793.93
616.31	790.80
616.65	788.05
617.00	785.30
617.35	782.64
617.70	779.49
618.04	776.33
618.39	773.31
618.74	770.20
619.08	767.00
619.43	763.67
619.78	760.55
620.12	757.63
620.47	754.49
620.82	751.00
621.16	748.00
621.51	745.08
621.85	741.96
622.20	738.85
622.55	735.88
622.89	732.88
623.24	730.04
623.59	727.16
623.93	724.14
624.28	721.31
624.62	718.29
624.97	715.42
625.32	712.61
625.66	709.80
626.01	707.19
626.35	704.28
626.70	701.70
627.04	698.79
627.39	695.86
627.73	693.00
628.08	690.50
628.43	687.60
628.77	684.70
629.12	681.77
629.46	679.10
629.81	675.99
630.15	673.04
630.50	669.97
630.84	666.87
631.19	663.86
631.53	660.76
631.88	657.51
632.22	654.36
632.57	651.30
632.91	648.30
633.26	645.08
633.60	642.04
633.95	638.82
634.29	636.11
634.64	633.38
634.98	630.67
635.32	627.97
635.67	625.37
636.01	622.51
636.36	619.60
636.70	616.91
637.05	614.25
637.39	611.72
637.73	608.99
638.08	606.66
638.42	604.17
638.77	601.59
639.11	599.12
639.45	596.34
639.80	593.76
640.14	591.30
640.49	588.77
640.83	586.34
641.17	584.04
641.52	581.30
641.86	578.68
642.20	576.31
642.55	573.43
642.89	570.79
643.23	568.40
643.58	566.19
643.92	563.30
644.26	560.74
644.61	558.35
644.95	556.00
645.29	552.99
645.64	550.21
645.98	547.76
646.32	545.37
646.66	542.94
647.01	540.48
647.35	538.06
647.69	535.74
648.04	533.45
648.38	530.81
648.72	528.34
649.06	525.87
649.41	523.25
649.75	520.87
650.09	518.22
650.43	515.55
650.78	512.72
651.12	510.51
651.46	508.07
651.80	505.70
652.14	503.24
652.49	501.10
652.83	498.81
653.17	496.12
653.51	493.58
653.85	491.15
654.20	488.92
654.54	486.38
654.88	483.94
655.22	481.18
655.56	478.79
655.90	476.50
656.25	474.10
656.59	471.82
656.93	469.57
657.27	467.57
657.61	465.33
657.95	463.38
658.29	461.18
658.64	458.99
658.98	456.52
659.32	454.26
659.66	452.11
660.00	449.94
660.34	447.95
660.68	445.78
661.02	443.92
661.36	441.84
661.70	439.80
662.05	437.83
662.39	436.22
662.73	434.36
663.07	432.62
663.41	430.91
663.75	429.06
664.09	427.24
664.43	425.33
664.77	423.53
665.11	421.82
665.45	420.15
665.79	418.33
666.13	416.66
666.47	414.80
666.81	412.92
667.15	411.10
667.49	409.47
667.83	408.06
668.17	406.26
668.51	404.46
668.85	402.77
669.19	401.27
669.53	399.56
669.87	397.85
670.21	396.31
670.55	394.57
670.89	393.15
671.23	391.77
671.57	390.21
671.91	388.75
672.25	387.24
672.58	385.88
672.92	384.59
673.26	383.06
673.60	381.95
673.94	380.60
674.28	379.21
674.62	378.03
674.96	376.60
675.30	375.40
675.64	374.15
675.97	372.68
676.31	371.38
676.65	370.10
676.99	368.96
677.33	367.60
677.67	366.51
678.01	365.08
678.34	363.60
678.68	362.34
679.02	360.98
679.36	359.64
679.70	358.21
680.04	356.89
680.37	355.77
680.71	354.52
681.05	353.46
681.39	352.34
681.73	351.16
682.06	350.00
682.40	348.93
682.74	347.73
683.08	346.81
683.42	345.53
683.75	344.37
684.09	343.11
684.43	341.97
684.77	340.78
685.10	339.69
685.44	338.77
685.78	337.63
686.12	336.74
686.45	335.61
686.79	334.60
687.13	333.63
687.46	332.50
687.80	331.35
688.14	330.16
688.48	329.31
688.81	328.10
689.15	327.01
689.49	325.87
689.82	324.91
690.16	323.86
690.50	322.89
690.83	321.96
691.17	321.04
691.51	320.07
691.84	319.15
692.18	318.25
692.52	317.12
692.85	316.27
693.19	315.29
693.52	314.30
693.86	313.36
694.20	312.31
694.53	311.53
694.87	310.64
695.21	309.76
695.54	308.72
695.88	307.90
696.21	307.07
696.55	306.16
696.88	305.29
697.22	304.45
697.56	303.66
697.89	302.87
698.23	302.10
698.56	301.30
698.90	300.44
699.23	299.64
699.57	298.84
699.90	297.93
700.24	297.17
700.58	296.45
700.91	295.80
701.25	295.25
701.58	294.60
701.92	293.85
702.25	293.24
702.59	292.59
702.92	291.91
703.26	291.21
703.59	290.67
703.93	290.24
704.26	289.69
704.60	289.11
704.93	288.44
705.26	287.81
705.60	287.22
705.93	286.69
706.27	286.17
706.60	285.75
706.94	285.33
707.27	284.75
707.61	284.29
707.94	283.68
708.27	282.98
708.61	282.38
708.94	281.92
709.28	281.34
709.61	280.99
709.94	280.47
710.28	279.97
710.61	279.48
710.95	278.74
711.28	278.35
711.61	277.74
711.95	277.19
712.28	276.64
712.61	276.15
712.95	275.73
713.28	275.17
713.61	274.63
713.95	274.19
714.28	273.74
714.61	273.23
714.95	272.75
715.28	272.46
715.61	271.87
715.95	271.37
716.28	270.96
716.61	270.45
716.95	269.91
717.28	269.55
717.61	269.11
717.94	268.61
718.28	268.13
718.61	267.72
718.94	267.48
719.27	267.10
719.61	266.71
719.94	266.24
720.27	265.85
720.60	265.40
720.94	265.09
721.27	264.69
721.60	264.40
721.93	264.09
722.27	263.68
722.60	263.31
722.93	262.90
723.26	262.54
723.59	262.24
723.93	261.97
724.26	261.68
724.59	261.26
724.92	260.98
725.25	260.61
725.59	260.26
725.92	259.89
726.25	259.47
726.58	259.02
726.91	258.69
727.24	258.38
727.57	258.01
727.91	257.60
728.24	257.27
728.57	256.86
728.90	256.54
729.23	256.30
729.56	256.07
729.89	255.88
730.22	255.59
730.55	255.19
730.89	254.89
731.22	254.54
731.55	254.23
731.88	254.03
732.21	253.66
732.54	253.39
732.87	253.05
733.20	252.79
733.53	252.55
733.86	252.32
734.19	252.01
734.52	251.92
734.85	251.73
735.18	251.55
735.51	251.38
735.84	251.18
736.17	250.82
736.50	250.55
736.83	250.37
737.16	250.10
737.49	249.76
737.82	249.62
738.15	249.41
738.48	249.26
738.81	249.09
739.14	248.90
739.47	248.73
739.80	248.54
740.13	248.34
740.46	248.14
740.79	247.90
741.12	247.73
741.45	247.39
741.78	247.00
742.11	246.72
742.44	246.49
742.77	246.21
743.10	245.99
743.43	245.78
743.75	245.42
744.08	245.41
744.41	245.29
744.74	245.05
745.07	244.83
745.40	244.65
745.73	244.45
746.06	244.30
746.39	244.13
746.71	243.96
747.04	243.81
747.37	243.57
747.70	243.50
748.03	243.31
748.36	243.16
748.68	243.09
749.01	242.94
749.34	242.72
749.67	242.69
750.00	242.57
750.33	242.62
750.65	242.57
750.98	242.35
751.31	242.23
751.64	241.98
751.97	241.96
752.29	241.75
752.62	241.61
752.95	241.42
753.28	241.24
753.60	241.00
753.93	240.99
754.26	240.90
754.59	240.62
754.91	240.42
755.24	240.31
755.57	240.19
755.90	240.07
756.22	240.01
756.55	239.79
756.88	239.72
757.20	239.33
757.53	239.05
757.86	238.90
758.19	238.87
758.51	238.95
758.84	238.74
759.17	238.61
759.49	238.45
759.82	238.50
760.15	238.40
760.47	238.40
760.80	238.23
761.13	238.27
761.45	238.22
761.78	238.17
762.11	238.14
762.43	238.13
762.76	238.03
763.08	237.94
763.41	237.88
763.74	237.71
764.06	237.69
764.39	237.66
764.71	237.47
765.04	237.35
765.37	237.03
765.69	236.90
766.02	236.90
766.34	236.81
766.67	236.64
767.00	236.67
767.32	236.70
767.65	236.76
767.97	236.68
768.30	236.62
768.62	236.61
768.95	236.46
769.27	236.23
769.60	236.20
769.92	236.08
770.25	235.99
770.57	235.93
770.90	235.89
771.22	235.86
771.55	235.92
771.87	235.78
772.20	235.78
772.52	235.83
772.85	235.97
773.17	235.89
773.50	235.71
773.82	235.56
774.15	235.42
774.47	235.27
774.80	235.08
775.12	235.04
775.45	234.85
775.77	234.89
776.09	234.86
776.42	234.81
776.74	234.79
777.07	234.68
777.39	234.56
777.72	234.50
778.04	234.44
778.36	234.21
778.69	234.14
779.01	234.11
779.33	233.87
779.66	233.59
779.98	233.51
780.31	233.48
780.63	233.57
780.95	233.50
781.28	233.24
781.60	233.16
781.92	233.00
782.25	233.01
782.57	232.84
782.89	232.80
783.22	232.69
783.54	232.54
783.86	232.51
784.19	232.44
784.51	232.41
784.83	232.26
785.16	232.34
785.48	232.36
785.80	232.33
786.12	232.28
786.45	232.13
786.77	232.04
787.09	232.00
787.42	231.81
787.74	231.70
788.06	231.80
788.38	231.80
788.71	231.74
789.03	231.72
789.35	231.68
789.67	231.60
789.99	231.51
790.32	231.50
790.64	231.46
790.96	231.58
791.28	231.50
791.61	231.59
791.93	231.51
792.25	231.46
792.57	231.60
792.89	231.60
793.21	231.61
793.54	231.64
