SpectraSuite Data File
++++++++++++++++++++++++++++++++++++
Date: Fri Feb 01 14:39:53 EST 2013
User: group
Dark Spectrum Present: No
Reference Spectrum Present: No
Number of Sampled Component Spectra: 1
Spectrometers: USB2E7196
Integration Time (usec): 70000 (USB2E7196)
Spectra Averaged: 10 (USB2E7196)
Boxcar Smoothing: 10 (USB2E7196)
Correct for Electrical Dark: No (USB2E7196)
Strobe/Lamp Enabled: No (USB2E7196)
Correct for Detector Non-linearity: No (USB2E7196)
Correct for Stray Light: No (USB2E7196)
Number of Pixels in Processed Spectrum: 2048
>>>>>Begin Processed Spectral Data<<<<<
339.09	0.00
339.48	216.20
339.86	218.80
340.24	220.10
340.63	221.60
341.01	225.40
341.39	224.40
341.78	224.10
342.16	226.50
342.54	227.10
342.93	215.38
343.31	226.31
343.69	226.87
344.07	227.23
344.46	227.68
344.84	228.01
345.22	228.19
345.60	228.28
345.99	228.47
346.37	228.63
346.75	228.68
347.13	228.77
347.52	228.79
347.90	228.78
348.28	228.86
348.66	228.95
349.05	228.87
349.43	228.94
349.81	229.02
350.19	228.93
350.57	228.92
350.96	228.99
351.34	228.97
351.72	229.00
352.10	229.13
352.48	229.14
352.87	229.22
353.25	229.20
353.63	229.40
354.01	229.52
354.39	229.58
354.77	229.64
355.15	229.67
355.54	229.67
355.92	229.68
356.30	229.77
356.68	229.92
357.06	230.03
357.44	230.10
357.82	230.06
358.20	230.04
358.58	230.04
358.97	230.15
359.35	230.35
359.73	230.50
360.11	230.50
360.49	230.57
360.87	230.49
361.25	230.59
361.63	230.70
362.01	230.66
362.39	230.73
362.77	230.90
363.15	230.96
363.53	231.01
363.91	231.09
364.29	231.08
364.67	230.87
365.05	230.92
365.43	230.92
365.81	231.03
366.19	231.20
366.57	231.31
366.95	231.31
367.33	231.12
367.71	231.07
368.09	231.11
368.47	231.04
368.85	231.08
369.23	231.04
369.61	230.88
369.99	230.96
370.37	230.82
370.75	230.80
371.13	230.75
371.51	230.57
371.89	230.56
372.27	230.55
372.65	230.56
373.03	230.48
373.41	230.33
373.78	230.26
374.16	230.07
374.54	229.90
374.92	229.68
375.30	229.59
375.68	229.45
376.06	229.37
376.44	229.26
376.82	229.19
377.19	229.05
377.57	228.97
377.95	228.75
378.33	228.61
378.71	228.30
379.09	228.19
379.47	228.22
379.84	228.07
380.22	227.93
380.60	227.81
380.98	227.72
381.36	227.61
381.73	227.41
382.11	227.36
382.49	227.29
382.87	227.27
383.25	227.20
383.62	227.29
384.00	227.20
384.38	227.05
384.76	226.97
385.13	227.07
385.51	227.03
385.89	226.92
386.27	226.85
386.64	226.91
387.02	226.84
387.40	226.80
387.78	226.70
388.15	226.62
388.53	226.60
388.91	226.46
389.29	226.44
389.66	226.41
390.04	226.34
390.42	226.34
390.79	226.25
391.17	226.26
391.55	226.08
391.92	226.01
392.30	226.11
392.68	226.05
393.05	226.06
393.43	226.00
393.81	226.16
394.18	226.20
394.56	226.19
394.94	226.21
395.31	226.13
395.69	226.33
396.06	226.36
396.44	226.38
396.82	226.38
397.19	226.53
397.57	226.58
397.95	226.70
398.32	226.71
398.70	226.80
399.07	226.95
399.45	227.01
399.82	227.17
400.20	227.24
400.58	227.43
400.95	227.44
401.33	227.70
401.70	227.89
402.08	228.00
402.45	228.06
402.83	228.26
403.20	228.42
403.58	228.39
403.95	228.59
404.33	228.70
404.71	228.86
405.08	229.14
405.46	229.30
405.83	229.34
406.21	229.56
406.58	229.71
406.96	229.80
407.33	230.09
407.70	230.31
408.08	230.76
408.45	230.88
408.83	231.11
409.20	231.22
409.58	231.34
409.95	231.72
410.33	232.07
410.70	232.29
411.08	232.71
411.45	233.12
411.82	233.42
412.20	233.81
412.57	234.29
412.95	234.49
413.32	234.96
413.69	235.48
414.07	235.90
414.44	236.45
414.82	236.99
415.19	237.45
415.56	237.97
415.94	238.31
416.31	239.05
416.68	239.71
417.06	240.47
417.43	241.09
417.81	241.86
418.18	242.55
418.55	243.26
418.93	244.00
419.30	244.83
419.67	245.76
420.04	246.72
420.42	247.68
420.79	248.85
421.16	249.91
421.54	251.10
421.91	252.27
422.28	253.51
422.66	254.86
423.03	256.20
423.40	257.43
423.77	258.79
424.15	260.08
424.52	261.45
424.89	262.95
425.26	264.47
425.64	265.84
426.01	267.45
426.38	269.20
426.75	270.98
427.13	272.73
427.50	274.53
427.87	276.44
428.24	278.38
428.61	280.11
428.99	282.10
429.36	284.17
429.73	286.28
430.10	288.24
430.47	290.25
430.85	292.40
431.22	294.83
431.59	297.37
431.96	299.81
432.33	302.35
432.70	304.68
433.08	307.58
433.45	310.27
433.82	312.93
434.19	315.86
434.56	318.70
434.93	321.41
435.30	324.11
435.68	327.06
436.05	329.85
436.42	332.86
436.79	335.64
437.16	338.44
437.53	341.36
437.90	344.40
438.27	347.43
438.64	350.37
439.01	353.05
439.38	355.46
439.75	357.70
440.13	360.36
440.50	362.97
440.87	364.98
441.24	366.96
441.61	369.22
441.98	370.87
442.35	372.80
442.72	374.81
443.09	376.89
443.46	377.99
443.83	378.83
444.20	379.47
444.57	380.19
444.94	380.71
445.31	381.28
445.68	381.92
446.05	382.02
446.42	381.67
446.79	381.50
447.16	381.26
447.53	381.19
447.90	380.25
448.27	379.13
448.64	377.65
449.01	376.73
449.37	374.99
449.74	373.13
450.11	371.00
450.48	368.59
450.85	365.93
451.22	363.93
451.59	361.86
451.96	359.87
452.33	357.41
452.70	355.10
453.07	352.22
453.43	349.04
453.80	346.21
454.17	343.64
454.54	340.98
454.91	337.91
455.28	335.06
455.65	332.39
456.02	330.24
456.38	328.01
456.75	325.20
457.12	322.76
457.49	320.44
457.86	318.15
458.23	316.32
458.59	314.23
458.96	312.04
459.33	310.25
459.70	308.31
460.07	306.72
460.43	304.82
460.80	303.13
461.17	301.65
461.54	300.14
461.91	298.52
462.27	296.91
462.64	295.77
463.01	294.40
463.38	293.13
463.74	291.44
464.11	290.22
464.48	289.17
464.85	288.03
465.21	287.22
465.58	286.29
465.95	284.93
466.32	283.91
466.68	282.82
467.05	281.75
467.42	280.74
467.78	279.79
468.15	278.81
468.52	278.02
468.88	277.04
469.25	276.04
469.62	275.36
469.98	274.59
470.35	273.75
470.72	272.95
471.08	272.13
471.45	271.36
471.82	270.71
472.18	269.99
472.55	269.47
472.92	268.74
473.28	268.05
473.65	267.57
474.02	267.05
474.38	266.63
474.75	266.09
475.11	265.50
475.48	264.98
475.85	264.59
476.21	264.07
476.58	263.60
476.94	263.22
477.31	262.75
477.67	262.48
478.04	262.23
478.41	261.86
478.77	261.64
479.14	261.37
479.50	261.03
479.87	260.77
480.23	260.52
480.60	260.29
480.96	260.07
481.33	259.78
481.69	259.51
482.06	259.29
482.42	259.09
482.79	258.84
483.15	258.61
483.52	258.45
483.88	258.42
484.25	258.36
484.61	258.40
484.98	258.35
485.34	258.14
485.71	258.00
486.07	258.06
486.44	257.96
486.80	257.83
487.17	257.72
487.53	257.82
487.90	257.80
488.26	257.92
488.62	258.12
488.99	258.31
489.35	258.44
489.72	258.56
490.08	258.78
490.44	259.05
490.81	259.37
491.17	259.60
491.54	259.73
491.90	260.10
492.26	260.34
492.63	260.69
492.99	261.10
493.36	261.53
493.72	261.84
494.08	262.10
494.45	262.63
494.81	263.27
495.17	263.61
495.54	264.20
495.90	264.65
496.26	265.00
496.63	265.64
496.99	266.21
497.35	266.90
497.72	267.56
498.08	268.32
498.44	269.05
498.80	269.83
499.17	270.78
499.53	271.68
499.89	272.70
500.26	273.67
500.62	274.54
500.98	275.57
501.34	276.74
501.71	278.11
502.07	279.32
502.43	280.49
502.79	281.81
503.16	283.14
503.52	284.66
503.88	286.27
504.24	287.69
504.60	289.39
504.97	291.08
505.33	292.81
505.69	294.71
506.05	296.60
506.41	298.70
506.78	300.70
507.14	302.68
507.50	304.91
507.86	307.30
508.22	309.85
508.59	312.38
508.95	315.04
509.31	317.64
509.67	320.51
510.03	323.40
510.39	326.47
510.75	329.53
511.12	332.67
511.48	335.98
511.84	339.47
512.20	342.98
512.56	346.48
512.92	350.17
513.28	354.09
513.64	358.01
514.00	361.99
514.37	366.21
514.73	370.43
515.09	374.55
515.45	378.86
515.81	383.34
516.17	387.94
516.53	392.72
516.89	397.49
517.25	402.42
517.61	407.57
517.97	412.76
518.33	417.95
518.69	423.22
519.05	428.72
519.41	434.34
519.77	440.17
520.13	446.15
520.49	452.07
520.85	458.01
521.21	464.17
521.57	470.51
521.93	476.60
522.29	483.05
522.65	489.80
523.01	496.42
523.37	503.16
523.73	509.89
524.09	516.62
524.45	523.92
524.81	531.03
525.17	538.42
525.53	545.74
525.89	553.11
526.25	560.94
526.61	568.65
526.97	576.37
527.33	584.12
527.68	592.11
528.04	600.28
528.40	608.40
528.76	616.75
529.12	625.20
529.48	633.85
529.84	642.26
530.20	650.89
530.56	659.80
530.91	668.96
531.27	677.98
531.63	686.78
531.99	695.61
532.35	704.72
532.71	713.47
533.07	722.74
533.42	732.39
533.78	741.35
534.14	750.47
534.50	759.58
534.86	768.74
535.21	777.84
535.57	787.35
535.93	796.50
536.29	805.86
536.65	815.08
537.00	824.49
537.36	833.98
537.72	842.96
538.08	852.25
538.44	861.18
538.79	870.70
539.15	880.17
539.51	889.56
539.87	899.08
540.22	908.61
540.58	918.10
540.94	927.07
541.29	936.46
541.65	945.50
542.01	955.05
542.37	964.46
542.72	973.61
543.08	982.43
543.44	991.73
543.79	1000.51
544.15	1009.64
544.51	1018.88
544.87	1028.31
545.22	1037.75
545.58	1046.42
545.94	1055.00
546.29	1063.54
546.65	1071.98
547.01	1080.44
547.36	1088.66
547.72	1096.89
548.07	1104.81
548.43	1112.81
548.79	1120.49
549.14	1128.36
549.50	1135.79
549.86	1143.20
550.21	1150.96
550.57	1158.66
550.92	1166.30
551.28	1173.70
551.64	1180.70
551.99	1187.78
552.35	1194.43
552.70	1201.41
553.06	1208.66
553.41	1215.89
553.77	1222.53
554.13	1229.62
554.48	1236.49
554.84	1242.87
555.19	1249.60
555.55	1256.57
555.90	1263.09
556.26	1269.76
556.61	1276.30
556.97	1282.41
557.32	1288.92
557.68	1295.22
558.03	1301.48
558.39	1307.31
558.74	1313.60
559.10	1319.82
559.45	1325.63
559.81	1331.63
560.16	1337.04
560.52	1342.32
560.87	1347.76
561.23	1352.92
561.58	1358.47
561.94	1363.31
562.29	1368.29
562.64	1372.89
563.00	1377.38
563.35	1382.40
563.71	1387.65
564.06	1392.72
564.42	1397.53
564.77	1401.89
565.12	1406.44
565.48	1410.52
565.83	1414.54
566.19	1418.91
566.54	1422.51
566.89	1426.24
567.25	1429.91
567.60	1433.92
567.96	1437.49
568.31	1440.96
568.66	1444.73
569.02	1447.73
569.37	1450.75
569.72	1453.93
570.08	1457.07
570.43	1459.53
570.78	1462.07
571.14	1463.80
571.49	1466.03
571.84	1468.69
572.20	1470.61
572.55	1472.21
572.90	1473.57
573.26	1475.82
573.61	1476.64
573.96	1478.41
574.31	1478.80
574.67	1479.14
575.02	1479.33
575.37	1480.05
575.72	1480.26
576.08	1480.59
576.43	1480.60
576.78	1481.00
577.13	1481.40
577.49	1481.54
577.84	1481.74
578.19	1481.45
578.54	1481.34
578.90	1480.39
579.25	1479.24
579.60	1478.59
579.95	1477.78
580.30	1477.25
580.66	1475.67
581.01	1474.36
581.36	1472.96
581.71	1472.99
582.06	1472.22
582.42	1471.13
582.77	1469.86
583.12	1468.50
583.47	1467.65
583.82	1466.33
584.17	1464.66
584.53	1462.96
584.88	1461.32
585.23	1459.70
585.58	1458.22
585.93	1456.58
586.28	1455.72
586.63	1454.48
586.98	1453.00
587.34	1451.50
587.69	1449.87
588.04	1448.21
588.39	1446.69
588.74	1444.35
589.09	1441.62
589.44	1439.20
589.79	1437.17
590.14	1435.17
590.49	1433.11
590.84	1430.26
591.19	1428.19
591.54	1425.37
591.89	1422.10
592.25	1419.30
592.60	1416.05
592.95	1412.95
593.30	1409.54
593.65	1405.78
594.00	1402.55
594.35	1399.55
594.70	1395.85
595.05	1392.49
595.40	1388.75
595.75	1385.27
596.10	1382.06
596.45	1379.13
596.80	1376.45
597.15	1373.20
597.50	1369.46
597.85	1366.06
598.19	1363.02
598.54	1359.80
598.89	1356.84
599.24	1354.22
599.59	1351.08
599.94	1348.13
600.29	1344.62
600.64	1341.38
600.99	1337.46
601.34	1333.88
601.69	1329.84
602.04	1326.42
602.39	1323.14
602.74	1320.33
603.08	1317.09
603.43	1314.03
603.78	1310.44
604.13	1306.66
604.48	1303.00
604.83	1299.47
605.18	1295.95
605.53	1291.50
605.87	1286.87
606.22	1283.07
606.57	1278.98
606.92	1274.71
607.27	1270.68
607.62	1267.19
607.96	1263.58
608.31	1260.20
608.66	1255.69
609.01	1251.18
609.36	1246.58
609.70	1241.27
610.05	1235.90
610.40	1230.96
610.75	1225.81
611.10	1220.74
611.44	1215.56
611.79	1210.75
612.14	1205.76
612.49	1200.04
612.83	1194.84
613.18	1190.00
613.53	1184.78
613.88	1179.20
614.22	1174.04
614.57	1168.82
614.92	1163.48
615.27	1158.18
615.61	1152.75
615.96	1148.22
616.31	1143.94
616.65	1139.69
617.00	1135.10
617.35	1130.28
617.70	1125.65
618.04	1120.50
618.39	1115.64
618.74	1110.83
619.08	1105.80
619.43	1100.81
619.78	1096.38
620.12	1091.90
620.47	1087.00
620.82	1082.04
621.16	1077.58
621.51	1072.70
621.85	1067.52
622.20	1062.09
622.55	1057.24
622.89	1052.36
623.24	1047.25
623.59	1042.41
623.93	1037.45
624.28	1033.02
624.62	1028.54
624.97	1023.90
625.32	1019.61
625.66	1014.91
626.01	1010.37
626.35	1005.53
626.70	1001.09
627.04	996.67
627.39	991.87
627.73	987.08
628.08	982.65
628.43	977.65
628.77	973.17
629.12	968.61
629.46	963.81
629.81	958.71
630.15	953.90
630.50	948.84
630.84	943.31
631.19	938.00
631.53	932.93
631.88	927.82
632.22	922.50
632.57	917.64
632.91	912.54
633.26	907.42
633.60	902.50
633.95	897.50
634.29	892.49
634.64	887.96
634.98	882.94
635.32	878.33
635.67	874.07
636.01	869.23
636.36	864.61
636.70	860.73
637.05	856.49
637.39	852.28
637.73	848.08
638.08	844.58
638.42	840.70
638.77	836.50
639.11	832.38
639.45	828.22
639.80	823.70
640.14	819.51
640.49	815.22
640.83	811.11
641.17	806.82
641.52	802.55
641.86	798.15
642.20	794.32
642.55	790.00
642.89	785.62
643.23	781.55
643.58	777.80
643.92	773.26
644.26	768.91
644.61	764.88
644.95	760.75
645.29	755.86
645.64	751.21
645.98	746.98
646.32	743.06
646.66	738.82
647.01	734.77
647.35	730.77
647.69	726.68
648.04	722.76
648.38	718.66
648.72	714.29
649.06	709.78
649.41	705.77
649.75	701.40
650.09	697.21
650.43	692.98
650.78	688.45
651.12	684.25
651.46	680.25
651.80	676.18
652.14	672.09
652.49	668.31
652.83	664.44
653.17	660.20
653.51	655.65
653.85	651.67
654.20	647.52
654.54	643.40
654.88	639.36
655.22	634.90
655.56	630.83
655.90	627.24
656.25	623.56
656.59	619.63
656.93	615.99
657.27	612.34
657.61	608.43
657.95	604.93
658.29	601.19
658.64	597.58
658.98	593.58
659.32	589.83
659.66	586.30
660.00	582.62
660.34	579.10
660.68	575.85
661.02	572.29
661.36	569.01
661.70	565.60
662.05	562.50
662.39	559.50
662.73	556.31
663.07	553.15
663.41	550.19
663.75	546.89
664.09	543.58
664.43	540.36
664.77	537.32
665.11	534.22
665.45	531.35
665.79	528.38
666.13	525.44
666.47	522.58
666.81	519.40
667.15	516.43
667.49	513.50
667.83	510.64
668.17	507.73
668.51	504.71
668.85	501.92
669.19	499.26
669.53	496.31
669.87	493.40
670.21	490.65
670.55	487.92
670.89	485.66
671.23	483.30
671.57	480.72
671.91	478.16
672.25	475.63
672.58	473.07
672.92	470.52
673.26	468.19
673.60	465.78
673.94	463.46
674.28	461.46
674.62	459.22
674.96	456.76
675.30	454.76
675.64	452.72
675.97	450.59
676.31	448.20
676.65	446.24
676.99	444.43
677.33	442.08
677.67	439.95
678.01	437.59
678.34	435.50
678.68	433.58
679.02	431.65
679.36	429.64
679.70	427.72
680.04	425.76
680.37	423.67
680.71	421.68
681.05	419.85
681.39	417.60
681.73	415.71
682.06	414.02
682.40	412.19
682.74	410.25
683.08	408.39
683.42	406.45
683.75	404.42
684.09	402.44
684.43	400.76
684.77	398.95
685.10	397.23
685.44	395.24
685.78	393.44
686.12	391.74
686.45	389.94
686.79	388.16
687.13	386.54
687.46	384.90
687.80	383.25
688.14	381.48
688.48	380.04
688.81	378.35
689.15	376.73
689.49	374.92
689.82	373.36
690.16	371.86
690.50	370.41
690.83	368.97
691.17	367.34
691.51	365.84
691.84	364.33
692.18	362.69
692.52	361.36
692.85	359.93
693.19	358.50
693.52	357.06
693.86	355.63
694.20	354.06
694.53	352.56
694.87	351.14
695.21	349.66
695.54	348.14
695.88	346.77
696.21	345.29
696.55	344.10
696.88	342.76
697.22	341.33
697.56	339.98
697.89	338.71
698.23	337.44
698.56	336.02
698.90	334.71
699.23	333.57
699.57	332.18
699.90	330.88
700.24	329.50
700.58	328.20
700.91	326.96
701.25	325.95
701.58	325.05
701.92	323.89
702.25	322.82
702.59	321.81
702.92	320.76
703.26	319.68
703.59	318.66
703.93	317.78
704.26	316.77
704.60	315.76
704.93	314.77
705.26	313.85
705.60	312.90
705.93	312.06
706.27	311.09
706.60	310.31
706.94	309.39
707.27	308.58
707.61	307.70
707.94	306.84
708.27	305.83
708.61	304.82
708.94	303.98
709.28	303.21
709.61	302.30
709.94	301.54
710.28	300.77
710.61	299.86
710.95	298.81
711.28	298.11
711.61	297.33
711.95	296.55
712.28	295.68
712.61	294.98
712.95	294.19
713.28	293.41
713.61	292.54
713.95	291.86
714.28	291.10
714.61	290.34
714.95	289.68
715.28	288.85
715.61	288.08
715.95	287.42
716.28	286.60
716.61	285.94
716.95	285.27
717.28	284.70
717.61	284.10
717.94	283.55
718.28	282.80
718.61	282.27
718.94	281.74
719.27	281.26
719.61	280.78
719.94	280.36
720.27	279.86
720.60	279.40
720.94	278.78
721.27	278.29
721.60	277.81
721.93	277.32
722.27	277.01
722.60	276.54
722.93	275.99
723.26	275.50
723.59	275.00
723.93	274.46
724.26	273.99
724.59	273.51
724.92	273.05
725.25	272.65
725.59	272.14
725.92	271.58
726.25	271.13
726.58	270.57
726.91	269.98
727.24	269.54
727.57	269.11
727.91	268.65
728.24	268.30
728.57	267.82
728.90	267.34
729.23	266.81
729.56	266.42
729.89	266.13
730.22	265.93
730.55	265.49
730.89	265.14
731.22	264.62
731.55	264.15
731.88	263.71
732.21	263.28
732.54	262.97
732.87	262.65
733.20	262.31
733.53	262.07
733.86	261.79
734.19	261.48
734.52	261.11
734.85	261.00
735.18	260.50
735.51	260.32
735.84	260.05
736.17	259.77
736.50	259.45
736.83	259.40
737.16	258.95
737.49	258.67
737.82	258.30
738.15	258.09
738.48	257.83
738.81	257.49
739.14	257.22
739.47	256.82
739.80	256.40
740.13	256.05
740.46	255.72
740.79	255.27
741.12	254.93
741.45	254.69
741.78	254.34
742.11	254.18
742.44	253.79
742.77	253.52
743.10	253.20
743.43	252.78
743.75	252.10
744.08	252.03
744.41	251.79
744.74	251.50
745.07	251.22
745.40	251.00
745.73	250.78
746.06	250.51
746.39	250.29
746.71	250.14
747.04	249.84
747.37	249.57
747.70	249.33
748.03	249.03
748.36	248.77
748.68	248.39
749.01	248.02
749.34	247.79
749.67	247.51
750.00	247.35
750.33	247.33
750.65	247.12
750.98	246.70
751.31	246.43
751.64	246.07
751.97	245.93
752.29	245.57
752.62	245.37
752.95	245.12
753.28	244.81
753.60	244.62
753.93	244.55
754.26	244.37
754.59	244.22
754.91	244.02
755.24	243.68
755.57	243.54
755.90	243.44
756.22	243.25
756.55	243.14
756.88	242.91
757.20	242.75
757.53	242.66
757.86	242.50
758.19	242.41
758.51	242.41
758.84	242.07
759.17	242.00
759.49	241.82
759.82	241.87
760.15	241.81
760.47	241.61
760.80	241.36
761.13	241.16
761.45	241.04
761.78	240.86
762.11	240.79
762.43	240.60
762.76	240.43
763.08	240.28
763.41	240.11
763.74	239.95
764.06	239.66
764.39	239.48
764.71	239.29
765.04	239.15
765.37	239.00
765.69	239.01
766.02	238.93
766.34	238.78
766.67	238.60
767.00	238.52
767.32	238.61
767.65	238.62
767.97	238.41
768.30	238.16
768.62	238.17
768.95	238.04
769.27	237.96
769.60	237.77
769.92	237.70
770.25	237.54
770.57	237.48
770.90	237.39
771.22	237.36
771.55	237.33
771.87	237.20
772.20	237.08
772.52	237.14
772.85	237.27
773.17	237.28
773.50	237.11
773.82	237.05
774.15	236.78
774.47	236.52
774.80	236.59
775.12	236.59
775.45	236.37
775.77	236.44
776.09	236.35
776.42	236.32
776.74	236.31
777.07	236.17
777.39	236.06
777.72	235.91
778.04	235.71
778.36	235.61
778.69	235.58
779.01	235.61
779.33	235.26
779.66	235.00
779.98	234.79
780.31	234.72
780.63	234.65
780.95	234.69
781.28	234.71
781.60	234.53
781.92	234.42
782.25	234.37
782.57	234.23
782.89	234.29
783.22	234.23
783.54	234.09
783.86	234.10
784.19	233.98
784.51	234.00
784.83	234.03
785.16	233.94
785.48	233.88
785.80	233.81
786.12	233.82
786.45	233.64
786.77	233.76
787.09	233.73
787.42	233.56
787.74	233.39
788.06	233.28
788.38	233.24
788.71	233.26
789.03	233.35
789.35	233.25
