SpectraSuite Data File
++++++++++++++++++++++++++++++++++++
Date: Fri Feb 01 14:36:14 EST 2013
User: group
Dark Spectrum Present: No
Reference Spectrum Present: No
Number of Sampled Component Spectra: 1
Spectrometers: USB2E7196
Integration Time (usec): 70000 (USB2E7196)
Spectra Averaged: 10 (USB2E7196)
Boxcar Smoothing: 10 (USB2E7196)
Correct for Electrical Dark: No (USB2E7196)
Strobe/Lamp Enabled: No (USB2E7196)
Correct for Detector Non-linearity: No (USB2E7196)
Correct for Stray Light: No (USB2E7196)
Number of Pixels in Processed Spectrum: 2048
>>>>>Begin Processed Spectral Data<<<<<
339.09	0.00
339.48	216.50
339.86	215.80
340.24	219.20
340.63	220.10
341.01	224.20
341.39	223.50
341.78	224.00
342.16	227.70
342.54	225.50
342.93	214.32
343.31	225.23
343.69	225.80
344.07	226.32
344.46	226.78
344.84	227.11
345.22	227.40
345.60	227.62
345.99	227.82
346.37	227.87
346.75	228.04
347.13	228.13
347.52	228.21
347.90	228.36
348.28	228.37
348.66	228.41
349.05	228.36
349.43	228.42
349.81	228.42
350.19	228.49
350.57	228.54
350.96	228.70
351.34	228.65
351.72	228.67
352.10	228.76
352.48	228.77
352.87	228.92
353.25	228.96
353.63	229.00
354.01	229.09
354.39	229.06
354.77	229.05
355.15	229.27
355.54	229.27
355.92	229.39
356.30	229.50
356.68	229.72
357.06	229.85
357.44	229.91
357.82	229.94
358.20	230.03
358.58	230.00
358.97	230.05
359.35	230.20
359.73	230.34
360.11	230.39
360.49	230.37
360.87	230.32
361.25	230.27
361.63	230.47
362.01	230.48
362.39	230.60
362.77	230.71
363.15	230.68
363.53	230.70
363.91	230.61
364.29	230.68
364.67	230.51
365.05	230.50
365.43	230.51
365.81	230.57
366.19	230.61
366.57	230.70
366.95	230.58
367.33	230.46
367.71	230.35
368.09	230.34
368.47	230.43
368.85	230.42
369.23	230.50
369.61	230.29
369.99	230.28
370.37	230.25
370.75	230.29
371.13	230.15
371.51	230.15
371.89	230.09
372.27	229.96
372.65	229.87
373.03	229.79
373.41	229.69
373.78	229.56
374.16	229.42
374.54	229.30
374.92	229.30
375.30	229.29
375.68	229.19
376.06	229.16
376.44	228.95
376.82	228.91
377.19	228.80
377.57	228.74
377.95	228.56
378.33	228.37
378.71	228.11
379.09	228.05
379.47	227.98
379.84	227.88
380.22	227.89
380.60	227.85
380.98	227.69
381.36	227.53
381.73	227.49
382.11	227.46
382.49	227.42
382.87	227.35
383.25	227.34
383.62	227.55
384.00	227.43
384.38	227.43
384.76	227.39
385.13	227.28
385.51	227.19
385.89	227.23
386.27	227.35
386.64	227.35
387.02	227.37
387.40	227.35
387.78	227.26
388.15	227.06
388.53	226.91
388.91	226.90
389.29	226.96
389.66	227.00
390.04	226.95
390.42	226.96
390.79	227.05
391.17	226.95
391.55	226.68
391.92	226.63
392.30	226.63
392.68	226.67
393.05	226.76
393.43	226.75
393.81	226.85
394.18	226.76
394.56	226.78
394.94	226.81
395.31	226.79
395.69	226.81
396.06	227.10
396.44	227.18
396.82	227.24
397.19	227.32
397.57	227.29
397.95	227.43
398.32	227.46
398.70	227.46
399.07	227.66
399.45	227.73
399.82	227.89
400.20	228.06
400.58	228.10
400.95	228.16
401.33	228.31
401.70	228.45
402.08	228.60
402.45	228.75
402.83	228.95
403.20	229.01
403.58	229.36
403.95	229.50
404.33	229.70
404.71	229.89
405.08	230.29
405.46	230.58
405.83	230.77
406.21	231.00
406.58	231.30
406.96	231.59
407.33	231.96
407.70	232.41
408.08	232.85
408.45	233.35
408.83	233.69
409.20	234.20
409.58	234.47
409.95	234.98
410.33	235.53
410.70	235.94
411.08	236.60
411.45	237.24
411.82	237.79
412.20	238.59
412.57	239.47
412.95	240.02
413.32	240.73
413.69	241.58
414.07	242.48
414.44	243.42
414.82	244.37
415.19	245.53
415.56	246.55
415.94	247.76
416.31	248.98
416.68	250.49
417.06	251.94
417.43	253.34
417.81	254.96
418.18	256.60
418.55	258.39
418.93	260.30
419.30	262.10
419.67	264.11
420.04	266.10
420.42	268.35
420.79	271.06
421.16	273.77
421.54	276.35
421.91	278.99
422.28	281.90
422.66	284.87
423.03	287.71
423.40	290.83
423.77	293.94
424.15	297.31
424.52	300.62
424.89	304.40
425.26	308.13
425.64	311.65
426.01	315.53
426.38	319.45
426.75	323.40
427.13	327.59
427.50	332.03
427.87	336.64
428.24	341.10
428.61	345.29
428.99	349.90
429.36	355.15
429.73	360.35
430.10	365.17
430.47	370.32
430.85	375.73
431.22	381.15
431.59	387.19
431.96	392.81
432.33	399.15
432.70	405.08
433.08	412.22
433.45	418.91
433.82	425.53
434.19	433.03
434.56	440.40
434.93	447.25
435.30	454.09
435.68	461.59
436.05	468.95
436.42	476.36
436.79	483.09
437.16	490.53
437.53	498.09
437.90	505.84
438.27	513.41
438.64	521.07
439.01	528.29
439.38	534.55
439.75	540.68
440.13	547.75
440.50	554.68
440.87	560.18
441.24	565.97
441.61	572.30
441.98	577.08
442.35	582.60
442.72	588.18
443.09	593.95
443.46	597.34
443.83	599.99
444.20	602.13
444.57	605.43
444.94	607.11
445.31	609.18
445.68	610.79
446.05	611.85
446.42	611.94
446.79	612.02
447.16	611.94
447.53	612.15
447.90	610.16
448.27	608.20
448.64	605.03
449.01	603.20
449.37	598.83
449.74	594.77
450.11	589.59
450.48	584.06
450.85	578.03
451.22	573.69
451.59	569.05
451.96	564.79
452.33	558.68
452.70	552.96
453.07	546.03
453.43	539.40
453.80	532.97
454.17	526.68
454.54	520.54
454.91	513.89
455.28	507.40
455.65	501.27
456.02	494.91
456.38	489.60
456.75	482.77
457.12	477.33
457.49	471.67
457.86	466.41
458.23	461.95
458.59	456.91
458.96	451.47
459.33	446.92
459.70	442.30
460.07	438.50
460.43	434.34
460.80	430.29
461.17	426.56
461.54	422.53
461.91	418.67
462.27	414.93
462.64	411.59
463.01	408.06
463.38	404.66
463.74	401.21
464.11	398.25
464.48	395.60
464.85	392.63
465.21	390.30
465.58	387.69
465.95	384.69
466.32	382.11
466.68	379.65
467.05	377.17
467.42	374.75
467.78	372.26
468.15	369.74
468.52	367.83
468.88	365.61
469.25	363.61
469.62	362.00
469.98	360.06
470.35	358.39
470.72	356.79
471.08	355.02
471.45	353.62
471.82	352.03
472.18	350.21
472.55	348.93
472.92	347.50
473.28	346.30
473.65	345.11
474.02	343.98
474.38	342.90
474.75	341.98
475.11	340.95
475.48	339.98
475.85	339.23
476.21	338.48
476.58	337.61
476.94	336.88
477.31	336.29
477.67	335.70
478.04	335.22
478.41	334.70
478.77	334.41
479.14	333.78
479.50	333.52
479.87	333.40
480.23	333.36
480.60	333.15
480.96	332.98
481.33	332.85
481.69	332.73
482.06	332.56
482.42	332.43
482.79	332.30
483.15	332.48
483.52	332.76
483.88	332.90
484.25	333.17
484.61	333.56
484.98	333.71
485.34	334.10
485.71	334.46
486.07	334.87
486.44	335.33
486.80	336.11
487.17	336.70
487.53	337.27
487.90	337.88
488.26	338.76
488.62	339.57
488.99	340.50
489.35	341.27
489.72	342.31
490.08	343.30
490.44	344.33
490.81	345.38
491.17	346.34
491.54	347.45
491.90	348.59
492.26	349.79
492.63	351.16
492.99	352.39
493.36	353.76
493.72	355.31
494.08	356.66
494.45	358.04
494.81	359.43
495.17	361.05
495.54	362.59
495.90	364.22
496.26	365.89
496.63	367.55
496.99	369.17
497.35	370.93
497.72	372.47
498.08	374.20
498.44	375.97
498.80	377.86
499.17	379.66
499.53	381.50
499.89	383.20
500.26	384.75
500.62	386.59
500.98	388.32
501.34	389.93
501.71	391.68
502.07	393.32
502.43	394.99
502.79	396.53
503.16	398.09
503.52	399.40
503.88	400.72
504.24	402.08
504.60	403.75
504.97	405.09
505.33	406.66
505.69	408.20
506.05	409.66
506.41	410.78
506.78	411.92
507.14	413.01
507.50	414.21
507.86	415.41
508.22	416.48
508.59	417.42
508.95	418.37
509.31	419.39
509.67	420.46
510.03	421.39
510.39	422.44
510.75	423.50
511.12	424.40
511.48	425.37
511.84	426.12
512.20	426.73
512.56	427.40
512.92	428.20
513.28	428.85
513.64	429.19
514.00	429.87
514.37	430.53
514.73	431.07
515.09	431.55
515.45	431.95
515.81	432.31
516.17	432.79
516.53	433.21
516.89	433.43
517.25	433.58
517.61	433.95
517.97	434.16
518.33	434.26
518.69	434.59
519.05	434.92
519.41	435.37
519.77	435.91
520.13	436.21
520.49	436.32
520.85	436.48
521.21	437.01
521.57	437.34
521.93	437.54
522.29	438.00
522.65	438.31
523.01	438.70
523.37	439.06
523.73	439.47
524.09	440.01
524.45	440.60
524.81	441.25
525.17	442.02
525.53	442.68
525.89	443.56
526.25	444.36
526.61	445.01
526.97	445.88
527.33	446.57
527.68	447.57
528.04	448.54
528.40	449.70
528.76	450.72
529.12	451.95
529.48	453.18
529.84	454.40
530.20	455.77
530.56	457.45
530.91	459.20
531.27	461.00
531.63	462.68
531.99	464.45
532.35	466.38
532.71	467.96
533.07	469.81
533.42	471.80
533.78	474.06
534.14	476.24
534.50	478.19
534.86	480.55
535.21	482.66
535.57	485.05
535.93	487.45
536.29	489.99
536.65	492.42
537.00	495.06
537.36	497.82
537.72	500.63
538.08	503.05
538.44	505.84
538.79	508.60
539.15	511.41
539.51	514.42
539.87	517.37
540.22	520.67
540.58	524.04
540.94	527.05
541.29	529.96
541.65	533.10
542.01	536.60
542.37	539.92
542.72	543.45
543.08	546.80
543.44	550.34
543.79	553.79
544.15	557.51
544.51	561.19
544.87	564.89
545.22	568.48
545.58	572.34
545.94	576.00
546.29	579.79
546.65	583.38
547.01	587.12
547.36	590.84
547.72	594.46
548.07	598.20
548.43	602.23
548.79	606.14
549.14	609.96
549.50	613.65
549.86	617.46
550.21	621.25
550.57	625.22
550.92	628.86
551.28	632.68
551.64	636.41
551.99	640.14
552.35	643.70
552.70	647.72
553.06	651.64
553.41	655.49
553.77	659.40
554.13	663.52
554.48	667.45
554.84	671.26
555.19	675.34
555.55	679.38
555.90	683.12
556.26	687.00
556.61	690.90
556.97	694.88
557.32	698.77
557.68	702.54
558.03	706.57
558.39	710.55
558.74	714.80
559.10	718.62
559.45	723.04
559.81	727.37
560.16	730.93
560.52	734.71
560.87	738.69
561.23	742.38
561.58	746.28
561.94	750.04
562.29	753.90
562.64	757.41
563.00	760.94
563.35	764.52
563.71	768.23
564.06	772.13
564.42	775.59
564.77	779.37
565.12	783.37
565.48	786.92
565.83	790.51
566.19	793.81
566.54	797.11
566.89	800.07
567.25	803.08
567.60	806.72
567.96	810.32
568.31	813.29
568.66	816.60
569.02	819.53
569.37	822.47
569.72	825.11
570.08	827.92
570.43	830.73
570.78	833.40
571.14	835.92
571.49	838.36
571.84	841.20
572.20	843.63
572.55	845.73
572.90	847.89
573.26	850.14
573.61	852.00
573.96	854.35
574.31	856.22
574.67	858.03
575.02	859.64
575.37	861.02
575.72	862.42
576.08	863.71
576.43	865.05
576.78	866.44
577.13	868.11
577.49	869.66
577.84	870.77
578.19	872.09
578.54	873.43
578.90	874.60
579.25	875.13
579.60	875.68
579.95	876.47
580.30	877.25
580.66	877.98
581.01	878.76
581.36	879.02
581.71	879.75
582.06	880.41
582.42	880.81
582.77	881.10
583.12	881.81
583.47	882.13
583.82	882.78
584.17	882.90
584.53	883.13
584.88	883.24
585.23	883.38
585.58	883.45
585.93	883.51
586.28	883.66
586.63	883.90
586.98	884.18
587.34	884.09
587.69	883.92
588.04	883.52
588.39	883.30
588.74	883.08
589.09	882.45
589.44	881.97
589.79	881.53
590.14	881.25
590.49	880.80
590.84	880.50
591.19	879.71
591.54	878.96
591.89	877.74
592.25	877.13
592.60	876.49
592.95	875.42
593.30	874.15
593.65	872.66
594.00	871.48
594.35	870.72
594.70	869.30
595.05	868.16
595.40	866.92
595.75	865.38
596.10	864.26
596.45	863.10
596.80	862.12
597.15	860.99
597.50	859.63
597.85	858.25
598.19	856.89
598.54	855.78
598.89	854.70
599.24	853.65
599.59	852.24
599.94	850.71
600.29	849.45
600.64	847.99
600.99	846.55
601.34	845.22
601.69	843.07
602.04	841.70
602.39	840.05
602.74	838.86
603.08	837.64
603.43	836.18
603.78	834.96
604.13	833.34
604.48	831.63
604.83	830.07
605.18	828.54
605.53	826.67
605.87	824.51
606.22	822.68
606.57	820.90
606.92	818.91
607.27	817.09
607.62	815.39
607.96	813.80
608.31	812.28
608.66	810.24
609.01	808.44
609.36	806.10
609.70	803.73
610.05	800.96
610.40	798.76
610.75	796.40
611.10	793.93
611.44	791.23
611.79	789.24
612.14	786.56
612.49	783.71
612.83	781.24
613.18	778.81
613.53	776.37
613.88	773.78
614.22	771.00
614.57	768.04
614.92	765.33
615.27	762.60
615.61	759.73
615.96	757.04
616.31	754.55
616.65	752.50
617.00	750.37
617.35	748.30
617.70	745.50
618.04	742.83
618.39	740.20
618.74	737.70
619.08	734.61
619.43	732.14
619.78	729.80
620.12	727.04
620.47	724.46
620.82	721.51
621.16	719.02
621.51	716.62
621.85	714.44
622.20	711.61
622.55	709.07
622.89	706.45
623.24	703.99
623.59	701.48
623.93	698.93
624.28	696.20
624.62	693.69
624.97	691.41
625.32	689.10
625.66	686.79
626.01	684.45
626.35	682.00
626.70	679.60
627.04	677.06
627.39	674.58
627.73	672.18
628.08	670.10
628.43	667.59
628.77	664.84
629.12	662.10
629.46	659.70
629.81	657.11
630.15	654.58
630.50	651.92
630.84	649.00
631.19	645.97
631.53	643.40
631.88	640.51
632.22	637.77
632.57	635.07
632.91	632.25
633.26	629.48
633.60	626.87
633.95	624.12
634.29	621.71
634.64	619.49
634.98	616.77
635.32	614.00
635.67	611.71
636.01	609.67
636.36	607.21
636.70	604.81
637.05	602.43
637.39	600.19
637.73	597.88
638.08	595.85
638.42	593.68
638.77	591.47
639.11	589.08
639.45	586.63
639.80	584.32
640.14	582.13
640.49	579.77
640.83	577.34
641.17	574.97
641.52	572.33
641.86	569.72
642.20	567.51
642.55	565.18
642.89	562.74
643.23	560.12
643.58	557.97
643.92	555.37
644.26	552.99
644.61	550.62
644.95	548.25
645.29	545.50
645.64	543.11
645.98	540.74
646.32	538.68
646.66	536.32
647.01	533.78
647.35	531.29
647.69	529.10
648.04	527.08
648.38	524.84
648.72	522.53
649.06	520.08
649.41	517.71
649.75	515.29
650.09	512.83
650.43	510.64
650.78	508.03
651.12	505.80
651.46	503.59
651.80	501.26
652.14	499.08
652.49	497.02
652.83	494.97
653.17	492.73
653.51	490.27
653.85	488.18
654.20	485.87
654.54	483.48
654.88	480.99
655.22	478.46
655.56	476.25
655.90	474.16
656.25	472.20
656.59	470.18
656.93	468.15
657.27	466.10
657.61	463.69
657.95	461.93
658.29	459.71
658.64	457.51
658.98	455.35
659.32	453.20
659.66	451.06
660.00	448.83
660.34	446.63
660.68	444.62
661.02	442.59
661.36	440.73
661.70	438.95
662.05	437.29
662.39	435.59
662.73	433.80
663.07	432.06
663.41	430.24
663.75	428.39
664.09	426.63
664.43	424.75
664.77	423.16
665.11	421.18
665.45	419.60
665.79	417.82
666.13	416.02
666.47	414.29
666.81	412.61
667.15	410.87
667.49	409.24
667.83	407.76
668.17	406.06
668.51	404.50
668.85	402.81
669.19	401.28
669.53	399.67
669.87	397.99
670.21	396.39
670.55	394.74
670.89	393.36
671.23	391.86
671.57	390.27
671.91	388.85
672.25	387.40
672.58	386.02
672.92	384.69
673.26	383.46
673.60	382.08
673.94	380.91
674.28	379.69
674.62	378.37
674.96	376.99
675.30	375.60
675.64	374.34
675.97	373.19
676.31	371.68
676.65	370.33
676.99	369.21
677.33	367.89
677.67	366.66
678.01	365.22
678.34	363.93
678.68	362.80
679.02	361.40
679.36	360.21
679.70	359.01
680.04	357.84
680.37	356.50
680.71	355.36
681.05	354.12
681.39	352.95
681.73	351.89
682.06	350.75
682.40	349.62
682.74	348.35
683.08	347.10
683.42	346.00
683.75	344.91
684.09	343.70
684.43	342.72
684.77	341.61
685.10	340.42
685.44	339.25
685.78	338.19
686.12	337.20
686.45	336.10
686.79	335.06
687.13	334.01
687.46	333.06
687.80	331.96
688.14	330.77
688.48	329.70
688.81	328.52
689.15	327.39
689.49	326.40
689.82	325.53
690.16	324.50
690.50	323.54
690.83	322.43
691.17	321.36
691.51	320.29
691.84	319.35
692.18	318.49
692.52	317.67
692.85	316.76
693.19	315.92
693.52	315.16
693.86	314.23
694.20	313.33
694.53	312.37
694.87	311.48
695.21	310.58
695.54	309.71
695.88	308.82
696.21	307.94
696.55	307.15
696.88	306.32
697.22	305.53
697.56	304.68
697.89	303.92
698.23	303.24
698.56	302.42
698.90	301.65
699.23	300.70
699.57	299.90
699.90	299.07
700.24	298.21
700.58	297.35
700.91	296.56
701.25	295.85
701.58	295.12
701.92	294.40
702.25	293.77
702.59	293.06
702.92	292.38
703.26	291.74
703.59	291.04
703.93	290.46
704.26	289.91
704.60	289.38
704.93	288.91
705.26	288.19
705.60	287.68
705.93	287.08
706.27	286.61
706.60	285.93
706.94	285.39
707.27	284.76
707.61	284.27
707.94	283.69
708.27	283.02
708.61	282.53
708.94	282.04
709.28	281.57
709.61	281.01
709.94	280.54
710.28	280.01
710.61	279.45
710.95	278.73
711.28	278.30
711.61	277.58
711.95	276.92
712.28	276.42
712.61	275.77
712.95	275.37
713.28	275.02
713.61	274.52
713.95	273.99
714.28	273.49
714.61	272.94
714.95	272.43
715.28	271.99
715.61	271.46
715.95	270.91
716.28	270.32
716.61	269.93
716.95	269.44
717.28	268.87
717.61	268.52
717.94	268.05
718.28	267.47
718.61	267.04
718.94	266.67
719.27	266.20
719.61	265.80
719.94	265.26
720.27	264.71
720.60	264.44
720.94	264.09
721.27	263.78
721.60	263.42
721.93	263.05
722.27	262.75
722.60	262.41
722.93	262.07
723.26	261.76
723.59	261.33
723.93	261.00
724.26	260.75
724.59	260.38
724.92	260.15
725.25	259.83
725.59	259.59
725.92	259.15
726.25	258.83
726.58	258.53
726.91	258.27
727.24	257.93
727.57	257.49
727.91	257.16
728.24	256.86
728.57	256.49
728.90	256.25
729.23	255.83
729.56	255.70
729.89	255.37
730.22	255.10
730.55	254.89
730.89	254.68
731.22	254.46
731.55	254.20
731.88	253.85
732.21	253.50
732.54	253.18
732.87	252.98
733.20	252.88
733.53	252.66
733.86	252.34
734.19	252.00
734.52	251.82
734.85	251.73
735.18	251.45
735.51	251.30
735.84	251.12
736.17	250.90
736.50	250.44
736.83	250.42
737.16	250.21
737.49	249.91
737.82	249.59
738.15	249.35
738.48	249.15
738.81	248.94
739.14	248.77
739.47	248.59
739.80	248.29
740.13	248.04
740.46	247.79
740.79	247.65
741.12	247.51
741.45	247.34
741.78	247.03
742.11	246.84
742.44	246.59
742.77	246.36
743.10	246.12
743.43	245.88
743.75	245.55
744.08	245.59
744.41	245.46
744.74	245.30
745.07	245.13
745.40	244.88
745.73	244.94
746.06	244.75
746.39	244.65
746.71	244.56
747.04	244.38
747.37	244.24
747.70	244.11
748.03	243.90
748.36	243.65
748.68	243.43
749.01	243.30
749.34	243.15
749.67	243.03
750.00	243.05
750.33	243.14
750.65	243.06
750.98	242.75
751.31	242.50
751.64	242.38
751.97	242.36
752.29	242.25
752.62	241.85
752.95	241.65
753.28	241.42
753.60	241.19
753.93	241.06
754.26	240.89
754.59	240.70
754.91	240.60
755.24	240.49
755.57	240.35
755.90	240.11
756.22	239.95
756.55	239.78
756.88	239.54
757.20	239.29
757.53	239.06
757.86	238.85
758.19	238.89
758.51	238.80
758.84	238.59
759.17	238.42
759.49	238.36
759.82	238.36
760.15	238.24
760.47	238.20
760.80	237.95
761.13	237.88
761.45	237.69
761.78	237.53
762.11	237.40
762.43	237.25
762.76	237.18
763.08	237.08
763.41	237.04
763.74	236.94
764.06	236.80
764.39	236.66
764.71	236.54
765.04	236.38
765.37	236.24
765.69	236.04
766.02	235.96
766.34	235.85
766.67	235.67
767.00	235.66
767.32	235.68
767.65	235.80
767.97	235.71
768.30	235.66
768.62	235.63
768.95	235.60
769.27	235.63
769.60	235.65
769.92	235.55
770.25	235.26
770.57	235.10
770.90	234.96
771.22	234.83
771.55	234.82
771.87	234.71
772.20	234.60
772.52	234.82
772.85	235.05
773.17	235.05
773.50	235.08
773.82	235.03
774.15	234.83
774.47	234.60
774.80	234.52
775.12	234.38
775.45	234.32
775.77	234.17
776.09	234.09
776.42	233.93
776.74	234.02
777.07	234.06
777.39	233.98
777.72	234.03
778.04	234.15
778.36	234.06
778.69	234.06
779.01	234.00
779.33	233.77
779.66	233.44
779.98	233.30
780.31	233.22
780.63	233.20
780.95	233.22
781.28	233.12
781.60	233.06
781.92	233.00
782.25	232.91
782.57	232.98
782.89	233.00
783.22	232.92
783.54	232.79
783.86	232.82
784.19	232.85
784.51	232.75
784.83	232.65
785.16	232.53
785.48	232.51
785.80	232.50
786.12	232.54
786.45	232.49
786.77	232.46
787.09	232.30
787.42	232.20
787.74	232.18
788.06	232.08
788.38	232.10
788.71	232.16
789.03	232.19
789.35	232.24
789.67	232.06
789.99	232.16
790.32	232.14
790.64	232.10
790.96	232.20
791.28	232.15
791.61	232.06
791.93	232.09
792.25	232.06
792.57	232.11
792.89	231.94
793.21	231.89
793.54	231.93
793.86	231.98
794.18	231.93
