SpectraSuite Data File
++++++++++++++++++++++++++++++++++++
Date: Fri Feb 01 14:40:47 EST 2013
User: group
Dark Spectrum Present: No
Reference Spectrum Present: No
Number of Sampled Component Spectra: 1
Spectrometers: USB2E7196
Integration Time (usec): 70000 (USB2E7196)
Spectra Averaged: 10 (USB2E7196)
Boxcar Smoothing: 10 (USB2E7196)
Correct for Electrical Dark: No (USB2E7196)
Strobe/Lamp Enabled: No (USB2E7196)
Correct for Detector Non-linearity: No (USB2E7196)
Correct for Stray Light: No (USB2E7196)
Number of Pixels in Processed Spectrum: 2048
>>>>>Begin Processed Spectral Data<<<<<
339.09	0.00
339.48	217.40
339.86	217.20
340.24	219.10
340.63	221.10
341.01	225.10
341.39	224.20
341.78	223.90
342.16	227.00
342.54	225.50
342.93	214.76
343.31	225.60
343.69	226.03
344.07	226.55
344.46	226.95
344.84	227.33
345.22	227.44
345.60	227.69
345.99	227.86
346.37	227.95
346.75	228.10
347.13	228.07
347.52	228.21
347.90	228.30
348.28	228.27
348.66	228.11
349.05	228.19
349.43	228.20
349.81	228.17
350.19	228.25
350.57	228.29
350.96	228.34
351.34	228.45
351.72	228.58
352.10	228.65
352.48	228.75
352.87	228.75
353.25	228.80
353.63	228.84
354.01	228.97
354.39	229.00
354.77	229.02
355.15	229.17
355.54	229.17
355.92	229.21
356.30	229.30
356.68	229.59
357.06	229.66
357.44	229.83
357.82	229.86
358.20	229.94
358.58	230.00
358.97	230.00
359.35	230.12
359.73	230.18
360.11	230.19
360.49	230.29
360.87	230.43
361.25	230.63
361.63	230.70
362.01	230.78
362.39	230.77
362.77	230.84
363.15	230.92
363.53	231.00
363.91	230.97
364.29	231.04
364.67	230.94
365.05	230.92
365.43	230.97
365.81	231.05
366.19	231.19
366.57	231.26
366.95	231.39
367.33	231.24
367.71	231.32
368.09	231.43
368.47	231.36
368.85	231.26
369.23	231.21
369.61	231.15
369.99	231.17
370.37	231.20
370.75	231.33
371.13	231.36
371.51	231.23
371.89	231.24
372.27	231.20
372.65	231.11
373.03	231.15
373.41	231.04
373.78	230.96
374.16	230.81
374.54	230.71
374.92	230.58
375.30	230.55
375.68	230.43
376.06	230.35
376.44	230.33
376.82	230.27
377.19	230.22
377.57	230.18
377.95	230.04
378.33	230.02
378.71	229.81
379.09	229.69
379.47	229.70
379.84	229.67
380.22	229.58
380.60	229.53
380.98	229.41
381.36	229.27
381.73	229.10
382.11	229.02
382.49	228.95
382.87	228.90
383.25	228.74
383.62	228.89
384.00	228.74
384.38	228.62
384.76	228.63
385.13	228.58
385.51	228.40
385.89	228.21
386.27	228.11
386.64	228.04
387.02	227.99
387.40	227.89
387.78	227.90
388.15	227.89
388.53	227.81
388.91	227.79
389.29	227.80
389.66	227.86
390.04	227.75
390.42	227.71
390.79	227.64
391.17	227.76
391.55	227.47
391.92	227.53
392.30	227.51
392.68	227.42
393.05	227.38
393.43	227.43
393.81	227.48
394.18	227.50
394.56	227.48
394.94	227.49
395.31	227.45
395.69	227.43
396.06	227.42
396.44	227.40
396.82	227.29
397.19	227.42
397.57	227.44
397.95	227.58
398.32	227.59
398.70	227.71
399.07	227.75
399.45	227.87
399.82	227.90
400.20	227.87
400.58	228.01
400.95	228.03
401.33	228.09
401.70	228.45
402.08	228.59
402.45	228.74
402.83	228.93
403.20	229.11
403.58	229.20
403.95	229.35
404.33	229.63
404.71	229.96
405.08	230.14
405.46	230.25
405.83	230.40
406.21	230.58
406.58	230.75
406.96	230.96
407.33	231.14
407.70	231.38
408.08	231.87
408.45	232.06
408.83	232.39
409.20	232.73
409.58	232.78
409.95	233.07
410.33	233.37
410.70	233.48
411.08	233.87
411.45	234.18
411.82	234.56
412.20	234.87
412.57	235.26
412.95	235.60
413.32	236.03
413.69	236.48
414.07	236.94
414.44	237.34
414.82	237.88
415.19	238.49
415.56	239.00
415.94	239.46
416.31	240.11
416.68	240.69
417.06	241.39
417.43	242.11
417.81	242.80
418.18	243.64
418.55	244.60
418.93	245.36
419.30	246.27
419.67	247.17
420.04	248.16
420.42	249.22
420.79	250.43
421.16	251.58
421.54	252.82
421.91	254.02
422.28	255.31
422.66	256.60
423.03	258.00
423.40	259.44
423.77	260.94
424.15	262.38
424.52	263.92
424.89	265.63
425.26	267.15
425.64	268.68
426.01	270.29
426.38	271.96
426.75	273.80
427.13	275.63
427.50	277.48
427.87	279.30
428.24	281.16
428.61	282.96
428.99	285.07
429.36	287.26
429.73	289.54
430.10	291.58
430.47	293.86
430.85	295.83
431.22	298.10
431.59	300.60
431.96	303.00
432.33	305.59
432.70	307.96
433.08	310.93
433.45	313.65
433.82	316.35
434.19	319.31
434.56	322.23
434.93	324.89
435.30	327.68
435.68	330.71
436.05	333.66
436.42	336.40
436.79	339.10
437.16	341.88
437.53	344.73
437.90	347.87
438.27	350.50
438.64	353.64
439.01	356.46
439.38	358.77
439.75	361.00
440.13	363.44
440.50	365.80
440.87	367.65
441.24	369.65
441.61	371.83
441.98	373.40
442.35	375.20
442.72	377.20
443.09	379.02
443.46	380.07
443.83	380.62
444.20	381.17
444.57	381.90
444.94	382.12
445.31	382.47
445.68	382.81
446.05	382.92
446.42	382.43
446.79	381.86
447.16	381.24
447.53	380.80
447.90	379.70
448.27	378.60
448.64	377.09
449.01	375.91
449.37	373.93
449.74	371.97
450.11	369.68
450.48	367.21
450.85	364.55
451.22	362.26
451.59	360.12
451.96	358.08
452.33	355.46
452.70	352.86
453.07	349.88
453.43	346.78
453.80	343.89
454.17	341.07
454.54	338.38
454.91	335.71
455.28	332.91
455.65	330.29
456.02	327.80
456.38	325.41
456.75	322.63
457.12	320.20
457.49	317.83
457.86	315.50
458.23	313.39
458.59	311.21
458.96	309.07
459.33	307.05
459.70	305.08
460.07	303.38
460.43	301.59
460.80	299.91
461.17	298.46
461.54	296.93
461.91	295.39
462.27	293.90
462.64	292.50
463.01	291.12
463.38	289.81
463.74	288.26
464.11	287.04
464.48	285.91
464.85	284.78
465.21	283.83
465.58	282.91
465.95	281.77
466.32	280.80
466.68	279.80
467.05	278.90
467.42	278.02
467.78	277.05
468.15	276.20
468.52	275.50
468.88	274.46
469.25	273.62
469.62	272.96
469.98	272.27
470.35	271.56
470.72	270.89
471.08	270.08
471.45	269.39
471.82	268.75
472.18	268.04
472.55	267.53
472.92	266.90
473.28	266.30
473.65	265.73
474.02	265.11
474.38	264.63
474.75	264.20
475.11	263.65
475.48	263.25
475.85	262.87
476.21	262.37
476.58	262.07
476.94	261.76
477.31	261.34
477.67	260.88
478.04	260.55
478.41	260.33
478.77	260.17
479.14	259.89
479.50	259.65
479.87	259.50
480.23	259.29
480.60	259.13
480.96	258.94
481.33	258.86
481.69	258.94
482.06	258.74
482.42	258.64
482.79	258.57
483.15	258.48
483.52	258.60
483.88	258.60
484.25	258.57
484.61	258.57
484.98	258.67
485.34	258.80
485.71	259.01
486.07	259.07
486.44	259.18
486.80	259.49
487.17	259.83
487.53	260.19
487.90	260.51
488.26	260.98
488.62	261.41
488.99	261.83
489.35	262.13
489.72	262.73
490.08	263.26
490.44	263.90
490.81	264.49
491.17	265.03
491.54	265.76
491.90	266.44
492.26	267.24
492.63	267.98
492.99	268.90
493.36	269.75
493.72	270.81
494.08	271.84
494.45	272.84
494.81	274.02
495.17	275.21
495.54	276.46
495.90	277.78
496.26	279.12
496.63	280.62
496.99	282.31
497.35	283.98
497.72	285.75
498.08	287.53
498.44	289.57
498.80	291.74
499.17	293.98
499.53	296.38
499.89	298.83
500.26	301.43
500.62	304.03
500.98	306.91
501.34	309.83
501.71	312.85
502.07	316.03
502.43	319.27
502.79	322.67
503.16	326.24
503.52	329.86
503.88	333.64
504.24	337.57
504.60	341.65
504.97	345.96
505.33	350.45
505.69	355.24
506.05	360.00
506.41	364.76
506.78	369.74
507.14	374.80
507.50	380.21
507.86	385.85
508.22	391.70
508.59	397.43
508.95	403.58
509.31	410.10
509.67	416.80
510.03	423.48
510.39	430.21
510.75	437.42
511.12	444.57
511.48	452.07
511.84	459.67
512.20	467.26
512.56	475.36
512.92	483.74
513.28	492.07
513.64	500.74
514.00	509.74
514.37	518.65
514.73	527.96
515.09	537.25
515.45	546.78
515.81	556.07
516.17	566.16
516.53	576.24
516.89	586.59
517.25	596.87
517.61	607.48
517.97	618.00
518.33	628.47
518.69	639.68
519.05	650.91
519.41	662.30
519.77	674.24
520.13	685.99
520.49	697.48
520.85	709.27
521.21	721.18
521.57	733.33
521.93	745.59
522.29	758.25
522.65	770.62
523.01	783.30
523.37	796.09
523.73	808.67
524.09	821.37
524.45	834.28
524.81	847.48
525.17	860.83
525.53	874.63
525.89	888.46
526.25	902.44
526.61	915.81
526.97	929.76
527.33	943.68
527.68	957.67
528.04	972.05
528.40	986.39
528.76	1000.89
529.12	1015.25
529.48	1029.71
529.84	1043.63
530.20	1058.10
530.56	1073.05
530.91	1088.51
531.27	1103.63
531.63	1118.73
531.99	1133.54
532.35	1148.67
532.71	1163.28
533.07	1178.33
533.42	1192.88
533.78	1207.52
534.14	1222.90
534.50	1237.24
534.86	1251.92
535.21	1266.24
535.57	1281.04
535.93	1295.50
536.29	1309.75
536.65	1324.25
537.00	1338.49
537.36	1353.44
537.72	1367.90
538.08	1381.52
538.44	1395.16
538.79	1408.78
539.15	1422.31
539.51	1436.26
539.87	1449.86
540.22	1463.83
540.58	1477.77
540.94	1491.50
541.29	1504.65
541.65	1517.65
542.01	1531.44
542.37	1544.63
542.72	1557.57
543.08	1569.66
543.44	1582.81
543.79	1595.01
544.15	1607.44
544.51	1620.42
544.87	1632.52
545.22	1644.63
545.58	1656.80
545.94	1668.08
546.29	1679.79
546.65	1690.99
547.01	1701.81
547.36	1712.65
547.72	1722.69
548.07	1732.70
548.43	1742.86
548.79	1753.29
549.14	1762.90
549.50	1772.40
549.86	1781.26
550.21	1790.88
550.57	1800.71
550.92	1809.40
551.28	1818.59
551.64	1826.88
551.99	1835.28
552.35	1843.69
552.70	1851.96
553.06	1860.33
553.41	1869.34
553.77	1877.33
554.13	1885.71
554.48	1893.67
554.84	1901.29
555.19	1909.31
555.55	1916.84
555.90	1924.03
556.26	1930.67
556.61	1937.99
556.97	1944.47
557.32	1951.60
557.68	1958.35
558.03	1964.90
558.39	1971.57
558.74	1978.76
559.10	1985.47
559.45	1991.66
559.81	1998.34
560.16	2003.79
560.52	2009.51
560.87	2014.98
561.23	2020.28
561.58	2025.83
561.94	2031.30
562.29	2036.01
562.64	2040.69
563.00	2044.93
563.35	2049.97
563.71	2055.33
564.06	2060.60
564.42	2065.21
564.77	2069.60
565.12	2074.21
565.48	2078.20
565.83	2081.94
566.19	2085.32
566.54	2088.76
566.89	2091.87
567.25	2094.37
567.60	2098.27
567.96	2101.13
568.31	2103.70
568.66	2105.97
569.02	2108.27
569.37	2110.08
569.72	2112.79
570.08	2114.83
570.43	2116.64
570.78	2118.32
571.14	2118.71
571.49	2119.55
571.84	2121.55
572.20	2122.40
572.55	2122.52
572.90	2122.54
573.26	2123.19
573.61	2123.18
573.96	2123.30
574.31	2122.36
574.67	2121.14
575.02	2119.74
575.37	2118.51
575.72	2116.71
576.08	2115.96
576.43	2114.18
576.78	2112.82
577.13	2111.23
577.49	2109.48
577.84	2107.91
578.19	2105.97
578.54	2104.22
578.90	2101.27
579.25	2097.77
579.60	2095.00
579.95	2092.04
580.30	2089.36
580.66	2085.54
581.01	2081.76
581.36	2078.48
581.71	2076.11
582.06	2073.26
582.42	2069.78
582.77	2066.54
583.12	2063.08
583.47	2059.60
583.82	2056.15
584.17	2052.39
584.53	2048.43
584.88	2044.92
585.23	2040.88
585.58	2037.07
585.93	2033.21
586.28	2029.86
586.63	2026.07
586.98	2022.21
587.34	2018.40
587.69	2014.32
588.04	2010.43
588.39	2006.86
588.74	2001.45
589.09	1996.46
589.44	1991.49
589.79	1987.18
590.14	1982.84
590.49	1978.53
590.84	1973.51
591.19	1968.70
591.54	1962.92
591.89	1956.70
592.25	1951.18
592.60	1945.38
592.95	1939.19
593.30	1933.43
593.65	1927.42
594.00	1921.37
594.35	1915.71
594.70	1909.24
595.05	1903.59
595.40	1897.31
595.75	1890.94
596.10	1885.82
596.45	1880.45
596.80	1875.80
597.15	1870.26
597.50	1864.32
597.85	1858.76
598.19	1853.68
598.54	1848.43
598.89	1843.10
599.24	1838.34
599.59	1832.98
599.94	1827.80
600.29	1822.42
600.64	1816.70
600.99	1810.53
601.34	1805.26
601.69	1799.00
602.04	1793.31
602.39	1787.20
602.74	1781.94
603.08	1776.58
603.43	1771.18
603.78	1765.27
604.13	1758.87
604.48	1752.36
604.83	1745.96
605.18	1739.91
605.53	1733.00
605.87	1725.72
606.22	1719.87
606.57	1713.21
606.92	1706.51
607.27	1700.50
607.62	1694.41
607.96	1687.93
608.31	1681.89
608.66	1674.90
609.01	1668.23
609.36	1661.17
609.70	1653.68
610.05	1646.08
610.40	1638.98
610.75	1631.32
611.10	1623.51
611.44	1615.50
611.79	1608.91
612.14	1601.35
612.49	1592.89
612.83	1584.99
613.18	1577.37
613.53	1569.54
613.88	1561.57
614.22	1553.77
614.57	1545.48
614.92	1537.23
615.27	1530.08
615.61	1522.36
615.96	1514.87
616.31	1507.52
616.65	1501.35
617.00	1494.66
617.35	1487.61
617.70	1479.69
618.04	1472.05
618.39	1465.00
618.74	1457.92
619.08	1450.04
619.43	1443.10
619.78	1436.64
620.12	1429.50
620.47	1422.45
620.82	1414.89
621.16	1407.96
621.51	1400.86
621.85	1393.97
622.20	1386.64
622.55	1379.26
622.89	1372.29
623.24	1365.45
623.59	1358.83
623.93	1351.23
624.28	1343.84
624.62	1336.86
624.97	1330.46
625.32	1323.95
625.66	1317.21
626.01	1310.34
626.35	1303.45
626.70	1296.78
627.04	1289.75
627.39	1282.70
627.73	1275.87
628.08	1269.23
628.43	1262.44
628.77	1255.79
629.12	1248.20
629.46	1241.23
629.81	1233.84
630.15	1226.20
630.50	1218.72
630.84	1211.10
631.19	1203.51
631.53	1196.32
631.88	1188.82
632.22	1181.03
632.57	1173.86
632.91	1166.57
633.26	1159.38
633.60	1151.93
633.95	1144.41
634.29	1137.57
634.64	1131.00
634.98	1124.03
635.32	1117.19
635.67	1110.56
636.01	1103.77
636.36	1097.31
636.70	1091.13
637.05	1084.78
637.39	1078.85
637.73	1072.74
638.08	1066.87
638.42	1061.07
638.77	1055.11
639.11	1049.15
639.45	1043.17
639.80	1036.96
640.14	1030.53
640.49	1024.34
640.83	1018.39
641.17	1012.20
641.52	1005.93
641.86	999.83
642.20	993.97
642.55	987.89
642.89	981.70
643.23	975.65
643.58	969.90
643.92	963.49
644.26	957.46
644.61	951.50
644.95	945.47
645.29	938.66
645.64	932.31
645.98	926.31
646.32	920.45
646.66	914.37
647.01	908.34
647.35	902.71
647.69	896.86
648.04	891.36
648.38	885.42
648.72	879.23
649.06	873.18
649.41	867.35
649.75	861.51
650.09	855.61
650.43	849.55
650.78	843.32
651.12	837.47
651.46	831.87
651.80	826.39
652.14	820.70
652.49	815.12
652.83	809.68
653.17	803.83
653.51	798.21
653.85	792.80
654.20	787.04
654.54	781.41
654.88	775.86
655.22	769.80
655.56	764.37
655.90	759.23
656.25	754.12
656.59	748.84
656.93	743.77
657.27	738.67
657.61	733.21
657.95	728.56
658.29	723.54
658.64	718.40
658.98	712.61
659.32	707.54
659.66	702.81
660.00	697.77
660.34	693.02
660.68	688.13
661.02	683.29
661.36	678.80
661.70	674.00
662.05	669.65
662.39	665.53
662.73	661.04
663.07	656.65
663.41	652.33
663.75	647.78
664.09	643.30
664.43	639.05
664.77	635.18
665.11	631.12
665.45	627.23
665.79	623.02
666.13	619.13
666.47	615.04
666.81	610.85
667.15	606.46
667.49	602.29
667.83	598.44
668.17	594.34
668.51	590.46
668.85	586.88
669.19	583.08
669.53	579.15
669.87	575.46
670.21	571.69
670.55	567.88
670.89	564.60
671.23	561.29
671.57	557.78
671.91	554.21
672.25	550.59
672.58	547.22
672.92	543.96
673.26	540.83
673.60	537.57
673.94	534.51
674.28	531.89
674.62	529.27
674.96	526.00
675.30	523.28
675.64	520.15
675.97	517.06
676.31	514.23
676.65	511.32
676.99	508.57
677.33	505.65
677.67	502.80
678.01	499.61
678.34	496.50
678.68	493.67
679.02	490.92
679.36	488.20
679.70	485.49
680.04	482.62
680.37	479.84
680.71	477.24
681.05	474.75
681.39	472.25
681.73	469.51
682.06	467.09
682.40	464.60
682.74	462.20
683.08	459.79
683.42	457.22
683.75	455.00
684.09	452.39
684.43	449.94
684.77	447.55
685.10	445.27
685.44	442.95
685.78	440.70
686.12	438.37
686.45	436.00
686.79	433.64
687.13	431.46
687.46	429.26
687.80	426.78
688.14	424.45
688.48	422.07
688.81	419.80
689.15	417.57
689.49	415.23
689.82	413.18
690.16	410.99
690.50	408.96
690.83	406.91
691.17	404.92
691.51	403.04
691.84	401.14
692.18	398.99
692.52	396.99
692.85	394.91
693.19	393.01
693.52	391.09
693.86	389.11
694.20	387.20
694.53	385.34
694.87	383.52
695.21	381.74
695.54	379.90
695.88	378.21
696.21	376.46
696.55	374.88
696.88	373.08
697.22	371.41
697.56	369.72
697.89	367.80
698.23	366.14
698.56	364.48
698.90	362.77
699.23	361.18
699.57	359.42
699.90	357.74
700.24	356.16
700.58	354.50
700.91	353.00
701.25	351.62
701.58	350.20
701.92	348.98
702.25	347.50
702.59	346.10
702.92	344.48
703.26	343.09
703.59	341.71
703.93	340.47
704.26	339.08
704.60	337.66
704.93	336.46
705.26	335.17
705.60	333.93
705.93	332.81
706.27	331.85
706.60	330.83
706.94	329.66
707.27	328.44
707.61	327.38
707.94	326.36
708.27	325.03
708.61	323.77
708.94	322.53
709.28	321.48
709.61	320.39
709.94	319.47
710.28	318.36
710.61	317.22
710.95	316.08
711.28	315.10
711.61	314.10
711.95	313.13
712.28	312.06
712.61	310.90
712.95	309.72
713.28	308.73
713.61	307.70
713.95	306.82
714.28	305.82
714.61	304.79
714.95	303.78
715.28	302.77
715.61	301.81
715.95	301.08
716.28	300.13
716.61	299.25
716.95	298.34
717.28	297.49
717.61	296.71
717.94	295.85
718.28	294.97
718.61	294.00
718.94	293.10
719.27	292.34
719.61	291.64
719.94	291.05
720.27	290.17
720.60	289.45
720.94	288.81
721.27	288.22
721.60	287.74
721.93	287.11
722.27	286.72
722.60	286.22
722.93	285.50
723.26	284.89
723.59	284.29
723.93	283.69
724.26	283.21
724.59	282.52
724.92	281.98
725.25	281.54
725.59	281.07
725.92	280.56
726.25	280.03
726.58	279.48
726.91	278.80
727.24	278.29
727.57	277.83
727.91	277.30
728.24	276.77
728.57	276.09
728.90	275.51
729.23	274.85
729.56	274.37
729.89	273.76
730.22	273.34
730.55	272.83
730.89	272.45
731.22	271.91
731.55	271.50
731.88	271.01
732.21	270.38
732.54	269.88
732.87	269.50
733.20	269.10
733.53	268.79
733.86	268.49
734.19	268.14
734.52	267.73
734.85	267.30
735.18	266.86
735.51	266.51
735.84	266.12
736.17	265.88
736.50	265.48
736.83	265.37
737.16	264.90
737.49	264.50
737.82	264.07
738.15	263.69
738.48	263.39
738.81	262.93
739.14	262.60
739.47	262.29
739.80	261.83
740.13	261.62
740.46	261.22
740.79	260.81
741.12	260.40
741.45	260.02
741.78	259.63
742.11	259.35
742.44	258.95
742.77	258.60
743.10	258.14
743.43	257.59
743.75	256.98
744.08	256.86
744.41	256.51
744.74	256.16
745.07	255.81
745.40	255.46
745.73	255.25
746.06	254.97
746.39	254.72
746.71	254.40
747.04	253.94
747.37	253.61
747.70	253.29
748.03	252.95
748.36	252.70
748.68	252.50
749.01	252.25
749.34	252.04
749.67	251.83
750.00	251.54
750.33	251.62
750.65	251.37
750.98	250.88
751.31	250.61
751.64	250.29
751.97	250.18
752.29	249.82
752.62	249.55
752.95	249.30
753.28	248.87
753.60	248.61
753.93	248.38
754.26	248.10
754.59	247.84
754.91	247.60
755.24	247.35
755.57	247.00
755.90	246.71
756.22	246.45
756.55	246.12
756.88	245.92
757.20	245.49
757.53	245.32
757.86	245.22
758.19	245.11
758.51	244.92
758.84	244.62
759.17	244.48
759.49	244.28
759.82	244.21
760.15	244.19
760.47	244.08
760.80	243.85
761.13	243.74
761.45	243.60
761.78	243.42
762.11	243.17
762.43	242.96
762.76	242.71
763.08	242.61
763.41	242.56
763.74	242.42
764.06	242.30
764.39	242.03
764.71	241.79
765.04	241.56
765.37	241.49
765.69	241.26
766.02	241.15
766.34	241.01
766.67	240.70
767.00	240.63
767.32	240.57
767.65	240.60
767.97	240.45
768.30	240.31
768.62	240.21
768.95	240.11
769.27	240.06
769.60	240.00
769.92	239.79
770.25	239.63
770.57	239.38
770.90	239.24
771.22	239.16
771.55	239.07
771.87	239.00
772.20	238.84
772.52	239.00
772.85	239.07
773.17	238.99
773.50	238.86
773.82	238.68
774.15	238.51
774.47	238.19
774.80	238.00
775.12	237.85
775.45	237.77
775.77	237.67
776.09	237.61
776.42	237.56
776.74	237.57
777.07	237.34
777.39	237.30
777.72	237.20
778.04	237.19
778.36	237.04
778.69	236.97
779.01	237.00
779.33	236.77
779.66	236.50
779.98	236.35
780.31	236.32
780.63	236.39
780.95	236.28
781.28	236.24
781.60	236.27
781.92	236.20
782.25	236.06
782.57	236.02
782.89	235.95
783.22	235.78
783.54	235.67
783.86	235.64
784.19	235.60
784.51	235.53
784.83	235.37
785.16	235.36
785.48	235.28
785.80	235.09
786.12	234.97
786.45	234.81
786.77	234.75
787.09	234.70
787.42	234.53
