SpectraSuite Data File
++++++++++++++++++++++++++++++++++++
Date: Fri Feb 01 14:38:33 EST 2013
User: group
Dark Spectrum Present: No
Reference Spectrum Present: No
Number of Sampled Component Spectra: 1
Spectrometers: USB2E7196
Integration Time (usec): 70000 (USB2E7196)
Spectra Averaged: 10 (USB2E7196)
Boxcar Smoothing: 10 (USB2E7196)
Correct for Electrical Dark: No (USB2E7196)
Strobe/Lamp Enabled: No (USB2E7196)
Correct for Detector Non-linearity: No (USB2E7196)
Correct for Stray Light: No (USB2E7196)
Number of Pixels in Processed Spectrum: 2048
>>>>>Begin Processed Spectral Data<<<<<
339.09	0.00
339.48	216.40
339.86	218.80
340.24	219.20
340.63	220.30
341.01	223.20
341.39	224.40
341.78	224.50
342.16	225.40
342.54	224.70
342.93	214.60
343.31	225.43
343.69	225.89
344.07	226.30
344.46	226.71
344.84	227.12
345.22	227.33
345.60	227.59
345.99	227.80
346.37	228.05
346.75	228.21
347.13	228.40
347.52	228.50
347.90	228.54
348.28	228.51
348.66	228.60
349.05	228.44
349.43	228.54
349.81	228.62
350.19	228.77
350.57	228.93
350.96	228.97
351.34	228.99
351.72	229.17
352.10	229.30
352.48	229.40
352.87	229.43
353.25	229.55
353.63	229.47
354.01	229.49
354.39	229.43
354.77	229.46
355.15	229.53
355.54	229.47
355.92	229.60
356.30	229.71
356.68	229.83
357.06	230.00
357.44	230.03
357.82	230.04
358.20	230.12
358.58	230.15
358.97	230.17
359.35	230.40
359.73	230.50
360.11	230.51
360.49	230.52
360.87	230.52
361.25	230.54
361.63	230.68
362.01	230.68
362.39	230.76
362.77	230.82
363.15	230.91
363.53	230.98
363.91	230.94
364.29	230.85
364.67	230.64
365.05	230.65
365.43	230.62
365.81	230.64
366.19	230.63
366.57	230.66
366.95	230.66
367.33	230.46
367.71	230.36
368.09	230.35
368.47	230.37
368.85	230.35
369.23	230.36
369.61	230.23
369.99	230.30
370.37	230.21
370.75	230.23
371.13	230.02
371.51	229.95
371.89	229.85
372.27	229.75
372.65	229.70
373.03	229.56
373.41	229.41
373.78	229.24
374.16	228.99
374.54	228.90
374.92	228.85
375.30	228.83
375.68	228.75
376.06	228.67
376.44	228.53
376.82	228.46
377.19	228.38
377.57	228.40
377.95	228.20
378.33	228.13
378.71	227.94
379.09	227.86
379.47	227.75
379.84	227.69
380.22	227.60
380.60	227.52
380.98	227.55
381.36	227.46
381.73	227.39
382.11	227.39
382.49	227.27
382.87	227.20
383.25	227.08
383.62	227.23
384.00	227.13
384.38	227.13
384.76	227.12
385.13	227.11
385.51	226.96
385.89	226.95
386.27	226.79
386.64	226.82
387.02	226.86
387.40	226.76
387.78	226.74
388.15	226.72
388.53	226.62
388.91	226.49
389.29	226.48
389.66	226.55
390.04	226.52
390.42	226.60
390.79	226.47
391.17	226.49
391.55	226.28
391.92	226.32
392.30	226.27
392.68	226.31
393.05	226.26
393.43	226.31
393.81	226.30
394.18	226.34
394.56	226.38
394.94	226.37
395.31	226.44
395.69	226.50
396.06	226.69
396.44	226.79
396.82	226.90
397.19	227.00
397.57	226.99
397.95	227.11
398.32	227.04
398.70	227.16
399.07	227.30
399.45	227.40
399.82	227.41
400.20	227.56
400.58	227.58
400.95	227.75
401.33	227.95
401.70	228.20
402.08	228.35
402.45	228.38
402.83	228.62
403.20	228.76
403.58	228.86
403.95	228.90
404.33	229.06
404.71	229.28
405.08	229.65
405.46	229.80
405.83	229.97
406.21	230.17
406.58	230.31
406.96	230.52
407.33	230.75
407.70	231.11
408.08	231.42
408.45	231.67
408.83	231.86
409.20	231.99
409.58	232.17
409.95	232.50
410.33	232.84
410.70	233.07
411.08	233.49
411.45	233.97
411.82	234.39
412.20	234.77
412.57	235.24
412.95	235.42
413.32	236.01
413.69	236.44
414.07	236.93
414.44	237.56
414.82	238.05
415.19	238.61
415.56	239.20
415.94	239.75
416.31	240.45
416.68	241.18
417.06	242.06
417.43	242.99
417.81	243.85
418.18	244.77
418.55	245.80
418.93	246.77
419.30	247.77
419.67	248.86
420.04	250.10
420.42	251.16
420.79	252.71
421.16	254.00
421.54	255.51
421.91	257.10
422.28	258.65
422.66	260.29
423.03	262.00
423.40	263.52
423.77	265.37
424.15	267.31
424.52	269.16
424.89	271.26
425.26	273.11
425.64	274.97
426.01	277.04
426.38	279.17
426.75	281.39
427.13	283.66
427.50	286.00
427.87	288.45
428.24	290.97
428.61	293.29
428.99	296.06
429.36	298.87
429.73	301.50
430.10	304.21
430.47	307.00
430.85	309.82
431.22	312.91
431.59	316.20
431.96	319.11
432.33	322.50
432.70	325.71
433.08	329.53
433.45	333.20
433.82	336.78
434.19	340.72
434.56	344.70
434.93	348.40
435.30	352.06
435.68	356.12
436.05	360.13
436.42	364.03
436.79	367.66
437.16	371.52
437.53	375.65
437.90	379.77
438.27	383.87
438.64	387.97
439.01	391.84
439.38	395.38
439.75	398.75
440.13	402.50
440.50	406.07
440.87	409.00
441.24	412.03
441.61	415.44
441.98	417.82
442.35	420.72
442.72	423.43
443.09	426.53
443.46	428.28
443.83	429.46
444.20	430.69
444.57	432.22
444.94	433.03
445.31	434.12
445.68	435.17
446.05	435.88
446.42	435.82
446.79	435.64
447.16	435.10
447.53	434.97
447.90	433.82
448.27	432.75
448.64	430.96
449.01	429.87
449.37	427.66
449.74	425.50
450.11	422.71
450.48	419.81
450.85	416.47
451.22	413.99
451.59	411.55
451.96	409.01
452.33	405.69
452.70	402.61
453.07	398.79
453.43	394.90
453.80	390.94
454.17	387.41
454.54	384.08
454.91	380.56
455.28	377.00
455.65	373.58
456.02	370.30
456.38	367.48
456.75	363.90
457.12	360.68
457.49	357.57
457.86	354.52
458.23	352.02
458.59	349.22
458.96	346.30
459.33	343.71
459.70	341.26
460.07	339.14
460.43	336.84
460.80	334.50
461.17	332.44
461.54	330.33
461.91	328.27
462.27	326.17
462.64	324.25
463.01	322.34
463.38	320.70
463.74	318.60
464.11	316.76
464.48	315.11
464.85	313.52
465.21	312.22
465.58	310.80
465.95	309.21
466.32	307.91
466.68	306.47
467.05	305.15
467.42	303.65
467.78	302.17
468.15	300.81
468.52	299.77
468.88	298.36
469.25	297.11
469.62	296.04
469.98	294.96
470.35	294.04
470.72	293.15
471.08	291.98
471.45	291.02
471.82	290.25
472.18	289.30
472.55	288.44
472.92	287.51
473.28	286.77
473.65	285.88
474.02	285.05
474.38	284.30
474.75	283.59
475.11	282.91
475.48	282.35
475.85	281.69
476.21	281.09
476.58	280.59
476.94	280.24
477.31	279.70
477.67	279.22
478.04	278.69
478.41	278.27
478.77	278.01
479.14	277.60
479.50	277.22
479.87	276.86
480.23	276.62
480.60	276.56
480.96	276.18
481.33	276.02
481.69	275.73
482.06	275.54
482.42	275.34
482.79	275.22
483.15	275.00
483.52	275.11
483.88	274.98
484.25	274.88
484.61	274.80
484.98	274.84
485.34	274.96
485.71	275.10
486.07	275.10
486.44	275.01
486.80	275.05
487.17	275.01
487.53	275.15
487.90	275.23
488.26	275.26
488.62	275.49
488.99	275.64
489.35	275.86
489.72	276.04
490.08	276.28
490.44	276.42
490.81	276.74
491.17	276.70
491.54	276.94
491.90	277.24
492.26	277.47
492.63	277.79
492.99	278.01
493.36	278.22
493.72	278.52
494.08	278.83
494.45	279.16
494.81	279.63
495.17	279.90
495.54	280.31
495.90	280.59
496.26	280.92
496.63	281.33
496.99	281.63
497.35	281.87
497.72	282.20
498.08	282.45
498.44	282.79
498.80	283.19
499.17	283.60
499.53	283.94
499.89	284.36
500.26	284.71
500.62	285.10
500.98	285.46
501.34	285.81
501.71	286.15
502.07	286.56
502.43	286.92
502.79	287.22
503.16	287.50
503.52	287.85
503.88	288.18
504.24	288.43
504.60	288.87
504.97	289.34
505.33	289.74
505.69	290.32
506.05	290.62
506.41	290.98
506.78	291.42
507.14	291.83
507.50	292.18
507.86	292.63
508.22	292.94
508.59	293.36
508.95	293.77
509.31	294.22
509.67	294.66
510.03	295.01
510.39	295.67
510.75	296.26
511.12	296.87
511.48	297.45
511.84	298.12
512.20	298.74
512.56	299.43
512.92	300.23
513.28	301.03
513.64	301.98
514.00	302.91
514.37	303.92
514.73	304.84
515.09	305.90
515.45	306.85
515.81	308.00
516.17	309.23
516.53	310.42
516.89	311.72
517.25	313.07
517.61	314.55
517.97	316.01
518.33	317.46
518.69	319.12
519.05	320.82
519.41	322.59
519.77	324.49
520.13	326.35
520.49	328.20
520.85	330.13
521.21	332.10
521.57	334.24
521.93	336.28
522.29	338.59
522.65	340.70
523.01	343.07
523.37	345.62
523.73	348.35
524.09	351.11
524.45	353.89
524.81	356.70
525.17	359.71
525.53	362.78
525.89	365.88
526.25	369.10
526.61	372.33
526.97	375.53
527.33	379.01
527.68	382.70
528.04	386.30
528.40	389.85
528.76	393.81
529.12	397.79
529.48	401.70
529.84	405.77
530.20	409.94
530.56	414.33
530.91	418.73
531.27	422.96
531.63	427.43
531.99	431.92
532.35	436.48
532.71	440.97
533.07	445.58
533.42	450.50
533.78	455.20
534.14	460.16
534.50	465.22
534.86	470.19
535.21	475.20
535.57	480.38
535.93	485.89
536.29	491.06
536.65	496.44
537.00	501.77
537.36	507.13
537.72	512.74
538.08	518.34
538.44	523.74
538.79	529.36
539.15	534.91
539.51	540.74
539.87	546.86
540.22	552.79
540.58	558.79
540.94	564.56
541.29	570.36
541.65	576.34
542.01	582.44
542.37	588.50
542.72	594.40
543.08	600.47
543.44	606.43
543.79	612.33
544.15	618.52
544.51	625.20
544.87	631.60
545.22	637.62
545.58	643.68
545.94	649.75
546.29	655.87
546.65	661.91
547.01	668.04
547.36	673.76
547.72	679.55
548.07	685.66
548.43	691.81
548.79	698.10
549.14	704.05
549.50	709.70
549.86	715.21
550.21	720.98
550.57	726.80
550.92	732.36
551.28	738.14
551.64	743.74
551.99	749.23
552.35	754.79
552.70	760.54
553.06	766.38
553.41	772.03
553.77	777.54
554.13	783.18
554.48	788.61
554.84	794.20
555.19	800.02
555.55	805.47
555.90	810.68
556.26	815.90
556.61	821.07
556.97	826.36
557.32	831.99
557.68	837.29
558.03	842.32
558.39	847.84
558.74	853.40
559.10	858.49
559.45	863.49
559.81	868.70
560.16	873.43
560.52	878.08
560.87	883.10
561.23	888.10
561.58	893.14
561.94	897.76
562.29	902.37
562.64	906.81
563.00	911.31
563.35	916.31
563.71	921.03
564.06	925.52
564.42	930.00
564.77	934.31
565.12	938.94
565.48	943.49
565.83	947.61
566.19	951.65
566.54	955.54
566.89	959.43
567.25	963.29
567.60	967.28
567.96	971.38
568.31	975.11
568.66	978.59
569.02	981.90
569.37	985.27
569.72	988.63
570.08	991.94
570.43	995.11
570.78	997.77
571.14	1000.47
571.49	1003.73
571.84	1007.00
572.20	1009.75
572.55	1012.30
572.90	1014.77
573.26	1017.18
573.61	1019.51
573.96	1021.82
574.31	1023.69
574.67	1025.15
575.02	1027.20
575.37	1028.94
575.72	1030.27
576.08	1031.89
576.43	1033.63
576.78	1035.20
577.13	1036.87
577.49	1038.37
577.84	1039.48
578.19	1040.81
578.54	1041.87
578.90	1042.59
579.25	1043.01
579.60	1043.43
579.95	1043.71
580.30	1044.24
580.66	1044.45
581.01	1044.72
581.36	1045.25
581.71	1045.89
582.06	1046.52
582.42	1046.94
582.77	1046.99
583.12	1047.36
583.47	1047.59
583.82	1047.78
584.17	1047.74
584.53	1047.82
584.88	1047.51
585.23	1047.49
585.58	1047.40
585.93	1047.40
586.28	1047.36
586.63	1047.61
586.98	1047.77
587.34	1047.85
587.69	1047.61
588.04	1047.87
588.39	1047.88
588.74	1046.76
589.09	1046.00
589.44	1045.16
589.79	1044.26
590.14	1043.72
590.49	1043.05
590.84	1042.26
591.19	1041.40
591.54	1040.33
591.89	1038.57
592.25	1037.77
592.60	1036.27
592.95	1034.74
593.30	1033.33
593.65	1031.89
594.00	1030.30
594.35	1029.35
594.70	1027.55
595.05	1026.18
595.40	1024.26
595.75	1022.29
596.10	1021.17
596.45	1019.99
596.80	1018.72
597.15	1017.34
597.50	1015.66
597.85	1014.28
598.19	1012.84
598.54	1010.99
598.89	1009.67
599.24	1008.61
599.59	1006.67
599.94	1005.39
600.29	1003.96
600.64	1002.33
600.99	1000.22
601.34	998.23
601.69	995.69
602.04	994.16
602.39	991.87
602.74	990.28
603.08	988.48
603.43	986.89
603.78	984.80
604.13	982.71
604.48	980.63
604.83	978.62
605.18	976.57
605.53	973.91
605.87	971.77
606.22	969.31
606.57	966.74
606.92	964.43
607.27	962.34
607.62	960.20
607.96	957.89
608.31	955.82
608.66	953.53
609.01	951.02
609.36	948.09
609.70	945.44
610.05	942.49
610.40	940.00
610.75	937.15
611.10	934.42
611.44	931.41
611.79	928.47
612.14	925.47
612.49	921.84
612.83	918.89
613.18	915.68
613.53	912.90
613.88	909.75
614.22	906.79
614.57	903.11
614.92	899.60
615.27	896.50
615.61	893.20
615.96	889.61
616.31	886.77
616.65	884.12
617.00	881.30
617.35	877.99
617.70	874.36
618.04	870.69
618.39	867.35
618.74	864.13
619.08	860.87
619.43	857.74
619.78	854.90
620.12	851.63
620.47	848.30
620.82	844.65
621.16	841.62
621.51	838.41
621.85	835.09
622.20	831.69
622.55	828.44
622.89	825.08
623.24	822.45
623.59	819.26
623.93	816.07
624.28	812.76
624.62	809.99
624.97	807.10
625.32	804.32
625.66	801.19
626.01	798.10
626.35	795.08
626.70	791.81
627.04	788.79
627.39	785.89
627.73	782.90
628.08	779.90
628.43	776.67
628.77	773.32
629.12	770.25
629.46	767.08
629.81	763.44
630.15	760.30
630.50	756.74
630.84	753.14
631.19	749.31
631.53	745.97
631.88	742.19
632.22	738.35
632.57	734.97
632.91	731.68
633.26	728.40
633.60	724.73
633.95	721.27
634.29	717.94
634.64	714.72
634.98	711.42
635.32	708.09
635.67	704.96
636.01	701.93
636.36	698.85
636.70	695.67
637.05	692.90
637.39	689.82
637.73	686.63
638.08	683.99
638.42	681.43
638.77	678.48
639.11	675.55
639.45	672.77
639.80	669.61
640.14	666.52
640.49	663.55
640.83	660.75
641.17	657.97
641.52	655.09
641.86	652.05
642.20	649.10
642.55	646.31
642.89	643.41
643.23	640.27
643.58	637.55
643.92	634.59
644.26	631.52
644.61	628.84
644.95	626.03
645.29	622.74
645.64	619.30
645.98	616.45
646.32	613.68
646.66	610.70
647.01	607.73
647.35	605.04
647.69	602.22
648.04	599.45
648.38	596.30
648.72	593.01
649.06	589.87
649.41	586.96
649.75	583.76
650.09	580.81
650.43	578.06
650.78	574.77
651.12	571.92
651.46	569.08
651.80	566.04
652.14	563.31
652.49	560.48
652.83	558.28
653.17	555.30
653.51	552.31
653.85	549.62
654.20	547.05
654.54	544.02
654.88	540.95
655.22	537.98
655.56	535.28
655.90	532.62
656.25	530.19
656.59	527.40
656.93	524.94
657.27	522.26
657.61	519.22
657.95	516.92
658.29	514.42
658.64	511.81
658.98	509.05
659.32	506.15
659.66	503.57
660.00	500.77
660.34	498.10
660.68	495.66
661.02	493.02
661.36	490.40
661.70	487.91
662.05	485.72
662.39	483.42
662.73	481.17
663.07	478.88
663.41	476.29
663.75	473.90
664.09	471.60
664.43	469.26
664.77	467.28
665.11	464.94
665.45	462.69
665.79	460.48
666.13	458.29
666.47	456.24
666.81	453.83
667.15	451.31
667.49	449.21
667.83	447.05
668.17	444.87
668.51	442.66
668.85	440.53
669.19	438.40
669.53	436.21
669.87	434.11
670.21	432.01
670.55	430.18
670.89	428.43
671.23	426.49
671.57	424.53
671.91	422.73
672.25	420.79
672.58	418.78
672.92	416.80
673.26	415.21
673.60	413.43
673.94	411.69
674.28	410.17
674.62	408.68
674.96	407.00
675.30	405.54
675.64	404.03
675.97	402.40
676.31	400.79
676.65	399.28
676.99	397.76
677.33	396.28
677.67	394.67
678.01	392.98
678.34	391.32
678.68	389.65
679.02	387.92
679.36	386.49
679.70	385.13
680.04	383.71
680.37	381.96
680.71	380.50
681.05	379.29
681.39	377.98
681.73	376.46
682.06	375.21
682.40	373.91
682.74	372.55
683.08	371.20
683.42	369.89
683.75	368.47
684.09	366.81
684.43	365.43
684.77	363.99
685.10	362.69
685.44	361.40
685.78	360.11
686.12	358.96
686.45	357.62
686.79	356.35
687.13	355.12
687.46	353.88
687.80	352.66
688.14	351.29
688.48	349.95
688.81	348.67
689.15	347.37
689.49	346.02
689.82	344.83
690.16	343.66
690.50	342.36
690.83	341.37
691.17	340.28
691.51	339.06
691.84	337.95
692.18	336.73
692.52	335.63
692.85	334.58
693.19	333.40
693.52	332.25
693.86	331.14
694.20	330.12
694.53	329.10
694.87	327.87
695.21	326.82
695.54	325.78
695.88	324.55
696.21	323.35
696.55	322.25
696.88	321.18
697.22	320.12
697.56	319.29
697.89	318.19
698.23	317.32
698.56	316.29
698.90	315.29
699.23	314.28
699.57	313.32
699.90	312.38
700.24	311.41
700.58	310.49
700.91	309.57
701.25	308.71
701.58	308.02
701.92	307.07
702.25	306.30
702.59	305.47
702.92	304.70
703.26	303.96
703.59	303.25
703.93	302.57
704.26	301.74
704.60	300.80
704.93	299.97
705.26	299.12
705.60	298.42
705.93	297.70
706.27	297.05
706.60	296.33
706.94	295.56
707.27	294.78
707.61	294.09
707.94	293.25
708.27	292.23
708.61	291.26
708.94	290.71
709.28	289.90
709.61	289.16
709.94	288.64
710.28	287.86
710.61	287.02
710.95	286.16
711.28	285.57
711.61	284.89
711.95	284.21
712.28	283.44
712.61	282.83
712.95	282.22
713.28	281.53
713.61	280.87
713.95	280.30
714.28	279.70
714.61	278.99
714.95	278.41
715.28	277.97
715.61	277.40
715.95	276.73
716.28	276.15
716.61	275.42
716.95	274.74
717.28	274.26
717.61	273.77
717.94	273.24
718.28	272.65
718.61	272.13
718.94	271.67
719.27	271.26
719.61	270.80
719.94	270.28
720.27	269.81
720.60	269.31
720.94	268.74
721.27	268.35
721.60	267.91
721.93	267.56
722.27	267.18
722.60	266.77
722.93	266.46
723.26	266.12
723.59	265.88
723.93	265.50
724.26	265.05
724.59	264.61
724.92	264.24
725.25	263.88
725.59	263.65
725.92	263.27
726.25	262.92
726.58	262.47
726.91	262.16
727.24	261.89
727.57	261.66
727.91	261.43
728.24	261.19
728.57	261.01
728.90	260.63
729.23	260.19
729.56	260.05
729.89	259.71
730.22	259.39
730.55	259.09
730.89	258.86
731.22	258.69
731.55	258.48
731.88	258.30
732.21	258.03
732.54	257.64
732.87	257.34
733.20	257.16
733.53	257.05
733.86	256.76
734.19	256.40
734.52	256.20
734.85	256.12
735.18	255.69
735.51	255.48
735.84	255.24
736.17	255.10
736.50	254.80
736.83	254.70
737.16	254.51
737.49	254.27
737.82	254.00
738.15	253.67
738.48	253.42
738.81	253.20
739.14	252.97
739.47	252.88
739.80	252.65
740.13	252.34
740.46	251.93
740.79	251.69
741.12	251.47
741.45	251.10
741.78	250.76
742.11	250.71
742.44	250.41
742.77	250.20
743.10	249.90
743.43	249.73
743.75	249.46
744.08	249.35
744.41	249.13
744.74	248.90
745.07	248.73
745.40	248.57
745.73	248.40
746.06	248.13
746.39	247.88
746.71	247.61
747.04	247.37
747.37	247.12
747.70	246.92
748.03	246.67
748.36	246.43
748.68	246.09
749.01	245.60
749.34	245.31
749.67	245.10
750.00	244.96
750.33	244.74
750.65	244.47
750.98	244.11
751.31	243.88
751.64	243.59
751.97	243.37
752.29	243.10
752.62	242.71
752.95	242.59
753.28	242.23
753.60	242.08
753.93	241.86
754.26	241.74
754.59	241.43
754.91	241.30
755.24	241.11
755.57	241.00
755.90	240.92
756.22	240.68
756.55	240.38
756.88	240.17
757.20	239.80
757.53	239.52
757.86	239.25
758.19	239.10
758.51	239.01
758.84	238.85
759.17	238.76
759.49	238.62
759.82	238.47
760.15	238.40
760.47	238.22
760.80	238.01
761.13	237.94
761.45	237.80
761.78	237.59
762.11	237.46
762.43	237.20
762.76	237.05
763.08	236.98
763.41	236.87
763.74	236.73
764.06	236.63
764.39	236.52
764.71	236.39
765.04	236.21
765.37	236.07
765.69	235.94
766.02	235.69
766.34	235.64
766.67	235.55
767.00	235.40
767.32	235.45
767.65	235.50
767.97	235.35
768.30	235.43
768.62	235.54
768.95	235.54
769.27	235.58
769.60	235.59
769.92	235.53
770.25	235.64
770.57	235.60
770.90	235.61
771.22	235.48
771.55	235.51
771.87	235.52
772.20	235.43
772.52	235.60
772.85	235.88
773.17	235.88
773.50	235.83
773.82	235.87
774.15	235.69
774.47	235.61
774.80	235.57
775.12	235.50
775.45	235.37
775.77	235.31
776.09	235.35
776.42	235.38
776.74	235.39
777.07	235.29
777.39	235.31
777.72	235.30
778.04	235.36
778.36	235.33
778.69	235.27
779.01	235.35
779.33	235.18
779.66	234.93
779.98	234.90
780.31	234.85
780.63	234.96
780.95	235.12
781.28	235.07
781.60	235.10
781.92	234.99
782.25	234.96
782.57	234.96
782.89	234.80
783.22	234.75
783.54	234.71
783.86	234.63
784.19	234.53
784.51	234.48
784.83	234.41
785.16	234.34
785.48	234.29
785.80	234.20
786.12	234.03
786.45	233.97
786.77	233.88
787.09	233.76
787.42	233.56
787.74	233.42
788.06	233.27
788.38	233.17
788.71	233.19
789.03	233.10
789.35	233.00
789.67	233.01
789.99	232.89
790.32	232.81
790.64	232.79
790.96	232.81
791.28	232.84
791.61	232.78
791.93	232.81
792.25	232.65
792.57	232.63
