SpectraSuite Data File
++++++++++++++++++++++++++++++++++++
Date: Fri Feb 01 14:41:39 EST 2013
User: group
Dark Spectrum Present: No
Reference Spectrum Present: No
Number of Sampled Component Spectra: 1
Spectrometers: USB2E7196
Integration Time (usec): 70000 (USB2E7196)
Spectra Averaged: 10 (USB2E7196)
Boxcar Smoothing: 10 (USB2E7196)
Correct for Electrical Dark: No (USB2E7196)
Strobe/Lamp Enabled: No (USB2E7196)
Correct for Detector Non-linearity: No (USB2E7196)
Correct for Stray Light: No (USB2E7196)
Number of Pixels in Processed Spectrum: 2048
>>>>>Begin Processed Spectral Data<<<<<
339.09	0.00
339.48	215.30
339.86	217.90
340.24	217.60
340.63	220.40
341.01	222.80
341.39	221.70
341.78	222.90
342.16	225.20
342.54	225.40
342.93	214.34
343.31	225.19
343.69	225.78
344.07	226.23
344.46	226.71
344.84	227.06
345.22	227.33
345.60	227.67
345.99	227.93
346.37	228.09
346.75	228.23
347.13	228.22
347.52	228.30
347.90	228.34
348.28	228.45
348.66	228.52
349.05	228.46
349.43	228.41
349.81	228.35
350.19	228.45
350.57	228.54
350.96	228.62
351.34	228.66
351.72	228.75
352.10	228.93
352.48	228.98
352.87	229.04
353.25	229.09
353.63	229.19
354.01	229.12
354.39	229.22
354.77	229.37
355.15	229.55
355.54	229.58
355.92	229.73
356.30	229.72
356.68	229.90
357.06	230.00
357.44	230.05
357.82	230.20
358.20	230.24
358.58	230.28
358.97	230.39
359.35	230.61
359.73	230.76
360.11	230.65
360.49	230.80
360.87	230.80
361.25	230.90
361.63	230.97
362.01	231.17
362.39	231.23
362.77	231.22
363.15	231.26
363.53	231.33
363.91	231.22
364.29	231.29
364.67	231.11
365.05	231.05
365.43	231.09
365.81	231.12
366.19	231.20
366.57	231.24
366.95	231.19
367.33	231.02
367.71	230.88
368.09	231.05
368.47	230.92
368.85	231.06
369.23	231.11
369.61	230.98
369.99	230.99
370.37	230.91
370.75	230.95
371.13	230.88
371.51	230.71
371.89	230.70
372.27	230.68
372.65	230.66
373.03	230.64
373.41	230.64
373.78	230.53
374.16	230.36
374.54	230.24
374.92	230.10
375.30	230.08
375.68	230.06
376.06	229.91
376.44	229.89
376.82	229.72
377.19	229.40
377.57	229.35
377.95	229.16
378.33	229.16
378.71	228.95
379.09	228.82
379.47	228.79
379.84	228.73
380.22	228.62
380.60	228.53
380.98	228.49
381.36	228.36
381.73	228.31
382.11	228.27
382.49	228.17
382.87	228.13
383.25	228.01
383.62	228.11
384.00	228.08
384.38	227.98
384.76	228.05
385.13	228.23
385.51	228.21
385.89	228.21
386.27	228.10
386.64	228.14
387.02	228.14
387.40	228.07
387.78	228.11
388.15	228.12
388.53	228.13
388.91	228.15
389.29	228.03
389.66	228.03
390.04	227.94
390.42	227.99
390.79	227.98
391.17	227.99
391.55	227.81
391.92	227.78
392.30	227.94
392.68	227.84
393.05	227.93
393.43	227.89
393.81	228.01
394.18	228.07
394.56	228.11
394.94	228.26
395.31	228.41
395.69	228.40
396.06	228.43
396.44	228.42
396.82	228.46
397.19	228.79
397.57	228.90
397.95	229.10
398.32	229.03
398.70	229.11
399.07	229.23
399.45	229.39
399.82	229.49
400.20	229.47
400.58	229.60
400.95	229.62
401.33	229.80
401.70	229.94
402.08	230.02
402.45	230.17
402.83	230.26
403.20	230.42
403.58	230.57
403.95	230.85
404.33	231.10
404.71	231.29
405.08	231.48
405.46	231.60
405.83	231.81
406.21	232.12
406.58	232.37
406.96	232.63
407.33	232.80
407.70	233.13
408.08	233.52
408.45	233.78
408.83	234.06
409.20	234.47
409.58	234.75
409.95	235.11
410.33	235.44
410.70	235.74
411.08	235.99
411.45	236.47
411.82	236.75
412.20	237.20
412.57	237.70
412.95	238.12
413.32	238.63
413.69	239.10
414.07	239.61
414.44	240.27
414.82	240.82
415.19	241.59
415.56	242.25
415.94	242.97
416.31	243.77
416.68	244.57
417.06	245.46
417.43	246.36
417.81	247.28
418.18	248.35
418.55	249.40
418.93	250.56
419.30	251.57
419.67	252.87
420.04	254.07
420.42	255.49
420.79	257.13
421.16	258.67
421.54	260.30
421.91	262.01
422.28	263.74
422.66	265.63
423.03	267.40
423.40	269.13
423.77	271.01
424.15	272.92
424.52	275.04
424.89	277.10
425.26	279.02
425.64	281.04
426.01	283.10
426.38	285.44
426.75	287.80
427.13	290.17
427.50	292.65
427.87	295.13
428.24	297.61
428.61	299.82
428.99	302.53
429.36	305.25
429.73	308.02
430.10	310.62
430.47	313.48
430.85	316.32
431.22	319.30
431.59	322.59
431.96	325.57
432.33	328.90
432.70	332.15
433.08	336.13
433.45	339.69
433.82	343.19
434.19	346.95
434.56	350.75
434.93	354.31
435.30	357.89
435.68	362.01
436.05	365.68
436.42	369.50
436.79	372.92
437.16	376.65
437.53	380.51
437.90	384.25
438.27	387.91
438.64	391.72
439.01	395.29
439.38	398.24
439.75	401.36
440.13	404.60
440.50	407.92
440.87	410.28
441.24	412.90
441.61	415.76
441.98	417.76
442.35	420.14
442.72	422.64
443.09	424.87
443.46	426.06
443.83	426.85
444.20	427.50
444.57	428.50
444.94	429.04
445.31	429.32
445.68	429.90
446.05	429.95
446.42	429.22
446.79	428.66
447.16	427.96
447.53	427.36
447.90	425.79
448.27	423.99
448.64	421.89
449.01	420.19
449.37	417.48
449.74	414.85
450.11	411.83
450.48	408.46
450.85	405.04
451.22	402.06
451.59	399.37
451.96	396.74
452.33	393.24
452.70	389.82
453.07	386.05
453.43	382.08
453.80	378.24
454.17	374.64
454.54	371.19
454.91	367.49
455.28	363.90
455.65	360.36
456.02	357.13
456.38	354.10
456.75	350.57
457.12	347.59
457.49	344.61
457.86	341.49
458.23	339.00
458.59	336.19
458.96	333.37
459.33	330.76
459.70	328.08
460.07	325.96
460.43	323.51
460.80	321.24
461.17	319.21
461.54	317.08
461.91	315.24
462.27	313.21
462.64	311.36
463.01	309.50
463.38	307.74
463.74	305.80
464.11	304.11
464.48	302.68
464.85	301.16
465.21	299.98
465.58	298.80
465.95	297.28
466.32	296.00
466.68	294.80
467.05	293.59
467.42	292.40
467.78	291.15
468.15	290.07
468.52	289.17
468.88	287.98
469.25	286.96
469.62	286.12
469.98	285.09
470.35	284.30
470.72	283.45
471.08	282.65
471.45	281.75
471.82	281.10
472.18	280.31
472.55	279.65
472.92	278.95
473.28	278.22
473.65	277.55
474.02	276.79
474.38	276.18
474.75	275.62
475.11	275.10
475.48	274.60
475.85	274.11
476.21	273.67
476.58	273.34
476.94	273.09
477.31	272.60
477.67	272.40
478.04	272.12
478.41	271.84
478.77	271.81
479.14	271.62
479.50	271.41
479.87	271.31
480.23	271.29
480.60	271.11
480.96	271.15
481.33	271.30
481.69	271.60
482.06	271.72
482.42	271.89
482.79	271.97
483.15	272.08
483.52	272.45
483.88	272.83
484.25	273.10
484.61	273.38
484.98	273.86
485.34	274.40
485.71	274.90
486.07	275.39
486.44	275.84
486.80	276.49
487.17	277.27
487.53	278.09
487.90	278.88
488.26	279.97
488.62	280.96
488.99	281.89
489.35	282.86
489.72	283.98
490.08	285.22
490.44	286.59
490.81	288.08
491.17	289.36
491.54	290.88
491.90	292.54
492.26	294.33
492.63	296.06
492.99	297.86
493.36	300.02
493.72	302.31
494.08	304.48
494.45	306.90
494.81	309.40
495.17	312.08
495.54	314.86
495.90	317.64
496.26	320.56
496.63	323.87
496.99	327.11
497.35	330.73
497.72	334.40
498.08	338.22
498.44	342.23
498.80	346.68
499.17	351.06
499.53	355.76
499.89	360.53
500.26	365.37
500.62	370.40
500.98	375.64
501.34	381.14
501.71	387.09
502.07	393.25
502.43	399.56
502.79	405.90
503.16	412.82
503.52	419.72
503.88	426.98
504.24	434.32
504.60	442.22
504.97	450.18
505.33	458.65
505.69	467.55
506.05	476.33
506.41	485.39
506.78	494.86
507.14	504.45
507.50	514.64
507.86	525.25
508.22	536.20
508.59	546.97
508.95	558.38
509.31	569.98
509.67	581.95
510.03	594.35
510.39	606.80
510.75	619.65
511.12	632.90
511.48	646.42
511.84	660.34
512.20	674.17
512.56	688.52
512.92	702.92
513.28	717.83
513.64	733.08
514.00	748.38
514.37	764.29
514.73	780.26
515.09	796.14
515.45	812.30
515.81	829.01
516.17	846.45
516.53	863.74
516.89	881.31
517.25	898.87
517.61	916.59
517.97	934.81
518.33	952.95
518.69	971.14
519.05	990.06
519.41	1009.06
519.77	1028.82
520.13	1048.35
520.49	1068.02
520.85	1087.75
521.21	1107.84
521.57	1128.50
521.93	1148.40
522.29	1169.00
522.65	1189.66
523.01	1210.38
523.37	1230.78
523.73	1251.54
524.09	1272.40
524.45	1293.31
524.81	1314.79
525.17	1336.40
525.53	1358.24
525.89	1379.86
526.25	1401.92
526.61	1423.37
526.97	1445.29
527.33	1466.84
527.68	1488.78
528.04	1510.53
528.40	1532.24
528.76	1554.86
529.12	1576.76
529.48	1599.05
529.84	1620.65
530.20	1642.87
530.56	1665.80
530.91	1689.16
531.27	1711.95
531.63	1733.69
531.99	1756.10
532.35	1777.64
532.71	1798.86
533.07	1820.43
533.42	1841.93
533.78	1863.65
534.14	1885.12
534.50	1905.35
534.86	1926.60
535.21	1947.09
535.57	1968.62
535.93	1989.87
536.29	2009.87
536.65	2030.80
537.00	2051.01
537.36	2071.66
537.72	2091.33
538.08	2110.12
538.44	2128.70
538.79	2147.20
539.15	2165.88
539.51	2184.60
539.87	2203.92
540.22	2223.08
540.58	2242.23
540.94	2260.38
541.29	2278.41
541.65	2295.85
542.01	2314.51
542.37	2332.07
542.72	2349.60
543.08	2366.25
543.44	2383.40
543.79	2399.23
544.15	2414.72
544.51	2431.33
544.87	2447.80
545.22	2463.62
545.58	2479.32
545.94	2493.40
546.29	2508.28
546.65	2523.54
547.01	2537.38
547.36	2551.13
547.72	2564.22
548.07	2576.85
548.43	2589.81
548.79	2602.30
549.14	2614.63
549.50	2626.30
549.86	2636.99
550.21	2648.07
550.57	2659.50
550.92	2669.70
551.28	2680.26
551.64	2690.55
551.99	2700.67
552.35	2710.09
552.70	2719.62
553.06	2729.35
553.41	2739.77
553.77	2748.95
554.13	2757.89
554.48	2766.79
554.84	2775.36
555.19	2783.65
555.55	2791.70
555.90	2799.20
556.26	2806.97
556.61	2814.48
556.97	2821.13
557.32	2829.17
557.68	2836.59
558.03	2843.07
558.39	2850.00
558.74	2857.88
559.10	2865.19
559.45	2871.34
559.81	2878.33
560.16	2883.58
560.52	2889.36
560.87	2895.35
561.23	2900.17
561.58	2905.12
561.94	2910.16
562.29	2914.01
562.64	2918.32
563.00	2922.23
563.35	2927.61
563.71	2932.17
564.06	2937.38
564.42	2942.19
564.77	2946.11
565.12	2950.28
565.48	2954.09
565.83	2956.77
566.19	2959.49
566.54	2961.40
566.89	2963.56
567.25	2965.44
567.60	2968.79
567.96	2970.52
568.31	2971.54
568.66	2973.52
569.02	2975.34
569.37	2976.18
569.72	2977.59
570.08	2978.23
570.43	2978.89
570.78	2978.39
571.14	2977.16
571.49	2976.18
571.84	2976.71
572.20	2975.32
572.55	2973.20
572.90	2970.82
573.26	2969.47
573.61	2967.89
573.96	2965.78
574.31	2962.47
574.67	2958.25
575.02	2954.46
575.37	2950.90
575.72	2946.56
576.08	2943.03
576.43	2938.83
576.78	2934.80
577.13	2931.27
577.49	2927.76
577.84	2923.68
578.19	2919.48
578.54	2915.22
578.90	2909.68
579.25	2902.37
579.60	2896.63
579.95	2891.08
580.30	2885.49
580.66	2878.87
581.01	2871.90
581.36	2865.98
581.71	2860.75
582.06	2855.27
582.42	2848.69
582.77	2842.11
583.12	2836.02
583.47	2829.28
583.82	2822.98
584.17	2816.19
584.53	2809.10
584.88	2802.45
585.23	2795.05
585.58	2788.02
585.93	2781.12
586.28	2775.23
586.63	2769.58
586.98	2763.46
587.34	2756.89
587.69	2750.27
588.04	2743.57
588.39	2736.86
588.74	2727.94
589.09	2720.00
589.44	2711.85
589.79	2704.86
590.14	2697.60
590.49	2690.00
590.84	2682.32
591.19	2674.60
591.54	2665.58
591.89	2655.99
592.25	2646.72
592.60	2637.44
592.95	2627.86
593.30	2618.56
593.65	2608.86
594.00	2599.00
594.35	2589.70
594.70	2579.74
595.05	2570.54
595.40	2561.20
595.75	2551.58
596.10	2543.68
596.45	2535.29
596.80	2527.30
597.15	2518.92
597.50	2510.08
597.85	2501.41
598.19	2492.72
598.54	2483.91
598.89	2475.85
599.24	2468.66
599.59	2460.09
599.94	2452.19
600.29	2443.70
600.64	2434.85
600.99	2425.17
601.34	2416.30
601.69	2406.93
602.04	2398.29
602.39	2389.10
602.74	2380.86
603.08	2372.16
603.43	2364.23
603.78	2355.16
604.13	2345.56
604.48	2335.47
604.83	2325.96
605.18	2317.36
605.53	2306.70
605.87	2295.60
606.22	2286.27
606.57	2275.78
606.92	2266.52
607.27	2257.12
607.62	2248.07
607.96	2239.14
608.31	2230.33
608.66	2220.34
609.01	2210.01
609.36	2199.37
609.70	2188.54
610.05	2177.34
610.40	2166.67
610.75	2154.84
611.10	2143.19
611.44	2131.63
611.79	2121.80
612.14	2111.10
612.49	2098.79
612.83	2088.19
613.18	2077.76
613.53	2066.90
613.88	2055.10
614.22	2043.56
614.57	2031.81
614.92	2020.61
615.27	2009.61
615.61	1998.18
615.96	1987.44
616.31	1977.21
616.65	1967.91
617.00	1958.10
617.35	1947.88
617.70	1937.62
618.04	1927.03
618.39	1917.45
618.74	1907.88
619.08	1896.55
619.43	1886.58
619.78	1877.01
620.12	1867.15
620.47	1857.31
620.82	1846.74
621.16	1837.34
621.51	1827.91
621.85	1818.11
622.20	1807.23
622.55	1797.20
622.89	1787.49
623.24	1778.10
623.59	1768.75
623.93	1758.63
624.28	1748.81
624.62	1739.02
624.97	1729.09
625.32	1719.73
625.66	1709.95
626.01	1700.20
626.35	1690.89
626.70	1680.78
627.04	1671.05
627.39	1661.09
627.73	1651.18
628.08	1642.02
628.43	1632.63
628.77	1622.69
629.12	1612.62
629.46	1603.52
629.81	1593.26
630.15	1582.91
630.50	1572.83
630.84	1561.94
631.19	1551.42
631.53	1541.53
631.88	1531.27
632.22	1520.87
632.57	1511.59
632.91	1501.61
633.26	1491.40
633.60	1481.15
633.95	1471.48
634.29	1462.05
634.64	1453.32
634.98	1443.61
635.32	1434.28
635.67	1425.19
636.01	1416.25
636.36	1407.30
636.70	1398.48
637.05	1389.70
637.39	1381.75
637.73	1372.95
638.08	1365.17
638.42	1357.16
638.77	1348.61
639.11	1339.99
639.45	1331.74
639.80	1322.33
640.14	1313.93
640.49	1305.44
640.83	1296.97
641.17	1288.55
641.52	1279.78
641.86	1270.29
642.20	1262.24
642.55	1253.43
642.89	1245.05
643.23	1235.93
643.58	1228.08
643.92	1219.00
644.26	1210.49
644.61	1201.97
644.95	1193.87
645.29	1184.65
645.64	1175.60
645.98	1167.10
646.32	1159.02
646.66	1150.90
647.01	1142.88
647.35	1134.74
647.69	1126.56
648.04	1119.08
648.38	1110.49
648.72	1102.06
649.06	1093.92
649.41	1085.75
649.75	1077.68
650.09	1069.11
650.43	1061.34
650.78	1052.63
651.12	1044.66
651.46	1037.04
651.80	1029.25
652.14	1021.18
652.49	1013.74
652.83	1006.31
653.17	998.34
653.51	990.27
653.85	982.50
654.20	974.72
654.54	966.59
654.88	958.87
655.22	950.42
655.56	943.13
655.90	935.98
656.25	929.06
656.59	921.64
656.93	914.23
657.27	907.17
657.61	899.60
657.95	893.09
658.29	886.45
658.64	879.25
658.98	871.89
659.32	864.66
659.66	857.88
660.00	850.80
660.34	844.05
660.68	837.33
661.02	830.66
661.36	824.48
661.70	818.16
662.05	812.32
662.39	806.42
662.73	800.25
663.07	794.31
663.41	788.38
663.75	782.79
664.09	776.97
664.43	771.14
664.77	765.91
665.11	760.11
665.45	754.49
665.79	748.80
666.13	743.08
666.47	737.77
666.81	731.99
667.15	726.42
667.49	721.10
667.83	716.31
668.17	711.04
668.51	705.57
668.85	700.41
669.19	695.22
669.53	690.20
669.87	685.05
670.21	679.94
670.55	674.94
670.89	670.27
671.23	665.89
671.57	661.23
671.91	656.42
672.25	651.67
672.58	647.03
672.92	642.72
673.26	638.67
673.60	634.43
673.94	630.48
674.28	626.73
674.62	622.94
674.96	618.54
675.30	614.68
675.64	610.62
675.97	606.65
676.31	602.68
676.65	598.92
676.99	595.17
677.33	591.38
677.67	587.51
678.01	583.22
678.34	579.16
678.68	575.39
679.02	571.62
679.36	568.02
679.70	564.60
680.04	560.68
680.37	556.96
680.71	553.46
681.05	550.01
681.39	546.39
681.73	542.95
682.06	539.76
682.40	536.44
682.74	533.18
683.08	530.00
683.42	526.42
683.75	522.95
684.09	519.40
684.43	516.12
684.77	512.94
685.10	509.79
685.44	506.61
685.78	503.42
686.12	500.35
686.45	497.19
686.79	493.96
687.13	491.20
687.46	488.13
687.80	484.86
688.14	481.65
688.48	478.82
688.81	475.42
689.15	472.48
689.49	469.46
689.82	466.60
690.16	463.59
690.50	460.96
690.83	458.22
691.17	455.65
691.51	453.03
691.84	450.31
692.18	447.68
692.52	445.04
692.85	442.34
693.19	439.74
693.52	437.13
693.86	434.60
694.20	431.97
694.53	429.50
694.87	427.08
695.21	424.50
695.54	421.84
695.88	419.50
696.21	417.03
696.55	414.50
696.88	412.05
697.22	409.95
697.56	407.78
697.89	405.42
698.23	403.28
698.56	401.00
698.90	398.88
699.23	396.60
699.57	394.50
699.90	392.39
700.24	390.22
700.58	388.19
700.91	385.93
701.25	384.00
701.58	382.16
701.92	380.20
702.25	378.43
702.59	376.51
702.92	374.67
703.26	373.03
703.59	371.46
703.93	370.01
704.26	368.09
704.60	366.32
704.93	364.80
705.26	363.08
705.60	361.50
705.93	359.78
706.27	358.39
706.60	356.93
706.94	355.43
707.27	353.87
707.61	352.28
707.94	350.96
708.27	349.47
708.61	347.93
708.94	346.55
709.28	345.26
709.61	344.03
709.94	342.93
710.28	341.52
710.61	340.17
710.95	338.59
711.28	337.44
711.61	336.15
711.95	334.80
712.28	333.47
712.61	332.11
712.95	331.03
713.28	329.90
713.61	328.61
713.95	327.50
714.28	326.38
714.61	325.33
714.95	324.33
715.28	323.12
715.61	321.96
715.95	320.98
716.28	319.84
716.61	318.78
716.95	317.58
717.28	316.58
717.61	315.48
717.94	314.60
718.28	313.57
718.61	312.55
718.94	311.60
719.27	310.76
719.61	309.93
719.94	308.84
720.27	307.75
720.60	306.79
720.94	305.79
721.27	304.99
721.60	304.17
721.93	303.21
722.27	302.49
722.60	301.67
722.93	300.73
723.26	299.93
723.59	299.08
723.93	298.20
724.26	297.35
724.59	296.47
724.92	295.66
725.25	294.90
725.59	294.19
725.92	293.47
726.25	292.79
726.58	292.10
726.91	291.58
727.24	290.89
727.57	290.20
727.91	289.59
728.24	288.81
728.57	288.07
728.90	287.36
729.23	286.54
729.56	286.00
729.89	285.33
730.22	284.59
730.55	283.89
730.89	283.30
731.22	282.71
731.55	282.07
731.88	281.38
732.21	280.77
732.54	280.10
732.87	279.45
733.20	278.73
733.53	278.02
733.86	277.37
734.19	276.74
734.52	276.22
734.85	275.60
735.18	275.07
735.51	274.57
735.84	274.11
736.17	273.55
736.50	272.83
736.83	272.50
737.16	271.97
737.49	271.48
737.82	271.05
738.15	270.51
738.48	270.03
738.81	269.48
739.14	268.89
739.47	268.41
739.80	267.93
740.13	267.54
740.46	267.01
740.79	266.47
741.12	266.08
741.45	265.52
741.78	265.14
742.11	264.77
742.44	264.30
742.77	263.82
743.10	263.41
743.43	262.97
743.75	262.33
744.08	262.28
744.41	261.92
744.74	261.49
745.07	261.11
745.40	260.87
745.73	260.66
746.06	260.23
746.39	259.90
746.71	259.70
747.04	259.26
747.37	259.00
747.70	258.73
748.03	258.36
748.36	258.03
748.68	257.70
749.01	257.28
749.34	256.93
749.67	256.54
750.00	256.25
750.33	256.12
750.65	255.88
750.98	255.30
751.31	255.00
751.64	254.83
751.97	254.62
752.29	254.25
752.62	253.93
752.95	253.78
753.28	253.51
753.60	253.30
753.93	253.18
754.26	252.96
754.59	252.58
754.91	252.30
755.24	252.03
755.57	251.72
755.90	251.46
756.22	251.12
756.55	250.92
756.88	250.61
757.20	250.30
757.53	250.09
757.86	249.94
758.19	249.71
758.51	249.35
758.84	249.06
759.17	248.80
759.49	248.52
759.82	248.47
760.15	248.33
760.47	247.86
760.80	247.59
761.13	247.38
761.45	247.36
761.78	247.18
762.11	247.00
762.43	246.72
762.76	246.55
763.08	246.34
763.41	246.09
763.74	246.01
764.06	245.79
764.39	245.55
764.71	245.26
765.04	245.10
765.37	244.88
765.69	244.62
766.02	244.52
766.34	244.35
766.67	243.98
767.00	243.72
767.32	243.75
767.65	243.71
767.97	243.60
768.30	243.34
768.62	243.21
768.95	243.04
769.27	243.02
769.60	242.80
769.92	242.61
770.25	242.44
770.57	242.22
770.90	242.10
771.22	241.87
771.55	241.74
771.87	241.50
772.20	241.35
772.52	241.33
772.85	241.41
773.17	241.19
773.50	241.10
773.82	241.00
774.15	240.61
774.47	240.32
774.80	240.06
775.12	239.99
775.45	239.76
775.77	239.68
776.09	239.48
776.42	239.36
776.74	239.39
777.07	239.31
777.39	239.25
777.72	239.06
778.04	238.98
778.36	238.81
778.69	238.75
779.01	238.63
779.33	238.46
779.66	238.08
779.98	238.08
780.31	237.91
780.63	237.83
780.95	237.90
781.28	237.70
781.60	237.59
781.92	237.33
782.25	237.28
782.57	237.05
782.89	236.94
783.22	236.87
783.54	236.77
783.86	236.64
784.19	236.53
784.51	236.56
784.83	236.38
785.16	236.30
785.48	236.21
785.80	236.11
786.12	235.92
