SpectraSuite Data File
++++++++++++++++++++++++++++++++++++
Date: Fri Feb 01 14:42:11 EST 2013
User: group
Dark Spectrum Present: No
Reference Spectrum Present: No
Number of Sampled Component Spectra: 1
Spectrometers: USB2E7196
Integration Time (usec): 70000 (USB2E7196)
Spectra Averaged: 10 (USB2E7196)
Boxcar Smoothing: 10 (USB2E7196)
Correct for Electrical Dark: No (USB2E7196)
Strobe/Lamp Enabled: No (USB2E7196)
Correct for Detector Non-linearity: No (USB2E7196)
Correct for Stray Light: No (USB2E7196)
Number of Pixels in Processed Spectrum: 2048
>>>>>Begin Processed Spectral Data<<<<<
339.09	0.00
339.48	218.00
339.86	217.10
340.24	220.80
340.63	221.50
341.01	224.90
341.39	222.80
341.78	227.00
342.16	225.90
342.54	226.20
342.93	214.79
343.31	225.67
343.69	226.17
344.07	226.68
344.46	227.09
344.84	227.50
345.22	227.65
345.60	227.91
345.99	228.04
346.37	228.11
346.75	228.24
347.13	228.31
347.52	228.41
347.90	228.62
348.28	228.72
348.66	228.80
349.05	228.68
349.43	228.82
349.81	228.87
350.19	228.92
350.57	229.00
350.96	229.16
351.34	229.27
351.72	229.37
352.10	229.34
352.48	229.38
352.87	229.32
353.25	229.51
353.63	229.61
354.01	229.68
354.39	229.80
354.77	229.92
355.15	230.16
355.54	230.09
355.92	230.01
356.30	230.01
356.68	230.30
357.06	230.38
357.44	230.31
357.82	230.38
358.20	230.43
358.58	230.45
358.97	230.49
359.35	230.59
359.73	230.65
360.11	230.72
360.49	230.79
360.87	230.95
361.25	230.90
361.63	230.94
362.01	230.94
362.39	230.99
362.77	230.99
363.15	230.89
363.53	231.11
363.91	231.06
364.29	231.02
364.67	230.77
365.05	230.81
365.43	230.92
365.81	230.98
366.19	231.04
366.57	231.12
366.95	231.11
367.33	231.00
367.71	231.06
368.09	231.19
368.47	231.16
368.85	231.11
369.23	231.21
369.61	231.17
369.99	231.18
370.37	231.11
370.75	231.08
371.13	231.00
371.51	230.87
371.89	230.94
372.27	231.05
372.65	231.08
373.03	231.08
373.41	230.90
373.78	230.81
374.16	230.71
374.54	230.67
374.92	230.62
375.30	230.53
375.68	230.39
376.06	230.32
376.44	230.30
376.82	230.23
377.19	230.10
377.57	229.96
377.95	229.79
378.33	229.73
378.71	229.69
379.09	229.74
379.47	229.66
379.84	229.58
380.22	229.43
380.60	229.30
380.98	229.27
381.36	229.24
381.73	229.14
382.11	229.06
382.49	228.94
382.87	228.81
383.25	228.80
383.62	228.97
384.00	228.95
384.38	228.78
384.76	228.69
385.13	228.68
385.51	228.70
385.89	228.67
386.27	228.68
386.64	228.62
387.02	228.48
387.40	228.45
387.78	228.32
388.15	228.30
388.53	228.30
388.91	228.20
389.29	228.12
389.66	228.18
390.04	228.23
390.42	228.20
390.79	228.19
391.17	228.16
391.55	227.90
391.92	227.79
392.30	227.88
392.68	227.87
393.05	227.85
393.43	227.83
393.81	227.93
394.18	227.82
394.56	227.78
394.94	227.80
395.31	227.79
395.69	228.01
396.06	228.15
396.44	228.08
396.82	228.10
397.19	228.20
397.57	228.22
397.95	228.35
398.32	228.37
398.70	228.56
399.07	228.73
399.45	228.88
399.82	228.92
400.20	228.97
400.58	229.13
400.95	229.14
401.33	229.37
401.70	229.68
402.08	229.90
402.45	230.13
402.83	230.36
403.20	230.64
403.58	230.63
403.95	230.80
404.33	231.08
404.71	231.33
405.08	231.77
405.46	232.03
405.83	232.16
406.21	232.51
406.58	232.72
406.96	232.96
407.33	233.21
407.70	233.70
408.08	234.09
408.45	234.41
408.83	234.90
409.20	235.14
409.58	235.26
409.95	235.78
410.33	236.23
410.70	236.67
411.08	236.99
411.45	237.50
411.82	237.98
412.20	238.51
412.57	239.23
412.95	239.67
413.32	240.28
413.69	241.00
414.07	241.68
414.44	242.46
414.82	243.25
415.19	244.06
415.56	244.86
415.94	245.67
416.31	246.80
416.68	247.70
417.06	248.88
417.43	250.03
417.81	251.24
418.18	252.50
418.55	253.92
418.93	255.32
419.30	256.88
419.67	258.46
420.04	260.07
420.42	261.70
420.79	263.60
421.16	265.50
421.54	267.36
421.91	269.26
422.28	271.25
422.66	273.40
423.03	275.71
423.40	277.92
423.77	280.29
424.15	282.61
424.52	285.08
424.89	287.62
425.26	290.26
425.64	292.52
426.01	295.07
426.38	297.69
426.75	300.60
427.13	303.41
427.50	306.27
427.87	309.26
428.24	312.22
428.61	314.88
428.99	317.95
429.36	321.31
429.73	324.73
430.10	327.96
430.47	331.17
430.85	334.34
431.22	337.95
431.59	341.86
431.96	345.45
432.33	349.50
432.70	353.44
433.08	357.83
433.45	362.15
433.82	366.39
434.19	371.23
434.56	375.62
434.93	379.80
435.30	384.14
435.68	388.81
436.05	393.48
436.42	398.13
436.79	402.20
437.16	406.79
437.53	411.33
437.90	415.91
438.27	420.50
438.64	425.22
439.01	429.32
439.38	432.87
439.75	436.31
440.13	440.30
440.50	443.94
440.87	447.04
441.24	450.14
441.61	453.61
441.98	455.80
442.35	458.72
442.72	461.77
443.09	464.56
443.46	466.24
443.83	467.00
444.20	468.00
444.57	469.32
444.94	469.66
445.31	470.09
445.68	470.76
446.05	470.77
446.42	470.04
446.79	469.53
447.16	468.80
447.53	468.26
447.90	466.36
448.27	464.50
448.64	461.69
449.01	459.79
449.37	456.44
449.74	453.29
450.11	449.75
450.48	445.64
450.85	441.47
451.22	437.82
451.59	434.55
451.96	431.20
452.33	426.94
452.70	422.96
453.07	418.43
453.43	413.63
453.80	409.12
454.17	404.77
454.54	400.41
454.91	396.01
455.28	391.62
455.65	387.57
456.02	383.75
456.38	380.39
456.75	376.11
457.12	372.45
457.49	369.00
457.86	365.39
458.23	362.52
458.59	359.21
458.96	355.96
459.33	352.90
459.70	349.84
460.07	347.37
460.43	344.73
460.80	342.10
461.17	339.71
461.54	337.25
461.91	335.10
462.27	332.80
462.64	330.72
463.01	328.54
463.38	326.44
463.74	324.04
464.11	322.15
464.48	320.57
464.85	318.85
465.21	317.35
465.58	315.81
465.95	313.92
466.32	312.52
466.68	310.91
467.05	309.49
467.42	308.08
467.78	306.61
468.15	305.18
468.52	304.10
468.88	302.74
469.25	301.49
469.62	300.27
469.98	299.17
470.35	298.05
470.72	296.96
471.08	295.78
471.45	294.94
471.82	294.05
472.18	293.03
472.55	292.34
472.92	291.42
473.28	290.67
473.65	289.97
474.02	289.12
474.38	288.53
474.75	287.96
475.11	287.32
475.48	286.90
475.85	286.44
476.21	285.97
476.58	285.58
476.94	285.33
477.31	285.02
477.67	284.70
478.04	284.54
478.41	284.38
478.77	284.49
479.14	284.25
479.50	284.17
479.87	284.06
480.23	283.98
480.60	284.05
480.96	284.03
481.33	284.20
481.69	284.36
482.06	284.47
482.42	284.65
482.79	284.84
483.15	285.10
483.52	285.53
483.88	285.92
484.25	286.32
484.61	286.69
484.98	287.28
485.34	287.94
485.71	288.66
486.07	289.47
486.44	290.17
486.80	291.09
487.17	292.09
487.53	293.20
487.90	294.32
488.26	295.54
488.62	296.78
488.99	298.08
489.35	299.59
489.72	301.19
490.08	302.78
490.44	304.53
490.81	306.56
491.17	308.38
491.54	310.61
491.90	312.75
492.26	315.29
492.63	317.74
492.99	320.36
493.36	323.19
493.72	326.19
494.08	329.21
494.45	332.50
494.81	335.87
495.17	339.39
495.54	343.32
495.90	347.16
496.26	351.40
496.63	355.70
496.99	360.31
497.35	365.16
497.72	370.18
498.08	375.37
498.44	380.60
498.80	386.46
499.17	392.24
499.53	398.50
499.89	404.88
500.26	411.52
500.62	418.38
500.98	425.71
501.34	433.24
501.71	441.11
502.07	449.10
502.43	457.40
502.79	466.12
503.16	475.08
503.52	484.58
503.88	494.08
504.24	504.20
504.60	514.34
504.97	525.16
505.33	536.49
505.69	548.24
506.05	560.21
506.41	572.22
506.78	584.88
507.14	597.73
507.50	610.97
507.86	625.16
508.22	639.21
508.59	653.55
508.95	668.30
509.31	683.78
509.67	699.74
510.03	715.88
510.39	732.44
510.75	749.44
511.12	766.62
511.48	784.34
511.84	802.47
512.20	820.70
512.56	839.40
512.92	858.45
513.28	877.93
513.64	897.62
514.00	917.74
514.37	938.14
514.73	959.18
515.09	979.95
515.45	1000.71
515.81	1022.33
516.17	1044.36
516.53	1067.02
516.89	1089.16
517.25	1111.76
517.61	1134.67
517.97	1157.47
518.33	1180.03
518.69	1203.70
519.05	1227.68
519.41	1251.76
519.77	1276.71
520.13	1301.42
520.49	1326.00
520.85	1350.29
521.21	1375.14
521.57	1400.87
521.93	1425.70
522.29	1451.14
522.65	1476.61
523.01	1502.00
523.37	1527.18
523.73	1552.82
524.09	1578.15
524.45	1604.34
524.81	1630.60
525.17	1657.14
525.53	1683.67
525.89	1710.91
526.25	1737.22
526.61	1763.19
526.97	1789.65
527.33	1815.80
527.68	1842.22
528.04	1868.80
528.40	1895.86
528.76	1923.59
529.12	1950.39
529.48	1977.58
529.84	2003.44
530.20	2030.64
530.56	2058.29
530.91	2086.69
531.27	2113.86
531.63	2140.49
531.99	2167.14
532.35	2192.89
532.71	2217.99
533.07	2244.52
533.42	2269.67
533.78	2295.50
534.14	2321.41
534.50	2345.88
534.86	2370.64
535.21	2394.48
535.57	2419.90
535.93	2444.59
536.29	2468.22
536.65	2491.70
537.00	2515.16
537.36	2539.85
537.72	2563.24
538.08	2585.81
538.44	2607.22
538.79	2629.29
539.15	2651.19
539.51	2673.51
539.87	2696.22
540.22	2719.00
540.58	2740.83
540.94	2762.54
541.29	2783.22
541.65	2803.27
542.01	2825.33
542.37	2845.94
542.72	2866.39
543.08	2885.07
543.44	2904.69
543.79	2923.05
544.15	2941.49
544.51	2961.45
544.87	2979.17
545.22	2996.88
545.58	3014.21
545.94	3030.60
546.29	3047.37
546.65	3063.54
547.01	3078.48
547.36	3092.90
547.72	3107.40
548.07	3121.40
548.43	3134.93
548.79	3148.90
549.14	3162.33
549.50	3173.78
549.86	3185.90
550.21	3198.00
550.57	3210.50
550.92	3221.69
551.28	3232.50
551.64	3243.69
551.99	3253.74
552.35	3264.39
552.70	3274.55
553.06	3284.90
553.41	3295.69
553.77	3305.48
554.13	3315.35
554.48	3324.97
554.84	3334.30
555.19	3343.16
555.55	3351.50
555.90	3359.74
556.26	3367.59
556.61	3375.87
556.97	3383.36
557.32	3391.40
557.68	3399.34
558.03	3406.03
558.39	3412.69
558.74	3420.96
559.10	3427.47
559.45	3433.62
559.81	3441.09
560.16	3446.44
560.52	3451.60
560.87	3457.57
561.23	3461.33
561.58	3466.20
561.94	3470.91
562.29	3474.69
562.64	3478.40
563.00	3482.45
563.35	3487.63
563.71	3492.69
564.06	3497.24
564.42	3501.40
564.77	3504.95
565.12	3509.01
565.48	3512.66
565.83	3515.01
566.19	3516.60
566.54	3518.76
566.89	3520.32
567.25	3520.88
567.60	3523.68
567.96	3525.20
568.31	3525.80
568.66	3527.49
569.02	3527.73
569.37	3527.20
569.72	3528.20
570.08	3528.08
570.43	3527.68
570.78	3525.61
571.14	3522.70
571.49	3520.43
571.84	3519.73
572.20	3516.72
572.55	3512.97
572.90	3509.20
573.26	3506.72
573.61	3503.31
573.96	3499.66
574.31	3494.84
574.67	3489.20
575.02	3483.82
575.37	3478.83
575.72	3472.29
576.08	3467.18
576.43	3461.74
576.78	3457.03
577.13	3451.78
577.49	3446.52
577.84	3440.41
578.19	3434.38
578.54	3428.04
578.90	3421.16
579.25	3412.51
579.60	3405.27
579.95	3397.80
580.30	3390.47
580.66	3382.10
581.01	3373.73
581.36	3366.09
581.71	3359.47
582.06	3352.31
582.42	3344.06
582.77	3335.27
583.12	3327.20
583.47	3319.11
583.82	3311.69
584.17	3302.79
584.53	3293.38
584.88	3284.49
585.23	3275.30
585.58	3267.21
585.93	3259.08
586.28	3251.20
586.63	3243.42
586.98	3235.51
587.34	3227.58
587.69	3218.42
588.04	3210.03
588.39	3202.13
588.74	3191.39
589.09	3181.19
589.44	3170.79
589.79	3161.50
590.14	3153.27
590.49	3144.40
590.84	3134.39
591.19	3124.23
591.54	3112.84
591.89	3100.62
592.25	3089.56
592.60	3078.68
592.95	3066.96
593.30	3055.43
593.65	3043.02
594.00	3031.54
594.35	3020.65
594.70	3008.23
595.05	2997.44
595.40	2985.76
595.75	2973.92
596.10	2963.91
596.45	2953.71
596.80	2944.32
597.15	2933.69
597.50	2921.92
597.85	2910.97
598.19	2900.23
598.54	2889.47
598.89	2880.18
599.24	2872.38
599.59	2862.41
599.94	2852.18
600.29	2841.64
600.64	2830.93
600.99	2820.00
601.34	2809.50
601.69	2798.33
602.04	2787.95
602.39	2777.17
602.74	2767.27
603.08	2757.08
603.43	2746.94
603.78	2735.72
604.13	2724.28
604.48	2712.38
604.83	2701.77
605.18	2691.33
605.53	2679.59
605.87	2667.00
606.22	2654.59
606.57	2641.60
606.92	2629.60
607.27	2618.64
607.62	2608.20
607.96	2597.51
608.31	2586.69
608.66	2574.22
609.01	2561.44
609.36	2548.13
609.70	2535.14
610.05	2521.45
610.40	2509.21
610.75	2496.15
611.10	2483.02
611.44	2469.08
611.79	2457.10
612.14	2443.98
612.49	2429.80
612.83	2416.21
613.18	2403.72
613.53	2391.82
613.88	2378.44
614.22	2365.47
614.57	2351.50
614.92	2338.01
615.27	2324.49
615.61	2311.31
615.96	2298.68
616.31	2287.08
616.65	2276.81
617.00	2264.84
617.35	2253.03
617.70	2239.67
618.04	2226.61
618.39	2214.42
618.74	2202.73
619.08	2189.99
619.43	2178.09
619.78	2166.56
620.12	2155.20
620.47	2143.04
620.82	2130.53
621.16	2118.85
621.51	2107.21
621.85	2095.42
622.20	2082.91
622.55	2071.41
622.89	2059.75
623.24	2048.30
623.59	2036.42
623.93	2023.83
624.28	2012.25
624.62	2000.65
624.97	1989.66
625.32	1979.01
625.66	1968.40
626.01	1957.51
626.35	1946.27
626.70	1934.30
627.04	1923.37
627.39	1911.77
627.73	1900.20
628.08	1888.97
628.43	1877.48
628.77	1866.08
629.12	1854.52
629.46	1843.30
629.81	1831.02
630.15	1819.14
630.50	1807.02
630.84	1794.62
631.19	1782.40
631.53	1770.50
631.88	1758.76
632.22	1746.26
632.57	1734.76
632.91	1722.51
633.26	1710.22
633.60	1697.95
633.95	1686.53
634.29	1674.80
634.64	1663.70
634.98	1652.46
635.32	1641.72
635.67	1631.46
636.01	1620.42
636.36	1609.70
636.70	1599.27
637.05	1589.15
637.39	1579.21
637.73	1569.76
638.08	1560.54
638.42	1551.16
638.77	1541.52
639.11	1531.43
639.45	1521.60
639.80	1511.21
640.14	1501.23
640.49	1491.56
640.83	1481.63
641.17	1471.60
641.52	1461.51
641.86	1451.22
642.20	1442.12
642.55	1431.72
642.89	1421.79
643.23	1411.71
643.58	1402.27
643.92	1392.21
644.26	1382.14
644.61	1372.66
644.95	1362.78
645.29	1351.97
645.64	1341.45
645.98	1331.37
646.32	1321.39
646.66	1311.94
647.01	1302.18
647.35	1292.53
647.69	1282.88
648.04	1273.97
648.38	1264.38
648.72	1254.56
649.06	1244.84
649.41	1234.82
649.75	1224.83
650.09	1214.94
650.43	1205.42
650.78	1195.39
651.12	1185.70
651.46	1176.65
651.80	1167.20
652.14	1157.68
652.49	1148.43
652.83	1139.79
653.17	1130.29
653.51	1121.04
653.85	1111.71
654.20	1102.41
654.54	1092.87
654.88	1083.74
655.22	1073.99
655.56	1064.68
655.90	1056.22
656.25	1047.65
656.59	1039.07
656.93	1030.94
657.27	1022.61
657.61	1014.03
657.95	1005.85
658.29	997.65
658.64	989.09
658.98	980.29
659.32	971.72
659.66	963.67
660.00	955.35
660.34	947.49
660.68	939.77
661.02	932.03
661.36	924.71
661.70	917.51
662.05	910.27
662.39	903.46
662.73	896.56
663.07	889.30
663.41	882.32
663.75	875.36
664.09	868.48
664.43	861.47
664.77	854.94
665.11	848.45
665.45	841.94
665.79	835.32
666.13	828.97
666.47	822.66
666.81	816.20
667.15	809.42
667.49	803.25
667.83	797.11
668.17	790.75
668.51	784.22
668.85	777.91
669.19	771.88
669.53	765.77
669.87	759.71
670.21	754.08
670.55	748.53
670.89	742.94
671.23	737.45
671.57	731.83
671.91	726.45
672.25	720.86
672.58	715.31
672.92	709.87
673.26	704.67
673.60	699.62
673.94	694.92
674.28	690.51
674.62	685.80
674.96	680.75
675.30	676.10
675.64	671.65
675.97	667.00
676.31	662.45
676.65	657.84
676.99	653.58
677.33	648.51
677.67	643.56
678.01	638.75
678.34	634.04
678.68	629.60
679.02	624.87
679.36	620.46
679.70	616.17
680.04	612.04
680.37	607.55
680.71	603.42
681.05	599.10
681.39	594.87
681.73	590.63
682.06	587.26
682.40	583.48
682.74	579.50
683.08	575.50
683.42	571.39
683.75	567.38
684.09	563.25
684.43	559.66
684.77	555.96
685.10	552.27
685.44	548.53
685.78	544.96
686.12	541.61
686.45	538.05
686.79	534.44
687.13	530.95
687.46	527.66
687.80	524.02
688.14	520.51
688.48	517.11
688.81	513.60
689.15	509.97
689.49	506.46
689.82	502.94
690.16	499.77
690.50	496.71
690.83	493.57
691.17	490.44
691.51	487.31
691.84	484.50
692.18	481.48
692.52	478.28
692.85	475.43
693.19	472.25
693.52	469.27
693.86	466.33
694.20	463.51
694.53	460.49
694.87	457.52
695.21	454.82
695.54	451.84
695.88	449.08
696.21	446.07
696.55	443.44
696.88	440.81
697.22	438.04
697.56	435.23
697.89	432.50
698.23	429.86
698.56	427.27
698.90	424.64
699.23	421.81
699.57	419.39
699.90	416.73
700.24	414.37
700.58	411.90
700.91	409.57
701.25	407.15
701.58	404.98
701.92	402.74
702.25	400.38
702.59	398.23
702.92	396.00
703.26	394.00
703.59	391.80
703.93	389.91
704.26	387.97
704.60	385.98
704.93	384.24
705.26	382.25
705.60	380.38
705.93	378.47
706.27	376.83
706.60	375.20
706.94	373.38
707.27	371.54
707.61	369.73
707.94	367.98
708.27	366.23
708.61	364.55
708.94	362.96
709.28	361.39
709.61	359.87
709.94	358.35
710.28	356.82
710.61	355.35
710.95	353.61
711.28	352.13
711.61	350.60
711.95	349.00
712.28	347.42
712.61	345.95
712.95	344.54
713.28	343.22
713.61	341.77
713.95	340.45
714.28	339.12
714.61	337.80
714.95	336.54
715.28	335.19
715.61	333.81
715.95	332.51
716.28	331.20
716.61	329.96
716.95	328.78
717.28	327.58
717.61	326.36
717.94	325.16
718.28	323.86
718.61	322.65
718.94	321.65
719.27	320.66
719.61	319.73
719.94	318.77
720.27	317.68
720.60	316.60
720.94	315.64
721.27	314.61
721.60	313.75
721.93	312.79
722.27	311.99
722.60	311.13
722.93	310.28
723.26	309.48
723.59	308.64
723.93	307.77
724.26	306.88
724.59	306.09
724.92	305.31
725.25	304.56
725.59	303.85
725.92	302.93
726.25	302.16
726.58	301.25
726.91	300.33
727.24	299.50
727.57	298.78
727.91	297.85
728.24	297.20
728.57	296.37
728.90	295.66
729.23	294.81
729.56	294.20
729.89	293.35
730.22	292.60
730.55	291.85
730.89	291.17
731.22	290.40
731.55	289.62
731.88	288.89
732.21	288.24
732.54	287.53
732.87	286.90
733.20	286.14
733.53	285.55
733.86	284.91
734.19	284.25
734.52	283.61
734.85	283.27
735.18	282.52
735.51	281.95
735.84	281.27
736.17	280.67
736.50	279.88
736.83	279.53
737.16	278.89
737.49	278.17
737.82	277.48
738.15	276.87
738.48	276.28
738.81	275.79
739.14	275.06
739.47	274.51
739.80	273.80
740.13	273.28
740.46	272.68
740.79	272.05
741.12	271.54
741.45	271.03
741.78	270.33
742.11	269.81
742.44	269.24
742.77	268.70
743.10	268.19
743.43	267.72
743.75	266.98
744.08	266.75
744.41	266.33
744.74	265.89
745.07	265.45
745.40	265.04
745.73	264.61
746.06	264.14
746.39	263.77
746.71	263.40
747.04	262.97
747.37	262.51
747.70	262.14
748.03	261.63
748.36	261.12
748.68	260.69
749.01	260.17
749.34	259.84
749.67	259.50
750.00	259.06
750.33	258.71
750.65	258.25
750.98	257.62
751.31	257.33
751.64	257.01
751.97	256.82
752.29	256.46
752.62	256.02
752.95	255.73
753.28	255.36
753.60	255.13
753.93	254.81
754.26	254.45
754.59	254.10
754.91	253.78
755.24	253.51
755.57	253.17
755.90	253.07
756.22	252.60
756.55	252.28
756.88	251.91
757.20	251.58
757.53	251.27
757.86	250.99
758.19	250.67
758.51	250.37
758.84	250.00
759.17	249.77
759.49	249.62
759.82	249.55
760.15	249.12
760.47	248.77
760.80	248.57
761.13	248.43
761.45	248.27
761.78	248.18
762.11	247.95
762.43	247.80
762.76	247.54
763.08	247.46
763.41	247.31
763.74	247.21
764.06	246.87
764.39	246.80
764.71	246.60
765.04	246.40
765.37	246.21
765.69	245.89
766.02	245.59
766.34	245.40
766.67	245.04
767.00	245.03
767.32	245.09
767.65	245.05
767.97	244.80
768.30	244.68
768.62	244.47
768.95	244.36
769.27	244.20
769.60	244.02
769.92	243.88
770.25	243.58
770.57	243.40
770.90	243.40
771.22	243.20
771.55	243.08
771.87	242.97
772.20	242.90
772.52	242.95
772.85	243.12
773.17	242.91
773.50	242.68
773.82	242.53
774.15	242.21
774.47	241.89
774.80	241.74
775.12	241.54
775.45	241.24
775.77	241.15
776.09	241.03
776.42	240.92
776.74	240.74
777.07	240.68
777.39	240.52
777.72	240.31
778.04	240.11
778.36	239.90
778.69	239.77
779.01	239.58
779.33	239.33
779.66	238.96
779.98	238.80
780.31	238.75
780.63	238.68
780.95	238.64
781.28	238.53
781.60	238.40
781.92	238.29
782.25	238.27
782.57	238.05
782.89	237.85
783.22	237.63
783.54	237.49
783.86	237.40
784.19	237.24
784.51	237.17
784.83	237.12
785.16	237.09
785.48	236.90
