SpectraSuite Data File
++++++++++++++++++++++++++++++++++++
Date: Fri Feb 01 14:34:52 EST 2013
User: group
Dark Spectrum Present: No
Reference Spectrum Present: No
Number of Sampled Component Spectra: 1
Spectrometers: USB2E7196
Integration Time (usec): 70000 (USB2E7196)
Spectra Averaged: 10 (USB2E7196)
Boxcar Smoothing: 10 (USB2E7196)
Correct for Electrical Dark: No (USB2E7196)
Strobe/Lamp Enabled: No (USB2E7196)
Correct for Detector Non-linearity: No (USB2E7196)
Correct for Stray Light: No (USB2E7196)
Number of Pixels in Processed Spectrum: 2048
>>>>>Begin Processed Spectral Data<<<<<
339.09	0.00
339.48	214.50
339.86	218.00
340.24	217.90
340.63	221.30
341.01	224.80
341.39	223.60
341.78	225.20
342.16	224.40
342.54	228.20
342.93	214.63
343.31	225.48
343.69	226.14
344.07	226.56
344.46	227.06
344.84	227.42
345.22	227.62
345.60	227.80
345.99	227.99
346.37	228.17
346.75	228.22
347.13	228.33
347.52	228.39
347.90	228.55
348.28	228.61
348.66	228.80
349.05	228.65
349.43	228.70
349.81	228.62
350.19	228.65
350.57	228.73
350.96	228.85
351.34	228.88
351.72	228.87
352.10	228.95
352.48	229.01
352.87	228.99
353.25	229.00
353.63	229.12
354.01	229.09
354.39	229.15
354.77	229.24
355.15	229.23
355.54	229.26
355.92	229.26
356.30	229.38
356.68	229.48
357.06	229.56
357.44	229.60
357.82	229.73
358.20	229.83
358.58	229.83
358.97	229.92
359.35	230.04
359.73	230.14
360.11	230.22
360.49	230.26
360.87	230.35
361.25	230.44
361.63	230.52
362.01	230.61
362.39	230.67
362.77	230.68
363.15	230.73
363.53	230.70
363.91	230.70
364.29	230.76
364.67	230.58
365.05	230.56
365.43	230.56
365.81	230.59
366.19	230.58
366.57	230.72
366.95	230.68
367.33	230.71
367.71	230.78
368.09	230.80
368.47	230.85
368.85	230.94
369.23	230.85
369.61	230.71
369.99	230.69
370.37	230.63
370.75	230.62
371.13	230.54
371.51	230.48
371.89	230.48
372.27	230.33
372.65	230.32
373.03	230.33
373.41	230.28
373.78	230.20
374.16	230.12
374.54	229.93
374.92	229.81
375.30	229.70
375.68	229.51
376.06	229.38
376.44	229.17
376.82	228.96
377.19	228.99
377.57	228.92
377.95	228.81
378.33	228.71
378.71	228.47
379.09	228.42
379.47	228.40
379.84	228.19
380.22	228.07
380.60	227.90
380.98	227.89
381.36	227.85
381.73	227.77
382.11	227.63
382.49	227.70
382.87	227.61
383.25	227.52
383.62	227.73
384.00	227.72
384.38	227.70
384.76	227.68
385.13	227.66
385.51	227.60
385.89	227.59
386.27	227.54
386.64	227.66
387.02	227.59
387.40	227.64
387.78	227.62
388.15	227.62
388.53	227.65
388.91	227.51
389.29	227.46
389.66	227.46
390.04	227.42
390.42	227.30
390.79	227.36
391.17	227.31
391.55	227.07
391.92	227.11
392.30	227.10
392.68	227.08
393.05	227.01
393.43	227.10
393.81	227.18
394.18	227.29
394.56	227.25
394.94	227.36
395.31	227.36
395.69	227.45
396.06	227.54
396.44	227.55
396.82	227.69
397.19	227.86
397.57	227.92
397.95	228.06
398.32	228.08
398.70	228.22
399.07	228.40
399.45	228.49
399.82	228.60
400.20	228.80
400.58	228.98
400.95	229.14
401.33	229.35
401.70	229.57
402.08	229.76
402.45	230.07
402.83	230.35
403.20	230.55
403.58	230.82
403.95	231.10
404.33	231.47
404.71	231.74
405.08	232.12
405.46	232.46
405.83	232.80
406.21	233.26
406.58	233.63
406.96	234.01
407.33	234.50
407.70	234.96
408.08	235.58
408.45	236.09
408.83	236.76
409.20	237.25
409.58	237.81
409.95	238.39
410.33	239.00
410.70	239.61
411.08	240.45
411.45	241.25
411.82	241.98
412.20	242.95
412.57	244.02
412.95	244.93
413.32	246.05
413.69	247.27
414.07	248.49
414.44	249.67
414.82	251.01
415.19	252.54
415.56	254.04
415.94	255.57
416.31	257.40
416.68	259.10
417.06	261.16
417.43	263.01
417.81	265.27
418.18	267.47
418.55	269.97
418.93	272.57
419.30	275.29
419.67	278.17
420.04	281.06
420.42	284.06
420.79	287.54
421.16	291.11
421.54	294.80
421.91	298.49
422.28	302.54
422.66	306.67
423.03	310.63
423.40	314.79
423.77	319.33
424.15	323.96
424.52	328.75
424.89	333.90
425.26	338.96
425.64	343.76
426.01	349.16
426.38	354.56
426.75	360.00
427.13	365.66
427.50	371.47
427.87	377.58
428.24	383.75
428.61	389.55
428.99	396.05
429.36	403.17
429.73	410.21
430.10	417.01
430.47	424.08
430.85	431.46
431.22	439.22
431.59	447.10
431.96	454.77
432.33	463.32
432.70	471.57
433.08	481.39
433.45	490.68
433.82	499.70
434.19	509.95
434.56	520.00
434.93	529.57
435.30	539.28
435.68	549.91
436.05	560.07
436.42	570.49
436.79	579.71
437.16	589.50
437.53	599.81
437.90	610.33
438.27	620.59
438.64	631.40
439.01	641.36
439.38	650.28
439.75	658.79
440.13	668.57
440.50	678.02
440.87	685.82
441.24	693.76
441.61	702.83
441.98	709.30
442.35	717.07
442.72	725.15
443.09	732.64
443.46	737.63
443.83	741.37
444.20	744.59
444.57	749.36
444.94	751.94
445.31	754.80
445.68	757.47
446.05	759.51
446.42	759.68
446.79	759.43
447.16	759.80
447.53	760.36
447.90	757.80
448.27	755.31
448.64	750.77
449.01	748.01
449.37	742.03
449.74	736.60
450.11	729.56
450.48	721.69
450.85	713.98
451.22	707.38
451.59	701.25
451.96	695.30
452.33	686.51
452.70	679.19
453.07	669.79
453.43	660.35
453.80	651.07
454.17	642.14
454.54	633.88
454.91	624.43
455.28	615.21
455.65	606.88
456.02	598.14
456.38	591.05
456.75	581.82
457.12	574.29
457.49	566.46
457.86	559.03
458.23	552.72
458.59	545.62
458.96	538.15
459.33	531.72
459.70	525.25
460.07	520.16
460.43	513.97
460.80	508.28
461.17	503.17
461.54	497.73
461.91	492.59
462.27	487.44
462.64	483.22
463.01	478.52
463.38	473.70
463.74	469.00
464.11	464.90
464.48	461.28
464.85	457.30
465.21	454.39
465.58	451.10
465.95	447.12
466.32	443.93
466.68	440.80
467.05	437.46
467.42	434.12
467.78	430.87
468.15	427.81
468.52	425.51
468.88	422.40
469.25	419.85
469.62	417.73
469.98	415.31
470.35	412.74
470.72	410.62
471.08	408.30
471.45	406.18
471.82	404.01
472.18	401.82
472.55	400.12
472.92	398.18
473.28	396.59
473.65	394.90
474.02	393.16
474.38	391.74
474.75	390.50
475.11	389.33
475.48	388.20
475.85	387.19
476.21	386.34
476.58	385.58
476.94	384.78
477.31	383.82
477.67	383.05
478.04	382.41
478.41	381.81
478.77	381.59
479.14	381.33
479.50	381.19
479.87	381.14
480.23	381.02
480.60	380.85
480.96	380.58
481.33	380.73
481.69	380.81
482.06	380.80
482.42	380.88
482.79	381.06
483.15	381.51
483.52	381.95
483.88	382.29
484.25	382.82
484.61	383.36
484.98	384.00
485.34	385.00
485.71	385.96
486.07	387.00
486.44	387.75
486.80	388.73
487.17	389.87
487.53	391.24
487.90	392.78
488.26	394.36
488.62	396.03
488.99	397.61
489.35	399.24
489.72	401.10
490.08	402.92
490.44	404.85
490.81	406.84
491.17	408.96
491.54	411.18
491.90	413.38
492.26	415.96
492.63	418.39
492.99	420.91
493.36	423.52
493.72	426.20
494.08	428.92
494.45	431.79
494.81	434.72
495.17	437.49
495.54	440.50
495.90	443.58
496.26	446.68
496.63	449.94
496.99	453.50
497.35	457.06
497.72	460.46
498.08	463.88
498.44	467.20
498.80	471.17
499.17	474.89
499.53	478.46
499.89	482.21
500.26	485.98
500.62	489.50
500.98	493.22
501.34	496.89
501.71	500.85
502.07	504.70
502.43	508.55
502.79	512.36
503.16	516.22
503.52	520.03
503.88	523.83
504.24	527.55
504.60	531.38
504.97	535.29
505.33	539.27
505.69	543.48
506.05	547.37
506.41	550.63
506.78	554.20
507.14	557.86
507.50	561.41
507.86	565.16
508.22	568.72
508.59	572.41
508.95	575.99
509.31	579.68
509.67	582.98
510.03	586.30
510.39	589.95
510.75	593.22
511.12	596.36
511.48	599.59
511.84	602.92
512.20	605.86
512.56	609.03
512.92	612.01
513.28	614.63
513.64	617.60
514.00	620.44
514.37	623.28
514.73	626.10
515.09	628.36
515.45	630.67
515.81	633.15
516.17	635.52
516.53	637.90
516.89	640.05
517.25	642.51
517.61	644.68
517.97	646.62
518.33	648.45
518.69	650.39
519.05	652.24
519.41	653.91
519.77	655.95
520.13	657.39
520.49	659.02
520.85	660.79
521.21	662.39
521.57	664.25
521.93	665.83
522.29	667.46
522.65	669.25
523.01	670.76
523.37	672.31
523.73	673.64
524.09	675.16
524.45	676.45
524.81	677.82
525.17	679.41
525.53	680.98
525.89	682.83
526.25	684.65
526.61	686.19
526.97	687.88
527.33	689.39
527.68	691.10
528.04	692.66
528.40	694.25
528.76	696.03
529.12	697.73
529.48	699.70
529.84	701.11
530.20	702.83
530.56	704.81
530.91	707.07
531.27	709.01
531.63	710.87
531.99	713.10
532.35	714.89
532.71	716.73
533.07	718.70
533.42	720.77
533.78	722.74
534.14	725.19
534.50	727.18
534.86	729.40
535.21	731.46
535.57	734.04
535.93	736.31
536.29	738.63
536.65	740.80
537.00	742.77
537.36	745.54
537.72	747.95
538.08	750.36
538.44	752.54
538.79	755.06
539.15	757.30
539.51	759.75
539.87	762.54
540.22	765.20
540.58	768.22
540.94	770.71
541.29	773.09
541.65	775.25
542.01	778.22
542.37	780.94
542.72	783.49
543.08	786.06
543.44	788.90
543.79	791.23
544.15	794.20
544.51	797.58
544.87	800.37
545.22	803.27
545.58	806.07
545.94	808.73
546.29	811.41
546.65	814.57
547.01	817.41
547.36	820.15
547.72	823.12
548.07	825.67
548.43	828.30
548.79	831.39
549.14	834.27
549.50	836.83
549.86	839.67
550.21	842.73
550.57	845.46
550.92	847.93
551.28	851.00
551.64	853.57
551.99	855.80
552.35	858.46
552.70	861.27
553.06	864.25
553.41	867.24
553.77	870.39
554.13	873.16
554.48	876.06
554.84	879.08
555.19	881.67
555.55	884.62
555.90	887.39
556.26	890.00
556.61	892.90
556.97	895.60
557.32	898.35
557.68	901.07
558.03	903.95
558.39	906.90
558.74	909.61
559.10	912.19
559.45	915.13
559.81	918.35
560.16	920.78
560.52	923.52
560.87	926.22
561.23	928.22
561.58	931.01
561.94	933.45
562.29	935.75
562.64	938.07
563.00	940.25
563.35	943.03
563.71	945.83
564.06	948.29
564.42	950.94
564.77	953.30
565.12	955.92
565.48	958.23
565.83	960.20
566.19	962.47
566.54	964.74
566.89	966.79
567.25	968.48
567.60	970.99
567.96	973.07
568.31	975.10
568.66	977.56
569.02	979.11
569.37	980.71
569.72	982.40
570.08	984.32
570.43	985.94
570.78	987.12
571.14	988.01
571.49	989.35
571.84	990.78
572.20	991.75
572.55	992.65
572.90	993.77
573.26	994.88
573.61	995.77
573.96	996.46
574.31	996.83
574.67	997.20
575.02	997.17
575.37	997.27
575.72	997.07
576.08	997.40
576.43	997.73
576.78	998.01
577.13	998.44
577.49	998.53
577.84	998.50
578.19	998.50
578.54	998.92
578.90	998.76
579.25	998.23
579.60	998.02
579.95	997.61
580.30	997.01
580.66	996.66
581.01	995.92
581.36	995.67
581.71	995.50
582.06	995.02
582.42	994.62
582.77	993.64
583.12	993.49
583.47	992.77
583.82	992.09
584.17	991.03
584.53	989.98
584.88	988.95
585.23	988.01
585.58	987.31
585.93	986.35
586.28	985.52
586.63	984.65
586.98	983.68
587.34	982.67
587.69	981.70
588.04	980.72
588.39	980.10
588.74	978.55
589.09	976.93
589.44	975.46
589.79	974.06
590.14	973.13
590.49	971.36
590.84	969.96
591.19	968.61
591.54	966.98
591.89	964.88
592.25	963.35
592.60	961.20
592.95	958.39
593.30	956.11
593.65	953.84
594.00	951.65
594.35	950.06
594.70	947.91
595.05	945.83
595.40	943.42
595.75	940.82
596.10	938.91
596.45	937.06
596.80	935.18
597.15	933.28
597.50	930.84
597.85	929.02
598.19	926.72
598.54	924.49
598.89	922.79
599.24	921.17
599.59	919.14
599.94	917.43
600.29	916.06
600.64	914.17
600.99	911.83
601.34	909.74
601.69	907.15
602.04	904.57
602.39	902.30
602.74	900.43
603.08	898.39
603.43	896.21
603.78	893.84
604.13	891.57
604.48	889.09
604.83	886.96
605.18	884.41
605.53	881.69
605.87	878.59
606.22	875.90
606.57	873.24
606.92	870.37
607.27	868.14
607.62	865.75
607.96	863.38
608.31	861.37
608.66	858.64
609.01	855.69
609.36	852.96
609.70	849.85
610.05	846.42
610.40	843.50
610.75	840.25
611.10	836.92
611.44	833.34
611.79	830.23
612.14	827.16
612.49	823.64
612.83	820.32
613.18	817.43
613.53	814.22
613.88	810.71
614.22	807.44
614.57	803.77
614.92	800.18
615.27	796.44
615.61	792.72
615.96	789.33
616.31	786.37
616.65	783.58
617.00	780.62
617.35	777.72
617.70	774.20
618.04	770.92
618.39	768.02
618.74	765.18
619.08	761.74
619.43	758.50
619.78	755.61
620.12	752.86
620.47	749.69
620.82	746.41
621.16	743.42
621.51	740.60
621.85	737.44
622.20	734.28
622.55	731.50
622.89	728.49
623.24	725.72
623.59	722.49
623.93	719.63
624.28	716.63
624.62	713.70
624.97	711.07
625.32	708.54
625.66	705.64
626.01	702.98
626.35	700.42
626.70	697.48
627.04	694.59
627.39	691.50
627.73	688.66
628.08	686.05
628.43	683.17
628.77	680.22
629.12	677.30
629.46	674.61
629.81	671.50
630.15	668.70
630.50	665.59
630.84	662.50
631.19	659.11
631.53	656.28
631.88	653.00
632.22	649.80
632.57	646.82
632.91	643.90
633.26	640.72
633.60	637.79
633.95	634.88
634.29	632.15
634.64	629.49
634.98	626.57
635.32	623.66
635.67	620.94
636.01	617.97
636.36	615.30
636.70	612.83
637.05	610.33
637.39	607.99
637.73	605.64
638.08	603.34
638.42	601.08
638.77	598.24
639.11	595.93
639.45	593.44
639.80	590.66
640.14	588.37
640.49	585.87
640.83	583.30
641.17	580.88
641.52	578.29
641.86	575.57
642.20	573.21
642.55	570.80
642.89	568.41
643.23	566.12
643.58	563.95
643.92	561.23
644.26	558.76
644.61	556.29
644.95	553.70
645.29	551.14
645.64	548.55
645.98	546.28
646.32	543.89
646.66	541.47
647.01	539.25
647.35	536.86
647.69	534.57
648.04	532.20
648.38	529.63
648.72	527.03
649.06	524.76
649.41	522.44
649.75	519.77
650.09	517.20
650.43	514.82
650.78	512.17
651.12	509.64
651.46	507.20
651.80	504.73
652.14	502.44
652.49	500.17
652.83	497.94
653.17	495.37
653.51	492.81
653.85	490.51
654.20	488.12
654.54	485.61
654.88	483.10
655.22	480.67
655.56	478.30
655.90	476.10
656.25	473.92
656.59	471.50
656.93	469.37
657.27	467.20
657.61	464.75
657.95	462.80
658.29	460.84
658.64	458.72
658.98	456.33
659.32	453.92
659.66	451.57
660.00	449.20
660.34	447.15
660.68	445.09
661.02	442.88
661.36	440.93
661.70	438.80
662.05	436.93
662.39	435.06
662.73	433.15
663.07	431.45
663.41	429.47
663.75	427.78
664.09	425.88
664.43	424.30
664.77	422.60
665.11	420.59
665.45	418.68
665.79	416.75
666.13	414.94
666.47	413.29
666.81	411.74
667.15	409.94
667.49	408.26
667.83	406.69
668.17	405.11
668.51	403.37
668.85	401.90
669.19	400.25
669.53	398.73
669.87	397.30
670.21	395.58
670.55	393.99
670.89	392.44
671.23	391.14
671.57	389.51
671.91	388.06
672.25	386.59
672.58	385.20
672.92	383.70
673.26	382.57
673.60	381.24
673.94	379.79
674.28	378.65
674.62	377.49
674.96	376.13
675.30	374.87
675.64	373.64
675.97	372.26
676.31	371.14
676.65	369.90
676.99	368.76
677.33	367.55
677.67	366.20
678.01	364.90
678.34	363.77
678.68	362.52
679.02	361.27
679.36	360.10
679.70	359.03
680.04	357.89
680.37	356.69
680.71	355.46
681.05	354.41
681.39	353.24
681.73	352.06
682.06	350.95
682.40	349.95
682.74	348.80
683.08	347.80
683.42	346.57
683.75	345.39
684.09	344.15
684.43	343.01
684.77	342.10
685.10	341.06
685.44	339.85
685.78	338.96
686.12	337.86
686.45	336.84
686.79	335.73
687.13	334.82
687.46	333.70
687.80	332.63
688.14	331.55
688.48	330.59
688.81	329.52
689.15	328.62
689.49	327.41
689.82	326.34
690.16	325.11
690.50	324.20
690.83	323.29
691.17	322.28
691.51	321.48
691.84	320.60
692.18	319.60
692.52	318.58
692.85	317.46
693.19	316.61
693.52	315.63
693.86	314.49
694.20	313.52
694.53	312.66
694.87	311.82
695.21	310.88
695.54	309.86
695.88	308.86
696.21	307.93
696.55	307.21
696.88	306.34
697.22	305.52
697.56	304.67
697.89	303.60
698.23	302.72
698.56	301.75
698.90	300.75
699.23	299.87
699.57	299.04
699.90	298.19
700.24	297.28
700.58	296.33
700.91	295.59
701.25	294.83
701.58	293.95
701.92	293.19
702.25	292.31
702.59	291.66
702.92	290.99
703.26	290.28
703.59	289.51
703.93	289.04
704.26	288.40
704.60	287.55
704.93	287.10
705.26	286.45
705.60	285.82
705.93	285.20
706.27	284.67
706.60	284.09
706.94	283.48
707.27	282.89
707.61	282.40
707.94	281.90
708.27	281.21
708.61	280.74
708.94	280.16
709.28	279.71
709.61	279.12
709.94	278.58
710.28	277.99
710.61	277.49
710.95	276.80
711.28	276.42
711.61	275.98
711.95	275.52
712.28	274.92
712.61	274.29
712.95	273.94
713.28	273.59
713.61	273.13
713.95	272.70
714.28	272.18
714.61	271.71
714.95	271.39
715.28	270.95
715.61	270.40
715.95	270.00
716.28	269.62
716.61	269.20
716.95	268.78
717.28	268.47
717.61	268.04
717.94	267.61
718.28	267.01
718.61	266.67
718.94	266.19
719.27	265.91
719.61	265.71
719.94	265.36
720.27	264.91
720.60	264.52
720.94	264.24
721.27	264.16
721.60	263.76
721.93	263.36
722.27	263.13
722.60	262.92
722.93	262.67
723.26	262.27
723.59	261.97
723.93	261.77
724.26	261.58
724.59	261.29
724.92	261.07
725.25	261.01
725.59	260.74
725.92	260.50
726.25	260.23
726.58	259.93
726.91	259.54
727.24	259.24
727.57	259.00
727.91	258.68
728.24	258.34
728.57	258.21
728.90	257.89
729.23	257.60
729.56	257.37
729.89	257.05
730.22	256.90
730.55	256.69
730.89	256.38
731.22	255.97
731.55	255.65
731.88	255.28
732.21	254.79
732.54	254.50
732.87	254.21
733.20	253.89
733.53	253.70
733.86	253.42
734.19	253.05
734.52	252.87
734.85	252.75
735.18	252.44
735.51	252.18
735.84	251.89
736.17	251.58
736.50	251.22
736.83	251.14
737.16	250.88
737.49	250.63
737.82	250.35
738.15	250.10
738.48	249.79
738.81	249.56
739.14	249.26
739.47	249.04
739.80	248.83
740.13	248.70
740.46	248.32
740.79	247.99
741.12	247.88
741.45	247.50
741.78	247.19
742.11	246.98
742.44	246.62
742.77	246.41
743.10	246.25
743.43	245.98
743.75	245.44
744.08	245.44
744.41	245.10
744.74	244.84
745.07	244.59
745.40	244.50
745.73	244.36
746.06	244.20
746.39	243.97
746.71	243.61
747.04	243.29
747.37	243.19
747.70	243.11
748.03	242.91
748.36	242.78
748.68	242.54
749.01	242.28
749.34	242.18
749.67	241.92
750.00	241.71
750.33	241.62
750.65	241.59
750.98	241.13
751.31	241.00
751.64	240.96
751.97	240.81
752.29	240.60
752.62	240.43
752.95	240.37
753.28	240.15
753.60	240.02
753.93	239.98
754.26	239.65
754.59	239.50
754.91	239.30
755.24	239.14
755.57	239.06
755.90	238.97
756.22	238.88
756.55	238.97
756.88	238.92
757.20	238.84
757.53	238.68
757.86	238.60
758.19	238.56
758.51	238.37
758.84	238.28
759.17	238.27
759.49	238.23
759.82	238.24
760.15	238.30
760.47	238.40
760.80	238.26
761.13	238.36
761.45	238.35
761.78	238.24
762.11	238.25
762.43	238.20
762.76	238.16
763.08	238.10
763.41	238.02
763.74	237.88
764.06	237.69
764.39	237.67
764.71	237.62
765.04	237.51
765.37	237.50
765.69	237.40
766.02	237.31
766.34	237.20
766.67	237.03
767.00	236.97
767.32	236.91
767.65	237.01
767.97	236.93
768.30	236.80
768.62	236.86
768.95	236.82
769.27	236.59
769.60	236.54
769.92	236.52
770.25	236.36
770.57	236.25
770.90	236.23
771.22	236.16
771.55	236.05
771.87	235.98
772.20	235.83
772.52	235.91
772.85	235.99
773.17	235.92
773.50	235.86
773.82	235.70
774.15	235.61
774.47	235.40
774.80	235.26
775.12	235.16
775.45	235.07
775.77	234.92
776.09	234.84
776.42	234.77
776.74	234.66
777.07	234.47
777.39	234.47
777.72	234.32
778.04	234.25
778.36	234.13
778.69	234.09
779.01	233.98
779.33	233.80
779.66	233.66
779.98	233.42
780.31	233.30
780.63	233.39
780.95	233.26
781.28	233.12
781.60	232.99
781.92	232.95
782.25	232.80
782.57	232.58
782.89	232.57
783.22	232.36
783.54	232.20
783.86	232.32
784.19	232.12
784.51	232.09
784.83	231.91
785.16	231.79
785.48	231.65
785.80	231.57
786.12	231.50
786.45	231.30
786.77	231.32
787.09	231.19
787.42	230.96
787.74	230.90
788.06	230.84
788.38	230.84
788.71	230.81
789.03	230.76
789.35	230.84
789.67	230.79
789.99	230.84
790.32	230.83
790.64	230.70
790.96	230.81
791.28	230.80
791.61	230.84
791.93	230.88
792.25	230.87
792.57	231.05
792.89	230.96
793.21	230.99
793.54	230.96
793.86	230.95
794.18	230.95
