SpectraSuite Data File
++++++++++++++++++++++++++++++++++++
Date: Fri Feb 01 14:41:50 EST 2013
User: group
Dark Spectrum Present: No
Reference Spectrum Present: No
Number of Sampled Component Spectra: 1
Spectrometers: USB2E7196
Integration Time (usec): 70000 (USB2E7196)
Spectra Averaged: 10 (USB2E7196)
Boxcar Smoothing: 10 (USB2E7196)
Correct for Electrical Dark: No (USB2E7196)
Strobe/Lamp Enabled: No (USB2E7196)
Correct for Detector Non-linearity: No (USB2E7196)
Correct for Stray Light: No (USB2E7196)
Number of Pixels in Processed Spectrum: 2048
>>>>>Begin Processed Spectral Data<<<<<
339.09	0.00
339.48	215.30
339.86	216.20
340.24	218.10
340.63	221.40
341.01	223.30
341.39	223.90
341.78	225.10
342.16	226.60
342.54	228.10
342.93	214.49
343.31	225.25
343.69	225.74
344.07	226.38
344.46	226.89
344.84	227.28
345.22	227.56
345.60	227.69
345.99	227.84
346.37	227.93
346.75	227.98
347.13	228.21
347.52	228.20
347.90	228.38
348.28	228.50
348.66	228.64
349.05	228.67
349.43	228.89
349.81	229.11
350.19	229.13
350.57	229.17
350.96	229.20
351.34	229.46
351.72	229.67
352.10	229.66
352.48	229.73
352.87	229.76
353.25	229.85
353.63	230.07
354.01	230.20
354.39	230.28
354.77	230.38
355.15	230.46
355.54	230.53
355.92	230.51
356.30	230.56
356.68	230.78
357.06	230.86
357.44	230.77
357.82	230.90
358.20	231.01
358.58	231.07
358.97	231.16
359.35	231.21
359.73	231.34
360.11	231.38
360.49	231.47
360.87	231.51
361.25	231.55
361.63	231.54
362.01	231.55
362.39	231.65
362.77	231.67
363.15	231.64
363.53	231.69
363.91	231.73
364.29	231.73
364.67	231.56
365.05	231.62
365.43	231.78
365.81	231.65
366.19	231.78
366.57	231.90
366.95	231.90
367.33	231.88
367.71	231.74
368.09	231.72
368.47	231.57
368.85	231.49
369.23	231.43
369.61	231.40
369.99	231.38
370.37	231.23
370.75	231.27
371.13	231.20
371.51	231.00
371.89	230.87
372.27	230.81
372.65	230.73
373.03	230.51
373.41	230.39
373.78	230.40
374.16	230.21
374.54	230.04
374.92	229.90
375.30	229.77
375.68	229.73
376.06	229.82
376.44	229.75
376.82	229.69
377.19	229.60
377.57	229.59
377.95	229.50
378.33	229.46
378.71	229.20
379.09	229.16
379.47	229.23
379.84	229.20
380.22	229.13
380.60	229.02
380.98	229.00
381.36	228.86
381.73	228.71
382.11	228.55
382.49	228.43
382.87	228.36
383.25	228.31
383.62	228.44
384.00	228.30
384.38	228.33
384.76	228.32
385.13	228.32
385.51	228.21
385.89	228.09
386.27	228.05
386.64	228.18
387.02	228.01
387.40	227.93
387.78	227.85
388.15	227.85
388.53	227.90
388.91	227.87
389.29	227.92
389.66	227.97
390.04	228.02
390.42	228.06
390.79	228.11
391.17	228.04
391.55	227.85
391.92	227.77
392.30	227.79
392.68	227.85
393.05	228.02
393.43	228.03
393.81	228.14
394.18	228.15
394.56	228.20
394.94	228.44
395.31	228.43
395.69	228.65
396.06	228.73
396.44	228.70
396.82	228.80
397.19	228.94
397.57	229.03
397.95	229.30
398.32	229.36
398.70	229.46
399.07	229.65
399.45	229.73
399.82	229.90
400.20	229.95
400.58	230.03
400.95	230.01
401.33	230.18
401.70	230.44
402.08	230.64
402.45	230.72
402.83	230.81
403.20	231.08
403.58	231.10
403.95	231.29
404.33	231.57
404.71	231.77
405.08	232.03
405.46	232.28
405.83	232.34
406.21	232.61
406.58	232.90
406.96	233.14
407.33	233.46
407.70	233.70
408.08	234.18
408.45	234.51
408.83	234.81
409.20	235.08
409.58	235.29
409.95	235.73
410.33	236.15
410.70	236.60
411.08	237.13
411.45	237.53
411.82	237.91
412.20	238.33
412.57	238.99
412.95	239.38
413.32	239.83
413.69	240.47
414.07	241.10
414.44	241.72
414.82	242.37
415.19	243.12
415.56	243.97
415.94	244.61
416.31	245.44
416.68	246.21
417.06	247.17
417.43	248.10
417.81	249.06
418.18	250.10
418.55	251.15
418.93	252.22
419.30	253.58
419.67	254.91
420.04	256.34
420.42	257.72
420.79	259.48
421.16	261.18
421.54	262.93
421.91	264.72
422.28	266.38
422.66	268.23
423.03	270.10
423.40	271.93
423.77	274.01
424.15	276.20
424.52	278.42
424.89	280.80
425.26	282.93
425.64	285.09
426.01	287.35
426.38	289.72
426.75	292.17
427.13	294.61
427.50	297.20
427.87	299.83
428.24	302.35
428.61	304.74
428.99	307.55
429.36	310.37
429.73	313.13
430.10	316.00
430.47	318.96
430.85	321.86
431.22	325.09
431.59	328.48
431.96	331.45
432.33	335.03
432.70	338.38
433.08	342.42
433.45	345.97
433.82	349.76
434.19	353.89
434.56	357.86
434.93	361.62
435.30	365.42
435.68	369.69
436.05	373.73
436.42	377.62
436.79	381.06
437.16	384.94
437.53	389.12
437.90	393.37
438.27	397.28
438.64	401.49
439.01	405.14
439.38	408.29
439.75	411.45
440.13	414.95
440.50	418.32
440.87	420.99
441.24	424.00
441.61	426.97
441.98	429.18
442.35	431.81
442.72	434.38
443.09	436.93
443.46	438.22
443.83	439.10
444.20	439.96
444.57	441.12
444.94	441.42
445.31	441.76
445.68	442.08
446.05	442.18
446.42	441.45
446.79	440.84
447.16	440.27
447.53	439.96
447.90	438.39
448.27	436.80
448.64	434.53
449.01	432.82
449.37	430.11
449.74	427.21
450.11	423.97
450.48	420.50
450.85	416.86
451.22	413.79
451.59	411.02
451.96	408.10
452.33	404.55
452.70	401.36
453.07	397.35
453.43	393.25
453.80	389.32
454.17	385.64
454.54	382.00
454.91	378.05
455.28	374.14
455.65	370.43
456.02	366.96
456.38	363.89
456.75	360.06
457.12	356.73
457.49	353.68
457.86	350.54
458.23	347.87
458.59	344.95
458.96	341.87
459.33	339.03
459.70	336.49
460.07	334.28
460.43	331.70
460.80	329.49
461.17	327.40
461.54	325.14
461.91	323.05
462.27	320.93
462.64	319.01
463.01	316.97
463.38	315.17
463.74	313.01
464.11	311.34
464.48	309.86
464.85	308.20
465.21	306.82
465.58	305.40
465.95	303.82
466.32	302.38
466.68	300.99
467.05	299.65
467.42	298.23
467.78	296.66
468.15	295.34
468.52	294.34
468.88	292.99
469.25	291.84
469.62	290.76
469.98	289.84
470.35	288.81
470.72	287.81
471.08	286.68
471.45	285.81
471.82	284.97
472.18	283.95
472.55	283.27
472.92	282.32
473.28	281.54
473.65	280.76
474.02	280.14
474.38	279.62
474.75	279.05
475.11	278.46
475.48	278.11
475.85	277.70
476.21	277.10
476.58	276.80
476.94	276.50
477.31	276.19
477.67	275.74
478.04	275.60
478.41	275.49
478.77	275.49
479.14	275.32
479.50	275.10
479.87	275.11
480.23	275.15
480.60	275.24
480.96	275.28
481.33	275.47
481.69	275.56
482.06	275.67
482.42	275.88
482.79	276.11
483.15	276.25
483.52	276.66
483.88	276.99
484.25	277.13
484.61	277.56
484.98	278.02
485.34	278.59
485.71	279.13
486.07	279.69
486.44	280.27
486.80	280.96
487.17	281.78
487.53	282.66
487.90	283.61
488.26	284.62
488.62	285.81
488.99	286.86
489.35	288.04
489.72	289.34
490.08	290.79
490.44	292.10
490.81	293.75
491.17	295.30
491.54	297.15
491.90	299.15
492.26	301.15
492.63	303.18
492.99	305.31
493.36	307.62
493.72	310.13
494.08	312.69
494.45	315.39
494.81	318.26
495.17	321.16
495.54	324.42
495.90	327.77
496.26	331.15
496.63	334.76
496.99	338.61
497.35	342.50
497.72	346.62
498.08	351.02
498.44	355.57
498.80	360.44
499.17	365.20
499.53	370.24
499.89	375.55
500.26	381.01
500.62	387.02
500.98	393.20
501.34	399.48
501.71	406.02
502.07	412.80
502.43	419.68
502.79	426.91
503.16	434.26
503.52	442.05
503.88	449.84
504.24	458.16
504.60	466.58
504.97	475.80
505.33	485.05
505.69	494.82
506.05	504.71
506.41	514.84
506.78	525.37
507.14	536.37
507.50	547.49
507.86	559.16
508.22	570.71
508.59	582.64
508.95	595.19
509.31	608.10
509.67	621.35
510.03	635.05
510.39	648.99
510.75	663.14
511.12	677.49
511.48	692.41
511.84	707.28
512.20	722.74
512.56	738.30
512.92	754.31
513.28	770.71
513.64	787.39
514.00	804.15
514.37	821.72
514.73	839.18
515.09	856.82
515.45	874.91
515.81	892.95
516.17	911.86
516.53	930.62
516.89	949.93
517.25	969.25
517.61	988.58
517.97	1008.33
518.33	1028.08
518.69	1048.17
519.05	1068.65
519.41	1089.72
519.77	1111.11
520.13	1132.45
520.49	1153.75
520.85	1175.01
521.21	1196.67
521.57	1219.04
521.93	1240.74
522.29	1263.10
522.65	1285.72
523.01	1307.88
523.37	1330.22
523.73	1352.21
524.09	1374.85
524.45	1397.56
524.81	1420.47
525.17	1444.10
525.53	1467.59
525.89	1490.88
526.25	1514.48
526.61	1537.61
526.97	1561.30
527.33	1584.85
527.68	1608.47
528.04	1631.81
528.40	1655.32
528.76	1679.45
529.12	1703.23
529.48	1726.87
529.84	1750.19
530.20	1774.01
530.56	1798.43
530.91	1823.62
531.27	1848.27
531.63	1871.77
531.99	1894.88
532.35	1918.10
532.71	1940.75
533.07	1964.18
533.42	1987.44
533.78	2010.83
534.14	2034.10
534.50	2055.92
534.86	2078.07
535.21	2099.74
535.57	2123.08
535.93	2145.70
536.29	2167.32
536.65	2188.96
537.00	2210.73
537.36	2232.58
537.72	2253.20
538.08	2273.76
538.44	2293.54
538.79	2313.49
539.15	2333.42
539.51	2353.99
539.87	2374.45
540.22	2394.13
540.58	2414.08
540.94	2433.47
541.29	2452.12
541.65	2470.82
542.01	2490.60
542.37	2509.55
542.72	2527.90
543.08	2545.24
543.44	2562.97
543.79	2579.92
544.15	2596.27
544.51	2613.74
544.87	2630.22
545.22	2646.90
545.58	2662.64
545.94	2677.86
546.29	2692.66
546.65	2707.53
547.01	2722.02
547.36	2736.23
547.72	2750.66
548.07	2764.13
548.43	2777.02
548.79	2789.71
549.14	2802.16
549.50	2813.34
549.86	2824.16
550.21	2835.56
550.57	2846.98
550.92	2858.11
551.28	2868.04
551.64	2878.80
551.99	2888.51
552.35	2898.63
552.70	2908.89
553.06	2918.81
553.41	2929.00
553.77	2938.99
554.13	2948.88
554.48	2958.27
554.84	2966.37
555.19	2974.76
555.55	2982.59
555.90	2990.15
556.26	2998.30
556.61	3006.39
556.97	3013.85
557.32	3021.79
557.68	3029.42
558.03	3036.26
558.39	3042.87
558.74	3051.51
559.10	3058.63
559.45	3065.37
559.81	3072.52
560.16	3077.60
560.52	3083.10
560.87	3089.04
561.23	3093.94
561.58	3098.75
561.94	3103.03
562.29	3107.55
562.64	3111.42
563.00	3115.42
563.35	3121.20
563.71	3126.17
564.06	3130.29
564.42	3134.63
564.77	3138.31
565.12	3142.58
565.48	3146.51
565.83	3148.88
566.19	3151.47
566.54	3153.73
566.89	3155.39
567.25	3156.68
567.60	3159.62
567.96	3161.44
568.31	3162.19
568.66	3163.46
569.02	3164.90
569.37	3165.39
569.72	3166.40
570.08	3167.45
570.43	3167.79
570.78	3166.75
571.14	3165.20
571.49	3164.12
571.84	3164.48
572.20	3162.59
572.55	3159.90
572.90	3157.13
573.26	3156.28
573.61	3153.74
573.96	3151.09
574.31	3147.17
574.67	3143.01
575.02	3138.59
575.37	3135.01
575.72	3130.02
576.08	3125.90
576.43	3121.42
576.78	3117.43
577.13	3113.22
577.49	3108.87
577.84	3104.26
578.19	3099.66
578.54	3094.32
578.90	3088.07
579.25	3080.37
579.60	3074.57
579.95	3068.66
580.30	3061.76
580.66	3053.70
581.01	3045.81
581.36	3039.42
581.71	3034.45
582.06	3028.13
582.42	3020.93
582.77	3013.26
583.12	3006.41
583.47	2999.67
583.82	2993.10
584.17	2985.23
584.53	2977.86
584.88	2969.87
585.23	2962.06
585.58	2954.47
585.93	2947.24
586.28	2941.26
586.63	2934.79
586.98	2927.75
587.34	2920.33
587.69	2913.42
588.04	2906.81
588.39	2900.30
588.74	2890.54
589.09	2881.09
589.44	2871.78
589.79	2864.05
590.14	2856.50
590.49	2848.49
590.84	2839.43
591.19	2830.45
591.54	2820.71
591.89	2810.09
592.25	2800.69
592.60	2789.88
592.95	2779.60
593.30	2769.16
593.65	2758.15
594.00	2747.43
594.35	2737.53
594.70	2726.82
595.05	2716.45
595.40	2705.56
595.75	2694.59
596.10	2685.75
596.45	2676.72
596.80	2668.38
597.15	2658.92
597.50	2649.02
597.85	2639.69
598.19	2630.71
598.54	2621.30
598.89	2612.70
599.24	2604.58
599.59	2595.29
599.94	2586.97
600.29	2577.55
600.64	2568.07
600.99	2557.70
601.34	2548.25
601.69	2537.88
602.04	2528.82
602.39	2519.59
602.74	2511.14
603.08	2501.98
603.43	2492.90
603.78	2482.82
604.13	2472.52
604.48	2462.18
604.83	2452.28
605.18	2442.76
605.53	2431.76
605.87	2420.52
606.22	2410.43
606.57	2399.76
606.92	2389.23
607.27	2379.20
607.62	2369.94
607.96	2360.40
608.31	2351.17
608.66	2340.33
609.01	2329.86
609.36	2318.30
609.70	2306.10
610.05	2293.87
610.40	2282.60
610.75	2270.74
611.10	2259.46
611.44	2247.05
611.79	2236.53
612.14	2224.51
612.49	2211.48
612.83	2199.46
613.18	2187.88
613.53	2176.45
613.88	2163.87
614.22	2152.21
614.57	2139.84
614.92	2127.63
615.27	2116.06
615.61	2104.09
615.96	2092.98
616.31	2082.25
616.65	2072.53
617.00	2062.48
617.35	2051.82
617.70	2040.57
618.04	2028.95
618.39	2017.98
618.74	2008.20
619.08	1996.41
619.43	1986.17
619.78	1976.41
620.12	1966.20
620.47	1955.50
620.82	1944.39
621.16	1934.33
621.51	1923.78
621.85	1913.40
622.20	1902.20
622.55	1891.49
622.89	1881.16
623.24	1870.86
623.59	1860.41
623.93	1849.70
624.28	1839.27
624.62	1828.81
624.97	1818.86
625.32	1809.45
625.66	1799.31
626.01	1788.54
626.35	1778.23
626.70	1767.69
627.04	1757.54
627.39	1747.20
627.73	1737.00
628.08	1726.79
628.43	1716.60
628.77	1706.30
629.12	1695.42
629.46	1685.36
629.81	1674.14
630.15	1663.37
630.50	1652.34
630.84	1641.08
631.19	1629.50
631.53	1618.64
631.88	1607.40
632.22	1596.11
632.57	1585.48
632.91	1574.82
633.26	1564.23
633.60	1553.29
633.95	1543.12
634.29	1532.72
634.64	1523.15
634.98	1512.55
635.32	1503.09
635.67	1494.07
636.01	1484.28
636.36	1474.69
636.70	1465.56
637.05	1456.72
637.39	1447.76
637.73	1439.20
638.08	1431.07
638.42	1422.89
638.77	1414.29
639.11	1405.23
639.45	1396.67
639.80	1387.37
640.14	1378.30
640.49	1369.32
640.83	1360.36
641.17	1351.01
641.52	1341.76
641.86	1332.00
642.20	1323.72
642.55	1314.51
642.89	1304.87
643.23	1295.87
643.58	1287.55
643.92	1278.07
644.26	1269.04
644.61	1260.20
644.95	1251.40
645.29	1241.54
645.64	1231.50
645.98	1222.26
646.32	1213.75
646.66	1204.44
647.01	1195.88
647.35	1187.13
647.69	1178.56
648.04	1170.47
648.38	1161.74
648.72	1152.99
649.06	1144.17
649.41	1135.57
649.75	1126.37
650.09	1117.43
650.43	1108.70
650.78	1099.70
651.12	1090.71
651.46	1082.28
651.80	1073.94
652.14	1065.24
652.49	1057.07
652.83	1049.65
653.17	1041.40
653.51	1033.30
653.85	1025.55
654.20	1017.31
654.54	1009.09
654.88	1000.82
655.22	992.32
655.56	984.27
655.90	976.42
656.25	969.06
656.59	961.08
656.93	953.97
657.27	946.57
657.61	938.69
657.95	931.53
658.29	924.59
658.64	917.09
658.98	909.47
659.32	901.82
659.66	894.32
660.00	886.66
660.34	879.44
660.68	872.25
661.02	865.12
661.36	858.35
661.70	851.57
662.05	845.35
662.39	839.12
662.73	832.51
663.07	826.05
663.41	819.63
663.75	813.39
664.09	806.99
664.43	800.92
664.77	795.20
665.11	789.26
665.45	783.19
665.79	777.46
666.13	771.56
666.47	765.69
666.81	759.97
667.15	754.06
667.49	748.42
667.83	742.95
668.17	737.33
668.51	731.58
668.85	726.15
669.19	720.65
669.53	715.32
669.87	710.22
670.21	705.16
670.55	700.25
670.89	695.39
671.23	690.53
671.57	685.58
671.91	680.54
672.25	675.51
672.58	670.65
672.92	665.84
673.26	661.32
673.60	656.84
673.94	652.50
674.28	648.43
674.62	644.28
674.96	640.03
675.30	635.81
675.64	631.73
675.97	627.68
676.31	623.36
676.65	618.99
676.99	615.04
677.33	610.70
677.67	606.44
678.01	602.00
678.34	597.64
678.68	593.57
679.02	589.46
679.36	585.37
679.70	581.62
680.04	577.59
680.37	573.51
680.71	569.80
681.05	566.09
681.39	562.23
681.73	558.31
682.06	554.80
682.40	551.39
682.74	547.69
683.08	544.15
683.42	540.68
683.75	537.19
684.09	533.28
684.43	529.90
684.77	526.54
685.10	523.30
685.44	519.96
685.78	516.63
686.12	513.55
686.45	510.36
686.79	506.98
687.13	503.79
687.46	500.59
687.80	497.40
688.14	493.95
688.48	490.96
688.81	487.85
689.15	484.61
689.49	481.37
689.82	478.43
690.16	475.40
690.50	472.50
690.83	469.58
691.17	466.88
691.51	463.98
691.84	461.19
692.18	458.25
692.52	455.44
692.85	452.70
693.19	449.88
693.52	447.31
693.86	444.62
694.20	441.79
694.53	439.31
694.87	436.78
695.21	434.31
695.54	431.75
695.88	429.23
696.21	426.54
696.55	424.01
696.88	421.57
697.22	419.09
697.56	416.76
697.89	414.60
698.23	412.47
698.56	410.31
698.90	407.86
699.23	405.60
699.57	403.43
699.90	401.21
700.24	399.08
700.58	396.74
700.91	394.74
701.25	393.00
701.58	390.97
701.92	388.91
702.25	387.04
702.59	385.13
702.92	383.34
703.26	381.63
703.59	379.92
703.93	378.32
704.26	376.51
704.60	374.53
704.93	372.62
705.26	370.67
705.60	368.95
705.93	367.38
706.27	365.89
706.60	364.23
706.94	362.65
707.27	361.00
707.61	359.44
707.94	357.83
708.27	356.20
708.61	354.55
708.94	353.06
709.28	351.78
709.61	350.25
709.94	348.87
710.28	347.50
710.61	346.09
710.95	344.43
711.28	343.19
711.61	341.90
711.95	340.62
712.28	339.26
712.61	337.75
712.95	336.35
713.28	334.95
713.61	333.64
713.95	332.31
714.28	331.24
714.61	330.04
714.95	328.95
715.28	327.70
715.61	326.50
715.95	325.21
716.28	323.75
716.61	322.69
716.95	321.47
717.28	320.34
717.61	319.16
717.94	317.91
718.28	316.62
718.61	315.50
718.94	314.42
719.27	313.42
719.61	312.50
719.94	311.46
720.27	310.54
720.60	309.59
720.94	308.67
721.27	307.60
721.60	306.66
721.93	305.68
722.27	304.89
722.60	303.90
722.93	303.14
723.26	302.38
723.59	301.32
723.93	300.43
724.26	299.63
724.59	298.75
724.92	298.13
725.25	297.33
725.59	296.60
725.92	295.72
726.25	294.95
726.58	294.12
726.91	293.48
727.24	292.65
727.57	291.94
727.91	291.22
728.24	290.66
728.57	289.85
728.90	289.05
729.23	288.25
729.56	287.81
729.89	287.05
730.22	286.28
730.55	285.62
730.89	285.00
731.22	284.26
731.55	283.66
731.88	282.99
732.21	282.29
732.54	281.65
732.87	281.00
733.20	280.32
733.53	279.81
733.86	279.22
734.19	278.63
734.52	277.94
734.85	277.36
735.18	276.63
735.51	276.10
735.84	275.57
736.17	275.07
736.50	274.36
736.83	274.02
737.16	273.49
737.49	273.03
737.82	272.46
738.15	271.99
738.48	271.51
738.81	271.00
739.14	270.65
739.47	270.17
739.80	269.62
740.13	269.23
740.46	268.74
740.79	268.29
741.12	267.93
741.45	267.59
741.78	267.19
742.11	266.81
742.44	266.34
742.77	265.90
743.10	265.44
743.43	264.99
743.75	264.43
744.08	264.33
744.41	263.98
744.74	263.56
745.07	263.04
745.40	262.69
745.73	262.40
746.06	261.93
746.39	261.57
746.71	261.24
747.04	260.94
747.37	260.55
747.70	260.24
748.03	259.84
748.36	259.53
748.68	259.11
749.01	258.81
749.34	258.47
749.67	258.16
750.00	257.82
750.33	257.68
750.65	257.44
750.98	256.80
751.31	256.39
751.64	256.14
751.97	255.96
752.29	255.59
752.62	255.09
752.95	254.80
753.28	254.43
753.60	254.19
753.93	253.81
754.26	253.53
754.59	253.08
754.91	252.72
755.24	252.41
755.57	252.08
755.90	251.75
756.22	251.47
756.55	251.21
756.88	250.89
757.20	250.47
757.53	250.12
757.86	249.92
758.19	249.72
758.51	249.38
758.84	249.09
759.17	248.93
759.49	248.75
759.82	248.70
760.15	248.60
760.47	248.34
760.80	248.06
761.13	247.86
761.45	247.76
761.78	247.48
762.11	247.30
762.43	247.14
762.76	246.93
763.08	246.74
763.41	246.51
763.74	246.39
764.06	246.13
764.39	245.88
764.71	245.66
765.04	245.48
765.37	245.31
765.69	245.16
766.02	244.90
766.34	244.81
766.67	244.51
767.00	244.29
767.32	244.20
767.65	244.18
767.97	243.93
768.30	243.65
768.62	243.49
768.95	243.33
769.27	243.16
769.60	242.94
769.92	242.67
770.25	242.51
770.57	242.24
770.90	242.17
771.22	242.00
771.55	241.92
771.87	241.69
772.20	241.47
772.52	241.41
772.85	241.47
773.17	241.28
773.50	241.08
773.82	240.88
774.15	240.63
774.47	240.39
774.80	240.28
775.12	240.14
775.45	240.04
775.77	239.84
776.09	239.67
776.42	239.63
776.74	239.62
777.07	239.45
777.39	239.38
777.72	239.19
778.04	239.06
778.36	238.88
778.69	238.80
779.01	238.77
779.33	238.57
779.66	238.20
779.98	237.92
780.31	237.75
780.63	237.80
780.95	237.77
781.28	237.60
781.60	237.40
781.92	237.29
782.25	237.21
782.57	237.00
782.89	236.92
783.22	236.74
783.54	236.68
783.86	236.59
784.19	236.41
784.51	236.36
784.83	236.28
785.16	236.16
785.48	236.09
785.80	236.03
