SpectraSuite Data File
++++++++++++++++++++++++++++++++++++
Date: Fri Feb 01 14:39:32 EST 2013
User: group
Dark Spectrum Present: No
Reference Spectrum Present: No
Number of Sampled Component Spectra: 1
Spectrometers: USB2E7196
Integration Time (usec): 70000 (USB2E7196)
Spectra Averaged: 10 (USB2E7196)
Boxcar Smoothing: 10 (USB2E7196)
Correct for Electrical Dark: No (USB2E7196)
Strobe/Lamp Enabled: No (USB2E7196)
Correct for Detector Non-linearity: No (USB2E7196)
Correct for Stray Light: No (USB2E7196)
Number of Pixels in Processed Spectrum: 2048
>>>>>Begin Processed Spectral Data<<<<<
339.09	0.00
339.48	216.10
339.86	216.40
340.24	216.80
340.63	219.80
341.01	224.80
341.39	223.70
341.78	224.60
342.16	225.10
342.54	226.20
342.93	214.54
343.31	225.39
343.69	225.99
344.07	226.55
344.46	227.03
344.84	227.33
345.22	227.55
345.60	227.74
345.99	227.95
346.37	228.14
346.75	228.23
347.13	228.21
347.52	228.26
347.90	228.23
348.28	228.22
348.66	228.30
349.05	228.27
349.43	228.38
349.81	228.32
350.19	228.34
350.57	228.35
350.96	228.29
351.34	228.28
351.72	228.32
352.10	228.32
352.48	228.37
352.87	228.44
353.25	228.40
353.63	228.53
354.01	228.47
354.39	228.42
354.77	228.40
355.15	228.56
355.54	228.61
355.92	228.66
356.30	228.68
356.68	228.71
357.06	228.70
357.44	228.69
357.82	228.80
358.20	229.00
358.58	229.03
358.97	229.21
359.35	229.31
359.73	229.30
360.11	229.30
360.49	229.32
360.87	229.42
361.25	229.51
361.63	229.57
362.01	229.57
362.39	229.62
362.77	229.70
363.15	229.68
363.53	229.69
363.91	229.80
364.29	229.83
364.67	229.64
365.05	229.70
365.43	229.64
365.81	229.63
366.19	229.59
366.57	229.71
366.95	229.63
367.33	229.61
367.71	229.57
368.09	229.70
368.47	229.78
368.85	229.74
369.23	229.74
369.61	229.60
369.99	229.66
370.37	229.65
370.75	229.69
371.13	229.57
371.51	229.54
371.89	229.46
372.27	229.42
372.65	229.38
373.03	229.36
373.41	229.32
373.78	229.20
374.16	229.09
374.54	228.96
374.92	228.84
375.30	228.80
375.68	228.65
376.06	228.59
376.44	228.42
376.82	228.39
377.19	228.37
377.57	228.33
377.95	228.24
378.33	228.18
378.71	228.04
379.09	228.00
379.47	227.92
379.84	227.81
380.22	227.68
380.60	227.66
380.98	227.55
381.36	227.50
381.73	227.44
382.11	227.46
382.49	227.37
382.87	227.38
383.25	227.31
383.62	227.61
384.00	227.49
384.38	227.53
384.76	227.54
385.13	227.38
385.51	227.30
385.89	227.28
386.27	227.27
386.64	227.21
387.02	227.18
387.40	227.12
387.78	227.04
388.15	227.04
388.53	226.96
388.91	226.90
389.29	226.78
389.66	226.75
390.04	226.65
390.42	226.71
390.79	226.69
391.17	226.71
391.55	226.40
391.92	226.40
392.30	226.36
392.68	226.23
393.05	226.36
393.43	226.38
393.81	226.35
394.18	226.30
394.56	226.32
394.94	226.41
395.31	226.40
395.69	226.52
396.06	226.53
396.44	226.61
396.82	226.69
397.19	227.04
397.57	227.15
397.95	227.22
398.32	227.24
398.70	227.22
399.07	227.28
399.45	227.39
399.82	227.39
400.20	227.47
400.58	227.58
400.95	227.56
401.33	227.69
401.70	227.87
402.08	227.96
402.45	228.10
402.83	228.12
403.20	228.21
403.58	228.22
403.95	228.41
404.33	228.59
404.71	228.70
405.08	228.78
405.46	228.87
405.83	229.01
406.21	229.07
406.58	229.27
406.96	229.38
407.33	229.55
407.70	229.82
408.08	230.08
408.45	230.30
408.83	230.57
409.20	230.73
409.58	230.88
409.95	231.14
410.33	231.39
410.70	231.73
411.08	232.07
411.45	232.49
411.82	232.80
412.20	233.18
412.57	233.66
412.95	233.89
413.32	234.23
413.69	234.63
414.07	235.09
414.44	235.59
414.82	236.10
415.19	236.60
415.56	237.06
415.94	237.58
416.31	238.22
416.68	238.71
417.06	239.52
417.43	240.29
417.81	241.01
418.18	241.78
418.55	242.58
418.93	243.48
419.30	244.39
419.67	245.26
420.04	246.16
420.42	247.17
420.79	248.50
421.16	249.74
421.54	251.06
421.91	252.32
422.28	253.57
422.66	254.94
423.03	256.48
423.40	257.91
423.77	259.36
424.15	260.89
424.52	262.54
424.89	264.10
425.26	265.63
425.64	267.18
426.01	268.85
426.38	270.67
426.75	272.58
427.13	274.39
427.50	276.40
427.87	278.41
428.24	280.33
428.61	282.00
428.99	284.10
429.36	286.31
429.73	288.53
430.10	290.70
430.47	293.01
430.85	295.10
431.22	297.47
431.59	300.16
431.96	302.54
432.33	305.20
432.70	307.81
433.08	311.00
433.45	313.97
433.82	316.88
434.19	320.00
434.56	322.96
434.93	325.94
435.30	328.91
435.68	332.14
436.05	335.17
436.42	338.26
436.79	341.15
437.16	343.98
437.53	347.13
437.90	350.42
438.27	353.38
438.64	356.74
439.01	359.69
439.38	362.24
439.75	364.62
440.13	367.48
440.50	370.14
440.87	372.26
441.24	374.45
441.61	376.89
441.98	378.62
442.35	380.68
442.72	382.80
443.09	384.78
443.46	386.12
443.83	387.04
444.20	387.92
444.57	388.89
444.94	389.49
445.31	390.06
445.68	390.61
446.05	391.03
446.42	390.68
446.79	390.42
447.16	390.12
447.53	389.97
447.90	388.89
448.27	387.81
448.64	386.36
449.01	385.27
449.37	383.36
449.74	381.50
450.11	379.38
450.48	376.88
450.85	374.26
451.22	371.83
451.59	369.74
451.96	367.58
452.33	364.86
452.70	362.43
453.07	359.50
453.43	356.34
453.80	353.34
454.17	350.55
454.54	347.74
454.91	344.58
455.28	341.71
455.65	339.04
456.02	336.59
456.38	334.16
456.75	331.15
457.12	328.64
457.49	326.19
457.86	323.69
458.23	321.60
458.59	319.37
458.96	317.18
459.33	315.27
459.70	313.27
460.07	311.66
460.43	309.76
460.80	307.88
461.17	306.31
461.54	304.60
461.91	303.01
462.27	301.36
462.64	300.05
463.01	298.63
463.38	297.22
463.74	295.64
464.11	294.30
464.48	293.23
464.85	291.95
465.21	290.99
465.58	289.98
465.95	288.67
466.32	287.67
466.68	286.65
467.05	285.40
467.42	284.37
467.78	283.15
468.15	282.14
468.52	281.46
468.88	280.37
469.25	279.37
469.62	278.58
469.98	277.89
470.35	277.14
470.72	276.45
471.08	275.57
471.45	274.73
471.82	274.04
472.18	273.28
472.55	272.73
472.92	272.00
473.28	271.39
473.65	270.81
474.02	270.24
474.38	269.72
474.75	269.41
475.11	268.90
475.48	268.54
475.85	268.12
476.21	267.59
476.58	267.21
476.94	266.84
477.31	266.39
477.67	265.93
478.04	265.63
478.41	265.22
478.77	265.11
479.14	264.81
479.50	264.53
479.87	264.29
480.23	264.05
480.60	263.82
480.96	263.50
481.33	263.36
481.69	263.10
482.06	262.78
482.42	262.49
482.79	262.30
483.15	262.24
483.52	262.10
483.88	261.99
484.25	261.84
484.61	261.82
484.98	261.71
485.34	261.80
485.71	261.69
486.07	261.70
486.44	261.46
486.80	261.49
487.17	261.44
487.53	261.60
487.90	261.63
488.26	261.71
488.62	261.78
488.99	261.87
489.35	261.88
489.72	261.94
490.08	262.06
490.44	262.11
490.81	262.19
491.17	262.28
491.54	262.43
491.90	262.56
492.26	262.73
492.63	262.91
492.99	263.04
493.36	263.33
493.72	263.59
494.08	263.84
494.45	264.14
494.81	264.53
495.17	264.81
495.54	265.07
495.90	265.33
496.26	265.64
496.63	266.02
496.99	266.58
497.35	267.14
497.72	267.65
498.08	268.20
498.44	268.75
498.80	269.46
499.17	269.95
499.53	270.63
499.89	271.21
500.26	271.90
500.62	272.65
500.98	273.41
501.34	274.17
501.71	275.00
502.07	275.80
502.43	276.72
502.79	277.51
503.16	278.57
503.52	279.51
503.88	280.66
504.24	281.70
504.60	282.72
504.97	283.87
505.33	285.01
505.69	286.35
506.05	287.70
506.41	289.01
506.78	290.47
507.14	292.03
507.50	293.65
507.86	295.44
508.22	297.15
508.59	298.72
508.95	300.62
509.31	302.64
509.67	304.57
510.03	306.49
510.39	308.71
510.75	310.86
511.12	313.23
511.48	315.60
511.84	318.21
512.20	320.68
512.56	323.35
512.92	326.21
513.28	329.19
513.64	332.06
514.00	335.10
514.37	338.31
514.73	341.50
515.09	344.82
515.45	348.15
515.81	351.54
516.17	355.20
516.53	358.66
516.89	362.21
517.25	366.00
517.61	369.97
517.97	374.03
518.33	378.18
518.69	382.58
519.05	386.96
519.41	391.20
519.77	396.00
520.13	400.83
520.49	405.51
520.85	410.04
521.21	414.92
521.57	420.11
521.93	425.13
522.29	430.31
522.65	435.49
523.01	440.75
523.37	446.09
523.73	451.60
524.09	457.41
524.45	463.26
524.81	469.20
525.17	475.07
525.53	481.13
525.89	487.30
526.25	493.52
526.61	499.63
526.97	506.03
527.33	512.53
527.68	519.06
528.04	525.83
528.40	532.72
528.76	539.63
529.12	546.25
529.48	553.28
529.84	560.25
530.20	567.54
530.56	574.93
530.91	582.61
531.27	590.15
531.63	597.55
531.99	605.27
532.35	612.90
532.71	620.54
533.07	628.21
533.42	635.97
533.78	643.48
534.14	651.63
534.50	659.40
534.86	667.20
535.21	675.03
535.57	682.97
535.93	691.18
536.29	699.17
536.65	707.38
537.00	715.45
537.36	723.75
537.72	731.77
538.08	739.97
538.44	748.12
538.79	756.44
539.15	764.56
539.51	772.56
539.87	780.96
540.22	789.34
540.58	797.60
540.94	805.92
541.29	814.17
541.65	822.35
542.01	830.86
542.37	839.28
542.72	847.60
543.08	855.60
543.44	863.70
543.79	871.48
544.15	879.50
544.51	887.80
544.87	895.88
545.22	904.02
545.58	911.67
545.94	919.27
546.29	926.78
546.65	934.61
547.01	942.30
547.36	949.77
547.72	957.06
548.07	964.60
548.43	972.03
548.79	979.42
549.14	986.26
549.50	993.42
549.86	1000.29
550.21	1007.17
550.57	1014.26
550.92	1021.12
551.28	1027.98
551.64	1034.76
551.99	1041.46
552.35	1048.08
552.70	1054.67
553.06	1061.63
553.41	1068.38
553.77	1074.93
554.13	1081.50
554.48	1088.00
554.84	1094.47
555.19	1100.80
555.55	1107.26
555.90	1113.33
556.26	1119.50
556.61	1125.75
556.97	1131.60
557.32	1137.69
557.68	1143.68
558.03	1149.65
558.39	1155.51
558.74	1161.87
559.10	1167.59
559.45	1173.18
559.81	1179.24
560.16	1184.59
560.52	1189.69
560.87	1195.17
561.23	1200.37
561.58	1205.60
561.94	1210.74
562.29	1215.09
562.64	1219.98
563.00	1224.25
563.35	1229.31
563.71	1234.62
564.06	1239.90
564.42	1244.80
564.77	1249.15
565.12	1253.66
565.48	1258.53
565.83	1262.63
566.19	1266.90
566.54	1271.07
566.89	1275.00
567.25	1278.52
567.60	1282.66
567.96	1286.64
568.31	1290.15
568.66	1293.70
569.02	1296.98
569.37	1300.24
569.72	1303.71
570.08	1306.91
570.43	1310.38
570.78	1312.83
571.14	1314.71
571.49	1316.57
571.84	1319.16
572.20	1321.36
572.55	1323.78
572.90	1324.91
573.26	1326.97
573.61	1328.32
573.96	1330.00
574.31	1331.24
574.67	1332.08
575.02	1332.77
575.37	1333.87
575.72	1334.43
576.08	1335.58
576.43	1336.21
576.78	1337.24
577.13	1337.99
577.49	1338.81
577.84	1338.88
578.19	1339.30
578.54	1339.84
578.90	1339.98
579.25	1339.43
579.60	1339.42
579.95	1338.63
580.30	1338.12
580.66	1337.43
581.01	1337.05
581.36	1336.33
581.71	1335.91
582.06	1335.50
582.42	1334.74
582.77	1333.72
583.12	1333.09
583.47	1332.08
583.82	1331.34
584.17	1329.81
584.53	1329.02
584.88	1327.90
585.23	1327.03
585.58	1326.20
585.93	1324.75
586.28	1323.89
586.63	1322.92
586.98	1321.33
587.34	1320.40
587.69	1319.59
588.04	1318.32
588.39	1317.46
588.74	1315.70
589.09	1313.90
589.44	1311.91
589.79	1310.55
590.14	1308.89
590.49	1306.99
590.84	1305.10
591.19	1303.32
591.54	1300.79
591.89	1297.70
592.25	1295.23
592.60	1292.15
592.95	1289.14
593.30	1286.71
593.65	1283.85
594.00	1281.03
594.35	1279.12
594.70	1275.89
595.05	1273.03
595.40	1270.21
595.75	1266.77
596.10	1264.13
596.45	1261.80
596.80	1259.56
597.15	1257.09
597.50	1254.10
597.85	1251.71
598.19	1249.22
598.54	1246.42
598.89	1244.16
599.24	1242.03
599.59	1239.34
599.94	1237.34
600.29	1234.85
600.64	1232.10
600.99	1229.19
601.34	1226.52
601.69	1223.21
602.04	1220.69
602.39	1217.67
602.74	1214.94
603.08	1211.94
603.43	1209.19
603.78	1205.86
604.13	1202.56
604.48	1199.13
604.83	1196.16
605.18	1193.01
605.53	1189.13
605.87	1185.07
606.22	1181.84
606.57	1178.28
606.92	1174.73
607.27	1171.43
607.62	1168.25
607.96	1164.82
608.31	1161.52
608.66	1157.87
609.01	1153.90
609.36	1149.49
609.70	1145.08
610.05	1140.70
610.40	1136.79
610.75	1132.71
611.10	1128.57
611.44	1124.07
611.79	1119.82
612.14	1115.29
612.49	1110.27
612.83	1105.91
613.18	1101.75
613.53	1097.33
613.88	1092.99
614.22	1088.52
614.57	1083.71
614.92	1079.04
615.27	1074.80
615.61	1069.94
615.96	1065.30
616.31	1061.19
616.65	1057.66
617.00	1054.23
617.35	1050.37
617.70	1046.02
618.04	1041.28
618.39	1036.97
618.74	1032.88
619.08	1028.41
619.43	1024.42
619.78	1020.52
620.12	1016.36
620.47	1012.27
620.82	1007.75
621.16	1003.41
621.51	999.00
621.85	994.49
622.20	989.66
622.55	985.13
622.89	980.77
623.24	976.64
623.59	972.79
623.93	968.40
624.28	963.87
624.62	959.22
624.97	955.10
625.32	951.17
625.66	947.55
626.01	943.52
626.35	939.62
626.70	935.35
627.04	931.24
627.39	927.01
627.73	922.69
628.08	918.38
628.43	914.09
628.77	910.05
629.12	905.60
629.46	901.67
629.81	897.17
630.15	892.88
630.50	888.42
630.84	883.35
631.19	878.57
631.53	873.98
631.88	869.46
632.22	864.65
632.57	860.45
632.91	855.47
633.26	850.86
633.60	846.10
633.95	841.75
634.29	837.28
634.64	833.18
634.98	828.87
635.32	824.89
635.67	820.82
636.01	816.65
636.36	812.71
636.70	808.55
637.05	804.54
637.39	800.70
637.73	796.72
638.08	793.22
638.42	789.76
638.77	786.01
639.11	782.30
639.45	778.57
639.80	774.49
640.14	770.63
640.49	766.83
640.83	763.05
641.17	759.17
641.52	755.49
641.86	751.13
642.20	747.47
642.55	743.49
642.89	739.68
643.23	735.81
643.58	732.32
643.92	728.60
644.26	724.92
644.61	721.34
644.95	717.58
645.29	713.41
645.64	709.12
645.98	705.42
646.32	701.61
646.66	697.79
647.01	693.86
647.35	690.20
647.69	686.48
648.04	682.91
648.38	679.07
648.72	674.89
649.06	671.36
649.41	667.45
649.75	663.49
650.09	659.74
650.43	655.83
650.78	651.73
651.12	647.60
651.46	643.82
651.80	639.96
652.14	636.34
652.49	632.66
652.83	629.28
653.17	625.44
653.51	621.71
653.85	617.99
654.20	614.44
654.54	610.36
654.88	606.73
655.22	602.95
655.56	599.41
655.90	595.95
656.25	592.71
656.59	589.32
656.93	586.11
657.27	582.77
657.61	579.39
657.95	576.02
658.29	572.93
658.64	569.70
658.98	566.39
659.32	562.90
659.66	559.66
660.00	556.35
660.34	553.12
660.68	549.97
661.02	546.92
661.36	543.87
661.70	541.09
662.05	538.12
662.39	535.21
662.73	532.30
663.07	529.67
663.41	526.74
663.75	523.91
664.09	521.08
664.43	518.01
664.77	515.27
665.11	512.73
665.45	510.15
665.79	507.36
666.13	504.72
666.47	502.13
666.81	499.44
667.15	496.68
667.49	494.04
667.83	491.58
668.17	488.79
668.51	486.10
668.85	483.60
669.19	481.08
669.53	478.58
669.87	475.94
670.21	473.39
670.55	470.86
670.89	468.66
671.23	466.40
671.57	464.24
671.91	462.02
672.25	459.76
672.58	457.32
672.92	455.01
673.26	453.01
673.60	450.84
673.94	448.75
674.28	446.81
674.62	444.78
674.96	442.71
675.30	440.84
675.64	438.88
675.97	436.81
676.31	434.76
676.65	432.80
676.99	431.01
677.33	429.07
677.67	427.01
678.01	424.76
678.34	422.67
678.68	420.78
679.02	418.65
679.36	416.58
679.70	414.69
680.04	412.71
680.37	410.50
680.71	408.50
681.05	406.83
681.39	405.02
681.73	403.34
682.06	401.69
682.40	400.02
682.74	398.31
683.08	396.64
683.42	394.91
683.75	393.26
684.09	391.25
684.43	389.47
684.77	387.89
685.10	386.39
685.44	384.84
685.78	383.10
686.12	381.66
686.45	380.12
686.79	378.54
687.13	377.19
687.46	375.71
687.80	374.40
688.14	372.74
688.48	371.11
688.81	369.53
689.15	367.97
689.49	366.58
689.82	365.16
690.16	363.65
690.50	362.29
690.83	360.79
691.17	359.62
691.51	358.18
691.84	356.90
692.18	355.54
692.52	353.96
692.85	352.63
693.19	351.24
693.52	349.85
693.86	348.52
694.20	347.09
694.53	345.75
694.87	344.35
695.21	342.97
695.54	341.60
695.88	340.29
696.21	338.94
696.55	337.70
696.88	336.40
697.22	335.23
697.56	333.97
697.89	332.60
698.23	331.45
698.56	330.30
698.90	328.91
699.23	327.41
699.57	326.41
699.90	325.16
700.24	324.00
700.58	322.71
700.91	321.60
701.25	320.66
701.58	319.70
701.92	318.50
702.25	317.51
702.59	316.53
702.92	315.34
703.26	314.35
703.59	313.19
703.93	312.37
704.26	311.26
704.60	310.30
704.93	309.53
705.26	308.43
705.60	307.42
705.93	306.58
706.27	305.87
706.60	305.00
706.94	304.20
707.27	303.29
707.61	302.43
707.94	301.59
708.27	300.64
708.61	299.72
708.94	298.89
709.28	298.22
709.61	297.38
709.94	296.70
710.28	295.92
710.61	295.19
710.95	294.17
711.28	293.62
711.61	292.77
711.95	291.99
712.28	291.26
712.61	290.63
712.95	289.96
713.28	289.18
713.61	288.39
713.95	287.70
714.28	287.03
714.61	286.35
714.95	285.73
715.28	284.95
715.61	284.23
715.95	283.73
716.28	282.94
716.61	282.43
716.95	281.83
717.28	281.25
717.61	280.61
717.94	280.00
718.28	279.24
718.61	278.75
718.94	278.21
719.27	277.78
719.61	277.23
719.94	276.67
720.27	276.22
720.60	275.78
720.94	275.40
721.27	274.96
721.60	274.70
721.93	274.20
722.27	273.91
722.60	273.50
722.93	272.96
723.26	272.48
723.59	271.93
723.93	271.47
724.26	271.01
724.59	270.52
724.92	270.13
725.25	269.83
725.59	269.50
725.92	269.05
726.25	268.42
726.58	268.07
726.91	267.69
727.24	267.41
727.57	266.99
727.91	266.55
728.24	266.16
728.57	265.65
728.90	265.26
729.23	264.74
729.56	264.45
729.89	264.06
730.22	263.66
730.55	263.35
730.89	263.00
731.22	262.66
731.55	262.31
731.88	262.00
732.21	261.44
732.54	260.89
732.87	260.55
733.20	260.34
733.53	259.99
733.86	259.67
734.19	259.16
734.52	258.70
734.85	258.47
735.18	258.13
735.51	257.91
735.84	257.57
736.17	257.30
736.50	256.77
736.83	256.73
737.16	256.49
737.49	256.17
737.82	255.88
738.15	255.49
738.48	255.20
738.81	254.85
739.14	254.65
739.47	254.37
739.80	254.05
740.13	253.89
740.46	253.51
740.79	253.20
741.12	252.93
741.45	252.79
741.78	252.32
742.11	252.05
742.44	251.68
742.77	251.40
743.10	251.01
743.43	250.80
743.75	250.29
744.08	250.29
744.41	250.00
744.74	249.87
745.07	249.69
745.40	249.63
745.73	249.44
746.06	249.19
746.39	249.05
746.71	248.78
747.04	248.49
747.37	248.23
747.70	247.96
748.03	247.82
748.36	247.50
748.68	247.26
749.01	246.99
749.34	246.77
749.67	246.58
750.00	246.45
750.33	246.40
750.65	246.14
750.98	245.65
751.31	245.48
751.64	245.21
751.97	245.03
752.29	244.65
752.62	244.46
752.95	244.30
753.28	243.96
753.60	243.85
753.93	243.58
754.26	243.51
754.59	243.35
754.91	243.08
755.24	243.02
755.57	242.91
755.90	242.82
756.22	242.60
756.55	242.45
756.88	242.26
757.20	242.04
757.53	241.99
757.86	241.86
758.19	241.74
758.51	241.59
758.84	241.42
759.17	241.32
759.49	241.15
759.82	241.09
760.15	241.05
760.47	240.97
760.80	240.84
761.13	240.76
761.45	240.69
761.78	240.63
762.11	240.54
762.43	240.41
762.76	240.19
763.08	240.23
763.41	240.16
763.74	240.12
764.06	239.89
764.39	239.78
764.71	239.66
765.04	239.46
765.37	239.39
765.69	239.28
766.02	239.20
766.34	239.17
766.67	239.11
767.00	239.02
767.32	238.91
767.65	238.95
767.97	238.87
768.30	238.70
768.62	238.60
768.95	238.50
769.27	238.35
769.60	238.28
769.92	238.16
770.25	238.04
770.57	237.81
770.90	237.88
771.22	237.74
771.55	237.65
771.87	237.57
772.20	237.43
772.52	237.50
772.85	237.60
773.17	237.43
773.50	237.28
773.82	237.13
774.15	236.95
774.47	236.78
774.80	236.56
775.12	236.54
775.45	236.51
775.77	236.35
776.09	236.30
776.42	236.15
776.74	236.01
777.07	235.84
777.39	235.86
777.72	235.71
778.04	235.72
778.36	235.61
778.69	235.58
779.01	235.53
779.33	235.27
779.66	234.89
779.98	234.88
780.31	234.73
780.63	234.77
780.95	234.74
781.28	234.57
781.60	234.53
781.92	234.35
782.25	234.20
782.57	234.12
782.89	234.06
783.22	234.09
783.54	233.99
783.86	233.98
784.19	233.86
784.51	233.77
784.83	233.59
785.16	233.45
785.48	233.40
785.80	233.18
786.12	233.08
786.45	233.12
786.77	232.99
787.09	232.93
787.42	232.83
787.74	232.76
788.06	232.73
788.38	232.59
788.71	232.62
789.03	232.50
789.35	232.42
789.67	232.30
789.99	232.19
