SpectraSuite Data File
++++++++++++++++++++++++++++++++++++
Date: Fri Feb 01 14:36:05 EST 2013
User: group
Dark Spectrum Present: No
Reference Spectrum Present: No
Number of Sampled Component Spectra: 1
Spectrometers: USB2E7196
Integration Time (usec): 70000 (USB2E7196)
Spectra Averaged: 10 (USB2E7196)
Boxcar Smoothing: 10 (USB2E7196)
Correct for Electrical Dark: No (USB2E7196)
Strobe/Lamp Enabled: No (USB2E7196)
Correct for Detector Non-linearity: No (USB2E7196)
Correct for Stray Light: No (USB2E7196)
Number of Pixels in Processed Spectrum: 2048
>>>>>Begin Processed Spectral Data<<<<<
339.09	0.00
339.48	216.70
339.86	217.90
340.24	217.70
340.63	220.30
341.01	224.60
341.39	222.10
341.78	225.50
342.16	225.50
342.54	227.00
342.93	214.69
343.31	225.54
343.69	226.05
344.07	226.48
344.46	226.94
344.84	227.35
345.22	227.49
345.60	227.81
345.99	227.90
346.37	228.00
346.75	228.00
347.13	228.01
347.52	228.07
347.90	228.24
348.28	228.18
348.66	228.25
349.05	228.07
349.43	228.01
349.81	228.06
350.19	228.18
350.57	228.22
350.96	228.32
351.34	228.30
351.72	228.40
352.10	228.57
352.48	228.64
352.87	228.64
353.25	228.73
353.63	228.82
354.01	228.86
354.39	228.98
354.77	229.12
355.15	229.25
355.54	229.30
355.92	229.25
356.30	229.41
356.68	229.62
357.06	229.76
357.44	229.85
357.82	229.88
358.20	230.00
358.58	230.08
358.97	230.15
359.35	230.36
359.73	230.45
360.11	230.44
360.49	230.57
360.87	230.67
361.25	230.74
361.63	230.74
362.01	230.83
362.39	230.88
362.77	230.98
363.15	230.95
363.53	230.95
363.91	231.01
364.29	231.02
364.67	230.80
365.05	230.81
365.43	230.82
365.81	230.79
366.19	230.84
366.57	230.98
366.95	230.90
367.33	230.72
367.71	230.69
368.09	230.79
368.47	230.72
368.85	230.55
369.23	230.61
369.61	230.54
369.99	230.64
370.37	230.67
370.75	230.64
371.13	230.62
371.51	230.43
371.89	230.37
372.27	230.25
372.65	230.23
373.03	230.09
373.41	230.02
373.78	229.98
374.16	229.74
374.54	229.59
374.92	229.55
375.30	229.52
375.68	229.39
376.06	229.27
376.44	229.11
376.82	229.16
377.19	229.04
377.57	228.98
377.95	228.72
378.33	228.53
378.71	228.27
379.09	228.22
379.47	228.24
379.84	228.11
380.22	227.96
380.60	227.89
380.98	227.83
381.36	227.74
381.73	227.70
382.11	227.69
382.49	227.59
382.87	227.48
383.25	227.41
383.62	227.46
384.00	227.28
384.38	227.26
384.76	227.31
385.13	227.19
385.51	227.15
385.89	227.05
386.27	226.92
386.64	226.94
387.02	226.95
387.40	227.01
387.78	227.00
388.15	227.09
388.53	227.05
388.91	227.03
389.29	227.00
389.66	227.05
390.04	227.03
390.42	227.05
390.79	227.05
391.17	227.09
391.55	226.98
391.92	227.03
392.30	227.00
392.68	226.82
393.05	226.97
393.43	226.93
393.81	227.05
394.18	227.14
394.56	227.16
394.94	227.11
395.31	227.09
395.69	227.20
396.06	227.25
396.44	227.29
396.82	227.49
397.19	227.61
397.57	227.63
397.95	227.78
398.32	227.80
398.70	227.95
399.07	228.10
399.45	228.21
399.82	228.37
400.20	228.58
400.58	228.72
400.95	228.62
401.33	228.82
401.70	229.11
402.08	229.32
402.45	229.47
402.83	229.77
403.20	229.89
403.58	230.10
403.95	230.36
404.33	230.65
404.71	230.78
405.08	231.10
405.46	231.28
405.83	231.54
406.21	231.74
406.58	231.91
406.96	232.19
407.33	232.50
407.70	232.70
408.08	233.19
408.45	233.68
408.83	234.20
409.20	234.59
409.58	234.89
409.95	235.37
410.33	235.91
410.70	236.37
411.08	237.05
411.45	237.67
411.82	238.20
412.20	238.84
412.57	239.68
412.95	240.21
413.32	241.16
413.69	241.90
414.07	242.85
414.44	243.93
414.82	245.04
415.19	246.20
415.56	247.47
415.94	248.62
416.31	249.99
416.68	251.38
417.06	253.09
417.43	254.58
417.81	256.30
418.18	257.97
418.55	259.80
418.93	261.67
419.30	263.62
419.67	265.88
420.04	268.14
420.42	270.42
420.79	273.28
421.16	275.77
421.54	278.58
421.91	281.38
422.28	284.21
422.66	287.22
423.03	290.36
423.40	293.56
423.77	296.84
424.15	300.17
424.52	303.80
424.89	307.64
425.26	311.51
425.64	315.01
426.01	319.03
426.38	323.10
426.75	327.33
427.13	331.69
427.50	336.04
427.87	340.65
428.24	345.23
428.61	349.59
428.99	354.55
429.36	359.88
429.73	365.16
430.10	370.46
430.47	375.60
430.85	380.92
431.22	386.57
431.59	392.88
431.96	398.68
432.33	405.00
432.70	411.10
433.08	418.39
433.45	425.48
433.82	432.25
434.19	439.88
434.56	447.32
434.93	454.40
435.30	461.51
435.68	469.40
436.05	477.06
436.42	484.76
436.79	491.73
437.16	499.20
437.53	507.26
437.90	515.33
438.27	523.13
438.64	531.26
439.01	538.95
439.38	545.40
439.75	551.83
440.13	559.12
440.50	566.28
440.87	572.11
441.24	577.90
441.61	584.75
441.98	589.70
442.35	595.39
442.72	601.16
443.09	606.86
443.46	610.53
443.83	613.12
444.20	615.47
444.57	618.78
444.94	620.85
445.31	622.73
445.68	624.46
446.05	626.13
446.42	626.01
446.79	625.86
447.16	625.80
447.53	626.23
447.90	624.32
448.27	621.98
448.64	618.73
449.01	616.88
449.37	612.29
449.74	608.06
450.11	602.77
450.48	597.20
450.85	591.24
451.22	586.21
451.59	581.58
451.96	577.17
452.33	570.89
452.70	565.14
453.07	558.20
453.43	551.19
453.80	544.13
454.17	537.63
454.54	531.18
454.91	524.30
455.28	517.44
455.65	511.13
456.02	504.97
456.38	499.34
456.75	492.30
457.12	486.66
457.49	480.98
457.86	475.51
458.23	470.58
458.59	465.42
458.96	460.09
459.33	455.24
459.70	450.24
460.07	446.28
460.43	441.76
460.80	437.36
461.17	433.41
461.54	429.39
461.91	425.48
462.27	421.60
462.64	418.22
463.01	414.39
463.38	410.95
463.74	407.33
464.11	404.28
464.48	401.52
464.85	398.45
465.21	396.16
465.58	393.62
465.95	390.63
466.32	388.02
466.68	385.41
467.05	383.06
467.42	380.62
467.78	378.10
468.15	375.60
468.52	373.83
468.88	371.43
469.25	369.17
469.62	367.62
469.98	365.78
470.35	364.06
470.72	362.50
471.08	360.54
471.45	359.02
471.82	357.40
472.18	355.73
472.55	354.60
472.92	353.05
473.28	351.69
473.65	350.45
474.02	349.19
474.38	348.19
474.75	347.01
475.11	345.99
475.48	345.10
475.85	344.34
476.21	343.44
476.58	342.83
476.94	342.34
477.31	341.73
477.67	341.07
478.04	340.47
478.41	340.04
478.77	339.86
479.14	339.33
479.50	339.05
479.87	338.62
480.23	338.29
480.60	337.96
480.96	337.73
481.33	337.69
481.69	337.57
482.06	337.45
482.42	337.47
482.79	337.50
483.15	337.67
483.52	337.99
483.88	338.24
484.25	338.34
484.61	338.53
484.98	338.61
485.34	339.21
485.71	339.74
486.07	340.21
486.44	340.59
486.80	341.30
487.17	341.82
487.53	342.77
487.90	343.52
488.26	344.58
488.62	345.42
488.99	346.30
489.35	347.44
489.72	348.47
490.08	349.65
490.44	350.79
490.81	352.01
491.17	353.02
491.54	354.15
491.90	355.59
492.26	356.95
492.63	358.37
492.99	359.72
493.36	361.10
493.72	362.70
494.08	364.18
494.45	365.63
494.81	367.40
495.17	368.98
495.54	370.79
495.90	372.39
496.26	374.20
496.63	375.93
496.99	377.75
497.35	379.55
497.72	381.53
498.08	383.35
498.44	385.00
498.80	387.10
499.17	389.22
499.53	390.98
499.89	393.01
500.26	394.82
500.62	396.53
500.98	398.57
501.34	400.39
501.71	402.40
502.07	404.23
502.43	405.96
502.79	407.80
503.16	409.41
503.52	411.20
503.88	412.86
504.24	414.68
504.60	416.33
504.97	418.11
505.33	419.57
505.69	421.35
506.05	423.10
506.41	424.44
506.78	425.76
507.14	427.16
507.50	428.42
507.86	430.06
508.22	431.48
508.59	432.71
508.95	433.96
509.31	435.20
509.67	436.59
510.03	437.61
510.39	438.79
510.75	439.91
511.12	440.89
511.48	441.84
511.84	442.64
512.20	443.37
512.56	444.27
512.92	445.10
513.28	445.53
513.64	446.04
514.00	446.74
514.37	447.30
514.73	448.00
515.09	448.69
515.45	449.15
515.81	449.49
516.17	449.91
516.53	450.42
516.89	450.60
517.25	451.08
517.61	451.62
517.97	451.85
518.33	452.12
518.69	452.41
519.05	452.91
519.41	453.34
519.77	453.97
520.13	454.22
520.49	454.71
520.85	455.26
521.21	455.80
521.57	456.23
521.93	456.63
522.29	457.19
522.65	457.56
523.01	457.86
523.37	458.32
523.73	458.84
524.09	459.20
524.45	460.08
524.81	460.51
525.17	461.27
525.53	462.05
525.89	462.89
526.25	463.76
526.61	464.40
526.97	465.25
527.33	466.04
527.68	467.22
528.04	468.07
528.40	469.02
528.76	470.19
529.12	471.33
529.48	472.72
529.84	473.85
530.20	475.30
530.56	476.83
530.91	478.73
531.27	480.24
531.63	482.12
531.99	483.81
532.35	485.69
532.71	487.40
533.07	489.45
533.42	491.55
533.78	493.34
534.14	495.53
534.50	497.59
534.86	499.80
535.21	501.81
535.57	504.22
535.93	506.76
536.29	509.13
536.65	511.70
537.00	514.45
537.36	517.08
537.72	519.46
538.08	522.25
538.44	524.78
538.79	527.75
539.15	530.17
539.51	532.96
539.87	535.80
540.22	538.80
540.58	541.94
540.94	544.97
541.29	548.17
541.65	551.46
542.01	554.90
542.37	558.05
542.72	561.40
543.08	564.55
543.44	567.97
543.79	571.08
544.15	574.53
544.51	578.04
544.87	581.64
545.22	585.39
545.58	588.83
545.94	592.41
546.29	596.02
546.65	599.84
547.01	603.47
547.36	607.10
547.72	610.81
548.07	614.38
548.43	617.84
548.79	621.56
549.14	625.19
549.50	629.04
549.86	632.75
550.21	636.31
550.57	640.19
550.92	643.92
551.28	647.98
551.64	651.70
551.99	655.42
552.35	659.25
552.70	663.01
553.06	667.07
553.41	671.04
553.77	674.71
554.13	678.70
554.48	682.60
554.84	686.59
555.19	690.50
555.55	694.25
555.90	698.29
556.26	702.13
556.61	705.84
556.97	709.33
557.32	713.31
557.68	717.54
558.03	721.36
558.39	725.03
558.74	728.99
559.10	732.73
559.45	736.39
559.81	740.34
560.16	744.08
560.52	747.70
560.87	751.38
561.23	755.20
561.58	759.06
561.94	762.69
562.29	766.16
562.64	769.52
563.00	773.03
563.35	776.59
563.71	780.46
564.06	783.86
564.42	787.47
564.77	790.90
565.12	794.11
565.48	797.62
565.83	800.92
566.19	804.19
566.54	807.61
566.89	810.70
567.25	813.76
567.60	816.99
567.96	820.16
568.31	823.13
568.66	826.07
569.02	828.55
569.37	831.04
569.72	833.90
570.08	836.65
570.43	839.43
570.78	841.79
571.14	844.06
571.49	846.81
571.84	849.36
572.20	851.48
572.55	853.70
572.90	855.44
573.26	857.96
573.61	859.80
573.96	861.55
574.31	863.18
574.67	864.67
575.02	866.19
575.37	867.70
575.72	869.00
576.08	870.50
576.43	871.92
576.78	873.74
577.13	875.18
577.49	876.52
577.84	877.66
578.19	878.98
578.54	880.20
578.90	881.00
579.25	881.73
579.60	882.67
579.95	883.28
580.30	884.17
580.66	884.50
581.01	884.81
581.36	885.57
581.71	886.36
582.06	886.82
582.42	886.93
582.77	887.25
583.12	887.86
583.47	888.30
583.82	888.60
584.17	888.63
584.53	888.80
584.88	888.91
585.23	888.86
585.58	888.95
585.93	888.68
586.28	888.84
586.63	888.78
586.98	889.00
587.34	889.34
587.69	889.52
588.04	889.34
588.39	889.65
588.74	888.96
589.09	888.43
589.44	887.93
589.79	887.66
590.14	887.51
590.49	887.02
590.84	886.13
591.19	885.60
591.54	884.58
591.89	883.29
592.25	882.43
592.60	881.35
592.95	880.17
593.30	879.05
593.65	877.76
594.00	876.57
594.35	875.76
594.70	873.79
595.05	872.26
595.40	870.81
595.75	869.35
596.10	868.28
596.45	867.29
596.80	866.27
597.15	865.32
597.50	863.57
597.85	862.13
598.19	861.19
598.54	860.10
598.89	858.98
599.24	858.22
599.59	856.56
599.94	855.46
600.29	854.20
600.64	852.60
600.99	850.83
601.34	849.28
601.69	847.00
602.04	845.68
602.39	844.14
602.74	842.82
603.08	841.36
603.43	840.05
603.78	838.30
604.13	836.44
604.48	834.36
604.83	832.93
605.18	831.45
605.53	829.24
605.87	827.11
606.22	825.05
606.57	822.89
606.92	821.09
607.27	819.26
607.62	817.55
607.96	816.04
608.31	814.59
608.66	812.39
609.01	810.17
609.36	807.93
609.70	805.48
610.05	802.88
610.40	800.58
610.75	797.89
611.10	795.36
611.44	792.74
611.79	790.61
612.14	787.75
612.49	784.61
612.83	782.01
613.18	779.42
613.53	777.07
613.88	774.20
614.22	771.63
614.57	768.68
614.92	765.68
615.27	763.05
615.61	760.08
615.96	757.69
616.31	755.24
616.65	753.20
617.00	750.71
617.35	748.26
617.70	745.38
618.04	742.86
618.39	740.20
618.74	737.79
619.08	734.94
619.43	732.61
619.78	730.28
620.12	727.71
620.47	725.07
620.82	722.17
621.16	719.76
621.51	717.55
621.85	715.12
622.20	712.41
622.55	709.65
622.89	707.41
623.24	704.87
623.59	702.58
623.93	699.79
624.28	697.48
624.62	695.19
624.97	692.87
625.32	690.32
625.66	687.92
626.01	685.46
626.35	683.04
626.70	680.40
627.04	677.89
627.39	675.32
627.73	672.58
628.08	670.24
628.43	667.70
628.77	664.78
629.12	661.95
629.46	659.64
629.81	656.97
630.15	654.04
630.50	651.31
630.84	648.29
631.19	645.40
631.53	642.46
631.88	639.30
632.22	636.32
632.57	633.71
632.91	631.05
633.26	628.28
633.60	625.39
633.95	622.76
634.29	620.17
634.64	617.64
634.98	615.26
635.32	612.83
635.67	610.42
636.01	608.09
636.36	605.65
636.70	603.18
637.05	600.83
637.39	598.51
637.73	596.10
638.08	594.06
638.42	592.02
638.77	589.97
639.11	587.59
639.45	585.34
639.80	582.94
640.14	580.56
640.49	578.37
640.83	576.25
641.17	573.86
641.52	571.54
641.86	569.14
642.20	566.73
642.55	564.22
642.89	561.76
643.23	559.19
643.58	557.13
643.92	554.59
644.26	552.24
644.61	550.12
644.95	547.70
645.29	545.01
645.64	542.51
645.98	539.88
646.32	537.86
646.66	535.40
647.01	533.02
647.35	530.79
647.69	528.56
648.04	526.40
648.38	524.02
648.72	521.53
649.06	519.14
649.41	516.86
649.75	514.52
650.09	512.02
650.43	509.82
650.78	507.24
651.12	504.93
651.46	502.68
651.80	500.35
652.14	498.16
652.49	496.13
652.83	493.90
653.17	491.77
653.51	489.47
653.85	487.35
654.20	485.05
654.54	482.66
654.88	480.20
655.22	477.59
655.56	475.34
655.90	473.24
656.25	471.13
656.59	468.98
656.93	467.00
657.27	465.18
657.61	462.97
657.95	460.98
658.29	458.95
658.64	456.78
658.98	454.46
659.32	452.31
659.66	450.11
660.00	448.00
660.34	445.93
660.68	443.91
661.02	441.88
661.36	440.19
661.70	438.37
662.05	436.53
662.39	434.98
662.73	433.22
663.07	431.54
663.41	429.83
663.75	428.06
664.09	426.18
664.43	424.24
664.77	422.60
665.11	420.88
665.45	419.13
665.79	417.42
666.13	415.78
666.47	414.03
666.81	412.39
667.15	410.57
667.49	408.98
667.83	407.45
668.17	405.82
668.51	404.00
668.85	402.33
669.19	400.80
669.53	398.90
669.87	397.26
670.21	395.61
670.55	393.99
670.89	392.59
671.23	391.07
671.57	389.57
671.91	387.96
672.25	386.53
672.58	385.06
672.92	383.70
673.26	382.25
673.60	380.98
673.94	379.54
674.28	378.28
674.62	376.97
674.96	375.62
675.30	374.36
675.64	373.08
675.97	371.84
676.31	370.52
676.65	369.42
676.99	368.22
677.33	366.84
677.67	365.68
678.01	364.33
678.34	363.17
678.68	361.96
679.02	360.79
679.36	359.57
679.70	358.45
680.04	357.15
680.37	355.89
680.71	354.79
681.05	353.69
681.39	352.61
681.73	351.39
682.06	350.22
682.40	349.06
682.74	347.78
683.08	346.70
683.42	345.55
683.75	344.43
684.09	343.32
684.43	342.28
684.77	341.13
685.10	340.18
685.44	339.12
685.78	338.03
686.12	337.01
686.45	335.79
686.79	334.75
687.13	333.76
687.46	332.77
687.80	331.65
688.14	330.56
688.48	329.47
688.81	328.47
689.15	327.46
689.49	326.42
689.82	325.37
690.16	324.26
690.50	323.29
690.83	322.32
691.17	321.30
691.51	320.33
691.84	319.35
692.18	318.34
692.52	317.20
692.85	316.27
693.19	315.36
693.52	314.49
693.86	313.55
694.20	312.73
694.53	311.88
694.87	310.94
695.21	310.10
695.54	309.18
695.88	308.18
696.21	307.31
696.55	306.41
696.88	305.67
697.22	304.87
697.56	304.06
697.89	303.10
698.23	302.26
698.56	301.36
698.90	300.57
699.23	299.48
699.57	298.66
699.90	297.82
700.24	296.89
700.58	296.07
700.91	295.24
701.25	294.53
701.58	293.97
701.92	293.30
702.25	292.58
702.59	291.99
702.92	291.32
703.26	290.57
703.59	290.00
703.93	289.34
704.26	288.69
704.60	288.00
704.93	287.57
705.26	287.00
705.60	286.44
705.93	285.79
706.27	285.39
706.60	284.89
706.94	284.45
707.27	283.86
707.61	283.36
707.94	282.73
708.27	281.99
708.61	281.26
708.94	280.74
709.28	280.20
709.61	279.59
709.94	279.13
710.28	278.72
710.61	278.11
710.95	277.58
711.28	277.25
711.61	276.73
711.95	276.11
712.28	275.57
712.61	275.04
712.95	274.71
713.28	274.35
713.61	273.75
713.95	273.13
714.28	272.69
714.61	272.28
714.95	271.93
715.28	271.40
715.61	270.81
715.95	270.38
716.28	269.92
716.61	269.50
716.95	268.99
717.28	268.44
717.61	268.15
717.94	267.70
718.28	267.12
718.61	266.76
718.94	266.35
719.27	265.94
719.61	265.65
719.94	265.24
720.27	264.83
720.60	264.59
720.94	264.30
721.27	264.02
721.60	263.69
721.93	263.28
722.27	263.10
722.60	262.92
722.93	262.51
723.26	262.16
723.59	261.85
723.93	261.67
724.26	261.48
724.59	261.10
724.92	260.85
725.25	260.61
725.59	260.28
725.92	260.00
726.25	259.69
726.58	259.37
726.91	259.02
727.24	258.71
727.57	258.47
727.91	258.05
728.24	257.82
728.57	257.47
728.90	257.22
729.23	256.83
729.56	256.70
729.89	256.39
730.22	256.10
730.55	255.80
730.89	255.50
731.22	255.23
731.55	254.98
731.88	254.70
732.21	254.34
732.54	254.06
732.87	253.83
733.20	253.48
733.53	253.27
733.86	252.99
734.19	252.65
734.52	252.39
734.85	252.44
735.18	252.13
735.51	252.00
735.84	251.80
736.17	251.67
736.50	251.14
736.83	251.18
737.16	250.93
737.49	250.59
737.82	250.33
738.15	249.99
738.48	249.71
738.81	249.43
739.14	249.23
739.47	248.98
739.80	248.73
740.13	248.58
740.46	248.30
740.79	248.11
741.12	247.85
741.45	247.68
741.78	247.24
742.11	247.09
742.44	246.80
742.77	246.59
743.10	246.39
743.43	246.30
743.75	245.88
744.08	246.05
744.41	245.90
744.74	245.79
745.07	245.59
745.40	245.43
745.73	245.34
746.06	245.13
746.39	245.00
746.71	244.72
747.04	244.46
747.37	244.28
747.70	244.09
748.03	243.96
748.36	243.80
748.68	243.61
749.01	243.35
749.34	243.19
749.67	243.03
750.00	242.83
750.33	242.73
750.65	242.58
750.98	242.04
751.31	242.01
751.64	241.80
751.97	241.76
752.29	241.64
752.62	241.38
752.95	241.27
753.28	241.06
753.60	241.05
753.93	241.07
754.26	241.01
754.59	240.90
754.91	240.80
755.24	240.56
755.57	240.49
755.90	240.34
756.22	240.14
756.55	240.05
756.88	239.90
757.20	239.80
757.53	239.77
757.86	239.68
758.19	239.51
758.51	239.50
758.84	239.26
759.17	239.05
759.49	238.96
759.82	238.88
760.15	238.86
760.47	238.72
760.80	238.47
761.13	238.25
761.45	238.03
761.78	237.82
762.11	237.80
762.43	237.69
762.76	237.62
763.08	237.66
763.41	237.52
763.74	237.49
764.06	237.20
764.39	236.92
764.71	236.81
765.04	236.77
765.37	236.65
765.69	236.65
766.02	236.69
766.34	236.63
766.67	236.53
767.00	236.50
767.32	236.46
767.65	236.61
767.97	236.57
768.30	236.65
768.62	236.61
768.95	236.51
769.27	236.36
769.60	236.32
769.92	236.13
770.25	235.95
770.57	235.72
770.90	235.80
771.22	235.75
771.55	235.69
771.87	235.56
772.20	235.45
772.52	235.42
772.85	235.51
773.17	235.37
773.50	235.23
773.82	235.12
774.15	234.94
774.47	234.62
774.80	234.49
775.12	234.24
775.45	234.17
775.77	234.12
776.09	234.06
776.42	233.91
776.74	233.87
777.07	233.77
777.39	233.78
777.72	233.68
778.04	233.62
778.36	233.61
778.69	233.55
779.01	233.46
779.33	233.35
779.66	233.00
779.98	232.93
780.31	232.95
780.63	232.88
780.95	232.96
781.28	233.03
781.60	232.99
781.92	232.99
782.25	232.90
782.57	232.80
782.89	232.74
783.22	232.78
783.54	232.61
783.86	232.65
784.19	232.60
784.51	232.65
784.83	232.62
785.16	232.47
785.48	232.29
785.80	232.18
786.12	232.03
786.45	232.10
786.77	232.14
787.09	232.06
787.42	232.04
787.74	231.87
788.06	231.85
788.38	231.87
788.71	231.91
789.03	231.94
789.35	231.93
789.67	231.90
789.99	231.91
790.32	232.05
790.64	232.18
790.96	232.33
791.28	232.16
791.61	232.09
791.93	232.18
792.25	232.30
792.57	232.45
792.89	232.50
793.21	232.40
793.54	232.35
793.86	232.30
794.18	232.30
