SpectraSuite Data File
++++++++++++++++++++++++++++++++++++
Date: Fri Feb 01 14:38:00 EST 2013
User: group
Dark Spectrum Present: No
Reference Spectrum Present: No
Number of Sampled Component Spectra: 1
Spectrometers: USB2E7196
Integration Time (usec): 70000 (USB2E7196)
Spectra Averaged: 10 (USB2E7196)
Boxcar Smoothing: 10 (USB2E7196)
Correct for Electrical Dark: No (USB2E7196)
Strobe/Lamp Enabled: No (USB2E7196)
Correct for Detector Non-linearity: No (USB2E7196)
Correct for Stray Light: No (USB2E7196)
Number of Pixels in Processed Spectrum: 2048
>>>>>Begin Processed Spectral Data<<<<<
339.09	0.00
339.48	215.80
339.86	217.30
340.24	219.80
340.63	220.50
341.01	225.40
341.39	223.60
341.78	225.70
342.16	225.10
342.54	225.70
342.93	214.92
343.31	225.73
343.69	226.30
344.07	226.79
344.46	227.17
344.84	227.49
345.22	227.55
345.60	227.71
345.99	227.83
346.37	228.01
346.75	228.07
347.13	228.14
347.52	228.14
347.90	228.23
348.28	228.32
348.66	228.40
349.05	228.34
349.43	228.38
349.81	228.41
350.19	228.39
350.57	228.33
350.96	228.40
351.34	228.54
351.72	228.64
352.10	228.79
352.48	228.89
352.87	228.95
353.25	229.05
353.63	229.10
354.01	229.13
354.39	229.10
354.77	229.19
355.15	229.30
355.54	229.34
355.92	229.31
356.30	229.39
356.68	229.50
357.06	229.56
357.44	229.43
357.82	229.50
358.20	229.49
358.58	229.57
358.97	229.54
359.35	229.52
359.73	229.50
360.11	229.49
360.49	229.62
360.87	229.67
361.25	229.69
361.63	229.70
362.01	229.68
362.39	229.75
362.77	229.88
363.15	229.78
363.53	229.81
363.91	229.73
364.29	229.63
364.67	229.50
365.05	229.49
365.43	229.62
365.81	229.68
366.19	229.80
366.57	229.85
366.95	229.75
367.33	229.71
367.71	229.75
368.09	229.83
368.47	229.69
368.85	229.78
369.23	229.81
369.61	229.88
369.99	229.98
370.37	230.05
370.75	229.95
371.13	229.88
371.51	229.76
371.89	229.87
372.27	229.83
372.65	229.76
373.03	229.72
373.41	229.63
373.78	229.37
374.16	229.17
374.54	229.03
374.92	229.08
375.30	229.03
375.68	228.89
376.06	228.68
376.44	228.62
376.82	228.44
377.19	228.31
377.57	228.25
377.95	228.12
378.33	227.94
378.71	227.74
379.09	227.68
379.47	227.72
379.84	227.67
380.22	227.60
380.60	227.53
380.98	227.42
381.36	227.37
381.73	227.38
382.11	227.35
382.49	227.31
382.87	227.19
383.25	227.15
383.62	227.25
384.00	227.15
384.38	227.12
384.76	227.11
385.13	227.20
385.51	227.10
385.89	226.89
386.27	226.86
386.64	226.90
387.02	226.90
387.40	226.76
387.78	226.65
388.15	226.60
388.53	226.53
388.91	226.46
389.29	226.38
389.66	226.35
390.04	226.40
390.42	226.40
390.79	226.35
391.17	226.30
391.55	226.17
391.92	226.12
392.30	226.03
392.68	225.97
393.05	225.97
393.43	226.00
393.81	226.19
394.18	226.10
394.56	226.14
394.94	226.15
395.31	226.20
395.69	226.18
396.06	226.25
396.44	226.38
396.82	226.49
397.19	226.65
397.57	226.72
397.95	226.82
398.32	226.86
398.70	226.94
399.07	227.04
399.45	226.98
399.82	227.12
400.20	227.22
400.58	227.40
400.95	227.41
401.33	227.52
401.70	227.68
402.08	227.86
402.45	227.99
402.83	228.18
403.20	228.39
403.58	228.59
403.95	228.86
404.33	229.02
404.71	229.15
405.08	229.53
405.46	229.81
405.83	229.99
406.21	230.17
406.58	230.44
406.96	230.70
407.33	231.09
407.70	231.36
408.08	231.74
408.45	232.04
408.83	232.37
409.20	232.63
409.58	232.89
409.95	233.30
410.33	233.64
410.70	233.97
411.08	234.28
411.45	234.76
411.82	235.04
412.20	235.48
412.57	236.16
412.95	236.44
413.32	236.94
413.69	237.43
414.07	238.07
414.44	238.69
414.82	239.33
415.19	240.12
415.56	240.87
415.94	241.55
416.31	242.37
416.68	243.19
417.06	244.23
417.43	245.11
417.81	246.15
418.18	247.17
418.55	248.25
418.93	249.49
419.30	250.67
419.67	252.08
420.04	253.50
420.42	254.81
420.79	256.50
421.16	258.11
421.54	259.84
421.91	261.46
422.28	263.37
422.66	265.26
423.03	267.22
423.40	269.13
423.77	271.27
424.15	273.48
424.52	275.71
424.89	278.02
425.26	280.50
425.64	282.78
426.01	285.30
426.38	287.89
426.75	290.49
427.13	293.16
427.50	295.82
427.87	298.73
428.24	301.54
428.61	304.22
428.99	307.18
429.36	310.43
429.73	313.75
430.10	316.83
430.47	320.09
430.85	323.47
431.22	327.00
431.59	330.86
431.96	334.33
432.33	338.29
432.70	342.16
433.08	346.61
433.45	350.69
433.82	354.80
434.19	359.44
434.56	364.01
434.93	368.33
435.30	372.79
435.68	377.61
436.05	382.42
436.42	387.02
436.79	391.40
437.16	395.87
437.53	400.75
437.90	405.52
438.27	410.27
438.64	415.11
439.01	419.70
439.38	423.50
439.75	427.28
440.13	431.77
440.50	436.10
440.87	439.73
441.24	443.43
441.61	447.52
441.98	450.42
442.35	453.81
442.72	457.36
443.09	460.67
443.46	462.67
443.83	464.10
444.20	465.41
444.57	467.36
444.94	468.41
445.31	469.54
445.68	470.90
446.05	471.60
446.42	471.30
446.79	471.12
447.16	470.99
447.53	471.18
447.90	469.77
448.27	468.35
448.64	466.05
449.01	464.64
449.37	461.80
449.74	459.17
450.11	456.03
450.48	452.36
450.85	448.69
451.22	445.68
451.59	442.69
451.96	439.88
452.33	435.78
452.70	432.14
453.07	427.74
453.43	423.10
453.80	418.83
454.17	414.86
454.54	411.03
454.91	406.80
455.28	402.51
455.65	398.44
456.02	394.44
456.38	391.01
456.75	386.79
457.12	383.19
457.49	379.70
457.86	376.07
458.23	373.07
458.59	369.80
458.96	366.38
459.33	363.40
459.70	360.53
460.07	358.14
460.43	355.55
460.80	352.82
461.17	350.41
461.54	347.90
461.91	345.41
462.27	342.91
462.64	340.70
463.01	338.32
463.38	336.20
463.74	333.85
464.11	331.99
464.48	330.30
464.85	328.38
465.21	326.88
465.58	325.46
465.95	323.68
466.32	322.17
466.68	320.54
467.05	319.00
467.42	317.31
467.78	315.60
468.15	314.05
468.52	312.89
468.88	311.49
469.25	310.13
469.62	309.02
469.98	307.77
470.35	306.77
470.72	305.76
471.08	304.62
471.45	303.70
471.82	302.66
472.18	301.50
472.55	300.72
472.92	299.70
473.28	298.64
473.65	297.67
474.02	296.60
474.38	295.86
474.75	295.19
475.11	294.50
475.48	294.08
475.85	293.52
476.21	292.99
476.58	292.47
476.94	291.96
477.31	291.42
477.67	290.98
478.04	290.48
478.41	290.12
478.77	289.96
479.14	289.48
479.50	289.00
479.87	288.70
480.23	288.50
480.60	288.17
480.96	287.93
481.33	287.86
481.69	287.83
482.06	287.60
482.42	287.36
482.79	287.20
483.15	287.06
483.52	286.92
483.88	286.70
484.25	286.55
484.61	286.63
484.98	286.65
485.34	286.85
485.71	286.94
486.07	287.08
486.44	287.05
486.80	287.29
487.17	287.48
487.53	287.80
487.90	287.89
488.26	288.26
488.62	288.55
488.99	288.70
489.35	288.90
489.72	289.10
490.08	289.31
490.44	289.57
490.81	289.87
491.17	290.21
491.54	290.65
491.90	291.10
492.26	291.42
492.63	291.81
492.99	292.07
493.36	292.55
493.72	292.86
494.08	293.34
494.45	293.64
494.81	294.17
495.17	294.49
495.54	295.00
495.90	295.43
496.26	295.98
496.63	296.52
496.99	297.10
497.35	297.76
497.72	298.42
498.08	299.00
498.44	299.45
498.80	300.07
499.17	300.56
499.53	300.89
499.89	301.30
500.26	301.77
500.62	302.25
500.98	302.68
501.34	303.13
501.71	303.49
502.07	303.95
502.43	304.45
502.79	304.85
503.16	305.20
503.52	305.47
503.88	305.71
504.24	306.10
504.60	306.35
504.97	306.61
505.33	306.88
505.69	307.16
506.05	307.52
506.41	307.56
506.78	307.83
507.14	308.01
507.50	308.10
507.86	308.23
508.22	308.30
508.59	308.47
508.95	308.68
509.31	308.93
509.67	309.15
510.03	309.13
510.39	309.39
510.75	309.59
511.12	309.71
511.48	309.92
511.84	309.92
512.20	310.13
512.56	310.31
512.92	310.45
513.28	310.59
513.64	310.74
514.00	311.04
514.37	311.33
514.73	311.77
515.09	312.35
515.45	312.74
515.81	313.16
516.17	313.52
516.53	313.96
516.89	314.34
517.25	314.81
517.61	315.50
517.97	316.01
518.33	316.66
518.69	317.39
519.05	318.17
519.41	319.11
519.77	320.17
520.13	321.10
520.49	322.13
520.85	323.33
521.21	324.52
521.57	325.74
521.93	326.87
522.29	328.18
522.65	329.43
523.01	330.80
523.37	332.15
523.73	333.74
524.09	335.43
524.45	337.15
524.81	339.05
525.17	340.91
525.53	342.93
525.89	345.02
526.25	347.12
526.61	349.22
526.97	351.51
527.33	353.79
527.68	356.33
528.04	358.83
528.40	361.41
528.76	364.17
529.12	366.78
529.48	369.71
529.84	372.65
530.20	375.74
530.56	378.86
530.91	382.32
531.27	385.55
531.63	388.86
531.99	392.18
532.35	395.51
532.71	399.06
533.07	402.54
533.42	406.34
533.78	410.31
534.14	414.19
534.50	417.99
534.86	421.85
535.21	425.70
535.57	429.78
535.93	433.95
536.29	438.24
536.65	442.73
537.00	446.96
537.36	451.38
537.72	455.75
538.08	460.47
538.44	465.00
538.79	469.73
539.15	474.34
539.51	479.24
539.87	484.23
540.22	489.00
540.58	494.08
540.94	498.76
541.29	503.47
541.65	508.33
542.01	513.71
542.37	519.00
542.72	524.21
543.08	529.42
543.44	534.49
543.79	539.31
544.15	544.45
544.51	549.72
544.87	555.22
545.22	560.51
545.58	565.43
545.94	570.56
546.29	575.91
546.65	581.29
547.01	586.62
547.36	591.67
547.72	596.86
548.07	602.10
548.43	607.42
548.79	612.73
549.14	617.96
549.50	622.78
549.86	627.85
550.21	633.10
550.57	638.42
550.92	643.54
551.28	648.87
551.64	653.85
551.99	659.20
552.35	664.23
552.70	669.44
553.06	674.92
553.41	680.11
553.77	684.98
554.13	690.26
554.48	695.45
554.84	700.71
555.19	705.95
555.55	711.10
555.90	715.90
556.26	721.01
556.61	726.26
556.97	731.33
557.32	736.21
557.68	740.96
558.03	745.65
558.39	750.74
558.74	755.69
559.10	760.77
559.45	765.57
559.81	770.52
560.16	775.05
560.52	779.68
560.87	784.69
561.23	789.46
561.58	793.98
561.94	798.56
562.29	802.87
562.64	807.23
563.00	811.40
563.35	816.22
563.71	820.77
564.06	825.06
564.42	829.39
564.77	833.76
565.12	838.20
565.48	842.74
565.83	846.72
566.19	850.94
566.54	855.02
566.89	858.88
567.25	862.56
567.60	866.66
567.96	870.51
568.31	873.82
568.66	877.28
569.02	880.80
569.37	884.07
569.72	887.59
570.08	890.89
570.43	894.17
570.78	897.41
571.14	900.13
571.49	902.96
571.84	906.03
572.20	908.93
572.55	911.65
572.90	913.97
573.26	916.67
573.61	918.80
573.96	920.84
574.31	922.84
574.67	924.63
575.02	926.41
575.37	928.40
575.72	930.39
576.08	932.27
576.43	934.00
576.78	935.59
577.13	937.58
577.49	938.88
577.84	940.81
578.19	942.10
578.54	943.64
578.90	945.01
579.25	945.79
579.60	946.89
579.95	947.79
580.30	948.95
580.66	949.68
581.01	950.36
581.36	951.58
581.71	952.65
582.06	953.62
582.42	954.16
582.77	954.60
583.12	954.90
583.47	955.42
583.82	956.12
584.17	956.63
584.53	956.79
584.88	957.34
585.23	957.19
585.58	957.20
585.93	957.39
586.28	957.54
586.63	958.26
586.98	958.20
587.34	958.52
587.69	958.61
588.04	958.87
588.39	959.06
588.74	958.42
589.09	958.23
589.44	957.52
589.79	957.28
590.14	957.21
590.49	956.76
590.84	956.25
591.19	955.61
591.54	954.59
591.89	953.41
592.25	953.06
592.60	952.12
592.95	951.13
593.30	950.01
593.65	948.76
594.00	947.13
594.35	946.49
594.70	944.90
595.05	943.57
595.40	941.90
595.75	940.28
596.10	939.12
596.45	937.91
596.80	937.29
597.15	936.27
597.50	934.76
597.85	933.68
598.19	932.47
598.54	931.13
598.89	930.07
599.24	929.42
599.59	927.75
599.94	926.50
600.29	925.22
600.64	923.96
600.99	922.51
601.34	921.20
601.69	918.82
602.04	917.35
602.39	915.85
602.74	914.75
603.08	913.72
603.43	912.42
603.78	910.68
604.13	908.90
604.48	907.02
604.83	905.32
605.18	903.60
605.53	901.61
605.87	899.41
606.22	897.50
606.57	894.88
606.92	892.90
607.27	891.10
607.62	889.38
607.96	887.23
608.31	885.55
608.66	883.26
609.01	881.36
609.36	878.80
609.70	875.86
610.05	873.08
610.40	870.68
610.75	868.06
611.10	865.33
611.44	862.21
611.79	860.04
612.14	857.42
612.49	854.42
612.83	851.78
613.18	848.99
613.53	846.27
613.88	843.70
614.22	840.79
614.57	837.58
614.92	834.50
615.27	831.72
615.61	828.61
615.96	825.79
616.31	823.23
616.65	821.02
617.00	818.81
617.35	815.99
617.70	812.62
618.04	809.69
618.39	806.89
618.74	804.38
619.08	801.09
619.43	798.11
619.78	795.65
620.12	792.93
620.47	790.21
620.82	787.38
621.16	784.53
621.51	781.81
621.85	779.01
622.20	776.02
622.55	773.21
622.89	770.49
623.24	768.14
623.59	765.17
623.93	762.43
624.28	759.43
624.62	756.74
624.97	754.39
625.32	751.50
625.66	748.96
626.01	746.29
626.35	743.72
626.70	740.96
627.04	738.12
627.39	735.16
627.73	732.37
628.08	729.52
628.43	726.69
628.77	724.09
629.12	721.23
629.46	718.49
629.81	715.37
630.15	712.21
630.50	708.98
630.84	706.07
631.19	702.75
631.53	699.83
631.88	696.60
632.22	693.24
632.57	690.66
632.91	687.42
633.26	684.28
633.60	681.12
633.95	678.20
634.29	675.24
634.64	672.51
634.98	669.50
635.32	666.70
635.67	664.03
636.01	661.07
636.36	658.35
636.70	655.44
637.05	652.97
637.39	650.49
637.73	647.85
638.08	645.28
638.42	642.80
638.77	640.13
639.11	637.47
639.45	634.96
639.80	632.11
640.14	629.51
640.49	627.13
640.83	624.58
641.17	622.01
641.52	619.21
641.86	616.43
642.20	613.93
642.55	611.41
642.89	608.60
643.23	605.79
643.58	603.42
643.92	600.87
644.26	598.21
644.61	595.78
644.95	593.05
645.29	589.96
645.64	587.23
645.98	584.42
646.32	582.19
646.66	579.66
647.01	576.85
647.35	574.37
647.69	571.53
648.04	568.90
648.38	566.22
648.72	563.57
649.06	560.75
649.41	558.05
649.75	555.20
650.09	552.52
650.43	549.89
650.78	546.74
651.12	543.97
651.46	541.11
651.80	538.32
652.14	535.85
652.49	533.55
652.83	530.90
653.17	528.30
653.51	525.44
653.85	522.66
654.20	520.16
654.54	517.40
654.88	514.80
655.22	512.11
655.56	509.45
655.90	506.94
656.25	504.54
656.59	502.00
656.93	499.53
657.27	497.26
657.61	494.61
657.95	492.38
658.29	490.17
658.64	487.69
658.98	485.13
659.32	482.51
659.66	480.01
660.00	477.54
660.34	475.18
660.68	472.92
661.02	470.55
661.36	468.28
661.70	466.11
662.05	464.00
662.39	462.05
662.73	459.90
663.07	457.78
663.41	455.70
663.75	453.54
664.09	451.59
664.43	449.50
664.77	447.61
665.11	445.71
665.45	443.53
665.79	441.76
666.13	439.84
666.47	437.87
666.81	435.98
667.15	434.02
667.49	432.20
667.83	430.30
668.17	428.44
668.51	426.58
668.85	424.72
669.19	422.82
669.53	420.77
669.87	418.84
670.21	417.13
670.55	415.53
670.89	414.02
671.23	412.22
671.57	410.52
671.91	408.79
672.25	407.01
672.58	405.48
672.92	403.63
673.26	402.05
673.60	400.60
673.94	399.04
674.28	397.70
674.62	396.22
674.96	394.75
675.30	393.43
675.64	392.03
675.97	390.52
676.31	389.03
676.65	387.57
676.99	386.22
677.33	384.73
677.67	383.08
678.01	381.55
678.34	380.15
678.68	378.69
679.02	377.29
679.36	375.87
679.70	374.58
680.04	373.40
680.37	371.88
680.71	370.43
681.05	369.12
681.39	367.84
681.73	366.54
682.06	365.30
682.40	364.08
682.74	362.70
683.08	361.46
683.42	360.16
683.75	358.91
684.09	357.65
684.43	356.46
684.77	355.21
685.10	353.89
685.44	352.49
685.78	351.27
686.12	350.06
686.45	348.92
686.79	347.52
687.13	346.38
687.46	345.36
687.80	344.25
688.14	342.97
688.48	341.62
688.81	340.41
689.15	339.30
689.49	338.04
689.82	336.97
690.16	335.70
690.50	334.63
690.83	333.69
691.17	332.56
691.51	331.44
691.84	330.33
692.18	329.24
692.52	328.24
692.85	327.15
693.19	326.26
693.52	325.08
693.86	324.05
694.20	322.99
694.53	321.71
694.87	320.55
695.21	319.56
695.54	318.58
695.88	317.49
696.21	316.30
696.55	315.25
696.88	314.18
697.22	313.35
697.56	312.39
697.89	311.35
698.23	310.54
698.56	309.48
698.90	308.72
699.23	307.80
699.57	306.86
699.90	305.87
700.24	304.93
700.58	304.11
700.91	303.28
701.25	302.47
701.58	301.95
701.92	301.20
702.25	300.36
702.59	299.68
702.92	298.96
703.26	298.24
703.59	297.60
703.93	297.14
704.26	296.30
704.60	295.56
704.93	294.84
705.26	293.97
705.60	293.31
705.93	292.50
706.27	291.91
706.60	291.31
706.94	290.70
707.27	289.97
707.61	289.37
707.94	288.77
708.27	288.01
708.61	287.25
708.94	286.59
709.28	286.09
709.61	285.25
709.94	284.70
710.28	284.09
710.61	283.36
710.95	282.55
711.28	282.11
711.61	281.56
711.95	280.84
712.28	280.18
712.61	279.67
712.95	279.09
713.28	278.69
713.61	278.13
713.95	277.56
714.28	277.04
714.61	276.40
714.95	275.90
715.28	275.40
715.61	274.89
715.95	274.50
716.28	273.76
716.61	273.42
716.95	272.85
717.28	272.43
717.61	272.06
717.94	271.47
718.28	270.95
718.61	270.47
718.94	270.05
719.27	269.89
719.61	269.44
719.94	269.03
720.27	268.43
720.60	268.02
720.94	267.66
721.27	267.26
721.60	266.98
721.93	266.60
722.27	266.26
722.60	265.84
722.93	265.35
723.26	265.07
723.59	264.75
723.93	264.47
724.26	264.03
724.59	263.69
724.92	263.48
725.25	263.03
725.59	262.67
725.92	262.37
726.25	261.89
726.58	261.59
726.91	261.26
727.24	260.94
727.57	260.65
727.91	260.27
728.24	259.89
728.57	259.48
728.90	259.26
729.23	258.86
729.56	258.62
729.89	258.35
730.22	257.90
730.55	257.56
730.89	257.19
731.22	256.79
731.55	256.41
731.88	256.11
732.21	255.91
732.54	255.52
732.87	255.23
733.20	254.79
733.53	254.45
733.86	254.10
734.19	253.88
734.52	253.54
734.85	253.39
735.18	253.11
735.51	253.02
735.84	252.60
736.17	252.40
736.50	252.07
736.83	252.01
737.16	251.88
737.49	251.60
737.82	251.33
738.15	251.21
738.48	251.00
738.81	250.75
739.14	250.44
739.47	250.25
739.80	250.01
740.13	249.90
740.46	249.64
740.79	249.46
741.12	249.22
741.45	249.00
741.78	248.69
742.11	248.59
742.44	248.18
742.77	248.05
743.10	247.83
743.43	247.66
743.75	247.23
744.08	247.31
744.41	247.16
744.74	247.00
745.07	246.75
745.40	246.50
745.73	246.29
746.06	246.17
746.39	246.08
746.71	245.91
747.04	245.70
747.37	245.59
747.70	245.43
748.03	245.12
748.36	244.97
748.68	244.78
749.01	244.51
749.34	244.39
749.67	244.20
750.00	243.98
750.33	243.82
750.65	243.65
750.98	243.15
751.31	242.93
751.64	242.65
751.97	242.59
752.29	242.44
752.62	242.25
752.95	241.91
753.28	241.69
753.60	241.48
753.93	241.40
754.26	241.22
754.59	241.10
754.91	240.94
755.24	240.80
755.57	240.61
755.90	240.50
756.22	240.34
756.55	240.11
756.88	239.92
757.20	239.71
757.53	239.68
757.86	239.65
758.19	239.54
758.51	239.47
758.84	239.29
759.17	239.10
759.49	239.06
759.82	239.20
760.15	239.13
760.47	239.08
760.80	238.89
761.13	238.73
761.45	238.64
761.78	238.56
762.11	238.40
762.43	238.34
762.76	238.22
763.08	238.12
763.41	237.94
763.74	237.94
764.06	237.81
764.39	237.56
764.71	237.38
765.04	237.33
765.37	237.18
765.69	237.06
766.02	237.03
766.34	236.83
766.67	236.52
767.00	236.40
767.32	236.37
767.65	236.40
767.97	236.38
768.30	236.30
768.62	236.30
768.95	236.20
769.27	236.05
769.60	236.05
769.92	235.79
770.25	235.70
770.57	235.50
770.90	235.47
771.22	235.45
771.55	235.37
771.87	235.13
772.20	235.20
772.52	235.27
772.85	235.49
773.17	235.46
773.50	235.34
773.82	235.19
774.15	235.01
774.47	234.84
774.80	234.71
775.12	234.56
775.45	234.43
775.77	234.42
776.09	234.33
776.42	234.23
776.74	234.43
777.07	234.40
777.39	234.39
777.72	234.27
778.04	234.20
778.36	234.03
778.69	234.06
779.01	233.93
779.33	233.65
779.66	233.25
779.98	233.17
780.31	233.20
780.63	233.20
780.95	233.24
781.28	233.08
781.60	233.00
781.92	232.94
782.25	232.86
782.57	232.68
782.89	232.57
783.22	232.45
783.54	232.28
783.86	232.26
784.19	232.20
784.51	232.21
784.83	232.17
785.16	232.20
785.48	232.07
785.80	232.05
786.12	232.05
786.45	232.01
786.77	231.90
787.09	231.75
787.42	231.67
787.74	231.68
788.06	231.67
788.38	231.63
788.71	231.56
789.03	231.53
789.35	231.60
789.67	231.52
789.99	231.42
790.32	231.44
790.64	231.39
790.96	231.52
791.28	231.36
791.61	231.27
791.93	231.27
792.25	231.27
792.57	231.36
792.89	231.30
793.21	231.31
793.54	231.29
793.86	231.29
794.18	231.33
