SpectraSuite Data File
++++++++++++++++++++++++++++++++++++
Date: Fri Feb 01 14:38:24 EST 2013
User: group
Dark Spectrum Present: No
Reference Spectrum Present: No
Number of Sampled Component Spectra: 1
Spectrometers: USB2E7196
Integration Time (usec): 70000 (USB2E7196)
Spectra Averaged: 10 (USB2E7196)
Boxcar Smoothing: 10 (USB2E7196)
Correct for Electrical Dark: No (USB2E7196)
Strobe/Lamp Enabled: No (USB2E7196)
Correct for Detector Non-linearity: No (USB2E7196)
Correct for Stray Light: No (USB2E7196)
Number of Pixels in Processed Spectrum: 2048
>>>>>Begin Processed Spectral Data<<<<<
339.09	0.00
339.48	215.80
339.86	216.50
340.24	221.00
340.63	219.40
341.01	221.50
341.39	222.50
341.78	223.90
342.16	227.10
342.54	225.80
342.93	214.18
343.31	225.02
343.69	225.61
344.07	226.19
344.46	226.50
344.84	227.02
345.22	227.29
345.60	227.55
345.99	227.72
346.37	227.82
346.75	227.90
347.13	227.91
347.52	227.97
347.90	228.21
348.28	228.28
348.66	228.31
349.05	228.26
349.43	228.25
349.81	228.34
350.19	228.36
350.57	228.44
350.96	228.58
351.34	228.73
351.72	228.77
352.10	228.77
352.48	228.84
352.87	228.82
353.25	228.95
353.63	229.05
354.01	229.18
354.39	229.27
354.77	229.37
355.15	229.58
355.54	229.62
355.92	229.49
356.30	229.54
356.68	229.77
357.06	229.82
357.44	229.91
357.82	229.98
358.20	230.09
358.58	230.03
358.97	230.04
359.35	230.05
359.73	230.10
360.11	230.16
360.49	230.20
360.87	230.20
361.25	230.25
361.63	230.30
362.01	230.28
362.39	230.22
362.77	230.29
363.15	230.24
363.53	230.15
363.91	230.19
364.29	230.14
364.67	229.97
365.05	229.93
365.43	229.84
365.81	229.78
366.19	229.72
366.57	229.75
366.95	229.68
367.33	229.59
367.71	229.55
368.09	229.51
368.47	229.41
368.85	229.30
369.23	229.30
369.61	229.21
369.99	229.26
370.37	229.22
370.75	229.16
371.13	229.06
371.51	229.10
371.89	229.11
372.27	229.04
372.65	228.89
373.03	228.77
373.41	228.79
373.78	228.69
374.16	228.41
374.54	228.35
374.92	228.38
375.30	228.29
375.68	228.14
376.06	228.13
376.44	228.15
376.82	228.15
377.19	228.06
377.57	227.98
377.95	227.86
378.33	227.78
378.71	227.65
379.09	227.70
379.47	227.66
379.84	227.51
380.22	227.47
380.60	227.45
380.98	227.47
381.36	227.32
381.73	227.32
382.11	227.51
382.49	227.39
382.87	227.18
383.25	227.11
383.62	227.26
384.00	227.08
384.38	226.99
384.76	227.00
385.13	226.89
385.51	226.81
385.89	226.68
386.27	226.70
386.64	226.65
387.02	226.56
387.40	226.46
387.78	226.47
388.15	226.42
388.53	226.39
388.91	226.42
389.29	226.44
389.66	226.47
390.04	226.31
390.42	226.42
390.79	226.50
391.17	226.47
391.55	226.27
391.92	226.31
392.30	226.26
392.68	226.12
393.05	226.18
393.43	226.17
393.81	226.25
394.18	226.25
394.56	226.31
394.94	226.35
395.31	226.45
395.69	226.55
396.06	226.62
396.44	226.73
396.82	226.79
397.19	226.91
397.57	227.03
397.95	227.23
398.32	227.29
398.70	227.40
399.07	227.54
399.45	227.70
399.82	227.82
400.20	227.98
400.58	228.13
400.95	228.20
401.33	228.38
401.70	228.46
402.08	228.47
402.45	228.55
402.83	228.73
403.20	228.77
403.58	228.83
403.95	229.05
404.33	229.09
404.71	229.21
405.08	229.40
405.46	229.48
405.83	229.62
406.21	229.76
406.58	229.87
406.96	230.09
407.33	230.32
407.70	230.52
408.08	230.90
408.45	231.14
408.83	231.34
409.20	231.59
409.58	231.81
409.95	232.14
410.33	232.50
410.70	232.68
411.08	233.08
411.45	233.44
411.82	233.74
412.20	234.20
412.57	234.63
412.95	234.97
413.32	235.41
413.69	235.81
414.07	236.30
414.44	236.88
414.82	237.43
415.19	237.93
415.56	238.53
415.94	239.13
416.31	239.93
416.68	240.74
417.06	241.56
417.43	242.46
417.81	243.43
418.18	244.39
418.55	245.53
418.93	246.54
419.30	247.65
419.67	248.90
420.04	250.20
420.42	251.54
420.79	253.11
421.16	254.65
421.54	256.25
421.91	257.88
422.28	259.55
422.66	261.21
423.03	263.10
423.40	264.89
423.77	266.71
424.15	268.62
424.52	270.66
424.89	272.85
425.26	274.97
425.64	276.91
426.01	279.15
426.38	281.35
426.75	283.73
427.13	286.03
427.50	288.42
427.87	290.91
428.24	293.41
428.61	295.80
428.99	298.58
429.36	301.54
429.73	304.42
430.10	307.15
430.47	310.19
430.85	313.05
431.22	316.26
431.59	319.94
431.96	323.04
432.33	326.48
432.70	329.96
433.08	333.99
433.45	337.75
433.82	341.42
434.19	345.63
434.56	349.73
434.93	353.79
435.30	357.70
435.68	362.19
436.05	366.30
436.42	370.43
436.79	374.19
437.16	378.20
437.53	382.42
437.90	386.81
438.27	390.84
438.64	395.17
439.01	399.28
439.38	402.64
439.75	406.20
440.13	410.33
440.50	414.16
440.87	417.17
441.24	420.50
441.61	424.09
441.98	426.70
442.35	429.77
442.72	432.76
443.09	435.82
443.46	437.44
443.83	438.87
444.20	440.11
444.57	441.56
444.94	442.64
445.31	443.65
445.68	444.68
446.05	445.39
446.42	445.40
446.79	445.19
447.16	444.96
447.53	444.90
447.90	443.70
448.27	442.27
448.64	440.50
449.01	439.15
449.37	436.60
449.74	434.13
450.11	431.18
450.48	428.10
450.85	424.76
451.22	421.92
451.59	419.24
451.96	416.58
452.33	413.10
452.70	409.85
453.07	405.97
453.43	401.91
453.80	398.10
454.17	394.23
454.54	390.59
454.91	386.64
455.28	382.91
455.65	379.17
456.02	375.87
456.38	372.60
456.75	368.71
457.12	365.52
457.49	362.37
457.86	359.24
458.23	356.49
458.59	353.48
458.96	350.55
459.33	347.79
459.70	345.17
460.07	342.97
460.43	340.37
460.80	337.90
461.17	335.67
461.54	333.35
461.91	331.26
462.27	329.11
462.64	327.26
463.01	325.18
463.38	323.18
463.74	320.81
464.11	319.10
464.48	317.61
464.85	315.80
465.21	314.37
465.58	312.96
465.95	311.17
466.32	309.78
466.68	308.22
467.05	306.77
467.42	305.39
467.78	303.94
468.15	302.46
468.52	301.47
468.88	300.10
469.25	298.87
469.62	297.89
469.98	296.76
470.35	295.76
470.72	294.75
471.08	293.79
471.45	292.97
471.82	292.09
472.18	290.99
472.55	290.27
472.92	289.35
473.28	288.54
473.65	287.72
474.02	286.99
474.38	286.35
474.75	285.81
475.11	285.02
475.48	284.44
475.85	283.97
476.21	283.29
476.58	282.85
476.94	282.47
477.31	281.91
477.67	281.44
478.04	281.01
478.41	280.61
478.77	280.31
479.14	279.98
479.50	279.68
479.87	279.59
480.23	279.38
480.60	279.12
480.96	278.85
481.33	278.80
481.69	278.41
482.06	278.31
482.42	278.20
482.79	278.14
483.15	278.18
483.52	278.18
483.88	278.31
484.25	278.28
484.61	278.22
484.98	278.20
485.34	278.36
485.71	278.52
486.07	278.73
486.44	278.84
486.80	278.88
487.17	278.94
487.53	279.16
487.90	279.33
488.26	279.74
488.62	280.01
488.99	280.09
489.35	280.45
489.72	280.75
490.08	280.88
490.44	281.12
490.81	281.40
491.17	281.65
491.54	281.96
491.90	282.17
492.26	282.53
492.63	282.98
492.99	283.29
493.36	283.51
493.72	283.73
494.08	283.95
494.45	284.38
494.81	284.79
495.17	285.00
495.54	285.38
495.90	285.65
496.26	285.98
496.63	286.49
496.99	286.72
497.35	287.03
497.72	287.50
498.08	287.91
498.44	288.25
498.80	288.62
499.17	288.91
499.53	289.33
499.89	289.60
500.26	289.70
500.62	289.98
500.98	290.35
501.34	290.63
501.71	291.11
502.07	291.41
502.43	291.67
502.79	291.97
503.16	292.26
503.52	292.52
503.88	292.60
504.24	292.84
504.60	293.19
504.97	293.44
505.33	293.63
505.69	294.01
506.05	294.23
506.41	294.38
506.78	294.49
507.14	294.76
507.50	295.16
507.86	295.60
508.22	296.03
508.59	296.33
508.95	296.55
509.31	296.83
509.67	297.09
510.03	297.56
510.39	297.96
510.75	298.40
511.12	298.79
511.48	299.33
511.84	299.77
512.20	300.27
512.56	300.96
512.92	301.58
513.28	302.05
513.64	302.67
514.00	303.43
514.37	304.19
514.73	305.00
515.09	305.74
515.45	306.60
515.81	307.40
516.17	308.39
516.53	309.59
516.89	310.45
517.25	311.67
517.61	312.80
517.97	313.99
518.33	315.16
518.69	316.58
519.05	317.92
519.41	319.35
519.77	321.07
520.13	322.61
520.49	324.18
520.85	325.88
521.21	327.73
521.57	329.66
521.93	331.66
522.29	333.63
522.65	335.71
523.01	337.79
523.37	340.01
523.73	342.31
524.09	344.71
524.45	347.28
524.81	349.72
525.17	352.43
525.53	355.12
525.89	357.91
526.25	360.81
526.61	363.77
526.97	366.77
527.33	369.68
527.68	373.14
528.04	376.58
528.40	379.91
528.76	383.36
529.12	386.89
529.48	390.60
529.84	394.21
530.20	398.01
530.56	402.09
530.91	406.03
531.27	410.09
531.63	414.20
531.99	418.46
532.35	422.82
532.71	427.02
533.07	431.41
533.42	435.90
533.78	440.37
534.14	445.08
534.50	449.81
534.86	454.67
535.21	459.12
535.57	464.08
535.93	469.12
536.29	474.24
536.65	479.40
537.00	484.32
537.36	489.51
537.72	494.76
538.08	499.96
538.44	505.32
538.79	510.80
539.15	516.22
539.51	521.70
539.87	527.32
540.22	533.05
540.58	538.78
540.94	544.37
541.29	550.17
541.65	555.79
542.01	561.80
542.37	567.59
542.72	573.35
543.08	578.91
543.44	584.71
543.79	590.07
544.15	595.84
544.51	601.91
544.87	607.84
545.22	613.60
545.58	619.62
545.94	625.35
546.29	630.97
546.65	636.79
547.01	642.47
547.36	648.13
547.72	653.82
548.07	659.53
548.43	665.19
548.79	670.61
549.14	676.55
549.50	681.90
549.86	687.49
550.21	693.10
550.57	698.73
550.92	704.25
551.28	710.03
551.64	715.38
551.99	721.02
552.35	726.51
552.70	732.04
553.06	737.63
553.41	743.30
553.77	748.72
554.13	754.14
554.48	759.69
554.84	765.16
555.19	770.43
555.55	775.96
555.90	781.34
556.26	786.80
556.61	791.79
556.97	796.83
557.32	801.75
557.68	806.93
558.03	812.32
558.39	817.39
558.74	822.53
559.10	827.87
559.45	832.75
559.81	837.97
560.16	842.81
560.52	847.43
560.87	852.39
561.23	857.15
561.58	861.93
561.94	866.36
562.29	870.72
562.64	875.39
563.00	879.74
563.35	884.45
563.71	889.12
564.06	893.80
564.42	898.51
564.77	903.19
565.12	907.75
565.48	912.10
565.83	916.39
566.19	920.63
566.54	924.32
566.89	927.95
567.25	931.60
567.60	935.86
567.96	939.73
568.31	943.09
568.66	946.99
569.02	950.54
569.37	953.94
569.72	957.56
570.08	960.79
570.43	964.09
570.78	967.02
571.14	970.04
571.49	972.92
571.84	976.12
572.20	978.69
572.55	981.11
572.90	983.44
573.26	986.01
573.61	988.26
573.96	991.06
574.31	993.24
574.67	995.22
575.02	996.86
575.37	998.69
575.72	1000.27
576.08	1001.87
576.43	1003.57
576.78	1005.46
577.13	1006.96
577.49	1008.33
577.84	1009.69
578.19	1010.98
578.54	1011.89
578.90	1012.92
579.25	1013.66
579.60	1014.72
579.95	1015.61
580.30	1016.13
580.66	1016.53
581.01	1017.06
581.36	1017.42
581.71	1018.46
582.06	1019.19
582.42	1019.95
582.77	1020.17
583.12	1020.86
583.47	1021.22
583.82	1021.60
584.17	1021.62
584.53	1021.86
584.88	1022.05
585.23	1022.07
585.58	1022.33
585.93	1022.24
586.28	1022.34
586.63	1022.64
586.98	1022.48
587.34	1022.42
587.69	1022.32
588.04	1022.51
588.39	1022.67
588.74	1021.87
589.09	1021.13
589.44	1020.48
589.79	1019.67
590.14	1019.10
590.49	1018.34
590.84	1017.46
591.19	1016.50
591.54	1015.57
591.89	1014.05
592.25	1013.22
592.60	1011.90
592.95	1010.41
593.30	1009.24
593.65	1007.81
594.00	1005.92
594.35	1005.09
594.70	1003.29
595.05	1001.88
595.40	1000.03
595.75	997.94
596.10	996.75
596.45	995.57
596.80	994.17
597.15	992.71
597.50	991.16
597.85	989.89
598.19	988.49
598.54	987.11
598.89	985.69
599.24	984.70
599.59	982.89
599.94	981.45
600.29	979.84
600.64	978.04
600.99	976.03
601.34	974.45
601.69	972.02
602.04	970.59
602.39	968.77
602.74	967.36
603.08	965.80
603.43	964.36
603.78	962.43
604.13	960.34
604.48	958.17
604.83	956.38
605.18	954.41
605.53	952.10
605.87	949.53
606.22	947.56
606.57	945.12
606.92	943.00
607.27	941.04
607.62	939.20
607.96	937.11
608.31	935.23
608.66	932.95
609.01	930.66
609.36	927.81
609.70	924.82
610.05	921.82
610.40	919.28
610.75	916.07
611.10	913.01
611.44	909.81
611.79	907.20
612.14	904.30
612.49	900.77
612.83	897.53
613.18	894.80
613.53	891.84
613.88	888.74
614.22	885.49
614.57	881.92
614.92	878.38
615.27	875.40
615.61	871.91
615.96	868.71
616.31	865.63
616.65	862.99
617.00	860.53
617.35	857.56
617.70	854.32
618.04	851.34
618.39	848.50
618.74	845.81
619.08	842.38
619.43	839.28
619.78	836.26
620.12	833.51
620.47	830.36
620.82	826.75
621.16	823.78
621.51	821.07
621.85	818.31
622.20	815.19
622.55	812.12
622.89	809.30
623.24	806.34
623.59	803.63
623.93	800.63
624.28	797.60
624.62	794.82
624.97	792.16
625.32	789.29
625.66	786.25
626.01	783.42
626.35	780.51
626.70	777.47
627.04	774.79
627.39	771.70
627.73	768.80
628.08	765.92
628.43	763.00
628.77	759.86
629.12	756.72
629.46	753.61
629.81	750.12
630.15	746.93
630.50	743.57
630.84	740.07
631.19	736.58
631.53	733.40
631.88	729.65
632.22	725.92
632.57	722.68
632.91	719.10
633.26	715.86
633.60	712.55
633.95	709.48
634.29	706.29
634.64	703.43
634.98	700.17
635.32	697.29
635.67	694.14
636.01	691.02
636.36	687.81
636.70	684.97
637.05	682.22
637.39	679.41
637.73	676.45
638.08	673.82
638.42	671.16
638.77	668.22
639.11	665.51
639.45	662.70
639.80	659.80
640.14	657.19
640.49	654.20
640.83	651.53
641.17	648.61
641.52	645.70
641.86	642.44
642.20	639.49
642.55	636.46
642.89	633.53
643.23	630.61
643.58	628.00
643.92	625.00
644.26	622.25
644.61	619.43
644.95	616.69
645.29	613.21
645.64	610.08
645.98	607.16
646.32	604.32
646.66	601.45
647.01	598.39
647.35	595.58
647.69	592.75
648.04	590.00
648.38	586.92
648.72	583.93
649.06	581.14
649.41	578.30
649.75	575.34
650.09	572.30
650.43	569.39
650.78	566.24
651.12	563.35
651.46	560.35
651.80	557.35
652.14	554.56
652.49	552.16
652.83	549.54
653.17	546.69
653.51	544.02
653.85	541.28
654.20	538.50
654.54	535.41
654.88	532.43
655.22	529.42
655.56	526.63
655.90	524.10
656.25	521.48
656.59	518.67
656.93	516.11
657.27	513.72
657.61	510.88
657.95	508.32
658.29	505.80
658.64	503.31
658.98	500.68
659.32	497.99
659.66	495.37
660.00	492.76
660.34	490.22
660.68	487.60
661.02	485.07
661.36	482.80
661.70	480.65
662.05	478.60
662.39	476.49
662.73	474.22
663.07	471.75
663.41	469.50
663.75	467.34
664.09	465.20
664.43	463.08
664.77	461.12
665.11	459.08
665.45	457.05
665.79	455.03
666.13	452.92
666.47	450.74
666.81	448.57
667.15	446.32
667.49	444.28
667.83	442.38
668.17	440.29
668.51	438.19
668.85	436.16
669.19	434.20
669.53	432.24
669.87	430.44
670.21	428.61
670.55	426.78
670.89	425.02
671.23	423.18
671.57	421.23
671.91	419.50
672.25	417.76
672.58	416.02
672.92	414.06
673.26	412.37
673.60	410.85
673.94	409.00
674.28	407.55
674.62	405.99
674.96	404.27
675.30	402.87
675.64	401.31
675.97	399.71
676.31	398.08
676.65	396.45
676.99	394.86
677.33	393.26
677.67	391.71
678.01	390.14
678.34	388.50
678.68	387.00
679.02	385.42
679.36	383.87
679.70	382.43
680.04	380.95
680.37	379.50
680.71	377.94
681.05	376.78
681.39	375.38
681.73	373.95
682.06	372.68
682.40	371.37
682.74	369.98
683.08	368.66
683.42	367.25
683.75	366.06
684.09	364.71
684.43	363.36
684.77	361.88
685.10	360.57
685.44	359.32
685.78	357.96
686.12	356.60
686.45	355.08
686.79	353.63
687.13	352.44
687.46	351.09
687.80	349.80
688.14	348.44
688.48	347.25
688.81	345.92
689.15	344.52
689.49	343.19
689.82	342.02
690.16	340.74
690.50	339.61
690.83	338.09
691.17	336.87
691.51	335.80
691.84	334.64
692.18	333.33
692.52	332.16
692.85	330.94
693.19	329.84
693.52	328.86
693.86	327.69
694.20	326.55
694.53	325.42
694.87	324.27
695.21	323.18
695.54	321.97
695.88	320.94
696.21	319.98
696.55	319.07
696.88	317.96
697.22	316.93
697.56	315.82
697.89	315.00
698.23	314.05
698.56	313.03
698.90	312.16
699.23	311.20
699.57	310.18
699.90	309.30
700.24	308.37
700.58	307.39
700.91	306.61
701.25	305.80
701.58	305.15
701.92	304.42
702.25	303.60
702.59	302.79
702.92	302.06
703.26	301.18
703.59	300.22
703.93	299.52
704.26	298.83
704.60	298.22
704.93	297.44
705.26	296.74
705.60	296.05
705.93	295.31
706.27	294.73
706.60	294.12
706.94	293.56
707.27	292.93
707.61	292.38
707.94	291.78
708.27	291.10
708.61	290.33
708.94	289.63
709.28	289.04
709.61	288.44
709.94	287.83
710.28	287.14
710.61	286.60
710.95	285.89
711.28	285.23
711.61	284.47
711.95	283.84
712.28	283.10
712.61	282.47
712.95	281.96
713.28	281.46
713.61	280.81
713.95	280.20
714.28	279.60
714.61	278.88
714.95	278.21
715.28	277.50
715.61	276.82
715.95	276.32
716.28	275.74
716.61	275.17
716.95	274.57
717.28	274.09
717.61	273.59
717.94	273.01
718.28	272.43
718.61	271.98
718.94	271.49
719.27	271.03
719.61	270.55
719.94	270.02
720.27	269.38
720.60	268.93
720.94	268.45
721.27	268.04
721.60	267.75
721.93	267.43
722.27	267.24
722.60	267.03
722.93	266.58
723.26	266.08
723.59	265.66
723.93	265.27
724.26	264.93
724.59	264.54
724.92	264.20
725.25	263.82
725.59	263.48
725.92	263.04
726.25	262.68
726.58	262.35
726.91	262.05
727.24	261.73
727.57	261.38
727.91	260.97
728.24	260.62
728.57	260.22
728.90	259.85
729.23	259.41
729.56	259.01
729.89	258.63
730.22	258.38
730.55	258.12
730.89	257.72
731.22	257.36
731.55	256.97
731.88	256.74
732.21	256.40
732.54	255.96
732.87	255.69
733.20	255.54
733.53	255.25
733.86	254.92
734.19	254.63
734.52	254.35
734.85	254.20
735.18	253.83
735.51	253.57
735.84	253.29
736.17	253.01
736.50	252.77
736.83	252.72
737.16	252.55
737.49	252.29
737.82	252.11
738.15	252.01
738.48	251.79
738.81	251.51
739.14	251.28
739.47	251.14
739.80	251.01
740.13	250.69
740.46	250.38
740.79	250.16
741.12	249.92
741.45	249.69
741.78	249.35
742.11	249.29
742.44	249.09
742.77	248.90
743.10	248.69
743.43	248.42
743.75	248.08
744.08	248.13
744.41	247.89
744.74	247.74
745.07	247.44
745.40	247.35
745.73	247.27
746.06	247.17
746.39	246.99
746.71	246.82
747.04	246.63
747.37	246.49
747.70	246.22
748.03	246.10
748.36	246.00
748.68	245.93
749.01	245.66
749.34	245.44
749.67	245.24
750.00	245.08
750.33	245.02
750.65	244.86
750.98	244.46
751.31	244.30
751.64	244.08
751.97	243.98
752.29	243.78
752.62	243.43
752.95	243.27
753.28	243.14
753.60	242.92
753.93	242.80
754.26	242.73
754.59	242.59
754.91	242.36
755.24	242.20
755.57	241.98
755.90	241.80
756.22	241.67
756.55	241.36
756.88	241.23
757.20	240.94
757.53	240.70
757.86	240.54
758.19	240.33
758.51	240.17
758.84	240.02
759.17	239.87
759.49	239.89
759.82	239.80
760.15	239.64
760.47	239.53
760.80	239.35
761.13	239.19
761.45	239.17
761.78	239.11
762.11	238.97
762.43	238.87
762.76	238.72
763.08	238.67
763.41	238.70
763.74	238.50
764.06	238.43
764.39	238.39
764.71	238.20
765.04	238.16
765.37	237.96
765.69	237.74
766.02	237.60
766.34	237.37
766.67	237.19
767.00	237.17
767.32	237.15
767.65	237.19
767.97	237.00
768.30	236.85
768.62	236.73
768.95	236.51
769.27	236.34
769.60	236.28
769.92	236.14
770.25	236.05
770.57	235.87
770.90	235.79
771.22	235.75
771.55	235.64
771.87	235.51
772.20	235.40
772.52	235.51
772.85	235.61
773.17	235.60
773.50	235.52
773.82	235.34
774.15	235.06
774.47	234.74
774.80	234.67
775.12	234.50
775.45	234.45
775.77	234.45
776.09	234.32
776.42	234.25
776.74	234.17
777.07	234.06
777.39	234.08
777.72	233.98
778.04	233.89
778.36	233.91
778.69	233.88
779.01	233.89
779.33	233.69
779.66	233.46
779.98	233.25
780.31	233.14
780.63	233.19
780.95	233.21
781.28	233.17
781.60	233.07
781.92	233.05
782.25	232.99
782.57	232.93
782.89	233.00
783.22	232.94
783.54	232.89
783.86	232.82
784.19	232.74
784.51	232.69
784.83	232.66
785.16	232.46
785.48	232.40
785.80	232.36
786.12	232.26
786.45	232.25
786.77	232.30
787.09	232.31
787.42	232.23
787.74	232.20
788.06	232.23
788.38	232.30
788.71	232.21
789.03	232.16
789.35	232.15
789.67	232.02
789.99	232.15
790.32	232.01
790.64	231.97
790.96	232.22
791.28	232.17
791.61	232.17
791.93	232.29
792.25	232.34
792.57	232.56
792.89	232.51
793.21	232.44
