SpectraSuite Data File
++++++++++++++++++++++++++++++++++++
Date: Fri Feb 01 14:38:49 EST 2013
User: group
Dark Spectrum Present: No
Reference Spectrum Present: No
Number of Sampled Component Spectra: 1
Spectrometers: USB2E7196
Integration Time (usec): 70000 (USB2E7196)
Spectra Averaged: 10 (USB2E7196)
Boxcar Smoothing: 10 (USB2E7196)
Correct for Electrical Dark: No (USB2E7196)
Strobe/Lamp Enabled: No (USB2E7196)
Correct for Detector Non-linearity: No (USB2E7196)
Correct for Stray Light: No (USB2E7196)
Number of Pixels in Processed Spectrum: 2048
>>>>>Begin Processed Spectral Data<<<<<
339.09	0.00
339.48	216.20
339.86	218.30
340.24	219.10
340.63	217.70
341.01	223.90
341.39	222.80
341.78	223.10
342.16	227.80
342.54	224.50
342.93	214.74
343.31	225.52
343.69	226.05
344.07	226.50
344.46	226.92
344.84	227.44
345.22	227.60
345.60	227.80
345.99	228.03
346.37	228.03
346.75	228.21
347.13	228.27
347.52	228.27
347.90	228.34
348.28	228.28
348.66	228.32
349.05	228.20
349.43	228.14
349.81	228.16
350.19	228.13
350.57	228.21
350.96	228.25
351.34	228.33
351.72	228.38
352.10	228.54
352.48	228.58
352.87	228.59
353.25	228.67
353.63	228.78
354.01	228.82
354.39	228.80
354.77	228.89
355.15	228.92
355.54	229.00
355.92	229.00
356.30	229.11
356.68	229.41
357.06	229.46
357.44	229.43
357.82	229.51
358.20	229.61
358.58	229.60
358.97	229.74
359.35	229.87
359.73	230.04
360.11	230.07
360.49	230.05
360.87	230.14
361.25	230.19
361.63	230.39
362.01	230.39
362.39	230.58
362.77	230.63
363.15	230.70
363.53	230.68
363.91	230.74
364.29	230.77
364.67	230.49
365.05	230.51
365.43	230.65
365.81	230.56
366.19	230.60
366.57	230.69
366.95	230.55
367.33	230.52
367.71	230.42
368.09	230.37
368.47	230.40
368.85	230.22
369.23	230.27
369.61	230.01
369.99	230.02
370.37	230.00
370.75	230.00
371.13	229.98
371.51	229.81
371.89	229.80
372.27	229.74
372.65	229.71
373.03	229.59
373.41	229.36
373.78	229.33
374.16	229.20
374.54	229.08
374.92	229.07
375.30	229.05
375.68	229.01
376.06	228.84
376.44	228.68
376.82	228.64
377.19	228.49
377.57	228.47
377.95	228.52
378.33	228.35
378.71	228.12
379.09	227.94
379.47	227.95
379.84	227.90
380.22	227.78
380.60	227.65
380.98	227.50
381.36	227.44
381.73	227.35
382.11	227.27
382.49	227.03
382.87	226.87
383.25	226.70
383.62	226.79
384.00	226.82
384.38	226.80
384.76	226.84
385.13	226.81
385.51	226.75
385.89	226.53
386.27	226.52
386.64	226.54
387.02	226.47
387.40	226.40
387.78	226.32
388.15	226.26
388.53	226.24
388.91	226.28
389.29	226.27
389.66	226.33
390.04	226.28
390.42	226.35
390.79	226.32
391.17	226.24
391.55	226.03
391.92	225.88
392.30	225.95
392.68	225.92
393.05	225.99
393.43	225.92
393.81	225.97
394.18	225.93
394.56	225.84
394.94	225.98
395.31	225.95
395.69	226.07
396.06	226.13
396.44	226.23
396.82	226.28
397.19	226.40
397.57	226.32
397.95	226.56
398.32	226.63
398.70	226.74
399.07	226.84
399.45	226.90
399.82	227.00
400.20	227.00
400.58	227.05
400.95	227.07
401.33	227.19
401.70	227.46
402.08	227.60
402.45	227.79
402.83	227.96
403.20	228.12
403.58	228.20
403.95	228.37
404.33	228.48
404.71	228.70
405.08	228.99
405.46	229.20
405.83	229.32
406.21	229.47
406.58	229.72
406.96	229.99
407.33	230.21
407.70	230.40
408.08	230.82
408.45	231.11
408.83	231.43
409.20	231.65
409.58	231.72
409.95	232.01
410.33	232.38
410.70	232.56
411.08	232.91
411.45	233.20
411.82	233.50
412.20	233.87
412.57	234.39
412.95	234.61
413.32	234.97
413.69	235.29
414.07	235.82
414.44	236.31
414.82	236.86
415.19	237.50
415.56	238.29
415.94	238.86
416.31	239.58
416.68	240.26
417.06	241.10
417.43	241.88
417.81	242.70
418.18	243.53
418.55	244.52
418.93	245.54
419.30	246.64
419.67	247.77
420.04	248.82
420.42	249.98
420.79	251.49
421.16	252.90
421.54	254.48
421.91	255.90
422.28	257.40
422.66	259.06
423.03	260.63
423.40	262.24
423.77	263.90
424.15	265.52
424.52	267.25
424.89	269.28
425.26	271.19
425.64	272.88
426.01	274.88
426.38	276.83
426.75	278.90
427.13	280.90
427.50	283.03
427.87	285.29
428.24	287.41
428.61	289.54
428.99	292.13
429.36	294.55
429.73	297.06
430.10	299.66
430.47	302.20
430.85	304.95
431.22	307.72
431.59	310.77
431.96	313.73
432.33	316.81
432.70	319.86
433.08	323.35
433.45	326.76
433.82	330.03
434.19	333.81
434.56	337.37
434.93	340.91
435.30	344.47
435.68	348.25
436.05	351.95
436.42	355.56
436.79	358.83
437.16	362.47
437.53	366.26
437.90	369.77
438.27	373.35
438.64	377.03
439.01	380.49
439.38	383.52
439.75	386.43
440.13	389.90
440.50	393.06
440.87	395.85
441.24	398.70
441.61	401.83
441.98	404.01
442.35	406.53
442.72	409.05
443.09	411.70
443.46	413.43
443.83	414.54
444.20	415.42
444.57	416.70
444.94	417.35
445.31	418.10
445.68	419.22
446.05	419.69
446.42	419.62
446.79	419.52
447.16	419.33
447.53	419.28
447.90	418.16
448.27	416.96
448.64	415.24
449.01	414.10
449.37	411.66
449.74	409.52
450.11	407.12
450.48	404.40
450.85	401.32
451.22	398.95
451.59	396.71
451.96	394.58
452.33	391.54
452.70	388.71
453.07	385.25
453.43	381.57
453.80	378.03
454.17	374.59
454.54	371.25
454.91	367.91
455.28	364.62
455.65	361.57
456.02	358.69
456.38	355.91
456.75	352.46
457.12	349.70
457.49	346.80
457.86	343.99
458.23	341.76
458.59	339.10
458.96	336.38
459.33	334.00
459.70	331.68
460.07	329.77
460.43	327.58
460.80	325.52
461.17	323.64
461.54	321.88
461.91	320.08
462.27	318.21
462.64	316.40
463.01	314.67
463.38	312.99
463.74	311.06
464.11	309.54
464.48	308.22
464.85	306.76
465.21	305.68
465.58	304.42
465.95	302.70
466.32	301.53
466.68	300.05
467.05	298.62
467.42	297.20
467.78	295.67
468.15	294.40
468.52	293.48
468.88	292.14
469.25	290.86
469.62	289.79
469.98	288.76
470.35	287.84
470.72	286.90
471.08	285.77
471.45	284.91
471.82	284.04
472.18	283.12
472.55	282.38
472.92	281.46
473.28	280.58
473.65	279.86
474.02	278.98
474.38	278.39
474.75	277.88
475.11	277.27
475.48	276.73
475.85	276.26
476.21	275.70
476.58	275.20
476.94	274.70
477.31	274.38
477.67	273.95
478.04	273.50
478.41	272.94
478.77	272.68
479.14	272.19
479.50	271.81
479.87	271.52
480.23	271.24
480.60	270.99
480.96	270.76
481.33	270.70
481.69	270.55
482.06	270.27
482.42	270.00
482.79	269.81
483.15	269.73
483.52	269.57
483.88	269.34
484.25	269.25
484.61	269.25
484.98	269.03
485.34	269.10
485.71	269.16
486.07	269.21
486.44	269.19
486.80	269.30
487.17	269.34
487.53	269.36
487.90	269.51
488.26	269.67
488.62	269.82
488.99	269.79
489.35	269.96
489.72	270.14
490.08	270.31
490.44	270.52
490.81	270.70
491.17	270.98
491.54	271.24
491.90	271.59
492.26	271.81
492.63	272.16
492.99	272.32
493.36	272.53
493.72	272.84
494.08	273.13
494.45	273.38
494.81	273.74
495.17	274.10
495.54	274.42
495.90	274.73
496.26	275.05
496.63	275.37
496.99	275.65
497.35	276.06
497.72	276.47
498.08	276.82
498.44	277.25
498.80	277.52
499.17	278.04
499.53	278.40
499.89	278.91
500.26	279.39
500.62	279.84
500.98	280.30
501.34	280.81
501.71	281.26
502.07	281.70
502.43	282.02
502.79	282.33
503.16	282.76
503.52	283.19
503.88	283.56
504.24	284.22
504.60	284.81
504.97	285.33
505.33	285.80
505.69	286.34
506.05	286.80
506.41	287.46
506.78	287.90
507.14	288.41
507.50	289.05
507.86	289.60
508.22	290.32
508.59	291.05
508.95	291.63
509.31	292.43
509.67	293.26
510.03	294.12
510.39	295.10
510.75	296.04
511.12	296.91
511.48	297.87
511.84	298.78
512.20	299.85
512.56	300.93
512.92	302.06
513.28	303.34
513.64	304.62
514.00	305.84
514.37	307.30
514.73	308.68
515.09	310.04
515.45	311.62
515.81	313.19
516.17	314.89
516.53	316.68
516.89	318.47
517.25	320.34
517.61	322.55
517.97	324.50
518.33	326.49
518.69	328.79
519.05	331.07
519.41	333.38
519.77	335.83
520.13	338.42
520.49	341.00
520.85	343.75
521.21	346.57
521.57	349.54
521.93	352.32
522.29	355.38
522.65	358.41
523.01	361.53
523.37	364.53
523.73	367.65
524.09	370.90
524.45	374.30
524.81	377.86
525.17	381.36
525.53	385.30
525.89	389.12
526.25	392.97
526.61	396.84
526.97	400.86
527.33	404.91
527.68	409.13
528.04	413.54
528.40	417.64
528.76	422.04
529.12	426.54
529.48	431.28
529.84	436.12
530.20	441.21
530.56	446.20
530.91	451.43
531.27	456.69
531.63	461.98
531.99	467.28
532.35	472.47
532.71	477.70
533.07	483.12
533.42	488.84
533.78	494.43
534.14	500.23
534.50	505.93
534.86	511.79
535.21	517.51
535.57	523.43
535.93	529.31
536.29	535.38
536.65	541.29
537.00	547.30
537.36	553.40
537.72	559.37
538.08	565.42
538.44	571.64
538.79	577.82
539.15	584.13
539.51	590.33
539.87	596.94
540.22	603.25
540.58	609.93
540.94	616.28
541.29	622.70
541.65	629.03
542.01	635.84
542.37	642.44
542.72	648.97
543.08	655.54
543.44	662.49
543.79	668.72
544.15	675.39
544.51	681.93
544.87	688.49
545.22	694.92
545.58	701.60
545.94	707.83
546.29	714.42
546.65	720.72
547.01	727.16
547.36	733.24
547.72	739.72
548.07	745.76
548.43	751.93
548.79	758.04
549.14	764.19
549.50	770.05
549.86	775.88
550.21	782.01
550.57	788.14
550.92	794.03
551.28	800.38
551.64	806.50
551.99	812.76
552.35	818.62
552.70	824.70
553.06	830.61
553.41	836.73
553.77	842.60
554.13	848.75
554.48	854.62
554.84	860.35
555.19	866.19
555.55	871.83
555.90	877.20
556.26	882.98
556.61	888.77
556.97	894.12
557.32	899.88
557.68	905.34
558.03	910.73
558.39	916.16
558.74	921.50
559.10	926.65
559.45	931.49
559.81	936.95
560.16	942.26
560.52	947.21
560.87	952.44
561.23	957.15
561.58	961.89
561.94	966.58
562.29	971.46
562.64	975.90
563.00	980.61
563.35	985.77
563.71	990.49
564.06	995.22
564.42	999.71
564.77	1004.19
565.12	1008.48
565.48	1012.80
565.83	1017.06
566.19	1021.25
566.54	1025.46
566.89	1029.88
567.25	1033.77
567.60	1037.80
567.96	1041.77
568.31	1045.57
568.66	1049.40
569.02	1052.92
569.37	1056.41
569.72	1059.83
570.08	1063.10
570.43	1066.33
570.78	1069.23
571.14	1071.99
571.49	1074.88
571.84	1078.38
572.20	1080.83
572.55	1083.59
572.90	1086.06
573.26	1088.31
573.61	1090.39
573.96	1092.29
574.31	1093.95
574.67	1095.12
575.02	1096.39
575.37	1098.08
575.72	1099.20
576.08	1100.82
576.43	1102.17
576.78	1103.68
577.13	1105.52
577.49	1107.18
577.84	1108.30
578.19	1109.20
578.54	1110.13
578.90	1110.61
579.25	1110.59
579.60	1111.00
579.95	1111.41
580.30	1111.26
580.66	1111.37
581.01	1111.75
581.36	1112.13
581.71	1112.18
582.06	1112.97
582.42	1113.01
582.77	1112.99
583.12	1112.98
583.47	1112.86
583.82	1113.15
584.17	1112.57
584.53	1111.83
584.88	1111.50
585.23	1110.93
585.58	1110.69
585.93	1110.34
586.28	1110.27
586.63	1110.22
586.98	1110.12
587.34	1109.70
587.69	1109.74
588.04	1109.58
588.39	1109.13
588.74	1108.23
589.09	1107.65
589.44	1106.68
589.79	1106.05
590.14	1105.44
590.49	1104.41
590.84	1103.08
591.19	1101.91
591.54	1100.76
591.89	1099.05
592.25	1097.54
592.60	1095.68
592.95	1093.98
593.30	1092.19
593.65	1090.07
594.00	1088.09
594.35	1087.02
594.70	1084.90
595.05	1083.02
595.40	1080.77
595.75	1078.50
596.10	1076.58
596.45	1074.83
596.80	1073.24
597.15	1071.58
597.50	1069.12
597.85	1067.57
598.19	1066.29
598.54	1064.20
598.89	1062.58
599.24	1061.09
599.59	1059.20
599.94	1058.01
600.29	1056.42
600.64	1054.62
600.99	1052.51
601.34	1050.53
601.69	1047.57
602.04	1045.69
602.39	1043.49
602.74	1041.78
603.08	1040.22
603.43	1038.73
603.78	1036.70
604.13	1034.53
604.48	1032.00
604.83	1029.82
605.18	1027.33
605.53	1024.27
605.87	1021.77
606.22	1019.46
606.57	1017.09
606.92	1014.58
607.27	1011.92
607.62	1009.35
607.96	1006.88
608.31	1004.52
608.66	1001.73
609.01	998.85
609.36	995.65
609.70	992.40
610.05	989.36
610.40	986.00
610.75	982.36
611.10	978.87
611.44	975.03
611.79	971.89
612.14	968.74
612.49	965.03
612.83	961.62
613.18	958.16
613.53	954.36
613.88	950.42
614.22	946.91
614.57	943.13
614.92	939.43
615.27	935.92
615.61	932.46
615.96	929.20
616.31	926.10
616.65	923.11
617.00	919.90
617.35	916.43
617.70	912.77
618.04	909.09
618.39	905.81
618.74	902.65
619.08	899.05
619.43	895.51
619.78	892.40
620.12	889.07
620.47	885.50
620.82	881.88
621.16	878.49
621.51	875.14
621.85	871.75
622.20	867.98
622.55	864.67
622.89	861.11
623.24	857.50
623.59	854.03
623.93	850.78
624.28	847.56
624.62	844.32
624.97	841.35
625.32	838.57
625.66	835.15
626.01	831.77
626.35	828.33
626.70	824.98
627.04	821.86
627.39	818.44
627.73	815.19
628.08	812.22
628.43	809.03
628.77	805.48
629.12	801.74
629.46	798.48
629.81	794.48
630.15	790.94
630.50	787.55
630.84	783.66
631.19	779.70
631.53	775.90
631.88	771.81
632.22	767.49
632.57	763.51
632.91	759.58
633.26	755.73
633.60	752.18
633.95	748.66
634.29	744.79
634.64	741.51
634.98	737.88
635.32	734.40
635.67	731.00
636.01	727.65
636.36	724.46
636.70	721.20
637.05	718.32
637.39	715.15
637.73	711.83
638.08	709.20
638.42	706.14
638.77	703.10
639.11	700.25
639.45	697.60
639.80	694.50
640.14	691.69
640.49	688.61
640.83	685.36
641.17	682.19
641.52	678.99
641.86	675.70
642.20	672.80
642.55	669.61
642.89	666.64
643.23	663.48
643.58	660.75
643.92	657.64
644.26	654.34
644.61	651.30
644.95	648.27
645.29	644.44
645.64	641.08
645.98	637.90
646.32	634.64
646.66	631.19
647.01	628.05
647.35	624.98
647.69	621.99
648.04	619.03
648.38	615.98
648.72	612.90
649.06	609.54
649.41	606.26
649.75	602.86
650.09	599.49
650.43	596.24
650.78	592.77
651.12	589.44
651.46	586.19
651.80	583.05
652.14	579.99
652.49	577.42
652.83	574.71
653.17	571.55
653.51	568.28
653.85	565.51
654.20	562.42
654.54	559.31
654.88	556.05
655.22	552.84
655.56	549.47
655.90	546.55
656.25	543.83
656.59	540.80
656.93	538.25
657.27	535.42
657.61	532.52
657.95	529.92
658.29	527.16
658.64	524.45
658.98	521.62
659.32	518.60
659.66	515.72
660.00	512.84
660.34	510.19
660.68	507.52
661.02	504.67
661.36	502.02
661.70	499.55
662.05	497.31
662.39	495.01
662.73	492.73
663.07	490.50
663.41	488.10
663.75	485.81
664.09	483.24
664.43	480.85
664.77	478.48
665.11	476.05
665.45	473.79
665.79	471.44
666.13	469.24
666.47	467.00
666.81	464.47
667.15	462.00
667.49	459.84
667.83	457.67
668.17	455.43
668.51	453.20
668.85	450.82
669.19	448.64
669.53	446.39
669.87	444.29
670.21	442.05
670.55	439.93
670.89	438.00
671.23	436.10
671.57	433.79
671.91	431.74
672.25	429.70
672.58	427.71
672.92	425.91
673.26	423.85
673.60	422.10
673.94	420.56
674.28	418.97
674.62	417.32
674.96	415.65
675.30	414.05
675.64	412.36
675.97	410.68
676.31	408.95
676.65	407.29
676.99	405.66
677.33	403.92
677.67	402.21
678.01	400.40
678.34	398.65
678.68	397.32
679.02	395.83
679.36	394.25
679.70	392.73
680.04	390.98
680.37	389.52
680.71	387.98
681.05	386.43
681.39	384.81
681.73	383.21
682.06	381.68
682.40	380.35
682.74	378.86
683.08	377.44
683.42	375.89
683.75	374.33
684.09	372.76
684.43	371.27
684.77	369.80
685.10	368.35
685.44	366.92
685.78	365.48
686.12	364.05
686.45	362.71
686.79	361.29
687.13	360.14
687.46	358.60
687.80	357.26
688.14	355.62
688.48	354.19
688.81	352.83
689.15	351.68
689.49	350.30
689.82	349.05
690.16	347.73
690.50	346.50
690.83	345.37
691.17	344.05
691.51	342.85
691.84	341.82
692.18	340.61
692.52	339.40
692.85	338.21
693.19	337.12
693.52	335.75
693.86	334.61
694.20	333.36
694.53	332.41
694.87	331.10
695.21	330.14
695.54	329.03
695.88	327.82
696.21	326.60
696.55	325.40
696.88	324.29
697.22	323.10
697.56	322.11
697.89	320.92
698.23	319.96
698.56	318.88
698.90	317.71
699.23	316.61
699.57	315.61
699.90	314.66
700.24	313.47
700.58	312.62
700.91	311.62
701.25	310.81
701.58	310.01
701.92	309.19
702.25	308.20
702.59	307.36
702.92	306.61
703.26	305.81
703.59	304.98
703.93	304.32
704.26	303.50
704.60	302.75
704.93	302.04
705.26	301.21
705.60	300.52
705.93	299.70
706.27	298.90
706.60	298.18
706.94	297.34
707.27	296.55
707.61	295.74
707.94	295.10
708.27	294.19
708.61	293.23
708.94	292.51
709.28	291.92
709.61	291.23
709.94	290.45
710.28	289.54
710.61	288.89
710.95	288.02
711.28	287.61
711.61	286.86
711.95	286.12
712.28	285.47
712.61	284.78
712.95	284.26
713.28	283.81
713.61	283.12
713.95	282.49
714.28	281.97
714.61	281.36
714.95	280.78
715.28	280.20
715.61	279.65
715.95	279.09
716.28	278.41
716.61	278.05
716.95	277.44
717.28	277.04
717.61	276.66
717.94	276.10
718.28	275.40
718.61	274.77
718.94	274.28
719.27	273.84
719.61	273.25
719.94	272.68
720.27	272.13
720.60	271.71
720.94	271.32
721.27	270.90
721.60	270.47
721.93	269.91
722.27	269.44
722.60	268.99
722.93	268.58
723.26	268.24
723.59	267.63
723.93	267.20
724.26	266.84
724.59	266.27
724.92	265.99
725.25	265.44
725.59	265.15
725.92	264.72
726.25	264.27
726.58	264.00
726.91	263.70
727.24	263.25
727.57	262.79
727.91	262.31
728.24	261.91
728.57	261.56
728.90	261.27
729.23	260.88
729.56	260.71
729.89	260.31
730.22	259.98
730.55	259.64
730.89	259.40
731.22	258.94
731.55	258.60
731.88	258.24
732.21	258.19
732.54	257.82
732.87	257.55
733.20	257.28
733.53	257.00
733.86	256.74
734.19	256.47
734.52	256.20
734.85	256.08
735.18	255.83
735.51	255.73
735.84	255.42
736.17	255.34
736.50	254.98
736.83	254.92
737.16	254.60
737.49	254.34
737.82	253.99
738.15	253.76
738.48	253.54
738.81	253.31
739.14	252.89
739.47	252.65
739.80	252.41
740.13	252.24
740.46	251.92
740.79	251.64
741.12	251.44
741.45	251.30
741.78	250.96
742.11	250.79
742.44	250.41
742.77	250.11
743.10	249.66
743.43	249.28
743.75	248.89
744.08	248.98
744.41	248.68
744.74	248.57
745.07	248.48
745.40	248.20
745.73	247.99
746.06	247.82
746.39	247.67
746.71	247.34
747.04	247.08
747.37	246.95
747.70	246.77
748.03	246.55
748.36	246.40
748.68	246.29
749.01	246.04
749.34	245.86
749.67	245.75
750.00	245.78
750.33	245.78
750.65	245.52
750.98	245.05
751.31	245.01
751.64	244.87
751.97	244.72
752.29	244.54
752.62	244.23
752.95	244.00
753.28	243.71
753.60	243.64
753.93	243.52
754.26	243.29
754.59	243.06
754.91	242.87
755.24	242.65
755.57	242.45
755.90	242.31
756.22	242.11
756.55	241.87
756.88	241.61
757.20	241.35
757.53	241.22
757.86	241.07
758.19	240.85
758.51	240.67
758.84	240.40
759.17	240.24
759.49	240.19
759.82	240.21
760.15	240.14
760.47	240.00
760.80	239.73
761.13	239.58
761.45	239.41
761.78	239.29
762.11	239.11
762.43	238.93
762.76	238.70
763.08	238.65
763.41	238.62
763.74	238.43
764.06	238.34
764.39	238.27
764.71	238.17
765.04	238.00
765.37	237.84
765.69	237.77
766.02	237.72
766.34	237.50
766.67	237.28
767.00	237.21
767.32	237.26
767.65	237.29
767.97	237.21
768.30	237.16
768.62	237.07
768.95	236.86
769.27	236.82
769.60	236.75
769.92	236.57
770.25	236.46
770.57	236.31
770.90	236.15
771.22	235.96
771.55	235.84
771.87	235.80
772.20	235.67
772.52	235.68
772.85	235.80
773.17	235.80
773.50	235.70
773.82	235.59
774.15	235.38
774.47	235.18
774.80	235.04
775.12	234.84
775.45	234.71
775.77	234.74
776.09	234.54
776.42	234.46
776.74	234.47
777.07	234.40
777.39	234.28
777.72	234.23
778.04	234.15
778.36	234.05
778.69	234.10
779.01	234.05
779.33	233.83
779.66	233.59
779.98	233.50
780.31	233.52
780.63	233.47
780.95	233.44
781.28	233.40
781.60	233.40
781.92	233.53
782.25	233.42
782.57	233.32
782.89	233.34
783.22	233.35
783.54	233.24
783.86	233.16
784.19	233.15
784.51	233.24
784.83	233.18
785.16	233.13
785.48	232.97
785.80	232.94
786.12	232.90
786.45	232.80
786.77	232.85
787.09	232.66
787.42	232.63
787.74	232.62
788.06	232.62
788.38	232.51
788.71	232.41
789.03	232.40
789.35	232.44
789.67	232.39
789.99	232.30
790.32	232.28
790.64	232.23
790.96	232.39
791.28	232.15
791.61	232.18
