SpectraSuite Data File
++++++++++++++++++++++++++++++++++++
Date: Fri Feb 01 14:39:17 EST 2013
User: group
Dark Spectrum Present: No
Reference Spectrum Present: No
Number of Sampled Component Spectra: 1
Spectrometers: USB2E7196
Integration Time (usec): 70000 (USB2E7196)
Spectra Averaged: 10 (USB2E7196)
Boxcar Smoothing: 10 (USB2E7196)
Correct for Electrical Dark: No (USB2E7196)
Strobe/Lamp Enabled: No (USB2E7196)
Correct for Detector Non-linearity: No (USB2E7196)
Correct for Stray Light: No (USB2E7196)
Number of Pixels in Processed Spectrum: 2048
>>>>>Begin Processed Spectral Data<<<<<
339.09	0.00
339.48	216.40
339.86	219.70
340.24	220.20
340.63	219.90
341.01	225.70
341.39	223.30
341.78	226.00
342.16	227.10
342.54	226.90
342.93	215.53
343.31	226.45
343.69	227.02
344.07	227.39
344.46	227.76
344.84	228.14
345.22	228.33
345.60	228.62
345.99	228.72
346.37	228.78
346.75	228.86
347.13	228.84
347.52	228.88
347.90	229.02
348.28	229.00
348.66	229.01
349.05	228.90
349.43	229.06
349.81	229.02
350.19	228.95
350.57	229.04
350.96	229.00
351.34	229.01
351.72	229.09
352.10	229.27
352.48	229.28
352.87	229.35
353.25	229.37
353.63	229.37
354.01	229.48
354.39	229.47
354.77	229.58
355.15	229.73
355.54	229.70
355.92	229.67
356.30	229.67
356.68	229.80
357.06	229.85
357.44	229.79
357.82	229.80
358.20	229.84
358.58	229.86
358.97	229.88
359.35	229.91
359.73	230.04
360.11	230.00
360.49	230.06
360.87	230.15
361.25	230.18
361.63	230.24
362.01	230.21
362.39	230.39
362.77	230.39
363.15	230.49
363.53	230.53
363.91	230.55
364.29	230.67
364.67	230.53
365.05	230.54
365.43	230.58
365.81	230.63
366.19	230.72
366.57	230.83
366.95	230.80
367.33	230.77
367.71	230.63
368.09	230.65
368.47	230.63
368.85	230.52
369.23	230.43
369.61	230.30
369.99	230.40
370.37	230.27
370.75	230.23
371.13	230.01
371.51	229.87
371.89	229.80
372.27	229.66
372.65	229.61
373.03	229.48
373.41	229.34
373.78	229.24
374.16	229.11
374.54	228.91
374.92	228.79
375.30	228.64
375.68	228.44
376.06	228.41
376.44	228.31
376.82	228.22
377.19	228.09
377.57	228.02
377.95	227.79
378.33	227.70
378.71	227.49
379.09	227.50
379.47	227.48
379.84	227.35
380.22	227.29
380.60	227.12
380.98	227.06
381.36	227.00
381.73	226.82
382.11	226.65
382.49	226.56
382.87	226.50
383.25	226.43
383.62	226.72
384.00	226.53
384.38	226.50
384.76	226.47
385.13	226.55
385.51	226.56
385.89	226.51
386.27	226.47
386.64	226.55
387.02	226.36
387.40	226.17
387.78	226.18
388.15	226.15
388.53	226.17
388.91	226.07
389.29	226.04
389.66	226.10
390.04	226.10
390.42	226.15
390.79	226.14
391.17	226.19
391.55	225.92
391.92	225.89
392.30	225.96
392.68	226.03
393.05	226.09
393.43	226.21
393.81	226.29
394.18	226.28
394.56	226.25
394.94	226.49
395.31	226.67
395.69	226.70
396.06	226.81
396.44	226.93
396.82	227.03
397.19	227.21
397.57	227.21
397.95	227.30
398.32	227.33
398.70	227.47
399.07	227.71
399.45	227.84
399.82	227.94
400.20	227.96
400.58	227.94
400.95	227.87
401.33	227.85
401.70	228.04
402.08	228.18
402.45	228.33
402.83	228.52
403.20	228.60
403.58	228.88
403.95	229.02
404.33	229.13
404.71	229.37
405.08	229.60
405.46	229.84
405.83	230.08
406.21	230.26
406.58	230.34
406.96	230.41
407.33	230.63
407.70	230.80
408.08	231.20
408.45	231.50
408.83	231.88
409.20	232.16
409.58	232.15
409.95	232.46
410.33	232.79
410.70	232.95
411.08	233.29
411.45	233.43
411.82	233.69
412.20	234.06
412.57	234.45
412.95	234.65
413.32	235.09
413.69	235.46
414.07	235.90
414.44	236.43
414.82	236.93
415.19	237.48
415.56	238.13
415.94	238.57
416.31	239.07
416.68	239.66
417.06	240.28
417.43	241.02
417.81	241.76
418.18	242.43
418.55	243.34
418.93	244.24
419.30	245.15
419.67	246.10
420.04	247.01
420.42	248.04
420.79	249.36
421.16	250.51
421.54	251.83
421.91	253.08
422.28	254.40
422.66	255.75
423.03	257.11
423.40	258.52
423.77	260.00
424.15	261.68
424.52	263.28
424.89	265.00
425.26	266.70
425.64	268.35
426.01	270.04
426.38	271.80
426.75	273.57
427.13	275.53
427.50	277.50
427.87	279.69
428.24	281.70
428.61	283.63
428.99	285.88
429.36	288.15
429.73	290.52
430.10	292.81
430.47	295.14
430.85	297.58
431.22	299.93
431.59	302.78
431.96	305.30
432.33	308.14
432.70	310.96
433.08	314.21
433.45	317.21
433.82	320.33
434.19	323.80
434.56	327.16
434.93	330.21
435.30	333.20
435.68	336.53
436.05	339.96
436.42	343.26
436.79	346.11
437.16	349.38
437.53	352.68
437.90	356.02
438.27	359.43
438.64	362.78
439.01	366.28
439.38	368.96
439.75	371.73
440.13	374.84
440.50	377.72
440.87	380.22
441.24	382.67
441.61	385.35
441.98	387.21
442.35	389.46
442.72	391.92
443.09	394.35
443.46	395.67
443.83	396.55
444.20	397.33
444.57	398.55
444.94	399.11
445.31	399.82
445.68	400.60
446.05	400.73
446.42	400.57
446.79	400.36
447.16	400.11
447.53	399.90
447.90	398.72
448.27	397.56
448.64	395.88
449.01	394.75
449.37	392.70
449.74	390.76
450.11	388.55
450.48	385.89
450.85	383.19
451.22	380.91
451.59	378.69
451.96	376.61
452.33	373.85
452.70	371.24
453.07	368.13
453.43	364.78
453.80	361.88
454.17	358.86
454.54	355.77
454.91	352.63
455.28	349.53
455.65	346.80
456.02	344.25
456.38	341.80
456.75	338.77
457.12	336.11
457.49	333.41
457.86	330.73
458.23	328.57
458.59	326.20
458.96	323.86
459.33	321.70
459.70	319.51
460.07	317.82
460.43	315.84
460.80	313.97
461.17	312.33
461.54	310.46
461.91	308.75
462.27	307.01
462.64	305.50
463.01	303.98
463.38	302.40
463.74	300.49
464.11	298.98
464.48	297.70
464.85	296.37
465.21	295.31
465.58	294.28
465.95	292.92
466.32	291.78
466.68	290.62
467.05	289.52
467.42	288.37
467.78	287.06
468.15	285.90
468.52	284.88
468.88	283.70
469.25	282.71
469.62	281.86
469.98	281.01
470.35	280.16
470.72	279.26
471.08	278.30
471.45	277.65
471.82	276.97
472.18	276.07
472.55	275.43
472.92	274.66
473.28	273.88
473.65	273.13
474.02	272.42
474.38	271.80
474.75	271.31
475.11	270.76
475.48	270.29
475.85	269.90
476.21	269.48
476.58	269.09
476.94	268.77
477.31	268.32
477.67	267.87
478.04	267.52
478.41	267.27
478.77	267.11
479.14	266.63
479.50	266.27
479.87	266.10
480.23	265.86
480.60	265.61
480.96	265.34
481.33	265.27
481.69	265.09
482.06	264.89
482.42	264.63
482.79	264.44
483.15	264.32
483.52	264.17
483.88	264.04
484.25	264.00
484.61	263.84
484.98	263.77
485.34	263.78
485.71	263.65
486.07	263.64
486.44	263.49
486.80	263.67
487.17	263.76
487.53	263.96
487.90	264.00
488.26	264.25
488.62	264.33
488.99	264.31
489.35	264.47
489.72	264.70
490.08	264.83
490.44	264.99
490.81	265.18
491.17	265.35
491.54	265.55
491.90	265.71
492.26	265.90
492.63	266.25
492.99	266.56
493.36	266.90
493.72	267.07
494.08	267.35
494.45	267.62
494.81	267.94
495.17	268.21
495.54	268.67
495.90	268.84
496.26	269.28
496.63	269.71
496.99	269.97
497.35	270.32
497.72	270.67
498.08	271.08
498.44	271.50
498.80	271.92
499.17	272.34
499.53	272.77
499.89	273.30
500.26	273.75
500.62	274.22
500.98	274.73
501.34	275.41
501.71	275.96
502.07	276.50
502.43	277.04
502.79	277.56
503.16	278.14
503.52	278.91
503.88	279.54
504.24	280.35
504.60	281.22
504.97	282.05
505.33	282.98
505.69	284.03
506.05	285.03
506.41	286.10
506.78	287.23
507.14	288.31
507.50	289.52
507.86	290.65
508.22	291.96
508.59	293.21
508.95	294.51
509.31	296.08
509.67	297.60
510.03	299.07
510.39	300.71
510.75	302.40
511.12	304.09
511.48	305.79
511.84	307.45
512.20	309.30
512.56	311.29
512.92	313.43
513.28	315.47
513.64	317.52
514.00	319.79
514.37	322.00
514.73	324.31
515.09	326.71
515.45	329.18
515.81	331.64
516.17	334.34
516.53	337.06
516.89	339.76
517.25	342.65
517.61	345.77
517.97	348.98
518.33	352.13
518.69	355.46
519.05	358.97
519.41	362.61
519.77	366.31
520.13	369.91
520.49	373.62
520.85	377.38
521.21	381.42
521.57	385.37
521.93	389.47
522.29	394.00
522.65	398.21
523.01	402.57
523.37	407.10
523.73	411.83
524.09	416.50
524.45	421.39
524.81	426.30
525.17	431.34
525.53	436.33
525.89	441.65
526.25	447.09
526.61	452.34
526.97	457.72
527.33	463.21
527.68	468.99
528.04	474.58
528.40	480.54
528.76	486.48
529.12	492.63
529.48	498.82
529.84	504.77
530.20	511.17
530.56	517.67
530.91	524.33
531.27	530.66
531.63	537.03
531.99	543.51
532.35	550.10
532.71	556.68
533.07	563.45
533.42	570.44
533.78	576.95
534.14	584.15
534.50	591.03
534.86	598.25
535.21	605.21
535.57	612.54
535.93	619.63
536.29	627.00
536.65	634.19
537.00	641.33
537.36	648.97
537.72	656.02
538.08	663.47
538.44	670.61
538.79	678.20
539.15	685.60
539.51	693.32
539.87	700.98
540.22	708.45
540.58	716.12
540.94	723.37
541.29	731.16
541.65	738.40
542.01	746.22
542.37	753.66
542.72	761.18
543.08	768.67
543.44	776.26
543.79	783.38
544.15	790.86
544.51	798.68
544.87	805.90
545.22	813.43
545.58	820.66
545.94	827.73
546.29	834.94
546.65	842.42
547.01	849.38
547.36	856.44
547.72	863.59
548.07	870.36
548.43	877.15
548.79	883.63
549.14	890.53
549.50	897.02
549.86	903.66
550.21	910.31
550.57	916.90
550.92	923.51
551.28	930.06
551.64	936.43
551.99	942.53
552.35	948.88
552.70	955.21
553.06	961.76
553.41	968.36
553.77	974.62
554.13	980.75
554.48	986.86
554.84	993.10
555.19	999.13
555.55	1005.43
555.90	1011.35
556.26	1017.56
556.61	1023.44
556.97	1028.96
557.32	1034.61
557.68	1040.47
558.03	1045.93
558.39	1051.32
558.74	1057.27
559.10	1062.69
559.45	1068.14
559.81	1073.69
560.16	1079.07
560.52	1084.12
560.87	1089.36
561.23	1094.28
561.58	1099.30
561.94	1104.24
562.29	1108.67
562.64	1113.28
563.00	1117.81
563.35	1123.10
563.71	1128.00
564.06	1133.02
564.42	1138.11
564.77	1142.75
565.12	1147.13
565.48	1152.26
565.83	1156.62
566.19	1160.76
566.54	1164.71
566.89	1168.76
567.25	1172.80
567.60	1177.07
567.96	1181.16
568.31	1184.64
568.66	1188.30
569.02	1191.90
569.37	1195.21
569.72	1198.82
570.08	1201.95
570.43	1205.20
570.78	1207.80
571.14	1210.31
571.49	1212.57
571.84	1215.36
572.20	1217.77
572.55	1219.97
572.90	1221.44
573.26	1223.78
573.61	1225.56
573.96	1227.78
574.31	1229.29
574.67	1230.24
575.02	1231.13
575.37	1232.07
575.72	1233.22
576.08	1234.42
576.43	1235.18
576.78	1236.46
577.13	1237.60
577.49	1238.88
577.84	1239.49
578.19	1240.08
578.54	1240.53
578.90	1240.77
579.25	1240.70
579.60	1240.88
579.95	1241.17
580.30	1241.43
580.66	1240.83
581.01	1240.30
581.36	1240.15
581.71	1240.32
582.06	1240.23
582.42	1239.97
582.77	1239.74
583.12	1239.26
583.47	1238.95
583.82	1238.95
584.17	1238.29
584.53	1237.58
584.88	1236.90
585.23	1236.14
585.58	1235.33
585.93	1234.50
586.28	1233.93
586.63	1233.15
586.98	1232.60
587.34	1231.60
587.69	1230.58
588.04	1230.00
588.39	1229.77
588.74	1228.03
589.09	1226.42
589.44	1224.93
589.79	1223.94
590.14	1222.80
590.49	1221.34
590.84	1219.56
591.19	1217.76
591.54	1215.49
591.89	1212.81
592.25	1210.79
592.60	1208.34
592.95	1205.90
593.30	1203.99
593.65	1201.50
594.00	1199.04
594.35	1196.65
594.70	1193.74
595.05	1191.20
595.40	1188.27
595.75	1185.27
596.10	1183.28
596.45	1181.15
596.80	1179.13
597.15	1176.56
597.50	1173.84
597.85	1171.55
598.19	1169.25
598.54	1167.09
598.89	1165.14
599.24	1163.54
599.59	1161.22
599.94	1159.21
600.29	1157.32
600.64	1154.54
600.99	1151.89
601.34	1149.14
601.69	1146.30
602.04	1144.48
602.39	1141.99
602.74	1140.09
603.08	1137.92
603.43	1135.38
603.78	1132.49
604.13	1129.49
604.48	1126.55
604.83	1123.60
605.18	1120.78
605.53	1117.56
605.87	1114.10
606.22	1111.20
606.57	1107.96
606.92	1104.86
607.27	1101.86
607.62	1098.80
607.96	1096.12
608.31	1093.30
608.66	1090.30
609.01	1086.79
609.36	1082.68
609.70	1079.24
610.05	1075.29
610.40	1071.50
610.75	1067.55
611.10	1064.11
611.44	1060.35
611.79	1056.82
612.14	1053.06
612.49	1048.73
612.83	1044.80
613.18	1040.88
613.53	1036.96
613.88	1032.67
614.22	1028.61
614.57	1024.37
614.92	1020.02
615.27	1016.17
615.61	1012.02
615.96	1007.91
616.31	1004.35
616.65	1001.04
617.00	997.14
617.35	993.24
617.70	988.93
618.04	984.98
618.39	980.79
618.74	976.75
619.08	972.55
619.43	968.79
619.78	965.27
620.12	961.18
620.47	957.41
620.82	953.24
621.16	949.39
621.51	945.50
621.85	941.42
622.20	937.52
622.55	933.38
622.89	929.49
623.24	925.79
623.59	921.87
623.93	918.13
624.28	914.31
624.62	910.27
624.97	906.75
625.32	903.20
625.66	899.58
626.01	896.07
626.35	892.18
626.70	888.24
627.04	884.53
627.39	880.84
627.73	876.96
628.08	873.10
628.43	869.17
628.77	865.22
629.12	861.40
629.46	857.58
629.81	853.29
630.15	849.38
630.50	845.28
630.84	840.85
631.19	836.39
631.53	832.06
631.88	828.03
632.22	823.66
632.57	819.52
632.91	815.28
633.26	811.09
633.60	806.78
633.95	802.65
634.29	798.44
634.64	794.64
634.98	790.29
635.32	786.50
635.67	783.11
636.01	779.39
636.36	775.57
636.70	771.86
637.05	768.25
637.39	764.61
637.73	761.08
638.08	757.76
638.42	754.30
638.77	750.94
639.11	747.22
639.45	743.75
639.80	740.07
640.14	736.55
640.49	732.73
640.83	729.44
641.17	725.94
641.52	722.46
641.86	718.89
642.20	715.67
642.55	712.05
642.89	708.29
643.23	704.70
643.58	701.52
643.92	697.92
644.26	694.40
644.61	691.10
644.95	687.39
645.29	683.56
645.64	679.76
645.98	676.06
646.32	672.70
646.66	669.00
647.01	665.56
647.35	662.23
647.69	659.04
648.04	655.98
648.38	652.60
648.72	648.92
649.06	645.36
649.41	641.84
649.75	638.09
650.09	634.48
650.43	630.92
650.78	627.13
651.12	623.39
651.46	620.17
651.80	616.71
652.14	613.62
652.49	610.47
652.83	607.22
653.17	603.76
653.51	600.52
653.85	597.35
654.20	594.03
654.54	590.42
654.88	586.69
655.22	582.87
655.56	579.24
655.90	576.20
656.25	573.02
656.59	569.84
656.93	566.91
657.27	563.70
657.61	560.39
657.95	557.47
658.29	554.54
658.64	551.26
658.98	547.87
659.32	544.46
659.66	541.28
660.00	538.14
660.34	535.31
660.68	532.27
661.02	529.15
661.36	526.05
661.70	523.23
662.05	520.74
662.39	518.33
662.73	515.67
663.07	512.95
663.41	510.42
663.75	507.71
664.09	504.90
664.43	502.30
664.77	499.74
665.11	497.08
665.45	494.57
665.79	492.04
666.13	489.55
666.47	487.31
666.81	484.81
667.15	482.20
667.49	479.66
667.83	477.32
668.17	475.00
668.51	472.47
668.85	470.02
669.19	467.74
669.53	465.06
669.87	462.52
670.21	460.13
670.55	457.60
670.89	455.40
671.23	453.30
671.57	451.17
671.91	448.94
672.25	446.78
672.58	444.66
672.92	442.48
673.26	440.43
673.60	438.26
673.94	436.26
674.28	434.52
674.62	432.78
674.96	430.63
675.30	428.90
675.64	427.19
675.97	425.46
676.31	423.41
676.65	421.59
676.99	420.03
677.33	418.15
677.67	416.45
678.01	414.60
678.34	412.85
678.68	411.24
679.02	409.55
679.36	407.70
679.70	405.88
680.04	404.09
680.37	402.35
680.71	400.53
681.05	398.92
681.39	397.11
681.73	395.33
682.06	393.72
682.40	391.97
682.74	390.24
683.08	388.55
683.42	386.91
683.75	385.48
684.09	383.65
684.43	382.12
684.77	380.43
685.10	378.79
685.44	377.16
685.78	375.46
686.12	373.89
686.45	372.21
686.79	370.67
687.13	369.12
687.46	367.65
687.80	366.16
688.14	364.58
688.48	363.22
688.81	361.68
689.15	360.43
689.49	358.98
689.82	357.58
690.16	356.08
690.50	354.88
690.83	353.32
691.17	352.05
691.51	350.58
691.84	349.30
692.18	348.03
692.52	346.64
692.85	345.38
693.19	344.04
693.52	342.80
693.86	341.45
694.20	340.22
694.53	338.92
694.87	337.68
695.21	336.44
695.54	335.10
695.88	333.75
696.21	332.38
696.55	331.04
696.88	329.80
697.22	328.64
697.56	327.40
697.89	326.08
698.23	324.95
698.56	323.83
698.90	322.66
699.23	321.49
699.57	320.29
699.90	319.09
700.24	317.93
700.58	316.97
700.91	316.01
701.25	315.05
701.58	314.24
701.92	313.27
702.25	312.34
702.59	311.50
702.92	310.68
703.26	309.66
703.59	308.89
703.93	308.23
704.26	307.42
704.60	306.56
704.93	305.76
705.26	304.84
705.60	304.12
705.93	303.37
706.27	302.63
706.60	301.97
706.94	301.29
707.27	300.56
707.61	299.76
707.94	298.97
708.27	298.22
708.61	297.24
708.94	296.58
709.28	295.80
709.61	295.05
709.94	294.36
710.28	293.70
710.61	293.03
710.95	292.20
711.28	291.76
711.61	291.11
711.95	290.62
712.28	290.10
712.61	289.39
712.95	288.78
713.28	288.16
713.61	287.57
713.95	286.82
714.28	286.27
714.61	285.71
714.95	285.11
715.28	284.36
715.61	283.72
715.95	283.12
716.28	282.59
716.61	281.99
716.95	281.36
717.28	280.90
717.61	280.39
717.94	279.84
718.28	279.00
718.61	278.45
718.94	277.89
719.27	277.24
719.61	276.67
719.94	276.09
720.27	275.41
720.60	274.84
720.94	274.39
721.27	273.90
721.60	273.34
721.93	272.85
722.27	272.42
722.60	272.03
722.93	271.53
723.26	271.13
723.59	270.61
723.93	270.09
724.26	269.52
724.59	268.98
724.92	268.53
725.25	268.13
725.59	267.59
725.92	267.10
726.25	266.67
726.58	266.31
726.91	265.91
727.24	265.65
727.57	265.21
727.91	264.76
728.24	264.36
728.57	264.04
728.90	263.62
729.23	263.13
729.56	262.83
729.89	262.33
730.22	261.83
730.55	261.60
730.89	261.30
731.22	261.07
731.55	260.61
731.88	260.20
732.21	259.76
732.54	259.36
732.87	259.03
733.20	258.65
733.53	258.27
733.86	257.88
734.19	257.56
734.52	257.23
734.85	257.03
735.18	256.62
735.51	256.28
735.84	256.01
736.17	255.79
736.50	255.25
736.83	255.28
737.16	255.00
737.49	254.55
737.82	254.23
738.15	253.85
738.48	253.51
738.81	253.28
739.14	253.02
739.47	252.77
739.80	252.52
740.13	252.27
740.46	251.83
740.79	251.61
741.12	251.24
741.45	251.07
741.78	250.77
742.11	250.64
742.44	250.39
742.77	250.28
743.10	250.06
743.43	249.88
743.75	249.41
744.08	249.41
744.41	249.18
744.74	249.00
745.07	248.79
745.40	248.63
745.73	248.55
746.06	248.30
746.39	248.22
746.71	247.98
747.04	247.78
747.37	247.78
747.70	247.67
748.03	247.55
748.36	247.30
748.68	247.10
749.01	246.80
749.34	246.61
749.67	246.34
750.00	246.19
750.33	246.17
750.65	246.01
750.98	245.65
751.31	245.60
751.64	245.46
751.97	245.48
752.29	245.38
752.62	245.00
752.95	244.90
753.28	244.73
753.60	244.58
753.93	244.49
754.26	244.35
754.59	244.10
754.91	243.90
755.24	243.70
755.57	243.50
755.90	243.44
756.22	243.31
756.55	243.10
756.88	242.92
757.20	242.71
757.53	242.59
757.86	242.42
758.19	242.26
758.51	242.13
758.84	241.84
759.17	241.62
759.49	241.56
759.82	241.52
760.15	241.33
760.47	241.27
760.80	241.06
761.13	241.00
761.45	240.79
761.78	240.70
762.11	240.61
762.43	240.50
762.76	240.31
763.08	240.13
763.41	240.15
763.74	239.92
764.06	239.77
764.39	239.58
764.71	239.41
765.04	239.31
765.37	239.05
765.69	238.85
766.02	238.80
766.34	238.65
766.67	238.45
767.00	238.38
767.32	238.25
767.65	238.38
767.97	238.17
768.30	238.15
768.62	237.92
768.95	237.72
769.27	237.60
769.60	237.41
769.92	237.31
770.25	236.97
770.57	236.87
770.90	236.65
771.22	236.49
771.55	236.43
771.87	236.32
772.20	236.24
772.52	236.25
772.85	236.31
773.17	236.18
773.50	236.01
773.82	235.80
774.15	235.60
774.47	235.24
774.80	235.10
775.12	234.91
775.45	234.88
775.77	234.81
776.09	234.56
776.42	234.52
776.74	234.47
777.07	234.41
777.39	234.37
777.72	234.32
778.04	234.30
778.36	234.11
778.69	234.01
779.01	233.98
779.33	233.80
779.66	233.49
779.98	233.41
780.31	233.43
780.63	233.49
780.95	233.51
781.28	233.49
781.60	233.44
781.92	233.42
782.25	233.37
782.57	233.33
782.89	233.40
783.22	233.31
783.54	233.22
783.86	233.30
784.19	233.26
784.51	233.28
784.83	233.14
785.16	233.16
785.48	233.03
785.80	232.89
786.12	232.89
786.45	232.93
786.77	232.91
787.09	232.89
787.42	232.74
787.74	232.71
788.06	232.77
788.38	232.70
788.71	232.61
789.03	232.56
789.35	232.48
789.67	232.57
789.99	232.61
790.32	232.60
790.64	232.58
