SpectraSuite Data File
++++++++++++++++++++++++++++++++++++
Date: Fri Feb 01 14:41:09 EST 2013
User: group
Dark Spectrum Present: No
Reference Spectrum Present: No
Number of Sampled Component Spectra: 1
Spectrometers: USB2E7196
Integration Time (usec): 70000 (USB2E7196)
Spectra Averaged: 10 (USB2E7196)
Boxcar Smoothing: 10 (USB2E7196)
Correct for Electrical Dark: No (USB2E7196)
Strobe/Lamp Enabled: No (USB2E7196)
Correct for Detector Non-linearity: No (USB2E7196)
Correct for Stray Light: No (USB2E7196)
Number of Pixels in Processed Spectrum: 2048
>>>>>Begin Processed Spectral Data<<<<<
339.09	0.00
339.48	216.20
339.86	217.00
340.24	220.30
340.63	221.50
341.01	225.50
341.39	223.30
341.78	223.90
342.16	226.60
342.54	226.30
342.93	214.92
343.31	225.79
343.69	226.31
344.07	226.87
344.46	227.21
344.84	227.57
345.22	227.66
345.60	227.84
345.99	228.02
346.37	228.09
346.75	228.13
347.13	228.19
347.52	228.17
347.90	228.34
348.28	228.18
348.66	228.18
349.05	228.08
349.43	228.08
349.81	228.00
350.19	228.10
350.57	228.20
350.96	228.20
351.34	228.36
351.72	228.48
352.10	228.50
352.48	228.54
352.87	228.51
353.25	228.51
353.63	228.58
354.01	228.64
354.39	228.78
354.77	228.89
355.15	229.00
355.54	229.06
355.92	229.00
356.30	229.11
356.68	229.28
357.06	229.32
357.44	229.36
357.82	229.50
358.20	229.62
358.58	229.69
358.97	229.71
359.35	229.74
359.73	229.81
360.11	229.80
360.49	229.89
360.87	230.02
361.25	230.20
361.63	230.42
362.01	230.40
362.39	230.36
362.77	230.41
363.15	230.39
363.53	230.36
363.91	230.40
364.29	230.48
364.67	230.40
365.05	230.53
365.43	230.58
365.81	230.57
366.19	230.52
366.57	230.55
366.95	230.53
367.33	230.52
367.71	230.43
368.09	230.48
368.47	230.53
368.85	230.41
369.23	230.37
369.61	230.25
369.99	230.36
370.37	230.39
370.75	230.38
371.13	230.41
371.51	230.37
371.89	230.41
372.27	230.43
372.65	230.29
373.03	230.20
373.41	230.10
373.78	230.04
374.16	229.90
374.54	229.85
374.92	229.82
375.30	229.64
375.68	229.60
376.06	229.48
376.44	229.37
376.82	229.33
377.19	229.18
377.57	229.10
377.95	228.99
378.33	228.82
378.71	228.74
379.09	228.63
379.47	228.69
379.84	228.45
380.22	228.21
380.60	228.12
380.98	228.08
381.36	227.98
381.73	227.87
382.11	227.91
382.49	227.85
382.87	227.79
383.25	227.78
383.62	227.91
384.00	227.86
384.38	227.73
384.76	227.77
385.13	227.92
385.51	227.75
385.89	227.71
386.27	227.77
386.64	227.64
387.02	227.53
387.40	227.38
387.78	227.40
388.15	227.53
388.53	227.58
388.91	227.44
389.29	227.47
389.66	227.51
390.04	227.40
390.42	227.40
390.79	227.42
391.17	227.37
391.55	227.16
391.92	227.18
392.30	227.30
392.68	227.30
393.05	227.28
393.43	227.45
393.81	227.46
394.18	227.36
394.56	227.39
394.94	227.55
395.31	227.67
395.69	227.78
396.06	227.72
396.44	227.82
396.82	227.93
397.19	228.10
397.57	228.12
397.95	228.31
398.32	228.29
398.70	228.34
399.07	228.46
399.45	228.57
399.82	228.60
400.20	228.58
400.58	228.64
400.95	228.65
401.33	228.66
401.70	228.84
402.08	229.03
402.45	229.20
402.83	229.36
403.20	229.36
403.58	229.50
403.95	229.73
404.33	229.81
404.71	229.97
405.08	230.16
405.46	230.37
405.83	230.57
406.21	230.75
406.58	230.93
406.96	231.16
407.33	231.38
407.70	231.61
408.08	232.06
408.45	232.23
408.83	232.44
409.20	232.77
409.58	232.99
409.95	233.22
410.33	233.51
410.70	233.70
411.08	234.06
411.45	234.30
411.82	234.64
412.20	235.01
412.57	235.50
412.95	235.79
413.32	236.23
413.69	236.58
414.07	237.07
414.44	237.60
414.82	238.09
415.19	238.74
415.56	239.43
415.94	239.98
416.31	240.79
416.68	241.51
417.06	242.31
417.43	243.09
417.81	244.00
418.18	244.88
418.55	245.94
418.93	247.00
419.30	248.20
419.67	249.32
420.04	250.46
420.42	251.60
420.79	253.00
421.16	254.23
421.54	255.71
421.91	257.07
422.28	258.40
422.66	259.91
423.03	261.44
423.40	263.07
423.77	264.61
424.15	266.20
424.52	268.07
424.89	269.96
425.26	271.64
425.64	273.28
426.01	275.18
426.38	276.98
426.75	278.94
427.13	280.88
427.50	282.88
427.87	285.00
428.24	287.07
428.61	288.89
428.99	291.30
429.36	293.66
429.73	295.97
430.10	298.41
430.47	300.71
430.85	303.08
431.22	305.59
431.59	308.48
431.96	311.01
432.33	313.69
432.70	316.36
433.08	319.63
433.45	322.65
433.82	325.55
434.19	328.90
434.56	331.93
434.93	334.81
435.30	337.86
435.68	341.12
436.05	344.42
436.42	347.73
436.79	350.44
437.16	353.46
437.53	356.68
437.90	359.90
438.27	363.13
438.64	366.26
439.01	369.26
439.38	371.59
439.75	374.07
440.13	376.96
440.50	379.53
440.87	381.44
441.24	383.68
441.61	386.18
441.98	387.80
442.35	390.00
442.72	392.03
443.09	393.96
443.46	395.02
443.83	395.50
444.20	396.08
444.57	397.00
444.94	397.24
445.31	397.81
445.68	398.27
446.05	398.24
446.42	397.75
446.79	397.10
447.16	396.60
447.53	396.15
447.90	394.59
448.27	393.19
448.64	391.50
449.01	390.12
449.37	387.84
449.74	385.65
450.11	382.94
450.48	380.14
450.85	377.23
451.22	374.73
451.59	372.48
451.96	370.11
452.33	367.13
452.70	364.56
453.07	361.14
453.43	357.65
453.80	354.43
454.17	351.37
454.54	348.35
454.91	345.12
455.28	341.97
455.65	339.30
456.02	336.75
456.38	334.27
456.75	331.25
457.12	328.56
457.49	326.06
457.86	323.57
458.23	321.50
458.59	319.14
458.96	316.79
459.33	314.63
459.70	312.51
460.07	310.84
460.43	308.80
460.80	306.96
461.17	305.28
461.54	303.60
461.91	301.98
462.27	300.40
462.64	299.06
463.01	297.65
463.38	296.11
463.74	294.24
464.11	292.96
464.48	291.69
464.85	290.49
465.21	289.49
465.58	288.50
465.95	287.09
466.32	285.94
466.68	284.87
467.05	283.90
467.42	282.88
467.78	281.69
468.15	280.59
468.52	279.87
468.88	278.81
469.25	277.90
469.62	277.16
469.98	276.41
470.35	275.60
470.72	274.86
471.08	273.98
471.45	273.43
471.82	272.69
472.18	271.96
472.55	271.37
472.92	270.55
473.28	269.89
473.65	269.37
474.02	268.90
474.38	268.55
474.75	268.09
475.11	267.57
475.48	267.10
475.85	266.77
476.21	266.26
476.58	265.99
476.94	265.69
477.31	265.33
477.67	264.96
478.04	264.81
478.41	264.57
478.77	264.64
479.14	264.34
479.50	264.11
479.87	263.99
480.23	263.82
480.60	263.85
480.96	263.80
481.33	263.81
481.69	263.85
482.06	263.67
482.42	263.61
482.79	263.63
483.15	263.80
483.52	263.85
483.88	263.99
484.25	264.13
484.61	264.33
484.98	264.40
485.34	264.59
485.71	264.86
486.07	265.13
486.44	265.27
486.80	265.66
487.17	266.06
487.53	266.50
487.90	267.01
488.26	267.63
488.62	268.17
488.99	268.70
489.35	269.25
489.72	269.95
490.08	270.65
490.44	271.48
490.81	272.33
491.17	273.40
491.54	274.45
491.90	275.42
492.26	276.48
492.63	277.79
492.99	279.10
493.36	280.35
493.72	281.77
494.08	283.27
494.45	284.89
494.81	286.65
495.17	288.39
495.54	290.24
495.90	292.18
496.26	294.28
496.63	296.55
496.99	298.92
497.35	301.43
497.72	303.97
498.08	306.62
498.44	309.42
498.80	312.34
499.17	315.37
499.53	318.70
499.89	322.04
500.26	325.55
500.62	329.13
500.98	333.01
501.34	337.02
501.71	341.31
502.07	345.60
502.43	350.17
502.79	354.92
503.16	359.86
503.52	364.87
503.88	370.04
504.24	375.48
504.60	381.09
504.97	386.83
505.33	392.98
505.69	399.25
506.05	405.75
506.41	412.28
506.78	419.20
507.14	426.07
507.50	433.38
507.86	441.01
508.22	448.98
508.59	457.10
508.95	465.44
509.31	473.85
509.67	482.57
510.03	491.40
510.39	500.50
510.75	509.86
511.12	519.32
511.48	529.38
511.84	539.58
512.20	550.01
512.56	560.85
512.92	571.74
513.28	583.11
513.64	594.64
514.00	606.33
514.37	618.19
514.73	630.20
515.09	642.44
515.45	654.75
515.81	667.29
516.17	679.90
516.53	692.86
516.89	706.05
517.25	719.45
517.61	733.29
517.97	746.93
518.33	760.85
518.69	775.05
519.05	789.51
519.41	804.03
519.77	818.70
520.13	833.69
520.49	848.73
520.85	863.80
521.21	878.91
521.57	894.82
521.93	910.17
522.29	926.29
522.65	941.84
523.01	957.84
523.37	973.78
523.73	990.30
524.09	1006.46
524.45	1023.26
524.81	1039.88
525.17	1056.56
525.53	1074.02
525.89	1091.06
526.25	1108.20
526.61	1125.02
526.97	1142.36
527.33	1159.87
527.68	1177.41
528.04	1194.65
528.40	1212.14
528.76	1230.04
529.12	1247.72
529.48	1265.51
529.84	1282.70
530.20	1301.03
530.56	1319.34
530.91	1337.96
531.27	1355.84
531.63	1373.90
531.99	1391.60
532.35	1409.20
532.71	1426.49
533.07	1444.29
533.42	1462.09
533.78	1479.93
534.14	1497.55
534.50	1514.48
534.86	1531.76
535.21	1548.54
535.57	1566.29
535.93	1583.66
536.29	1600.56
536.65	1617.33
537.00	1634.24
537.36	1651.77
537.72	1668.35
538.08	1684.57
538.44	1700.53
538.79	1716.53
539.15	1732.04
539.51	1748.15
539.87	1764.99
540.22	1781.49
540.58	1797.42
540.94	1812.89
541.29	1827.89
541.65	1843.15
542.01	1859.05
542.37	1874.21
542.72	1889.23
543.08	1903.37
543.44	1918.13
543.79	1931.94
544.15	1946.02
544.51	1960.38
544.87	1973.98
545.22	1987.86
545.58	2001.04
545.94	2013.62
546.29	2026.14
546.65	2039.23
547.01	2051.27
547.36	2062.37
547.72	2073.66
548.07	2084.79
548.43	2096.04
548.79	2107.22
549.14	2118.09
549.50	2128.10
549.86	2137.83
550.21	2148.00
550.57	2158.33
550.92	2167.35
551.28	2176.81
551.64	2185.65
551.99	2195.05
552.35	2203.97
552.70	2212.89
553.06	2222.21
553.41	2231.19
553.77	2240.24
554.13	2248.71
554.48	2257.44
554.84	2265.84
555.19	2274.32
555.55	2282.34
555.90	2289.40
556.26	2297.06
556.61	2304.46
556.97	2311.65
557.32	2319.41
557.68	2326.19
558.03	2332.87
558.39	2339.49
558.74	2347.51
559.10	2354.44
559.45	2360.64
559.81	2368.02
560.16	2373.42
560.52	2378.57
560.87	2384.92
561.23	2389.76
561.58	2395.63
561.94	2400.64
562.29	2405.03
562.64	2409.26
563.00	2413.89
563.35	2419.66
563.71	2424.97
564.06	2430.03
564.42	2434.29
564.77	2438.48
565.12	2443.20
565.48	2447.57
565.83	2451.30
566.19	2453.92
566.54	2456.89
566.89	2459.80
567.25	2461.59
567.60	2465.04
567.96	2467.71
568.31	2469.54
568.66	2471.90
569.02	2473.50
569.37	2474.81
569.72	2477.41
570.08	2478.55
570.43	2479.59
570.78	2480.16
571.14	2479.71
571.49	2479.75
571.84	2481.19
572.20	2480.64
572.55	2480.30
572.90	2479.14
573.26	2479.39
573.61	2478.65
573.96	2477.47
574.31	2475.35
574.67	2473.01
575.02	2470.21
575.37	2468.08
575.72	2465.08
576.08	2463.08
576.43	2460.07
576.78	2457.63
577.13	2454.84
577.49	2452.85
577.84	2449.99
578.19	2447.04
578.54	2443.80
578.90	2440.09
579.25	2435.42
579.60	2431.80
579.95	2427.05
580.30	2422.72
580.66	2417.28
581.01	2412.19
581.36	2408.23
581.71	2404.57
582.06	2400.66
582.42	2396.07
582.77	2391.49
583.12	2387.02
583.47	2382.29
583.82	2378.80
584.17	2373.99
584.53	2369.10
584.88	2363.97
585.23	2358.91
585.58	2353.80
585.93	2349.18
586.28	2344.54
586.63	2340.09
586.98	2335.19
587.34	2330.36
587.69	2325.46
588.04	2320.87
588.39	2316.25
588.74	2309.65
589.09	2303.47
589.44	2297.12
589.79	2291.47
590.14	2286.08
590.49	2280.42
590.84	2274.02
591.19	2267.30
591.54	2260.29
591.89	2252.40
592.25	2245.53
592.60	2237.76
592.95	2230.18
593.30	2222.82
593.65	2214.89
594.00	2206.86
594.35	2199.90
594.70	2192.23
595.05	2184.87
595.40	2177.30
595.75	2169.40
596.10	2163.03
596.45	2156.45
596.80	2150.23
597.15	2143.57
597.50	2136.14
597.85	2128.90
598.19	2122.86
598.54	2116.14
598.89	2109.65
599.24	2103.83
599.59	2097.28
599.94	2090.92
600.29	2083.98
600.64	2076.76
600.99	2069.36
601.34	2062.54
601.69	2054.88
602.04	2048.07
602.39	2041.24
602.74	2034.38
603.08	2028.25
603.43	2021.17
603.78	2013.63
604.13	2006.16
604.48	1998.76
604.83	1991.56
605.18	1984.47
605.53	1975.62
605.87	1966.85
606.22	1958.99
606.57	1950.97
606.92	1942.75
607.27	1935.54
607.62	1928.39
607.96	1920.84
608.31	1913.93
608.66	1905.68
609.01	1897.37
609.36	1888.45
609.70	1878.90
610.05	1869.78
610.40	1860.73
610.75	1851.88
611.10	1842.87
611.44	1832.70
611.79	1824.21
612.14	1815.23
612.49	1805.35
612.83	1796.34
613.18	1787.52
613.53	1778.78
613.88	1769.23
614.22	1760.32
614.57	1750.63
614.92	1741.05
615.27	1732.42
615.61	1722.98
615.96	1714.26
616.31	1705.70
616.65	1698.04
617.00	1690.40
617.35	1682.13
617.70	1672.80
618.04	1663.99
618.39	1655.46
618.74	1648.05
619.08	1638.92
619.43	1630.20
619.78	1622.43
620.12	1614.35
620.47	1605.98
620.82	1596.91
621.16	1588.93
621.51	1580.60
621.85	1572.17
622.20	1563.55
622.55	1554.98
622.89	1546.73
623.24	1538.91
623.59	1530.86
623.93	1522.59
624.28	1514.10
624.62	1505.69
624.97	1497.95
625.32	1490.13
625.66	1482.35
626.01	1474.10
626.35	1465.95
626.70	1457.97
627.04	1449.83
627.39	1441.56
627.73	1433.28
628.08	1425.46
628.43	1417.19
628.77	1409.18
629.12	1400.82
629.46	1393.04
629.81	1384.06
630.15	1375.45
630.50	1366.77
630.84	1357.81
631.19	1348.70
631.53	1340.19
631.88	1331.54
632.22	1322.71
632.57	1314.46
632.91	1306.00
633.26	1297.54
633.60	1288.96
633.95	1280.70
634.29	1272.70
634.64	1265.00
634.98	1256.90
635.32	1249.35
635.67	1242.09
636.01	1234.15
636.36	1226.41
636.70	1218.73
637.05	1211.92
637.39	1204.98
637.73	1197.62
638.08	1191.03
638.42	1184.60
638.77	1177.82
639.11	1170.77
639.45	1164.01
639.80	1156.48
640.14	1149.25
640.49	1142.10
640.83	1134.93
641.17	1127.87
641.52	1120.73
641.86	1113.14
642.20	1106.23
642.55	1099.03
642.89	1091.60
643.23	1084.44
643.58	1077.71
643.92	1070.70
644.26	1063.42
644.61	1056.47
644.95	1049.39
645.29	1041.57
645.64	1033.73
645.98	1026.73
646.32	1019.95
646.66	1012.91
647.01	1006.19
647.35	999.45
647.69	992.76
648.04	986.47
648.38	979.50
648.72	972.41
649.06	965.55
649.41	958.60
649.75	951.39
650.09	944.15
650.43	937.22
650.78	930.14
651.12	923.20
651.46	916.63
651.80	910.05
652.14	903.71
652.49	897.73
652.83	891.38
653.17	884.70
653.51	877.97
653.85	871.49
654.20	864.84
654.54	858.08
654.88	851.53
655.22	844.82
655.56	838.44
655.90	832.26
656.25	826.32
656.59	820.60
656.93	814.78
657.27	809.19
657.61	803.10
657.95	797.68
658.29	792.02
658.64	786.05
658.98	779.86
659.32	773.54
659.66	767.57
660.00	762.03
660.34	756.14
660.68	750.49
661.02	744.77
661.36	739.40
661.70	734.20
662.05	728.98
662.39	724.05
662.73	718.81
663.07	713.87
663.41	708.91
663.75	703.72
664.09	698.77
664.43	693.73
664.77	689.09
665.11	684.27
665.45	679.45
665.79	674.77
666.13	670.17
666.47	665.56
666.81	660.88
667.15	655.89
667.49	651.26
667.83	647.23
668.17	642.65
668.51	638.03
668.85	633.43
669.19	629.24
669.53	624.94
669.87	620.66
670.21	616.41
670.55	612.20
670.89	608.34
671.23	604.51
671.57	600.54
671.91	596.55
672.25	592.24
672.58	588.40
672.92	584.58
673.26	580.92
673.60	577.46
673.94	573.84
674.28	570.55
674.62	567.46
674.96	563.59
675.30	560.49
675.64	557.26
675.97	554.05
676.31	550.52
676.65	547.06
676.99	543.89
677.33	540.35
677.67	537.04
678.01	533.49
678.34	529.97
678.68	526.82
679.02	523.52
679.36	520.41
679.70	517.20
680.04	513.86
680.37	510.60
680.71	507.40
681.05	504.60
681.39	501.79
681.73	498.84
682.06	496.21
682.40	493.40
682.74	490.62
683.08	487.88
683.42	485.13
683.75	482.22
684.09	479.20
684.43	476.62
684.77	473.85
685.10	471.04
685.44	468.50
685.78	465.80
686.12	463.19
686.45	460.59
686.79	457.86
687.13	455.53
687.46	452.90
687.80	450.47
688.14	447.68
688.48	444.99
688.81	442.19
689.15	439.72
689.49	437.17
689.82	434.66
690.16	432.08
690.50	429.75
690.83	427.49
691.17	425.40
691.51	423.06
691.84	420.95
692.18	418.85
692.52	416.42
692.85	414.26
693.19	412.13
693.52	410.06
693.86	407.83
694.20	405.68
694.53	403.63
694.87	401.20
695.21	399.22
695.54	397.16
695.88	395.04
696.21	392.88
696.55	390.85
696.88	388.97
697.22	387.00
697.56	385.09
697.89	383.20
698.23	381.15
698.56	379.23
698.90	377.22
699.23	375.31
699.57	373.63
699.90	371.83
700.24	369.96
700.58	368.06
700.91	366.47
701.25	364.75
701.58	363.15
701.92	361.78
702.25	360.09
702.59	358.55
702.92	357.08
703.26	355.61
703.59	354.13
703.93	352.58
704.26	351.08
704.60	349.52
704.93	348.07
705.26	346.69
705.60	345.35
705.93	344.08
706.27	342.95
706.60	341.68
706.94	340.25
707.27	339.01
707.61	337.75
707.94	336.53
708.27	335.21
708.61	333.83
708.94	332.51
709.28	331.23
709.61	330.09
709.94	328.92
710.28	327.70
710.61	326.48
710.95	325.12
711.28	324.10
711.61	322.94
711.95	321.86
712.28	320.73
712.61	319.56
712.95	318.57
713.28	317.40
713.61	316.17
713.95	315.20
714.28	314.07
714.61	312.97
714.95	311.94
715.28	310.96
715.61	310.07
715.95	309.09
716.28	308.27
716.61	307.26
716.95	306.38
717.28	305.39
717.61	304.49
717.94	303.64
718.28	302.75
718.61	301.98
718.94	301.08
719.27	300.20
719.61	299.50
719.94	298.58
720.27	297.66
720.60	296.99
720.94	296.10
721.27	295.42
721.60	294.74
721.93	294.11
722.27	293.46
722.60	292.68
722.93	291.99
723.26	291.16
723.59	290.41
723.93	289.68
724.26	289.11
724.59	288.50
724.92	287.90
725.25	287.19
725.59	286.37
725.92	285.69
726.25	285.01
726.58	284.18
726.91	283.45
727.24	282.90
727.57	282.29
727.91	281.68
728.24	281.02
728.57	280.59
728.90	279.84
729.23	279.13
729.56	278.65
729.89	278.05
730.22	277.46
730.55	276.86
730.89	276.28
731.22	275.70
731.55	275.04
731.88	274.44
732.21	273.80
732.54	273.30
732.87	272.83
733.20	272.37
733.53	272.02
733.86	271.66
734.19	271.10
734.52	270.55
734.85	270.18
735.18	269.70
735.51	269.01
735.84	268.59
736.17	268.22
736.50	267.59
736.83	267.31
737.16	266.99
737.49	266.54
737.82	266.10
738.15	265.73
738.48	265.35
738.81	265.03
739.14	264.66
739.47	264.26
739.80	263.84
740.13	263.45
740.46	262.92
740.79	262.44
741.12	262.04
741.45	261.75
741.78	261.27
742.11	261.00
742.44	260.70
742.77	260.34
743.10	259.90
743.43	259.58
743.75	259.00
744.08	258.87
744.41	258.52
744.74	258.14
745.07	257.64
745.40	257.37
745.73	257.09
746.06	256.72
746.39	256.50
746.71	256.05
747.04	255.75
747.37	255.46
747.70	255.22
748.03	254.91
748.36	254.53
748.68	254.26
749.01	253.80
749.34	253.58
749.67	253.37
750.00	253.02
750.33	252.87
750.65	252.66
750.98	252.13
751.31	251.86
751.64	251.69
751.97	251.63
752.29	251.30
752.62	250.89
752.95	250.68
753.28	250.29
753.60	250.10
753.93	249.85
754.26	249.53
754.59	249.21
754.91	248.97
755.24	248.75
755.57	248.52
755.90	248.37
756.22	248.08
756.55	247.80
756.88	247.63
757.20	247.32
757.53	246.99
757.86	246.80
758.19	246.74
758.51	246.49
758.84	246.22
759.17	246.05
759.49	245.90
759.82	245.67
760.15	245.48
760.47	245.32
760.80	245.10
761.13	244.97
761.45	244.79
761.78	244.63
762.11	244.36
762.43	244.25
762.76	244.12
763.08	243.90
763.41	243.68
763.74	243.51
764.06	243.29
764.39	243.21
764.71	242.92
765.04	242.61
765.37	242.42
765.69	242.15
766.02	241.93
766.34	241.66
766.67	241.62
767.00	241.54
767.32	241.45
767.65	241.38
767.97	241.31
768.30	241.13
768.62	241.04
768.95	240.93
769.27	240.74
769.60	240.67
769.92	240.56
770.25	240.40
770.57	240.20
770.90	240.13
771.22	240.02
771.55	239.95
771.87	239.81
772.20	239.70
772.52	239.70
772.85	239.93
773.17	239.87
773.50	239.63
773.82	239.49
774.15	239.21
774.47	239.03
774.80	238.87
775.12	238.74
775.45	238.51
775.77	238.43
776.09	238.39
776.42	238.16
776.74	238.07
777.07	238.00
777.39	237.90
777.72	237.74
778.04	237.70
778.36	237.53
778.69	237.52
779.01	237.46
779.33	237.21
779.66	236.70
779.98	236.67
780.31	236.61
780.63	236.67
780.95	236.60
781.28	236.44
781.60	236.33
781.92	236.32
782.25	236.29
782.57	236.17
782.89	235.93
783.22	235.84
783.54	235.73
783.86	235.68
784.19	235.70
784.51	235.71
784.83	235.63
785.16	235.62
785.48	235.48
785.80	235.40
786.12	235.46
786.45	235.42
786.77	235.35
