SpectraSuite Data File
++++++++++++++++++++++++++++++++++++
Date: Fri Feb 01 14:36:55 EST 2013
User: group
Dark Spectrum Present: No
Reference Spectrum Present: No
Number of Sampled Component Spectra: 1
Spectrometers: USB2E7196
Integration Time (usec): 70000 (USB2E7196)
Spectra Averaged: 10 (USB2E7196)
Boxcar Smoothing: 10 (USB2E7196)
Correct for Electrical Dark: No (USB2E7196)
Strobe/Lamp Enabled: No (USB2E7196)
Correct for Detector Non-linearity: No (USB2E7196)
Correct for Stray Light: No (USB2E7196)
Number of Pixels in Processed Spectrum: 2048
>>>>>Begin Processed Spectral Data<<<<<
339.09	0.00
339.48	215.70
339.86	217.70
340.24	218.80
340.63	221.60
341.01	223.10
341.39	224.30
341.78	224.40
342.16	226.30
342.54	226.20
342.93	214.95
343.31	225.82
343.69	226.37
344.07	226.84
344.46	227.34
344.84	227.65
345.22	227.87
345.60	228.15
345.99	228.31
346.37	228.41
346.75	228.55
347.13	228.62
347.52	228.74
347.90	228.93
348.28	228.87
348.66	228.85
349.05	228.66
349.43	228.70
349.81	228.69
350.19	228.65
350.57	228.70
350.96	228.83
351.34	228.78
351.72	228.86
352.10	228.92
352.48	228.88
352.87	229.00
353.25	229.03
353.63	228.97
354.01	229.05
354.39	229.10
354.77	229.24
355.15	229.30
355.54	229.30
355.92	229.18
356.30	229.24
356.68	229.44
357.06	229.50
357.44	229.52
357.82	229.56
358.20	229.58
358.58	229.69
358.97	229.79
359.35	229.95
359.73	230.03
360.11	230.09
360.49	230.21
360.87	230.12
361.25	230.18
361.63	230.31
362.01	230.35
362.39	230.39
362.77	230.36
363.15	230.38
363.53	230.35
363.91	230.43
364.29	230.48
364.67	230.29
365.05	230.30
365.43	230.36
365.81	230.30
366.19	230.38
366.57	230.40
366.95	230.28
367.33	230.18
367.71	230.05
368.09	230.00
368.47	229.90
368.85	229.82
369.23	229.86
369.61	229.61
369.99	229.59
370.37	229.63
370.75	229.60
371.13	229.48
371.51	229.33
371.89	229.29
372.27	229.24
372.65	229.18
373.03	229.22
373.41	229.13
373.78	229.10
374.16	229.05
374.54	228.90
374.92	228.91
375.30	228.88
375.68	228.83
376.06	228.83
376.44	228.77
376.82	228.88
377.19	228.69
377.57	228.67
377.95	228.53
378.33	228.31
378.71	228.11
379.09	228.09
379.47	228.14
379.84	228.10
380.22	227.97
380.60	227.91
380.98	227.70
381.36	227.57
381.73	227.50
382.11	227.44
382.49	227.37
382.87	227.19
383.25	227.05
383.62	227.22
384.00	227.09
384.38	226.98
384.76	226.82
385.13	226.96
385.51	226.89
385.89	226.73
386.27	226.74
386.64	226.75
387.02	226.70
387.40	226.54
387.78	226.48
388.15	226.47
388.53	226.45
388.91	226.41
389.29	226.33
389.66	226.35
390.04	226.31
390.42	226.30
390.79	226.31
391.17	226.41
391.55	226.23
391.92	226.24
392.30	226.36
392.68	226.34
393.05	226.33
393.43	226.42
393.81	226.56
394.18	226.51
394.56	226.57
394.94	226.65
395.31	226.63
395.69	226.78
396.06	226.89
396.44	226.88
396.82	227.03
397.19	227.32
397.57	227.37
397.95	227.40
398.32	227.45
398.70	227.58
399.07	227.73
399.45	227.79
399.82	227.90
400.20	227.91
400.58	228.06
400.95	228.10
401.33	228.30
401.70	228.54
402.08	228.77
402.45	228.90
402.83	229.12
403.20	229.43
403.58	229.57
403.95	229.78
404.33	230.00
404.71	230.17
405.08	230.46
405.46	230.69
405.83	231.00
406.21	231.22
406.58	231.44
406.96	231.66
407.33	231.90
407.70	232.22
408.08	232.76
408.45	233.22
408.83	233.59
409.20	233.91
409.58	234.28
409.95	234.67
410.33	235.05
410.70	235.47
411.08	235.83
411.45	236.30
411.82	236.77
412.20	237.43
412.57	238.10
412.95	238.50
413.32	239.14
413.69	239.79
414.07	240.54
414.44	241.40
414.82	242.20
415.19	243.34
415.56	244.31
415.94	245.10
416.31	246.18
416.68	247.25
417.06	248.50
417.43	249.68
417.81	251.08
418.18	252.52
418.55	254.06
418.93	255.80
419.30	257.40
419.67	259.13
420.04	260.82
420.42	262.73
420.79	265.00
421.16	267.31
421.54	269.56
421.91	271.90
422.28	274.31
422.66	276.75
423.03	279.11
423.40	281.70
423.77	284.65
424.15	287.46
424.52	290.52
424.89	293.68
425.26	296.76
425.64	299.66
426.01	302.82
426.38	306.16
426.75	309.57
427.13	313.03
427.50	316.85
427.87	320.74
428.24	324.57
428.61	328.18
428.99	332.17
429.36	336.56
429.73	340.93
430.10	345.05
430.47	349.49
430.85	354.10
431.22	358.87
431.59	363.91
431.96	368.70
432.33	374.01
432.70	379.14
433.08	385.43
433.45	391.29
433.82	397.22
434.19	403.45
434.56	409.57
434.93	415.56
435.30	421.42
435.68	427.84
436.05	434.33
436.42	440.73
436.79	446.58
437.16	452.80
437.53	459.46
437.90	466.05
438.27	472.37
438.64	478.86
439.01	484.96
439.38	490.19
439.75	495.52
440.13	501.42
440.50	507.25
440.87	511.73
441.24	516.31
441.61	521.84
441.98	525.97
442.35	530.68
442.72	535.38
443.09	539.92
443.46	542.90
443.83	544.71
444.20	546.56
444.57	549.15
444.94	550.61
445.31	552.04
445.68	553.92
446.05	555.23
446.42	555.33
446.79	555.33
447.16	555.46
447.53	555.58
447.90	553.90
448.27	552.28
448.64	549.50
449.01	547.94
449.37	544.04
449.74	540.56
450.11	536.19
450.48	531.62
450.85	526.78
451.22	522.80
451.59	519.11
451.96	515.34
452.33	509.95
452.70	505.26
453.07	499.29
453.43	493.14
453.80	487.29
454.17	481.73
454.54	476.32
454.91	470.35
455.28	464.75
455.65	459.66
456.02	454.24
456.38	449.73
456.75	444.05
457.12	439.34
457.49	434.60
457.86	430.10
458.23	426.09
458.59	421.65
458.96	417.07
459.33	413.09
459.70	409.05
460.07	405.98
460.43	402.18
460.80	398.73
461.17	395.59
461.54	392.27
461.91	389.13
462.27	386.11
462.64	383.52
463.01	380.48
463.38	377.58
463.74	374.65
464.11	372.21
464.48	369.98
464.85	367.46
465.21	365.46
465.58	363.33
465.95	360.75
466.32	358.73
466.68	356.71
467.05	354.55
467.42	352.59
467.78	350.31
468.15	348.32
468.52	346.72
468.88	344.66
469.25	342.81
469.62	341.44
469.98	339.79
470.35	338.21
470.72	336.78
471.08	335.22
471.45	333.89
471.82	332.48
472.18	330.95
472.55	330.03
472.92	328.74
473.28	327.68
473.65	326.61
474.02	325.54
474.38	324.51
474.75	323.65
475.11	322.66
475.48	321.97
475.85	321.20
476.21	320.72
476.58	320.18
476.94	319.71
477.31	318.93
477.67	318.27
478.04	317.85
478.41	317.37
478.77	317.01
479.14	316.40
479.50	315.97
479.87	315.62
480.23	315.11
480.60	314.84
480.96	314.59
481.33	314.36
481.69	314.16
482.06	313.90
482.42	313.64
482.79	313.47
483.15	313.54
483.52	313.80
483.88	313.71
484.25	313.74
484.61	313.82
484.98	314.04
485.34	314.29
485.71	314.50
486.07	314.79
486.44	314.97
486.80	315.46
487.17	315.97
487.53	316.58
487.90	317.16
488.26	317.74
488.62	318.25
488.99	318.90
489.35	319.60
489.72	320.33
490.08	321.18
490.44	321.97
490.81	322.74
491.17	323.31
491.54	324.13
491.90	325.00
492.26	325.83
492.63	326.72
492.99	327.61
493.36	328.58
493.72	329.62
494.08	330.60
494.45	331.62
494.81	332.63
495.17	333.79
495.54	334.81
495.90	335.84
496.26	336.90
496.63	338.12
496.99	339.25
497.35	340.50
497.72	341.59
498.08	342.70
498.44	343.69
498.80	344.99
499.17	346.10
499.53	347.15
499.89	348.34
500.26	349.44
500.62	350.53
500.98	351.61
501.34	352.61
501.71	353.74
502.07	354.69
502.43	355.66
502.79	356.41
503.16	357.50
503.52	358.26
503.88	359.09
504.24	359.79
504.60	360.54
504.97	361.36
505.33	362.25
505.69	363.12
506.05	364.08
506.41	364.60
506.78	365.30
507.14	365.90
507.50	366.48
507.86	367.01
508.22	367.54
508.59	367.97
508.95	368.38
509.31	368.80
509.67	369.35
510.03	369.78
510.39	370.18
510.75	370.49
511.12	370.85
511.48	371.20
511.84	371.46
512.20	371.70
512.56	371.89
512.92	372.13
513.28	372.25
513.64	372.27
514.00	372.41
514.37	372.40
514.73	372.48
515.09	372.56
515.45	372.60
515.81	372.77
516.17	372.90
516.53	373.05
516.89	373.12
517.25	373.17
517.61	373.39
517.97	373.50
518.33	373.54
518.69	373.62
519.05	373.74
519.41	373.99
519.77	374.31
520.13	374.39
520.49	374.40
520.85	374.71
521.21	374.99
521.57	375.24
521.93	375.63
522.29	376.16
522.65	376.51
523.01	376.88
523.37	377.16
523.73	377.51
524.09	378.09
524.45	378.53
524.81	379.14
525.17	379.76
525.53	380.56
525.89	381.32
526.25	382.39
526.61	383.26
526.97	384.28
527.33	385.26
527.68	386.71
528.04	388.06
528.40	389.10
528.76	390.46
529.12	392.01
529.48	393.53
529.84	394.94
530.20	396.78
530.56	398.77
530.91	400.81
531.27	402.88
531.63	404.84
531.99	406.99
532.35	409.02
532.71	411.14
533.07	413.51
533.42	415.90
533.78	418.17
534.14	420.75
534.50	423.08
534.86	425.76
535.21	428.21
535.57	430.91
535.93	433.82
536.29	436.74
536.65	439.83
537.00	442.90
537.36	446.17
537.72	449.26
538.08	452.48
538.44	455.62
538.79	458.91
539.15	462.21
539.51	465.59
539.87	469.24
540.22	472.75
540.58	476.36
540.94	479.94
541.29	483.80
541.65	487.34
542.01	491.40
542.37	495.31
542.72	499.32
543.08	503.33
543.44	507.35
543.79	511.21
544.15	515.20
544.51	519.39
544.87	523.67
545.22	527.95
545.58	532.02
545.94	536.19
546.29	540.47
546.65	544.66
547.01	549.11
547.36	553.42
547.72	557.60
548.07	561.87
548.43	566.21
548.79	570.57
549.14	574.89
549.50	579.11
549.86	583.14
550.21	587.42
550.57	591.86
550.92	596.12
551.28	600.51
551.64	605.01
551.99	609.47
552.35	613.63
552.70	617.94
553.06	622.27
553.41	626.78
553.77	631.03
554.13	635.57
554.48	640.01
554.84	644.57
555.19	649.12
555.55	653.77
555.90	658.15
556.26	662.39
556.61	666.94
556.97	671.30
557.32	675.61
557.68	679.94
558.03	684.18
558.39	688.52
558.74	693.03
559.10	697.23
559.45	701.19
559.81	705.62
560.16	709.69
560.52	713.94
560.87	718.30
561.23	722.72
561.58	727.07
561.94	731.05
562.29	734.80
562.64	738.84
563.00	742.58
563.35	746.51
563.71	750.64
564.06	754.77
564.42	758.87
564.77	762.90
565.12	766.86
565.48	770.87
565.83	774.57
566.19	778.16
566.54	781.75
566.89	785.40
567.25	788.78
567.60	792.50
567.96	796.02
568.31	799.18
568.66	802.44
569.02	805.50
569.37	808.65
569.72	812.06
570.08	815.00
570.43	817.85
570.78	820.79
571.14	823.48
571.49	826.20
571.84	828.89
572.20	831.63
572.55	834.01
572.90	836.09
573.26	838.66
573.61	840.74
573.96	843.00
574.31	844.99
574.67	846.86
575.02	848.73
575.37	850.66
575.72	852.39
576.08	854.26
576.43	855.86
576.78	857.45
577.13	858.97
577.49	860.84
577.84	862.54
578.19	864.23
578.54	865.41
578.90	866.58
579.25	867.41
579.60	868.35
579.95	869.52
580.30	870.57
580.66	871.23
581.01	872.41
581.36	873.22
581.71	874.40
582.06	875.14
582.42	875.73
582.77	876.40
583.12	877.13
583.47	877.83
583.82	878.37
584.17	878.73
584.53	879.20
584.88	879.49
585.23	879.93
585.58	879.95
585.93	880.44
586.28	880.68
586.63	881.19
586.98	881.70
587.34	881.89
587.69	881.88
588.04	882.36
588.39	882.40
588.74	882.10
589.09	881.85
589.44	881.45
589.79	881.38
590.14	881.29
590.49	881.01
590.84	880.24
591.19	880.10
591.54	879.61
591.89	878.64
592.25	878.10
592.60	876.92
592.95	876.12
593.30	875.23
593.65	874.43
594.00	873.42
594.35	872.85
594.70	871.62
595.05	870.88
595.40	869.71
595.75	868.23
596.10	867.21
596.45	866.07
596.80	865.53
597.15	864.41
597.50	862.96
597.85	861.86
598.19	860.84
598.54	859.60
598.89	858.50
599.24	857.92
599.59	856.49
599.94	855.60
600.29	854.58
600.64	853.22
600.99	851.59
601.34	850.22
601.69	848.23
602.04	847.03
602.39	845.62
602.74	844.59
603.08	843.59
603.43	842.61
603.78	841.34
604.13	839.70
604.48	838.10
604.83	837.01
605.18	835.58
605.53	833.99
605.87	832.02
606.22	830.31
606.57	828.33
606.92	826.54
607.27	824.88
607.62	823.12
607.96	821.51
608.31	819.98
608.66	817.97
609.01	816.11
609.36	813.72
609.70	811.34
610.05	808.64
610.40	806.35
610.75	803.89
611.10	801.67
611.44	799.20
611.79	796.89
612.14	794.17
612.49	791.46
612.83	788.96
613.18	786.52
613.53	784.04
613.88	781.18
614.22	778.67
614.57	775.92
614.92	772.98
615.27	770.55
615.61	767.84
615.96	765.59
616.31	763.05
616.65	761.21
617.00	758.83
617.35	756.51
617.70	754.01
618.04	751.13
618.39	748.48
618.74	746.15
619.08	743.50
619.43	740.99
619.78	738.39
620.12	735.52
620.47	733.05
620.82	730.50
621.16	728.20
621.51	725.79
621.85	723.13
622.20	720.74
622.55	718.19
622.89	715.71
623.24	712.97
623.59	710.41
623.93	707.87
624.28	705.44
624.62	703.10
624.97	700.59
625.32	698.46
625.66	696.07
626.01	693.38
626.35	691.01
626.70	688.71
627.04	686.36
627.39	684.07
627.73	681.78
628.08	679.60
628.43	677.07
628.77	674.66
629.12	672.35
629.46	670.00
629.81	667.09
630.15	664.50
630.50	661.95
630.84	659.12
631.19	656.02
631.53	653.36
631.88	650.36
632.22	647.57
632.57	644.74
632.91	641.70
633.26	638.79
633.60	635.97
633.95	633.23
634.29	630.57
634.64	628.16
634.98	625.40
635.32	622.73
635.67	620.47
636.01	617.89
636.36	615.26
636.70	612.67
637.05	610.31
637.39	607.88
637.73	605.37
638.08	603.26
638.42	601.22
638.77	598.85
639.11	596.57
639.45	594.23
639.80	591.88
640.14	589.61
640.49	587.58
640.83	585.31
641.17	583.10
641.52	580.88
641.86	578.29
642.20	575.89
642.55	573.44
642.89	570.97
643.23	568.68
643.58	566.69
643.92	564.26
644.26	562.01
644.61	559.80
644.95	557.75
645.29	555.10
645.64	552.38
645.98	550.20
646.32	548.00
646.66	545.73
647.01	543.47
647.35	541.28
647.69	538.94
648.04	536.82
648.38	534.12
648.72	531.65
649.06	529.30
649.41	527.03
649.75	524.36
650.09	521.86
650.43	519.32
650.78	516.45
651.12	514.07
651.46	511.54
651.80	509.15
652.14	506.84
652.49	504.76
652.83	502.78
653.17	500.27
653.51	497.73
653.85	495.41
654.20	492.97
654.54	490.63
654.88	488.31
655.22	485.72
655.56	483.32
655.90	481.04
656.25	478.85
656.59	476.52
656.93	474.55
657.27	472.34
657.61	470.03
657.95	468.06
658.29	465.90
658.64	463.76
658.98	461.49
659.32	459.06
659.66	456.80
660.00	454.49
660.34	452.33
660.68	450.35
661.02	448.31
661.36	446.47
661.70	444.51
662.05	442.76
662.39	441.04
662.73	439.36
663.07	437.58
663.41	435.79
663.75	434.00
664.09	432.13
664.43	430.28
664.77	428.56
665.11	426.82
665.45	424.99
665.79	423.32
666.13	421.49
666.47	419.80
666.81	418.06
667.15	416.14
667.49	414.46
667.83	412.77
668.17	410.84
668.51	409.04
668.85	407.51
669.19	405.72
669.53	403.95
669.87	402.27
670.21	400.51
670.55	398.85
670.89	397.36
671.23	395.83
671.57	394.33
671.91	392.75
672.25	391.07
672.58	389.72
672.92	388.20
673.26	386.85
673.60	385.40
673.94	384.00
674.28	382.71
674.62	381.35
674.96	380.05
675.30	378.93
675.64	377.66
675.97	376.11
676.31	374.78
676.65	373.42
676.99	372.19
677.33	370.80
677.67	369.49
678.01	368.08
678.34	366.72
678.68	365.41
679.02	364.17
679.36	362.92
679.70	361.64
680.04	360.50
680.37	359.18
680.71	358.12
681.05	357.06
681.39	355.98
681.73	354.75
682.06	353.63
682.40	352.55
682.74	351.30
683.08	350.27
683.42	349.09
683.75	347.93
684.09	346.62
684.43	345.59
684.77	344.47
685.10	343.31
685.44	342.22
685.78	341.05
686.12	340.04
686.45	338.90
686.79	337.78
687.13	336.56
687.46	335.69
687.80	334.49
688.14	333.20
688.48	332.06
688.81	331.17
689.15	330.05
689.49	328.90
689.82	327.99
690.16	326.87
690.50	325.91
690.83	325.06
691.17	323.94
691.51	323.07
691.84	322.20
692.18	321.23
692.52	320.22
692.85	319.29
693.19	318.33
693.52	317.44
693.86	316.48
694.20	315.57
694.53	314.65
694.87	313.70
695.21	312.80
695.54	311.86
695.88	310.77
696.21	309.72
696.55	308.75
696.88	307.73
697.22	306.86
697.56	305.95
697.89	305.10
698.23	304.35
698.56	303.41
698.90	302.57
699.23	301.69
699.57	301.02
699.90	300.24
700.24	299.32
700.58	298.57
700.91	298.01
701.25	297.41
701.58	296.61
701.92	295.91
702.25	295.28
702.59	294.49
702.92	293.80
703.26	293.21
703.59	292.65
703.93	292.21
704.26	291.34
704.60	290.60
704.93	289.81
705.26	289.20
705.60	288.58
705.93	287.91
706.27	287.48
706.60	286.94
706.94	286.45
707.27	285.80
707.61	285.12
707.94	284.49
708.27	283.80
708.61	283.22
708.94	282.57
709.28	282.01
709.61	281.53
709.94	281.14
710.28	280.52
710.61	279.98
710.95	279.28
711.28	278.92
711.61	278.52
711.95	278.06
712.28	277.50
712.61	276.98
712.95	276.48
713.28	275.91
713.61	275.20
713.95	274.59
714.28	274.04
714.61	273.62
714.95	273.01
715.28	272.46
715.61	271.82
715.95	271.41
716.28	270.93
716.61	270.45
716.95	269.87
717.28	269.43
717.61	268.92
717.94	268.42
718.28	268.10
718.61	267.59
718.94	267.17
719.27	266.81
719.61	266.45
719.94	265.98
720.27	265.58
720.60	265.12
720.94	264.78
721.27	264.58
721.60	264.22
721.93	263.97
722.27	263.66
722.60	263.40
722.93	263.07
723.26	262.70
723.59	262.28
723.93	262.08
724.26	261.80
724.59	261.33
724.92	261.05
725.25	260.70
725.59	260.39
725.92	259.97
726.25	259.61
726.58	259.25
726.91	259.07
727.24	258.77
727.57	258.59
727.91	258.18
728.24	257.91
728.57	257.68
728.90	257.18
729.23	256.85
729.56	256.59
729.89	256.32
730.22	256.06
730.55	255.86
730.89	255.42
731.22	255.03
731.55	254.90
731.88	254.60
732.21	254.37
732.54	254.00
732.87	253.80
733.20	253.55
733.53	253.31
733.86	252.98
734.19	252.72
734.52	252.48
734.85	252.46
735.18	252.18
735.51	251.97
735.84	251.82
736.17	251.64
736.50	251.26
736.83	251.28
737.16	251.00
737.49	250.84
737.82	250.57
738.15	250.50
738.48	250.30
738.81	250.13
739.14	249.92
739.47	249.92
739.80	249.66
740.13	249.48
740.46	249.30
740.79	249.07
741.12	248.89
741.45	248.70
741.78	248.23
742.11	248.06
742.44	247.76
742.77	247.66
743.10	247.38
743.43	247.22
743.75	246.74
744.08	246.79
744.41	246.60
744.74	246.52
745.07	246.25
745.40	246.09
745.73	246.03
746.06	245.81
746.39	245.46
746.71	245.22
747.04	245.00
747.37	244.71
747.70	244.55
748.03	244.32
748.36	244.16
748.68	244.04
749.01	243.72
749.34	243.49
749.67	243.33
750.00	243.22
750.33	243.22
750.65	243.09
750.98	242.63
751.31	242.43
751.64	242.20
751.97	242.20
752.29	242.08
752.62	241.70
752.95	241.40
753.28	241.34
753.60	241.20
753.93	241.08
754.26	240.98
754.59	240.77
754.91	240.56
755.24	240.30
755.57	240.22
755.90	240.27
756.22	240.15
756.55	239.89
756.88	239.73
757.20	239.39
757.53	239.16
757.86	239.12
758.19	239.00
758.51	238.91
758.84	238.63
759.17	238.38
759.49	238.37
759.82	238.34
760.15	238.21
760.47	238.22
760.80	238.04
761.13	238.02
761.45	237.90
761.78	237.79
762.11	237.75
762.43	237.57
762.76	237.37
763.08	237.35
763.41	237.31
763.74	237.26
764.06	237.21
764.39	237.15
764.71	237.09
765.04	236.97
765.37	236.74
765.69	236.61
766.02	236.51
766.34	236.33
766.67	236.32
767.00	236.20
767.32	236.10
767.65	236.20
767.97	236.08
768.30	236.18
768.62	236.17
768.95	236.10
769.27	236.03
769.60	235.91
769.92	235.71
770.25	235.57
770.57	235.56
770.90	235.52
771.22	235.47
771.55	235.37
771.87	235.25
772.20	235.28
772.52	235.45
772.85	235.62
773.17	235.61
773.50	235.48
773.82	235.57
774.15	235.48
774.47	235.23
774.80	235.25
775.12	235.09
775.45	234.93
775.77	234.87
776.09	234.83
776.42	234.81
776.74	234.91
777.07	234.89
777.39	234.72
777.72	234.65
778.04	234.52
778.36	234.44
778.69	234.40
779.01	234.49
779.33	234.17
779.66	233.97
779.98	233.88
780.31	233.90
780.63	233.85
780.95	233.79
781.28	233.85
781.60	233.70
781.92	233.60
782.25	233.61
782.57	233.60
782.89	233.54
783.22	233.54
783.54	233.35
783.86	233.29
784.19	233.25
784.51	233.20
784.83	233.21
785.16	233.15
785.48	233.22
785.80	233.14
786.12	233.15
786.45	232.96
786.77	232.90
787.09	232.79
787.42	232.52
787.74	232.51
788.06	232.45
788.38	232.43
788.71	232.37
789.03	232.42
789.35	232.34
789.67	232.31
789.99	232.21
790.32	232.20
790.64	232.15
790.96	232.31
791.28	232.18
791.61	232.10
791.93	231.99
792.25	231.88
792.57	231.92
792.89	231.84
793.21	231.86
793.54	231.85
793.86	231.80
794.18	231.81
