SpectraSuite Data File
++++++++++++++++++++++++++++++++++++
Date: Fri Feb 01 14:37:35 EST 2013
User: group
Dark Spectrum Present: No
Reference Spectrum Present: No
Number of Sampled Component Spectra: 1
Spectrometers: USB2E7196
Integration Time (usec): 70000 (USB2E7196)
Spectra Averaged: 10 (USB2E7196)
Boxcar Smoothing: 10 (USB2E7196)
Correct for Electrical Dark: No (USB2E7196)
Strobe/Lamp Enabled: No (USB2E7196)
Correct for Detector Non-linearity: No (USB2E7196)
Correct for Stray Light: No (USB2E7196)
Number of Pixels in Processed Spectrum: 2048
>>>>>Begin Processed Spectral Data<<<<<
339.09	0.00
339.48	215.80
339.86	218.50
340.24	218.50
340.63	220.00
341.01	224.10
341.39	224.00
341.78	224.90
342.16	227.00
342.54	225.70
342.93	214.66
343.31	225.45
343.69	226.02
344.07	226.35
344.46	226.76
344.84	227.07
345.22	227.23
345.60	227.35
345.99	227.52
346.37	227.56
346.75	227.68
347.13	227.59
347.52	227.63
347.90	227.63
348.28	227.58
348.66	227.66
349.05	227.65
349.43	227.60
349.81	227.67
350.19	227.79
350.57	227.89
350.96	227.92
351.34	227.99
351.72	227.97
352.10	228.12
352.48	228.19
352.87	228.25
353.25	228.27
353.63	228.36
354.01	228.41
354.39	228.46
354.77	228.49
355.15	228.58
355.54	228.71
355.92	228.79
356.30	228.87
356.68	229.02
357.06	228.95
357.44	229.04
357.82	229.08
358.20	229.15
358.58	229.21
358.97	229.23
359.35	229.46
359.73	229.63
360.11	229.64
360.49	229.64
360.87	229.78
361.25	229.81
361.63	230.01
362.01	230.17
362.39	230.21
362.77	230.39
363.15	230.44
363.53	230.42
363.91	230.45
364.29	230.50
364.67	230.31
365.05	230.49
365.43	230.50
365.81	230.49
366.19	230.58
366.57	230.71
366.95	230.70
367.33	230.55
367.71	230.53
368.09	230.58
368.47	230.64
368.85	230.59
369.23	230.70
369.61	230.43
369.99	230.35
370.37	230.41
370.75	230.40
371.13	230.33
371.51	230.25
371.89	230.24
372.27	230.33
372.65	230.27
373.03	230.22
373.41	230.15
373.78	230.10
374.16	229.85
374.54	229.72
374.92	229.73
375.30	229.69
375.68	229.58
376.06	229.39
376.44	229.30
376.82	229.23
377.19	229.10
377.57	229.18
377.95	228.95
378.33	228.83
378.71	228.70
379.09	228.64
379.47	228.54
379.84	228.40
380.22	228.25
380.60	228.12
380.98	227.93
381.36	227.91
381.73	227.72
382.11	227.67
382.49	227.60
382.87	227.46
383.25	227.38
383.62	227.44
384.00	227.52
384.38	227.38
384.76	227.34
385.13	227.41
385.51	227.30
385.89	227.33
386.27	227.21
386.64	227.03
387.02	226.95
387.40	226.86
387.78	226.80
388.15	226.77
388.53	226.78
388.91	226.82
389.29	226.68
389.66	226.72
390.04	226.75
390.42	226.80
390.79	226.73
391.17	226.71
391.55	226.57
391.92	226.55
392.30	226.63
392.68	226.60
393.05	226.63
393.43	226.67
393.81	226.63
394.18	226.70
394.56	226.79
394.94	226.86
395.31	226.85
395.69	226.99
396.06	226.96
396.44	226.97
396.82	226.94
397.19	227.14
397.57	227.20
397.95	227.29
398.32	227.26
398.70	227.36
399.07	227.44
399.45	227.42
399.82	227.56
400.20	227.68
400.58	227.76
400.95	227.69
401.33	227.90
401.70	228.11
402.08	228.20
402.45	228.43
402.83	228.58
403.20	228.80
403.58	228.96
403.95	229.18
404.33	229.46
404.71	229.67
405.08	229.94
405.46	230.19
405.83	230.42
406.21	230.56
406.58	230.75
406.96	231.06
407.33	231.41
407.70	231.69
408.08	232.01
408.45	232.35
408.83	232.69
409.20	233.00
409.58	233.29
409.95	233.70
410.33	233.96
410.70	234.29
411.08	234.71
411.45	235.10
411.82	235.46
412.20	235.90
412.57	236.57
412.95	237.01
413.32	237.54
413.69	238.14
414.07	238.84
414.44	239.68
414.82	240.33
415.19	241.15
415.56	241.87
415.94	242.73
416.31	243.69
416.68	244.66
417.06	245.62
417.43	246.50
417.81	247.69
418.18	248.90
418.55	250.25
418.93	251.61
419.30	253.04
419.67	254.59
420.04	256.10
420.42	257.65
420.79	259.46
421.16	261.32
421.54	263.23
421.91	265.13
422.28	267.15
422.66	269.33
423.03	271.61
423.40	273.93
423.77	276.17
424.15	278.57
424.52	281.15
424.89	283.88
425.26	286.61
425.64	289.08
426.01	291.80
426.38	294.59
426.75	297.44
427.13	300.39
427.50	303.50
427.87	306.75
428.24	309.94
428.61	312.99
428.99	316.31
429.36	320.04
429.73	323.82
430.10	327.18
430.47	330.88
430.85	334.67
431.22	338.46
431.59	342.80
431.96	346.61
432.33	351.06
432.70	355.30
433.08	360.42
433.45	365.10
433.82	369.79
434.19	375.10
434.56	380.14
434.93	385.09
435.30	389.98
435.68	395.42
436.05	400.87
436.42	406.10
436.79	411.07
437.16	416.29
437.53	421.72
437.90	427.33
438.27	432.47
438.64	437.88
439.01	443.11
439.38	447.60
439.75	452.12
440.13	457.13
440.50	461.97
440.87	465.92
441.24	470.07
441.61	474.69
441.98	477.92
442.35	482.07
442.72	486.00
443.09	489.97
443.46	492.52
443.83	494.02
444.20	495.70
444.57	497.87
444.94	499.09
445.31	500.36
445.68	501.74
446.05	502.73
446.42	502.61
446.79	502.50
447.16	502.36
447.53	502.44
447.90	500.97
448.27	499.59
448.64	497.21
449.01	495.75
449.37	492.75
449.74	489.97
450.11	486.28
450.48	482.28
450.85	478.26
451.22	474.73
451.59	471.44
451.96	468.28
452.33	463.88
452.70	459.87
453.07	454.84
453.43	449.74
453.80	444.89
454.17	440.21
454.54	435.82
454.91	431.07
455.28	426.47
455.65	422.10
456.02	417.53
456.38	413.73
456.75	409.05
457.12	404.91
457.49	400.77
457.86	396.92
458.23	393.80
458.59	389.99
458.96	386.25
459.33	383.10
459.70	379.67
460.07	376.90
460.43	373.75
460.80	370.99
461.17	368.50
461.54	365.85
461.91	363.23
462.27	360.51
462.64	358.26
463.01	355.66
463.38	353.21
463.74	350.77
464.11	348.60
464.48	346.59
464.85	344.70
465.21	343.09
465.58	341.37
465.95	339.20
466.32	337.30
466.68	335.31
467.05	333.59
467.42	331.87
467.78	330.11
468.15	328.30
468.52	326.93
468.88	325.19
469.25	323.66
469.62	322.46
469.98	321.06
470.35	319.65
470.72	318.39
471.08	316.96
471.45	315.90
471.82	314.79
472.18	313.54
472.55	312.50
472.92	311.37
473.28	310.32
473.65	309.30
474.02	308.32
474.38	307.61
474.75	306.70
475.11	305.81
475.48	305.13
475.85	304.51
476.21	303.73
476.58	303.04
476.94	302.41
477.31	301.84
477.67	301.39
478.04	300.95
478.41	300.56
478.77	300.36
479.14	299.73
479.50	299.35
479.87	299.04
480.23	298.65
480.60	298.45
480.96	298.02
481.33	297.83
481.69	297.64
482.06	297.35
482.42	297.16
482.79	297.07
483.15	296.94
483.52	296.93
483.88	296.89
484.25	296.90
484.61	296.86
484.98	296.90
485.34	296.93
485.71	297.10
486.07	297.14
486.44	297.11
486.80	297.36
487.17	297.51
487.53	297.78
487.90	298.11
488.26	298.42
488.62	298.94
488.99	299.30
489.35	299.83
489.72	300.32
490.08	300.77
490.44	301.26
490.81	301.67
491.17	302.09
491.54	302.72
491.90	303.22
492.26	303.72
492.63	304.26
492.99	304.75
493.36	305.35
493.72	306.10
494.08	306.77
494.45	307.47
494.81	308.20
495.17	308.90
495.54	309.64
495.90	310.31
496.26	311.10
496.63	311.76
496.99	312.49
497.35	313.29
497.72	313.99
498.08	314.55
498.44	315.36
498.80	316.14
499.17	316.86
499.53	317.55
499.89	318.43
500.26	319.08
500.62	319.70
500.98	320.37
501.34	320.90
501.71	321.60
502.07	322.09
502.43	322.65
502.79	323.21
503.16	323.68
503.52	324.07
503.88	324.27
504.24	324.76
504.60	325.15
504.97	325.58
505.33	325.88
505.69	326.61
506.05	327.00
506.41	327.20
506.78	327.41
507.14	327.57
507.50	327.79
507.86	328.05
508.22	328.34
508.59	328.45
508.95	328.68
509.31	328.92
509.67	329.17
510.03	329.26
510.39	329.40
510.75	329.52
511.12	329.64
511.48	329.77
511.84	329.80
512.20	329.79
512.56	329.85
512.92	330.20
513.28	330.09
513.64	330.12
514.00	330.32
514.37	330.40
514.73	330.50
515.09	330.59
515.45	330.55
515.81	330.60
516.17	330.68
516.53	330.83
516.89	330.85
517.25	331.02
517.61	331.28
517.97	331.39
518.33	331.68
518.69	332.05
519.05	332.41
519.41	332.86
519.77	333.46
520.13	333.98
520.49	334.34
520.85	334.84
521.21	335.41
521.57	335.99
521.93	336.71
522.29	337.56
522.65	338.31
523.01	339.19
523.37	340.13
523.73	341.08
524.09	342.08
524.45	343.06
524.81	344.22
525.17	345.54
525.53	346.88
525.89	348.21
526.25	349.69
526.61	351.15
526.97	352.66
527.33	354.25
527.68	355.93
528.04	357.74
528.40	359.57
528.76	361.54
529.12	363.70
529.48	365.70
529.84	367.92
530.20	370.32
530.56	372.81
530.91	375.32
531.27	378.05
531.63	380.85
531.99	383.61
532.35	386.37
532.71	389.08
533.07	392.05
533.42	395.28
533.78	398.35
534.14	401.64
534.50	404.98
534.86	408.24
535.21	411.54
535.57	415.17
535.93	418.65
536.29	422.33
536.65	425.99
537.00	429.68
537.36	433.62
537.72	437.36
538.08	441.41
538.44	445.16
538.79	449.07
539.15	452.97
539.51	457.27
539.87	461.54
540.22	465.90
540.58	470.37
540.94	474.45
541.29	478.78
541.65	483.35
542.01	487.96
542.37	492.55
542.72	497.08
543.08	501.54
543.44	506.32
543.79	510.87
544.15	515.57
544.51	520.75
544.87	525.44
545.22	530.25
545.58	534.90
545.94	539.93
546.29	544.64
546.65	549.45
547.01	554.22
547.36	559.00
547.72	563.81
548.07	568.59
548.43	573.49
548.79	578.35
549.14	582.89
549.50	587.50
549.86	592.12
550.21	597.15
550.57	601.87
550.92	606.63
551.28	611.58
551.64	616.32
551.99	620.98
552.35	625.87
552.70	630.62
553.06	635.63
553.41	640.35
553.77	645.30
554.13	650.25
554.48	655.13
554.84	660.22
555.19	665.05
555.55	670.06
555.90	674.76
556.26	679.71
556.61	684.58
556.97	689.28
557.32	694.00
557.68	698.64
558.03	703.38
558.39	708.04
558.74	712.70
559.10	717.50
559.45	722.20
559.81	726.74
560.16	731.50
560.52	735.97
560.87	740.62
561.23	745.06
561.58	749.56
561.94	753.94
562.29	758.13
562.64	762.30
563.00	766.58
563.35	770.85
563.71	775.15
564.06	779.59
564.42	783.81
564.77	788.12
565.12	792.33
565.48	796.55
565.83	800.66
566.19	804.54
566.54	808.22
566.89	811.77
567.25	815.51
567.60	819.52
567.96	823.20
568.31	826.86
568.66	830.48
569.02	833.79
569.37	837.16
569.72	840.42
570.08	843.44
570.43	846.31
570.78	849.38
571.14	852.00
571.49	854.69
571.84	857.85
572.20	860.65
572.55	863.16
572.90	865.57
573.26	868.14
573.61	870.51
573.96	872.90
574.31	875.03
574.67	877.02
575.02	878.43
575.37	880.51
575.72	882.12
576.08	883.80
576.43	885.76
576.78	887.34
577.13	889.04
577.49	891.10
577.84	892.57
578.19	894.06
578.54	895.68
578.90	897.05
579.25	897.83
579.60	898.73
579.95	899.90
580.30	900.99
580.66	901.70
581.01	902.60
581.36	903.60
581.71	904.63
582.06	905.50
582.42	906.21
582.77	906.41
583.12	907.26
583.47	908.04
583.82	908.61
584.17	909.12
584.53	909.66
584.88	909.90
585.23	910.33
585.58	910.90
585.93	911.14
586.28	911.50
586.63	911.82
586.98	912.27
587.34	912.42
587.69	912.55
588.04	913.05
588.39	913.18
588.74	912.63
589.09	912.40
589.44	912.10
589.79	912.18
590.14	912.47
590.49	911.95
590.84	911.76
591.19	911.45
591.54	910.83
591.89	909.65
592.25	909.18
592.60	908.48
592.95	907.38
593.30	906.38
593.65	905.36
594.00	904.66
594.35	904.05
594.70	902.70
595.05	901.96
595.40	900.40
595.75	899.18
596.10	898.53
596.45	897.58
596.80	896.69
597.15	895.64
597.50	894.20
597.85	893.50
598.19	892.37
598.54	891.17
598.89	890.04
599.24	889.39
599.59	888.10
599.94	886.97
600.29	885.80
600.64	884.76
600.99	883.50
601.34	882.14
601.69	880.44
602.04	879.24
602.39	877.58
602.74	876.56
603.08	875.40
603.43	874.18
603.78	872.89
604.13	871.28
604.48	869.63
604.83	868.15
605.18	866.55
605.53	864.59
605.87	862.50
606.22	860.87
606.57	859.09
606.92	857.30
607.27	855.38
607.62	853.57
607.96	851.59
608.31	849.73
608.66	847.47
609.01	845.08
609.36	842.93
609.70	840.57
610.05	838.20
610.40	835.88
610.75	833.19
611.10	830.68
611.44	827.82
611.79	825.48
612.14	822.80
612.49	819.69
612.83	817.17
613.18	814.56
613.53	811.84
613.88	808.80
614.22	806.28
614.57	803.53
614.92	800.95
615.27	798.58
615.61	795.54
615.96	792.96
616.31	790.74
616.65	788.28
617.00	785.62
617.35	782.90
617.70	780.11
618.04	777.40
618.39	774.81
618.74	772.64
619.08	769.69
619.43	767.11
619.78	764.47
620.12	761.74
620.47	759.22
620.82	756.49
621.16	754.13
621.51	751.30
621.85	748.86
622.20	745.81
622.55	742.87
622.89	740.53
623.24	738.00
623.59	735.32
623.93	732.87
624.28	730.45
624.62	727.91
624.97	725.44
625.32	722.96
625.66	720.36
626.01	717.71
626.35	715.32
626.70	712.85
627.04	710.55
627.39	707.91
627.73	705.26
628.08	702.87
628.43	700.29
628.77	697.66
629.12	694.61
629.46	692.20
629.81	689.38
630.15	686.53
630.50	683.57
630.84	680.60
631.19	677.47
631.53	674.42
631.88	671.40
632.22	668.37
632.57	665.68
632.91	662.69
633.26	659.81
633.60	656.87
633.95	654.06
634.29	651.36
634.64	648.90
634.98	646.06
635.32	643.38
635.67	640.74
636.01	638.04
636.36	635.65
636.70	633.42
637.05	630.98
637.39	628.51
637.73	626.24
638.08	624.18
638.42	622.18
638.77	619.95
639.11	617.53
639.45	615.28
639.80	612.72
640.14	610.12
640.49	607.74
640.83	605.40
641.17	603.10
641.52	600.54
641.86	597.65
642.20	595.45
642.55	592.75
642.89	590.26
643.23	587.72
643.58	585.46
643.92	582.43
644.26	579.95
644.61	577.65
644.95	575.20
645.29	572.27
645.64	569.34
645.98	566.86
646.32	564.52
646.66	561.82
647.01	559.10
647.35	557.05
647.69	554.72
648.04	552.38
648.38	549.61
648.72	546.99
649.06	544.45
649.41	541.84
649.75	539.31
650.09	536.58
650.43	534.02
650.78	531.25
651.12	528.80
651.46	526.35
651.80	523.79
652.14	521.18
652.49	518.82
652.83	516.44
653.17	513.73
653.51	511.14
653.85	508.69
654.20	506.45
654.54	503.51
654.88	500.71
655.22	497.90
655.56	495.41
655.90	493.05
656.25	491.04
656.59	488.67
656.93	486.44
657.27	484.38
657.61	481.99
657.95	479.83
658.29	477.73
658.64	475.44
658.98	472.94
659.32	470.51
659.66	468.21
660.00	466.00
660.34	463.73
660.68	461.56
661.02	459.29
661.36	457.22
661.70	455.29
662.05	453.26
662.39	451.42
662.73	449.38
663.07	447.33
663.41	445.28
663.75	443.24
664.09	441.17
664.43	438.96
664.77	437.14
665.11	435.08
665.45	433.24
665.79	431.27
666.13	429.40
666.47	427.75
666.81	425.77
667.15	423.74
667.49	422.09
667.83	420.35
668.17	418.44
668.51	416.52
668.85	414.74
669.19	413.22
669.53	411.38
669.87	409.71
670.21	408.09
670.55	406.35
670.89	404.99
671.23	403.61
671.57	402.17
671.91	400.71
672.25	399.12
672.58	397.34
672.92	395.85
673.26	394.42
673.60	392.90
673.94	391.50
674.28	390.35
674.62	389.10
674.96	387.62
675.30	386.46
675.64	385.10
675.97	383.81
676.31	382.31
676.65	380.98
676.99	379.75
677.33	378.27
677.67	376.89
678.01	375.25
678.34	373.76
678.68	372.30
679.02	370.89
679.36	369.57
679.70	368.25
680.04	366.93
680.37	365.63
680.71	364.36
681.05	363.34
681.39	361.98
681.73	360.70
682.06	359.59
682.40	358.41
682.74	357.21
683.08	356.00
683.42	354.81
683.75	353.65
684.09	352.40
684.43	351.41
684.77	350.23
685.10	349.11
685.44	348.08
685.78	347.00
686.12	345.89
686.45	344.79
686.79	343.73
687.13	342.64
687.46	341.61
687.80	340.34
688.14	339.01
688.48	337.90
688.81	336.75
689.15	335.50
689.49	334.30
689.82	333.21
690.16	331.98
690.50	330.83
690.83	329.79
691.17	328.67
691.51	327.57
691.84	326.61
692.18	325.60
692.52	324.34
692.85	323.23
693.19	322.18
693.52	321.11
693.86	320.08
694.20	319.07
694.53	317.99
694.87	317.02
695.21	316.10
695.54	314.99
695.88	313.87
696.21	312.81
696.55	311.81
696.88	310.81
697.22	310.06
697.56	309.26
697.89	308.38
698.23	307.37
698.56	306.37
698.90	305.46
699.23	304.44
699.57	303.51
699.90	302.78
700.24	301.95
700.58	301.16
700.91	300.35
701.25	299.64
701.58	298.91
701.92	298.10
702.25	297.24
702.59	296.63
702.92	295.93
703.26	295.35
703.59	294.78
703.93	294.19
704.26	293.36
704.60	292.55
704.93	291.86
705.26	291.22
705.60	290.61
705.93	289.89
706.27	289.25
706.60	288.80
706.94	288.21
707.27	287.48
707.61	286.79
707.94	286.16
708.27	285.40
708.61	284.79
708.94	284.25
709.28	283.70
709.61	283.05
709.94	282.59
710.28	282.03
710.61	281.52
710.95	280.81
711.28	280.36
711.61	279.77
711.95	279.16
712.28	278.66
712.61	278.11
712.95	277.63
713.28	277.23
713.61	276.73
713.95	276.02
714.28	275.56
714.61	275.17
714.95	274.80
715.28	274.30
715.61	273.67
715.95	273.27
716.28	272.80
716.61	272.30
716.95	271.73
717.28	271.35
717.61	270.79
717.94	270.42
718.28	269.79
718.61	269.51
718.94	269.10
719.27	268.60
719.61	268.23
719.94	267.87
720.27	267.32
720.60	266.95
720.94	266.66
721.27	266.26
721.60	265.88
721.93	265.40
722.27	265.10
722.60	264.75
722.93	264.25
723.26	263.92
723.59	263.56
723.93	263.31
724.26	262.80
724.59	262.40
724.92	262.03
725.25	261.79
725.59	261.35
725.92	261.08
726.25	260.80
726.58	260.41
726.91	260.04
727.24	259.80
727.57	259.39
727.91	259.09
728.24	258.85
728.57	258.53
728.90	258.21
729.23	257.79
729.56	257.59
729.89	257.34
730.22	256.94
730.55	256.65
730.89	256.30
731.22	256.04
731.55	255.64
731.88	255.26
732.21	254.93
732.54	254.53
732.87	254.25
733.20	253.96
733.53	253.66
733.86	253.41
734.19	253.09
734.52	252.80
734.85	252.60
735.18	252.30
735.51	252.04
735.84	251.72
736.17	251.61
736.50	251.29
736.83	251.20
737.16	250.98
737.49	250.79
737.82	250.48
738.15	250.29
738.48	250.06
738.81	249.98
739.14	249.77
739.47	249.58
739.80	249.29
740.13	249.10
740.46	248.89
740.79	248.64
741.12	248.40
741.45	248.16
741.78	247.80
742.11	247.52
742.44	247.21
742.77	247.16
743.10	246.86
743.43	246.68
743.75	246.38
744.08	246.47
744.41	246.16
744.74	245.89
745.07	245.64
745.40	245.64
745.73	245.42
746.06	245.25
746.39	245.14
746.71	244.89
747.04	244.73
747.37	244.68
747.70	244.44
748.03	244.30
748.36	244.28
748.68	244.19
749.01	244.05
749.34	243.87
749.67	243.65
750.00	243.50
750.33	243.55
750.65	243.36
750.98	242.98
751.31	242.89
751.64	242.77
751.97	242.73
752.29	242.42
752.62	242.24
752.95	242.14
753.28	241.99
753.60	241.85
753.93	241.69
754.26	241.52
754.59	241.39
754.91	241.15
755.24	240.93
755.57	240.78
755.90	240.63
756.22	240.53
756.55	240.45
756.88	240.34
757.20	240.00
757.53	239.88
757.86	239.77
758.19	239.77
758.51	239.86
758.84	239.68
759.17	239.57
759.49	239.51
759.82	239.39
760.15	239.33
760.47	239.20
760.80	239.01
761.13	238.93
761.45	238.82
761.78	238.84
762.11	238.76
762.43	238.64
762.76	238.59
763.08	238.40
763.41	238.29
763.74	238.27
764.06	238.16
764.39	237.98
764.71	237.85
765.04	237.67
765.37	237.41
765.69	237.36
766.02	237.36
766.34	237.21
766.67	237.03
767.00	236.99
767.32	237.12
767.65	237.28
767.97	237.11
768.30	237.00
768.62	236.99
768.95	236.88
769.27	236.86
769.60	236.76
769.92	236.79
770.25	236.59
770.57	236.44
770.90	236.36
771.22	236.31
771.55	236.26
771.87	236.13
772.20	236.01
772.52	236.01
772.85	236.11
773.17	236.01
773.50	236.03
773.82	235.89
774.15	235.64
774.47	235.39
774.80	235.29
775.12	235.26
775.45	235.12
775.77	234.98
776.09	234.83
776.42	234.71
776.74	234.69
777.07	234.68
777.39	234.59
777.72	234.54
778.04	234.54
778.36	234.37
778.69	234.33
779.01	234.20
779.33	233.90
779.66	233.60
779.98	233.55
780.31	233.42
780.63	233.41
780.95	233.43
781.28	233.34
781.60	233.30
781.92	233.28
782.25	233.17
782.57	233.04
782.89	233.04
783.22	233.06
783.54	232.99
783.86	232.91
784.19	232.83
784.51	232.72
784.83	232.50
785.16	232.52
785.48	232.44
785.80	232.48
786.12	232.61
786.45	232.53
786.77	232.48
787.09	232.45
787.42	232.31
787.74	232.20
788.06	232.17
788.38	232.19
788.71	232.06
789.03	232.05
789.35	232.10
789.67	232.01
789.99	231.88
790.32	231.80
790.64	231.79
790.96	231.90
791.28	231.79
791.61	231.79
791.93	231.67
792.25	231.57
792.57	231.67
792.89	231.54
793.21	231.47
793.54	231.38
793.86	231.22
794.18	231.25
