SpectraSuite Data File
++++++++++++++++++++++++++++++++++++
Date: Fri Feb 01 14:35:48 EST 2013
User: group
Dark Spectrum Present: No
Reference Spectrum Present: No
Number of Sampled Component Spectra: 1
Spectrometers: USB2E7196
Integration Time (usec): 70000 (USB2E7196)
Spectra Averaged: 10 (USB2E7196)
Boxcar Smoothing: 10 (USB2E7196)
Correct for Electrical Dark: No (USB2E7196)
Strobe/Lamp Enabled: No (USB2E7196)
Correct for Detector Non-linearity: No (USB2E7196)
Correct for Stray Light: No (USB2E7196)
Number of Pixels in Processed Spectrum: 2048
>>>>>Begin Processed Spectral Data<<<<<
339.09	0.00
339.48	215.10
339.86	215.60
340.24	219.40
340.63	218.30
341.01	223.20
341.39	222.30
341.78	225.70
342.16	226.30
342.54	225.90
342.93	214.34
343.31	225.19
343.69	225.82
344.07	226.28
344.46	226.70
344.84	227.18
345.22	227.44
345.60	227.68
345.99	227.82
346.37	227.91
346.75	228.06
347.13	228.25
347.52	228.40
347.90	228.47
348.28	228.42
348.66	228.40
349.05	228.34
349.43	228.46
349.81	228.45
350.19	228.38
350.57	228.38
350.96	228.48
351.34	228.49
351.72	228.46
352.10	228.60
352.48	228.62
352.87	228.65
353.25	228.71
353.63	228.81
354.01	228.92
354.39	229.01
354.77	229.10
355.15	229.16
355.54	229.19
355.92	229.13
356.30	229.25
356.68	229.50
357.06	229.54
357.44	229.59
357.82	229.71
358.20	229.92
358.58	230.11
358.97	230.19
359.35	230.31
359.73	230.44
360.11	230.54
360.49	230.61
360.87	230.70
361.25	230.72
361.63	230.86
362.01	230.90
362.39	230.91
362.77	230.84
363.15	230.80
363.53	230.85
363.91	230.84
364.29	230.91
364.67	230.70
365.05	230.73
365.43	230.80
365.81	230.88
366.19	230.95
366.57	230.88
366.95	230.88
367.33	230.86
367.71	230.78
368.09	230.77
368.47	230.69
368.85	230.69
369.23	230.73
369.61	230.61
369.99	230.55
370.37	230.57
370.75	230.73
371.13	230.70
371.51	230.62
371.89	230.66
372.27	230.54
372.65	230.50
373.03	230.37
373.41	230.19
373.78	230.04
374.16	229.83
374.54	229.74
374.92	229.64
375.30	229.54
375.68	229.61
376.06	229.50
376.44	229.47
376.82	229.39
377.19	229.27
377.57	229.20
377.95	229.13
378.33	228.99
378.71	228.67
379.09	228.55
379.47	228.40
379.84	228.30
380.22	228.24
380.60	228.19
380.98	228.18
381.36	228.06
381.73	227.98
382.11	227.98
382.49	227.96
382.87	227.79
383.25	227.71
383.62	227.74
384.00	227.73
384.38	227.70
384.76	227.67
385.13	227.71
385.51	227.55
385.89	227.42
386.27	227.34
386.64	227.40
387.02	227.41
387.40	227.40
387.78	227.36
388.15	227.33
388.53	227.28
388.91	227.16
389.29	227.23
389.66	227.21
390.04	227.13
390.42	227.12
390.79	227.07
391.17	227.15
391.55	226.94
391.92	226.92
392.30	226.95
392.68	226.90
393.05	226.88
393.43	227.00
393.81	227.00
394.18	227.00
394.56	227.04
394.94	227.10
395.31	227.16
395.69	227.37
396.06	227.42
396.44	227.49
396.82	227.67
397.19	227.89
397.57	227.98
397.95	228.09
398.32	228.13
398.70	228.36
399.07	228.43
399.45	228.53
399.82	228.72
400.20	228.87
400.58	228.96
400.95	229.03
401.33	229.26
401.70	229.55
402.08	229.82
402.45	229.99
402.83	230.20
403.20	230.32
403.58	230.37
403.95	230.62
404.33	230.80
404.71	231.02
405.08	231.25
405.46	231.51
405.83	231.78
406.21	232.10
406.58	232.29
406.96	232.60
407.33	233.04
407.70	233.40
408.08	233.91
408.45	234.35
408.83	234.87
409.20	235.34
409.58	235.78
409.95	236.24
410.33	236.71
410.70	237.22
411.08	237.93
411.45	238.61
411.82	239.35
412.20	240.16
412.57	241.05
412.95	241.72
413.32	242.62
413.69	243.51
414.07	244.46
414.44	245.63
414.82	246.70
415.19	247.92
415.56	248.98
415.94	250.21
416.31	251.76
416.68	253.19
417.06	254.72
417.43	256.23
417.81	258.13
418.18	260.00
418.55	262.04
418.93	264.18
419.30	266.34
419.67	268.45
420.04	270.70
420.42	273.08
420.79	275.90
421.16	278.75
421.54	281.81
421.91	284.85
422.28	288.04
422.66	291.50
423.03	294.69
423.40	298.08
423.77	301.65
424.15	305.20
424.52	309.08
424.89	313.35
425.26	317.45
425.64	321.16
426.01	325.40
426.38	329.75
426.75	334.20
427.13	338.76
427.50	343.62
427.87	348.70
428.24	353.82
428.61	358.46
428.99	363.57
429.36	369.21
429.73	374.74
430.10	380.23
430.47	385.94
430.85	391.74
431.22	398.06
431.59	404.72
431.96	411.03
432.33	418.08
432.70	424.58
433.08	432.40
433.45	439.80
433.82	447.14
434.19	455.49
434.56	463.41
434.93	471.00
435.30	478.52
435.68	486.88
436.05	495.03
436.42	503.27
436.79	510.91
437.16	519.04
437.53	527.61
437.90	536.15
438.27	544.33
438.64	553.00
439.01	561.04
439.38	568.21
439.75	575.14
440.13	582.72
440.50	590.38
440.87	596.75
441.24	603.37
441.61	610.50
441.98	615.68
442.35	621.92
442.72	628.48
443.09	634.84
443.46	638.88
443.83	641.70
444.20	644.46
444.57	648.03
444.94	650.11
445.31	652.19
445.68	654.20
446.05	655.77
446.42	655.88
446.79	655.74
447.16	655.59
447.53	655.86
447.90	653.80
448.27	651.64
448.64	648.14
449.01	645.89
449.37	641.28
449.74	636.63
450.11	631.10
450.48	624.89
450.85	618.49
451.22	613.15
451.59	608.28
451.96	603.62
452.33	596.70
452.70	590.44
453.07	582.97
453.43	575.33
453.80	567.81
454.17	560.60
454.54	553.84
454.91	546.41
455.28	539.14
455.65	532.40
456.02	525.42
456.38	519.53
456.75	512.15
457.12	505.87
457.49	499.76
457.86	493.66
458.23	488.60
458.59	482.98
458.96	477.10
459.33	471.86
459.70	466.55
460.07	462.49
460.43	457.72
460.80	453.14
461.17	449.18
461.54	444.98
461.91	441.01
462.27	436.99
462.64	433.34
463.01	429.42
463.38	425.62
463.74	421.94
464.11	418.54
464.48	415.49
464.85	412.29
465.21	409.87
465.58	407.30
465.95	403.91
466.32	401.26
466.68	398.65
467.05	395.99
467.42	393.30
467.78	390.36
468.15	387.64
468.52	385.78
468.88	383.12
469.25	380.77
469.62	378.86
469.98	376.75
470.35	374.82
470.72	372.94
471.08	371.03
471.45	369.30
471.82	367.60
472.18	365.86
472.55	364.51
472.92	362.97
473.28	361.55
473.65	360.26
474.02	358.75
474.38	357.60
474.75	356.62
475.11	355.51
475.48	354.75
475.85	354.00
476.21	353.06
476.58	352.36
476.94	351.74
477.31	350.98
477.67	350.31
478.04	349.81
478.41	349.49
478.77	349.17
479.14	348.74
479.50	348.48
479.87	348.30
480.23	348.19
480.60	347.86
480.96	347.54
481.33	347.60
481.69	347.67
482.06	347.57
482.42	347.42
482.79	347.41
483.15	347.57
483.52	347.90
483.88	348.10
484.25	348.39
484.61	348.62
484.98	349.17
485.34	349.65
485.71	350.19
486.07	350.75
486.44	351.36
486.80	351.98
487.17	352.57
487.53	353.40
487.90	354.31
488.26	355.49
488.62	356.66
488.99	357.64
489.35	358.69
489.72	359.88
490.08	361.22
490.44	362.36
490.81	363.61
491.17	364.87
491.54	366.47
491.90	367.89
492.26	369.50
492.63	371.00
492.99	372.74
493.36	374.43
493.72	376.30
494.08	377.94
494.45	379.80
494.81	381.84
495.17	383.71
495.54	385.60
495.90	387.36
496.26	389.40
496.63	391.39
496.99	393.45
497.35	395.67
497.72	397.83
498.08	399.92
498.44	402.26
498.80	404.65
499.17	406.75
499.53	409.14
499.89	411.50
500.26	413.84
500.62	415.86
500.98	418.17
501.34	420.39
501.71	422.80
502.07	425.12
502.43	427.27
502.79	429.54
503.16	431.80
503.52	434.12
503.88	436.09
504.24	438.20
504.60	440.32
504.97	442.28
505.33	444.32
505.69	446.85
506.05	448.79
506.41	450.55
506.78	452.37
507.14	454.10
507.50	455.80
507.86	457.72
508.22	459.74
508.59	461.30
508.95	462.93
509.31	464.50
509.67	466.14
510.03	467.69
510.39	469.17
510.75	470.61
511.12	472.02
511.48	473.52
511.84	474.90
512.20	476.29
512.56	477.70
512.92	478.91
513.28	479.79
513.64	480.76
514.00	481.70
514.37	482.74
514.73	483.60
515.09	484.67
515.45	485.34
515.81	486.07
516.17	487.04
516.53	487.82
516.89	488.45
517.25	488.97
517.61	489.64
517.97	490.12
518.33	490.60
518.69	491.28
519.05	491.77
519.41	492.44
519.77	493.12
520.13	493.70
520.49	494.19
520.85	494.86
521.21	495.52
521.57	496.29
521.93	496.84
522.29	497.66
522.65	498.10
523.01	498.57
523.37	499.17
523.73	499.74
524.09	500.23
524.45	500.99
524.81	501.94
525.17	502.59
525.53	503.57
525.89	504.48
526.25	505.33
526.61	506.15
526.97	507.13
527.33	507.86
527.68	508.80
528.04	509.82
528.40	510.72
528.76	512.04
529.12	513.31
529.48	514.74
529.84	515.94
530.20	517.16
530.56	518.82
530.91	520.31
531.27	521.74
531.63	523.40
531.99	525.10
532.35	526.74
532.71	528.51
533.07	530.32
533.42	532.19
533.78	534.03
534.14	536.27
534.50	538.11
534.86	540.35
535.21	542.38
535.57	544.44
535.93	546.68
536.29	548.90
536.65	551.12
537.00	553.54
537.36	556.16
537.72	558.66
538.08	561.31
538.44	563.81
538.79	566.61
539.15	569.31
539.51	572.09
539.87	574.95
540.22	578.07
540.58	581.26
540.94	584.12
541.29	587.00
541.65	589.86
542.01	593.06
542.37	596.15
542.72	599.41
543.08	602.77
543.44	606.09
543.79	608.99
544.15	612.47
544.51	615.74
544.87	619.12
545.22	622.81
545.58	626.03
545.94	629.48
546.29	633.03
546.65	636.56
547.01	639.96
547.36	643.18
547.72	646.31
548.07	649.40
548.43	652.98
548.79	656.76
549.14	660.30
549.50	663.54
549.86	667.00
550.21	670.36
550.57	673.95
550.92	677.43
551.28	681.18
551.64	684.49
551.99	688.18
552.35	691.61
552.70	695.14
553.06	698.85
553.41	702.57
553.77	706.03
554.13	709.59
554.48	713.49
554.84	717.46
555.19	721.19
555.55	725.00
555.90	728.49
556.26	731.94
556.61	735.56
556.97	739.48
557.32	743.25
557.68	746.96
558.03	750.46
558.39	754.03
558.74	757.87
559.10	761.83
559.45	765.40
559.81	769.28
560.16	773.01
560.52	776.26
560.87	779.88
561.23	783.35
561.58	786.98
561.94	790.20
562.29	793.26
562.64	796.51
563.00	799.78
563.35	803.35
563.71	806.87
564.06	810.30
564.42	813.62
564.77	816.91
565.12	820.30
565.48	823.73
565.83	826.92
566.19	830.07
566.54	832.93
566.89	835.85
567.25	838.92
567.60	841.78
567.96	844.61
568.31	847.46
568.66	850.23
569.02	852.80
569.37	855.20
569.72	857.93
570.08	860.58
570.43	863.01
570.78	865.46
571.14	867.63
571.49	869.77
571.84	872.15
572.20	873.97
572.55	875.67
572.90	877.52
573.26	879.47
573.61	881.16
573.96	882.78
574.31	884.28
574.67	885.00
575.02	886.14
575.37	887.75
575.72	888.61
576.08	889.85
576.43	891.29
576.78	892.64
577.13	893.88
577.49	895.13
577.84	896.06
578.19	896.80
578.54	897.64
578.90	898.42
579.25	898.79
579.60	899.50
579.95	899.98
580.30	900.16
580.66	900.44
581.01	900.86
581.36	901.32
581.71	901.79
582.06	902.38
582.42	902.67
582.77	902.88
583.12	903.40
583.47	903.66
583.82	903.78
584.17	903.53
584.53	903.26
584.88	902.97
585.23	903.23
585.58	903.33
585.93	903.19
586.28	902.93
586.63	902.90
586.98	902.83
587.34	902.90
587.69	903.07
588.04	903.06
588.39	902.55
588.74	901.72
589.09	901.02
589.44	900.39
589.79	899.75
590.14	899.25
590.49	898.36
590.84	897.58
591.19	896.55
591.54	895.48
591.89	894.32
592.25	893.53
592.60	891.77
592.95	890.27
593.30	888.98
593.65	887.56
594.00	885.94
594.35	885.00
594.70	883.48
595.05	882.03
595.40	880.19
595.75	878.62
596.10	877.54
596.45	876.28
596.80	875.25
597.15	873.86
597.50	872.04
597.85	870.90
598.19	869.60
598.54	868.05
598.89	867.03
599.24	865.89
599.59	864.28
599.94	863.01
600.29	861.40
600.64	859.75
600.99	857.97
601.34	856.24
601.69	853.89
602.04	852.25
602.39	850.48
602.74	849.03
603.08	847.75
603.43	846.13
603.78	844.41
604.13	842.26
604.48	840.40
604.83	838.90
605.18	836.79
605.53	834.59
605.87	832.59
606.22	830.58
606.57	828.55
606.92	826.62
607.27	824.72
607.62	823.02
607.96	821.20
608.31	819.60
608.66	817.51
609.01	815.26
609.36	812.68
609.70	809.75
610.05	807.21
610.40	804.37
610.75	801.64
611.10	798.91
611.44	796.30
611.79	793.82
612.14	791.07
612.49	788.23
612.83	785.37
613.18	782.50
613.53	779.58
613.88	776.84
614.22	774.01
614.57	771.03
614.92	768.07
615.27	765.38
615.61	762.33
615.96	759.72
616.31	757.25
616.65	755.22
617.00	753.09
617.35	750.48
617.70	747.98
618.04	745.28
618.39	742.70
618.74	740.05
619.08	737.18
619.43	734.52
619.78	732.06
620.12	729.56
620.47	726.82
620.82	724.09
621.16	721.19
621.51	718.51
621.85	716.07
622.20	713.60
622.55	710.75
622.89	708.39
623.24	705.81
623.59	703.37
623.93	700.77
624.28	698.24
624.62	695.73
624.97	693.18
625.32	690.87
625.66	688.39
626.01	686.00
626.35	683.64
626.70	681.09
627.04	678.53
627.39	675.96
627.73	673.75
628.08	671.39
628.43	669.09
628.77	666.46
629.12	663.81
629.46	660.86
629.81	658.07
630.15	655.25
630.50	652.50
630.84	649.54
631.19	646.44
631.53	643.40
631.88	640.43
632.22	637.44
632.57	634.69
632.91	631.83
633.26	628.93
633.60	626.02
633.95	623.25
634.29	620.75
634.64	618.31
634.98	615.51
635.32	613.03
635.67	610.30
636.01	607.78
636.36	605.38
636.70	603.15
637.05	600.78
637.39	598.53
637.73	596.16
638.08	594.20
638.42	591.96
638.77	590.08
639.11	587.91
639.45	585.55
639.80	583.00
640.14	580.60
640.49	578.30
640.83	576.03
641.17	573.80
641.52	571.26
641.86	568.66
642.20	566.42
642.55	564.03
642.89	561.90
643.23	559.53
643.58	557.32
643.92	554.85
644.26	552.49
644.61	549.95
644.95	547.59
645.29	544.71
645.64	542.25
645.98	539.60
646.32	537.22
646.66	535.05
647.01	532.78
647.35	530.62
647.69	528.49
648.04	526.37
648.38	523.91
648.72	521.40
649.06	518.91
649.41	516.40
649.75	513.77
650.09	511.18
650.43	508.64
650.78	506.00
651.12	503.48
651.46	501.12
651.80	499.02
652.14	496.72
652.49	494.59
652.83	492.32
653.17	489.87
653.51	487.51
653.85	485.16
654.20	482.78
654.54	480.35
654.88	477.90
655.22	475.28
655.56	472.99
655.90	471.03
656.25	469.11
656.59	467.04
656.93	465.01
657.27	463.04
657.61	461.03
657.95	459.17
658.29	457.26
658.64	455.29
658.98	453.01
659.32	450.92
659.66	448.99
660.00	447.05
660.34	445.28
660.68	443.34
661.02	441.38
661.36	439.54
661.70	437.81
662.05	436.09
662.39	434.65
662.73	432.89
663.07	431.06
663.41	429.23
663.75	427.45
664.09	425.77
664.43	424.06
664.77	422.44
665.11	420.48
665.45	418.59
665.79	416.88
666.13	415.25
666.47	413.52
666.81	411.66
667.15	409.93
667.49	408.12
667.83	406.73
668.17	405.07
668.51	403.38
668.85	401.69
669.19	400.04
669.53	398.37
669.87	396.73
670.21	395.13
670.55	393.65
670.89	392.34
671.23	391.01
671.57	389.52
671.91	387.91
672.25	386.53
672.58	385.25
672.92	383.78
673.26	382.46
673.60	381.19
673.94	379.91
674.28	378.41
674.62	377.16
674.96	375.66
675.30	374.37
675.64	373.20
675.97	371.94
676.31	370.70
676.65	369.41
676.99	368.28
677.33	366.99
677.67	365.62
678.01	364.26
678.34	362.90
678.68	361.63
679.02	360.52
679.36	359.32
679.70	358.11
680.04	356.95
680.37	355.62
680.71	354.44
681.05	353.24
681.39	352.37
681.73	351.31
682.06	350.23
682.40	349.15
682.74	347.94
683.08	346.78
683.42	345.59
683.75	344.44
684.09	343.10
684.43	342.05
684.77	341.06
685.10	339.93
685.44	338.88
685.78	337.75
686.12	336.55
686.45	335.45
686.79	334.41
687.13	333.30
687.46	332.23
687.80	331.18
688.14	330.11
688.48	329.00
688.81	327.95
689.15	326.91
689.49	325.79
689.82	324.70
690.16	323.71
690.50	322.85
690.83	321.81
691.17	320.87
691.51	319.79
691.84	318.80
692.18	317.73
692.52	316.59
692.85	315.66
693.19	314.88
693.52	314.03
693.86	313.02
694.20	312.15
694.53	311.30
694.87	310.32
695.21	309.44
695.54	308.48
695.88	307.52
696.21	306.61
696.55	305.88
696.88	305.09
697.22	304.26
697.56	303.40
697.89	302.56
698.23	301.93
698.56	301.16
698.90	300.25
699.23	299.42
699.57	298.78
699.90	298.04
700.24	297.16
700.58	296.33
700.91	295.74
701.25	295.09
701.58	294.41
701.92	293.72
702.25	293.04
702.59	292.26
702.92	291.57
703.26	290.97
703.59	290.37
703.93	289.90
704.26	289.22
704.60	288.57
704.93	288.06
705.26	287.39
705.60	286.94
705.93	286.46
706.27	286.01
706.60	285.42
706.94	284.82
707.27	284.25
707.61	283.68
707.94	283.01
708.27	282.34
708.61	281.80
708.94	281.21
709.28	280.69
709.61	280.26
709.94	279.87
710.28	279.17
710.61	278.58
710.95	277.91
711.28	277.59
711.61	277.01
711.95	276.57
712.28	276.00
712.61	275.34
712.95	274.89
713.28	274.42
713.61	273.92
713.95	273.43
714.28	273.00
714.61	272.53
714.95	272.23
715.28	271.78
715.61	271.20
715.95	270.77
716.28	270.29
716.61	269.78
716.95	269.20
717.28	268.97
717.61	268.57
717.94	268.10
718.28	267.54
718.61	267.10
718.94	266.56
719.27	266.16
719.61	265.88
719.94	265.42
720.27	264.94
720.60	264.60
720.94	264.20
721.27	263.87
721.60	263.55
721.93	263.05
722.27	262.81
722.60	262.47
722.93	262.14
723.26	261.86
723.59	261.53
723.93	261.21
724.26	260.76
724.59	260.40
724.92	260.11
725.25	259.79
725.59	259.51
725.92	259.23
726.25	258.96
726.58	258.51
726.91	258.21
727.24	257.93
727.57	257.61
727.91	257.29
728.24	256.91
728.57	256.62
728.90	256.30
729.23	255.89
729.56	255.68
729.89	255.39
730.22	255.04
730.55	254.74
730.89	254.50
731.22	254.27
731.55	253.99
731.88	253.70
732.21	253.46
732.54	253.06
732.87	252.77
733.20	252.43
733.53	252.29
733.86	252.00
734.19	251.72
734.52	251.38
734.85	251.22
735.18	250.99
735.51	250.75
735.84	250.58
736.17	250.35
736.50	250.13
736.83	250.15
737.16	249.82
737.49	249.58
737.82	249.30
738.15	249.09
738.48	248.81
738.81	248.55
739.14	248.29
739.47	248.14
739.80	247.93
740.13	247.80
740.46	247.50
740.79	247.29
741.12	247.07
741.45	246.94
741.78	246.80
742.11	246.64
742.44	246.36
742.77	246.25
743.10	246.02
743.43	245.75
743.75	245.32
744.08	245.55
744.41	245.38
744.74	245.28
745.07	245.00
745.40	244.94
745.73	244.84
746.06	244.68
746.39	244.49
746.71	244.34
747.04	244.09
747.37	244.04
747.70	243.94
748.03	243.80
748.36	243.70
748.68	243.43
749.01	243.25
749.34	243.23
749.67	243.09
750.00	243.07
750.33	243.10
750.65	243.01
750.98	242.62
751.31	242.50
751.64	242.31
751.97	242.33
752.29	242.27
752.62	242.07
752.95	241.90
753.28	241.83
753.60	241.63
753.93	241.62
754.26	241.40
754.59	241.22
754.91	241.10
755.24	240.96
755.57	240.86
755.90	240.78
756.22	240.52
756.55	240.39
756.88	240.10
757.20	239.92
757.53	239.70
757.86	239.51
758.19	239.42
758.51	239.30
758.84	239.12
759.17	238.90
759.49	238.86
759.82	238.84
760.15	238.74
760.47	238.63
760.80	238.38
761.13	238.32
761.45	238.26
761.78	238.17
762.11	237.96
762.43	237.75
762.76	237.62
763.08	237.60
763.41	237.44
763.74	237.44
764.06	237.27
764.39	237.14
764.71	237.05
765.04	236.88
765.37	236.82
765.69	236.66
766.02	236.54
766.34	236.41
766.67	236.28
767.00	236.29
767.32	236.32
767.65	236.47
767.97	236.31
768.30	236.21
768.62	236.09
768.95	236.08
769.27	236.05
769.60	235.97
769.92	235.79
770.25	235.52
770.57	235.34
770.90	235.18
771.22	235.05
771.55	234.96
771.87	234.94
772.20	234.72
772.52	234.82
772.85	234.98
773.17	234.90
773.50	234.76
773.82	234.48
774.15	234.17
774.47	233.85
774.80	233.78
775.12	233.65
775.45	233.51
775.77	233.35
776.09	233.25
776.42	233.04
776.74	233.10
777.07	233.14
777.39	233.08
777.72	232.99
778.04	233.08
778.36	233.01
778.69	232.86
779.01	232.87
779.33	232.69
779.66	232.32
779.98	232.21
780.31	232.10
780.63	232.22
780.95	232.32
781.28	232.22
781.60	232.12
781.92	232.10
782.25	232.20
782.57	232.22
782.89	232.16
783.22	232.18
783.54	232.03
783.86	232.03
784.19	232.02
784.51	232.14
784.83	232.05
785.16	232.08
785.48	232.20
785.80	232.18
786.12	232.18
786.45	232.18
786.77	232.21
787.09	232.20
787.42	232.12
787.74	232.11
788.06	232.14
788.38	232.14
788.71	232.11
789.03	232.00
789.35	232.11
789.67	232.04
789.99	232.09
790.32	232.03
790.64	232.04
790.96	232.18
791.28	232.03
791.61	232.00
791.93	231.96
792.25	231.96
792.57	232.12
792.89	232.09
793.21	232.20
793.54	232.13
793.86	232.12
794.18	232.03
