SpectraSuite Data File
++++++++++++++++++++++++++++++++++++
Date: Fri Feb 01 14:36:13 EST 2013
User: group
Dark Spectrum Present: No
Reference Spectrum Present: No
Number of Sampled Component Spectra: 1
Spectrometers: USB2E7196
Integration Time (usec): 70000 (USB2E7196)
Spectra Averaged: 10 (USB2E7196)
Boxcar Smoothing: 10 (USB2E7196)
Correct for Electrical Dark: No (USB2E7196)
Strobe/Lamp Enabled: No (USB2E7196)
Correct for Detector Non-linearity: No (USB2E7196)
Correct for Stray Light: No (USB2E7196)
Number of Pixels in Processed Spectrum: 2048
>>>>>Begin Processed Spectral Data<<<<<
339.09	0.00
339.48	216.40
339.86	219.10
340.24	219.90
340.63	220.40
341.01	223.80
341.39	224.30
341.78	227.50
342.16	225.60
342.54	226.70
342.93	214.94
343.31	225.81
343.69	226.35
344.07	226.69
344.46	227.03
344.84	227.43
345.22	227.63
345.60	227.84
345.99	227.86
346.37	227.96
346.75	228.00
347.13	228.11
347.52	228.11
347.90	228.15
348.28	228.27
348.66	228.20
349.05	228.25
349.43	228.19
349.81	228.22
350.19	228.22
350.57	228.30
350.96	228.30
351.34	228.26
351.72	228.28
352.10	228.33
352.48	228.45
352.87	228.56
353.25	228.55
353.63	228.50
354.01	228.57
354.39	228.68
354.77	228.71
355.15	228.79
355.54	228.95
355.92	228.95
356.30	228.87
356.68	229.12
357.06	229.03
357.44	229.12
357.82	229.19
358.20	229.37
358.58	229.45
358.97	229.53
359.35	229.72
359.73	229.79
360.11	229.92
360.49	229.95
360.87	229.96
361.25	230.15
361.63	230.37
362.01	230.47
362.39	230.38
362.77	230.59
363.15	230.65
363.53	230.53
363.91	230.56
364.29	230.65
364.67	230.40
365.05	230.59
365.43	230.68
365.81	230.65
366.19	230.69
366.57	230.70
366.95	230.69
367.33	230.63
367.71	230.62
368.09	230.61
368.47	230.56
368.85	230.52
369.23	230.44
369.61	230.33
369.99	230.30
370.37	230.42
370.75	230.38
371.13	230.21
371.51	230.24
371.89	230.19
372.27	230.15
372.65	230.14
373.03	229.97
373.41	229.93
373.78	229.91
374.16	229.82
374.54	229.80
374.92	229.80
375.30	229.74
375.68	229.77
376.06	229.69
376.44	229.73
376.82	229.67
377.19	229.64
377.57	229.44
377.95	229.33
378.33	229.23
378.71	229.00
379.09	228.96
379.47	228.92
379.84	228.81
380.22	228.73
380.60	228.68
380.98	228.61
381.36	228.44
381.73	228.34
382.11	228.27
382.49	228.20
382.87	227.96
383.25	227.87
383.62	227.94
384.00	227.92
384.38	227.69
384.76	227.70
385.13	227.65
385.51	227.66
385.89	227.60
386.27	227.60
386.64	227.57
387.02	227.47
387.40	227.30
387.78	227.24
388.15	227.15
388.53	227.08
388.91	227.00
389.29	226.94
389.66	226.87
390.04	226.83
390.42	226.84
390.79	226.93
391.17	226.87
391.55	226.66
391.92	226.61
392.30	226.72
392.68	226.62
393.05	226.65
393.43	226.63
393.81	226.63
394.18	226.53
394.56	226.58
394.94	226.69
395.31	226.79
395.69	226.94
396.06	227.01
396.44	227.05
396.82	227.09
397.19	227.32
397.57	227.37
397.95	227.36
398.32	227.24
398.70	227.30
399.07	227.48
399.45	227.46
399.82	227.44
400.20	227.41
400.58	227.44
400.95	227.40
401.33	227.62
401.70	227.80
402.08	227.99
402.45	228.17
402.83	228.40
403.20	228.44
403.58	228.50
403.95	228.67
404.33	228.94
404.71	229.18
405.08	229.42
405.46	229.70
405.83	230.01
406.21	230.31
406.58	230.60
406.96	230.79
407.33	231.16
407.70	231.56
408.08	232.20
408.45	232.68
408.83	233.24
409.20	233.59
409.58	233.96
409.95	234.29
410.33	234.74
410.70	235.09
411.08	235.71
411.45	236.36
411.82	237.01
412.20	237.71
412.57	238.61
412.95	239.30
413.32	240.13
413.69	240.96
414.07	241.96
414.44	242.93
414.82	244.05
415.19	245.18
415.56	246.46
415.94	247.51
416.31	248.79
416.68	250.08
417.06	251.65
417.43	253.13
417.81	254.99
418.18	256.68
418.55	258.56
418.93	260.53
419.30	262.44
419.67	264.49
420.04	266.62
420.42	268.88
420.79	271.47
421.16	274.06
421.54	276.82
421.91	279.51
422.28	282.44
422.66	285.40
423.03	288.48
423.40	291.50
423.77	294.84
424.15	298.19
424.52	301.72
424.89	305.56
425.26	309.26
425.64	312.70
426.01	316.53
426.38	320.46
426.75	324.59
427.13	328.78
427.50	333.18
427.87	337.69
428.24	342.22
428.61	346.53
428.99	351.30
429.36	356.49
429.73	361.70
430.10	366.66
430.47	371.86
430.85	377.00
431.22	382.55
431.59	388.56
431.96	394.38
432.33	400.69
432.70	406.75
433.08	413.86
433.45	420.40
433.82	427.00
434.19	434.31
434.56	441.54
434.93	448.63
435.30	455.45
435.68	463.01
436.05	470.41
436.42	477.71
436.79	484.50
437.16	491.62
437.53	499.24
437.90	506.92
438.27	514.17
438.64	522.19
439.01	529.52
439.38	536.05
439.75	542.15
440.13	549.12
440.50	555.72
440.87	561.32
441.24	567.24
441.61	573.59
441.98	578.72
442.35	584.17
442.72	589.78
443.09	595.40
443.46	599.06
443.83	601.50
444.20	603.89
444.57	607.02
444.94	608.90
445.31	610.79
445.68	612.53
446.05	614.03
446.42	614.00
446.79	613.70
447.16	613.40
447.53	613.73
447.90	611.87
448.27	610.09
448.64	606.83
449.01	604.88
449.37	600.60
449.74	596.29
450.11	591.28
450.48	585.48
450.85	579.74
451.22	574.74
451.59	570.21
451.96	565.81
452.33	559.62
452.70	554.10
453.07	547.36
453.43	540.57
453.80	533.77
454.17	527.14
454.54	521.14
454.91	514.40
455.28	507.67
455.65	501.53
456.02	495.23
456.38	489.82
456.75	483.06
457.12	477.57
457.49	471.98
457.86	466.63
458.23	462.25
458.59	457.06
458.96	451.88
459.33	447.22
459.70	442.53
460.07	438.72
460.43	434.28
460.80	430.00
461.17	426.12
461.54	422.30
461.91	418.66
462.27	414.92
462.64	411.77
463.01	408.21
463.38	404.66
463.74	401.08
464.11	398.24
464.48	395.70
464.85	392.78
465.21	390.54
465.58	388.15
465.95	385.20
466.32	382.77
466.68	380.38
467.05	377.98
467.42	375.64
467.78	373.19
468.15	370.79
468.52	369.00
468.88	366.81
469.25	364.82
469.62	363.12
469.98	361.35
470.35	359.54
470.72	358.01
471.08	356.40
471.45	355.01
471.82	353.47
472.18	351.72
472.55	350.66
472.92	349.26
473.28	347.93
473.65	346.76
474.02	345.60
474.38	344.55
474.75	343.64
475.11	342.51
475.48	341.75
475.85	341.00
476.21	340.25
476.58	339.58
476.94	338.90
477.31	338.28
477.67	337.59
478.04	337.07
478.41	336.55
478.77	336.10
479.14	335.43
479.50	335.06
479.87	334.79
480.23	334.46
480.60	334.10
480.96	333.78
481.33	333.64
481.69	333.53
482.06	333.50
482.42	333.30
482.79	333.51
483.15	333.62
483.52	334.01
483.88	334.14
484.25	334.25
484.61	334.45
484.98	334.66
485.34	335.09
485.71	335.50
486.07	335.91
486.44	336.29
486.80	337.13
487.17	337.76
487.53	338.60
487.90	339.30
488.26	340.19
488.62	341.10
488.99	341.78
489.35	342.68
489.72	343.48
490.08	344.50
490.44	345.18
490.81	346.20
491.17	347.12
491.54	348.32
491.90	349.52
492.26	350.75
492.63	352.10
492.99	353.31
493.36	354.63
493.72	356.10
494.08	357.58
494.45	358.85
494.81	360.27
495.17	361.71
495.54	363.37
495.90	365.00
496.26	366.52
496.63	368.31
496.99	369.95
497.35	371.66
497.72	373.44
498.08	375.26
498.44	376.88
498.80	378.77
499.17	380.53
499.53	382.30
499.89	384.20
500.26	385.88
500.62	387.55
500.98	389.42
501.34	391.01
501.71	392.88
502.07	394.50
502.43	396.21
502.79	397.86
503.16	399.48
503.52	400.95
503.88	402.45
504.24	404.06
504.60	405.48
504.97	407.08
505.33	408.47
505.69	410.11
506.05	411.52
506.41	412.73
506.78	413.99
507.14	415.33
507.50	416.47
507.86	417.87
508.22	419.12
508.59	420.08
508.95	421.39
509.31	422.39
509.67	423.59
510.03	424.50
510.39	425.46
510.75	426.48
511.12	427.42
511.48	428.24
511.84	428.86
512.20	429.71
512.56	430.47
512.92	431.21
513.28	431.78
513.64	432.36
514.00	432.89
514.37	433.40
514.73	433.77
515.09	434.33
515.45	434.64
515.81	435.16
516.17	435.58
516.53	435.81
516.89	436.16
517.25	436.55
517.61	437.01
517.97	437.23
518.33	437.45
518.69	437.57
519.05	438.02
519.41	438.31
519.77	438.74
520.13	439.06
520.49	439.35
520.85	439.68
521.21	440.10
521.57	440.54
521.93	440.74
522.29	441.32
522.65	441.64
523.01	442.06
523.37	442.39
523.73	443.11
524.09	443.55
524.45	443.98
524.81	444.57
525.17	445.26
525.53	446.04
525.89	446.53
526.25	447.42
526.61	448.02
526.97	449.05
527.33	449.80
527.68	450.80
528.04	451.82
528.40	452.91
528.76	454.18
529.12	455.40
529.48	456.94
529.84	457.99
530.20	459.21
530.56	460.84
530.91	462.35
531.27	463.86
531.63	465.52
531.99	467.06
532.35	468.70
532.71	470.28
533.07	472.27
533.42	474.45
533.78	476.49
534.14	478.72
534.50	480.64
534.86	483.08
535.21	485.27
535.57	487.62
535.93	490.00
536.29	492.50
536.65	494.94
537.00	497.33
537.36	500.06
537.72	502.82
538.08	505.37
538.44	508.25
538.79	510.98
539.15	513.77
539.51	516.96
539.87	520.08
540.22	523.20
540.58	526.24
540.94	529.26
541.29	532.34
541.65	535.58
542.01	539.05
542.37	542.36
542.72	545.55
543.08	548.91
543.44	552.49
543.79	555.71
544.15	559.30
544.51	563.15
544.87	566.90
545.22	570.65
545.58	574.22
545.94	577.78
546.29	581.44
546.65	585.13
547.01	588.67
547.36	592.35
547.72	596.13
548.07	599.92
548.43	603.59
548.79	607.52
549.14	611.40
549.50	615.12
549.86	618.87
550.21	622.82
550.57	626.82
550.92	630.69
551.28	634.50
551.64	638.37
551.99	642.32
552.35	646.31
552.70	650.25
553.06	654.44
553.41	658.64
553.77	662.64
554.13	666.68
554.48	671.09
554.84	675.14
555.19	679.19
555.55	683.27
555.90	687.39
556.26	691.28
556.61	695.10
556.97	698.92
557.32	703.11
557.68	707.08
558.03	710.89
558.39	714.70
558.74	718.69
559.10	722.43
559.45	725.95
559.81	730.02
560.16	733.74
560.52	737.62
560.87	741.36
561.23	744.90
561.58	749.18
561.94	752.54
562.29	756.11
562.64	759.70
563.00	763.09
563.35	766.89
563.71	770.72
564.06	774.37
564.42	778.12
564.77	781.36
565.12	784.99
565.48	788.56
565.83	791.81
566.19	795.53
566.54	799.10
566.89	802.52
567.25	805.46
567.60	809.01
567.96	812.21
568.31	815.27
568.66	818.45
569.02	821.24
569.37	824.32
569.72	827.30
570.08	830.18
570.43	833.10
570.78	835.86
571.14	838.31
571.49	840.95
571.84	843.70
572.20	846.05
572.55	848.33
572.90	850.60
573.26	852.98
573.61	854.93
573.96	856.91
574.31	858.65
574.67	860.31
575.02	862.02
575.37	863.36
575.72	864.78
576.08	866.51
576.43	867.61
576.78	868.68
577.13	870.04
577.49	871.30
577.84	872.32
578.19	873.04
578.54	874.13
578.90	874.94
579.25	875.42
579.60	876.14
579.95	876.65
580.30	876.91
580.66	877.25
581.01	877.57
581.36	878.01
581.71	878.73
582.06	879.41
582.42	879.62
582.77	880.19
583.12	880.60
583.47	880.80
583.82	881.18
584.17	881.65
584.53	881.92
584.88	882.23
585.23	882.49
585.58	882.64
585.93	882.40
586.28	882.59
586.63	882.92
586.98	882.99
587.34	882.92
587.69	882.98
588.04	883.19
588.39	883.32
588.74	882.93
589.09	882.41
589.44	881.84
589.79	881.21
590.14	880.91
590.49	880.27
590.84	879.55
591.19	879.14
591.54	878.14
591.89	877.00
592.25	876.33
592.60	875.09
592.95	874.07
593.30	873.28
593.65	872.10
594.00	870.69
594.35	869.75
594.70	868.53
595.05	867.52
595.40	866.05
595.75	864.49
596.10	863.56
596.45	862.59
596.80	861.85
597.15	860.78
597.50	859.36
597.85	858.40
598.19	857.52
598.54	856.29
598.89	855.29
599.24	854.52
599.59	852.78
599.94	851.51
600.29	850.53
600.64	849.19
600.99	847.69
601.34	846.36
601.69	844.66
602.04	843.25
602.39	841.83
602.74	840.35
603.08	838.99
603.43	837.36
603.78	835.75
604.13	833.93
604.48	832.45
604.83	830.88
605.18	829.08
605.53	826.94
605.87	824.69
606.22	823.03
606.57	820.84
606.92	819.10
607.27	817.54
607.62	815.64
607.96	813.88
608.31	812.26
608.66	810.21
609.01	808.08
609.36	805.74
609.70	803.42
610.05	801.29
610.40	799.39
610.75	797.00
611.10	794.59
611.44	792.06
611.79	789.53
612.14	787.04
612.49	784.31
612.83	781.80
613.18	779.41
613.53	776.88
613.88	774.16
614.22	771.50
614.57	768.80
614.92	766.04
615.27	763.51
615.61	760.57
615.96	758.02
616.31	755.76
616.65	753.56
617.00	751.00
617.35	748.58
617.70	745.51
618.04	742.82
618.39	740.21
618.74	737.37
619.08	734.69
619.43	731.91
619.78	729.64
620.12	727.14
620.47	724.59
620.82	721.69
621.16	719.20
621.51	717.01
621.85	714.29
622.20	711.64
622.55	708.80
622.89	706.43
623.24	704.02
623.59	701.44
623.93	699.05
624.28	696.59
624.62	694.20
624.97	692.03
625.32	689.57
625.66	687.34
626.01	684.89
626.35	682.44
626.70	679.99
627.04	677.33
627.39	674.82
627.73	672.37
628.08	670.10
628.43	667.59
628.77	664.73
629.12	662.13
629.46	659.41
629.81	656.68
630.15	653.79
630.50	650.83
630.84	648.07
631.19	645.13
631.53	642.40
631.88	639.18
632.22	636.17
632.57	633.73
632.91	630.64
633.26	628.33
633.60	625.47
633.95	622.87
634.29	620.31
634.64	617.90
634.98	615.01
635.32	612.35
635.67	609.81
636.01	607.50
636.36	605.12
636.70	602.97
637.05	600.67
637.39	598.53
637.73	596.47
638.08	594.20
638.42	591.93
638.77	589.65
639.11	587.57
639.45	585.33
639.80	582.96
640.14	580.90
640.49	578.38
640.83	576.18
641.17	574.11
641.52	571.78
641.86	569.34
642.20	567.25
642.55	564.91
642.89	562.80
643.23	560.17
643.58	558.12
643.92	555.73
644.26	553.45
644.61	551.30
644.95	548.84
645.29	546.23
645.64	543.83
645.98	541.56
646.32	539.27
646.66	536.91
647.01	534.50
647.35	532.34
647.69	530.15
648.04	528.09
648.38	525.57
648.72	523.14
649.06	520.77
649.41	518.59
649.75	516.18
650.09	513.71
650.43	511.49
650.78	508.91
651.12	506.34
651.46	504.02
651.80	501.50
652.14	499.33
652.49	497.33
652.83	495.11
653.17	492.81
653.51	490.44
653.85	488.19
654.20	485.77
654.54	483.29
654.88	480.94
655.22	478.36
655.56	476.00
655.90	473.93
656.25	471.70
656.59	469.44
656.93	467.49
657.27	465.40
657.61	463.18
657.95	461.27
658.29	459.33
658.64	457.12
658.98	454.86
659.32	452.51
659.66	450.36
660.00	448.21
660.34	446.11
660.68	444.05
661.02	441.94
661.36	440.29
661.70	438.36
662.05	436.59
662.39	435.01
662.73	433.16
663.07	431.30
663.41	429.54
663.75	427.74
664.09	425.81
664.43	423.87
664.77	422.39
665.11	420.43
665.45	418.74
665.79	417.09
666.13	415.39
666.47	413.87
666.81	412.13
667.15	410.44
667.49	409.04
667.83	407.68
668.17	406.08
668.51	404.03
668.85	402.37
669.19	400.66
669.53	398.95
669.87	397.20
670.21	395.57
670.55	393.93
670.89	392.55
671.23	391.16
671.57	389.83
671.91	388.12
672.25	386.61
672.58	385.05
672.92	383.60
673.26	382.19
673.60	380.85
673.94	379.48
674.28	378.28
674.62	376.85
674.96	375.38
675.30	374.22
675.64	373.15
675.97	371.84
676.31	370.78
676.65	369.45
676.99	368.42
677.33	367.16
677.67	366.03
678.01	364.54
678.34	363.13
678.68	361.99
679.02	360.79
679.36	359.63
679.70	358.45
680.04	357.34
680.37	356.23
680.71	355.01
681.05	353.89
681.39	352.67
681.73	351.46
682.06	350.28
682.40	349.11
682.74	348.03
683.08	347.00
683.42	345.55
683.75	344.46
684.09	343.27
684.43	342.28
684.77	341.22
685.10	340.22
685.44	339.33
685.78	338.09
686.12	337.00
686.45	335.93
686.79	334.93
687.13	333.95
687.46	332.85
687.80	331.95
688.14	330.78
688.48	329.75
688.81	328.62
689.15	327.70
689.49	326.69
689.82	325.61
690.16	324.54
690.50	323.80
690.83	322.88
691.17	321.98
691.51	320.93
691.84	319.95
692.18	318.91
692.52	317.93
692.85	317.12
693.19	316.25
693.52	315.39
693.86	314.53
694.20	313.70
694.53	312.84
694.87	311.85
695.21	311.02
695.54	310.14
695.88	309.13
696.21	308.21
696.55	307.36
696.88	306.54
697.22	305.77
697.56	304.89
697.89	304.12
698.23	303.30
698.56	302.41
698.90	301.55
699.23	300.83
699.57	299.98
699.90	299.02
700.24	298.23
700.58	297.37
700.91	296.51
701.25	295.75
701.58	295.21
701.92	294.57
702.25	293.86
702.59	293.15
702.92	292.70
703.26	292.00
703.59	291.35
703.93	290.85
704.26	290.21
704.60	289.60
704.93	288.97
705.26	288.24
705.60	287.79
705.93	287.27
706.27	286.70
706.60	286.17
706.94	285.74
707.27	285.11
707.61	284.60
707.94	284.10
708.27	283.57
708.61	282.82
708.94	282.31
709.28	281.77
709.61	281.23
709.94	280.66
710.28	280.20
710.61	279.62
710.95	278.94
711.28	278.44
711.61	277.72
711.95	277.19
712.28	276.59
712.61	275.87
712.95	275.25
713.28	274.79
713.61	274.22
713.95	273.74
714.28	273.27
714.61	272.69
714.95	272.13
715.28	271.48
715.61	270.93
715.95	270.37
716.28	269.81
716.61	269.40
716.95	268.92
717.28	268.43
717.61	267.96
717.94	267.47
718.28	266.95
718.61	266.64
718.94	266.11
719.27	265.84
719.61	265.58
719.94	265.23
720.27	264.73
720.60	264.40
720.94	263.93
721.27	263.56
721.60	263.32
721.93	263.01
722.27	262.75
722.60	262.49
722.93	262.09
723.26	261.91
723.59	261.58
723.93	261.16
724.26	260.86
724.59	260.61
724.92	260.32
725.25	260.05
725.59	259.70
725.92	259.43
726.25	259.08
726.58	258.71
726.91	258.49
727.24	258.34
727.57	258.15
727.91	257.90
728.24	257.73
728.57	257.27
728.90	256.90
729.23	256.48
729.56	256.31
729.89	256.00
730.22	255.61
730.55	255.33
730.89	255.13
731.22	254.88
731.55	254.58
731.88	254.48
732.21	254.15
732.54	253.91
732.87	253.71
733.20	253.56
733.53	253.28
733.86	253.02
734.19	252.58
734.52	252.20
734.85	252.11
735.18	251.78
735.51	251.68
735.84	251.55
736.17	251.37
736.50	251.09
736.83	251.06
737.16	250.88
737.49	250.71
737.82	250.45
738.15	250.14
738.48	249.96
738.81	249.67
739.14	249.45
739.47	249.23
739.80	248.99
740.13	248.69
740.46	248.60
740.79	248.29
741.12	248.26
741.45	247.99
741.78	247.57
742.11	247.49
742.44	247.31
742.77	247.11
743.10	246.90
743.43	246.70
743.75	246.30
744.08	246.38
744.41	246.10
744.74	245.92
745.07	245.71
745.40	245.44
745.73	245.24
746.06	245.10
746.39	245.04
746.71	244.80
747.04	244.60
747.37	244.37
747.70	244.25
748.03	244.01
748.36	243.93
748.68	243.78
749.01	243.50
749.34	243.32
749.67	243.27
750.00	243.08
750.33	243.00
750.65	242.91
750.98	242.47
751.31	242.44
751.64	242.38
751.97	242.33
752.29	242.29
752.62	242.07
752.95	241.88
753.28	241.66
753.60	241.52
753.93	241.50
754.26	241.35
754.59	241.21
754.91	241.04
755.24	240.87
755.57	240.78
755.90	240.63
756.22	240.50
756.55	240.17
756.88	240.15
757.20	239.90
757.53	239.69
757.86	239.53
758.19	239.35
758.51	239.12
758.84	238.94
759.17	238.73
759.49	238.71
759.82	238.68
760.15	238.61
760.47	238.45
760.80	238.37
761.13	238.22
761.45	238.18
761.78	238.18
762.11	238.10
762.43	238.01
762.76	237.94
763.08	237.87
763.41	237.78
763.74	237.60
764.06	237.49
764.39	237.48
764.71	237.46
765.04	237.36
765.37	237.36
765.69	237.24
766.02	237.13
766.34	237.00
766.67	236.91
767.00	236.84
767.32	236.88
767.65	236.86
767.97	236.85
768.30	236.90
768.62	236.71
768.95	236.57
769.27	236.43
769.60	236.40
769.92	236.26
770.25	236.20
770.57	236.13
770.90	236.12
771.22	235.96
771.55	235.84
771.87	235.85
772.20	235.74
772.52	235.93
772.85	236.17
773.17	236.12
773.50	236.01
773.82	235.90
774.15	235.70
774.47	235.43
774.80	235.33
775.12	235.13
775.45	235.10
775.77	235.14
776.09	235.15
776.42	235.10
776.74	235.06
777.07	234.99
777.39	234.95
777.72	234.85
778.04	234.77
778.36	234.78
778.69	234.65
779.01	234.56
779.33	234.32
779.66	234.02
779.98	233.92
780.31	233.86
780.63	234.00
780.95	234.08
781.28	234.02
781.60	233.86
781.92	233.77
782.25	233.65
782.57	233.45
782.89	233.29
783.22	233.19
783.54	233.06
783.86	233.04
784.19	232.95
784.51	232.97
784.83	232.98
785.16	232.81
785.48	232.75
785.80	232.65
786.12	232.57
786.45	232.45
786.77	232.34
787.09	232.34
787.42	232.11
787.74	232.09
788.06	232.04
788.38	232.11
788.71	231.98
789.03	231.92
789.35	231.98
789.67	231.97
789.99	231.91
790.32	231.91
790.64	231.88
790.96	231.98
791.28	231.81
791.61	231.73
791.93	231.76
792.25	231.78
792.57	231.94
792.89	231.85
793.21	231.87
793.54	231.79
793.86	231.64
794.18	231.61
