SpectraSuite Data File
++++++++++++++++++++++++++++++++++++
Date: Fri Feb 01 14:36:29 EST 2013
User: group
Dark Spectrum Present: No
Reference Spectrum Present: No
Number of Sampled Component Spectra: 1
Spectrometers: USB2E7196
Integration Time (usec): 70000 (USB2E7196)
Spectra Averaged: 10 (USB2E7196)
Boxcar Smoothing: 10 (USB2E7196)
Correct for Electrical Dark: No (USB2E7196)
Strobe/Lamp Enabled: No (USB2E7196)
Correct for Detector Non-linearity: No (USB2E7196)
Correct for Stray Light: No (USB2E7196)
Number of Pixels in Processed Spectrum: 2048
>>>>>Begin Processed Spectral Data<<<<<
339.09	0.00
339.48	214.00
339.86	217.20
340.24	219.90
340.63	219.10
341.01	226.70
341.39	223.90
341.78	224.80
342.16	227.50
342.54	227.00
342.93	214.61
343.31	225.44
343.69	226.14
344.07	226.62
344.46	227.00
344.84	227.45
345.22	227.54
345.60	227.74
345.99	227.96
346.37	228.10
346.75	228.16
347.13	228.20
347.52	228.26
347.90	228.29
348.28	228.29
348.66	228.47
349.05	228.53
349.43	228.51
349.81	228.53
350.19	228.59
350.57	228.59
350.96	228.69
351.34	228.72
351.72	228.71
352.10	228.77
352.48	228.88
352.87	228.93
353.25	228.91
353.63	228.93
354.01	228.88
354.39	228.90
354.77	228.94
355.15	229.09
355.54	229.16
355.92	229.23
356.30	229.31
356.68	229.31
357.06	229.25
357.44	229.29
357.82	229.38
358.20	229.36
358.58	229.36
358.97	229.40
359.35	229.51
359.73	229.55
360.11	229.68
360.49	229.69
360.87	229.73
361.25	229.84
361.63	230.05
362.01	230.15
362.39	230.17
362.77	230.25
363.15	230.32
363.53	230.30
363.91	230.30
364.29	230.32
364.67	230.27
365.05	230.38
365.43	230.42
365.81	230.41
366.19	230.51
366.57	230.55
366.95	230.52
367.33	230.49
367.71	230.44
368.09	230.34
368.47	230.31
368.85	230.25
369.23	230.27
369.61	230.14
369.99	230.11
370.37	230.02
370.75	230.01
371.13	229.83
371.51	229.82
371.89	229.75
372.27	229.69
372.65	229.63
373.03	229.38
373.41	229.21
373.78	229.21
374.16	228.99
374.54	228.89
374.92	228.83
375.30	228.75
375.68	228.74
376.06	228.80
376.44	228.66
376.82	228.60
377.19	228.45
377.57	228.35
377.95	228.20
378.33	228.12
378.71	228.00
379.09	227.88
379.47	227.87
379.84	227.68
380.22	227.66
380.60	227.52
380.98	227.57
381.36	227.55
381.73	227.33
382.11	227.39
382.49	227.38
382.87	227.22
383.25	227.10
383.62	227.20
384.00	227.01
384.38	226.99
384.76	226.97
385.13	227.06
385.51	227.04
385.89	227.03
386.27	226.98
386.64	226.94
387.02	226.93
387.40	226.76
387.78	226.84
388.15	226.75
388.53	226.77
388.91	226.77
389.29	226.68
389.66	226.80
390.04	226.78
390.42	226.67
390.79	226.69
391.17	226.65
391.55	226.42
391.92	226.38
392.30	226.43
392.68	226.36
393.05	226.30
393.43	226.35
393.81	226.34
394.18	226.30
394.56	226.22
394.94	226.33
395.31	226.33
395.69	226.42
396.06	226.57
396.44	226.57
396.82	226.59
397.19	226.81
397.57	226.77
397.95	226.83
398.32	226.93
398.70	227.04
399.07	227.24
399.45	227.41
399.82	227.60
400.20	227.61
400.58	227.75
400.95	227.75
401.33	227.82
401.70	228.06
402.08	228.30
402.45	228.48
402.83	228.65
403.20	228.97
403.58	229.14
403.95	229.34
404.33	229.56
404.71	229.81
405.08	230.05
405.46	230.32
405.83	230.55
406.21	230.80
406.58	231.12
406.96	231.41
407.33	231.69
407.70	232.05
408.08	232.61
408.45	233.07
408.83	233.57
409.20	233.89
409.58	234.29
409.95	234.77
410.33	235.37
410.70	235.80
411.08	236.26
411.45	236.76
411.82	237.23
412.20	237.93
412.57	238.75
412.95	239.37
413.32	240.09
413.69	240.88
414.07	241.80
414.44	242.69
414.82	243.59
415.19	244.70
415.56	245.68
415.94	246.73
416.31	247.91
416.68	249.13
417.06	250.57
417.43	251.86
417.81	253.31
418.18	254.81
418.55	256.55
418.93	258.40
419.30	260.31
419.67	262.37
420.04	264.49
420.42	266.59
420.79	269.08
421.16	271.58
421.54	274.07
421.91	276.63
422.28	279.32
422.66	282.18
423.03	285.05
423.40	287.93
423.77	290.92
424.15	294.08
424.52	297.30
424.89	300.85
425.26	304.28
425.64	307.49
426.01	310.97
426.38	314.68
426.75	318.35
427.13	322.15
427.50	326.22
427.87	330.40
428.24	334.64
428.61	338.68
428.99	342.90
429.36	347.74
429.73	352.44
430.10	357.13
430.47	362.03
430.85	366.96
431.22	372.30
431.59	377.88
431.96	383.07
432.33	389.12
432.70	394.89
433.08	401.52
433.45	407.92
433.82	414.30
434.19	421.21
434.56	428.08
434.93	434.56
435.30	440.79
435.68	447.90
436.05	454.83
436.42	461.80
436.79	468.30
437.16	475.11
437.53	482.30
437.90	489.44
438.27	496.28
438.64	503.49
439.01	510.22
439.38	516.03
439.75	521.81
440.13	528.23
440.50	534.67
440.87	539.85
441.24	545.15
441.61	551.07
441.98	555.55
442.35	560.62
442.72	565.90
443.09	571.36
443.46	574.65
443.83	576.96
444.20	578.90
444.57	581.95
444.94	583.62
445.31	585.38
445.68	587.36
446.05	588.53
446.42	588.51
446.79	588.21
447.16	588.21
447.53	588.44
447.90	586.66
448.27	584.52
448.64	581.53
449.01	579.76
449.37	575.72
449.74	571.95
450.11	567.30
450.48	562.30
450.85	556.78
451.22	552.19
451.59	547.90
451.96	544.01
452.33	538.17
452.70	533.08
453.07	526.77
453.43	520.15
453.80	513.92
454.17	507.90
454.54	502.32
454.91	496.10
455.28	489.95
455.65	484.22
456.02	478.50
456.38	473.65
456.75	467.31
457.12	462.29
457.49	457.07
457.86	451.89
458.23	447.61
458.59	442.70
458.96	437.82
459.33	433.46
459.70	428.83
460.07	425.32
460.43	421.16
460.80	417.23
461.17	413.54
461.54	409.94
461.91	406.45
462.27	402.92
462.64	400.08
463.01	396.81
463.38	393.50
463.74	390.20
464.11	387.32
464.48	384.90
464.85	381.92
465.21	379.77
465.58	377.66
465.95	374.80
466.32	372.77
466.68	370.36
467.05	368.04
467.42	365.96
467.78	363.58
468.15	361.36
468.52	359.74
468.88	357.73
469.25	355.85
469.62	354.27
469.98	352.67
470.35	350.83
470.72	349.25
471.08	347.70
471.45	346.41
471.82	345.04
472.18	343.45
472.55	342.44
472.92	340.94
473.28	339.70
473.65	338.31
474.02	336.98
474.38	336.12
474.75	335.11
475.11	334.04
475.48	333.18
475.85	332.42
476.21	331.65
476.58	330.93
476.94	330.27
477.31	329.53
477.67	328.86
478.04	328.44
478.41	327.98
478.77	327.64
479.14	327.02
479.50	326.50
479.87	326.30
480.23	326.02
480.60	325.80
480.96	325.52
481.33	325.41
481.69	325.36
482.06	325.10
482.42	325.11
482.79	325.14
483.15	325.41
483.52	325.60
483.88	325.71
484.25	325.70
484.61	325.90
484.98	326.26
485.34	326.50
485.71	326.87
486.07	327.17
486.44	327.54
486.80	328.13
487.17	328.72
487.53	329.33
487.90	329.95
488.26	330.71
488.62	331.40
488.99	332.18
489.35	332.84
489.72	333.74
490.08	334.59
490.44	335.40
490.81	336.20
491.17	337.15
491.54	338.10
491.90	339.31
492.26	340.30
492.63	341.42
492.99	342.69
493.36	343.81
493.72	345.19
494.08	346.29
494.45	347.33
494.81	348.72
495.17	349.80
495.54	351.14
495.90	352.44
496.26	353.69
496.63	355.16
496.99	356.71
497.35	358.14
497.72	359.68
498.08	361.14
498.44	362.65
498.80	364.01
499.17	365.50
499.53	366.98
499.89	368.61
500.26	369.86
500.62	371.08
500.98	372.56
501.34	373.89
501.71	375.42
502.07	377.05
502.43	378.37
502.79	379.90
503.16	381.24
503.52	382.45
503.88	383.78
504.24	385.07
504.60	386.12
504.97	387.34
505.33	388.40
505.69	389.81
506.05	390.88
506.41	391.90
506.78	392.86
507.14	393.71
507.50	394.61
507.86	395.58
508.22	396.63
508.59	397.46
508.95	398.27
509.31	399.07
509.67	399.72
510.03	400.50
510.39	401.14
510.75	401.88
511.12	402.55
511.48	403.24
511.84	403.60
512.20	404.21
512.56	404.71
512.92	405.31
513.28	405.52
513.64	405.96
514.00	406.42
514.37	406.80
514.73	407.14
515.09	407.35
515.45	407.59
515.81	407.63
516.17	407.84
516.53	408.15
516.89	408.28
517.25	408.48
517.61	408.70
517.97	408.80
518.33	408.80
518.69	408.97
519.05	409.13
519.41	409.38
519.77	409.82
520.13	410.26
520.49	410.34
520.85	410.60
521.21	410.75
521.57	411.15
521.93	411.42
522.29	411.85
522.65	412.18
523.01	412.54
523.37	412.86
523.73	413.40
524.09	413.90
524.45	414.36
524.81	415.01
525.17	415.48
525.53	416.26
525.89	416.93
526.25	417.81
526.61	418.48
526.97	419.43
527.33	420.32
527.68	421.16
528.04	422.33
528.40	423.26
528.76	424.65
529.12	425.81
529.48	427.20
529.84	428.42
530.20	429.89
530.56	431.56
530.91	433.33
531.27	434.90
531.63	436.55
531.99	438.50
532.35	440.18
532.71	441.98
533.07	443.84
533.42	446.07
533.78	448.14
534.14	450.50
534.50	452.62
534.86	454.94
535.21	457.27
535.57	459.54
535.93	462.18
536.29	464.73
536.65	467.32
537.00	469.92
537.36	472.88
537.72	475.89
538.08	478.84
538.44	481.75
538.79	484.70
539.15	487.83
539.51	490.93
539.87	494.13
540.22	497.54
540.58	501.16
540.94	504.33
541.29	507.60
541.65	510.94
542.01	514.64
542.37	518.10
542.72	521.71
543.08	525.46
543.44	529.16
543.79	532.46
544.15	536.07
544.51	540.13
544.87	543.83
545.22	547.56
545.58	551.31
545.94	555.12
546.29	558.97
546.65	562.69
547.01	566.51
547.36	570.46
547.72	574.38
548.07	578.28
548.43	582.38
548.79	586.58
549.14	590.57
549.50	594.44
549.86	598.39
550.21	602.61
550.57	606.78
550.92	610.78
551.28	615.07
551.64	619.23
551.99	623.12
552.35	627.24
552.70	631.50
553.06	635.80
553.41	640.04
553.77	644.23
554.13	648.59
554.48	652.86
554.84	657.24
555.19	661.51
555.55	665.65
555.90	669.84
556.26	673.88
556.61	678.09
556.97	682.35
557.32	686.40
557.68	690.43
558.03	694.30
558.39	698.24
558.74	702.35
559.10	706.57
559.45	710.71
559.81	714.96
560.16	718.93
560.52	722.82
560.87	726.95
561.23	730.77
561.58	734.85
561.94	738.88
562.29	742.57
562.64	746.10
563.00	749.86
563.35	753.71
563.71	757.59
564.06	761.42
564.42	765.04
564.77	769.00
565.12	772.52
565.48	776.28
565.83	779.84
566.19	783.60
566.54	787.20
566.89	790.61
567.25	793.97
567.60	797.48
567.96	800.81
568.31	804.00
568.66	807.16
569.02	810.19
569.37	813.18
569.72	816.21
570.08	819.52
570.43	822.26
570.78	825.02
571.14	827.65
571.49	830.20
571.84	832.91
572.20	835.39
572.55	837.79
572.90	840.31
573.26	842.98
573.61	845.17
573.96	847.03
574.31	848.87
574.67	850.51
575.02	851.94
575.37	853.63
575.72	855.05
576.08	857.00
576.43	858.36
576.78	859.94
577.13	861.37
577.49	862.70
577.84	864.30
578.19	865.58
578.54	866.57
578.90	867.69
579.25	868.50
579.60	869.43
579.95	870.02
580.30	870.56
580.66	871.02
581.01	871.12
581.36	872.01
581.71	872.69
582.06	873.60
582.42	874.21
582.77	874.60
583.12	875.20
583.47	875.60
583.82	876.22
584.17	876.29
584.53	876.71
584.88	876.77
585.23	876.73
585.58	876.94
585.93	877.50
586.28	877.66
586.63	878.09
586.98	878.17
587.34	878.78
587.69	878.97
588.04	879.06
588.39	879.55
588.74	879.25
589.09	879.32
589.44	878.70
589.79	878.71
590.14	878.76
590.49	878.40
590.84	878.02
591.19	877.51
591.54	876.64
591.89	875.66
592.25	874.92
592.60	873.95
592.95	873.02
593.30	871.80
593.65	870.75
594.00	869.50
594.35	868.76
594.70	867.20
595.05	866.20
595.40	865.10
595.75	863.92
596.10	862.85
596.45	861.54
596.80	860.95
597.15	859.74
597.50	858.27
597.85	857.49
598.19	856.43
598.54	855.46
598.89	854.66
599.24	853.79
599.59	852.79
599.94	852.05
600.29	850.79
600.64	849.69
600.99	848.22
601.34	847.05
601.69	845.29
602.04	844.05
602.39	842.33
602.74	841.08
603.08	839.77
603.43	838.25
603.78	836.78
604.13	835.05
604.48	833.32
604.83	831.92
605.18	830.02
605.53	827.79
605.87	825.57
606.22	823.72
606.57	821.89
606.92	820.04
607.27	818.15
607.62	816.60
607.96	814.86
608.31	813.29
608.66	811.15
609.01	808.94
609.36	806.62
609.70	804.41
610.05	801.96
610.40	799.57
610.75	797.12
611.10	794.76
611.44	792.05
611.79	789.71
612.14	787.28
612.49	784.34
612.83	782.00
613.18	779.58
613.53	777.23
613.88	774.42
614.22	771.89
614.57	768.89
614.92	765.70
615.27	762.81
615.61	760.01
615.96	757.54
616.31	755.28
616.65	753.07
617.00	750.88
617.35	748.52
617.70	745.98
618.04	743.56
618.39	741.03
618.74	738.70
619.08	736.02
619.43	733.77
619.78	731.51
620.12	729.10
620.47	726.65
620.82	723.78
621.16	721.55
621.51	719.12
621.85	716.85
622.20	714.56
622.55	712.23
622.89	709.90
623.24	707.39
623.59	704.81
623.93	702.52
624.28	699.90
624.62	697.34
624.97	695.06
625.32	692.67
625.66	690.19
626.01	687.73
626.35	685.28
626.70	682.35
627.04	680.12
627.39	677.61
627.73	675.11
628.08	673.03
628.43	670.24
628.77	667.52
629.12	664.66
629.46	662.10
629.81	659.30
630.15	656.59
630.50	653.74
630.84	650.84
631.19	648.03
631.53	645.32
631.88	642.37
632.22	639.21
632.57	636.55
632.91	633.89
633.26	630.98
633.60	628.38
633.95	625.94
634.29	623.22
634.64	620.72
634.98	618.20
635.32	615.64
635.67	613.45
636.01	611.20
636.36	608.96
636.70	606.50
637.05	604.13
637.39	601.97
637.73	600.08
638.08	598.25
638.42	596.24
638.77	593.96
639.11	591.83
639.45	589.79
639.80	587.50
640.14	585.21
640.49	583.12
640.83	580.68
641.17	578.47
641.52	576.08
641.86	573.61
642.20	571.30
642.55	568.75
642.89	566.36
643.23	563.95
643.58	561.81
643.92	559.47
644.26	557.23
644.61	554.89
644.95	552.19
645.29	549.38
645.64	546.54
645.98	544.17
646.32	541.86
646.66	539.41
647.01	536.90
647.35	534.55
647.69	532.25
648.04	530.22
648.38	527.73
648.72	525.25
649.06	522.95
649.41	520.44
649.75	517.98
650.09	515.57
650.43	513.00
650.78	510.14
651.12	507.81
651.46	505.56
651.80	503.23
652.14	501.15
652.49	498.88
652.83	496.74
653.17	494.50
653.51	492.23
653.85	489.99
654.20	487.72
654.54	485.39
654.88	482.96
655.22	480.45
655.56	478.02
655.90	475.86
656.25	473.58
656.59	471.37
656.93	469.32
657.27	467.13
657.61	464.96
657.95	463.33
658.29	461.18
658.64	458.99
658.98	456.64
659.32	454.24
659.66	452.30
660.00	450.19
660.34	448.06
660.68	445.92
661.02	443.79
661.36	441.96
661.70	440.02
662.05	438.17
662.39	436.46
662.73	434.71
663.07	433.08
663.41	431.40
663.75	429.71
664.09	428.01
664.43	426.13
664.77	424.50
665.11	422.59
665.45	420.87
665.79	419.12
666.13	417.55
666.47	415.86
666.81	414.07
667.15	412.30
667.49	410.77
667.83	409.15
668.17	407.56
668.51	405.88
668.85	404.27
669.19	402.72
669.53	401.04
669.87	399.38
670.21	397.69
670.55	396.01
670.89	394.53
671.23	393.05
671.57	391.68
671.91	390.26
672.25	388.84
672.58	387.39
672.92	385.98
673.26	384.64
673.60	383.38
673.94	382.04
674.28	380.79
674.62	379.41
674.96	378.16
675.30	376.95
675.64	375.65
675.97	374.32
676.31	372.98
676.65	371.70
676.99	370.37
677.33	369.05
677.67	367.85
678.01	366.41
678.34	365.09
678.68	363.82
679.02	362.60
679.36	361.30
679.70	360.20
680.04	358.91
680.37	357.52
680.71	356.22
681.05	355.23
681.39	354.16
681.73	353.00
682.06	351.81
682.40	350.65
682.74	349.54
683.08	348.42
683.42	347.36
683.75	346.22
684.09	345.06
684.43	344.02
684.77	342.86
685.10	341.79
685.44	340.79
685.78	339.72
686.12	338.63
686.45	337.63
686.79	336.54
687.13	335.59
687.46	334.59
687.80	333.62
688.14	332.36
688.48	331.23
688.81	330.19
689.15	329.24
689.49	328.20
689.82	327.12
690.16	326.15
690.50	325.08
690.83	324.08
691.17	323.13
691.51	322.07
691.84	321.13
692.18	320.24
692.52	319.20
692.85	318.23
693.19	317.23
693.52	316.27
693.86	315.34
694.20	314.34
694.53	313.40
694.87	312.60
695.21	311.77
695.54	310.81
695.88	309.77
696.21	308.90
696.55	308.00
696.88	307.15
697.22	306.31
697.56	305.58
697.89	304.77
698.23	304.05
698.56	303.36
698.90	302.56
699.23	301.52
699.57	300.67
699.90	299.64
700.24	298.69
700.58	297.83
700.91	296.95
701.25	296.32
701.58	295.76
701.92	294.97
702.25	294.22
702.59	293.55
702.92	293.04
703.26	292.21
703.59	291.55
703.93	291.12
704.26	290.39
704.60	289.72
704.93	288.97
705.26	288.22
705.60	287.57
705.93	286.90
706.27	286.51
706.60	285.94
706.94	285.66
707.27	285.10
707.61	284.52
707.94	283.98
708.27	283.36
708.61	282.72
708.94	282.10
709.28	281.61
709.61	281.07
709.94	280.47
710.28	279.89
710.61	279.40
710.95	278.44
711.28	278.02
711.61	277.49
711.95	277.10
712.28	276.66
712.61	276.09
712.95	275.68
713.28	275.13
713.61	274.63
713.95	274.00
714.28	273.57
714.61	273.12
714.95	272.57
715.28	272.04
715.61	271.41
715.95	270.85
716.28	270.37
716.61	269.85
716.95	269.46
717.28	269.16
717.61	268.65
717.94	268.46
718.28	267.94
718.61	267.47
718.94	266.95
719.27	266.49
719.61	266.01
719.94	265.60
720.27	265.15
720.60	264.66
720.94	264.30
721.27	263.94
721.60	263.66
721.93	263.30
722.27	262.92
722.60	262.60
722.93	262.40
723.26	262.03
723.59	261.61
723.93	261.30
724.26	260.92
724.59	260.57
724.92	260.12
725.25	259.85
725.59	259.53
725.92	259.32
726.25	259.00
726.58	258.80
726.91	258.46
727.24	258.33
727.57	258.09
727.91	257.76
728.24	257.44
728.57	257.13
728.90	256.99
729.23	256.66
729.56	256.49
729.89	256.21
730.22	255.87
730.55	255.55
730.89	255.20
731.22	254.94
731.55	254.60
731.88	254.37
732.21	254.06
732.54	253.83
732.87	253.40
733.20	253.27
733.53	253.14
733.86	252.90
734.19	252.49
734.52	252.32
734.85	252.26
735.18	252.03
735.51	251.90
735.84	251.70
736.17	251.55
736.50	251.26
736.83	251.22
737.16	251.03
737.49	250.97
737.82	250.78
738.15	250.56
738.48	250.41
738.81	250.30
739.14	250.09
739.47	249.82
739.80	249.72
740.13	249.39
740.46	248.97
740.79	248.76
741.12	248.59
741.45	248.28
741.78	247.96
742.11	247.79
742.44	247.55
742.77	247.30
743.10	247.10
743.43	246.80
743.75	246.34
744.08	246.41
744.41	246.27
744.74	246.06
745.07	245.92
745.40	245.73
745.73	245.53
746.06	245.38
746.39	245.19
746.71	245.03
747.04	244.86
747.37	244.83
747.70	244.55
748.03	244.40
748.36	244.30
748.68	244.15
749.01	243.96
749.34	243.69
749.67	243.64
750.00	243.42
750.33	243.46
750.65	243.27
750.98	242.92
751.31	242.70
751.64	242.61
751.97	242.46
752.29	242.25
752.62	242.02
752.95	241.75
753.28	241.59
753.60	241.35
753.93	241.23
754.26	240.93
754.59	240.85
754.91	240.66
755.24	240.47
755.57	240.20
755.90	240.00
756.22	239.83
756.55	239.44
756.88	239.29
757.20	239.00
757.53	238.98
757.86	238.75
758.19	238.67
758.51	238.53
758.84	238.31
759.17	238.20
759.49	238.10
759.82	238.14
760.15	238.03
760.47	237.97
760.80	237.75
761.13	237.69
761.45	237.61
761.78	237.48
762.11	237.37
762.43	237.41
762.76	237.32
763.08	237.27
763.41	237.34
763.74	237.27
764.06	237.15
764.39	236.91
764.71	236.75
765.04	236.58
765.37	236.46
765.69	236.39
766.02	236.34
766.34	236.18
766.67	235.98
767.00	235.88
767.32	235.88
767.65	236.02
767.97	235.91
768.30	235.77
768.62	235.75
768.95	235.68
769.27	235.49
769.60	235.40
769.92	235.26
770.25	235.09
770.57	234.97
770.90	234.89
771.22	234.87
771.55	234.83
771.87	234.81
772.20	234.66
772.52	234.81
772.85	234.87
773.17	234.78
773.50	234.73
773.82	234.70
774.15	234.57
774.47	234.32
774.80	234.26
775.12	234.23
775.45	234.09
775.77	234.03
776.09	234.01
776.42	234.01
776.74	234.03
777.07	233.93
777.39	233.89
777.72	233.88
778.04	233.77
778.36	233.71
778.69	233.55
779.01	233.50
779.33	233.16
779.66	232.96
779.98	232.97
780.31	233.01
780.63	233.09
780.95	233.06
781.28	233.02
781.60	232.99
781.92	233.03
782.25	233.05
782.57	232.98
782.89	233.02
783.22	232.97
783.54	232.96
783.86	232.99
784.19	232.94
784.51	232.93
784.83	232.90
785.16	232.91
785.48	233.00
785.80	233.00
786.12	233.03
786.45	233.01
786.77	232.97
787.09	232.94
787.42	232.68
787.74	232.60
788.06	232.57
788.38	232.48
788.71	232.41
789.03	232.30
789.35	232.26
789.67	232.14
789.99	232.12
790.32	232.10
790.64	232.12
790.96	232.27
791.28	232.28
791.61	232.20
791.93	232.21
792.25	232.08
792.57	232.11
792.89	232.05
793.21	232.05
793.54	231.97
793.86	231.80
794.18	231.85
