SpectraSuite Data File
++++++++++++++++++++++++++++++++++++
Date: Fri Feb 01 14:41:17 EST 2013
User: group
Dark Spectrum Present: No
Reference Spectrum Present: No
Number of Sampled Component Spectra: 1
Spectrometers: USB2E7196
Integration Time (usec): 70000 (USB2E7196)
Spectra Averaged: 10 (USB2E7196)
Boxcar Smoothing: 10 (USB2E7196)
Correct for Electrical Dark: No (USB2E7196)
Strobe/Lamp Enabled: No (USB2E7196)
Correct for Detector Non-linearity: No (USB2E7196)
Correct for Stray Light: No (USB2E7196)
Number of Pixels in Processed Spectrum: 2048
>>>>>Begin Processed Spectral Data<<<<<
339.09	0.00
339.48	216.90
339.86	219.40
340.24	218.00
340.63	221.00
341.01	224.50
341.39	222.50
341.78	223.70
342.16	225.90
342.54	226.80
342.93	215.11
343.31	225.96
343.69	226.55
344.07	226.94
344.46	227.48
344.84	227.90
345.22	228.10
345.60	228.35
345.99	228.65
346.37	228.79
346.75	228.81
347.13	228.98
347.52	228.99
347.90	229.06
348.28	229.06
348.66	229.08
349.05	229.05
349.43	229.04
349.81	229.11
350.19	229.10
350.57	229.10
350.96	229.20
351.34	229.24
351.72	229.27
352.10	229.40
352.48	229.36
352.87	229.44
353.25	229.54
353.63	229.67
354.01	229.63
354.39	229.74
354.77	229.88
355.15	229.87
355.54	229.95
355.92	229.98
356.30	230.01
356.68	230.30
357.06	230.35
357.44	230.44
357.82	230.32
358.20	230.38
358.58	230.50
358.97	230.58
359.35	230.73
359.73	230.74
360.11	230.72
360.49	230.84
360.87	230.76
361.25	230.73
361.63	230.81
362.01	230.90
362.39	230.84
362.77	230.85
363.15	230.89
363.53	230.90
363.91	230.87
364.29	230.92
364.67	230.58
365.05	230.57
365.43	230.57
365.81	230.74
366.19	230.73
366.57	230.72
366.95	230.65
367.33	230.52
367.71	230.59
368.09	230.63
368.47	230.58
368.85	230.65
369.23	230.75
369.61	230.62
369.99	230.63
370.37	230.62
370.75	230.72
371.13	230.70
371.51	230.65
371.89	230.60
372.27	230.58
372.65	230.61
373.03	230.59
373.41	230.54
373.78	230.40
374.16	230.37
374.54	230.37
374.92	230.31
375.30	230.35
375.68	230.18
376.06	230.13
376.44	230.07
376.82	230.02
377.19	229.85
377.57	229.75
377.95	229.56
378.33	229.50
378.71	229.27
379.09	229.11
379.47	228.94
379.84	228.85
380.22	228.70
380.60	228.50
380.98	228.37
381.36	228.37
381.73	228.37
382.11	228.23
382.49	228.07
382.87	227.97
383.25	227.85
383.62	228.04
384.00	227.94
384.38	227.87
384.76	227.83
385.13	227.83
385.51	227.75
385.89	227.70
386.27	227.69
386.64	227.64
387.02	227.64
387.40	227.62
387.78	227.64
388.15	227.62
388.53	227.69
388.91	227.67
389.29	227.57
389.66	227.49
390.04	227.48
390.42	227.44
390.79	227.47
391.17	227.52
391.55	227.24
391.92	227.16
392.30	227.20
392.68	227.16
393.05	227.13
393.43	227.21
393.81	227.35
394.18	227.33
394.56	227.39
394.94	227.47
395.31	227.49
395.69	227.58
396.06	227.60
396.44	227.65
396.82	227.80
397.19	227.95
397.57	228.00
397.95	228.12
398.32	228.24
398.70	228.39
399.07	228.46
399.45	228.58
399.82	228.77
400.20	228.82
400.58	228.79
400.95	228.93
401.33	229.18
401.70	229.30
402.08	229.41
402.45	229.47
402.83	229.63
403.20	229.88
403.58	230.01
403.95	230.26
404.33	230.45
404.71	230.55
405.08	230.85
405.46	231.04
405.83	231.24
406.21	231.40
406.58	231.53
406.96	231.66
407.33	231.97
407.70	232.28
408.08	232.68
408.45	233.13
408.83	233.25
409.20	233.41
409.58	233.66
409.95	234.04
410.33	234.48
410.70	234.81
411.08	235.16
411.45	235.51
411.82	235.86
412.20	236.30
412.57	236.81
412.95	237.12
413.32	237.58
413.69	238.01
414.07	238.57
414.44	239.30
414.82	239.90
415.19	240.51
415.56	241.08
415.94	241.71
416.31	242.40
416.68	243.31
417.06	244.16
417.43	244.98
417.81	245.91
418.18	246.72
418.55	247.78
418.93	248.80
419.30	249.86
419.67	250.93
420.04	252.04
420.42	253.25
420.79	254.66
421.16	256.00
421.54	257.47
421.91	258.96
422.28	260.33
422.66	262.00
423.03	263.62
423.40	265.11
423.77	266.70
424.15	268.50
424.52	270.19
424.89	272.16
425.26	274.00
425.64	275.70
426.01	277.68
426.38	279.50
426.75	281.42
427.13	283.56
427.50	285.80
427.87	287.95
428.24	290.07
428.61	292.11
428.99	294.56
429.36	297.04
429.73	299.43
430.10	301.80
430.47	304.16
430.85	306.64
431.22	309.37
431.59	312.25
431.96	314.81
432.33	317.65
432.70	320.36
433.08	323.69
433.45	326.73
433.82	329.84
434.19	333.29
434.56	336.88
434.93	340.02
435.30	343.24
435.68	346.70
436.05	350.06
436.42	353.37
436.79	356.23
437.16	359.46
437.53	362.90
437.90	366.21
438.27	369.52
438.64	372.64
439.01	375.78
439.38	378.38
439.75	380.88
440.13	383.92
440.50	386.72
440.87	388.83
441.24	391.11
441.61	393.65
441.98	395.38
442.35	397.24
442.72	399.18
443.09	401.16
443.46	402.26
443.83	402.99
444.20	403.63
444.57	404.61
444.94	404.88
445.31	405.09
445.68	405.50
446.05	405.50
446.42	405.27
446.79	404.74
447.16	404.22
447.53	403.78
447.90	402.44
448.27	401.04
448.64	399.28
449.01	397.91
449.37	395.49
449.74	393.27
450.11	390.71
450.48	387.88
450.85	384.68
451.22	382.17
451.59	379.60
451.96	377.16
452.33	374.11
452.70	371.21
453.07	367.78
453.43	364.38
453.80	361.05
454.17	357.82
454.54	354.60
454.91	351.23
455.28	348.13
455.65	345.13
456.02	342.45
456.38	339.81
456.75	336.63
457.12	333.85
457.49	331.09
457.86	328.38
458.23	326.27
458.59	323.95
458.96	321.41
459.33	319.23
459.70	317.09
460.07	315.20
460.43	313.09
460.80	311.16
461.17	309.30
461.54	307.56
461.91	305.68
462.27	304.07
462.64	302.59
463.01	300.90
463.38	299.31
463.74	297.46
464.11	295.92
464.48	294.69
464.85	293.36
465.21	292.35
465.58	291.14
465.95	289.56
466.32	288.32
466.68	287.18
467.05	286.11
467.42	284.88
467.78	283.72
468.15	282.72
468.52	281.95
468.88	280.95
469.25	279.90
469.62	279.14
469.98	278.25
470.35	277.42
470.72	276.63
471.08	275.70
471.45	274.93
471.82	274.20
472.18	273.37
472.55	272.76
472.92	272.06
473.28	271.49
473.65	271.00
474.02	270.45
474.38	269.96
474.75	269.45
475.11	268.93
475.48	268.46
475.85	268.05
476.21	267.65
476.58	267.27
476.94	266.92
477.31	266.55
477.67	266.26
478.04	266.01
478.41	265.76
478.77	265.76
479.14	265.44
479.50	265.37
479.87	265.23
480.23	265.22
480.60	265.00
480.96	264.85
481.33	264.86
481.69	264.90
482.06	264.97
482.42	264.99
482.79	264.99
483.15	265.16
483.52	265.36
483.88	265.37
484.25	265.53
484.61	265.79
484.98	266.01
485.34	266.26
485.71	266.56
486.07	266.95
486.44	267.13
486.80	267.54
487.17	267.90
487.53	268.49
487.90	268.97
488.26	269.67
488.62	270.45
488.99	271.13
489.35	271.94
489.72	272.63
490.08	273.54
490.44	274.58
490.81	275.52
491.17	276.50
491.54	277.81
491.90	279.01
492.26	280.26
492.63	281.64
492.99	283.11
493.36	284.65
493.72	286.36
494.08	288.14
494.45	290.07
494.81	292.07
495.17	294.13
495.54	296.36
495.90	298.67
496.26	300.93
496.63	303.47
496.99	306.08
497.35	308.91
497.72	311.77
498.08	314.65
498.44	317.70
498.80	321.03
499.17	324.51
499.53	328.15
499.89	331.95
500.26	335.90
500.62	340.03
500.98	344.46
501.34	348.94
501.71	353.87
502.07	358.60
502.43	363.45
502.79	368.63
503.16	374.08
503.52	379.65
503.88	385.63
504.24	391.68
504.60	397.95
504.97	404.53
505.33	411.32
505.69	418.45
506.05	425.72
506.41	433.04
506.78	440.73
507.14	448.69
507.50	456.89
507.86	465.57
508.22	474.23
508.59	482.96
508.95	491.93
509.31	501.30
509.67	511.20
510.03	521.41
510.39	531.47
510.75	542.06
511.12	552.90
511.48	563.83
511.84	575.11
512.20	586.57
512.56	598.33
512.92	610.14
513.28	622.31
513.64	635.00
514.00	647.75
514.37	660.78
514.73	673.95
515.09	687.18
515.45	700.68
515.81	714.50
516.17	728.67
516.53	743.33
516.89	757.69
517.25	772.59
517.61	787.37
517.97	802.43
518.33	817.34
518.69	832.76
519.05	848.45
519.41	864.52
519.77	880.80
520.13	897.28
520.49	914.00
520.85	930.54
521.21	946.98
521.57	964.30
521.93	980.78
522.29	998.21
522.65	1015.62
523.01	1033.20
523.37	1050.30
523.73	1068.10
524.09	1085.60
524.45	1103.72
524.81	1121.19
525.17	1139.50
525.53	1158.04
525.89	1176.78
526.25	1195.18
526.61	1213.27
526.97	1231.77
527.33	1250.43
527.68	1269.01
528.04	1287.59
528.40	1306.58
528.76	1326.02
529.12	1345.01
529.48	1364.44
529.84	1383.04
530.20	1402.13
530.56	1421.45
530.91	1441.58
531.27	1461.06
531.63	1480.11
531.99	1499.16
532.35	1518.36
532.71	1536.88
533.07	1555.97
533.42	1574.47
533.78	1593.50
534.14	1612.42
534.50	1630.46
534.86	1648.93
535.21	1666.90
535.57	1685.48
535.93	1703.97
536.29	1721.65
536.65	1739.27
537.00	1757.35
537.36	1775.20
537.72	1792.97
538.08	1809.87
538.44	1826.79
538.79	1843.52
539.15	1860.73
539.51	1877.86
539.87	1894.90
540.22	1911.98
540.58	1928.85
540.94	1945.37
541.29	1961.17
541.65	1977.51
542.01	1994.43
542.37	2010.12
542.72	2026.02
543.08	2041.64
543.44	2056.82
543.79	2071.21
544.15	2086.35
544.51	2101.32
544.87	2116.23
545.22	2130.49
545.58	2144.47
545.94	2157.01
546.29	2170.31
546.65	2183.43
547.01	2195.87
547.36	2208.36
547.72	2220.49
548.07	2231.64
548.43	2243.38
548.79	2255.33
549.14	2266.35
549.50	2276.65
549.86	2286.84
550.21	2296.70
550.57	2306.92
550.92	2317.19
551.28	2326.84
551.64	2336.57
551.99	2345.70
552.35	2354.68
552.70	2363.63
553.06	2372.93
553.41	2382.78
553.77	2391.82
554.13	2400.32
554.48	2409.17
554.84	2417.23
555.19	2425.29
555.55	2433.61
555.90	2441.21
556.26	2448.76
556.61	2456.03
556.97	2462.91
557.32	2470.51
557.68	2477.65
558.03	2484.11
558.39	2490.48
558.74	2498.91
559.10	2505.42
559.45	2511.72
559.81	2518.72
560.16	2524.72
560.52	2529.93
560.87	2536.08
561.23	2541.01
561.58	2546.53
561.94	2551.02
562.29	2555.58
562.64	2560.14
563.00	2564.88
563.35	2569.85
563.71	2574.77
564.06	2580.09
564.42	2584.72
564.77	2588.63
565.12	2593.68
565.48	2598.25
565.83	2601.42
566.19	2603.85
566.54	2606.59
566.89	2609.38
567.25	2611.56
567.60	2614.59
567.96	2617.39
568.31	2618.53
568.66	2620.57
569.02	2622.21
569.37	2623.47
569.72	2625.29
570.08	2626.72
570.43	2627.85
570.78	2628.50
571.14	2627.75
571.49	2627.64
571.84	2628.83
572.20	2628.92
572.55	2627.61
572.90	2625.85
573.26	2625.51
573.61	2624.40
573.96	2623.14
574.31	2620.72
574.67	2617.59
575.02	2614.65
575.37	2612.45
575.72	2609.84
576.08	2607.22
576.43	2604.24
576.78	2602.21
577.13	2599.78
577.49	2596.58
577.84	2592.89
578.19	2589.20
578.54	2585.70
578.90	2580.82
579.25	2575.11
579.60	2570.48
579.95	2566.04
580.30	2561.09
580.66	2555.87
581.01	2550.45
581.36	2544.61
581.71	2541.00
582.06	2536.68
582.42	2531.63
582.77	2525.77
583.12	2520.44
583.47	2515.14
583.82	2510.24
584.17	2504.11
584.53	2498.00
584.88	2492.63
585.23	2486.96
585.58	2481.71
585.93	2476.42
586.28	2471.76
586.63	2466.48
586.98	2461.04
587.34	2455.39
587.69	2450.17
588.04	2444.56
588.39	2439.06
588.74	2432.38
589.09	2425.06
589.44	2417.86
589.79	2412.00
590.14	2406.09
590.49	2399.66
590.84	2392.54
591.19	2385.62
591.54	2377.72
591.89	2369.51
592.25	2362.20
592.60	2354.18
592.95	2345.38
593.30	2337.38
593.65	2328.76
594.00	2320.94
594.35	2313.28
594.70	2304.50
595.05	2296.67
595.40	2288.10
595.75	2279.76
596.10	2273.23
596.45	2265.96
596.80	2259.45
597.15	2251.84
597.50	2244.25
597.85	2236.78
598.19	2230.05
598.54	2222.54
598.89	2216.16
599.24	2209.96
599.59	2202.17
599.94	2195.25
600.29	2188.54
600.64	2180.96
600.99	2173.16
601.34	2165.16
601.69	2156.96
602.04	2149.87
602.39	2141.75
602.74	2134.83
603.08	2127.83
603.43	2120.64
603.78	2112.77
604.13	2104.67
604.48	2096.33
604.83	2088.39
605.18	2080.90
605.53	2071.86
605.87	2062.91
606.22	2054.59
606.57	2046.02
606.92	2037.78
607.27	2029.90
607.62	2022.15
607.96	2014.27
608.31	2006.64
608.66	1998.20
609.01	1989.20
609.36	1979.66
609.70	1969.78
610.05	1959.95
610.40	1950.91
610.75	1940.63
611.10	1931.02
611.44	1920.87
611.79	1912.14
612.14	1902.49
612.49	1891.85
612.83	1882.37
613.18	1872.43
613.53	1863.02
613.88	1852.77
614.22	1843.27
614.57	1833.06
614.92	1822.69
615.27	1813.11
615.61	1802.83
615.96	1793.59
616.31	1784.70
616.65	1776.95
617.00	1769.09
617.35	1760.55
617.70	1750.84
618.04	1741.50
618.39	1732.43
618.74	1723.84
619.08	1713.93
619.43	1705.29
619.78	1696.99
620.12	1688.21
620.47	1679.94
620.82	1670.38
621.16	1662.14
621.51	1653.51
621.85	1644.26
622.20	1635.12
622.55	1626.08
622.89	1617.74
623.24	1609.17
623.59	1600.51
623.93	1591.18
624.28	1582.44
624.62	1573.36
624.97	1565.04
625.32	1557.11
625.66	1548.76
626.01	1540.19
626.35	1531.56
626.70	1522.64
627.04	1514.26
627.39	1505.48
627.73	1496.68
628.08	1488.30
628.43	1479.74
628.77	1470.79
629.12	1462.18
629.46	1453.78
629.81	1444.49
630.15	1435.22
630.50	1426.03
630.84	1416.35
631.19	1406.82
631.53	1397.41
631.88	1388.17
632.22	1378.73
632.57	1369.78
632.91	1360.64
633.26	1351.80
633.60	1342.57
633.95	1333.87
634.29	1325.41
634.64	1317.37
634.98	1308.79
635.32	1300.77
635.67	1292.52
636.01	1284.26
636.36	1276.31
636.70	1268.46
637.05	1260.65
637.39	1253.21
637.73	1245.56
638.08	1238.89
638.42	1232.20
638.77	1225.24
639.11	1218.06
639.45	1210.66
639.80	1203.10
640.14	1195.86
640.49	1188.43
640.83	1181.21
641.17	1173.73
641.52	1165.96
641.86	1158.21
642.20	1150.90
642.55	1142.98
642.89	1135.23
643.23	1127.64
643.58	1120.55
643.92	1112.76
644.26	1105.46
644.61	1098.29
644.95	1091.14
645.29	1082.92
645.64	1074.76
645.98	1067.14
646.32	1059.81
646.66	1052.52
647.01	1045.17
647.35	1037.97
647.69	1030.74
648.04	1024.03
648.38	1016.61
648.72	1009.18
649.06	1001.85
649.41	994.93
649.75	987.85
650.09	980.64
650.43	973.65
650.78	966.20
651.12	959.15
651.46	952.51
651.80	945.57
652.14	938.80
652.49	932.22
652.83	925.90
653.17	918.78
653.51	911.93
653.85	905.19
654.20	898.30
654.54	891.20
654.88	884.16
655.22	876.90
655.56	870.18
655.90	863.86
656.25	857.30
656.59	850.42
656.93	844.42
657.27	838.27
657.61	831.83
657.95	825.80
658.29	819.82
658.64	813.55
658.98	807.20
659.32	800.54
659.66	794.56
660.00	788.24
660.34	782.45
660.68	776.38
661.02	770.18
661.36	764.68
661.70	759.25
662.05	754.06
662.39	748.97
662.73	743.55
663.07	738.08
663.41	733.15
663.75	728.11
664.09	722.60
664.43	717.29
664.77	712.33
665.11	707.12
665.45	701.93
665.79	696.78
666.13	691.71
666.47	686.94
666.81	681.87
667.15	676.97
667.49	672.00
667.83	667.35
668.17	662.81
668.51	657.82
668.85	652.98
669.19	648.51
669.53	643.91
669.87	639.17
670.21	634.91
670.55	630.43
670.89	626.23
671.23	621.90
671.57	617.60
671.91	613.36
672.25	609.13
672.58	605.13
672.92	601.09
673.26	597.26
673.60	593.24
673.94	589.57
674.28	585.89
674.62	582.41
674.96	578.82
675.30	575.45
675.64	572.06
675.97	568.60
676.31	564.93
676.65	561.45
676.99	558.40
677.33	554.60
677.67	550.95
678.01	547.45
678.34	544.20
678.68	541.09
679.02	537.57
679.36	534.44
679.70	531.11
680.04	527.79
680.37	524.50
680.71	521.48
681.05	518.34
681.39	515.59
681.73	512.39
682.06	509.53
682.40	506.58
682.74	503.59
683.08	500.69
683.42	497.74
683.75	494.85
684.09	491.90
684.43	489.09
684.77	486.44
685.10	483.63
685.44	480.68
685.78	477.76
686.12	475.15
686.45	472.40
686.79	469.65
687.13	467.13
687.46	464.41
687.80	461.52
688.14	458.80
688.48	456.10
688.81	453.62
689.15	451.01
689.49	448.37
689.82	445.73
690.16	443.09
690.50	440.67
690.83	438.29
691.17	435.76
691.51	433.40
691.84	430.93
692.18	428.47
692.52	426.11
692.85	423.80
693.19	421.42
693.52	419.05
693.86	416.72
694.20	414.50
694.53	412.27
694.87	410.08
695.21	407.93
695.54	405.53
695.88	403.27
696.21	401.01
696.55	398.76
696.88	396.79
697.22	394.94
697.56	392.93
697.89	390.76
698.23	388.82
698.56	386.89
698.90	384.90
699.23	382.77
699.57	380.75
699.90	378.81
700.24	376.97
700.58	375.15
700.91	373.49
701.25	371.65
701.58	369.95
701.92	368.39
702.25	366.70
702.59	365.12
702.92	363.53
703.26	361.98
703.59	360.33
703.93	358.80
704.26	357.03
704.60	355.41
704.93	353.70
705.26	352.07
705.60	350.61
705.93	349.18
706.27	347.82
706.60	346.56
706.94	345.17
707.27	343.67
707.61	342.21
707.94	340.80
708.27	339.39
708.61	338.04
708.94	336.67
709.28	335.26
709.61	333.99
709.94	332.62
710.28	331.15
710.61	330.01
710.95	328.53
711.28	327.34
711.61	326.08
711.95	325.01
712.28	323.77
712.61	322.53
712.95	321.39
713.28	320.38
713.61	319.16
713.95	317.97
714.28	316.88
714.61	315.92
714.95	314.77
715.28	313.69
715.61	312.59
715.95	311.48
716.28	310.59
716.61	309.49
716.95	308.55
717.28	307.62
717.61	306.71
717.94	305.79
718.28	304.83
718.61	303.96
718.94	303.00
719.27	302.21
719.61	301.42
719.94	300.54
720.27	299.61
720.60	298.87
720.94	298.08
721.27	297.49
721.60	296.72
721.93	296.11
722.27	295.50
722.60	294.74
722.93	294.19
723.26	293.44
723.59	292.78
723.93	292.22
724.26	291.69
724.59	290.96
724.92	290.43
725.25	289.81
725.59	289.18
725.92	288.64
726.25	287.95
726.58	287.19
726.91	286.58
727.24	285.99
727.57	285.31
727.91	284.67
728.24	284.11
728.57	283.43
728.90	282.78
729.23	282.10
729.56	281.62
729.89	280.99
730.22	280.37
730.55	279.73
730.89	279.10
731.22	278.54
731.55	278.03
731.88	277.54
732.21	276.96
732.54	276.29
732.87	275.70
733.20	275.22
733.53	274.75
733.86	274.36
734.19	273.84
734.52	273.34
734.85	272.98
735.18	272.40
735.51	271.99
735.84	271.58
736.17	271.05
736.50	270.57
736.83	270.21
737.16	269.91
737.49	269.57
737.82	269.03
738.15	268.44
738.48	268.05
738.81	267.41
739.14	267.05
739.47	266.66
739.80	266.19
740.13	265.81
740.46	265.38
740.79	264.85
741.12	264.51
741.45	264.15
741.78	263.62
742.11	263.21
742.44	262.60
742.77	262.10
743.10	261.71
743.43	261.18
743.75	260.67
744.08	260.30
744.41	259.89
744.74	259.42
745.07	259.18
745.40	258.78
745.73	258.65
746.06	258.29
746.39	257.87
746.71	257.60
747.04	257.21
747.37	256.83
747.70	256.48
748.03	255.98
748.36	255.66
748.68	255.37
749.01	254.98
749.34	254.78
749.67	254.52
750.00	254.31
750.33	254.19
750.65	253.86
750.98	253.30
751.31	252.99
751.64	252.80
751.97	252.45
752.29	252.08
752.62	251.70
752.95	251.36
753.28	251.15
753.60	250.79
753.93	250.49
754.26	250.24
754.59	249.80
754.91	249.56
755.24	249.18
755.57	248.79
755.90	248.50
756.22	248.22
756.55	247.97
756.88	247.57
757.20	247.20
757.53	246.95
757.86	246.85
758.19	246.64
758.51	246.52
758.84	246.27
759.17	246.01
759.49	245.77
759.82	245.68
760.15	245.42
760.47	245.30
760.80	245.04
761.13	244.89
761.45	244.80
761.78	244.61
762.11	244.57
762.43	244.38
762.76	244.21
763.08	243.98
763.41	243.73
763.74	243.65
764.06	243.50
764.39	243.32
764.71	243.19
765.04	243.01
765.37	242.84
765.69	242.67
766.02	242.53
766.34	242.44
766.67	242.09
767.00	241.98
767.32	241.89
767.65	241.86
767.97	241.69
768.30	241.72
768.62	241.53
768.95	241.34
769.27	241.36
769.60	241.30
769.92	241.24
770.25	241.02
770.57	240.76
770.90	240.61
771.22	240.47
771.55	240.20
771.87	239.98
772.20	239.80
772.52	239.81
772.85	239.99
773.17	239.80
773.50	239.75
773.82	239.67
774.15	239.50
774.47	239.26
774.80	239.11
775.12	238.84
775.45	238.81
775.77	238.70
776.09	238.57
776.42	238.49
776.74	238.48
777.07	238.47
777.39	238.50
777.72	238.30
778.04	238.11
778.36	238.06
778.69	237.98
779.01	237.87
779.33	237.60
779.66	237.25
779.98	237.15
780.31	237.01
780.63	236.90
780.95	236.88
781.28	236.73
781.60	236.73
781.92	236.64
782.25	236.56
782.57	236.45
782.89	236.31
783.22	236.11
783.54	235.93
783.86	235.81
784.19	235.69
784.51	235.71
784.83	235.70
785.16	235.61
785.48	235.74
785.80	235.67
786.12	235.58
786.45	235.46
