SpectraSuite Data File
++++++++++++++++++++++++++++++++++++
Date: Fri Feb 01 14:38:13 EST 2013
User: group
Dark Spectrum Present: No
Reference Spectrum Present: No
Number of Sampled Component Spectra: 1
Spectrometers: USB2E7196
Integration Time (usec): 70000 (USB2E7196)
Spectra Averaged: 10 (USB2E7196)
Boxcar Smoothing: 10 (USB2E7196)
Correct for Electrical Dark: No (USB2E7196)
Strobe/Lamp Enabled: No (USB2E7196)
Correct for Detector Non-linearity: No (USB2E7196)
Correct for Stray Light: No (USB2E7196)
Number of Pixels in Processed Spectrum: 2048
>>>>>Begin Processed Spectral Data<<<<<
339.09	0.00
339.48	215.70
339.86	215.70
340.24	218.00
340.63	218.90
341.01	227.10
341.39	223.40
341.78	224.20
342.16	226.30
342.54	227.10
342.93	214.92
343.31	225.80
343.69	226.36
344.07	226.91
344.46	227.36
344.84	227.80
345.22	227.90
345.60	228.13
345.99	228.26
346.37	228.30
346.75	228.27
347.13	228.30
347.52	228.38
347.90	228.53
348.28	228.51
348.66	228.52
349.05	228.40
349.43	228.32
349.81	228.28
350.19	228.29
350.57	228.35
350.96	228.45
351.34	228.59
351.72	228.71
352.10	228.85
352.48	228.96
352.87	229.12
353.25	229.21
353.63	229.33
354.01	229.40
354.39	229.51
354.77	229.76
355.15	229.79
355.54	229.76
355.92	229.75
356.30	229.92
356.68	230.19
357.06	230.33
357.44	230.40
357.82	230.43
358.20	230.64
358.58	230.70
358.97	230.75
359.35	230.78
359.73	230.81
360.11	230.80
360.49	230.82
360.87	230.74
361.25	230.66
361.63	230.75
362.01	230.91
362.39	230.92
362.77	230.77
363.15	230.88
363.53	230.95
363.91	230.95
364.29	230.82
364.67	230.51
365.05	230.43
365.43	230.40
365.81	230.50
366.19	230.42
366.57	230.54
366.95	230.48
367.33	230.40
367.71	230.33
368.09	230.25
368.47	230.19
368.85	230.16
369.23	230.23
369.61	230.07
369.99	229.96
370.37	229.99
370.75	230.07
371.13	229.88
371.51	229.76
371.89	229.70
372.27	229.71
372.65	229.73
373.03	229.65
373.41	229.50
373.78	229.31
374.16	229.07
374.54	228.85
374.92	228.66
375.30	228.60
375.68	228.53
376.06	228.48
376.44	228.33
376.82	228.28
377.19	228.11
377.57	228.01
377.95	227.93
378.33	227.81
378.71	227.60
379.09	227.51
379.47	227.34
379.84	227.27
380.22	227.16
380.60	226.98
380.98	226.97
381.36	226.95
381.73	226.88
382.11	226.79
382.49	226.72
382.87	226.74
383.25	226.59
383.62	226.73
384.00	226.76
384.38	226.77
384.76	226.80
385.13	226.88
385.51	226.85
385.89	226.67
386.27	226.60
386.64	226.63
387.02	226.65
387.40	226.69
387.78	226.63
388.15	226.50
388.53	226.42
388.91	226.33
389.29	226.23
389.66	226.28
390.04	226.42
390.42	226.49
390.79	226.50
391.17	226.56
391.55	226.33
391.92	226.22
392.30	226.26
392.68	226.11
393.05	226.04
393.43	225.99
393.81	226.17
394.18	226.23
394.56	226.29
394.94	226.41
395.31	226.43
395.69	226.59
396.06	226.79
396.44	226.95
396.82	227.03
397.19	227.29
397.57	227.38
397.95	227.44
398.32	227.40
398.70	227.45
399.07	227.55
399.45	227.65
399.82	227.86
400.20	228.02
400.58	228.08
400.95	228.22
401.33	228.43
401.70	228.66
402.08	228.70
402.45	228.84
402.83	229.03
403.20	229.18
403.58	229.16
403.95	229.35
404.33	229.56
404.71	229.78
405.08	230.02
405.46	230.21
405.83	230.39
406.21	230.67
406.58	230.84
406.96	231.03
407.33	231.24
407.70	231.44
408.08	231.79
408.45	232.27
408.83	232.47
409.20	232.78
409.58	232.91
409.95	233.31
410.33	233.71
410.70	233.82
411.08	234.19
411.45	234.67
411.82	234.94
412.20	235.31
412.57	235.94
412.95	236.21
413.32	236.70
413.69	237.21
414.07	237.75
414.44	238.37
414.82	238.94
415.19	239.63
415.56	240.21
415.94	240.78
416.31	241.46
416.68	242.28
417.06	243.13
417.43	244.07
417.81	245.02
418.18	245.92
418.55	247.11
418.93	248.21
419.30	249.43
419.67	250.76
420.04	252.01
420.42	253.15
420.79	254.79
421.16	256.32
421.54	257.99
421.91	259.53
422.28	261.22
422.66	262.99
423.03	264.86
423.40	266.75
423.77	268.70
424.15	270.70
424.52	272.74
424.89	275.00
425.26	277.08
425.64	279.16
426.01	281.41
426.38	283.62
426.75	286.09
427.13	288.43
427.50	290.96
427.87	293.62
428.24	296.34
428.61	298.82
428.99	301.66
429.36	304.67
429.73	307.76
430.10	310.69
430.47	313.83
430.85	316.83
431.22	320.20
431.59	323.73
431.96	326.90
432.33	330.58
432.70	334.01
433.08	338.28
433.45	342.29
433.82	346.13
434.19	350.60
434.56	354.82
434.93	358.96
435.30	363.11
435.68	367.57
436.05	371.98
436.42	376.35
436.79	380.41
437.16	384.66
437.53	389.17
437.90	393.69
438.27	398.23
438.64	402.84
439.01	407.26
439.38	411.09
439.75	414.90
440.13	419.16
440.50	423.37
440.87	426.57
441.24	429.85
441.61	433.60
441.98	436.40
442.35	439.61
442.72	442.99
443.09	446.10
443.46	448.20
443.83	449.78
444.20	451.05
444.57	452.84
444.94	453.89
445.31	454.90
445.68	456.12
446.05	456.74
446.42	456.77
446.79	456.47
447.16	456.24
447.53	456.31
447.90	454.94
448.27	453.60
448.64	451.71
449.01	450.57
449.37	448.04
449.74	445.42
450.11	442.45
450.48	438.98
450.85	435.49
451.22	432.57
451.59	429.57
451.96	426.93
452.33	423.20
452.70	419.78
453.07	415.78
453.43	411.60
453.80	407.47
454.17	403.34
454.54	399.64
454.91	395.67
455.28	391.76
455.65	388.15
456.02	384.39
456.38	381.23
456.75	377.08
457.12	373.80
457.49	370.60
457.86	367.36
458.23	364.57
458.59	361.48
458.96	358.38
459.33	355.50
459.70	352.67
460.07	350.33
460.43	347.69
460.80	345.14
461.17	342.96
461.54	340.65
461.91	338.69
462.27	336.37
462.64	334.35
463.01	332.08
463.38	330.06
463.74	327.97
464.11	326.02
464.48	324.42
464.85	322.55
465.21	321.21
465.58	319.76
465.95	317.94
466.32	316.47
466.68	314.89
467.05	313.44
467.42	311.98
467.78	310.41
468.15	308.88
468.52	307.72
468.88	306.10
469.25	304.80
469.62	303.57
469.98	302.40
470.35	301.24
470.72	300.21
471.08	298.94
471.45	297.97
471.82	296.92
472.18	295.82
472.55	294.99
472.92	293.90
473.28	292.94
473.65	292.05
474.02	291.33
474.38	290.57
474.75	289.93
475.11	289.21
475.48	288.52
475.85	288.02
476.21	287.42
476.58	286.85
476.94	286.23
477.31	285.69
477.67	285.16
478.04	284.74
478.41	284.39
478.77	284.27
479.14	283.81
479.50	283.56
479.87	283.30
480.23	283.05
480.60	282.73
480.96	282.50
481.33	282.41
481.69	282.16
482.06	282.04
482.42	281.87
482.79	281.68
483.15	281.69
483.52	281.57
483.88	281.44
484.25	281.38
484.61	281.45
484.98	281.37
485.34	281.45
485.71	281.56
486.07	281.60
486.44	281.63
486.80	281.65
487.17	281.76
487.53	282.03
487.90	282.30
488.26	282.62
488.62	282.80
488.99	282.99
489.35	283.14
489.72	283.36
490.08	283.68
490.44	284.09
490.81	284.38
491.17	284.76
491.54	285.06
491.90	285.35
492.26	285.67
492.63	286.15
492.99	286.50
493.36	286.84
493.72	287.30
494.08	287.53
494.45	288.01
494.81	288.33
495.17	288.84
495.54	289.23
495.90	289.65
496.26	290.09
496.63	290.57
496.99	291.01
497.35	291.54
497.72	291.97
498.08	292.38
498.44	292.80
498.80	293.25
499.17	293.82
499.53	294.33
499.89	294.85
500.26	295.25
500.62	295.72
500.98	296.11
501.34	296.36
501.71	296.81
502.07	297.20
502.43	297.63
502.79	297.83
503.16	298.02
503.52	298.30
503.88	298.57
504.24	298.77
504.60	299.02
504.97	299.22
505.33	299.48
505.69	299.75
506.05	300.00
506.41	300.25
506.78	300.42
507.14	300.72
507.50	300.92
507.86	301.20
508.22	301.46
508.59	301.77
508.95	302.12
509.31	302.46
509.67	302.71
510.03	302.94
510.39	303.17
510.75	303.50
511.12	303.72
511.48	303.98
511.84	304.32
512.20	304.68
512.56	305.15
512.92	305.57
513.28	305.95
513.64	306.34
514.00	306.84
514.37	307.31
514.73	307.71
515.09	308.22
515.45	308.70
515.81	309.17
516.17	309.78
516.53	310.50
516.89	311.19
517.25	311.93
517.61	312.90
517.97	313.80
518.33	314.80
518.69	315.85
519.05	317.00
519.41	318.21
519.77	319.54
520.13	320.61
520.49	321.68
520.85	322.99
521.21	324.46
521.57	325.96
521.93	327.40
522.29	329.14
522.65	330.73
523.01	332.45
523.37	334.19
523.73	335.99
524.09	337.94
524.45	339.99
524.81	342.13
525.17	344.32
525.53	346.51
525.89	348.84
526.25	351.31
526.61	353.85
526.97	356.38
527.33	359.00
527.68	362.11
528.04	365.03
528.40	367.90
528.76	371.01
529.12	374.04
529.48	377.29
529.84	380.40
530.20	383.84
530.56	387.51
530.91	391.17
531.27	394.94
531.63	398.53
531.99	402.38
532.35	406.15
532.71	410.08
533.07	414.22
533.42	418.43
533.78	422.56
534.14	426.83
534.50	431.12
534.86	435.61
535.21	439.70
535.57	444.45
535.93	449.09
536.29	453.74
536.65	458.59
537.00	463.50
537.36	468.45
537.72	473.46
538.08	478.30
538.44	483.26
538.79	488.37
539.15	493.35
539.51	498.39
539.87	503.87
540.22	509.09
540.58	514.40
540.94	519.66
541.29	525.15
541.65	530.30
542.01	535.83
542.37	541.26
542.72	546.70
543.08	552.05
543.44	557.72
543.79	563.11
544.15	568.47
544.51	574.02
544.87	579.62
545.22	585.09
545.58	590.56
545.94	596.07
546.29	601.35
546.65	607.07
547.01	612.60
547.36	617.91
547.72	623.51
548.07	629.00
548.43	634.35
548.79	639.91
549.14	645.35
549.50	650.92
549.86	656.19
550.21	661.79
550.57	667.40
550.92	672.80
551.28	677.82
551.64	683.31
551.99	688.61
552.35	693.82
552.70	699.35
553.06	704.86
553.41	710.35
553.77	715.90
554.13	721.30
554.48	726.76
554.84	732.17
555.19	737.27
555.55	742.52
555.90	747.76
556.26	752.59
556.61	757.87
556.97	762.59
557.32	767.58
557.68	772.46
558.03	777.36
558.39	782.33
558.74	787.81
559.10	792.94
559.45	797.83
559.81	802.94
560.16	807.46
560.52	812.11
560.87	817.05
561.23	821.57
561.58	826.35
561.94	830.76
562.29	834.99
562.64	839.43
563.00	843.90
563.35	848.70
563.71	853.26
564.06	857.88
564.42	862.45
564.77	867.10
565.12	871.59
565.48	876.11
565.83	880.05
566.19	884.08
566.54	887.96
566.89	891.83
567.25	895.55
567.60	899.78
567.96	903.62
568.31	907.37
568.66	910.93
569.02	914.49
569.37	917.90
569.72	921.74
570.08	925.05
570.43	928.13
570.78	930.88
571.14	933.78
571.49	936.98
571.84	940.30
572.20	942.70
572.55	945.48
572.90	947.64
573.26	950.76
573.61	953.20
573.96	955.48
574.31	957.52
574.67	959.40
575.02	961.18
575.37	963.13
575.72	964.52
576.08	966.72
576.43	968.14
576.78	970.10
577.13	971.80
577.49	973.59
577.84	975.12
578.19	976.77
578.54	978.05
578.90	978.26
579.25	978.61
579.60	979.75
579.95	980.55
580.30	981.37
580.66	981.49
581.01	981.90
581.36	982.78
581.71	983.86
582.06	984.66
582.42	985.31
582.77	985.76
583.12	986.34
583.47	986.72
583.82	987.25
584.17	987.07
584.53	987.27
584.88	987.21
585.23	987.55
585.58	987.53
585.93	987.66
586.28	988.51
586.63	988.80
586.98	989.14
587.34	989.23
587.69	989.26
588.04	989.57
588.39	989.80
588.74	989.14
589.09	988.72
589.44	988.18
589.79	987.69
590.14	987.47
590.49	986.83
590.84	986.24
591.19	985.88
591.54	985.16
591.89	983.97
592.25	983.44
592.60	982.20
592.95	981.15
593.30	979.94
593.65	978.55
594.00	977.32
594.35	976.44
594.70	974.70
595.05	973.39
595.40	971.79
595.75	970.04
596.10	969.06
596.45	967.40
596.80	966.39
597.15	964.94
597.50	963.42
597.85	962.10
598.19	960.87
598.54	959.25
598.89	957.84
599.24	956.75
599.59	955.16
599.94	953.84
600.29	952.29
600.64	950.90
600.99	949.09
601.34	947.66
601.69	945.45
602.04	943.94
602.39	942.17
602.74	940.66
603.08	939.68
603.43	937.97
603.78	936.54
604.13	934.65
604.48	932.76
604.83	930.97
605.18	929.40
605.53	926.84
605.87	924.43
606.22	922.74
606.57	920.33
606.92	918.22
607.27	916.17
607.62	914.49
607.96	912.42
608.31	910.61
608.66	907.82
609.01	905.29
609.36	902.91
609.70	900.28
610.05	897.49
610.40	894.44
610.75	891.69
611.10	888.78
611.44	885.87
611.79	883.50
612.14	880.60
612.49	877.10
612.83	874.41
613.18	871.82
613.53	868.74
613.88	865.58
614.22	862.57
614.57	859.25
614.92	855.80
615.27	852.95
615.61	849.58
615.96	846.67
616.31	843.93
616.65	841.51
617.00	838.91
617.35	836.22
617.70	833.20
618.04	829.98
618.39	827.33
618.74	824.63
619.08	821.12
619.43	818.23
619.78	815.79
620.12	812.77
620.47	809.61
620.82	806.70
621.16	804.06
621.51	801.24
621.85	798.53
622.20	795.51
622.55	792.44
622.89	789.86
623.24	787.49
623.59	784.59
623.93	781.78
624.28	778.72
624.62	775.77
624.97	773.10
625.32	770.47
625.66	767.46
626.01	764.51
626.35	762.08
626.70	759.14
627.04	756.22
627.39	753.44
627.73	750.61
628.08	747.77
628.43	744.66
628.77	741.60
629.12	738.58
629.46	735.83
629.81	732.74
630.15	729.57
630.50	726.35
630.84	723.10
631.19	719.40
631.53	716.44
631.88	713.12
632.22	709.71
632.57	706.66
632.91	703.45
633.26	700.19
633.60	696.77
633.95	693.60
634.29	690.57
634.64	687.70
634.98	684.50
635.32	681.60
635.67	679.09
636.01	676.24
636.36	673.43
636.70	670.52
637.05	667.80
637.39	665.13
637.73	662.42
638.08	659.96
638.42	657.45
638.77	654.66
639.11	651.90
639.45	649.18
639.80	646.27
640.14	643.64
640.49	640.99
640.83	638.29
641.17	635.69
641.52	632.82
641.86	629.94
642.20	627.51
642.55	624.80
642.89	621.76
643.23	618.88
643.58	616.30
643.92	613.32
644.26	610.65
644.61	607.94
644.95	605.03
645.29	601.96
645.64	598.96
645.98	596.20
646.32	593.60
646.66	590.90
647.01	588.15
647.35	585.47
647.69	582.85
648.04	580.38
648.38	577.52
648.72	574.78
649.06	571.79
649.41	568.93
649.75	565.75
650.09	563.03
650.43	560.12
650.78	557.05
651.12	554.39
651.46	551.61
651.80	548.86
652.14	546.29
652.49	543.70
652.83	541.20
653.17	538.46
653.51	535.53
653.85	532.82
654.20	530.06
654.54	527.10
654.88	524.10
655.22	521.23
655.56	518.51
655.90	515.83
656.25	513.23
656.59	510.67
656.93	508.33
657.27	505.69
657.61	503.11
657.95	500.76
658.29	498.13
658.64	495.52
658.98	492.87
659.32	490.13
659.66	487.69
660.00	485.20
660.34	482.71
660.68	480.34
661.02	477.96
661.36	475.72
661.70	473.57
662.05	471.43
662.39	469.20
662.73	466.99
663.07	464.87
663.41	462.87
663.75	460.76
664.09	458.43
664.43	456.20
664.77	454.19
665.11	451.97
665.45	449.88
665.79	447.83
666.13	445.86
666.47	443.89
666.81	441.74
667.15	439.56
667.49	437.55
667.83	435.69
668.17	433.70
668.51	431.76
668.85	429.82
669.19	428.11
669.53	426.15
669.87	424.24
670.21	422.35
670.55	420.47
670.89	418.65
671.23	417.09
671.57	415.50
671.91	413.78
672.25	412.10
672.58	410.63
672.92	409.04
673.26	407.26
673.60	405.77
673.94	404.22
674.28	402.74
674.62	401.38
674.96	399.81
675.30	398.30
675.64	396.67
675.97	395.24
676.31	393.68
676.65	392.32
676.99	390.99
677.33	389.40
677.67	387.96
678.01	386.50
678.34	385.02
678.68	383.50
679.02	382.04
679.36	380.60
679.70	379.04
680.04	377.60
680.37	376.30
680.71	374.80
681.05	373.37
681.39	372.07
681.73	370.62
682.06	369.39
682.40	368.26
682.74	367.05
683.08	365.77
683.42	364.39
683.75	362.94
684.09	361.44
684.43	360.20
684.77	358.86
685.10	357.45
685.44	356.12
685.78	355.08
686.12	353.97
686.45	352.78
686.79	351.56
687.13	350.18
687.46	348.80
687.80	347.55
688.14	346.33
688.48	345.15
688.81	343.95
689.15	342.68
689.49	341.30
689.82	340.08
690.16	338.74
690.50	337.64
690.83	336.45
691.17	335.45
691.51	334.42
691.84	333.39
692.18	332.29
692.52	331.13
692.85	329.81
693.19	328.71
693.52	327.47
693.86	326.36
694.20	325.39
694.53	324.39
694.87	323.21
695.21	322.24
695.54	320.99
695.88	319.78
696.21	318.68
696.55	317.67
696.88	316.73
697.22	315.77
697.56	314.89
697.89	313.90
698.23	312.78
698.56	311.66
698.90	310.60
699.23	309.64
699.57	308.63
699.90	307.57
700.24	306.53
700.58	305.74
700.91	304.88
701.25	304.09
701.58	303.41
701.92	302.70
702.25	301.68
702.59	300.93
702.92	300.28
703.26	299.63
703.59	298.71
703.93	298.03
704.26	297.29
704.60	296.45
704.93	295.74
705.26	295.08
705.60	294.42
705.93	293.71
706.27	293.07
706.60	292.57
706.94	292.13
707.27	291.36
707.61	290.57
707.94	289.92
708.27	289.04
708.61	288.23
708.94	287.55
709.28	286.97
709.61	286.42
709.94	285.81
710.28	285.21
710.61	284.85
710.95	284.04
711.28	283.50
711.61	282.74
711.95	282.17
712.28	281.45
712.61	280.90
712.95	280.38
713.28	279.80
713.61	279.13
713.95	278.50
714.28	278.04
714.61	277.56
714.95	277.08
715.28	276.72
715.61	276.08
715.95	275.54
716.28	275.03
716.61	274.50
716.95	273.99
717.28	273.50
717.61	272.92
717.94	272.48
718.28	271.89
718.61	271.52
718.94	271.14
719.27	270.76
719.61	270.35
719.94	269.90
720.27	269.55
720.60	269.12
720.94	268.67
721.27	268.25
721.60	267.89
721.93	267.51
722.27	267.11
722.60	266.81
722.93	266.42
723.26	266.14
723.59	265.74
723.93	265.30
724.26	264.86
724.59	264.45
724.92	264.18
725.25	263.87
725.59	263.50
725.92	263.12
726.25	262.73
726.58	262.30
726.91	261.98
727.24	261.58
727.57	261.26
727.91	260.84
728.24	260.50
728.57	260.18
728.90	259.83
729.23	259.37
729.56	259.11
729.89	258.90
730.22	258.50
730.55	258.19
730.89	257.90
731.22	257.66
731.55	257.32
731.88	256.88
732.21	256.52
732.54	256.08
732.87	255.77
733.20	255.63
733.53	255.34
733.86	255.09
734.19	254.71
734.52	254.30
734.85	254.21
735.18	253.91
735.51	253.62
735.84	253.28
736.17	253.13
736.50	252.75
736.83	252.62
737.16	252.38
737.49	252.09
737.82	251.74
738.15	251.44
738.48	251.18
738.81	251.00
739.14	250.72
739.47	250.54
739.80	250.26
740.13	249.99
740.46	249.88
740.79	249.50
741.12	249.27
741.45	249.14
741.78	248.75
742.11	248.56
742.44	248.23
742.77	248.00
743.10	247.69
743.43	247.40
743.75	246.97
744.08	247.01
744.41	246.82
744.74	246.67
745.07	246.36
745.40	246.17
745.73	245.97
746.06	245.79
746.39	245.61
746.71	245.44
747.04	245.11
747.37	244.76
747.70	244.62
748.03	244.50
748.36	244.37
748.68	244.23
749.01	244.04
749.34	243.90
749.67	243.80
750.00	243.71
750.33	243.71
750.65	243.59
750.98	243.13
751.31	242.93
751.64	242.83
751.97	242.77
752.29	242.62
752.62	242.35
752.95	242.23
753.28	242.02
753.60	241.77
753.93	241.64
754.26	241.51
754.59	241.43
754.91	241.30
755.24	241.17
755.57	241.11
755.90	240.97
756.22	240.75
756.55	240.61
756.88	240.41
757.20	240.22
757.53	240.03
757.86	239.97
758.19	239.91
758.51	239.82
758.84	239.73
759.17	239.62
759.49	239.55
759.82	239.43
760.15	239.41
760.47	239.35
760.80	239.24
761.13	239.21
761.45	239.01
761.78	238.90
762.11	238.78
762.43	238.64
762.76	238.51
763.08	238.57
763.41	238.50
763.74	238.39
764.06	238.27
764.39	238.23
764.71	238.15
765.04	238.06
765.37	237.89
765.69	237.77
766.02	237.73
766.34	237.58
766.67	237.56
767.00	237.58
767.32	237.56
767.65	237.65
767.97	237.58
768.30	237.54
768.62	237.50
768.95	237.34
769.27	237.32
769.60	237.27
769.92	237.10
770.25	237.00
770.57	237.00
770.90	236.97
771.22	236.96
771.55	236.90
771.87	236.82
772.20	236.77
772.52	236.81
772.85	236.98
773.17	236.97
773.50	236.80
773.82	236.56
774.15	236.36
774.47	236.23
774.80	236.15
775.12	236.03
775.45	235.88
775.77	235.89
776.09	235.65
776.42	235.55
776.74	235.51
777.07	235.33
777.39	235.21
777.72	234.98
778.04	234.86
778.36	234.73
778.69	234.62
779.01	234.56
779.33	234.34
779.66	233.99
779.98	233.95
780.31	233.94
780.63	233.94
780.95	233.95
781.28	233.86
781.60	233.65
781.92	233.55
782.25	233.50
782.57	233.33
782.89	233.35
783.22	233.22
783.54	233.10
783.86	233.04
784.19	232.85
784.51	232.90
784.83	232.73
785.16	232.69
785.48	232.64
785.80	232.57
786.12	232.50
786.45	232.44
786.77	232.35
787.09	232.23
787.42	232.14
787.74	232.12
788.06	231.99
788.38	231.92
788.71	231.92
789.03	231.86
789.35	231.87
789.67	231.77
789.99	231.79
790.32	231.66
790.64	231.63
790.96	231.74
791.28	231.62
791.61	231.64
791.93	231.54
792.25	231.43
792.57	231.46
792.89	231.32
793.21	231.31
793.54	231.27
793.86	231.20
794.18	231.19
