SpectraSuite Data File
++++++++++++++++++++++++++++++++++++
Date: Fri Feb 01 14:34:45 EST 2013
User: group
Dark Spectrum Present: No
Reference Spectrum Present: No
Number of Sampled Component Spectra: 1
Spectrometers: USB2E7196
Integration Time (usec): 70000 (USB2E7196)
Spectra Averaged: 10 (USB2E7196)
Boxcar Smoothing: 10 (USB2E7196)
Correct for Electrical Dark: No (USB2E7196)
Strobe/Lamp Enabled: No (USB2E7196)
Correct for Detector Non-linearity: No (USB2E7196)
Correct for Stray Light: No (USB2E7196)
Number of Pixels in Processed Spectrum: 2048
>>>>>Begin Processed Spectral Data<<<<<
339.09	0.00
339.48	215.70
339.86	218.90
340.24	218.30
340.63	220.60
341.01	226.40
341.39	223.90
341.78	223.50
342.16	227.40
342.54	226.70
342.93	215.20
343.31	226.09
343.69	226.66
344.07	227.16
344.46	227.64
344.84	228.01
345.22	228.20
345.60	228.40
345.99	228.65
346.37	228.79
346.75	228.86
347.13	228.97
347.52	228.99
347.90	229.09
348.28	229.12
348.66	229.15
349.05	229.10
349.43	229.10
349.81	229.20
350.19	229.19
350.57	229.18
350.96	229.40
351.34	229.50
351.72	229.64
352.10	229.67
352.48	229.71
352.87	229.75
353.25	229.75
353.63	229.86
354.01	229.88
354.39	229.92
354.77	229.95
355.15	230.09
355.54	230.13
355.92	230.13
356.30	230.16
356.68	230.30
357.06	230.35
357.44	230.31
357.82	230.43
358.20	230.43
358.58	230.40
358.97	230.44
359.35	230.50
359.73	230.47
360.11	230.53
360.49	230.51
360.87	230.59
361.25	230.66
361.63	230.72
362.01	230.85
362.39	230.78
362.77	230.90
363.15	230.87
363.53	230.87
363.91	230.95
364.29	231.00
364.67	230.83
365.05	230.73
365.43	230.71
365.81	230.55
366.19	230.73
366.57	230.80
366.95	230.74
367.33	230.62
367.71	230.60
368.09	230.47
368.47	230.51
368.85	230.43
369.23	230.34
369.61	230.20
369.99	230.15
370.37	230.20
370.75	230.25
371.13	230.15
371.51	230.01
371.89	229.93
372.27	229.84
372.65	229.72
373.03	229.62
373.41	229.64
373.78	229.56
374.16	229.27
374.54	229.13
374.92	228.93
375.30	228.81
375.68	228.76
376.06	228.71
376.44	228.61
376.82	228.52
377.19	228.49
377.57	228.44
377.95	228.30
378.33	228.11
378.71	227.81
379.09	227.73
379.47	227.71
379.84	227.62
380.22	227.59
380.60	227.61
380.98	227.67
381.36	227.55
381.73	227.51
382.11	227.51
382.49	227.40
382.87	227.38
383.25	227.34
383.62	227.53
384.00	227.38
384.38	227.34
384.76	227.35
385.13	227.33
385.51	227.26
385.89	227.13
386.27	227.18
386.64	227.28
387.02	227.26
387.40	227.19
387.78	227.11
388.15	227.10
388.53	226.94
388.91	226.88
389.29	226.88
389.66	226.90
390.04	226.90
390.42	226.96
390.79	227.08
391.17	227.14
391.55	226.80
391.92	226.89
392.30	226.97
392.68	226.94
393.05	227.08
393.43	227.13
393.81	227.24
394.18	227.25
394.56	227.28
394.94	227.42
395.31	227.61
395.69	227.84
396.06	227.89
396.44	227.97
396.82	228.00
397.19	228.24
397.57	228.30
397.95	228.37
398.32	228.46
398.70	228.46
399.07	228.68
399.45	228.95
399.82	229.05
400.20	229.20
400.58	229.32
400.95	229.39
401.33	229.61
401.70	229.99
402.08	230.14
402.45	230.22
402.83	230.50
403.20	230.77
403.58	231.03
403.95	231.27
404.33	231.70
404.71	232.07
405.08	232.44
405.46	232.70
405.83	233.16
406.21	233.58
406.58	233.98
406.96	234.29
407.33	234.71
407.70	235.30
408.08	235.89
408.45	236.51
408.83	237.06
409.20	237.57
409.58	238.09
409.95	238.74
410.33	239.50
410.70	240.05
411.08	240.76
411.45	241.54
411.82	242.46
412.20	243.30
412.57	244.37
412.95	245.15
413.32	246.37
413.69	247.44
414.07	248.62
414.44	249.98
414.82	251.40
415.19	252.92
415.56	254.49
415.94	256.23
416.31	258.03
416.68	259.91
417.06	262.07
417.43	263.90
417.81	266.19
418.18	268.63
418.55	271.18
418.93	273.77
419.30	276.46
419.67	279.24
420.04	282.20
420.42	285.35
420.79	288.95
421.16	292.52
421.54	296.20
421.91	300.02
422.28	304.11
422.66	308.20
423.03	312.39
423.40	316.60
423.77	321.00
424.15	325.67
424.52	330.37
424.89	335.52
425.26	340.80
425.64	345.65
426.01	350.79
426.38	356.31
426.75	361.91
427.13	367.70
427.50	373.77
427.87	380.11
428.24	386.38
428.61	392.47
428.99	399.14
429.36	406.46
429.73	413.72
430.10	420.67
430.47	428.00
430.85	435.37
431.22	443.26
431.59	451.53
431.96	459.43
432.33	468.43
432.70	476.99
433.08	486.85
433.45	496.27
433.82	505.88
434.19	516.45
434.56	526.80
434.93	536.50
435.30	546.06
435.68	556.74
436.05	567.41
436.42	577.77
436.79	587.33
437.16	597.54
437.53	608.22
437.90	619.03
438.27	629.51
438.64	640.38
439.01	650.70
439.38	659.88
439.75	668.70
440.13	678.67
440.50	688.11
440.87	696.19
441.24	704.42
441.61	713.22
441.98	719.80
442.35	727.61
442.72	735.82
443.09	744.24
443.46	749.41
443.83	752.93
444.20	756.41
444.57	761.14
444.94	763.80
445.31	766.80
445.68	769.55
446.05	771.51
446.42	771.95
446.79	771.91
447.16	771.79
447.53	772.29
447.90	769.81
448.27	767.42
448.64	762.95
449.01	760.64
449.37	754.91
449.74	749.27
450.11	742.28
450.48	734.25
450.85	725.85
451.22	719.32
451.59	713.13
451.96	707.08
452.33	698.29
452.70	690.66
453.07	680.94
453.43	671.24
453.80	661.72
454.17	652.39
454.54	643.76
454.91	634.36
455.28	624.87
455.65	616.22
456.02	607.01
456.38	599.61
456.75	589.74
457.12	581.85
457.49	574.23
457.86	566.60
458.23	560.34
458.59	553.22
458.96	545.60
459.33	538.90
459.70	532.10
460.07	526.96
460.43	520.71
460.80	514.85
461.17	509.70
461.54	504.47
461.91	499.56
462.27	494.17
462.64	489.75
463.01	484.92
463.38	480.00
463.74	475.57
464.11	471.31
464.48	467.70
464.85	463.74
465.21	460.29
465.58	456.91
465.95	452.75
466.32	449.59
466.68	446.27
467.05	443.11
467.42	439.87
467.78	436.21
468.15	432.87
468.52	430.43
468.88	427.26
469.25	424.34
469.62	421.86
469.98	419.36
470.35	416.98
470.72	414.86
471.08	412.49
471.45	410.35
471.82	408.28
472.18	406.00
472.55	404.40
472.92	402.69
473.28	400.87
473.65	399.25
474.02	397.27
474.38	395.67
474.75	394.30
475.11	392.92
475.48	391.83
475.85	391.04
476.21	390.09
476.58	389.24
476.94	388.52
477.31	387.75
477.67	387.00
478.04	386.42
478.41	385.82
478.77	385.61
479.14	385.02
479.50	384.77
479.87	384.68
480.23	384.51
480.60	384.13
480.96	383.93
481.33	384.04
481.69	384.25
482.06	384.39
482.42	384.30
482.79	384.46
483.15	384.97
483.52	385.44
483.88	385.85
484.25	386.32
484.61	386.89
484.98	387.55
485.34	388.51
485.71	389.47
486.07	390.40
486.44	391.26
486.80	392.60
487.17	393.74
487.53	395.10
487.90	396.48
488.26	398.24
488.62	400.00
488.99	401.81
489.35	403.53
489.72	405.51
490.08	407.68
490.44	409.72
490.81	411.80
491.17	413.90
491.54	416.10
491.90	418.41
492.26	420.98
492.63	423.46
492.99	425.99
493.36	428.51
493.72	431.53
494.08	434.35
494.45	437.36
494.81	440.49
495.17	443.50
495.54	446.60
495.90	449.85
496.26	453.15
496.63	456.50
496.99	460.00
497.35	463.57
497.72	467.13
498.08	470.98
498.44	474.68
498.80	478.64
499.17	482.76
499.53	486.70
499.89	490.60
500.26	494.49
500.62	498.42
500.98	502.63
501.34	506.70
501.71	510.78
502.07	514.65
502.43	518.63
502.79	522.72
503.16	526.88
503.52	530.82
503.88	534.90
504.24	538.95
504.60	543.01
504.97	546.90
505.33	551.03
505.69	555.27
506.05	559.56
506.41	563.31
506.78	566.95
507.14	570.61
507.50	574.42
507.86	578.53
508.22	582.33
508.59	585.95
508.95	589.56
509.31	593.31
509.67	596.98
510.03	600.68
510.39	604.49
510.75	608.08
511.12	611.70
511.48	615.40
511.84	618.89
512.20	622.28
512.56	625.74
512.92	628.95
513.28	631.92
513.64	634.80
514.00	638.00
514.37	641.04
514.73	644.19
515.09	647.08
515.45	649.65
515.81	652.49
516.17	655.39
516.53	657.99
516.89	660.54
517.25	663.08
517.61	665.56
517.97	667.80
518.33	669.74
518.69	671.89
519.05	673.70
519.41	675.83
519.77	678.26
520.13	680.31
520.49	682.28
520.85	684.18
521.21	686.00
521.57	687.93
521.93	689.78
522.29	691.76
522.65	693.47
523.01	695.29
523.37	696.87
523.73	698.47
524.09	700.23
524.45	701.90
524.81	703.68
525.17	705.40
525.53	707.04
525.89	709.04
526.25	710.67
526.61	712.36
526.97	713.89
527.33	715.20
527.68	717.06
528.04	718.64
528.40	720.56
528.76	722.48
529.12	724.40
529.48	726.33
529.84	728.05
530.20	730.02
530.56	732.12
530.91	734.43
531.27	736.43
531.63	738.48
531.99	740.35
532.35	742.30
532.71	744.23
533.07	746.35
533.42	748.54
533.78	750.74
534.14	753.18
534.50	755.34
534.86	757.62
535.21	759.37
535.57	762.10
535.93	764.30
536.29	766.70
536.65	768.84
537.00	771.15
537.36	773.49
537.72	775.99
538.08	778.32
538.44	780.40
538.79	782.60
539.15	784.83
539.51	787.40
539.87	790.20
540.22	792.56
540.58	795.35
540.94	797.81
541.29	800.46
541.65	802.87
542.01	805.59
542.37	808.35
542.72	811.23
543.08	813.73
543.44	816.41
543.79	818.86
544.15	821.64
544.51	824.64
544.87	827.53
545.22	830.09
545.58	832.74
545.94	835.43
546.29	838.15
546.65	841.00
547.01	843.65
547.36	846.23
547.72	849.08
548.07	851.77
548.43	854.18
548.79	856.73
549.14	859.31
549.50	862.07
549.86	864.46
550.21	867.14
550.57	869.70
550.92	872.31
551.28	874.81
551.64	877.39
551.99	879.76
552.35	882.08
552.70	884.92
553.06	887.40
553.41	890.30
553.77	893.30
554.13	896.12
554.48	898.89
554.84	901.43
555.19	904.15
555.55	906.59
555.90	909.50
556.26	912.18
556.61	914.98
556.97	917.08
557.32	919.87
557.68	922.64
558.03	925.45
558.39	927.88
558.74	930.79
559.10	933.45
559.45	936.02
559.81	939.10
560.16	941.36
560.52	944.02
560.87	946.51
561.23	948.73
561.58	951.07
561.94	953.39
562.29	955.60
562.64	957.61
563.00	959.96
563.35	962.32
563.71	965.10
564.06	967.46
564.42	970.08
564.77	972.54
565.12	974.69
565.48	976.78
565.83	978.99
566.19	981.04
566.54	983.00
566.89	984.72
567.25	986.46
567.60	988.88
567.96	990.94
568.31	992.84
568.66	994.43
569.02	995.92
569.37	997.72
569.72	999.40
570.08	1001.32
570.43	1002.67
570.78	1004.13
571.14	1005.04
571.49	1006.10
571.84	1007.60
572.20	1008.10
572.55	1009.24
572.90	1009.95
573.26	1011.11
573.61	1011.87
573.96	1012.60
574.31	1013.23
574.67	1013.59
575.02	1013.67
575.37	1014.01
575.72	1013.86
576.08	1014.19
576.43	1014.28
576.78	1014.60
577.13	1015.01
577.49	1015.25
577.84	1015.25
578.19	1015.06
578.54	1014.91
578.90	1014.63
579.25	1013.69
579.60	1013.50
579.95	1012.97
580.30	1012.65
580.66	1011.92
581.01	1011.14
581.36	1010.78
581.71	1010.34
582.06	1009.52
582.42	1008.63
582.77	1007.57
583.12	1007.02
583.47	1006.32
583.82	1005.88
584.17	1004.54
584.53	1003.39
584.88	1002.22
585.23	1001.17
585.58	999.98
585.93	998.76
586.28	997.82
586.63	997.31
586.98	996.32
587.34	995.07
587.69	993.60
588.04	992.46
588.39	991.43
588.74	989.61
589.09	988.28
589.44	986.76
589.79	985.47
590.14	984.23
590.49	982.70
590.84	980.82
591.19	979.38
591.54	977.48
591.89	975.52
592.25	973.60
592.60	971.45
592.95	969.52
593.30	967.55
593.65	965.33
594.00	962.91
594.35	960.97
594.70	958.43
595.05	956.30
595.40	953.88
595.75	951.52
596.10	949.39
596.45	947.12
596.80	945.25
597.15	943.03
597.50	940.66
597.85	938.30
598.19	936.53
598.54	933.79
598.89	931.74
599.24	929.77
599.59	927.33
599.94	925.27
600.29	922.90
600.64	920.46
600.99	918.07
601.34	916.10
601.69	913.46
602.04	911.33
602.39	908.96
602.74	906.62
603.08	904.38
603.43	902.19
603.78	899.81
604.13	897.26
604.48	894.77
604.83	892.43
605.18	890.25
605.53	887.31
605.87	884.50
606.22	882.03
606.57	879.09
606.92	876.62
607.27	874.14
607.62	871.93
607.96	869.62
608.31	867.20
608.66	863.84
609.01	861.29
609.36	858.37
609.70	855.18
610.05	851.86
610.40	848.81
610.75	845.54
611.10	842.43
611.44	839.17
611.79	836.03
612.14	832.80
612.49	829.15
612.83	825.82
613.18	822.69
613.53	819.39
613.88	816.18
614.22	813.02
614.57	809.52
614.92	805.98
615.27	802.62
615.61	799.14
615.96	796.15
616.31	792.69
616.65	790.04
617.00	787.22
617.35	784.56
617.70	781.19
618.04	777.94
618.39	774.58
618.74	771.51
619.08	768.28
619.43	765.13
619.78	762.18
620.12	759.12
620.47	755.94
620.82	752.62
621.16	749.43
621.51	746.28
621.85	743.65
622.20	740.42
622.55	737.30
622.89	734.26
623.24	731.15
623.59	728.19
623.93	725.01
624.28	722.19
624.62	719.22
624.97	716.48
625.32	713.76
625.66	711.05
626.01	708.04
626.35	705.04
626.70	702.00
627.04	699.35
627.39	696.41
627.73	693.55
628.08	690.70
628.43	687.77
628.77	684.82
629.12	681.45
629.46	678.41
629.81	675.20
630.15	672.24
630.50	669.28
630.84	666.10
631.19	662.91
631.53	659.53
631.88	656.18
632.22	652.87
632.57	649.68
632.91	646.65
633.26	643.67
633.60	640.67
633.95	637.92
634.29	634.66
634.64	632.03
634.98	629.25
635.32	626.49
635.67	623.88
636.01	621.17
636.36	618.35
636.70	615.85
637.05	613.29
637.39	610.61
637.73	608.20
638.08	605.90
638.42	603.38
638.77	600.94
639.11	598.31
639.45	595.86
639.80	593.24
640.14	590.66
640.49	588.07
640.83	585.57
641.17	582.90
641.52	580.35
641.86	577.62
642.20	575.13
642.55	572.66
642.89	569.94
643.23	567.21
643.58	565.08
643.92	562.40
644.26	559.86
644.61	557.45
644.95	554.70
645.29	551.91
645.64	549.06
645.98	546.52
646.32	544.13
646.66	541.64
647.01	539.40
647.35	537.06
647.69	534.81
648.04	532.57
648.38	530.03
648.72	527.60
649.06	525.13
649.41	522.74
649.75	520.18
650.09	517.84
650.43	515.33
650.78	512.57
651.12	510.11
651.46	507.90
651.80	505.62
652.14	503.26
652.49	501.12
652.83	499.00
653.17	496.70
653.51	494.36
653.85	492.20
654.20	489.70
654.54	487.26
654.88	484.71
655.22	482.13
655.56	479.79
655.90	477.37
656.25	475.10
656.59	472.82
656.93	470.68
657.27	468.49
657.61	466.28
657.95	464.19
658.29	462.35
658.64	460.16
658.98	457.80
659.32	455.66
659.66	453.43
660.00	451.32
660.34	449.25
660.68	447.20
661.02	444.91
661.36	442.78
661.70	440.84
662.05	438.97
662.39	437.23
662.73	435.52
663.07	433.84
663.41	432.26
663.75	430.30
664.09	428.49
664.43	426.68
664.77	424.96
665.11	423.27
665.45	421.32
665.79	419.56
666.13	417.86
666.47	416.13
666.81	414.30
667.15	412.51
667.49	410.85
667.83	409.22
668.17	407.51
668.51	405.96
668.85	404.28
669.19	402.84
669.53	401.14
669.87	399.36
670.21	397.99
670.55	396.25
670.89	394.81
671.23	393.41
671.57	391.91
671.91	390.50
672.25	388.90
672.58	387.56
672.92	386.01
673.26	384.63
673.60	383.21
673.94	381.96
674.28	380.71
674.62	379.42
674.96	378.02
675.30	376.79
675.64	375.56
675.97	374.28
676.31	372.90
676.65	371.75
676.99	370.59
677.33	369.00
677.67	367.70
678.01	366.33
678.34	364.98
678.68	363.63
679.02	362.26
679.36	360.96
679.70	359.61
680.04	358.54
680.37	357.28
680.71	356.09
681.05	354.81
681.39	353.55
681.73	352.41
682.06	351.36
682.40	350.25
682.74	349.02
683.08	347.90
683.42	346.70
683.75	345.42
684.09	344.11
684.43	343.13
684.77	341.95
685.10	340.90
685.44	339.75
685.78	338.72
686.12	337.64
686.45	336.56
686.79	335.37
687.13	334.23
687.46	333.09
687.80	332.00
688.14	330.93
688.48	329.95
688.81	328.76
689.15	327.63
689.49	326.54
689.82	325.61
690.16	324.48
690.50	323.40
690.83	322.37
691.17	321.46
691.51	320.38
691.84	319.48
692.18	318.45
692.52	317.40
692.85	316.42
693.19	315.59
693.52	314.66
693.86	313.74
694.20	312.70
694.53	311.90
694.87	310.90
695.21	310.00
695.54	309.04
695.88	308.20
696.21	307.24
696.55	306.28
696.88	305.31
697.22	304.52
697.56	303.84
697.89	302.96
698.23	302.18
698.56	301.39
698.90	300.63
699.23	299.90
699.57	299.08
699.90	298.30
700.24	297.49
700.58	296.80
700.91	296.08
701.25	295.56
701.58	294.81
701.92	294.28
702.25	293.58
702.59	292.92
702.92	292.27
703.26	291.81
703.59	291.27
703.93	290.78
704.26	290.11
704.60	289.34
704.93	288.70
705.26	288.03
705.60	287.54
705.93	287.01
706.27	286.38
706.60	286.08
706.94	285.56
707.27	284.96
707.61	284.33
707.94	283.83
708.27	283.08
708.61	282.60
708.94	282.05
709.28	281.59
709.61	281.03
709.94	280.40
710.28	279.78
710.61	279.18
710.95	278.51
711.28	278.07
711.61	277.57
711.95	277.24
712.28	276.66
712.61	276.07
712.95	275.52
713.28	275.17
713.61	274.46
713.95	273.95
714.28	273.40
714.61	272.90
714.95	272.47
715.28	271.98
715.61	271.45
715.95	271.00
716.28	270.42
716.61	269.87
716.95	269.45
717.28	269.01
717.61	268.65
717.94	268.28
718.28	267.65
718.61	267.23
718.94	266.65
719.27	266.33
719.61	265.98
719.94	265.55
720.27	265.02
720.60	264.71
720.94	264.38
721.27	264.14
721.60	263.85
721.93	263.47
722.27	263.23
722.60	262.87
722.93	262.50
723.26	262.28
723.59	262.09
723.93	261.72
724.26	261.48
724.59	261.18
724.92	260.74
725.25	260.56
725.59	260.31
725.92	260.18
726.25	259.89
726.58	259.41
726.91	259.15
727.24	258.98
727.57	258.53
727.91	258.14
728.24	257.84
728.57	257.49
728.90	257.27
729.23	256.83
729.56	256.54
729.89	256.22
730.22	255.95
730.55	255.64
730.89	255.36
731.22	254.99
731.55	254.74
731.88	254.56
732.21	254.25
732.54	253.91
732.87	253.52
733.20	253.25
733.53	252.94
733.86	252.70
734.19	252.34
734.52	252.19
734.85	252.02
735.18	251.77
735.51	251.58
735.84	251.28
736.17	251.17
736.50	250.88
736.83	250.90
737.16	250.66
737.49	250.41
737.82	250.26
738.15	250.12
738.48	249.87
738.81	249.70
739.14	249.57
739.47	249.30
739.80	249.11
740.13	248.96
740.46	248.86
740.79	248.62
741.12	248.44
741.45	248.26
741.78	248.00
742.11	247.78
742.44	247.51
742.77	247.32
743.10	247.10
743.43	246.86
743.75	246.52
744.08	246.52
744.41	246.30
744.74	246.15
745.07	245.85
745.40	245.68
745.73	245.50
746.06	245.27
746.39	245.23
746.71	245.14
747.04	244.99
747.37	244.90
747.70	244.76
748.03	244.60
748.36	244.48
748.68	244.35
749.01	244.12
749.34	243.88
749.67	243.71
750.00	243.60
750.33	243.58
750.65	243.35
750.98	242.89
751.31	242.72
751.64	242.50
751.97	242.43
752.29	242.28
752.62	242.04
752.95	242.06
753.28	241.91
753.60	241.74
753.93	241.56
754.26	241.46
754.59	241.31
754.91	241.14
755.24	240.96
755.57	240.90
755.90	240.80
756.22	240.80
756.55	240.70
756.88	240.50
757.20	240.33
757.53	240.19
757.86	240.26
758.19	240.17
758.51	240.05
758.84	239.77
759.17	239.65
759.49	239.60
759.82	239.35
760.15	239.12
760.47	238.95
760.80	238.85
761.13	238.71
761.45	238.58
761.78	238.38
762.11	238.16
762.43	238.03
762.76	237.88
763.08	237.73
763.41	237.50
763.74	237.36
764.06	237.23
764.39	237.10
764.71	236.90
765.04	236.81
765.37	236.72
765.69	236.71
766.02	236.58
766.34	236.45
766.67	236.37
767.00	236.39
767.32	236.38
767.65	236.26
767.97	236.07
768.30	235.97
768.62	235.95
768.95	236.03
769.27	235.88
769.60	235.84
769.92	235.78
770.25	235.72
770.57	235.79
770.90	235.68
771.22	235.53
771.55	235.37
771.87	235.24
772.20	235.19
772.52	235.29
772.85	235.36
773.17	235.26
773.50	235.09
773.82	234.98
774.15	234.78
774.47	234.68
774.80	234.69
775.12	234.57
775.45	234.42
775.77	234.18
776.09	234.10
776.42	234.05
776.74	234.01
777.07	233.93
777.39	233.76
777.72	233.71
778.04	233.74
778.36	233.73
778.69	233.73
779.01	233.60
779.33	233.40
779.66	233.26
779.98	233.33
780.31	233.30
780.63	233.26
780.95	233.31
781.28	233.25
781.60	233.10
781.92	233.02
782.25	233.07
782.57	233.07
782.89	233.07
783.22	232.98
783.54	232.84
783.86	232.90
784.19	232.68
784.51	232.75
784.83	232.70
785.16	232.72
785.48	232.64
785.80	232.66
786.12	232.60
786.45	232.60
786.77	232.43
787.09	232.44
787.42	232.37
787.74	232.29
788.06	232.30
788.38	232.31
788.71	232.29
789.03	232.25
789.35	232.24
789.67	232.15
789.99	232.10
790.32	232.04
790.64	232.00
790.96	232.23
791.28	232.02
791.61	231.90
791.93	231.91
792.25	231.90
792.57	231.97
792.89	231.83
793.21	231.81
