SpectraSuite Data File
++++++++++++++++++++++++++++++++++++
Date: Fri Feb 01 14:39:15 EST 2013
User: group
Dark Spectrum Present: No
Reference Spectrum Present: No
Number of Sampled Component Spectra: 1
Spectrometers: USB2E7196
Integration Time (usec): 70000 (USB2E7196)
Spectra Averaged: 10 (USB2E7196)
Boxcar Smoothing: 10 (USB2E7196)
Correct for Electrical Dark: No (USB2E7196)
Strobe/Lamp Enabled: No (USB2E7196)
Correct for Detector Non-linearity: No (USB2E7196)
Correct for Stray Light: No (USB2E7196)
Number of Pixels in Processed Spectrum: 2048
>>>>>Begin Processed Spectral Data<<<<<
339.09	0.00
339.48	216.70
339.86	218.20
340.24	218.70
340.63	219.60
341.01	223.20
341.39	222.30
341.78	223.90
342.16	225.80
342.54	225.10
342.93	214.51
343.31	225.30
343.69	225.78
344.07	226.28
344.46	226.71
344.84	227.11
345.22	227.32
345.60	227.62
345.99	227.90
346.37	227.98
346.75	228.14
347.13	228.11
347.52	228.23
347.90	228.36
348.28	228.34
348.66	228.44
349.05	228.46
349.43	228.52
349.81	228.50
350.19	228.58
350.57	228.59
350.96	228.67
351.34	228.83
351.72	228.87
352.10	228.92
352.48	228.89
352.87	228.95
353.25	228.99
353.63	229.07
354.01	228.98
354.39	229.13
354.77	229.17
355.15	229.35
355.54	229.39
355.92	229.42
356.30	229.49
356.68	229.68
357.06	229.71
357.44	229.72
357.82	229.72
358.20	229.79
358.58	229.82
358.97	229.81
359.35	229.83
359.73	229.90
360.11	229.89
360.49	230.02
360.87	230.14
361.25	230.25
361.63	230.29
362.01	230.45
362.39	230.30
362.77	230.38
363.15	230.27
363.53	230.38
363.91	230.32
364.29	230.33
364.67	230.07
365.05	230.11
365.43	230.14
365.81	230.16
366.19	230.12
366.57	230.14
366.95	230.17
367.33	230.06
367.71	230.13
368.09	230.10
368.47	230.20
368.85	230.04
369.23	229.98
369.61	229.90
369.99	229.75
370.37	229.85
370.75	229.76
371.13	229.71
371.51	229.54
371.89	229.50
372.27	229.48
372.65	229.51
373.03	229.36
373.41	229.25
373.78	229.06
374.16	228.92
374.54	228.81
374.92	228.66
375.30	228.59
375.68	228.43
376.06	228.38
376.44	228.17
376.82	228.10
377.19	228.00
377.57	227.91
377.95	227.86
378.33	227.76
378.71	227.65
379.09	227.54
379.47	227.40
379.84	227.28
380.22	227.10
380.60	226.84
380.98	226.71
381.36	226.63
381.73	226.58
382.11	226.65
382.49	226.65
382.87	226.66
383.25	226.64
383.62	226.78
384.00	226.72
384.38	226.68
384.76	226.73
385.13	226.76
385.51	226.64
385.89	226.60
386.27	226.63
386.64	226.52
387.02	226.45
387.40	226.54
387.78	226.51
388.15	226.54
388.53	226.63
388.91	226.75
389.29	226.70
389.66	226.75
390.04	226.57
390.42	226.51
390.79	226.52
391.17	226.51
391.55	226.40
391.92	226.40
392.30	226.42
392.68	226.35
393.05	226.41
393.43	226.56
393.81	226.61
394.18	226.61
394.56	226.76
394.94	227.01
395.31	226.99
395.69	227.10
396.06	227.17
396.44	227.24
396.82	227.30
397.19	227.51
397.57	227.67
397.95	227.89
398.32	227.89
398.70	227.86
399.07	227.97
399.45	228.01
399.82	228.15
400.20	228.10
400.58	228.18
400.95	228.25
401.33	228.33
401.70	228.45
402.08	228.57
402.45	228.54
402.83	228.70
403.20	228.86
403.58	229.02
403.95	229.24
404.33	229.39
404.71	229.43
405.08	229.70
405.46	229.80
405.83	229.97
406.21	230.16
406.58	230.44
406.96	230.57
407.33	230.72
407.70	230.95
408.08	231.47
408.45	231.67
408.83	231.84
409.20	231.99
409.58	232.23
409.95	232.43
410.33	232.91
410.70	233.05
411.08	233.43
411.45	233.65
411.82	233.91
412.20	234.31
412.57	234.75
412.95	234.89
413.32	235.30
413.69	235.70
414.07	235.99
414.44	236.44
414.82	236.94
415.19	237.61
415.56	238.09
415.94	238.53
416.31	239.17
416.68	239.83
417.06	240.64
417.43	241.25
417.81	241.98
418.18	242.67
418.55	243.49
418.93	244.32
419.30	245.24
419.67	246.32
420.04	247.27
420.42	248.31
420.79	249.53
421.16	250.71
421.54	251.93
421.91	253.37
422.28	254.75
422.66	256.27
423.03	257.54
423.40	259.02
423.77	260.59
424.15	262.20
424.52	263.68
424.89	265.45
425.26	267.16
425.64	268.81
426.01	270.59
426.38	272.49
426.75	274.39
427.13	276.37
427.50	278.33
427.87	280.46
428.24	282.54
428.61	284.60
428.99	286.84
429.36	289.25
429.73	291.64
430.10	293.94
430.47	296.28
430.85	298.75
431.22	301.22
431.59	303.90
431.96	306.64
432.33	309.70
432.70	312.55
433.08	315.83
433.45	318.88
433.82	322.09
434.19	325.39
434.56	328.62
434.93	331.74
435.30	334.83
435.68	338.18
436.05	341.55
436.42	344.86
436.79	347.96
437.16	351.00
437.53	354.32
437.90	357.78
438.27	361.16
438.64	364.59
439.01	367.81
439.38	370.64
439.75	373.15
440.13	376.25
440.50	379.13
440.87	381.42
441.24	384.00
441.61	386.70
441.98	388.75
442.35	391.04
442.72	393.44
443.09	395.76
443.46	397.25
443.83	398.20
444.20	399.05
444.57	400.00
444.94	400.75
445.31	401.49
445.68	402.14
446.05	402.40
446.42	402.16
446.79	401.99
447.16	401.79
447.53	401.66
447.90	400.57
448.27	399.30
448.64	397.71
449.01	396.56
449.37	394.46
449.74	392.51
450.11	390.16
450.48	387.40
450.85	384.55
451.22	382.27
451.59	380.03
451.96	377.79
452.33	375.08
452.70	372.39
453.07	369.12
453.43	365.69
453.80	362.47
454.17	359.53
454.54	356.50
454.91	353.30
455.28	350.30
455.65	347.24
456.02	344.57
456.38	342.25
456.75	339.22
457.12	336.55
457.49	333.77
457.86	331.17
458.23	329.03
458.59	326.72
458.96	324.07
459.33	321.85
459.70	319.80
460.07	317.94
460.43	315.98
460.80	314.09
461.17	312.43
461.54	310.61
461.91	308.81
462.27	307.20
462.64	305.55
463.01	303.82
463.38	302.22
463.74	300.44
464.11	298.87
464.48	297.50
464.85	296.04
465.21	295.05
465.58	293.90
465.95	292.50
466.32	291.31
466.68	290.29
467.05	289.22
467.42	287.97
467.78	286.80
468.15	285.64
468.52	284.78
468.88	283.60
469.25	282.75
469.62	281.91
469.98	280.97
470.35	280.17
470.72	279.29
471.08	278.46
471.45	277.74
471.82	276.99
472.18	276.25
472.55	275.55
472.92	274.67
473.28	274.03
473.65	273.45
474.02	272.71
474.38	272.09
474.75	271.47
475.11	271.02
475.48	270.57
475.85	270.12
476.21	269.50
476.58	269.16
476.94	268.62
477.31	268.21
477.67	267.75
478.04	267.39
478.41	267.16
478.77	267.03
479.14	266.63
479.50	266.34
479.87	266.00
480.23	265.80
480.60	265.50
480.96	265.18
481.33	264.96
481.69	264.83
482.06	264.68
482.42	264.57
482.79	264.38
483.15	264.30
483.52	264.34
483.88	264.32
484.25	264.10
484.61	264.16
484.98	263.96
485.34	263.98
485.71	264.03
486.07	264.05
486.44	263.99
486.80	264.12
487.17	264.20
487.53	264.37
487.90	264.54
488.26	264.81
488.62	264.96
488.99	265.04
489.35	265.23
489.72	265.38
490.08	265.43
490.44	265.49
490.81	265.60
491.17	265.64
491.54	265.88
491.90	266.21
492.26	266.26
492.63	266.62
492.99	266.87
493.36	267.16
493.72	267.38
494.08	267.65
494.45	267.85
494.81	268.11
495.17	268.28
495.54	268.44
495.90	268.66
496.26	268.93
496.63	269.19
496.99	269.48
497.35	269.84
497.72	270.30
498.08	270.78
498.44	271.28
498.80	271.79
499.17	272.24
499.53	272.65
499.89	273.16
500.26	273.68
500.62	274.23
500.98	274.74
501.34	275.30
501.71	275.99
502.07	276.65
502.43	277.21
502.79	277.93
503.16	278.64
503.52	279.37
503.88	280.12
504.24	280.91
504.60	281.68
504.97	282.53
505.33	283.40
505.69	284.22
506.05	285.00
506.41	285.83
506.78	286.71
507.14	287.78
507.50	288.96
507.86	290.06
508.22	291.14
508.59	292.37
508.95	293.57
509.31	294.68
509.67	295.93
510.03	297.40
510.39	298.86
510.75	300.50
511.12	302.16
511.48	303.73
511.84	305.50
512.20	307.28
512.56	309.08
512.92	310.98
513.28	313.07
513.64	315.14
514.00	317.40
514.37	319.71
514.73	322.09
515.09	324.42
515.45	326.85
515.81	329.40
516.17	331.91
516.53	334.62
516.89	337.48
517.25	340.38
517.61	343.40
517.97	346.48
518.33	349.61
518.69	352.90
519.05	356.52
519.41	359.97
519.77	363.49
520.13	367.17
520.49	370.93
520.85	374.77
521.21	378.67
521.57	382.63
521.93	386.67
522.29	390.76
522.65	394.94
523.01	399.20
523.37	403.66
523.73	408.24
524.09	412.87
524.45	417.38
524.81	422.25
525.17	427.22
525.53	432.18
525.89	437.23
526.25	442.34
526.61	447.29
526.97	452.68
527.33	458.28
527.68	463.86
528.04	469.36
528.40	475.04
528.76	480.84
529.12	486.75
529.48	492.81
529.84	498.68
530.20	504.85
530.56	511.17
530.91	517.63
531.27	524.00
531.63	530.42
531.99	537.10
532.35	543.57
532.71	550.10
533.07	556.94
533.42	563.71
533.78	570.39
534.14	577.36
534.50	584.19
534.86	590.93
535.21	597.76
535.57	605.03
535.93	611.90
536.29	619.04
536.65	626.31
537.00	633.29
537.36	640.74
537.72	647.94
538.08	655.25
538.44	662.15
538.79	669.41
539.15	676.59
539.51	684.01
539.87	691.68
540.22	699.12
540.58	706.61
540.94	713.88
541.29	721.41
541.65	728.75
542.01	736.28
542.37	743.72
542.72	751.10
543.08	758.23
543.44	765.91
543.79	773.14
544.15	780.22
544.51	787.70
544.87	795.14
545.22	802.42
545.58	809.71
545.94	816.87
546.29	824.15
546.65	831.47
547.01	838.27
547.36	844.97
547.72	851.94
548.07	858.90
548.43	865.68
548.79	872.28
549.14	879.06
549.50	885.53
549.86	891.95
550.21	898.47
550.57	905.36
550.92	911.69
551.28	918.18
551.64	924.58
551.99	931.00
552.35	937.31
552.70	943.84
553.06	950.39
553.41	956.96
553.77	963.19
554.13	969.55
554.48	975.88
554.84	981.97
555.19	987.96
555.55	993.91
555.90	999.81
556.26	1006.03
556.61	1011.85
556.97	1017.47
557.32	1023.52
557.68	1029.37
558.03	1034.81
558.39	1040.50
558.74	1046.61
559.10	1052.18
559.45	1057.89
559.81	1063.60
560.16	1068.64
560.52	1073.52
560.87	1078.80
561.23	1083.74
561.58	1088.70
561.94	1093.80
562.29	1098.68
562.64	1103.29
563.00	1107.53
563.35	1112.47
563.71	1117.44
564.06	1122.49
564.42	1127.27
564.77	1131.77
565.12	1136.26
565.48	1140.61
565.83	1144.85
566.19	1148.78
566.54	1152.56
566.89	1156.38
567.25	1159.91
567.60	1164.27
567.96	1168.25
568.31	1171.74
568.66	1175.36
569.02	1179.01
569.37	1182.06
569.72	1185.53
570.08	1188.74
570.43	1191.87
570.78	1194.96
571.14	1197.31
571.49	1199.74
571.84	1202.89
572.20	1205.22
572.55	1207.46
572.90	1209.79
573.26	1212.24
573.61	1214.07
573.96	1216.44
574.31	1217.99
574.67	1219.13
575.02	1220.15
575.37	1221.37
575.72	1222.24
576.08	1223.20
576.43	1224.05
576.78	1225.16
577.13	1226.08
577.49	1227.22
577.84	1228.25
578.19	1228.95
578.54	1229.51
578.90	1230.02
579.25	1229.59
579.60	1229.95
579.95	1230.14
580.30	1230.05
580.66	1229.46
581.01	1229.56
581.36	1229.31
581.71	1229.17
582.06	1229.18
582.42	1228.79
582.77	1228.18
583.12	1228.06
583.47	1227.80
583.82	1227.65
584.17	1227.07
584.53	1226.41
584.88	1225.70
585.23	1225.20
585.58	1224.57
585.93	1223.78
586.28	1223.30
586.63	1223.27
586.98	1222.83
587.34	1222.15
587.69	1221.37
588.04	1220.83
588.39	1219.93
588.74	1218.44
589.09	1217.21
589.44	1215.73
589.79	1214.49
590.14	1213.67
590.49	1212.14
590.84	1210.75
591.19	1208.97
591.54	1207.08
591.89	1204.85
592.25	1202.95
592.60	1200.44
592.95	1197.83
593.30	1195.70
593.65	1193.04
594.00	1190.49
594.35	1188.23
594.70	1185.59
595.05	1183.24
595.40	1180.61
595.75	1177.43
596.10	1175.40
596.45	1173.38
596.80	1171.79
597.15	1169.52
597.50	1167.03
597.85	1165.03
598.19	1163.03
598.54	1160.93
598.89	1158.86
599.24	1157.21
599.59	1154.94
599.94	1152.86
600.29	1150.84
600.64	1148.64
600.99	1145.84
601.34	1143.24
601.69	1140.30
602.04	1137.94
602.39	1135.26
602.74	1132.88
603.08	1131.12
603.43	1128.84
603.78	1126.05
604.13	1123.09
604.48	1120.38
604.83	1117.63
605.18	1114.86
605.53	1111.24
605.87	1107.57
606.22	1104.76
606.57	1101.29
606.92	1098.08
607.27	1095.49
607.62	1092.58
607.96	1089.71
608.31	1087.29
608.66	1083.95
609.01	1080.41
609.36	1076.64
609.70	1072.95
610.05	1069.26
610.40	1065.62
610.75	1062.00
611.10	1058.08
611.44	1054.05
611.79	1050.66
612.14	1046.71
612.49	1042.11
612.83	1038.26
613.18	1034.26
613.53	1030.01
613.88	1025.87
614.22	1021.90
614.57	1017.41
614.92	1013.07
615.27	1009.13
615.61	1004.67
615.96	1000.77
616.31	997.44
616.65	994.42
617.00	990.77
617.35	986.84
617.70	982.80
618.04	978.47
618.39	974.76
618.74	971.10
619.08	966.87
619.43	963.12
619.78	959.77
620.12	956.10
620.47	952.67
620.82	948.58
621.16	945.08
621.51	941.44
621.85	937.57
622.20	933.40
622.55	929.10
622.89	925.30
623.24	921.69
623.59	917.43
623.93	913.30
624.28	909.48
624.62	905.62
624.97	901.89
625.32	898.33
625.66	894.80
626.01	890.95
626.35	887.10
626.70	883.18
627.04	879.62
627.39	875.80
627.73	871.75
628.08	868.25
628.43	864.35
628.77	860.43
629.12	856.60
629.46	852.96
629.81	848.75
630.15	844.59
630.50	840.30
630.84	836.40
631.19	832.16
631.53	828.01
631.88	823.81
632.22	819.37
632.57	815.37
632.91	810.89
633.26	806.71
633.60	802.65
633.95	798.56
634.29	794.40
634.64	790.54
634.98	786.59
635.32	782.80
635.67	779.19
636.01	775.21
636.36	771.39
636.70	767.71
637.05	764.25
637.39	760.79
637.73	757.42
638.08	754.05
638.42	750.50
638.77	747.25
639.11	743.87
639.45	740.35
639.80	736.69
640.14	733.20
640.49	729.59
640.83	726.11
641.17	722.73
641.52	719.03
641.86	715.62
642.20	712.33
642.55	708.67
642.89	705.10
643.23	701.73
643.58	698.39
643.92	694.85
644.26	691.37
644.61	688.23
644.95	684.47
645.29	680.39
645.64	676.76
645.98	673.15
646.32	669.80
646.66	666.41
647.01	662.86
647.35	659.46
647.69	656.30
648.04	652.92
648.38	649.23
648.72	645.77
649.06	641.90
649.41	638.50
649.75	634.70
650.09	631.05
650.43	627.32
650.78	623.67
651.12	620.13
651.46	616.82
651.80	613.15
652.14	610.08
652.49	607.10
652.83	603.93
653.17	600.42
653.51	596.99
653.85	593.63
654.20	590.19
654.54	586.69
654.88	583.05
655.22	579.31
655.56	576.01
655.90	573.00
656.25	570.00
656.59	566.70
656.93	564.01
657.27	560.86
657.61	557.65
657.95	554.77
658.29	551.80
658.64	548.79
658.98	545.58
659.32	542.28
659.66	538.99
660.00	535.90
660.34	532.91
660.68	529.80
661.02	526.88
661.36	524.12
661.70	521.45
662.05	518.89
662.39	516.61
662.73	514.07
663.07	511.19
663.41	508.50
663.75	505.95
664.09	503.21
664.43	500.41
664.77	498.06
665.11	495.56
665.45	493.15
665.79	490.43
666.13	488.04
666.47	485.60
666.81	483.20
667.15	480.70
667.49	478.31
667.83	475.98
668.17	473.58
668.51	471.26
668.85	468.85
669.19	466.56
669.53	464.09
669.87	461.67
670.21	459.45
670.55	457.08
670.89	455.02
671.23	452.86
671.57	450.89
671.91	448.78
672.25	446.31
672.58	444.26
672.92	442.26
673.26	440.34
673.60	438.23
673.94	436.31
674.28	434.31
674.62	432.48
674.96	430.50
675.30	428.73
675.64	426.83
675.97	425.05
676.31	423.02
676.65	421.13
676.99	419.34
677.33	417.47
677.67	415.82
678.01	413.73
678.34	411.80
678.68	410.11
679.02	408.23
679.36	406.66
679.70	404.85
680.04	403.00
680.37	401.22
680.71	399.61
681.05	397.94
681.39	396.32
681.73	394.77
682.06	393.22
682.40	391.48
682.74	389.93
683.08	388.25
683.42	386.68
683.75	385.06
684.09	383.35
684.43	381.70
684.77	380.05
685.10	378.68
685.44	377.09
685.78	375.55
686.12	374.00
686.45	372.34
686.79	370.60
687.13	369.15
687.46	367.54
687.80	366.07
688.14	364.53
688.48	363.07
688.81	361.35
689.15	359.97
689.49	358.51
689.82	356.94
690.16	355.45
690.50	354.11
690.83	352.83
691.17	351.37
691.51	350.11
691.84	348.80
692.18	347.25
692.52	345.98
692.85	344.62
693.19	343.39
693.52	342.06
693.86	340.94
694.20	339.80
694.53	338.54
694.87	337.17
695.21	335.89
695.54	334.64
695.88	333.41
696.21	332.12
696.55	330.86
696.88	329.67
697.22	328.51
697.56	327.39
697.89	326.13
698.23	325.17
698.56	323.92
698.90	322.87
699.23	321.76
699.57	320.61
699.90	319.41
700.24	318.16
700.58	317.16
700.91	316.00
701.25	315.00
701.58	314.03
701.92	313.11
702.25	312.26
702.59	311.32
702.92	310.41
703.26	309.47
703.59	308.74
703.93	308.00
704.26	307.09
704.60	306.20
704.93	305.38
705.26	304.50
705.60	303.82
705.93	302.95
706.27	302.24
706.60	301.64
706.94	300.89
707.27	300.18
707.61	299.39
707.94	298.71
708.27	297.84
708.61	297.07
708.94	296.36
709.28	295.69
709.61	294.99
709.94	294.37
710.28	293.60
710.61	292.82
710.95	291.90
711.28	291.38
711.61	290.70
711.95	290.07
712.28	289.31
712.61	288.52
712.95	287.95
713.28	287.27
713.61	286.48
713.95	285.77
714.28	285.22
714.61	284.65
714.95	283.98
715.28	283.30
715.61	282.65
715.95	282.08
716.28	281.27
716.61	280.64
716.95	280.05
717.28	279.70
717.61	279.17
717.94	278.71
718.28	278.09
718.61	277.51
718.94	276.95
719.27	276.55
719.61	276.05
719.94	275.32
720.27	274.69
720.60	274.33
720.94	274.06
721.27	273.61
721.60	273.14
721.93	272.79
722.27	272.52
722.60	272.07
722.93	271.54
723.26	271.22
723.59	270.74
723.93	270.21
724.26	269.67
724.59	269.12
724.92	268.67
725.25	268.18
725.59	267.68
725.92	267.28
726.25	266.84
726.58	266.43
726.91	266.07
727.24	265.76
727.57	265.28
727.91	264.75
728.24	264.35
728.57	263.93
728.90	263.46
729.23	262.92
729.56	262.61
729.89	262.21
730.22	261.82
730.55	261.45
730.89	261.16
731.22	260.68
731.55	260.36
731.88	259.96
732.21	259.53
732.54	259.22
732.87	258.82
733.20	258.43
733.53	258.16
733.86	257.87
734.19	257.54
734.52	257.16
734.85	256.96
735.18	256.55
735.51	256.27
735.84	255.92
736.17	255.77
736.50	255.31
736.83	255.13
737.16	254.87
737.49	254.56
737.82	254.23
738.15	254.09
738.48	253.84
738.81	253.59
739.14	253.44
739.47	253.20
739.80	252.91
740.13	252.68
740.46	252.36
740.79	252.01
741.12	251.74
741.45	251.52
741.78	251.20
742.11	251.04
742.44	250.74
742.77	250.59
743.10	250.19
743.43	249.97
743.75	249.63
744.08	249.54
744.41	249.33
744.74	249.01
745.07	248.71
745.40	248.49
745.73	248.32
746.06	248.10
746.39	247.81
746.71	247.60
747.04	247.38
747.37	247.20
747.70	247.14
748.03	246.94
748.36	246.72
748.68	246.47
749.01	246.25
749.34	246.02
749.67	245.78
750.00	245.70
750.33	245.71
750.65	245.54
750.98	245.22
751.31	245.03
751.64	244.98
751.97	244.98
752.29	244.79
752.62	244.55
752.95	244.38
753.28	244.20
753.60	244.09
753.93	243.88
754.26	243.76
754.59	243.62
754.91	243.47
755.24	243.34
755.57	243.20
755.90	243.07
756.22	242.80
756.55	242.61
756.88	242.30
757.20	242.02
757.53	241.85
757.86	241.66
758.19	241.69
758.51	241.46
758.84	241.18
759.17	241.10
759.49	240.98
759.82	240.89
760.15	240.82
760.47	240.69
760.80	240.53
761.13	240.29
761.45	240.06
761.78	239.90
762.11	239.86
762.43	239.69
762.76	239.55
763.08	239.69
763.41	239.59
763.74	239.58
764.06	239.45
764.39	239.41
764.71	239.26
765.04	239.03
765.37	238.89
765.69	238.78
766.02	238.59
766.34	238.47
766.67	238.30
767.00	238.19
767.32	238.12
767.65	238.13
767.97	238.10
768.30	238.06
768.62	237.92
768.95	237.65
769.27	237.57
769.60	237.42
769.92	237.20
770.25	237.04
770.57	236.85
770.90	236.68
771.22	236.46
771.55	236.36
771.87	236.30
772.20	236.23
772.52	236.26
772.85	236.42
773.17	236.32
773.50	236.22
773.82	236.12
774.15	235.98
774.47	235.80
774.80	235.60
775.12	235.38
775.45	235.31
775.77	235.31
776.09	235.18
776.42	235.05
776.74	234.95
777.07	234.87
777.39	234.88
777.72	234.91
778.04	234.83
778.36	234.74
778.69	234.63
779.01	234.60
779.33	234.35
779.66	234.00
779.98	233.86
780.31	233.85
780.63	233.89
780.95	233.77
781.28	233.70
781.60	233.71
781.92	233.70
782.25	233.67
782.57	233.51
782.89	233.50
783.22	233.49
783.54	233.45
783.86	233.45
784.19	233.32
784.51	233.27
784.83	233.23
785.16	233.16
785.48	233.09
785.80	232.99
786.12	232.98
786.45	233.12
786.77	233.10
787.09	232.98
787.42	232.89
787.74	232.93
788.06	232.90
788.38	232.84
788.71	232.82
789.03	232.88
789.35	232.93
789.67	232.85
789.99	232.86
790.32	232.86
790.64	232.86
