SpectraSuite Data File
++++++++++++++++++++++++++++++++++++
Date: Fri Feb 01 14:39:13 EST 2013
User: group
Dark Spectrum Present: No
Reference Spectrum Present: No
Number of Sampled Component Spectra: 1
Spectrometers: USB2E7196
Integration Time (usec): 70000 (USB2E7196)
Spectra Averaged: 10 (USB2E7196)
Boxcar Smoothing: 10 (USB2E7196)
Correct for Electrical Dark: No (USB2E7196)
Strobe/Lamp Enabled: No (USB2E7196)
Correct for Detector Non-linearity: No (USB2E7196)
Correct for Stray Light: No (USB2E7196)
Number of Pixels in Processed Spectrum: 2048
>>>>>Begin Processed Spectral Data<<<<<
339.09	0.00
339.48	216.90
339.86	217.50
340.24	218.30
340.63	220.30
341.01	224.20
341.39	221.30
341.78	224.90
342.16	225.30
342.54	226.00
342.93	214.14
343.31	225.00
343.69	225.51
344.07	226.02
344.46	226.48
344.84	226.80
345.22	226.91
345.60	227.27
345.99	227.40
346.37	227.54
346.75	227.59
347.13	227.49
347.52	227.53
347.90	227.68
348.28	227.76
348.66	227.76
349.05	227.69
349.43	227.75
349.81	227.83
350.19	227.87
350.57	227.94
350.96	228.05
351.34	228.08
351.72	228.14
352.10	228.15
352.48	228.11
352.87	228.17
353.25	228.19
353.63	228.17
354.01	228.21
354.39	228.35
354.77	228.49
355.15	228.59
355.54	228.70
355.92	228.55
356.30	228.60
356.68	228.84
357.06	228.92
357.44	228.80
357.82	228.88
358.20	228.96
358.58	229.07
358.97	229.07
359.35	229.14
359.73	229.24
360.11	229.38
360.49	229.50
360.87	229.52
361.25	229.69
361.63	229.80
362.01	229.87
362.39	229.77
362.77	229.82
363.15	229.85
363.53	229.84
363.91	229.95
364.29	230.02
364.67	229.81
365.05	229.86
365.43	229.98
365.81	229.96
366.19	230.02
366.57	230.05
366.95	230.09
367.33	230.04
367.71	229.95
368.09	229.85
368.47	229.90
368.85	229.94
369.23	230.03
369.61	229.95
369.99	230.00
370.37	230.00
370.75	230.04
371.13	229.93
371.51	229.87
371.89	229.87
372.27	229.75
372.65	229.71
373.03	229.68
373.41	229.68
373.78	229.56
374.16	229.33
374.54	229.16
374.92	229.10
375.30	229.00
375.68	228.92
376.06	228.93
376.44	228.74
376.82	228.63
377.19	228.56
377.57	228.39
377.95	228.20
378.33	228.05
378.71	227.89
379.09	227.82
379.47	227.72
379.84	227.66
380.22	227.67
380.60	227.66
380.98	227.65
381.36	227.53
381.73	227.51
382.11	227.58
382.49	227.54
382.87	227.42
383.25	227.51
383.62	227.77
384.00	227.62
384.38	227.65
384.76	227.68
385.13	227.53
385.51	227.53
385.89	227.60
386.27	227.67
386.64	227.51
387.02	227.55
387.40	227.60
387.78	227.60
388.15	227.54
388.53	227.40
388.91	227.28
389.29	227.23
389.66	227.28
390.04	227.27
390.42	227.35
390.79	227.37
391.17	227.32
391.55	226.97
391.92	227.03
392.30	227.07
392.68	227.07
393.05	227.16
393.43	227.20
393.81	227.10
394.18	227.04
394.56	227.17
394.94	227.24
395.31	227.19
395.69	227.28
396.06	227.21
396.44	227.30
396.82	227.37
397.19	227.54
397.57	227.58
397.95	227.55
398.32	227.49
398.70	227.58
399.07	227.67
399.45	227.90
399.82	227.90
400.20	227.95
400.58	228.00
400.95	227.97
401.33	228.13
401.70	228.34
402.08	228.49
402.45	228.54
402.83	228.65
403.20	228.77
403.58	228.79
403.95	229.07
404.33	229.33
404.71	229.44
405.08	229.68
405.46	229.68
405.83	229.92
406.21	230.11
406.58	230.30
406.96	230.49
407.33	230.58
407.70	230.71
408.08	231.05
408.45	231.27
408.83	231.55
409.20	231.73
409.58	231.92
409.95	232.13
410.33	232.48
410.70	232.66
411.08	232.91
411.45	233.38
411.82	233.69
412.20	233.97
412.57	234.37
412.95	234.52
413.32	235.07
413.69	235.44
414.07	235.82
414.44	236.24
414.82	236.72
415.19	237.22
415.56	237.82
415.94	238.42
416.31	239.12
416.68	239.80
417.06	240.57
417.43	241.33
417.81	242.28
418.18	243.01
418.55	243.90
418.93	244.86
419.30	245.59
419.67	246.57
420.04	247.60
420.42	248.68
420.79	250.04
421.16	251.15
421.54	252.38
421.91	253.78
422.28	255.11
422.66	256.55
423.03	258.13
423.40	259.59
423.77	261.03
424.15	262.46
424.52	264.02
424.89	265.76
425.26	267.45
425.64	268.90
426.01	270.73
426.38	272.55
426.75	274.48
427.13	276.51
427.50	278.49
427.87	280.62
428.24	282.72
428.61	284.58
428.99	286.97
429.36	289.40
429.73	291.78
430.10	294.10
430.47	296.51
430.85	298.84
431.22	301.50
431.59	304.21
431.96	306.83
432.33	309.66
432.70	312.44
433.08	315.66
433.45	318.88
433.82	321.99
434.19	325.47
434.56	328.83
434.93	332.08
435.30	335.15
435.68	338.58
436.05	342.00
436.42	345.46
436.79	348.33
437.16	351.70
437.53	354.99
437.90	358.44
438.27	361.86
438.64	365.44
439.01	368.62
439.38	371.38
439.75	374.20
440.13	377.42
440.50	380.42
440.87	382.78
441.24	385.18
441.61	387.86
441.98	389.70
442.35	391.90
442.72	394.29
443.09	396.76
443.46	398.18
443.83	399.11
444.20	399.99
444.57	401.32
444.94	401.84
445.31	402.57
445.68	403.40
446.05	403.61
446.42	403.37
446.79	403.20
447.16	402.77
447.53	402.70
447.90	401.67
448.27	400.51
448.64	398.95
449.01	397.76
449.37	395.75
449.74	393.81
450.11	391.51
450.48	388.63
450.85	385.74
451.22	383.30
451.59	381.03
451.96	378.89
452.33	375.89
452.70	373.20
453.07	369.96
453.43	366.56
453.80	363.28
454.17	360.04
454.54	357.07
454.91	354.07
455.28	350.89
455.65	347.93
456.02	345.13
456.38	342.69
456.75	339.72
457.12	336.93
457.49	334.44
457.86	331.82
458.23	329.60
458.59	327.24
458.96	324.76
459.33	322.56
459.70	320.29
460.07	318.48
460.43	316.46
460.80	314.56
461.17	312.83
461.54	311.12
461.91	309.40
462.27	307.69
462.64	306.16
463.01	304.38
463.38	302.74
463.74	301.00
464.11	299.47
464.48	298.19
464.85	296.90
465.21	295.77
465.58	294.67
465.95	293.52
466.32	292.45
466.68	291.25
467.05	290.23
467.42	289.10
467.78	288.01
468.15	286.87
468.52	286.02
468.88	284.87
469.25	283.84
469.62	283.18
469.98	282.21
470.35	281.39
470.72	280.67
471.08	279.77
471.45	279.02
471.82	278.33
472.18	277.40
472.55	276.76
472.92	275.93
473.28	275.20
473.65	274.46
474.02	273.73
474.38	273.21
474.75	272.56
475.11	272.05
475.48	271.46
475.85	271.01
476.21	270.49
476.58	270.14
476.94	269.67
477.31	269.13
477.67	268.75
478.04	268.46
478.41	268.20
478.77	268.10
479.14	267.68
479.50	267.24
479.87	267.11
480.23	266.86
480.60	266.68
480.96	266.39
481.33	266.31
481.69	266.15
482.06	265.99
482.42	265.76
482.79	265.51
483.15	265.48
483.52	265.38
483.88	265.27
484.25	265.02
484.61	265.07
484.98	265.03
485.34	264.95
485.71	264.84
486.07	264.79
486.44	264.60
486.80	264.56
487.17	264.63
487.53	264.65
487.90	264.69
488.26	264.79
488.62	264.91
488.99	264.83
489.35	264.86
489.72	265.11
490.08	265.34
490.44	265.52
490.81	265.79
491.17	265.94
491.54	266.15
491.90	266.43
492.26	266.54
492.63	266.76
492.99	266.97
493.36	267.34
493.72	267.55
494.08	267.71
494.45	268.18
494.81	268.52
495.17	268.76
495.54	269.11
495.90	269.29
496.26	269.67
496.63	270.10
496.99	270.60
497.35	270.94
497.72	271.22
498.08	271.60
498.44	271.89
498.80	272.45
499.17	272.92
499.53	273.32
499.89	273.84
500.26	274.33
500.62	274.85
500.98	275.28
501.34	275.84
501.71	276.53
502.07	276.98
502.43	277.49
502.79	278.15
503.16	278.79
503.52	279.53
503.88	280.11
504.24	280.80
504.60	281.48
504.97	282.19
505.33	283.03
505.69	283.93
506.05	284.86
506.41	285.66
506.78	286.63
507.14	287.55
507.50	288.62
507.86	289.70
508.22	290.79
508.59	291.93
508.95	293.33
509.31	294.64
509.67	295.97
510.03	297.40
510.39	298.83
510.75	300.20
511.12	301.71
511.48	303.36
511.84	305.05
512.20	306.83
512.56	308.56
512.92	310.43
513.28	312.39
513.64	314.40
514.00	316.38
514.37	318.40
514.73	320.65
515.09	322.89
515.45	325.30
515.81	327.78
516.17	330.40
516.53	332.92
516.89	335.47
517.25	338.44
517.61	341.56
517.97	344.39
518.33	347.38
518.69	350.52
519.05	353.83
519.41	357.12
519.77	360.55
520.13	364.09
520.49	367.62
520.85	371.20
521.21	374.99
521.57	378.95
521.93	382.82
522.29	386.91
522.65	390.94
523.01	395.17
523.37	399.45
523.73	403.70
524.09	408.05
524.45	412.65
524.81	417.17
525.17	421.74
525.53	426.72
525.89	431.85
526.25	436.93
526.61	441.94
526.97	447.10
527.33	452.50
527.68	457.92
528.04	463.35
528.40	468.97
528.76	474.66
529.12	480.58
529.48	486.55
529.84	492.30
530.20	498.33
530.56	504.49
530.91	510.66
531.27	516.92
531.63	523.23
531.99	529.85
532.35	536.29
532.71	542.56
533.07	549.09
533.42	555.94
533.78	562.56
534.14	569.40
534.50	576.04
534.86	582.89
535.21	589.64
535.57	596.64
535.93	603.58
536.29	610.45
536.65	617.39
537.00	624.33
537.36	631.54
537.72	638.55
538.08	645.60
538.44	652.75
538.79	660.10
539.15	667.14
539.51	674.42
539.87	681.71
540.22	689.31
540.58	696.75
540.94	703.82
541.29	711.23
541.65	718.38
542.01	726.01
542.37	733.25
542.72	740.58
543.08	748.12
543.44	755.53
543.79	762.67
544.15	770.08
544.51	777.73
544.87	785.30
545.22	792.70
545.58	799.91
545.94	806.85
546.29	814.05
546.65	821.43
547.01	828.30
547.36	835.12
547.72	841.96
548.07	849.05
548.43	855.88
548.79	862.62
549.14	869.36
549.50	875.77
549.86	882.28
550.21	889.00
550.57	895.68
550.92	902.10
551.28	908.66
551.64	914.89
551.99	921.16
552.35	927.39
552.70	933.78
553.06	940.30
553.41	946.82
553.77	952.90
554.13	959.11
554.48	965.04
554.84	971.32
555.19	977.38
555.55	983.13
555.90	988.87
556.26	994.77
556.61	1000.45
556.97	1006.32
557.32	1012.29
557.68	1017.87
558.03	1023.34
558.39	1029.03
558.74	1034.92
559.10	1040.45
559.45	1045.78
559.81	1051.53
560.16	1056.82
560.52	1061.57
560.87	1067.00
561.23	1072.04
561.58	1077.19
561.94	1082.06
562.29	1086.47
562.64	1091.10
563.00	1095.64
563.35	1100.78
563.71	1105.91
564.06	1110.80
564.42	1115.20
564.77	1119.62
565.12	1124.40
565.48	1129.18
565.83	1133.40
566.19	1137.34
566.54	1141.17
566.89	1144.91
567.25	1148.42
567.60	1152.41
567.96	1156.57
568.31	1160.01
568.66	1163.35
569.02	1166.67
569.37	1170.23
569.72	1174.08
570.08	1177.22
570.43	1180.60
570.78	1182.84
571.14	1184.95
571.49	1187.61
571.84	1190.84
572.20	1193.27
572.55	1195.26
572.90	1196.81
573.26	1199.09
573.61	1201.36
573.96	1203.39
574.31	1205.29
574.67	1206.50
575.02	1207.49
575.37	1208.92
575.72	1209.71
576.08	1211.55
576.43	1212.73
576.78	1214.10
577.13	1215.14
577.49	1216.00
577.84	1216.90
578.19	1218.27
578.54	1219.29
578.90	1219.89
579.25	1220.01
579.60	1220.01
579.95	1219.98
580.30	1220.03
580.66	1219.81
581.01	1219.37
581.36	1219.44
581.71	1219.69
582.06	1220.10
582.42	1220.07
582.77	1219.53
583.12	1219.66
583.47	1219.02
583.82	1218.55
584.17	1217.81
584.53	1217.16
584.88	1216.75
585.23	1216.06
585.58	1215.30
585.93	1214.63
586.28	1214.08
586.63	1213.34
586.98	1212.72
587.34	1212.21
587.69	1211.49
588.04	1210.67
588.39	1210.20
588.74	1208.49
589.09	1207.12
589.44	1205.23
589.79	1204.41
590.14	1203.45
590.49	1201.71
590.84	1200.21
591.19	1198.83
591.54	1196.95
591.89	1194.50
592.25	1192.77
592.60	1190.52
592.95	1188.31
593.30	1185.91
593.65	1183.42
594.00	1181.02
594.35	1179.28
594.70	1176.87
595.05	1174.94
595.40	1172.18
595.75	1169.27
596.10	1167.54
596.45	1165.35
596.80	1163.43
597.15	1160.72
597.50	1158.13
597.85	1156.30
598.19	1154.11
598.54	1151.74
598.89	1149.70
599.24	1147.99
599.59	1145.39
599.94	1142.99
600.29	1140.86
600.64	1138.60
600.99	1135.66
601.34	1133.41
601.69	1130.53
602.04	1128.07
602.39	1125.16
602.74	1123.29
603.08	1121.11
603.43	1118.90
603.78	1116.23
604.13	1113.64
604.48	1110.99
604.83	1108.33
605.18	1105.61
605.53	1102.29
605.87	1099.14
606.22	1096.09
606.57	1093.07
606.92	1090.37
607.27	1087.99
607.62	1085.10
607.96	1082.14
608.31	1079.58
608.66	1076.26
609.01	1073.02
609.36	1069.39
609.70	1065.85
610.05	1061.86
610.40	1058.35
610.75	1054.34
611.10	1050.67
611.44	1046.66
611.79	1043.27
612.14	1039.53
612.49	1035.03
612.83	1031.74
613.18	1028.00
613.53	1024.16
613.88	1019.92
614.22	1015.97
614.57	1011.61
614.92	1007.17
615.27	1003.39
615.61	999.32
615.96	995.37
616.31	991.61
616.65	988.52
617.00	984.87
617.35	981.22
617.70	977.28
618.04	973.37
618.39	969.25
618.74	965.67
619.08	961.61
619.43	957.89
619.78	954.54
620.12	950.29
620.47	946.06
620.82	941.98
621.16	938.49
621.51	934.89
621.85	931.10
622.20	927.27
622.55	923.14
622.89	919.53
623.24	916.02
623.59	912.25
623.93	908.41
624.28	904.41
624.62	900.81
624.97	897.16
625.32	893.65
625.66	890.32
626.01	886.50
626.35	882.57
626.70	878.68
627.04	874.69
627.39	870.92
627.73	867.30
628.08	863.69
628.43	859.74
628.77	855.77
629.12	851.81
629.46	848.04
629.81	843.93
630.15	839.93
630.50	835.54
630.84	830.98
631.19	826.46
631.53	822.80
631.88	818.59
632.22	814.12
632.57	810.00
632.91	805.69
633.26	801.75
633.60	797.42
633.95	793.24
634.29	789.33
634.64	785.61
634.98	782.01
635.32	778.33
635.67	774.91
636.01	771.18
636.36	767.40
636.70	763.96
637.05	760.40
637.39	756.80
637.73	753.57
638.08	750.64
638.42	747.62
638.77	744.11
639.11	740.42
639.45	737.10
639.80	733.56
640.14	730.00
640.49	726.32
640.83	723.05
641.17	719.78
641.52	716.23
641.86	712.70
642.20	709.07
642.55	705.27
642.89	701.53
643.23	697.93
643.58	694.68
643.92	690.89
644.26	687.38
644.61	684.15
644.95	680.42
645.29	676.45
645.64	672.53
645.98	668.79
646.32	665.58
646.66	661.90
647.01	658.47
647.35	655.15
647.69	651.81
648.04	648.60
648.38	644.96
648.72	641.40
649.06	637.80
649.41	634.31
649.75	631.09
650.09	627.70
650.43	624.05
650.78	620.27
651.12	616.74
651.46	613.30
651.80	609.73
652.14	606.49
652.49	603.39
652.83	600.19
653.17	596.92
653.51	593.55
653.85	590.58
654.20	587.17
654.54	583.82
654.88	580.42
655.22	577.05
655.56	573.57
655.90	570.47
656.25	567.27
656.59	564.05
656.93	560.90
657.27	557.60
657.61	554.47
657.95	551.70
658.29	548.81
658.64	545.93
658.98	542.71
659.32	539.60
659.66	536.69
660.00	533.64
660.34	530.59
660.68	527.57
661.02	524.45
661.36	521.78
661.70	518.96
662.05	516.31
662.39	513.67
662.73	511.23
663.07	508.78
663.41	506.29
663.75	503.64
664.09	501.07
664.43	498.64
664.77	496.25
665.11	493.70
665.45	491.40
665.79	488.91
666.13	486.56
666.47	484.04
666.81	481.45
667.15	478.84
667.49	476.60
667.83	474.46
668.17	472.12
668.51	469.65
668.85	467.36
669.19	465.09
669.53	462.81
669.87	460.42
670.21	458.00
670.55	455.70
670.89	453.87
671.23	451.48
671.57	449.23
671.91	447.02
672.25	444.77
672.58	442.54
672.92	440.51
673.26	438.61
673.60	436.77
673.94	434.91
674.28	433.29
674.62	431.40
674.96	429.34
675.30	427.59
675.64	425.60
675.97	423.67
676.31	421.80
676.65	419.76
676.99	418.14
677.33	416.28
677.67	414.46
678.01	412.23
678.34	410.54
678.68	408.79
679.02	407.00
679.36	405.27
679.70	403.34
680.04	401.68
680.37	399.82
680.71	397.98
681.05	396.27
681.39	394.52
681.73	392.88
682.06	391.24
682.40	389.54
682.74	387.98
683.08	386.39
683.42	384.80
683.75	383.25
684.09	381.58
684.43	380.13
684.77	378.46
685.10	376.98
685.44	375.49
685.78	374.11
686.12	372.60
686.45	371.05
686.79	369.61
687.13	367.99
687.46	366.44
687.80	364.94
688.14	363.40
688.48	361.82
688.81	360.24
689.15	358.82
689.49	357.43
689.82	356.24
690.16	354.92
690.50	353.62
690.83	352.33
691.17	350.89
691.51	349.60
691.84	348.44
692.18	347.24
692.52	345.93
692.85	344.39
693.19	343.33
693.52	342.12
693.86	340.85
694.20	339.73
694.53	338.56
694.87	337.41
695.21	336.07
695.54	334.89
695.88	333.60
696.21	332.40
696.55	331.14
696.88	329.81
697.22	328.50
697.56	327.33
697.89	326.17
698.23	325.15
698.56	324.00
698.90	322.94
699.23	321.80
699.57	320.69
699.90	319.77
700.24	318.55
700.58	317.45
700.91	316.47
701.25	315.44
701.58	314.52
701.92	313.55
702.25	312.69
702.59	311.79
702.92	311.05
703.26	310.20
703.59	309.36
703.93	308.59
704.26	307.78
704.60	306.91
704.93	306.09
705.26	305.21
705.60	304.39
705.93	303.54
706.27	302.84
706.60	301.98
706.94	301.06
707.27	300.38
707.61	299.70
707.94	298.96
708.27	298.10
708.61	297.16
708.94	296.42
709.28	295.71
709.61	294.92
709.94	294.22
710.28	293.38
710.61	292.59
710.95	291.70
711.28	291.10
711.61	290.41
711.95	289.70
712.28	288.90
712.61	288.10
712.95	287.35
713.28	286.56
713.61	285.95
713.95	285.40
714.28	284.59
714.61	283.87
714.95	283.17
715.28	282.55
715.61	282.00
715.95	281.34
716.28	280.69
716.61	280.12
716.95	279.40
717.28	278.89
717.61	278.37
717.94	277.76
718.28	277.14
718.61	276.49
718.94	275.89
719.27	275.45
719.61	275.03
719.94	274.53
720.27	274.07
720.60	273.53
720.94	273.02
721.27	272.64
721.60	272.21
721.93	271.72
722.27	271.32
722.60	270.88
722.93	270.40
723.26	269.98
723.59	269.60
723.93	269.28
724.26	268.81
724.59	268.29
724.92	267.88
725.25	267.47
725.59	267.02
725.92	266.76
726.25	266.23
726.58	265.88
726.91	265.50
727.24	265.03
727.57	264.62
727.91	264.21
728.24	263.88
728.57	263.55
728.90	263.30
729.23	262.88
729.56	262.69
729.89	262.28
730.22	261.94
730.55	261.60
730.89	261.18
731.22	260.80
731.55	260.58
731.88	260.31
732.21	259.89
732.54	259.54
732.87	259.15
733.20	258.86
733.53	258.44
733.86	258.21
734.19	257.90
734.52	257.60
734.85	257.40
735.18	256.93
735.51	256.60
735.84	256.23
736.17	255.99
736.50	255.61
736.83	255.55
737.16	255.23
737.49	254.90
737.82	254.62
738.15	254.35
738.48	254.00
738.81	253.59
739.14	253.31
739.47	253.10
739.80	252.82
740.13	252.61
740.46	252.32
740.79	251.90
741.12	251.69
741.45	251.58
741.78	251.22
742.11	250.94
742.44	250.57
742.77	250.33
743.10	249.99
743.43	249.60
743.75	249.22
744.08	249.23
744.41	249.02
744.74	248.75
745.07	248.48
745.40	248.36
745.73	248.29
746.06	248.08
746.39	247.82
746.71	247.52
747.04	247.39
747.37	247.18
747.70	246.95
748.03	246.73
748.36	246.51
748.68	246.40
749.01	246.22
749.34	246.07
749.67	245.88
750.00	245.73
750.33	245.72
750.65	245.61
750.98	245.15
751.31	244.91
751.64	244.70
751.97	244.65
752.29	244.39
752.62	244.03
752.95	243.84
753.28	243.70
753.60	243.55
753.93	243.32
754.26	243.19
754.59	243.04
754.91	242.93
755.24	242.66
755.57	242.37
755.90	242.25
756.22	242.03
756.55	241.86
756.88	241.62
757.20	241.29
757.53	241.02
757.86	240.89
758.19	240.79
758.51	240.64
758.84	240.48
759.17	240.36
759.49	240.36
759.82	240.24
760.15	240.10
760.47	240.06
760.80	239.91
761.13	239.73
761.45	239.63
761.78	239.51
762.11	239.36
762.43	239.31
762.76	239.21
763.08	239.22
763.41	239.00
763.74	238.94
764.06	238.71
764.39	238.61
764.71	238.57
765.04	238.38
765.37	238.34
765.69	238.26
766.02	238.06
766.34	237.90
766.67	237.74
767.00	237.71
767.32	237.62
767.65	237.63
767.97	237.60
768.30	237.53
768.62	237.31
768.95	237.11
769.27	236.96
769.60	236.87
769.92	236.70
770.25	236.64
770.57	236.56
770.90	236.63
771.22	236.51
771.55	236.40
771.87	236.37
772.20	236.17
772.52	236.16
772.85	236.31
773.17	236.25
773.50	236.25
773.82	236.08
774.15	236.00
774.47	235.76
774.80	235.60
775.12	235.48
775.45	235.50
775.77	235.56
776.09	235.41
776.42	235.30
776.74	235.26
777.07	235.18
777.39	235.09
777.72	235.01
778.04	235.00
778.36	234.82
778.69	234.84
779.01	234.89
779.33	234.72
779.66	234.49
779.98	234.45
780.31	234.48
780.63	234.56
780.95	234.53
781.28	234.41
781.60	234.39
781.92	234.33
782.25	234.25
782.57	234.16
782.89	234.18
783.22	234.07
783.54	233.89
783.86	233.79
784.19	233.79
784.51	233.82
784.83	233.68
785.16	233.70
785.48	233.66
785.80	233.60
786.12	233.54
786.45	233.51
786.77	233.41
787.09	233.28
787.42	233.07
787.74	232.93
788.06	232.91
788.38	232.87
788.71	232.80
789.03	232.70
789.35	232.77
789.67	232.64
789.99	232.71
790.32	232.73
790.64	232.82
