SpectraSuite Data File
++++++++++++++++++++++++++++++++++++
Date: Fri Feb 01 14:38:26 EST 2013
User: group
Dark Spectrum Present: No
Reference Spectrum Present: No
Number of Sampled Component Spectra: 1
Spectrometers: USB2E7196
Integration Time (usec): 70000 (USB2E7196)
Spectra Averaged: 10 (USB2E7196)
Boxcar Smoothing: 10 (USB2E7196)
Correct for Electrical Dark: No (USB2E7196)
Strobe/Lamp Enabled: No (USB2E7196)
Correct for Detector Non-linearity: No (USB2E7196)
Correct for Stray Light: No (USB2E7196)
Number of Pixels in Processed Spectrum: 2048
>>>>>Begin Processed Spectral Data<<<<<
339.09	0.00
339.48	216.80
339.86	219.20
340.24	218.60
340.63	220.10
341.01	225.50
341.39	223.50
341.78	225.30
342.16	225.30
342.54	227.10
342.93	214.57
343.31	225.40
343.69	225.95
344.07	226.36
344.46	226.86
344.84	227.23
345.22	227.29
345.60	227.56
345.99	227.66
346.37	227.80
346.75	227.86
347.13	227.83
347.52	227.83
347.90	227.90
348.28	228.01
348.66	228.04
349.05	228.00
349.43	228.02
349.81	228.01
350.19	228.20
350.57	228.20
350.96	228.25
351.34	228.33
351.72	228.26
352.10	228.34
352.48	228.37
352.87	228.41
353.25	228.48
353.63	228.45
354.01	228.60
354.39	228.62
354.77	228.70
355.15	228.88
355.54	229.04
355.92	229.09
356.30	229.05
356.68	229.31
357.06	229.48
357.44	229.44
357.82	229.45
358.20	229.41
358.58	229.43
358.97	229.43
359.35	229.41
359.73	229.55
360.11	229.50
360.49	229.51
360.87	229.52
361.25	229.70
361.63	229.84
362.01	229.74
362.39	229.80
362.77	229.76
363.15	229.71
363.53	229.60
363.91	229.69
364.29	229.72
364.67	229.47
365.05	229.40
365.43	229.50
365.81	229.55
366.19	229.63
366.57	229.70
366.95	229.79
367.33	229.78
367.71	229.65
368.09	229.77
368.47	229.69
368.85	229.70
369.23	229.55
369.61	229.35
369.99	229.49
370.37	229.44
370.75	229.48
371.13	229.37
371.51	229.27
371.89	229.13
372.27	229.06
372.65	229.00
373.03	228.95
373.41	228.82
373.78	228.68
374.16	228.53
374.54	228.34
374.92	228.14
375.30	228.05
375.68	228.00
376.06	227.89
376.44	227.79
376.82	227.66
377.19	227.56
377.57	227.55
377.95	227.35
378.33	227.35
378.71	227.12
379.09	227.09
379.47	227.10
379.84	227.05
380.22	226.93
380.60	226.82
380.98	226.65
381.36	226.62
381.73	226.69
382.11	226.62
382.49	226.69
382.87	226.71
383.25	226.64
383.62	226.91
384.00	226.70
384.38	226.75
384.76	226.85
385.13	226.89
385.51	226.83
385.89	226.77
386.27	226.61
386.64	226.61
387.02	226.57
387.40	226.52
387.78	226.50
388.15	226.59
388.53	226.65
388.91	226.70
389.29	226.75
389.66	226.67
390.04	226.70
390.42	226.70
390.79	226.64
391.17	226.73
391.55	226.48
391.92	226.49
392.30	226.45
392.68	226.30
393.05	226.32
393.43	226.33
393.81	226.33
394.18	226.38
394.56	226.52
394.94	226.57
395.31	226.60
395.69	226.70
396.06	226.71
396.44	226.84
396.82	226.91
397.19	227.02
397.57	227.10
397.95	227.18
398.32	227.21
398.70	227.33
399.07	227.47
399.45	227.52
399.82	227.70
400.20	227.92
400.58	228.07
400.95	228.08
401.33	228.16
401.70	228.46
402.08	228.57
402.45	228.64
402.83	228.80
403.20	228.85
403.58	228.98
403.95	229.19
404.33	229.25
404.71	229.36
405.08	229.49
405.46	229.59
405.83	229.78
406.21	230.00
406.58	230.18
406.96	230.31
407.33	230.52
407.70	230.79
408.08	231.11
408.45	231.38
408.83	231.65
409.20	232.04
409.58	232.13
409.95	232.46
410.33	232.68
410.70	232.94
411.08	233.25
411.45	233.52
411.82	233.86
412.20	234.37
412.57	234.87
412.95	235.20
413.32	235.65
413.69	236.05
414.07	236.48
414.44	237.04
414.82	237.56
415.19	238.23
415.56	238.77
415.94	239.31
416.31	240.10
416.68	240.95
417.06	241.72
417.43	242.54
417.81	243.46
418.18	244.47
418.55	245.40
418.93	246.58
419.30	247.74
419.67	248.87
420.04	249.86
420.42	251.21
420.79	252.80
421.16	254.21
421.54	255.82
421.91	257.33
422.28	258.87
422.66	260.59
423.03	262.41
423.40	264.19
423.77	266.02
424.15	267.92
424.52	269.80
424.89	272.03
425.26	274.21
425.64	276.14
426.01	278.22
426.38	280.59
426.75	282.90
427.13	285.24
427.50	287.68
427.87	290.34
428.24	292.75
428.61	294.99
428.99	297.77
429.36	300.63
429.73	303.57
430.10	306.44
430.47	309.45
430.85	312.25
431.22	315.34
431.59	318.81
431.96	322.07
432.33	325.57
432.70	328.84
433.08	332.76
433.45	336.58
433.82	340.26
434.19	344.18
434.56	348.39
434.93	352.38
435.30	356.35
435.68	360.43
436.05	364.69
436.42	369.04
436.79	372.80
437.16	376.82
437.53	380.96
437.90	385.15
438.27	389.20
438.64	393.56
439.01	397.55
439.38	400.95
439.75	404.23
440.13	408.25
440.50	411.87
440.87	414.88
441.24	418.05
441.61	421.58
441.98	424.36
442.35	427.32
442.72	430.30
443.09	433.17
443.46	435.25
443.83	436.52
444.20	437.53
444.57	439.35
444.94	440.08
445.31	441.18
445.68	442.34
446.05	443.00
446.42	442.83
446.79	442.73
447.16	442.47
447.53	442.44
447.90	441.11
448.27	440.00
448.64	438.14
449.01	436.87
449.37	434.34
449.74	431.99
450.11	429.02
450.48	425.72
450.85	422.43
451.22	419.65
451.59	416.95
451.96	414.45
452.33	410.73
452.70	407.68
453.07	403.72
453.43	399.67
453.80	395.92
454.17	392.19
454.54	388.74
454.91	384.99
455.28	381.31
455.65	377.89
456.02	374.52
456.38	371.55
456.75	367.74
457.12	364.72
457.49	361.48
457.86	358.30
458.23	355.73
458.59	352.89
458.96	349.72
459.33	347.11
459.70	344.51
460.07	342.37
460.43	339.94
460.80	337.61
461.17	335.40
461.54	333.05
461.91	330.97
462.27	328.73
462.64	326.94
463.01	324.89
463.38	322.98
463.74	320.84
464.11	319.17
464.48	317.59
464.85	315.85
465.21	314.45
465.58	313.08
465.95	311.35
466.32	309.95
466.68	308.62
467.05	307.29
467.42	305.79
467.78	304.50
468.15	303.12
468.52	302.04
468.88	300.77
469.25	299.64
469.62	298.73
469.98	297.63
470.35	296.63
470.72	295.58
471.08	294.45
471.45	293.55
471.82	292.53
472.18	291.51
472.55	290.82
472.92	289.96
473.28	289.10
473.65	288.31
474.02	287.50
474.38	286.75
474.75	286.13
475.11	285.48
475.48	284.86
475.85	284.24
476.21	283.69
476.58	283.20
476.94	282.60
477.31	281.99
477.67	281.54
478.04	280.96
478.41	280.60
478.77	280.32
479.14	279.92
479.50	279.48
479.87	279.33
480.23	279.04
480.60	278.80
480.96	278.57
481.33	278.46
481.69	278.28
482.06	278.16
482.42	277.81
482.79	277.70
483.15	277.50
483.52	277.40
483.88	277.32
484.25	277.17
484.61	277.16
484.98	277.15
485.34	277.24
485.71	277.32
486.07	277.26
486.44	277.20
486.80	277.26
487.17	277.25
487.53	277.40
487.90	277.52
488.26	277.72
488.62	277.92
488.99	277.98
489.35	278.05
489.72	278.18
490.08	278.51
490.44	278.66
490.81	278.88
491.17	279.16
491.54	279.42
491.90	279.82
492.26	280.15
492.63	280.37
492.99	280.60
493.36	280.97
493.72	281.47
494.08	281.86
494.45	282.13
494.81	282.60
495.17	282.90
495.54	283.25
495.90	283.57
496.26	283.81
496.63	284.26
496.99	284.72
497.35	285.19
497.72	285.39
498.08	285.74
498.44	286.09
498.80	286.47
499.17	286.75
499.53	286.95
499.89	287.25
500.26	287.70
500.62	287.96
500.98	288.30
501.34	288.54
501.71	288.85
502.07	289.35
502.43	289.62
502.79	289.91
503.16	290.18
503.52	290.50
503.88	290.79
504.24	291.09
504.60	291.34
504.97	291.55
505.33	292.00
505.69	292.42
506.05	292.79
506.41	293.08
506.78	293.49
507.14	293.80
507.50	294.15
507.86	294.53
508.22	294.93
508.59	295.11
508.95	295.48
509.31	295.85
509.67	296.22
510.03	296.67
510.39	297.22
510.75	297.65
511.12	298.20
511.48	298.82
511.84	299.37
512.20	299.93
512.56	300.44
512.92	301.01
513.28	301.57
513.64	302.20
514.00	303.04
514.37	303.78
514.73	304.66
515.09	305.46
515.45	306.26
515.81	307.21
516.17	308.21
516.53	309.25
516.89	310.44
517.25	311.50
517.61	312.63
517.97	313.78
518.33	315.04
518.69	316.38
519.05	317.71
519.41	319.13
519.77	320.96
520.13	322.72
520.49	324.43
520.85	326.23
521.21	328.13
521.57	330.03
521.93	331.88
522.29	334.09
522.65	336.18
523.01	338.54
523.37	340.78
523.73	343.20
524.09	345.54
524.45	347.90
524.81	350.50
525.17	353.41
525.53	356.27
525.89	359.21
526.25	362.20
526.61	365.11
526.97	368.34
527.33	371.32
527.68	374.83
528.04	378.18
528.40	381.55
528.76	385.10
529.12	388.72
529.48	392.67
529.84	396.40
530.20	400.40
530.56	404.35
530.91	408.45
531.27	412.60
531.63	416.86
531.99	421.06
532.35	425.53
532.71	429.89
533.07	434.37
533.42	439.10
533.78	443.69
534.14	448.55
534.50	453.20
534.86	458.27
535.21	463.01
535.57	468.24
535.93	473.33
536.29	478.54
536.65	483.84
537.00	488.89
537.36	494.10
537.72	499.48
538.08	504.75
538.44	510.20
538.79	515.92
539.15	521.51
539.51	527.36
539.87	532.90
540.22	538.77
540.58	544.57
540.94	550.15
541.29	555.77
541.65	561.54
542.01	567.45
542.37	573.10
542.72	578.84
543.08	584.54
543.44	590.52
543.79	596.00
544.15	601.91
544.51	607.94
544.87	614.12
545.22	619.99
545.58	625.91
545.94	631.70
546.29	637.42
546.65	643.32
547.01	649.00
547.36	654.91
547.72	660.47
548.07	665.83
548.43	671.38
548.79	677.12
549.14	682.89
549.50	688.38
549.86	693.97
550.21	699.60
550.57	705.23
550.92	710.92
551.28	716.48
551.64	721.97
551.99	727.68
552.35	732.99
552.70	738.63
553.06	744.34
553.41	750.14
553.77	755.92
554.13	761.48
554.48	767.04
554.84	772.36
555.19	777.73
555.55	783.58
555.90	788.88
556.26	794.17
556.61	799.38
556.97	804.57
557.32	809.90
557.68	815.20
558.03	820.30
558.39	825.28
558.74	830.81
559.10	835.74
559.45	840.70
559.81	845.87
560.16	850.50
560.52	855.20
560.87	860.09
561.23	864.50
561.58	869.15
561.94	873.76
562.29	878.29
562.64	882.64
563.00	887.00
563.35	892.05
563.71	896.70
564.06	901.05
564.42	905.55
564.77	910.03
565.12	914.48
565.48	918.96
565.83	923.28
566.19	927.19
566.54	931.38
566.89	935.49
567.25	939.30
567.60	943.57
567.96	947.30
568.31	951.08
568.66	954.75
569.02	958.30
569.37	961.86
569.72	965.28
570.08	969.10
570.43	972.55
570.78	975.49
571.14	978.42
571.49	981.49
571.84	984.76
572.20	987.20
572.55	989.69
572.90	992.09
573.26	994.65
573.61	997.24
573.96	999.33
574.31	1001.14
574.67	1002.89
575.02	1004.45
575.37	1006.37
575.72	1007.64
576.08	1009.43
576.43	1010.85
576.78	1012.34
577.13	1014.10
577.49	1015.35
577.84	1016.57
578.19	1017.79
578.54	1018.84
578.90	1019.81
579.25	1020.11
579.60	1020.94
579.95	1021.85
580.30	1022.64
580.66	1022.97
581.01	1023.46
581.36	1024.07
581.71	1024.86
582.06	1025.80
582.42	1026.20
582.77	1026.48
583.12	1026.83
583.47	1027.11
583.82	1027.57
584.17	1027.84
584.53	1027.90
584.88	1027.88
585.23	1027.90
585.58	1027.99
585.93	1028.29
586.28	1028.50
586.63	1028.76
586.98	1028.97
587.34	1028.97
587.69	1028.62
588.04	1028.88
588.39	1028.78
588.74	1027.91
589.09	1027.22
589.44	1025.88
589.79	1025.36
590.14	1025.16
590.49	1024.50
590.84	1023.73
591.19	1023.27
591.54	1021.77
591.89	1020.04
592.25	1019.14
592.60	1017.71
592.95	1016.23
593.30	1014.78
593.65	1013.06
594.00	1011.46
594.35	1010.17
594.70	1008.19
595.05	1006.85
595.40	1004.95
595.75	1003.07
596.10	1001.89
596.45	1000.52
596.80	999.91
597.15	998.60
597.50	996.65
597.85	995.25
598.19	993.78
598.54	991.95
598.89	990.90
599.24	989.95
599.59	988.20
599.94	986.95
600.29	985.21
600.64	983.63
600.99	982.04
601.34	980.70
601.69	978.43
602.04	977.16
602.39	975.33
602.74	973.92
603.08	972.30
603.43	970.70
603.78	968.85
604.13	966.40
604.48	964.20
604.83	962.41
605.18	960.46
605.53	958.00
605.87	955.55
606.22	953.33
606.57	951.04
606.92	949.20
607.27	946.69
607.62	945.00
607.96	942.64
608.31	940.49
608.66	937.92
609.01	935.48
609.36	932.43
609.70	929.22
610.05	926.06
610.40	923.41
610.75	920.60
611.10	917.52
611.44	914.62
611.79	911.97
612.14	909.21
612.49	905.75
612.83	902.74
613.18	899.83
613.53	896.66
613.88	893.43
614.22	889.98
614.57	886.95
614.92	883.56
615.27	880.57
615.61	877.31
615.96	874.35
616.31	871.36
616.65	869.04
617.00	866.50
617.35	863.53
617.70	860.16
618.04	856.98
618.39	854.03
618.74	851.29
619.08	847.94
619.43	844.81
619.78	842.46
620.12	839.42
620.47	836.25
620.82	833.10
621.16	830.25
621.51	827.27
621.85	824.14
622.20	820.83
622.55	817.74
622.89	814.86
623.24	811.68
623.59	808.79
623.93	805.43
624.28	802.63
624.62	799.66
624.97	796.90
625.32	793.99
625.66	791.05
626.01	788.01
626.35	784.98
626.70	781.77
627.04	778.55
627.39	775.31
627.73	772.43
628.08	769.55
628.43	766.20
628.77	762.97
629.12	759.76
629.46	756.81
629.81	753.37
630.15	749.88
630.50	746.50
630.84	742.91
631.19	739.58
631.53	735.92
631.88	732.48
632.22	728.82
632.57	725.51
632.91	722.14
633.26	718.66
633.60	715.40
633.95	712.06
634.29	708.65
634.64	705.98
634.98	702.75
635.32	699.74
635.67	696.91
636.01	693.99
636.36	690.99
636.70	687.97
637.05	685.28
637.39	682.56
637.73	679.71
638.08	677.09
638.42	674.03
638.77	671.45
639.11	668.51
639.45	665.79
639.80	662.82
640.14	659.92
640.49	657.17
640.83	654.11
641.17	651.22
641.52	648.04
641.86	644.83
642.20	641.98
642.55	638.80
642.89	635.82
643.23	632.77
643.58	630.06
643.92	627.16
644.26	624.10
644.61	621.24
644.95	618.46
645.29	615.30
645.64	612.30
645.98	608.97
646.32	606.08
646.66	603.06
647.01	600.09
647.35	597.20
647.69	594.22
648.04	591.81
648.38	588.96
648.72	586.25
649.06	583.37
649.41	580.29
649.75	577.32
650.09	574.32
650.43	571.49
650.78	568.13
651.12	564.99
651.46	562.06
651.80	559.17
652.14	556.25
652.49	553.51
652.83	550.88
653.17	548.19
653.51	545.41
653.85	542.83
654.20	540.00
654.54	537.08
654.88	534.13
655.22	530.90
655.56	527.90
655.90	525.16
656.25	522.47
656.59	519.95
656.93	517.57
657.27	515.10
657.61	512.27
657.95	509.97
658.29	507.69
658.64	505.19
658.98	502.42
659.32	499.81
659.66	497.44
660.00	495.03
660.34	492.61
660.68	490.10
661.02	487.51
661.36	485.11
661.70	482.75
662.05	480.53
662.39	478.47
662.73	476.40
663.07	474.42
663.41	472.20
663.75	470.06
664.09	467.58
664.43	465.27
664.77	463.29
665.11	461.12
665.45	458.96
665.79	456.68
666.13	454.50
666.47	452.46
666.81	450.27
667.15	447.88
667.49	445.78
667.83	443.82
668.17	441.88
668.51	439.88
668.85	437.79
669.19	436.00
669.53	434.09
669.87	432.09
670.21	429.99
670.55	428.13
670.89	426.17
671.23	424.62
671.57	422.76
671.91	420.82
672.25	418.99
672.58	417.04
672.92	415.32
673.26	413.70
673.60	411.93
673.94	410.16
674.28	408.65
674.62	407.28
674.96	405.71
675.30	404.10
675.64	402.60
675.97	401.08
676.31	399.39
676.65	397.76
676.99	396.28
677.33	394.64
677.67	393.06
678.01	391.56
678.34	389.71
678.68	388.27
679.02	386.77
679.36	385.28
679.70	383.77
680.04	382.27
680.37	380.68
680.71	379.32
681.05	378.13
681.39	376.69
681.73	375.09
682.06	373.53
682.40	372.12
682.74	370.73
683.08	369.50
683.42	368.12
683.75	366.79
684.09	365.40
684.43	364.01
684.77	362.59
685.10	361.10
685.44	359.81
685.78	358.44
686.12	357.16
686.45	355.80
686.79	354.51
687.13	353.30
687.46	352.09
687.80	350.73
688.14	349.18
688.48	347.99
688.81	346.76
689.15	345.60
689.49	344.27
689.82	342.92
690.16	341.60
690.50	340.46
690.83	339.20
691.17	337.80
691.51	336.59
691.84	335.45
692.18	334.34
692.52	333.15
692.85	332.14
693.19	330.92
693.52	329.78
693.86	328.62
694.20	327.49
694.53	326.40
694.87	325.24
695.21	324.27
695.54	323.15
695.88	321.92
696.21	320.85
696.55	319.91
696.88	318.94
697.22	318.00
697.56	316.81
697.89	315.85
698.23	315.01
698.56	314.01
698.90	313.13
699.23	312.10
699.57	311.18
699.90	310.11
700.24	309.32
700.58	308.54
700.91	307.73
701.25	306.95
701.58	306.22
701.92	305.49
702.25	304.60
702.59	303.68
702.92	302.90
703.26	302.16
703.59	301.34
703.93	300.77
704.26	300.07
704.60	299.38
704.93	298.51
705.26	297.75
705.60	297.29
705.93	296.54
706.27	296.00
706.60	295.51
706.94	294.85
707.27	294.13
707.61	293.43
707.94	292.74
708.27	291.97
708.61	291.17
708.94	290.38
709.28	289.79
709.61	289.17
709.94	288.67
710.28	288.08
710.61	287.50
710.95	286.50
711.28	285.94
711.61	285.44
711.95	285.00
712.28	284.34
712.61	283.59
712.95	283.01
713.28	282.34
713.61	281.62
713.95	281.05
714.28	280.43
714.61	279.79
714.95	279.18
715.28	278.63
715.61	278.02
715.95	277.50
716.28	276.83
716.61	276.27
716.95	275.67
717.28	275.10
717.61	274.48
717.94	274.09
718.28	273.45
718.61	272.71
718.94	272.09
719.27	271.66
719.61	271.19
719.94	270.69
720.27	270.23
720.60	269.70
720.94	269.11
721.27	268.67
721.60	268.29
721.93	267.86
722.27	267.49
722.60	267.13
722.93	266.70
723.26	266.40
723.59	266.00
723.93	265.64
724.26	265.15
724.59	264.82
724.92	264.39
725.25	263.93
725.59	263.58
725.92	263.26
726.25	262.74
726.58	262.36
726.91	262.00
727.24	261.60
727.57	261.24
727.91	260.98
728.24	260.68
728.57	260.22
728.90	259.96
729.23	259.47
729.56	259.20
729.89	258.85
730.22	258.51
730.55	258.17
730.89	257.77
731.22	257.44
731.55	257.13
731.88	256.85
732.21	256.60
732.54	256.36
732.87	256.02
733.20	255.78
733.53	255.49
733.86	255.11
734.19	254.84
734.52	254.62
734.85	254.46
735.18	254.13
735.51	253.98
735.84	253.71
736.17	253.54
736.50	253.26
736.83	253.32
737.16	253.06
737.49	252.84
737.82	252.63
738.15	252.46
738.48	252.10
738.81	251.86
739.14	251.53
739.47	251.22
739.80	250.99
740.13	250.75
740.46	250.60
740.79	250.52
741.12	250.34
741.45	250.17
741.78	249.84
742.11	249.74
742.44	249.55
742.77	249.32
743.10	249.08
743.43	248.88
743.75	248.40
744.08	248.46
744.41	248.31
744.74	247.99
745.07	247.75
745.40	247.82
745.73	247.70
746.06	247.54
746.39	247.49
746.71	247.40
747.04	247.29
747.37	247.13
747.70	246.94
748.03	246.76
748.36	246.53
748.68	246.42
749.01	246.17
749.34	245.93
749.67	245.71
750.00	245.62
750.33	245.57
750.65	245.44
750.98	245.06
751.31	244.83
751.64	244.72
751.97	244.65
752.29	244.34
752.62	244.11
752.95	243.93
753.28	243.74
753.60	243.45
753.93	243.33
754.26	243.07
754.59	242.86
754.91	242.70
755.24	242.51
755.57	242.27
755.90	242.07
756.22	241.89
756.55	241.74
756.88	241.52
757.20	241.20
757.53	240.98
757.86	240.69
758.19	240.59
758.51	240.46
758.84	240.14
759.17	239.92
759.49	239.79
759.82	239.77
760.15	239.69
760.47	239.46
760.80	239.25
761.13	239.09
761.45	238.90
761.78	238.75
762.11	238.69
762.43	238.57
762.76	238.49
763.08	238.35
763.41	238.25
763.74	238.07
764.06	237.92
764.39	237.80
764.71	237.79
765.04	237.48
765.37	237.29
765.69	237.24
766.02	237.21
766.34	236.98
766.67	236.74
767.00	236.58
767.32	236.67
767.65	236.70
767.97	236.62
768.30	236.52
768.62	236.24
768.95	236.10
769.27	235.94
769.60	235.74
769.92	235.63
770.25	235.60
770.57	235.43
770.90	235.25
771.22	235.10
771.55	235.00
771.87	235.18
772.20	235.16
772.52	235.22
772.85	235.28
773.17	235.35
773.50	235.26
773.82	235.13
774.15	235.00
774.47	234.77
774.80	234.70
775.12	234.57
775.45	234.54
775.77	234.48
776.09	234.44
776.42	234.50
776.74	234.54
777.07	234.41
777.39	234.46
777.72	234.41
778.04	234.47
778.36	234.41
778.69	234.23
779.01	234.20
779.33	233.94
779.66	233.71
779.98	233.57
780.31	233.52
780.63	233.53
780.95	233.59
781.28	233.46
781.60	233.38
781.92	233.39
782.25	233.43
782.57	233.41
782.89	233.37
783.22	233.27
783.54	233.22
783.86	233.09
784.19	232.99
784.51	233.03
784.83	233.07
785.16	233.00
785.48	233.04
785.80	232.99
786.12	233.10
786.45	233.16
786.77	233.12
787.09	233.02
787.42	233.02
787.74	232.92
788.06	233.01
788.38	233.06
788.71	232.95
789.03	232.91
789.35	232.97
789.67	232.87
789.99	232.84
790.32	232.74
790.64	232.85
790.96	233.05
791.28	233.06
791.61	233.00
791.93	232.96
792.25	232.90
792.57	233.06
792.89	232.92
