SpectraSuite Data File
++++++++++++++++++++++++++++++++++++
Date: Fri Feb 01 14:38:49 EST 2013
User: group
Dark Spectrum Present: No
Reference Spectrum Present: No
Number of Sampled Component Spectra: 1
Spectrometers: USB2E7196
Integration Time (usec): 70000 (USB2E7196)
Spectra Averaged: 10 (USB2E7196)
Boxcar Smoothing: 10 (USB2E7196)
Correct for Electrical Dark: No (USB2E7196)
Strobe/Lamp Enabled: No (USB2E7196)
Correct for Detector Non-linearity: No (USB2E7196)
Correct for Stray Light: No (USB2E7196)
Number of Pixels in Processed Spectrum: 2048
>>>>>Begin Processed Spectral Data<<<<<
339.09	0.00
339.48	215.20
339.86	217.30
340.24	220.70
340.63	221.60
341.01	224.10
341.39	224.70
341.78	224.40
342.16	224.60
342.54	227.70
342.93	215.10
343.31	225.90
343.69	226.48
344.07	227.02
344.46	227.40
344.84	227.63
345.22	227.85
345.60	228.09
345.99	228.25
346.37	228.44
346.75	228.41
347.13	228.48
347.52	228.37
347.90	228.49
348.28	228.43
348.66	228.48
349.05	228.48
349.43	228.45
349.81	228.38
350.19	228.37
350.57	228.41
350.96	228.43
351.34	228.53
351.72	228.65
352.10	228.67
352.48	228.60
352.87	228.76
353.25	228.76
353.63	228.70
354.01	228.78
354.39	228.87
354.77	228.92
355.15	229.04
355.54	229.08
355.92	229.09
356.30	229.24
356.68	229.39
357.06	229.42
357.44	229.53
357.82	229.71
358.20	229.89
358.58	229.95
358.97	230.01
359.35	230.16
359.73	230.20
360.11	230.15
360.49	230.26
360.87	230.26
361.25	230.33
361.63	230.40
362.01	230.49
362.39	230.43
362.77	230.58
363.15	230.49
363.53	230.49
363.91	230.36
364.29	230.30
364.67	230.11
365.05	230.10
365.43	230.02
365.81	229.84
366.19	229.76
366.57	229.69
366.95	229.66
367.33	229.54
367.71	229.40
368.09	229.53
368.47	229.55
368.85	229.47
369.23	229.49
369.61	229.44
369.99	229.49
370.37	229.47
370.75	229.42
371.13	229.37
371.51	229.39
371.89	229.39
372.27	229.32
372.65	229.34
373.03	229.31
373.41	229.21
373.78	229.21
374.16	229.09
374.54	229.01
374.92	228.96
375.30	228.86
375.68	228.91
376.06	228.68
376.44	228.58
376.82	228.46
377.19	228.40
377.57	228.29
377.95	228.09
378.33	228.09
378.71	227.83
379.09	227.75
379.47	227.62
379.84	227.56
380.22	227.49
380.60	227.39
380.98	227.31
381.36	227.20
381.73	227.01
382.11	226.99
382.49	226.97
382.87	226.90
383.25	226.90
383.62	226.85
384.00	226.81
384.38	226.78
384.76	226.85
385.13	226.72
385.51	226.62
385.89	226.49
386.27	226.32
386.64	226.39
387.02	226.20
387.40	226.14
387.78	226.11
388.15	226.07
388.53	226.02
388.91	225.98
389.29	226.07
389.66	226.09
390.04	226.04
390.42	226.14
390.79	226.13
391.17	226.00
391.55	225.90
391.92	225.90
392.30	225.79
392.68	225.80
393.05	225.75
393.43	225.78
393.81	225.86
394.18	225.90
394.56	225.92
394.94	226.15
395.31	226.09
395.69	226.25
396.06	226.29
396.44	226.27
396.82	226.28
397.19	226.24
397.57	226.22
397.95	226.38
398.32	226.39
398.70	226.47
399.07	226.68
399.45	226.79
399.82	226.93
400.20	226.98
400.58	227.10
400.95	227.27
401.33	227.38
401.70	227.63
402.08	227.72
402.45	227.80
402.83	227.89
403.20	228.10
403.58	228.16
403.95	228.39
404.33	228.53
404.71	228.68
405.08	229.00
405.46	229.23
405.83	229.28
406.21	229.40
406.58	229.48
406.96	229.67
407.33	229.88
407.70	230.05
408.08	230.58
408.45	230.78
408.83	231.07
409.20	231.37
409.58	231.46
409.95	231.69
410.33	232.05
410.70	232.31
411.08	232.63
411.45	232.91
411.82	233.18
412.20	233.79
412.57	234.29
412.95	234.55
413.32	235.09
413.69	235.61
414.07	236.06
414.44	236.66
414.82	237.10
415.19	237.59
415.56	238.19
415.94	238.66
416.31	239.32
416.68	240.04
417.06	240.85
417.43	241.69
417.81	242.61
418.18	243.52
418.55	244.47
418.93	245.53
419.30	246.56
419.67	247.68
420.04	248.50
420.42	249.58
420.79	251.08
421.16	252.36
421.54	253.77
421.91	255.18
422.28	256.60
422.66	258.20
423.03	259.96
423.40	261.56
423.77	263.18
424.15	264.91
424.52	266.63
424.89	268.49
425.26	270.37
425.64	272.22
426.01	274.10
426.38	276.14
426.75	278.22
427.13	280.41
427.50	282.61
427.87	285.03
428.24	287.40
428.61	289.50
428.99	291.86
429.36	294.44
429.73	297.00
430.10	299.64
430.47	302.31
430.85	304.81
431.22	307.72
431.59	310.88
431.96	313.72
432.33	316.88
432.70	320.03
433.08	323.51
433.45	326.78
433.82	330.16
434.19	333.80
434.56	337.55
434.93	341.02
435.30	344.45
435.68	348.38
436.05	352.02
436.42	355.68
436.79	359.18
437.16	362.90
437.53	366.83
437.90	370.59
438.27	374.32
438.64	378.18
439.01	381.67
439.38	384.72
439.75	387.69
440.13	391.30
440.50	394.57
440.87	397.30
441.24	400.08
441.61	403.11
441.98	405.41
442.35	407.88
442.72	410.44
443.09	413.22
443.46	414.67
443.83	415.76
444.20	416.84
444.57	418.23
444.94	418.89
445.31	419.66
445.68	420.63
446.05	421.02
446.42	421.00
446.79	420.70
447.16	420.64
447.53	420.53
447.90	419.25
448.27	418.25
448.64	416.45
449.01	415.33
449.37	413.08
449.74	410.93
450.11	408.41
450.48	405.58
450.85	402.41
451.22	399.88
451.59	397.52
451.96	395.19
452.33	391.97
452.70	389.13
453.07	385.59
453.43	381.85
453.80	378.40
454.17	375.01
454.54	371.94
454.91	368.27
455.28	364.95
455.65	361.86
456.02	358.69
456.38	356.07
456.75	352.65
457.12	349.84
457.49	346.96
457.86	344.08
458.23	341.58
458.59	338.91
458.96	336.39
459.33	333.96
459.70	331.50
460.07	329.54
460.43	327.22
460.80	325.04
461.17	323.18
461.54	321.26
461.91	319.28
462.27	317.28
462.64	315.67
463.01	313.89
463.38	312.01
463.74	309.91
464.11	308.26
464.48	306.89
464.85	305.31
465.21	304.12
465.58	302.90
465.95	301.41
466.32	300.28
466.68	298.77
467.05	297.63
467.42	296.37
467.78	295.04
468.15	293.78
468.52	292.79
468.88	291.52
469.25	290.30
469.62	289.42
469.98	288.45
470.35	287.48
470.72	286.59
471.08	285.64
471.45	285.00
471.82	284.21
472.18	283.32
472.55	282.59
472.92	281.66
473.28	280.89
473.65	280.25
474.02	279.44
474.38	278.75
474.75	278.12
475.11	277.45
475.48	277.03
475.85	276.63
476.21	276.14
476.58	275.64
476.94	275.27
477.31	274.90
477.67	274.38
478.04	273.87
478.41	273.51
478.77	273.37
479.14	272.86
479.50	272.55
479.87	272.34
480.23	272.08
480.60	271.89
480.96	271.54
481.33	271.41
481.69	271.19
482.06	271.20
482.42	270.98
482.79	270.93
483.15	270.73
483.52	270.48
483.88	270.37
484.25	270.28
484.61	270.20
484.98	270.03
485.34	270.21
485.71	270.44
486.07	270.42
486.44	270.25
486.80	270.37
487.17	270.49
487.53	270.53
487.90	270.73
488.26	270.99
488.62	271.09
488.99	271.15
489.35	271.33
489.72	271.47
490.08	271.67
490.44	271.78
490.81	271.96
491.17	272.20
491.54	272.43
491.90	272.70
492.26	272.85
492.63	273.06
492.99	273.20
493.36	273.49
493.72	273.82
494.08	274.12
494.45	274.40
494.81	274.67
495.17	274.96
495.54	275.29
495.90	275.50
496.26	275.83
496.63	276.15
496.99	276.50
497.35	276.74
497.72	277.11
498.08	277.37
498.44	277.61
498.80	278.08
499.17	278.42
499.53	278.69
499.89	279.15
500.26	279.57
500.62	279.91
500.98	280.23
501.34	280.59
501.71	280.97
502.07	281.35
502.43	281.71
502.79	282.15
503.16	282.49
503.52	282.81
503.88	283.25
504.24	283.66
504.60	284.13
504.97	284.71
505.33	285.14
505.69	285.85
506.05	286.53
506.41	287.10
506.78	287.58
507.14	288.22
507.50	288.76
507.86	289.49
508.22	290.29
508.59	290.86
508.95	291.61
509.31	292.49
509.67	293.25
510.03	293.96
510.39	294.69
510.75	295.54
511.12	296.58
511.48	297.53
511.84	298.50
512.20	299.54
512.56	300.56
512.92	301.77
513.28	302.85
513.64	303.97
514.00	305.13
514.37	306.56
514.73	307.84
515.09	309.31
515.45	310.71
515.81	312.15
516.17	313.87
516.53	315.37
516.89	317.04
517.25	318.93
517.61	320.95
517.97	322.94
518.33	324.88
518.69	326.94
519.05	329.17
519.41	331.44
519.77	333.89
520.13	336.39
520.49	338.78
520.85	341.40
521.21	344.25
521.57	347.04
521.93	349.83
522.29	352.93
522.65	355.86
523.01	359.02
523.37	362.01
523.73	365.17
524.09	368.57
524.45	371.93
524.81	375.28
525.17	378.85
525.53	382.60
525.89	386.51
526.25	390.56
526.61	394.39
526.97	398.31
527.33	402.28
527.68	406.63
528.04	410.88
528.40	415.20
528.76	419.70
529.12	424.45
529.48	429.24
529.84	433.92
530.20	438.72
530.56	443.81
530.91	449.17
531.27	454.30
531.63	459.57
531.99	464.95
532.35	470.44
532.71	475.77
533.07	481.22
533.42	487.26
533.78	492.67
534.14	498.55
534.50	504.32
534.86	509.97
535.21	515.61
535.57	521.66
535.93	527.58
536.29	533.68
536.65	539.53
537.00	545.29
537.36	551.30
537.72	557.62
538.08	563.58
538.44	569.71
538.79	576.03
539.15	582.09
539.51	588.33
539.87	594.73
540.22	601.18
540.58	607.78
540.94	613.78
541.29	620.10
541.65	626.45
542.01	633.26
542.37	640.12
542.72	646.57
543.08	653.07
543.44	659.93
543.79	666.18
544.15	672.71
544.51	679.68
544.87	686.43
545.22	692.89
545.58	699.44
545.94	705.70
546.29	712.17
546.65	718.57
547.01	724.84
547.36	731.19
547.72	737.42
548.07	743.51
548.43	749.66
548.79	756.05
549.14	762.34
549.50	768.30
549.86	774.23
550.21	780.30
550.57	786.43
550.92	792.12
551.28	798.12
551.64	804.02
551.99	809.87
552.35	815.84
552.70	821.76
553.06	827.51
553.41	833.31
553.77	839.17
554.13	845.24
554.48	851.20
554.84	856.96
555.19	862.88
555.55	868.88
555.90	874.55
556.26	880.04
556.61	885.58
556.97	890.81
557.32	896.18
557.68	901.67
558.03	906.84
558.39	912.13
558.74	917.48
559.10	923.03
559.45	928.13
559.81	933.43
560.16	938.55
560.52	943.65
560.87	949.04
561.23	953.90
561.58	958.70
561.94	963.37
562.29	967.88
562.64	972.30
563.00	976.60
563.35	981.24
563.71	986.10
564.06	990.74
564.42	995.53
564.77	1000.29
565.12	1005.02
565.48	1009.89
565.83	1014.22
566.19	1018.45
566.54	1022.25
566.89	1026.47
567.25	1030.38
567.60	1034.51
567.96	1038.45
568.31	1042.00
568.66	1045.99
569.02	1049.61
569.37	1052.86
569.72	1056.08
570.08	1059.29
570.43	1062.46
570.78	1065.57
571.14	1068.13
571.49	1070.93
571.84	1074.15
572.20	1076.85
572.55	1079.17
572.90	1081.24
573.26	1083.76
573.61	1086.13
573.96	1088.59
574.31	1089.91
574.67	1091.57
575.02	1093.11
575.37	1094.98
575.72	1096.18
576.08	1097.55
576.43	1098.95
576.78	1100.73
577.13	1102.17
577.49	1103.60
577.84	1104.77
578.19	1105.71
578.54	1106.84
578.90	1107.50
579.25	1107.47
579.60	1107.83
579.95	1108.03
580.30	1108.37
580.66	1108.84
581.01	1109.10
581.36	1109.09
581.71	1110.04
582.06	1110.27
582.42	1110.33
582.77	1110.25
583.12	1110.67
583.47	1110.41
583.82	1110.31
584.17	1110.02
584.53	1110.14
584.88	1110.03
585.23	1109.89
585.58	1109.60
585.93	1109.26
586.28	1109.02
586.63	1109.03
586.98	1108.71
587.34	1108.57
587.69	1108.32
588.04	1107.57
588.39	1107.02
588.74	1106.06
589.09	1104.80
589.44	1103.62
589.79	1102.91
590.14	1102.18
590.49	1101.22
590.84	1100.26
591.19	1099.26
591.54	1097.46
591.89	1095.60
592.25	1094.25
592.60	1092.43
592.95	1090.83
593.30	1089.13
593.65	1087.43
594.00	1085.44
594.35	1084.16
594.70	1081.99
595.05	1080.02
595.40	1078.14
595.75	1075.89
596.10	1074.26
596.45	1072.90
596.80	1071.41
597.15	1069.77
597.50	1067.61
597.85	1065.80
598.19	1064.21
598.54	1062.53
598.89	1061.06
599.24	1059.62
599.59	1057.54
599.94	1055.96
600.29	1054.06
600.64	1052.27
600.99	1050.10
601.34	1048.17
601.69	1045.41
602.04	1043.41
602.39	1041.44
602.74	1039.53
603.08	1037.62
603.43	1035.52
603.78	1033.36
604.13	1031.16
604.48	1028.45
604.83	1025.87
605.18	1023.54
605.53	1020.60
605.87	1017.56
606.22	1015.19
606.57	1012.60
606.92	1009.96
607.27	1007.43
607.62	1005.02
607.96	1002.30
608.31	1000.09
608.66	997.51
609.01	994.56
609.36	991.46
609.70	987.94
610.05	984.60
610.40	981.79
610.75	978.69
611.10	975.24
611.44	971.55
611.79	968.74
612.14	965.65
612.49	961.79
612.83	958.38
613.18	955.20
613.53	951.91
613.88	948.05
614.22	944.60
614.57	940.77
614.92	937.09
615.27	933.79
615.61	929.96
615.96	926.19
616.31	923.10
616.65	920.30
617.00	917.34
617.35	914.18
617.70	910.50
618.04	906.69
618.39	903.17
618.74	900.29
619.08	896.56
619.43	893.26
619.78	890.26
620.12	887.01
620.47	883.61
620.82	879.88
621.16	876.88
621.51	873.64
621.85	870.48
622.20	866.88
622.55	863.32
622.89	860.09
623.24	856.97
623.59	853.73
623.93	850.50
624.28	847.28
624.62	843.80
624.97	840.76
625.32	837.79
625.66	834.70
626.01	831.32
626.35	827.96
626.70	824.73
627.04	821.41
627.39	817.79
627.73	814.55
628.08	811.57
628.43	808.11
628.77	804.65
629.12	801.19
629.46	798.00
629.81	794.35
630.15	790.51
630.50	786.82
630.84	782.85
631.19	778.93
631.53	775.17
631.88	771.40
632.22	767.28
632.57	764.06
632.91	760.12
633.26	756.27
633.60	752.47
633.95	748.79
634.29	745.39
634.64	742.30
634.98	738.50
635.32	734.96
635.67	731.55
636.01	728.30
636.36	724.77
636.70	721.44
637.05	718.60
637.39	715.65
637.73	712.53
638.08	709.63
638.42	706.56
638.77	703.44
639.11	700.25
639.45	697.40
639.80	693.89
640.14	690.83
640.49	687.62
640.83	684.44
641.17	681.38
641.52	678.00
641.86	674.55
642.20	671.79
642.55	668.47
642.89	665.34
643.23	662.02
643.58	659.32
643.92	655.89
644.26	652.24
644.61	649.29
644.95	646.12
645.29	642.68
645.64	639.24
645.98	635.99
646.32	633.07
646.66	629.70
647.01	626.51
647.35	623.57
647.69	620.76
648.04	618.04
648.38	614.50
648.72	611.22
649.06	608.01
649.41	604.64
649.75	601.40
650.09	598.28
650.43	595.15
650.78	591.61
651.12	588.63
651.46	585.75
651.80	582.48
652.14	579.35
652.49	576.73
652.83	573.85
653.17	570.70
653.51	567.59
653.85	564.74
654.20	561.63
654.54	558.44
654.88	555.16
655.22	551.68
655.56	548.92
655.90	546.09
656.25	543.22
656.59	540.39
656.93	537.87
657.27	534.92
657.61	531.85
657.95	529.22
658.29	526.53
658.64	523.68
658.98	520.79
659.32	518.02
659.66	515.02
660.00	512.23
660.34	509.60
660.68	506.73
661.02	503.91
661.36	501.35
661.70	498.77
662.05	496.30
662.39	494.07
662.73	491.50
663.07	489.05
663.41	486.79
663.75	484.31
664.09	481.68
664.43	479.42
664.77	477.30
665.11	474.86
665.45	472.69
665.79	470.51
666.13	468.20
666.47	465.92
666.81	463.72
667.15	461.48
667.49	459.22
667.83	457.24
668.17	455.10
668.51	452.88
668.85	450.76
669.19	448.60
669.53	446.49
669.87	444.43
670.21	442.42
670.55	440.16
670.89	438.32
671.23	436.38
671.57	434.24
671.91	432.29
672.25	430.35
672.58	428.15
672.92	426.15
673.26	424.42
673.60	422.69
673.94	420.79
674.28	419.03
674.62	417.51
674.96	415.74
675.30	414.12
675.64	412.41
675.97	410.71
676.31	409.22
676.65	407.53
676.99	406.01
677.33	404.15
677.67	402.42
678.01	400.59
678.34	398.82
678.68	397.08
679.02	395.34
679.36	393.75
679.70	392.13
680.04	390.57
680.37	388.97
680.71	387.42
681.05	386.04
681.39	384.69
681.73	383.09
682.06	381.61
682.40	380.08
682.74	378.68
683.08	377.25
683.42	375.60
683.75	374.19
684.09	372.51
684.43	371.03
684.77	369.65
685.10	368.14
685.44	366.74
685.78	365.56
686.12	364.20
686.45	362.80
686.79	361.43
687.13	359.95
687.46	358.37
687.80	356.94
688.14	355.43
688.48	353.88
688.81	352.36
689.15	350.99
689.49	349.64
689.82	348.39
690.16	346.94
690.50	345.71
690.83	344.38
691.17	343.10
691.51	342.12
691.84	341.08
692.18	339.88
692.52	338.67
692.85	337.43
693.19	336.30
693.52	335.12
693.86	333.93
694.20	332.75
694.53	331.72
694.87	330.53
695.21	329.34
695.54	328.12
695.88	326.95
696.21	325.72
696.55	324.55
696.88	323.37
697.22	322.26
697.56	321.17
697.89	320.00
698.23	319.07
698.56	317.85
698.90	316.75
699.23	315.76
699.57	314.68
699.90	313.67
700.24	312.57
700.58	311.52
700.91	310.57
701.25	309.71
701.58	308.75
701.92	307.78
702.25	306.79
702.59	305.90
702.92	305.10
703.26	304.27
703.59	303.40
703.93	302.69
704.26	301.97
704.60	301.22
704.93	300.58
705.26	299.72
705.60	298.96
705.93	298.19
706.27	297.57
706.60	296.94
706.94	296.32
707.27	295.64
707.61	294.98
707.94	294.31
708.27	293.63
708.61	292.96
708.94	292.28
709.28	291.77
709.61	291.25
709.94	290.63
710.28	290.03
710.61	289.48
710.95	288.64
711.28	288.06
711.61	287.27
711.95	286.54
712.28	285.93
712.61	285.31
712.95	284.72
713.28	283.98
713.61	283.32
713.95	282.61
714.28	282.02
714.61	281.28
714.95	280.72
715.28	280.05
715.61	279.39
715.95	278.83
716.28	278.14
716.61	277.66
716.95	277.10
717.28	276.56
717.61	275.95
717.94	275.51
718.28	274.93
718.61	274.50
718.94	273.95
719.27	273.48
719.61	272.98
719.94	272.51
720.27	271.97
720.60	271.60
720.94	271.17
721.27	270.70
721.60	270.40
721.93	269.94
722.27	269.58
722.60	269.14
722.93	268.74
723.26	268.41
723.59	267.87
723.93	267.44
724.26	267.08
724.59	266.69
724.92	266.27
725.25	265.87
725.59	265.48
725.92	265.09
726.25	264.71
726.58	264.30
726.91	263.91
727.24	263.56
727.57	263.13
727.91	262.65
728.24	262.34
728.57	261.96
728.90	261.53
729.23	261.06
729.56	260.71
729.89	260.34
730.22	259.96
730.55	259.60
730.89	259.17
731.22	258.72
731.55	258.40
731.88	258.00
732.21	257.61
732.54	257.22
732.87	256.96
733.20	256.53
733.53	256.27
733.86	256.00
734.19	255.70
734.52	255.33
734.85	255.15
735.18	254.67
735.51	254.41
735.84	254.19
736.17	254.03
736.50	253.72
736.83	253.66
737.16	253.43
737.49	253.22
737.82	253.01
738.15	252.78
738.48	252.44
738.81	252.16
739.14	251.99
739.47	251.70
739.80	251.37
740.13	251.18
740.46	250.94
740.79	250.61
741.12	250.37
741.45	250.20
741.78	249.89
742.11	249.80
742.44	249.53
742.77	249.33
743.10	249.15
743.43	248.95
743.75	248.48
744.08	248.40
744.41	248.25
744.74	248.20
745.07	247.95
745.40	247.88
745.73	247.88
746.06	247.66
746.39	247.49
746.71	247.32
747.04	247.10
747.37	246.80
747.70	246.56
748.03	246.50
748.36	246.32
748.68	246.20
749.01	245.99
749.34	245.76
749.67	245.61
750.00	245.31
750.33	245.29
750.65	245.22
750.98	244.84
751.31	244.52
751.64	244.19
751.97	244.12
752.29	243.76
752.62	243.36
752.95	243.16
753.28	243.00
753.60	242.90
753.93	242.79
754.26	242.71
754.59	242.69
754.91	242.47
755.24	242.23
755.57	241.95
755.90	241.79
756.22	241.77
756.55	241.58
756.88	241.44
757.20	241.05
757.53	240.76
757.86	240.63
758.19	240.56
758.51	240.36
758.84	240.14
759.17	240.08
759.49	240.03
759.82	239.92
760.15	239.77
760.47	239.53
760.80	239.24
761.13	239.12
761.45	239.01
761.78	238.93
762.11	238.88
762.43	238.84
762.76	238.68
763.08	238.52
763.41	238.42
763.74	238.37
764.06	238.34
764.39	238.32
764.71	238.18
765.04	238.05
765.37	238.01
765.69	237.94
766.02	237.83
766.34	237.76
766.67	237.64
767.00	237.58
767.32	237.66
767.65	237.71
767.97	237.63
768.30	237.42
768.62	237.30
768.95	237.13
769.27	237.00
769.60	236.94
769.92	236.77
770.25	236.64
770.57	236.55
770.90	236.39
771.22	236.22
771.55	236.19
771.87	236.09
772.20	236.05
772.52	236.11
772.85	236.21
773.17	236.11
773.50	236.06
773.82	235.91
774.15	235.64
774.47	235.55
774.80	235.41
775.12	235.30
775.45	235.18
775.77	235.20
776.09	235.15
776.42	235.09
776.74	235.12
777.07	235.07
777.39	234.90
777.72	234.91
778.04	234.86
778.36	234.83
778.69	234.79
779.01	234.68
779.33	234.43
779.66	234.19
779.98	234.02
780.31	233.97
780.63	233.97
780.95	233.99
781.28	233.86
781.60	233.85
781.92	233.71
782.25	233.66
782.57	233.55
782.89	233.57
783.22	233.50
783.54	233.35
783.86	233.33
784.19	233.25
784.51	233.22
784.83	233.20
785.16	233.05
785.48	232.91
785.80	232.90
786.12	232.96
786.45	232.94
786.77	232.98
787.09	232.96
787.42	232.90
787.74	232.92
788.06	232.90
788.38	232.85
788.71	232.90
789.03	232.90
789.35	232.93
789.67	232.60
789.99	232.53
790.32	232.52
790.64	232.50
790.96	232.55
791.28	232.50
791.61	232.45
