SpectraSuite Data File
++++++++++++++++++++++++++++++++++++
Date: Fri Feb 01 14:41:28 EST 2013
User: group
Dark Spectrum Present: No
Reference Spectrum Present: No
Number of Sampled Component Spectra: 1
Spectrometers: USB2E7196
Integration Time (usec): 70000 (USB2E7196)
Spectra Averaged: 10 (USB2E7196)
Boxcar Smoothing: 10 (USB2E7196)
Correct for Electrical Dark: No (USB2E7196)
Strobe/Lamp Enabled: No (USB2E7196)
Correct for Detector Non-linearity: No (USB2E7196)
Correct for Stray Light: No (USB2E7196)
Number of Pixels in Processed Spectrum: 2048
>>>>>Begin Processed Spectral Data<<<<<
339.09	0.00
339.48	218.60
339.86	219.30
340.24	219.40
340.63	220.30
341.01	225.30
341.39	224.40
341.78	225.60
342.16	226.20
342.54	225.80
342.93	215.43
343.31	226.26
343.69	226.81
344.07	227.27
344.46	227.73
344.84	228.16
345.22	228.31
345.60	228.62
345.99	228.81
346.37	228.91
346.75	229.03
347.13	229.22
347.52	229.38
347.90	229.47
348.28	229.45
348.66	229.52
349.05	229.48
349.43	229.50
349.81	229.59
350.19	229.68
350.57	229.65
350.96	229.87
351.34	229.97
351.72	230.04
352.10	230.11
352.48	230.12
352.87	230.29
353.25	230.29
353.63	230.21
354.01	230.33
354.39	230.44
354.77	230.56
355.15	230.61
355.54	230.61
355.92	230.59
356.30	230.67
356.68	230.79
357.06	230.93
357.44	230.91
357.82	230.76
358.20	230.81
358.58	230.88
358.97	230.84
359.35	230.94
359.73	230.85
360.11	230.80
360.49	230.93
360.87	230.81
361.25	230.96
361.63	231.07
362.01	230.98
362.39	230.98
362.77	230.97
363.15	230.89
363.53	230.82
363.91	230.74
364.29	230.59
364.67	230.41
365.05	230.30
365.43	230.31
365.81	230.35
366.19	230.45
366.57	230.48
366.95	230.47
367.33	230.38
367.71	230.33
368.09	230.38
368.47	230.21
368.85	230.16
369.23	230.12
369.61	229.98
369.99	230.04
370.37	229.99
370.75	230.04
371.13	230.10
371.51	230.00
371.89	229.94
372.27	229.95
372.65	229.88
373.03	229.80
373.41	229.77
373.78	229.73
374.16	229.47
374.54	229.38
374.92	229.30
375.30	229.21
375.68	229.20
376.06	229.16
376.44	229.11
376.82	228.95
377.19	228.84
377.57	228.82
377.95	228.65
378.33	228.70
378.71	228.54
379.09	228.39
379.47	228.31
379.84	228.25
380.22	228.27
380.60	228.25
380.98	228.26
381.36	228.12
381.73	228.08
382.11	228.09
382.49	227.99
382.87	228.02
383.25	228.02
383.62	228.21
384.00	228.12
384.38	228.18
384.76	228.29
385.13	228.40
385.51	228.30
385.89	228.20
386.27	228.10
386.64	228.06
387.02	228.05
387.40	228.03
387.78	228.07
388.15	228.03
388.53	228.00
388.91	228.02
389.29	228.01
389.66	228.04
390.04	228.08
390.42	228.15
390.79	228.04
391.17	228.09
391.55	227.87
391.92	227.86
392.30	227.87
392.68	227.89
393.05	227.80
393.43	227.83
393.81	227.98
394.18	227.89
394.56	227.89
394.94	228.06
395.31	228.14
395.69	228.27
396.06	228.37
396.44	228.39
396.82	228.43
397.19	228.66
397.57	228.81
397.95	228.86
398.32	228.90
398.70	229.02
399.07	229.05
399.45	229.16
399.82	229.25
400.20	229.31
400.58	229.41
400.95	229.44
401.33	229.68
401.70	229.90
402.08	230.11
402.45	230.31
402.83	230.34
403.20	230.41
403.58	230.55
403.95	230.66
404.33	230.81
404.71	230.88
405.08	231.18
405.46	231.18
405.83	231.40
406.21	231.53
406.58	231.77
406.96	232.00
407.33	232.16
407.70	232.41
408.08	232.83
408.45	233.08
408.83	233.42
409.20	233.64
409.58	233.89
409.95	234.21
410.33	234.56
410.70	234.86
411.08	235.20
411.45	235.58
411.82	235.95
412.20	236.43
412.57	237.01
412.95	237.28
413.32	237.85
413.69	238.38
414.07	238.97
414.44	239.41
414.82	239.99
415.19	240.70
415.56	241.41
415.94	242.03
416.31	242.90
416.68	243.70
417.06	244.69
417.43	245.56
417.81	246.47
418.18	247.51
418.55	248.57
418.93	249.70
419.30	250.78
419.67	251.95
420.04	253.21
420.42	254.49
420.79	255.97
421.16	257.43
421.54	258.93
421.91	260.48
422.28	262.20
422.66	263.82
423.03	265.50
423.40	267.20
423.77	268.96
424.15	270.75
424.52	272.63
424.89	274.58
425.26	276.42
425.64	278.28
426.01	280.33
426.38	282.45
426.75	284.59
427.13	286.82
427.50	289.20
427.87	291.47
428.24	293.78
428.61	295.98
428.99	298.42
429.36	300.94
429.73	303.58
430.10	306.15
430.47	308.93
430.85	311.62
431.22	314.48
431.59	317.43
431.96	320.20
432.33	323.23
432.70	326.28
433.08	329.83
433.45	333.11
433.82	336.26
434.19	339.90
434.56	343.51
434.93	346.85
435.30	350.16
435.68	353.96
436.05	357.61
436.42	361.18
436.79	364.54
437.16	367.91
437.53	371.51
437.90	374.93
438.27	378.37
438.64	381.95
439.01	385.17
439.38	388.03
439.75	390.83
440.13	394.11
440.50	396.94
440.87	399.37
441.24	401.84
441.61	404.64
441.98	406.50
442.35	408.65
442.72	411.00
443.09	413.08
443.46	414.20
443.83	414.90
444.20	415.49
444.57	416.42
444.94	416.82
445.31	417.14
445.68	417.59
446.05	417.71
446.42	417.23
446.79	416.74
447.16	416.17
447.53	415.68
447.90	414.20
448.27	412.49
448.64	410.33
449.01	408.90
449.37	406.38
449.74	403.90
450.11	401.06
450.48	397.77
450.85	394.58
451.22	391.82
451.59	389.11
451.96	386.62
452.33	383.26
452.70	380.20
453.07	376.67
453.43	372.92
453.80	369.24
454.17	365.78
454.54	362.43
454.91	358.88
455.28	355.47
455.65	352.18
456.02	349.50
456.38	346.81
456.75	343.34
457.12	340.44
457.49	337.64
457.86	334.78
458.23	332.42
458.59	329.88
458.96	327.09
459.33	324.64
459.70	322.32
460.07	320.31
460.43	318.18
460.80	315.96
461.17	314.31
461.54	312.36
461.91	310.42
462.27	308.56
462.64	306.94
463.01	305.22
463.38	303.55
463.74	301.55
464.11	299.91
464.48	298.52
464.85	297.10
465.21	296.01
465.58	294.83
465.95	293.47
466.32	292.27
466.68	291.18
467.05	290.10
467.42	288.72
467.78	287.44
468.15	286.38
468.52	285.49
468.88	284.20
469.25	283.15
469.62	282.43
469.98	281.53
470.35	280.70
470.72	279.82
471.08	278.79
471.45	278.18
471.82	277.52
472.18	276.70
472.55	276.00
472.92	275.30
473.28	274.63
473.65	273.89
474.02	273.26
474.38	272.73
474.75	272.29
475.11	271.80
475.48	271.46
475.85	271.06
476.21	270.74
476.58	270.53
476.94	270.36
477.31	270.09
477.67	269.91
478.04	269.64
478.41	269.46
478.77	269.63
479.14	269.33
479.50	269.28
479.87	269.35
480.23	269.21
480.60	269.03
480.96	269.14
481.33	269.26
481.69	269.27
482.06	269.33
482.42	269.28
482.79	269.55
483.15	269.75
483.52	269.87
483.88	270.03
484.25	270.20
484.61	270.45
484.98	270.59
485.34	270.98
485.71	271.44
486.07	271.94
486.44	272.21
486.80	272.73
487.17	273.19
487.53	273.92
487.90	274.79
488.26	275.66
488.62	276.47
488.99	277.38
489.35	278.31
489.72	279.22
490.08	280.26
490.44	281.24
490.81	282.34
491.17	283.56
491.54	284.92
491.90	286.25
492.26	287.59
492.63	289.17
492.99	290.77
493.36	292.40
493.72	294.37
494.08	296.34
494.45	298.56
494.81	300.76
495.17	303.04
495.54	305.43
495.90	307.96
496.26	310.71
496.63	313.52
496.99	316.53
497.35	319.85
497.72	323.19
498.08	326.61
498.44	330.30
498.80	334.11
499.17	337.90
499.53	342.07
499.89	346.49
500.26	351.06
500.62	355.63
500.98	360.70
501.34	365.71
501.71	370.93
502.07	376.24
502.43	381.81
502.79	387.49
503.16	393.68
503.52	399.96
503.88	406.44
504.24	413.15
504.60	420.22
504.97	427.52
505.33	435.20
505.69	443.22
506.05	451.27
506.41	459.60
506.78	468.20
507.14	476.85
507.50	485.86
507.86	495.25
508.22	504.80
508.59	514.50
508.95	524.66
509.31	535.45
509.67	546.26
510.03	557.30
510.39	568.76
510.75	580.17
511.12	591.97
511.48	604.27
511.84	616.81
512.20	629.60
512.56	642.58
512.92	655.73
513.28	669.32
513.64	683.48
514.00	697.41
514.37	711.90
514.73	726.65
515.09	741.35
515.45	756.33
515.81	771.91
516.17	787.71
516.53	803.80
516.89	819.73
517.25	836.00
517.61	852.63
517.97	869.24
518.33	885.80
518.69	902.55
519.05	919.83
519.41	937.24
519.77	955.01
520.13	973.11
520.49	991.21
520.85	1009.43
521.21	1027.70
521.57	1046.74
521.93	1065.12
522.29	1084.15
522.65	1103.33
523.01	1122.33
523.37	1141.30
523.73	1160.60
524.09	1179.70
524.45	1199.11
524.81	1219.03
525.17	1239.23
525.53	1259.50
525.89	1280.20
526.25	1301.04
526.61	1320.91
526.97	1341.62
527.33	1361.81
527.68	1382.02
528.04	1402.52
528.40	1422.94
528.76	1443.75
529.12	1464.28
529.48	1485.53
529.84	1505.47
530.20	1526.58
530.56	1548.26
530.91	1569.68
531.27	1590.99
531.63	1612.19
531.99	1633.14
532.35	1653.50
532.71	1673.51
533.07	1694.43
533.42	1714.64
533.78	1734.87
534.14	1755.27
534.50	1774.50
534.86	1794.17
535.21	1813.48
535.57	1833.16
535.93	1853.16
536.29	1872.25
536.65	1891.43
537.00	1910.14
537.36	1930.07
537.72	1948.50
538.08	1966.31
538.44	1984.55
538.79	2002.08
539.15	2019.33
539.51	2037.31
539.87	2055.56
540.22	2073.43
540.58	2090.90
540.94	2108.32
541.29	2125.25
541.65	2142.23
542.01	2159.95
542.37	2177.29
542.72	2193.93
543.08	2210.31
543.44	2226.47
543.79	2241.80
544.15	2257.18
544.51	2273.41
544.87	2288.30
545.22	2303.35
545.58	2317.65
545.94	2331.05
546.29	2345.09
546.65	2359.23
547.01	2372.10
547.36	2385.07
547.72	2397.88
548.07	2409.88
548.43	2421.67
548.79	2433.90
549.14	2445.12
549.50	2455.82
549.86	2466.47
550.21	2477.21
550.57	2487.83
550.92	2497.90
551.28	2508.09
551.64	2517.92
551.99	2527.20
552.35	2537.02
552.70	2546.38
553.06	2556.60
553.41	2566.41
553.77	2575.60
554.13	2584.62
554.48	2593.66
554.84	2602.03
555.19	2610.52
555.55	2618.74
555.90	2626.43
556.26	2633.92
556.61	2641.91
556.97	2649.26
557.32	2656.91
557.68	2664.26
558.03	2670.86
558.39	2677.57
558.74	2685.06
559.10	2692.21
559.45	2698.88
559.81	2705.64
560.16	2711.90
560.52	2717.20
560.87	2723.42
561.23	2728.35
561.58	2733.53
561.94	2738.74
562.29	2743.00
562.64	2747.19
563.00	2751.51
563.35	2756.90
563.71	2762.34
564.06	2766.87
564.42	2771.63
564.77	2775.49
565.12	2779.67
565.48	2783.98
565.83	2786.89
566.19	2789.70
566.54	2791.85
566.89	2794.05
567.25	2796.17
567.60	2798.89
567.96	2800.92
568.31	2802.40
568.66	2804.43
569.02	2806.34
569.37	2807.11
569.72	2808.67
570.08	2809.40
570.43	2809.71
570.78	2809.62
571.14	2808.59
571.49	2808.50
571.84	2808.58
572.20	2807.58
572.55	2806.10
572.90	2804.36
573.26	2803.40
573.61	2801.88
573.96	2800.76
574.31	2797.84
574.67	2794.41
575.02	2790.79
575.37	2788.18
575.72	2784.12
576.08	2781.19
576.43	2777.22
576.78	2773.69
577.13	2770.91
577.49	2768.24
577.84	2764.89
578.19	2760.42
578.54	2756.24
578.90	2750.80
579.25	2744.70
579.60	2739.33
579.95	2734.43
580.30	2729.16
580.66	2723.22
581.01	2717.08
581.36	2711.41
581.71	2706.92
582.06	2701.52
582.42	2695.59
582.77	2689.47
583.12	2683.33
583.47	2677.62
583.82	2672.74
584.17	2666.53
584.53	2659.89
584.88	2652.90
585.23	2646.54
585.58	2640.55
585.93	2634.01
586.28	2629.15
586.63	2623.46
586.98	2617.95
587.34	2611.81
587.69	2605.58
588.04	2599.72
588.39	2593.77
588.74	2585.85
589.09	2578.37
589.44	2570.81
589.79	2564.44
590.14	2558.11
590.49	2551.43
590.84	2543.59
591.19	2535.30
591.54	2527.33
591.89	2518.03
592.25	2509.96
592.60	2500.92
592.95	2492.25
593.30	2483.61
593.65	2473.97
594.00	2465.24
594.35	2456.64
594.70	2447.18
595.05	2438.72
595.40	2429.40
595.75	2419.97
596.10	2412.24
596.45	2404.61
596.80	2397.58
597.15	2389.14
597.50	2380.27
597.85	2372.88
598.19	2365.28
598.54	2357.24
598.89	2349.53
599.24	2342.80
599.59	2335.25
599.94	2327.73
600.29	2319.80
600.64	2311.79
600.99	2303.15
601.34	2295.27
601.69	2286.56
602.04	2279.11
602.39	2270.55
602.74	2263.13
603.08	2256.00
603.43	2248.43
603.78	2239.66
604.13	2230.69
604.48	2221.85
604.83	2213.34
605.18	2204.54
605.53	2194.74
605.87	2184.55
606.22	2175.85
606.57	2166.01
606.92	2156.50
607.27	2148.11
607.62	2139.82
607.96	2131.50
608.31	2123.38
608.66	2113.44
609.01	2103.85
609.36	2093.54
609.70	2083.27
610.05	2072.84
610.40	2062.57
610.75	2051.87
611.10	2041.30
611.44	2030.42
611.79	2020.60
612.14	2009.99
612.49	1998.58
612.83	1988.14
613.18	1978.30
613.53	1968.25
613.88	1958.01
614.22	1947.54
614.57	1936.37
614.92	1925.74
615.27	1915.51
615.61	1904.83
615.96	1894.88
616.31	1885.60
616.65	1876.94
617.00	1867.97
617.35	1858.47
617.70	1848.61
618.04	1838.10
618.39	1828.62
618.74	1820.06
619.08	1810.10
619.43	1800.54
619.78	1791.81
620.12	1782.81
620.47	1773.58
620.82	1763.59
621.16	1754.48
621.51	1745.35
621.85	1736.12
622.20	1726.00
622.55	1716.24
622.89	1707.02
623.24	1698.05
623.59	1688.63
623.93	1678.91
624.28	1668.98
624.62	1659.40
624.97	1649.93
625.32	1641.66
625.66	1633.20
626.01	1623.30
626.35	1614.52
626.70	1605.16
627.04	1596.18
627.39	1586.81
627.73	1577.73
628.08	1568.58
628.43	1559.29
628.77	1549.90
629.12	1540.50
629.46	1531.54
629.81	1521.66
630.15	1511.80
630.50	1502.19
630.84	1492.24
631.19	1481.95
631.53	1472.71
631.88	1462.87
632.22	1453.38
632.57	1443.98
632.91	1433.99
633.26	1424.50
633.60	1414.22
633.95	1405.36
634.29	1395.98
634.64	1387.29
634.98	1377.42
635.32	1368.93
635.67	1360.69
636.01	1352.21
636.36	1343.75
636.70	1335.47
637.05	1327.48
637.39	1319.82
637.73	1311.65
638.08	1304.15
638.42	1296.94
638.77	1289.12
639.11	1281.33
639.45	1273.17
639.80	1264.58
640.14	1256.48
640.49	1248.64
640.83	1240.92
641.17	1232.81
641.52	1224.55
641.86	1215.99
642.20	1208.90
642.55	1200.76
642.89	1192.32
643.23	1184.09
643.58	1176.41
643.92	1168.28
644.26	1160.16
644.61	1152.41
644.95	1144.47
645.29	1135.70
645.64	1126.82
645.98	1118.44
646.32	1110.89
646.66	1102.93
647.01	1095.25
647.35	1087.61
647.69	1079.98
648.04	1072.66
648.38	1064.97
648.72	1056.99
649.06	1049.45
649.41	1041.62
649.75	1033.44
650.09	1025.62
650.43	1017.85
650.78	1009.58
651.12	1001.95
651.46	994.68
651.80	987.18
652.14	980.09
652.49	973.07
652.83	966.50
653.17	959.24
653.51	951.62
653.85	944.66
654.20	937.57
654.54	930.10
654.88	922.52
655.22	915.13
655.56	907.62
655.90	900.79
656.25	893.79
656.59	886.85
656.93	880.29
657.27	873.44
657.61	866.65
657.95	860.51
658.29	853.85
658.64	847.16
658.98	840.14
659.32	833.27
659.66	826.80
660.00	820.18
660.34	813.93
660.68	807.74
661.02	801.35
661.36	795.36
661.70	789.47
662.05	784.04
662.39	778.20
662.73	772.63
663.07	767.09
663.41	761.64
663.75	756.16
664.09	750.47
664.43	745.05
664.77	739.80
665.11	734.43
665.45	729.24
665.79	724.02
666.13	718.88
666.47	713.67
666.81	708.19
667.15	702.74
667.49	697.65
667.83	692.77
668.17	687.82
668.51	682.73
668.85	677.67
669.19	672.74
669.53	668.00
669.87	663.02
670.21	658.31
670.55	653.63
670.89	649.17
671.23	645.02
671.57	640.54
671.91	636.26
672.25	631.52
672.58	627.07
672.92	622.66
673.26	618.49
673.60	614.34
673.94	610.59
674.28	607.10
674.62	603.27
674.96	599.34
675.30	595.59
675.64	591.60
675.97	587.85
676.31	583.99
676.65	580.22
676.99	576.80
677.33	573.03
677.67	569.24
678.01	565.27
678.34	561.42
678.68	557.91
679.02	554.14
679.36	550.90
679.70	547.50
680.04	543.98
680.37	540.26
680.71	536.97
681.05	533.50
681.39	530.00
681.73	526.78
682.06	523.82
682.40	520.80
682.74	517.90
683.08	514.89
683.42	511.87
683.75	508.81
684.09	505.60
684.43	502.55
684.77	499.41
685.10	496.50
685.44	493.44
685.78	490.57
686.12	487.65
686.45	484.64
686.79	481.70
687.13	479.01
687.46	476.29
687.80	473.40
688.14	470.63
688.48	467.88
688.81	465.23
689.15	462.35
689.49	459.58
689.82	456.94
690.16	454.28
690.50	451.81
690.83	449.23
691.17	446.62
691.51	444.29
691.84	442.03
692.18	439.55
692.52	437.02
692.85	434.56
693.19	432.29
693.52	430.02
693.86	427.74
694.20	425.31
694.53	423.08
694.87	420.66
695.21	418.15
695.54	415.73
695.88	413.14
696.21	410.71
696.55	408.36
696.88	406.04
697.22	403.75
697.56	401.41
697.89	399.35
698.23	397.35
698.56	395.28
698.90	393.09
699.23	391.00
699.57	389.00
699.90	386.96
700.24	384.72
700.58	382.62
700.91	380.74
701.25	378.92
701.58	377.15
701.92	375.38
702.25	373.85
702.59	372.30
702.92	370.62
703.26	369.00
703.59	367.29
703.93	365.60
704.26	363.80
704.60	362.29
704.93	360.63
705.26	358.93
705.60	357.21
705.93	355.74
706.27	354.36
706.60	353.03
706.94	351.63
707.27	350.27
707.61	348.89
707.94	347.40
708.27	345.96
708.61	344.43
708.94	343.02
709.28	341.60
709.61	340.20
709.94	338.94
710.28	337.53
710.61	336.25
710.95	334.76
711.28	333.62
711.61	332.16
711.95	330.85
712.28	329.65
712.61	328.44
712.95	327.14
713.28	325.96
713.61	324.62
713.95	323.32
714.28	322.16
714.61	321.00
714.95	319.96
715.28	318.62
715.61	317.41
715.95	316.32
716.28	315.19
716.61	314.08
716.95	313.00
717.28	312.00
717.61	310.96
717.94	310.13
718.28	309.20
718.61	308.32
718.94	307.38
719.27	306.37
719.61	305.40
719.94	304.59
720.27	303.57
720.60	302.78
720.94	302.07
721.27	301.28
721.60	300.49
721.93	299.70
722.27	299.03
722.60	298.31
722.93	297.52
723.26	296.77
723.59	295.99
723.93	295.24
724.26	294.66
724.59	293.96
724.92	293.29
725.25	292.52
725.59	291.86
725.92	291.10
726.25	290.59
726.58	290.06
726.91	289.38
727.24	288.79
727.57	288.20
727.91	287.40
728.24	286.86
728.57	286.11
728.90	285.38
729.23	284.72
729.56	284.15
729.89	283.60
730.22	283.06
730.55	282.45
730.89	281.83
731.22	281.02
731.55	280.30
731.88	279.69
732.21	279.12
732.54	278.40
732.87	277.90
733.20	277.18
733.53	276.50
733.86	275.94
734.19	275.26
734.52	274.70
734.85	274.26
735.18	273.70
735.51	273.30
735.84	272.79
736.17	272.34
736.50	271.73
736.83	271.44
737.16	270.91
737.49	270.39
737.82	269.88
738.15	269.40
738.48	269.00
738.81	268.53
739.14	267.97
739.47	267.54
739.80	267.09
740.13	266.67
740.46	266.25
740.79	265.77
741.12	265.38
741.45	264.95
741.78	264.46
742.11	263.95
742.44	263.35
742.77	262.90
743.10	262.41
743.43	262.00
743.75	261.34
744.08	261.09
744.41	260.55
744.74	260.27
745.07	260.03
745.40	259.62
745.73	259.29
746.06	258.93
746.39	258.63
746.71	258.23
747.04	257.79
747.37	257.40
747.70	257.08
748.03	256.71
748.36	256.42
748.68	256.04
749.01	255.66
749.34	255.40
749.67	255.06
750.00	254.65
750.33	254.40
750.65	254.18
750.98	253.66
751.31	253.54
751.64	253.14
751.97	252.84
752.29	252.50
752.62	252.11
752.95	251.80
753.28	251.51
753.60	251.21
753.93	251.08
754.26	250.90
754.59	250.57
754.91	250.21
755.24	249.89
755.57	249.70
755.90	249.51
756.22	249.27
756.55	248.98
756.88	248.81
757.20	248.59
757.53	248.25
757.86	248.09
758.19	247.91
758.51	247.70
758.84	247.41
759.17	247.28
759.49	246.96
759.82	246.86
760.15	246.48
760.47	246.24
760.80	246.09
761.13	245.83
761.45	245.63
761.78	245.59
762.11	245.35
762.43	245.12
762.76	244.94
763.08	244.74
763.41	244.60
763.74	244.47
764.06	244.30
764.39	244.07
764.71	243.89
765.04	243.72
765.37	243.56
765.69	243.40
766.02	243.35
766.34	243.35
766.67	243.14
767.00	243.22
767.32	243.19
767.65	243.05
767.97	242.89
768.30	242.79
768.62	242.55
768.95	242.46
769.27	242.37
769.60	242.18
769.92	242.11
770.25	242.06
770.57	241.87
770.90	241.62
771.22	241.47
771.55	241.25
771.87	241.00
772.20	240.80
772.52	240.83
772.85	240.87
773.17	240.70
773.50	240.50
773.82	240.25
774.15	240.02
774.47	239.72
774.80	239.57
775.12	239.43
775.45	239.35
775.77	239.21
776.09	238.92
776.42	238.84
776.74	238.60
777.07	238.34
777.39	238.29
777.72	238.18
778.04	238.03
778.36	237.99
778.69	237.90
779.01	237.88
779.33	237.50
779.66	237.08
779.98	236.89
780.31	236.78
780.63	236.73
780.95	236.86
781.28	236.82
781.60	236.67
781.92	236.59
782.25	236.40
782.57	236.30
782.89	236.26
783.22	236.20
783.54	236.20
783.86	236.16
784.19	236.08
784.51	236.11
784.83	236.11
785.16	236.01
785.48	236.01
785.80	235.87
786.12	235.87
786.45	235.75
