SpectraSuite Data File
++++++++++++++++++++++++++++++++++++
Date: Fri Feb 01 14:41:19 EST 2013
User: group
Dark Spectrum Present: No
Reference Spectrum Present: No
Number of Sampled Component Spectra: 1
Spectrometers: USB2E7196
Integration Time (usec): 70000 (USB2E7196)
Spectra Averaged: 10 (USB2E7196)
Boxcar Smoothing: 10 (USB2E7196)
Correct for Electrical Dark: No (USB2E7196)
Strobe/Lamp Enabled: No (USB2E7196)
Correct for Detector Non-linearity: No (USB2E7196)
Correct for Stray Light: No (USB2E7196)
Number of Pixels in Processed Spectrum: 2048
>>>>>Begin Processed Spectral Data<<<<<
339.09	0.00
339.48	216.80
339.86	217.40
340.24	219.20
340.63	220.00
341.01	225.00
341.39	221.90
341.78	223.70
342.16	226.10
342.54	225.50
342.93	214.50
343.31	225.40
343.69	225.91
344.07	226.40
344.46	226.87
344.84	227.24
345.22	227.34
345.60	227.72
345.99	227.87
346.37	228.07
346.75	228.30
347.13	228.33
347.52	228.38
347.90	228.54
348.28	228.54
348.66	228.56
349.05	228.50
349.43	228.50
349.81	228.64
350.19	228.64
350.57	228.63
350.96	228.76
351.34	228.77
351.72	228.73
352.10	228.82
352.48	228.91
352.87	229.01
353.25	229.15
353.63	229.18
354.01	229.35
354.39	229.36
354.77	229.33
355.15	229.57
355.54	229.68
355.92	229.66
356.30	229.79
356.68	230.00
357.06	229.97
357.44	230.05
357.82	229.95
358.20	230.03
358.58	230.15
358.97	230.10
359.35	230.29
359.73	230.52
360.11	230.54
360.49	230.55
360.87	230.61
361.25	230.66
361.63	230.65
362.01	230.62
362.39	230.62
362.77	230.72
363.15	230.68
363.53	230.59
363.91	230.62
364.29	230.49
364.67	230.37
365.05	230.37
365.43	230.40
365.81	230.46
366.19	230.61
366.57	230.64
366.95	230.70
367.33	230.54
367.71	230.45
368.09	230.40
368.47	230.34
368.85	230.30
369.23	230.23
369.61	230.16
369.99	230.23
370.37	230.22
370.75	230.20
371.13	230.09
371.51	230.00
371.89	229.98
372.27	229.95
372.65	229.81
373.03	229.90
373.41	229.88
373.78	229.82
374.16	229.61
374.54	229.47
374.92	229.36
375.30	229.21
375.68	229.10
376.06	229.04
376.44	228.93
376.82	228.78
377.19	228.73
377.57	228.68
377.95	228.49
378.33	228.28
378.71	228.05
379.09	228.01
379.47	228.05
379.84	227.92
380.22	227.92
380.60	227.82
380.98	227.70
381.36	227.63
381.73	227.56
382.11	227.57
382.49	227.55
382.87	227.45
383.25	227.50
383.62	227.67
384.00	227.59
384.38	227.56
384.76	227.58
385.13	227.64
385.51	227.61
385.89	227.61
386.27	227.72
386.64	227.76
387.02	227.75
387.40	227.74
387.78	227.65
388.15	227.69
388.53	227.62
388.91	227.57
389.29	227.53
389.66	227.51
390.04	227.47
390.42	227.44
390.79	227.56
391.17	227.57
391.55	227.38
391.92	227.48
392.30	227.46
392.68	227.43
393.05	227.38
393.43	227.40
393.81	227.42
394.18	227.34
394.56	227.44
394.94	227.57
395.31	227.62
395.69	227.90
396.06	227.86
396.44	228.04
396.82	228.10
397.19	228.20
397.57	228.20
397.95	228.27
398.32	228.32
398.70	228.41
399.07	228.54
399.45	228.61
399.82	228.70
400.20	228.81
400.58	229.01
400.95	229.09
401.33	229.16
401.70	229.42
402.08	229.59
402.45	229.66
402.83	229.76
403.20	229.90
403.58	229.87
403.95	230.05
404.33	230.17
404.71	230.38
405.08	230.68
405.46	230.89
405.83	231.04
406.21	231.29
406.58	231.45
406.96	231.69
407.33	231.88
407.70	232.10
408.08	232.56
408.45	232.86
408.83	233.08
409.20	233.39
409.58	233.58
409.95	233.84
410.33	234.20
410.70	234.49
411.08	234.80
411.45	235.21
411.82	235.53
412.20	236.00
412.57	236.47
412.95	236.76
413.32	237.23
413.69	237.70
414.07	238.13
414.44	238.70
414.82	239.17
415.19	239.86
415.56	240.50
415.94	241.02
416.31	241.66
416.68	242.50
417.06	243.37
417.43	244.05
417.81	245.15
418.18	245.92
418.55	246.96
418.93	248.11
419.30	249.23
419.67	250.41
420.04	251.44
420.42	252.67
420.79	254.12
421.16	255.51
421.54	257.06
421.91	258.57
422.28	260.08
422.66	261.71
423.03	263.30
423.40	264.88
423.77	266.63
424.15	268.45
424.52	270.25
424.89	272.15
425.26	274.19
425.64	275.75
426.01	277.81
426.38	279.73
426.75	281.68
427.13	283.75
427.50	285.95
427.87	288.36
428.24	290.50
428.61	292.59
428.99	294.98
429.36	297.38
429.73	299.81
430.10	302.27
430.47	304.89
430.85	307.45
431.22	310.10
431.59	313.09
431.96	315.71
432.33	318.65
432.70	321.55
433.08	324.91
433.45	328.19
433.82	331.47
434.19	334.95
434.56	338.21
434.93	341.35
435.30	344.40
435.68	347.80
436.05	351.31
436.42	354.63
436.79	357.79
437.16	361.11
437.53	364.56
437.90	367.80
438.27	370.97
438.64	374.25
439.01	377.52
439.38	380.10
439.75	382.67
440.13	385.58
440.50	388.49
440.87	390.71
441.24	393.07
441.61	395.44
441.98	397.33
442.35	399.57
442.72	401.88
443.09	404.19
443.46	405.30
443.83	405.89
444.20	406.48
444.57	407.24
444.94	407.70
445.31	407.98
445.68	408.68
446.05	408.70
446.42	408.36
446.79	407.72
447.16	406.97
447.53	406.63
447.90	405.20
448.27	403.56
448.64	401.69
449.01	400.31
449.37	398.03
449.74	395.60
450.11	393.09
450.48	390.00
450.85	386.90
451.22	384.26
451.59	381.79
451.96	379.38
452.33	376.32
452.70	373.23
453.07	369.94
453.43	366.20
453.80	362.93
454.17	359.72
454.54	356.72
454.91	353.40
455.28	349.97
455.65	347.00
456.02	344.21
456.38	341.51
456.75	338.07
457.12	335.26
457.49	332.48
457.86	329.47
458.23	327.18
458.59	324.60
458.96	322.04
459.33	319.89
459.70	317.61
460.07	315.69
460.43	313.59
460.80	311.54
461.17	309.85
461.54	307.95
461.91	306.11
462.27	304.22
462.64	302.77
463.01	301.21
463.38	299.61
463.74	297.77
464.11	296.19
464.48	294.99
464.85	293.60
465.21	292.59
465.58	291.49
465.95	290.16
466.32	289.02
466.68	288.00
467.05	286.72
467.42	285.54
467.78	284.51
468.15	283.42
468.52	282.50
468.88	281.36
469.25	280.51
469.62	279.70
469.98	278.86
470.35	278.10
470.72	277.31
471.08	276.45
471.45	275.82
471.82	275.12
472.18	274.31
472.55	273.78
472.92	272.98
473.28	272.35
473.65	271.69
474.02	271.20
474.38	270.65
474.75	270.25
475.11	269.64
475.48	269.13
475.85	268.79
476.21	268.47
476.58	268.13
476.94	267.62
477.31	267.30
477.67	266.99
478.04	266.64
478.41	266.39
478.77	266.33
479.14	266.00
479.50	265.92
479.87	265.90
480.23	265.83
480.60	265.87
480.96	265.86
481.33	265.95
481.69	265.77
482.06	265.89
482.42	265.89
482.79	266.11
483.15	266.25
483.52	266.52
483.88	266.68
484.25	266.78
484.61	267.05
484.98	267.26
485.34	267.67
485.71	267.98
486.07	268.41
486.44	268.74
486.80	269.32
487.17	269.82
487.53	270.49
487.90	271.03
488.26	271.70
488.62	272.39
488.99	273.19
489.35	274.06
489.72	274.68
490.08	275.55
490.44	276.63
490.81	277.59
491.17	278.55
491.54	279.71
491.90	281.03
492.26	282.34
492.63	283.88
492.99	285.33
493.36	287.02
493.72	288.69
494.08	290.46
494.45	292.40
494.81	294.42
495.17	296.32
495.54	298.55
495.90	300.93
496.26	303.36
496.63	305.89
496.99	308.70
497.35	311.72
497.72	314.90
498.08	317.87
498.44	321.16
498.80	324.58
499.17	328.09
499.53	331.75
499.89	335.75
500.26	339.78
500.62	343.85
500.98	348.20
501.34	352.82
501.71	357.58
502.07	362.58
502.43	367.75
502.79	373.09
503.16	378.59
503.52	384.28
503.88	390.22
504.24	396.38
504.60	402.61
504.97	409.31
505.33	416.09
505.69	423.39
506.05	430.78
506.41	438.31
506.78	446.21
507.14	454.24
507.50	462.48
507.86	470.99
508.22	480.03
508.59	489.24
508.95	498.63
509.31	508.38
509.67	518.28
510.03	528.36
510.39	538.80
510.75	549.60
511.12	560.47
511.48	571.77
511.84	583.14
512.20	594.82
512.56	606.97
512.92	619.13
513.28	631.77
513.64	644.40
514.00	657.51
514.37	670.88
514.73	684.58
515.09	698.20
515.45	712.16
515.81	726.27
516.17	740.49
516.53	755.38
516.89	770.29
517.25	785.36
517.61	800.82
517.97	816.22
518.33	831.31
518.69	847.21
519.05	863.15
519.41	879.70
519.77	896.60
520.13	913.43
520.49	930.20
520.85	947.12
521.21	964.21
521.57	981.67
521.93	998.82
522.29	1016.51
522.65	1034.24
523.01	1051.74
523.37	1069.30
523.73	1087.34
524.09	1105.04
524.45	1122.86
524.81	1140.81
525.17	1159.43
525.53	1178.13
525.89	1197.46
526.25	1216.14
526.61	1234.78
526.97	1253.64
527.33	1272.52
527.68	1291.43
528.04	1310.52
528.40	1329.35
528.76	1349.24
529.12	1368.87
529.48	1388.56
529.84	1407.10
530.20	1426.65
530.56	1447.12
530.91	1467.58
531.27	1487.57
531.63	1507.30
531.99	1526.85
532.35	1546.52
532.71	1565.22
533.07	1584.76
533.42	1604.00
533.78	1623.56
534.14	1642.64
534.50	1661.22
534.86	1679.99
535.21	1698.35
535.57	1717.72
535.93	1736.28
536.29	1754.38
536.65	1771.94
537.00	1789.40
537.36	1808.20
537.72	1825.93
538.08	1843.20
538.44	1860.24
538.79	1877.36
539.15	1894.20
539.51	1911.70
539.87	1929.01
540.22	1946.57
540.58	1963.71
540.94	1979.77
541.29	1995.75
541.65	2012.59
542.01	2028.96
542.37	2045.10
542.72	2060.98
543.08	2075.90
543.44	2091.50
543.79	2106.01
544.15	2121.07
544.51	2137.24
544.87	2151.87
545.22	2166.59
545.58	2180.74
545.94	2193.40
546.29	2207.23
546.65	2220.30
547.01	2233.23
547.36	2245.72
547.72	2257.62
548.07	2269.45
548.43	2281.64
548.79	2293.73
549.14	2304.65
549.50	2315.50
549.86	2325.58
550.21	2335.70
550.57	2346.26
550.92	2356.44
551.28	2366.28
551.64	2376.15
551.99	2384.99
552.35	2394.50
552.70	2403.51
553.06	2413.03
553.41	2423.02
553.77	2431.15
554.13	2440.32
554.48	2449.29
554.84	2457.83
555.19	2466.21
555.55	2474.30
555.90	2481.66
556.26	2488.89
556.61	2496.54
556.97	2503.33
557.32	2511.19
557.68	2518.41
558.03	2525.38
558.39	2531.94
558.74	2539.54
559.10	2546.30
559.45	2552.68
559.81	2559.79
560.16	2565.31
560.52	2570.41
560.87	2576.35
561.23	2581.38
561.58	2586.53
561.94	2591.27
562.29	2595.31
562.64	2599.06
563.00	2603.06
563.35	2608.54
563.71	2613.75
564.06	2618.44
564.42	2623.44
564.77	2627.27
565.12	2632.14
565.48	2636.22
565.83	2639.51
566.19	2642.60
566.54	2644.95
566.89	2647.09
567.25	2648.39
567.60	2651.95
567.96	2654.54
568.31	2656.40
568.66	2659.24
569.02	2661.53
569.37	2662.79
569.72	2664.55
570.08	2666.32
570.43	2667.40
570.78	2667.42
571.14	2666.87
571.49	2666.48
571.84	2666.98
572.20	2666.47
572.55	2664.93
572.90	2663.18
573.26	2662.77
573.61	2661.95
573.96	2661.02
574.31	2659.05
574.67	2656.46
575.02	2652.93
575.37	2649.95
575.72	2646.40
576.08	2643.44
576.43	2639.93
576.78	2637.03
577.13	2634.07
577.49	2631.35
577.84	2627.85
578.19	2624.42
578.54	2620.21
578.90	2616.00
579.25	2610.38
579.60	2605.81
579.95	2601.14
580.30	2596.50
580.66	2590.80
581.01	2584.65
581.36	2579.30
581.71	2575.21
582.06	2570.53
582.42	2565.70
582.77	2560.39
583.12	2555.16
583.47	2549.80
583.82	2544.94
584.17	2539.10
584.53	2533.39
584.88	2527.36
585.23	2521.38
585.58	2515.50
585.93	2510.34
586.28	2504.81
586.63	2500.05
586.98	2494.83
587.34	2489.30
587.69	2483.72
588.04	2478.75
588.39	2473.64
588.74	2466.90
589.09	2459.68
589.44	2452.69
589.79	2446.56
590.14	2440.49
590.49	2434.48
590.84	2427.26
591.19	2420.03
591.54	2411.96
591.89	2403.43
592.25	2395.66
592.60	2387.40
592.95	2379.53
593.30	2370.94
593.65	2362.76
594.00	2354.32
594.35	2346.15
594.70	2337.38
595.05	2329.68
595.40	2320.67
595.75	2311.22
596.10	2303.61
596.45	2296.25
596.80	2289.45
597.15	2281.42
597.50	2273.44
597.85	2265.62
598.19	2258.13
598.54	2250.42
598.89	2243.00
599.24	2236.95
599.59	2229.78
599.94	2223.49
600.29	2215.59
600.64	2208.32
600.99	2199.82
601.34	2192.03
601.69	2183.70
602.04	2176.46
602.39	2168.05
602.74	2160.98
603.08	2154.16
603.43	2147.04
603.78	2139.37
604.13	2131.01
604.48	2122.77
604.83	2114.62
605.18	2106.51
605.53	2097.70
605.87	2088.52
606.22	2080.68
606.57	2071.73
606.92	2063.05
607.27	2054.53
607.62	2046.38
607.96	2038.16
608.31	2030.52
608.66	2021.66
609.01	2012.83
609.36	2003.30
609.70	1993.17
610.05	1983.07
610.40	1973.70
610.75	1963.54
611.10	1953.39
611.44	1943.06
611.79	1933.89
612.14	1924.08
612.49	1913.69
612.83	1903.78
613.18	1894.12
613.53	1884.45
613.88	1874.20
614.22	1864.23
614.57	1853.45
614.92	1843.91
615.27	1834.45
615.61	1824.58
615.96	1815.12
616.31	1806.05
616.65	1797.61
617.00	1789.31
617.35	1780.18
617.70	1770.60
618.04	1760.83
618.39	1751.55
618.74	1742.90
619.08	1733.38
619.43	1724.51
619.78	1716.12
620.12	1707.35
620.47	1698.47
620.82	1688.87
621.16	1680.11
621.51	1671.39
621.85	1662.82
622.20	1652.97
622.55	1643.52
622.89	1634.75
623.24	1626.21
623.59	1617.52
623.93	1608.60
624.28	1600.00
624.62	1591.12
624.97	1582.83
625.32	1574.87
625.66	1566.68
626.01	1558.04
626.35	1549.29
626.70	1540.06
627.04	1531.23
627.39	1522.32
627.73	1513.40
628.08	1505.46
628.43	1496.74
628.77	1487.83
629.12	1478.60
629.46	1470.30
629.81	1461.10
630.15	1451.65
630.50	1442.36
630.84	1432.80
631.19	1423.08
631.53	1413.90
631.88	1404.86
632.22	1395.59
632.57	1387.07
632.91	1377.86
633.26	1368.78
633.60	1359.54
633.95	1351.13
634.29	1342.69
634.64	1334.49
634.98	1325.78
635.32	1317.16
635.67	1308.94
636.01	1300.87
636.36	1292.95
636.70	1284.95
637.05	1277.34
637.39	1270.02
637.73	1262.03
638.08	1254.84
638.42	1247.64
638.77	1239.97
639.11	1232.47
639.45	1224.55
639.80	1216.31
640.14	1208.73
640.49	1201.13
640.83	1193.69
641.17	1185.88
641.52	1177.82
641.86	1169.98
642.20	1162.86
642.55	1154.85
642.89	1147.54
643.23	1139.68
643.58	1132.58
643.92	1124.55
644.26	1116.92
644.61	1109.56
644.95	1102.31
645.29	1093.98
645.64	1085.93
645.98	1078.24
646.32	1070.76
646.66	1063.17
647.01	1055.55
647.35	1048.29
647.69	1040.75
648.04	1033.75
648.38	1026.33
648.72	1018.65
649.06	1011.33
649.41	1004.03
649.75	996.90
650.09	989.27
650.43	981.86
650.78	974.02
651.12	966.96
651.46	959.90
651.80	952.68
652.14	945.74
652.49	939.22
652.83	932.43
653.17	925.34
653.51	918.26
653.85	911.87
654.20	905.11
654.54	897.98
654.88	891.04
655.22	883.50
655.56	876.65
655.90	870.43
656.25	863.68
656.59	856.97
656.93	850.55
657.27	844.00
657.61	837.50
657.95	831.26
658.29	824.97
658.64	818.67
658.98	812.24
659.32	805.62
659.66	799.39
660.00	793.53
660.34	787.65
660.68	781.68
661.02	775.31
661.36	769.65
661.70	764.22
662.05	759.08
662.39	754.15
662.73	748.60
663.07	743.21
663.41	738.29
663.75	733.24
664.09	728.07
664.43	722.85
664.77	717.74
665.11	712.85
665.45	707.88
665.79	703.10
666.13	698.00
666.47	693.20
666.81	688.06
667.15	682.81
667.49	677.87
667.83	673.40
668.17	668.80
668.51	663.76
668.85	659.03
669.19	654.38
669.53	649.77
669.87	645.18
670.21	640.58
670.55	636.01
670.89	631.65
671.23	627.42
671.57	623.22
671.91	619.19
672.25	615.02
672.58	610.97
672.92	606.70
673.26	603.04
673.60	599.28
673.94	595.56
674.28	592.01
674.62	588.49
674.96	584.68
675.30	580.99
675.64	577.52
675.97	573.79
676.31	570.11
676.65	566.38
676.99	563.24
677.33	559.73
677.67	556.18
678.01	552.54
678.34	548.92
678.68	545.47
679.02	542.06
679.36	538.93
679.70	535.50
680.04	532.10
680.37	528.45
680.71	525.00
681.05	521.96
681.39	518.83
681.73	515.46
682.06	512.40
682.40	509.54
682.74	506.50
683.08	503.51
683.42	500.50
683.75	497.59
684.09	494.27
684.43	491.21
684.77	488.23
685.10	485.40
685.44	482.49
685.78	479.73
686.12	476.80
686.45	473.58
686.79	470.86
687.13	468.19
687.46	465.62
687.80	462.98
688.14	460.00
688.48	457.18
688.81	454.50
689.15	451.77
689.49	449.02
689.82	446.51
690.16	443.89
690.50	441.43
690.83	438.97
691.17	436.47
691.51	434.23
691.84	431.92
692.18	429.39
692.52	427.03
692.85	424.60
693.19	422.42
693.52	420.16
693.86	417.80
694.20	415.46
694.53	413.13
694.87	410.77
695.21	408.55
695.54	406.38
695.88	404.26
696.21	402.11
696.55	400.01
696.88	397.73
697.22	395.64
697.56	393.56
697.89	391.54
698.23	389.62
698.56	387.44
698.90	385.39
699.23	383.44
699.57	381.51
699.90	379.58
700.24	377.66
700.58	375.73
700.91	373.98
701.25	372.26
701.58	370.60
701.92	368.86
702.25	367.36
702.59	365.68
702.92	364.14
703.26	362.50
703.59	360.82
703.93	359.51
704.26	358.04
704.60	356.48
704.93	354.74
705.26	353.22
705.60	351.84
705.93	350.47
706.27	349.27
706.60	347.90
706.94	346.57
707.27	345.09
707.61	343.75
707.94	342.50
708.27	340.99
708.61	339.52
708.94	338.27
709.28	336.91
709.61	335.71
709.94	334.33
710.28	333.08
710.61	331.84
710.95	330.41
711.28	329.25
711.61	328.06
711.95	326.95
712.28	325.64
712.61	324.40
712.95	323.31
713.28	322.05
713.61	320.89
713.95	319.73
714.28	318.67
714.61	317.59
714.95	316.50
715.28	315.56
715.61	314.62
715.95	313.66
716.28	312.69
716.61	311.68
716.95	310.87
717.28	309.90
717.61	309.02
717.94	308.18
718.28	307.11
718.61	306.24
718.94	305.32
719.27	304.52
719.61	303.70
719.94	302.69
720.27	301.72
720.60	300.80
720.94	300.10
721.27	299.35
721.60	298.69
721.93	297.75
722.27	297.11
722.60	296.30
722.93	295.38
723.26	294.57
723.59	293.79
723.93	292.97
724.26	292.25
724.59	291.53
724.92	290.81
725.25	290.16
725.59	289.33
725.92	288.80
726.25	288.18
726.58	287.46
726.91	286.91
727.24	286.34
727.57	285.68
727.91	284.82
728.24	284.18
728.57	283.43
728.90	282.85
729.23	282.10
729.56	281.55
729.89	281.13
730.22	280.42
730.55	279.85
730.89	279.19
731.22	278.58
731.55	277.98
731.88	277.41
732.21	276.82
732.54	276.25
732.87	275.64
733.20	275.04
733.53	274.52
733.86	274.03
734.19	273.45
734.52	272.87
734.85	272.53
735.18	272.00
735.51	271.59
735.84	271.18
736.17	270.63
736.50	270.09
736.83	269.70
737.16	269.36
737.49	268.91
737.82	268.51
738.15	268.13
738.48	267.57
738.81	267.03
739.14	266.55
739.47	266.16
739.80	265.79
740.13	265.46
740.46	265.08
740.79	264.51
741.12	264.03
741.45	263.77
741.78	263.40
742.11	263.08
742.44	262.60
742.77	262.12
743.10	261.77
743.43	261.38
743.75	260.74
744.08	260.61
744.41	260.22
744.74	259.84
745.07	259.37
745.40	259.16
745.73	258.90
746.06	258.51
746.39	258.25
746.71	258.00
747.04	257.64
747.37	257.21
747.70	256.94
748.03	256.71
748.36	256.34
748.68	255.93
749.01	255.60
749.34	255.27
749.67	255.00
750.00	254.67
750.33	254.46
750.65	254.31
750.98	253.78
751.31	253.48
751.64	253.11
751.97	253.07
752.29	252.77
752.62	252.41
752.95	252.17
753.28	251.80
753.60	251.46
753.93	251.20
754.26	251.03
754.59	250.73
754.91	250.39
755.24	250.23
755.57	249.92
755.90	249.67
756.22	249.43
756.55	249.22
756.88	248.98
757.20	248.66
757.53	248.38
757.86	248.07
758.19	247.80
758.51	247.66
758.84	247.30
759.17	247.14
759.49	246.98
759.82	246.88
760.15	246.74
760.47	246.46
760.80	246.19
761.13	245.97
761.45	245.85
761.78	245.77
762.11	245.51
762.43	245.32
762.76	245.08
763.08	244.94
763.41	244.75
763.74	244.60
764.06	244.38
764.39	244.13
764.71	243.97
765.04	243.66
765.37	243.39
765.69	243.20
766.02	242.95
766.34	242.70
766.67	242.46
767.00	242.25
767.32	242.16
767.65	242.11
767.97	241.95
768.30	241.71
768.62	241.49
768.95	241.29
769.27	241.08
769.60	240.90
769.92	240.70
770.25	240.50
770.57	240.38
770.90	240.28
771.22	240.15
771.55	240.02
771.87	240.00
772.20	239.90
772.52	239.90
772.85	240.07
773.17	240.00
773.50	239.88
773.82	239.65
774.15	239.48
774.47	239.23
774.80	238.97
775.12	238.75
775.45	238.57
775.77	238.44
776.09	238.36
776.42	238.26
776.74	238.11
777.07	237.93
777.39	237.75
777.72	237.57
778.04	237.44
778.36	237.33
778.69	237.27
779.01	237.21
779.33	237.00
779.66	236.57
779.98	236.41
780.31	236.38
780.63	236.46
780.95	236.39
781.28	236.26
781.60	236.31
781.92	236.35
782.25	236.17
782.57	236.08
782.89	236.04
783.22	235.93
783.54	235.87
783.86	235.89
784.19	235.83
784.51	235.72
784.83	235.63
785.16	235.51
785.48	235.40
785.80	235.36
786.12	235.25
786.45	235.23
