SpectraSuite Data File
++++++++++++++++++++++++++++++++++++
Date: Fri Feb 01 14:37:06 EST 2013
User: group
Dark Spectrum Present: No
Reference Spectrum Present: No
Number of Sampled Component Spectra: 1
Spectrometers: USB2E7196
Integration Time (usec): 70000 (USB2E7196)
Spectra Averaged: 10 (USB2E7196)
Boxcar Smoothing: 10 (USB2E7196)
Correct for Electrical Dark: No (USB2E7196)
Strobe/Lamp Enabled: No (USB2E7196)
Correct for Detector Non-linearity: No (USB2E7196)
Correct for Stray Light: No (USB2E7196)
Number of Pixels in Processed Spectrum: 2048
>>>>>Begin Processed Spectral Data<<<<<
339.09	0.00
339.48	215.70
339.86	216.40
340.24	219.70
340.63	222.00
341.01	223.90
341.39	224.60
341.78	223.60
342.16	225.20
342.54	227.30
342.93	214.86
343.31	225.73
343.69	226.29
344.07	226.84
344.46	227.26
344.84	227.54
345.22	227.73
345.60	227.90
345.99	228.13
346.37	228.30
346.75	228.35
347.13	228.35
347.52	228.42
347.90	228.41
348.28	228.38
348.66	228.46
349.05	228.43
349.43	228.53
349.81	228.61
350.19	228.76
350.57	228.75
350.96	228.72
351.34	228.89
351.72	228.96
352.10	229.03
352.48	229.04
352.87	229.09
353.25	229.20
353.63	229.26
354.01	229.31
354.39	229.41
354.77	229.48
355.15	229.68
355.54	229.72
355.92	229.85
356.30	230.01
356.68	230.22
357.06	230.30
357.44	230.30
357.82	230.23
358.20	230.26
358.58	230.28
358.97	230.37
359.35	230.31
359.73	230.43
360.11	230.49
360.49	230.57
360.87	230.63
361.25	230.70
361.63	230.72
362.01	230.84
362.39	230.82
362.77	230.88
363.15	230.93
363.53	230.86
363.91	230.89
364.29	230.80
364.67	230.63
365.05	230.62
365.43	230.67
365.81	230.83
366.19	230.95
366.57	231.02
366.95	230.99
367.33	230.91
367.71	230.77
368.09	230.75
368.47	230.74
368.85	230.73
369.23	230.66
369.61	230.68
369.99	230.62
370.37	230.60
370.75	230.64
371.13	230.50
371.51	230.38
371.89	230.26
372.27	230.16
372.65	230.16
373.03	230.17
373.41	230.07
373.78	229.91
374.16	229.67
374.54	229.60
374.92	229.49
375.30	229.41
375.68	229.31
376.06	229.24
376.44	229.10
376.82	228.92
377.19	228.86
377.57	228.77
377.95	228.50
378.33	228.35
378.71	228.13
379.09	228.01
379.47	227.90
379.84	227.80
380.22	227.63
380.60	227.43
380.98	227.28
381.36	227.11
381.73	227.00
382.11	226.97
382.49	226.82
382.87	226.71
383.25	226.70
383.62	226.90
384.00	226.78
384.38	226.66
384.76	226.72
385.13	226.67
385.51	226.54
385.89	226.55
386.27	226.56
386.64	226.47
387.02	226.30
387.40	226.24
387.78	226.20
388.15	226.35
388.53	226.35
388.91	226.19
389.29	226.24
389.66	226.29
390.04	226.24
390.42	226.32
390.79	226.40
391.17	226.40
391.55	226.22
391.92	226.28
392.30	226.36
392.68	226.29
393.05	226.33
393.43	226.37
393.81	226.38
394.18	226.35
394.56	226.48
394.94	226.71
395.31	226.89
395.69	227.13
396.06	227.13
396.44	227.23
396.82	227.46
397.19	227.67
397.57	227.69
397.95	227.80
398.32	227.77
398.70	227.81
399.07	228.00
399.45	228.11
399.82	228.13
400.20	228.18
400.58	228.37
400.95	228.44
401.33	228.66
401.70	229.00
402.08	229.17
402.45	229.26
402.83	229.44
403.20	229.60
403.58	229.65
403.95	229.86
404.33	229.94
404.71	230.03
405.08	230.31
405.46	230.50
405.83	230.73
406.21	230.97
406.58	231.32
406.96	231.44
407.33	231.69
407.70	232.08
408.08	232.64
408.45	232.93
408.83	233.27
409.20	233.49
409.58	233.69
409.95	234.07
410.33	234.44
410.70	234.83
411.08	235.26
411.45	235.69
411.82	236.15
412.20	236.79
412.57	237.56
412.95	237.98
413.32	238.77
413.69	239.50
414.07	240.20
414.44	240.99
414.82	241.83
415.19	242.77
415.56	243.67
415.94	244.61
416.31	245.67
416.68	246.71
417.06	247.97
417.43	249.13
417.81	250.50
418.18	251.89
418.55	253.34
418.93	254.90
419.30	256.50
419.67	258.22
420.04	259.96
420.42	261.75
420.79	263.83
421.16	265.79
421.54	267.97
421.91	270.21
422.28	272.50
422.66	274.96
423.03	277.43
423.40	279.95
423.77	282.48
424.15	285.14
424.52	287.99
424.89	291.01
425.26	293.99
425.64	296.69
426.01	299.88
426.38	303.08
426.75	306.39
427.13	309.84
427.50	313.48
427.87	317.16
428.24	320.88
428.61	324.37
428.99	328.41
429.36	332.61
429.73	336.83
430.10	340.80
430.47	345.05
430.85	349.30
431.22	354.00
431.59	358.92
431.96	363.65
432.33	368.69
432.70	373.67
433.08	379.55
433.45	385.12
433.82	390.65
434.19	396.68
434.56	402.50
434.93	407.96
435.30	413.37
435.68	419.45
436.05	425.64
436.42	431.70
436.79	436.95
437.16	442.85
437.53	449.07
437.90	455.36
438.27	461.43
438.64	467.77
439.01	473.49
439.38	478.72
439.75	483.68
440.13	489.60
440.50	495.06
440.87	499.53
441.24	504.36
441.61	509.52
441.98	513.40
442.35	518.04
442.72	522.80
443.09	527.47
443.46	530.39
443.83	532.07
444.20	533.94
444.57	536.70
444.94	538.15
445.31	539.76
445.68	541.31
446.05	542.26
446.42	542.42
446.79	542.24
447.16	541.94
447.53	542.15
447.90	540.38
448.27	538.80
448.64	536.33
449.01	534.65
449.37	530.96
449.74	527.67
450.11	523.38
450.48	518.75
450.85	514.00
451.22	510.06
451.59	506.47
451.96	502.85
452.33	497.85
452.70	493.35
453.07	487.81
453.43	482.04
453.80	476.46
454.17	470.93
454.54	465.92
454.91	460.57
455.28	455.10
455.65	450.24
456.02	445.19
456.38	440.72
456.75	435.24
457.12	430.87
457.49	426.20
457.86	421.80
458.23	418.20
458.59	414.00
458.96	409.76
459.33	406.06
459.70	402.26
460.07	399.06
460.43	395.36
460.80	391.88
461.17	388.91
461.54	385.96
461.91	382.94
462.27	379.88
462.64	377.21
463.01	374.40
463.38	371.51
463.74	368.56
464.11	366.14
464.48	363.83
464.85	361.32
465.21	359.51
465.58	357.62
465.95	355.08
466.32	353.04
466.68	351.02
467.05	349.00
467.42	347.06
467.78	344.97
468.15	343.00
468.52	341.50
468.88	339.57
469.25	337.66
469.62	336.31
469.98	334.83
470.35	333.36
470.72	331.80
471.08	330.33
471.45	329.09
471.82	327.76
472.18	326.30
472.55	325.24
472.92	323.95
473.28	322.75
473.65	321.56
474.02	320.44
474.38	319.43
474.75	318.58
475.11	317.67
475.48	317.04
475.85	316.37
476.21	315.62
476.58	315.05
476.94	314.50
477.31	313.89
477.67	313.31
478.04	312.79
478.41	312.53
478.77	312.24
479.14	311.82
479.50	311.37
479.87	311.25
480.23	310.99
480.60	310.76
480.96	310.48
481.33	310.49
481.69	310.32
482.06	310.14
482.42	309.85
482.79	309.62
483.15	309.48
483.52	309.62
483.88	309.58
484.25	309.57
484.61	309.70
484.98	309.72
485.34	309.88
485.71	310.19
486.07	310.50
486.44	310.64
486.80	310.99
487.17	311.46
487.53	311.89
487.90	312.35
488.26	312.93
488.62	313.62
488.99	314.11
489.35	314.72
489.72	315.34
490.08	316.08
490.44	316.59
490.81	317.33
491.17	317.90
491.54	318.68
491.90	319.48
492.26	320.26
492.63	321.20
492.99	321.98
493.36	322.76
493.72	323.54
494.08	324.40
494.45	325.48
494.81	326.44
495.17	327.33
495.54	328.30
495.90	329.24
496.26	330.15
496.63	331.11
496.99	332.12
497.35	333.15
497.72	334.17
498.08	335.35
498.44	336.38
498.80	337.58
499.17	338.56
499.53	339.50
499.89	340.59
500.26	341.42
500.62	342.44
500.98	343.50
501.34	344.56
501.71	345.55
502.07	346.25
502.43	346.99
502.79	347.79
503.16	348.66
503.52	349.40
503.88	350.04
504.24	350.82
504.60	351.46
504.97	352.14
505.33	352.73
505.69	353.55
506.05	354.12
506.41	354.46
506.78	354.99
507.14	355.52
507.50	355.94
507.86	356.48
508.22	356.92
508.59	357.21
508.95	357.45
509.31	357.78
509.67	358.25
510.03	358.49
510.39	358.83
510.75	359.08
511.12	359.28
511.48	359.58
511.84	359.62
512.20	359.80
512.56	359.92
512.92	360.10
513.28	360.10
513.64	360.10
514.00	360.23
514.37	360.28
514.73	360.33
515.09	360.23
515.45	360.12
515.81	360.15
516.17	360.20
516.53	360.34
516.89	360.29
517.25	360.28
517.61	360.35
517.97	360.32
518.33	360.27
518.69	360.33
519.05	360.42
519.41	360.69
519.77	361.03
520.13	361.30
520.49	361.45
520.85	361.60
521.21	362.02
521.57	362.43
521.93	362.69
522.29	363.24
522.65	363.72
523.01	364.42
523.37	364.98
523.73	365.58
524.09	366.14
524.45	366.88
524.81	367.47
525.17	368.33
525.53	369.29
525.89	370.32
526.25	371.32
526.61	372.39
526.97	373.55
527.33	374.59
527.68	376.00
528.04	377.49
528.40	378.90
528.76	380.51
529.12	382.14
529.48	384.11
529.84	385.60
530.20	387.50
530.56	389.35
530.91	391.39
531.27	393.44
531.63	395.59
531.99	397.76
532.35	400.17
532.71	402.50
533.07	404.88
533.42	407.58
533.78	410.13
534.14	412.69
534.50	415.20
534.86	418.06
535.21	420.79
535.57	423.73
535.93	426.82
536.29	429.80
536.65	432.85
537.00	435.85
537.36	439.23
537.72	442.45
538.08	445.82
538.44	449.26
538.79	452.74
539.15	456.21
539.51	459.96
539.87	463.76
540.22	467.54
540.58	471.48
540.94	475.13
541.29	479.09
541.65	483.00
542.01	487.20
542.37	491.32
542.72	495.30
543.08	499.26
543.44	503.50
543.79	507.58
544.15	511.96
544.51	516.46
544.87	520.82
545.22	525.21
545.58	529.50
545.94	533.81
546.29	538.15
546.65	542.43
547.01	546.66
547.36	550.98
547.72	555.26
548.07	559.60
548.43	563.77
548.79	568.31
549.14	572.81
549.50	577.22
549.86	581.50
550.21	585.81
550.57	590.34
550.92	594.69
551.28	599.07
551.64	603.55
551.99	608.00
552.35	612.38
552.70	616.89
553.06	621.23
553.41	625.69
553.77	630.33
554.13	634.94
554.48	639.66
554.84	644.11
555.19	648.64
555.55	653.32
555.90	657.94
556.26	662.30
556.61	666.71
556.97	671.05
557.32	675.60
557.68	680.24
558.03	684.63
558.39	689.11
558.74	693.73
559.10	698.00
559.45	701.99
559.81	706.47
560.16	710.70
560.52	714.85
560.87	719.19
561.23	723.10
561.58	727.38
561.94	731.45
562.29	735.43
562.64	739.38
563.00	743.15
563.35	747.51
563.71	751.42
564.06	755.28
564.42	759.31
564.77	762.88
565.12	766.79
565.48	770.75
565.83	774.37
566.19	778.04
566.54	781.53
566.89	785.44
567.25	789.01
567.60	792.84
567.96	796.96
568.31	800.51
568.66	804.18
569.02	807.66
569.37	810.87
569.72	814.10
570.08	817.40
570.43	820.50
570.78	823.26
571.14	826.17
571.49	829.20
571.84	832.33
572.20	835.49
572.55	837.80
572.90	840.21
573.26	842.79
573.61	845.10
573.96	847.49
574.31	849.52
574.67	851.37
575.02	852.91
575.37	854.43
575.72	856.05
576.08	857.98
576.43	859.61
576.78	861.36
577.13	863.04
577.49	864.92
577.84	866.29
578.19	867.69
578.54	869.45
578.90	870.67
579.25	871.49
579.60	872.50
579.95	873.64
580.30	874.83
580.66	875.70
581.01	876.57
581.36	877.49
581.71	878.46
582.06	879.46
582.42	880.25
582.77	881.01
583.12	881.52
583.47	882.01
583.82	882.46
584.17	882.77
584.53	883.27
584.88	883.44
585.23	884.00
585.58	884.32
585.93	884.44
586.28	885.22
586.63	885.76
586.98	886.07
587.34	886.49
587.69	886.53
588.04	886.82
588.39	886.69
588.74	886.33
589.09	886.04
589.44	885.55
589.79	885.71
590.14	885.61
590.49	885.46
590.84	885.11
591.19	884.73
591.54	884.15
591.89	883.23
592.25	883.02
592.60	882.24
592.95	881.56
593.30	880.45
593.65	879.17
594.00	877.85
594.35	877.17
594.70	875.98
595.05	875.10
595.40	873.64
595.75	872.75
596.10	871.84
596.45	870.79
596.80	869.97
597.15	869.00
597.50	867.72
597.85	866.87
598.19	865.86
598.54	865.03
598.89	864.26
599.24	863.63
599.59	862.06
599.94	860.94
600.29	859.75
600.64	858.74
600.99	857.34
601.34	856.18
601.69	854.20
602.04	852.93
602.39	851.46
602.74	850.59
603.08	849.50
603.43	848.37
603.78	847.11
604.13	845.56
604.48	843.74
604.83	842.28
605.18	840.48
605.53	838.17
605.87	835.97
606.22	834.31
606.57	832.51
606.92	830.85
607.27	829.31
607.62	827.51
607.96	825.77
608.31	824.13
608.66	822.30
609.01	820.15
609.36	818.10
609.70	815.36
610.05	812.64
610.40	810.35
610.75	807.82
611.10	805.67
611.44	803.13
611.79	801.05
612.14	798.70
612.49	796.06
612.83	793.93
613.18	791.48
613.53	788.67
613.88	785.86
614.22	783.07
614.57	780.20
614.92	777.65
615.27	775.03
615.61	772.16
615.96	769.44
616.31	767.43
616.65	765.22
617.00	763.00
617.35	760.95
617.70	758.30
618.04	755.61
618.39	752.93
618.74	750.69
619.08	747.79
619.43	745.27
619.78	743.13
620.12	740.80
620.47	738.31
620.82	735.73
621.16	733.41
621.51	731.33
621.85	728.73
622.20	726.23
622.55	723.60
622.89	721.24
623.24	719.15
623.59	716.79
623.93	713.96
624.28	711.83
624.62	709.41
624.97	707.19
625.32	704.96
625.66	702.44
626.01	699.91
626.35	697.64
626.70	695.20
627.04	692.77
627.39	690.18
627.73	687.62
628.08	685.25
628.43	682.43
628.77	679.68
629.12	677.28
629.46	674.63
629.81	672.00
630.15	669.26
630.50	666.30
630.84	663.15
631.19	660.40
631.53	657.60
631.88	654.46
632.22	651.21
632.57	648.92
632.91	646.25
633.26	643.64
633.60	641.04
633.95	638.14
634.29	635.34
634.64	632.67
634.98	630.15
635.32	627.66
635.67	625.39
636.01	622.94
636.36	620.25
636.70	617.79
637.05	615.45
637.39	613.25
637.73	610.87
638.08	608.89
638.42	606.82
638.77	604.48
639.11	602.08
639.45	599.98
639.80	597.25
640.14	594.70
640.49	592.25
640.83	589.63
641.17	587.35
641.52	584.71
641.86	582.40
642.20	580.11
642.55	577.53
642.89	575.02
643.23	572.45
643.58	570.29
643.92	567.80
644.26	565.33
644.61	562.97
644.95	560.43
645.29	557.57
645.64	554.86
645.98	552.42
646.32	550.23
646.66	547.65
647.01	545.25
647.35	542.94
647.69	540.46
648.04	538.26
648.38	535.83
648.72	533.33
649.06	530.64
649.41	528.26
649.75	525.75
650.09	523.32
650.43	520.88
650.78	518.18
651.12	515.76
651.46	513.43
651.80	510.87
652.14	508.70
652.49	506.51
652.83	504.25
653.17	501.81
653.51	499.38
653.85	497.11
654.20	494.65
654.54	492.33
654.88	489.91
655.22	487.43
655.56	485.03
655.90	482.98
656.25	480.94
656.59	478.62
656.93	476.72
657.27	474.60
657.61	472.32
657.95	470.24
658.29	467.98
658.64	465.53
658.98	463.39
659.32	460.96
659.66	458.80
660.00	456.59
660.34	454.42
660.68	452.39
661.02	450.15
661.36	448.12
661.70	446.00
662.05	444.11
662.39	442.10
662.73	440.11
663.07	438.33
663.41	436.51
663.75	434.51
664.09	432.51
664.43	430.52
664.77	428.77
665.11	427.03
665.45	425.23
665.79	423.52
666.13	421.69
666.47	420.04
666.81	418.20
667.15	416.68
667.49	415.06
667.83	413.38
668.17	411.78
668.51	410.09
668.85	408.68
669.19	407.22
669.53	405.66
669.87	404.10
670.21	402.36
670.55	400.79
670.89	399.50
671.23	398.00
671.57	396.63
671.91	395.12
672.25	393.43
672.58	392.07
672.92	390.66
673.26	389.27
673.60	387.97
673.94	386.82
674.28	385.36
674.62	384.21
674.96	382.84
675.30	381.66
675.64	380.50
675.97	379.03
676.31	377.65
676.65	376.25
676.99	375.12
677.33	373.80
677.67	372.39
678.01	370.99
678.34	369.66
678.68	368.38
679.02	367.26
679.36	366.04
679.70	364.79
680.04	363.50
680.37	362.23
680.71	360.97
681.05	359.73
681.39	358.49
681.73	357.16
682.06	356.00
682.40	354.76
682.74	353.44
683.08	352.22
683.42	351.10
683.75	350.13
684.09	348.87
684.43	347.68
684.77	346.35
685.10	345.09
685.44	343.89
685.78	342.74
686.12	341.41
686.45	340.34
686.79	339.19
687.13	338.20
687.46	337.14
687.80	335.88
688.14	334.65
688.48	333.61
688.81	332.48
689.15	331.52
689.49	330.40
689.82	329.39
690.16	328.29
690.50	327.16
690.83	326.03
691.17	324.99
691.51	323.95
691.84	323.13
692.18	322.23
692.52	321.21
692.85	320.24
693.19	319.25
693.52	318.31
693.86	317.33
694.20	316.35
694.53	315.36
694.87	314.50
695.21	313.61
695.54	312.62
695.88	311.52
696.21	310.44
696.55	309.47
696.88	308.57
697.22	307.75
697.56	306.82
697.89	305.89
698.23	305.04
698.56	304.20
698.90	303.30
699.23	302.30
699.57	301.40
699.90	300.51
700.24	299.72
700.58	298.89
700.91	298.04
701.25	297.40
701.58	296.77
701.92	296.00
702.25	295.22
702.59	294.53
702.92	293.97
703.26	293.20
703.59	292.71
703.93	292.30
704.26	291.60
704.60	290.97
704.93	290.44
705.26	289.80
705.60	289.38
705.93	288.71
706.27	288.25
706.60	287.81
706.94	287.29
707.27	286.66
707.61	286.06
707.94	285.57
708.27	284.79
708.61	284.08
708.94	283.55
709.28	283.10
709.61	282.51
709.94	281.98
710.28	281.61
710.61	280.96
710.95	280.17
711.28	279.75
711.61	279.27
711.95	278.76
712.28	278.20
712.61	277.51
712.95	277.17
713.28	276.70
713.61	276.21
713.95	275.71
714.28	275.33
714.61	274.89
714.95	274.40
715.28	273.93
715.61	273.52
715.95	273.03
716.28	272.50
716.61	272.08
716.95	271.52
717.28	270.98
717.61	270.55
717.94	270.14
718.28	269.80
718.61	269.31
718.94	268.76
719.27	268.39
719.61	267.97
719.94	267.49
720.27	266.90
720.60	266.40
720.94	266.05
721.27	265.58
721.60	265.20
721.93	264.80
722.27	264.54
722.60	264.17
722.93	263.66
723.26	263.36
723.59	262.95
723.93	262.74
724.26	262.48
724.59	262.11
724.92	261.70
725.25	261.20
725.59	260.86
725.92	260.49
726.25	260.13
726.58	259.89
726.91	259.58
727.24	259.35
727.57	259.12
727.91	258.72
728.24	258.42
728.57	258.08
728.90	257.73
729.23	257.29
729.56	256.96
729.89	256.75
730.22	256.43
730.55	256.16
730.89	255.83
731.22	255.38
731.55	255.09
731.88	254.83
732.21	254.37
732.54	254.04
732.87	253.73
733.20	253.48
733.53	253.16
733.86	252.85
734.19	252.56
734.52	252.15
734.85	252.00
735.18	251.70
735.51	251.50
735.84	251.20
736.17	251.08
736.50	250.77
736.83	250.84
737.16	250.60
737.49	250.29
737.82	249.95
738.15	249.76
738.48	249.48
738.81	249.16
739.14	249.02
739.47	248.83
739.80	248.67
740.13	248.39
740.46	248.08
740.79	247.80
741.12	247.53
741.45	247.38
741.78	247.10
742.11	246.97
742.44	246.66
742.77	246.64
743.10	246.30
743.43	246.12
743.75	245.70
744.08	245.70
744.41	245.48
744.74	245.38
745.07	245.23
745.40	245.14
745.73	245.12
746.06	244.92
746.39	244.71
746.71	244.55
747.04	244.43
747.37	244.34
747.70	244.28
748.03	244.15
748.36	244.00
748.68	243.82
749.01	243.65
749.34	243.54
749.67	243.32
750.00	243.27
750.33	243.26
750.65	243.17
750.98	242.81
751.31	242.72
751.64	242.48
751.97	242.31
752.29	242.15
752.62	242.00
752.95	241.88
753.28	241.81
753.60	241.75
753.93	241.62
754.26	241.56
754.59	241.40
754.91	241.22
755.24	241.16
755.57	241.07
755.90	240.93
756.22	240.88
756.55	240.70
756.88	240.60
757.20	240.35
757.53	240.15
757.86	239.99
758.19	239.87
758.51	239.85
758.84	239.71
759.17	239.63
759.49	239.52
759.82	239.48
760.15	239.38
760.47	239.20
760.80	239.01
761.13	238.88
761.45	238.69
761.78	238.56
762.11	238.40
762.43	238.19
762.76	238.09
763.08	237.98
763.41	237.86
763.74	237.71
764.06	237.57
764.39	237.39
764.71	237.35
765.04	237.27
765.37	237.14
765.69	237.00
766.02	236.87
766.34	236.73
766.67	236.68
767.00	236.60
767.32	236.56
767.65	236.58
767.97	236.35
768.30	236.22
768.62	236.13
768.95	235.96
769.27	235.77
769.60	235.67
769.92	235.44
770.25	235.38
770.57	235.20
770.90	235.10
771.22	235.01
771.55	234.84
771.87	234.67
772.20	234.59
772.52	234.77
772.85	234.80
773.17	234.66
773.50	234.47
773.82	234.34
774.15	234.11
774.47	233.89
774.80	233.85
775.12	233.90
775.45	233.85
775.77	233.76
776.09	233.73
776.42	233.66
776.74	233.69
777.07	233.52
777.39	233.48
777.72	233.37
778.04	233.35
778.36	233.27
778.69	233.31
779.01	233.29
779.33	232.99
779.66	232.74
779.98	232.61
780.31	232.64
780.63	232.60
780.95	232.76
781.28	232.73
781.60	232.63
781.92	232.60
782.25	232.52
782.57	232.47
782.89	232.42
783.22	232.39
783.54	232.28
783.86	232.31
784.19	232.13
784.51	232.24
784.83	232.22
785.16	232.17
785.48	232.13
785.80	232.08
786.12	232.07
786.45	232.04
786.77	232.11
787.09	232.06
787.42	232.02
787.74	231.85
788.06	231.84
788.38	231.86
788.71	231.72
789.03	231.80
789.35	231.94
789.67	231.95
789.99	231.93
790.32	231.91
790.64	231.88
790.96	232.17
791.28	232.07
791.61	232.06
791.93	232.08
792.25	232.02
792.57	232.18
792.89	232.19
793.21	232.28
793.54	232.14
793.86	232.06
794.18	232.14
