SpectraSuite Data File
++++++++++++++++++++++++++++++++++++
Date: Fri Feb 01 14:34:57 EST 2013
User: group
Dark Spectrum Present: No
Reference Spectrum Present: No
Number of Sampled Component Spectra: 1
Spectrometers: USB2E7196
Integration Time (usec): 70000 (USB2E7196)
Spectra Averaged: 10 (USB2E7196)
Boxcar Smoothing: 10 (USB2E7196)
Correct for Electrical Dark: No (USB2E7196)
Strobe/Lamp Enabled: No (USB2E7196)
Correct for Detector Non-linearity: No (USB2E7196)
Correct for Stray Light: No (USB2E7196)
Number of Pixels in Processed Spectrum: 2048
>>>>>Begin Processed Spectral Data<<<<<
339.09	0.00
339.48	215.00
339.86	216.60
340.24	219.80
340.63	218.20
341.01	222.00
341.39	223.90
341.78	223.80
342.16	225.60
342.54	225.60
342.93	214.28
343.31	225.10
343.69	225.69
344.07	226.17
344.46	226.56
344.84	227.00
345.22	227.26
345.60	227.51
345.99	227.66
346.37	227.78
346.75	227.91
347.13	228.05
347.52	228.09
347.90	228.10
348.28	228.11
348.66	228.19
349.05	228.22
349.43	228.13
349.81	228.27
350.19	228.20
350.57	228.24
350.96	228.22
351.34	228.38
351.72	228.50
352.10	228.65
352.48	228.72
352.87	228.84
353.25	228.85
353.63	228.98
354.01	229.14
354.39	229.25
354.77	229.28
355.15	229.33
355.54	229.38
355.92	229.52
356.30	229.57
356.68	229.80
357.06	229.84
357.44	229.98
357.82	230.03
358.20	230.18
358.58	230.24
358.97	230.46
359.35	230.47
359.73	230.57
360.11	230.66
360.49	230.79
360.87	230.77
361.25	231.04
361.63	231.02
362.01	231.05
362.39	231.18
362.77	231.29
363.15	231.39
363.53	231.48
363.91	231.47
364.29	231.59
364.67	231.41
365.05	231.39
365.43	231.35
365.81	231.30
366.19	231.31
366.57	231.51
366.95	231.45
367.33	231.49
367.71	231.40
368.09	231.36
368.47	231.26
368.85	231.19
369.23	231.15
369.61	231.05
369.99	231.05
370.37	230.93
370.75	230.94
371.13	230.85
371.51	230.70
371.89	230.60
372.27	230.53
372.65	230.42
373.03	230.46
373.41	230.34
373.78	230.32
374.16	230.26
374.54	230.02
374.92	229.85
375.30	229.73
375.68	229.60
376.06	229.52
376.44	229.48
376.82	229.49
377.19	229.32
377.57	229.20
377.95	229.13
378.33	229.06
378.71	228.82
379.09	228.75
379.47	228.74
379.84	228.75
380.22	228.64
380.60	228.54
380.98	228.30
381.36	228.35
381.73	228.20
382.11	228.15
382.49	228.06
382.87	227.99
383.25	227.98
383.62	228.16
384.00	228.06
384.38	227.98
384.76	228.00
385.13	228.00
385.51	228.00
385.89	227.79
386.27	227.73
386.64	227.80
387.02	227.72
387.40	227.64
387.78	227.53
388.15	227.48
388.53	227.43
388.91	227.51
389.29	227.42
389.66	227.55
390.04	227.49
390.42	227.48
390.79	227.48
391.17	227.44
391.55	227.28
391.92	227.35
392.30	227.39
392.68	227.31
393.05	227.42
393.43	227.47
393.81	227.53
394.18	227.47
394.56	227.47
394.94	227.62
395.31	227.65
395.69	227.71
396.06	227.78
396.44	227.92
396.82	228.02
397.19	228.29
397.57	228.25
397.95	228.39
398.32	228.48
398.70	228.65
399.07	228.76
399.45	228.87
399.82	228.90
400.20	228.96
400.58	229.18
400.95	229.10
401.33	229.29
401.70	229.68
402.08	229.90
402.45	230.08
402.83	230.24
403.20	230.48
403.58	230.77
403.95	231.11
404.33	231.36
404.71	231.55
405.08	231.84
405.46	232.17
405.83	232.48
406.21	232.87
406.58	233.25
406.96	233.61
407.33	234.00
407.70	234.47
408.08	235.11
408.45	235.66
408.83	236.24
409.20	236.74
409.58	237.14
409.95	237.85
410.33	238.54
410.70	239.21
411.08	240.05
411.45	240.87
411.82	241.63
412.20	242.55
412.57	243.55
412.95	244.26
413.32	245.37
413.69	246.45
414.07	247.63
414.44	248.90
414.82	250.20
415.19	251.65
415.56	253.33
415.94	254.82
416.31	256.52
416.68	258.36
417.06	260.37
417.43	262.29
417.81	264.33
418.18	266.65
418.55	269.13
418.93	271.55
419.30	274.13
419.67	276.89
420.04	279.71
420.42	282.78
420.79	286.45
421.16	289.95
421.54	293.48
421.91	297.06
422.28	300.81
422.66	304.80
423.03	308.90
423.40	312.92
423.77	317.54
424.15	321.99
424.52	326.73
424.89	331.84
425.26	336.70
425.64	341.32
426.01	346.45
426.38	351.66
426.75	357.23
427.13	363.02
427.50	368.83
427.87	374.97
428.24	381.17
428.61	387.03
428.99	393.20
429.36	400.37
429.73	407.29
430.10	414.19
430.47	421.22
430.85	428.25
431.22	435.77
431.59	443.59
431.96	451.25
432.33	459.50
432.70	467.50
433.08	477.25
433.45	486.37
433.82	495.21
434.19	505.23
434.56	514.89
434.93	523.75
435.30	533.08
435.68	543.57
436.05	553.64
436.42	563.57
436.79	572.76
437.16	582.42
437.53	592.57
437.90	602.87
438.27	612.73
438.64	623.52
439.01	633.27
439.38	641.96
439.75	650.26
440.13	659.98
440.50	669.38
440.87	676.94
441.24	684.98
441.61	693.67
441.98	700.21
442.35	707.70
442.72	715.71
443.09	723.31
443.46	728.25
443.83	731.74
444.20	734.95
444.57	739.45
444.94	741.97
445.31	744.74
445.68	747.26
446.05	749.13
446.42	749.15
446.79	749.19
447.16	748.98
447.53	749.51
447.90	747.12
448.27	744.41
448.64	740.06
449.01	737.52
449.37	731.94
449.74	726.42
450.11	719.68
450.48	712.09
450.85	704.35
451.22	697.55
451.59	691.35
451.96	685.43
452.33	677.15
452.70	669.77
453.07	660.69
453.43	651.34
453.80	642.52
454.17	633.65
454.54	625.37
454.91	616.44
455.28	607.52
455.65	599.16
456.02	590.56
456.38	583.58
456.75	574.37
457.12	566.85
457.49	559.32
457.86	552.15
458.23	545.95
458.59	539.11
458.96	532.06
459.33	525.78
459.70	519.55
460.07	514.45
460.43	508.49
460.80	502.97
461.17	498.09
461.54	493.01
461.91	488.19
462.27	483.16
462.64	478.97
463.01	474.26
463.38	469.57
463.74	465.17
464.11	461.14
464.48	457.73
464.85	453.75
465.21	450.70
465.58	447.55
465.95	443.78
466.32	440.61
466.68	437.36
467.05	434.30
467.42	431.04
467.78	427.78
468.15	424.71
468.52	422.35
468.88	419.34
469.25	416.52
469.62	414.23
469.98	411.94
470.35	409.60
470.72	407.45
471.08	405.30
471.45	403.33
471.82	401.20
472.18	398.87
472.55	397.58
472.92	395.70
473.28	393.93
473.65	392.22
474.02	390.36
474.38	388.99
474.75	387.58
475.11	386.19
475.48	385.14
475.85	384.19
476.21	383.26
476.58	382.50
476.94	381.75
477.31	380.99
477.67	380.10
478.04	379.46
478.41	378.81
478.77	378.47
479.14	377.95
479.50	377.72
479.87	377.65
480.23	377.30
480.60	377.01
480.96	376.77
481.33	376.95
481.69	377.16
482.06	377.28
482.42	377.31
482.79	377.57
483.15	377.95
483.52	378.59
483.88	379.06
484.25	379.50
484.61	380.02
484.98	380.54
485.34	381.48
485.71	382.40
486.07	383.56
486.44	384.32
486.80	385.37
487.17	386.55
487.53	387.79
487.90	389.18
488.26	390.80
488.62	392.38
488.99	393.89
489.35	395.48
489.72	397.24
490.08	399.00
490.44	400.89
490.81	402.82
491.17	404.46
491.54	406.58
491.90	408.62
492.26	410.96
492.63	413.44
492.99	415.70
493.36	418.26
493.72	420.73
494.08	423.34
494.45	426.14
494.81	428.96
495.17	431.62
495.54	434.50
495.90	437.46
496.26	440.46
496.63	443.59
496.99	446.94
497.35	450.20
497.72	453.66
498.08	456.97
498.44	460.29
498.80	464.08
499.17	467.44
499.53	471.04
499.89	474.57
500.26	478.16
500.62	481.60
500.98	485.21
501.34	488.92
501.71	492.72
502.07	496.38
502.43	499.94
502.79	503.66
503.16	507.45
503.52	511.00
503.88	514.54
504.24	518.19
504.60	521.82
504.97	525.38
505.33	528.96
505.69	532.99
506.05	536.68
506.41	540.01
506.78	543.61
507.14	546.97
507.50	550.39
507.86	553.86
508.22	557.39
508.59	560.72
508.95	563.87
509.31	567.29
509.67	570.70
510.03	573.93
510.39	577.25
510.75	580.20
511.12	583.45
511.48	586.77
511.84	589.82
512.20	592.63
512.56	595.70
512.92	598.67
513.28	601.20
513.64	603.61
514.00	606.07
514.37	608.58
514.73	611.11
515.09	613.45
515.45	615.74
515.81	618.01
516.17	620.16
516.53	622.49
516.89	624.47
517.25	626.50
517.61	628.65
517.97	630.42
518.33	632.28
518.69	634.07
519.05	635.73
519.41	637.47
519.77	639.37
520.13	640.89
520.49	642.40
520.85	643.90
521.21	645.75
521.57	647.71
521.93	649.01
522.29	650.74
522.65	652.12
523.01	653.46
523.37	654.65
523.73	656.05
524.09	657.44
524.45	658.75
524.81	660.06
525.17	661.46
525.53	663.27
525.89	664.65
526.25	666.12
526.61	667.39
526.97	668.79
527.33	670.12
527.68	671.65
528.04	672.96
528.40	674.55
528.76	676.27
529.12	677.90
529.48	679.85
529.84	681.40
530.20	683.49
530.56	685.52
530.91	687.96
531.27	690.00
531.63	691.62
531.99	693.73
532.35	695.53
532.71	697.30
533.07	699.20
533.42	701.53
533.78	703.57
534.14	706.06
534.50	707.87
534.86	710.15
535.21	712.06
535.57	714.53
535.93	716.58
536.29	718.79
536.65	720.85
537.00	722.72
537.36	725.12
537.72	727.29
538.08	729.47
538.44	731.41
538.79	733.57
539.15	736.00
539.51	738.30
539.87	740.94
540.22	743.54
540.58	746.03
540.94	748.43
541.29	751.25
541.65	753.47
542.01	756.65
542.37	759.18
542.72	762.14
543.08	764.75
543.44	767.64
543.79	770.30
544.15	773.30
544.51	776.87
544.87	779.83
545.22	783.04
545.58	785.97
545.94	788.98
546.29	792.00
546.65	795.09
547.01	797.90
547.36	800.51
547.72	803.63
548.07	806.53
548.43	809.44
548.79	812.30
549.14	815.12
549.50	817.71
549.86	820.54
550.21	823.18
550.57	826.20
550.92	829.06
551.28	831.75
551.64	834.33
551.99	836.94
552.35	839.75
552.70	842.43
553.06	845.32
553.41	848.18
553.77	851.06
554.13	853.97
554.48	857.08
554.84	860.02
555.19	862.90
555.55	865.94
555.90	868.76
556.26	871.33
556.61	874.37
556.97	877.29
557.32	880.17
557.68	883.12
558.03	885.94
558.39	888.51
558.74	891.78
559.10	894.90
559.45	897.68
559.81	900.67
560.16	903.24
560.52	905.88
560.87	908.70
561.23	911.13
561.58	914.15
561.94	916.92
562.29	919.66
562.64	921.80
563.00	924.00
563.35	926.75
563.71	929.94
564.06	932.53
564.42	935.25
564.77	937.86
565.12	940.66
565.48	943.12
565.83	945.71
566.19	947.87
566.54	950.17
566.89	952.40
567.25	954.85
567.60	957.12
567.96	959.26
568.31	961.40
568.66	963.67
569.02	965.35
569.37	966.69
569.72	968.56
570.08	970.50
570.43	972.22
570.78	973.40
571.14	974.41
571.49	975.97
571.84	977.62
572.20	978.80
572.55	979.86
572.90	980.75
573.26	981.89
573.61	983.04
573.96	983.63
574.31	984.40
574.67	984.13
575.02	984.66
575.37	985.30
575.72	985.16
576.08	985.44
576.43	985.59
576.78	986.27
577.13	986.68
577.49	986.99
577.84	987.16
578.19	987.77
578.54	987.65
578.90	987.55
579.25	986.66
579.60	986.46
579.95	986.03
580.30	985.67
580.66	985.25
581.01	984.56
581.36	984.34
581.71	983.97
582.06	983.73
582.42	983.29
582.77	982.62
583.12	982.15
583.47	981.63
583.82	981.04
584.17	980.11
584.53	979.30
584.88	978.38
585.23	977.46
585.58	976.00
585.93	975.22
586.28	974.45
586.63	973.98
586.98	972.93
587.34	971.96
587.69	971.45
588.04	970.50
588.39	969.67
588.74	967.95
589.09	966.50
589.44	965.20
589.79	963.88
590.14	962.92
590.49	961.74
590.84	960.28
591.19	959.00
591.54	957.22
591.89	955.40
592.25	953.96
592.60	952.11
592.95	950.48
593.30	948.65
593.65	946.64
594.00	944.48
594.35	943.14
594.70	940.90
595.05	938.69
595.40	936.32
595.75	933.97
596.10	932.24
596.45	930.58
596.80	929.02
597.15	927.05
597.50	924.50
597.85	922.41
598.19	920.70
598.54	918.69
598.89	916.98
599.24	915.22
599.59	913.06
599.94	911.39
600.29	909.19
600.64	906.82
600.99	904.41
601.34	902.44
601.69	899.60
602.04	897.83
602.39	895.52
602.74	893.77
603.08	891.45
603.43	889.74
603.78	887.21
604.13	884.67
604.48	882.31
604.83	880.27
605.18	878.23
605.53	875.26
605.87	872.59
606.22	870.00
606.57	867.10
606.92	864.55
607.27	862.13
607.62	860.05
607.96	857.81
608.31	855.40
608.66	852.61
609.01	849.89
609.36	846.84
609.70	843.77
610.05	840.57
610.40	838.00
610.75	834.40
611.10	831.27
611.44	827.84
611.79	824.91
612.14	821.70
612.49	818.25
612.83	815.20
613.18	811.84
613.53	808.94
613.88	805.96
614.22	802.69
614.57	799.34
614.92	795.94
615.27	792.80
615.61	789.68
615.96	786.65
616.31	783.80
616.65	780.95
617.00	778.23
617.35	775.57
617.70	772.10
618.04	769.14
618.39	765.85
618.74	763.08
619.08	759.89
619.43	757.04
619.78	753.95
620.12	751.07
620.47	748.18
620.82	744.80
621.16	741.62
621.51	738.83
621.85	735.72
622.20	732.63
622.55	729.60
622.89	726.56
623.24	723.44
623.59	720.60
623.93	717.67
624.28	714.33
624.62	711.27
624.97	708.81
625.32	706.13
625.66	703.49
626.01	700.78
626.35	698.04
626.70	695.16
627.04	692.59
627.39	689.65
627.73	686.87
628.08	684.34
628.43	681.70
628.77	678.80
629.12	675.82
629.46	673.00
629.81	669.99
630.15	667.11
630.50	664.16
630.84	660.94
631.19	657.73
631.53	655.10
631.88	651.97
632.22	648.57
632.57	645.75
632.91	642.84
633.26	639.81
633.60	636.61
633.95	633.77
634.29	630.70
634.64	628.03
634.98	625.08
635.32	622.31
635.67	619.64
636.01	616.99
636.36	614.34
636.70	611.72
637.05	609.14
637.39	606.74
637.73	604.36
638.08	602.00
638.42	599.75
638.77	597.40
639.11	594.78
639.45	592.51
639.80	589.79
640.14	587.45
640.49	584.86
640.83	582.43
641.17	579.71
641.52	577.40
641.86	574.62
642.20	572.20
642.55	569.69
642.89	567.08
643.23	564.66
643.58	562.39
643.92	559.96
644.26	557.33
644.61	554.87
644.95	552.30
645.29	549.61
645.64	546.85
645.98	544.06
646.32	541.66
646.66	539.29
647.01	536.92
647.35	534.67
647.69	532.41
648.04	530.14
648.38	527.70
648.72	525.05
649.06	522.61
649.41	520.40
649.75	517.87
650.09	515.49
650.43	512.80
650.78	510.26
651.12	507.76
651.46	505.39
651.80	502.92
652.14	500.62
652.49	498.37
652.83	496.31
653.17	494.11
653.51	491.68
653.85	489.10
654.20	486.79
654.54	484.01
654.88	481.61
655.22	479.13
655.56	476.63
655.90	474.56
656.25	472.50
656.59	470.22
656.93	468.09
657.27	465.95
657.61	463.78
657.95	461.79
658.29	459.59
658.64	457.42
658.98	455.14
659.32	452.82
659.66	450.79
660.00	448.50
660.34	446.29
660.68	444.35
661.02	442.34
661.36	440.27
661.70	438.39
662.05	436.44
662.39	434.61
662.73	432.96
663.07	431.12
663.41	429.33
663.75	427.34
664.09	425.36
664.43	423.51
664.77	421.79
665.11	419.86
665.45	418.14
665.79	416.49
666.13	414.69
666.47	413.17
666.81	411.22
667.15	409.60
667.49	407.97
667.83	406.47
668.17	404.91
668.51	403.28
668.85	401.66
669.19	400.11
669.53	398.52
669.87	396.89
670.21	395.35
670.55	393.80
670.89	392.32
671.23	390.97
671.57	389.46
671.91	387.97
672.25	386.62
672.58	385.28
672.92	383.93
673.26	382.67
673.60	381.30
673.94	379.96
674.28	378.58
674.62	377.30
674.96	375.81
675.30	374.52
675.64	373.22
675.97	372.00
676.31	370.92
676.65	369.70
676.99	368.49
677.33	367.06
677.67	365.81
678.01	364.64
678.34	363.30
678.68	362.16
679.02	360.86
679.36	359.59
679.70	358.36
680.04	357.00
680.37	355.85
680.71	354.56
681.05	353.57
681.39	352.50
681.73	351.46
682.06	350.38
682.40	349.27
682.74	348.19
683.08	347.04
683.42	345.75
683.75	344.61
684.09	343.48
684.43	342.46
684.77	341.30
685.10	340.10
685.44	339.10
685.78	337.91
686.12	336.88
686.45	335.63
686.79	334.50
687.13	333.73
687.46	332.55
687.80	331.57
688.14	330.53
688.48	329.50
688.81	328.45
689.15	327.49
689.49	326.50
689.82	325.49
690.16	324.56
690.50	323.58
690.83	322.59
691.17	321.64
691.51	320.73
691.84	319.89
692.18	318.96
692.52	317.93
692.85	317.00
693.19	316.08
693.52	315.19
693.86	314.18
694.20	313.25
694.53	312.50
694.87	311.57
695.21	310.54
695.54	309.73
695.88	308.72
696.21	307.79
696.55	306.92
696.88	306.09
697.22	305.20
697.56	304.33
697.89	303.56
698.23	302.79
698.56	301.75
698.90	300.89
699.23	299.98
699.57	299.20
699.90	298.50
700.24	297.71
700.58	297.00
700.91	296.35
701.25	295.61
701.58	294.80
701.92	294.13
702.25	293.57
702.59	292.74
702.92	292.17
703.26	291.57
703.59	290.88
703.93	290.46
704.26	289.81
704.60	289.22
704.93	288.37
705.26	287.68
705.60	287.21
705.93	286.60
706.27	286.12
706.60	285.55
706.94	284.91
707.27	284.32
707.61	283.80
707.94	283.26
708.27	282.59
708.61	281.95
708.94	281.49
709.28	280.96
709.61	280.52
709.94	279.94
710.28	279.30
710.61	278.76
710.95	277.84
711.28	277.45
711.61	276.93
711.95	276.71
712.28	276.21
712.61	275.60
712.95	275.12
713.28	274.75
713.61	274.24
713.95	273.71
714.28	273.17
714.61	272.63
714.95	272.20
715.28	271.66
715.61	271.28
715.95	270.71
716.28	270.10
716.61	269.53
716.95	269.04
717.28	268.60
717.61	268.15
717.94	267.91
718.28	267.36
718.61	266.86
718.94	266.41
719.27	266.05
719.61	265.82
719.94	265.36
720.27	264.93
720.60	264.56
720.94	264.18
721.27	264.01
721.60	263.73
721.93	263.32
722.27	263.05
722.60	262.66
722.93	262.21
723.26	261.85
723.59	261.63
723.93	261.30
724.26	261.07
724.59	260.70
724.92	260.29
725.25	260.00
725.59	259.71
725.92	259.34
726.25	258.98
726.58	258.57
726.91	258.26
727.24	257.94
727.57	257.53
727.91	257.25
728.24	256.85
728.57	256.57
728.90	256.26
729.23	255.88
729.56	255.63
729.89	255.40
730.22	255.13
730.55	254.70
730.89	254.47
731.22	254.11
731.55	253.72
731.88	253.44
732.21	253.19
732.54	252.91
732.87	252.51
733.20	252.27
733.53	251.97
733.86	251.80
734.19	251.45
734.52	251.30
734.85	251.14
735.18	250.83
735.51	250.57
735.84	250.32
736.17	250.21
736.50	249.89
736.83	249.89
737.16	249.77
737.49	249.68
737.82	249.48
738.15	249.26
738.48	249.14
738.81	248.95
739.14	248.67
739.47	248.41
739.80	248.30
740.13	248.08
740.46	247.86
740.79	247.64
741.12	247.44
741.45	247.15
741.78	246.82
742.11	246.68
742.44	246.40
742.77	246.24
743.10	245.95
743.43	245.80
743.75	245.39
744.08	245.35
744.41	245.07
744.74	244.88
745.07	244.71
745.40	244.66
745.73	244.52
746.06	244.37
746.39	244.25
746.71	244.12
747.04	243.97
747.37	243.79
747.70	243.60
748.03	243.45
748.36	243.40
748.68	243.24
749.01	243.08
749.34	242.90
749.67	242.70
750.00	242.60
750.33	242.62
750.65	242.48
750.98	242.07
751.31	241.96
751.64	241.78
751.97	241.72
752.29	241.47
752.62	241.33
752.95	241.24
753.28	241.01
753.60	240.92
753.93	240.81
754.26	240.75
754.59	240.59
754.91	240.41
755.24	240.25
755.57	240.09
755.90	239.98
756.22	239.91
756.55	239.84
756.88	239.76
757.20	239.43
757.53	239.20
757.86	239.22
758.19	239.13
758.51	239.06
758.84	238.80
759.17	238.70
759.49	238.54
759.82	238.45
760.15	238.48
760.47	238.34
760.80	238.18
761.13	238.14
761.45	238.05
761.78	237.99
762.11	237.79
762.43	237.85
762.76	237.70
763.08	237.62
763.41	237.48
763.74	237.38
764.06	237.30
764.39	237.31
764.71	237.10
765.04	237.00
765.37	236.89
765.69	236.84
766.02	236.76
766.34	236.72
766.67	236.50
767.00	236.37
767.32	236.29
767.65	236.39
767.97	236.19
768.30	236.12
768.62	235.98
768.95	236.03
769.27	235.92
769.60	235.84
769.92	235.74
770.25	235.73
770.57	235.52
770.90	235.57
771.22	235.39
771.55	235.41
771.87	235.29
772.20	235.31
772.52	235.39
772.85	235.55
773.17	235.39
773.50	235.43
773.82	235.30
774.15	235.16
774.47	234.95
774.80	234.85
775.12	234.76
775.45	234.77
775.77	234.65
776.09	234.57
776.42	234.52
776.74	234.44
777.07	234.27
777.39	234.22
777.72	234.11
778.04	234.11
778.36	233.93
778.69	233.91
779.01	233.77
779.33	233.55
779.66	233.27
779.98	233.29
780.31	233.13
780.63	233.20
780.95	233.16
781.28	233.02
781.60	233.01
781.92	232.89
782.25	232.81
782.57	232.79
782.89	232.73
783.22	232.65
783.54	232.58
783.86	232.65
784.19	232.63
784.51	232.53
784.83	232.46
785.16	232.43
785.48	232.35
785.80	232.26
786.12	232.26
786.45	232.23
786.77	232.18
787.09	232.18
787.42	232.10
787.74	232.00
788.06	232.01
788.38	231.99
788.71	232.05
789.03	232.01
789.35	232.01
789.67	231.89
789.99	231.86
790.32	231.88
790.64	231.96
790.96	232.06
791.28	231.99
791.61	231.95
791.93	231.89
792.25	231.91
792.57	232.00
792.89	231.99
793.21	231.90
793.54	231.90
793.86	231.86
794.18	231.79
