SpectraSuite Data File
++++++++++++++++++++++++++++++++++++
Date: Fri Feb 01 14:39:47 EST 2013
User: group
Dark Spectrum Present: No
Reference Spectrum Present: No
Number of Sampled Component Spectra: 1
Spectrometers: USB2E7196
Integration Time (usec): 70000 (USB2E7196)
Spectra Averaged: 10 (USB2E7196)
Boxcar Smoothing: 10 (USB2E7196)
Correct for Electrical Dark: No (USB2E7196)
Strobe/Lamp Enabled: No (USB2E7196)
Correct for Detector Non-linearity: No (USB2E7196)
Correct for Stray Light: No (USB2E7196)
Number of Pixels in Processed Spectrum: 2048
>>>>>Begin Processed Spectral Data<<<<<
339.09	0.00
339.48	217.70
339.86	218.90
340.24	218.90
340.63	220.40
341.01	225.80
341.39	222.70
341.78	226.00
342.16	227.90
342.54	226.30
342.93	215.35
343.31	226.17
343.69	226.57
344.07	227.01
344.46	227.42
344.84	227.77
345.22	227.87
345.60	228.12
345.99	228.21
346.37	228.25
346.75	228.30
347.13	228.35
347.52	228.33
347.90	228.40
348.28	228.42
348.66	228.50
349.05	228.56
349.43	228.58
349.81	228.49
350.19	228.53
350.57	228.55
350.96	228.61
351.34	228.63
351.72	228.76
352.10	228.82
352.48	228.83
352.87	228.90
353.25	228.93
353.63	228.99
354.01	229.07
354.39	229.08
354.77	229.14
355.15	229.30
355.54	229.31
355.92	229.32
356.30	229.43
356.68	229.65
357.06	229.63
357.44	229.65
357.82	229.78
358.20	229.86
358.58	229.92
358.97	230.02
359.35	230.20
359.73	230.37
360.11	230.37
360.49	230.50
360.87	230.49
361.25	230.59
361.63	230.74
362.01	230.79
362.39	230.80
362.77	230.93
363.15	230.88
363.53	230.78
363.91	230.73
364.29	230.71
364.67	230.56
365.05	230.54
365.43	230.46
365.81	230.49
366.19	230.56
366.57	230.73
366.95	230.72
367.33	230.63
367.71	230.50
368.09	230.58
368.47	230.51
368.85	230.54
369.23	230.46
369.61	230.33
369.99	230.34
370.37	230.43
370.75	230.40
371.13	230.21
371.51	230.31
371.89	230.30
372.27	230.25
372.65	230.07
373.03	230.04
373.41	230.08
373.78	229.89
374.16	229.74
374.54	229.53
374.92	229.31
375.30	229.31
375.68	229.21
376.06	229.10
376.44	228.99
376.82	228.82
377.19	228.76
377.57	228.58
377.95	228.42
378.33	228.33
378.71	228.14
379.09	228.21
379.47	228.08
379.84	227.92
380.22	227.77
380.60	227.65
380.98	227.55
381.36	227.41
381.73	227.32
382.11	227.26
382.49	227.23
382.87	227.18
383.25	227.09
383.62	227.19
384.00	227.06
384.38	227.08
384.76	227.08
385.13	227.09
385.51	227.10
385.89	227.03
386.27	226.92
386.64	226.91
387.02	226.85
387.40	226.78
387.78	226.84
388.15	226.85
388.53	226.88
388.91	226.90
389.29	226.84
389.66	226.99
390.04	226.94
390.42	226.84
390.79	226.90
391.17	226.87
391.55	226.72
391.92	226.75
392.30	226.69
392.68	226.81
393.05	226.85
393.43	226.76
393.81	226.76
394.18	226.78
394.56	226.90
394.94	226.99
395.31	227.02
395.69	227.05
396.06	227.08
396.44	227.11
396.82	227.12
397.19	227.32
397.57	227.30
397.95	227.37
398.32	227.38
398.70	227.45
399.07	227.54
399.45	227.55
399.82	227.63
400.20	227.73
400.58	227.66
400.95	227.66
401.33	227.90
401.70	228.17
402.08	228.34
402.45	228.39
402.83	228.50
403.20	228.62
403.58	228.69
403.95	228.83
404.33	228.89
404.71	229.00
405.08	229.26
405.46	229.41
405.83	229.60
406.21	229.82
406.58	230.02
406.96	230.15
407.33	230.37
407.70	230.57
408.08	230.94
408.45	231.16
408.83	231.52
409.20	231.67
409.58	231.79
409.95	231.88
410.33	232.03
410.70	232.21
411.08	232.53
411.45	232.81
411.82	233.06
412.20	233.51
412.57	234.00
412.95	234.10
413.32	234.45
413.69	234.74
414.07	235.13
414.44	235.53
414.82	235.97
415.19	236.48
415.56	236.95
415.94	237.40
416.31	238.05
416.68	238.56
417.06	239.25
417.43	239.89
417.81	240.69
418.18	241.49
418.55	242.32
418.93	243.17
419.30	244.10
419.67	245.10
420.04	246.07
420.42	247.01
420.79	248.20
421.16	249.43
421.54	250.67
421.91	251.85
422.28	252.96
422.66	254.35
423.03	255.72
423.40	257.06
423.77	258.51
424.15	260.01
424.52	261.51
424.89	263.09
425.26	264.65
425.64	266.05
426.01	267.80
426.38	269.50
426.75	271.27
427.13	273.03
427.50	274.83
427.87	276.76
428.24	278.67
428.61	280.49
428.99	282.44
429.36	284.56
429.73	286.74
430.10	288.92
430.47	291.05
430.85	293.22
431.22	295.65
431.59	298.17
431.96	300.57
432.33	303.12
432.70	305.75
433.08	308.69
433.45	311.51
433.82	314.19
434.19	317.29
434.56	320.22
434.93	323.06
435.30	325.98
435.68	329.05
436.05	332.04
436.42	335.15
436.79	337.85
437.16	340.76
437.53	343.78
437.90	346.95
438.27	349.96
438.64	353.11
439.01	355.92
439.38	358.36
439.75	360.56
440.13	363.47
440.50	366.04
440.87	368.14
441.24	370.40
441.61	372.77
441.98	374.40
442.35	376.43
442.72	378.43
443.09	380.47
443.46	381.63
443.83	382.38
444.20	382.90
444.57	383.94
444.94	384.36
445.31	384.91
445.68	385.51
446.05	385.81
446.42	385.42
446.79	385.09
447.16	384.73
447.53	384.55
447.90	383.36
448.27	382.17
448.64	380.60
449.01	379.58
449.37	377.70
449.74	375.84
450.11	373.60
450.48	371.13
450.85	368.51
451.22	366.30
451.59	364.27
451.96	362.30
452.33	359.67
452.70	357.37
453.07	354.55
453.43	351.45
453.80	348.50
454.17	345.76
454.54	343.18
454.91	340.34
455.28	337.64
455.65	335.01
456.02	332.68
456.38	330.43
456.75	327.53
457.12	324.99
457.49	322.67
457.86	320.24
458.23	318.24
458.59	315.99
458.96	313.79
459.33	311.80
459.70	309.81
460.07	308.20
460.43	306.28
460.80	304.30
461.17	302.70
461.54	301.05
461.91	299.44
462.27	297.78
462.64	296.32
463.01	294.80
463.38	293.19
463.74	291.42
464.11	290.01
464.48	288.85
464.85	287.61
465.21	286.70
465.58	285.72
465.95	284.50
466.32	283.51
466.68	282.42
467.05	281.43
467.42	280.39
467.78	279.29
468.15	278.30
468.52	277.59
468.88	276.50
469.25	275.57
469.62	274.70
469.98	273.87
470.35	273.10
470.72	272.28
471.08	271.56
471.45	270.93
471.82	270.31
472.18	269.48
472.55	268.91
472.92	268.02
473.28	267.34
473.65	266.66
474.02	266.02
474.38	265.48
474.75	264.82
475.11	264.29
475.48	263.75
475.85	263.31
476.21	262.94
476.58	262.61
476.94	262.25
477.31	262.00
477.67	261.68
478.04	261.37
478.41	261.15
478.77	261.08
479.14	260.73
479.50	260.40
479.87	260.33
480.23	260.21
480.60	260.07
480.96	259.91
481.33	259.82
481.69	259.70
482.06	259.62
482.42	259.59
482.79	259.52
483.15	259.51
483.52	259.40
483.88	259.19
484.25	259.03
484.61	258.95
484.98	258.89
485.34	258.90
485.71	259.00
486.07	258.99
486.44	258.76
486.80	258.80
487.17	259.02
487.53	259.06
487.90	259.06
488.26	259.24
488.62	259.46
488.99	259.59
489.35	259.69
489.72	259.75
490.08	259.95
490.44	260.14
490.81	260.41
491.17	260.78
491.54	261.10
491.90	261.45
492.26	261.80
492.63	262.13
492.99	262.38
493.36	262.74
493.72	263.18
494.08	263.63
494.45	264.11
494.81	264.56
495.17	265.04
495.54	265.51
495.90	265.81
496.26	266.20
496.63	266.70
496.99	267.27
497.35	267.93
497.72	268.60
498.08	269.19
498.44	269.87
498.80	270.46
499.17	271.12
499.53	271.90
499.89	272.70
500.26	273.52
500.62	274.43
500.98	275.28
501.34	276.16
501.71	277.21
502.07	278.34
502.43	279.30
502.79	280.41
503.16	281.75
503.52	283.12
503.88	284.40
504.24	285.85
504.60	287.29
504.97	288.88
505.33	290.31
505.69	291.97
506.05	293.51
506.41	295.22
506.78	297.13
507.14	298.90
507.50	300.84
507.86	302.89
508.22	304.90
508.59	306.91
508.95	309.19
509.31	311.66
509.67	314.17
510.03	316.74
510.39	319.33
510.75	322.03
511.12	324.79
511.48	327.79
511.84	330.79
512.20	333.95
512.56	336.96
512.92	340.32
513.28	343.87
513.64	347.48
514.00	351.27
514.37	355.04
514.73	358.98
515.09	362.84
515.45	366.81
515.81	371.09
516.17	375.64
516.53	379.94
516.89	384.36
517.25	388.78
517.61	393.50
517.97	398.25
518.33	403.04
518.69	408.07
519.05	413.18
519.41	418.50
519.77	424.00
520.13	429.75
520.49	435.47
520.85	441.06
521.21	446.87
521.57	452.63
521.93	458.43
522.29	464.39
522.65	470.70
523.01	477.13
523.37	483.34
523.73	489.69
524.09	496.45
524.45	502.96
524.81	509.76
525.17	516.75
525.53	523.94
525.89	530.98
526.25	538.46
526.61	545.67
526.97	552.99
527.33	560.29
527.68	567.96
528.04	575.56
528.40	583.32
528.76	591.31
529.12	599.53
529.48	607.77
529.84	615.77
530.20	624.24
530.56	632.46
530.91	641.20
531.27	649.82
531.63	658.32
531.99	667.13
532.35	675.71
532.71	684.24
533.07	693.02
533.42	701.97
533.78	710.46
534.14	719.35
534.50	727.89
534.86	736.82
535.21	745.25
535.57	754.29
535.93	763.27
536.29	772.02
536.65	781.09
537.00	790.07
537.36	799.39
537.72	808.24
538.08	817.17
538.44	825.66
538.79	834.60
539.15	843.47
539.51	852.50
539.87	861.66
540.22	870.51
540.58	879.67
540.94	888.50
541.29	897.48
541.65	906.45
542.01	915.97
542.37	924.90
542.72	934.14
543.08	942.78
543.44	951.56
543.79	960.01
544.15	968.53
544.51	977.55
544.87	986.23
545.22	994.78
545.58	1003.28
545.94	1011.85
546.29	1020.18
546.65	1028.48
547.01	1036.47
547.36	1044.50
547.72	1052.87
548.07	1060.73
548.43	1068.26
548.79	1076.07
549.14	1083.94
549.50	1091.06
549.86	1098.54
550.21	1105.56
550.57	1112.97
550.92	1120.01
551.28	1127.16
551.64	1134.25
551.99	1140.97
552.35	1147.87
552.70	1154.56
553.06	1161.78
553.41	1168.83
553.77	1175.55
554.13	1182.40
554.48	1189.63
554.84	1196.29
555.19	1202.62
555.55	1208.92
555.90	1215.51
556.26	1221.96
556.61	1227.73
556.97	1233.94
557.32	1239.81
557.68	1246.03
558.03	1252.08
558.39	1258.16
558.74	1264.44
559.10	1270.25
559.45	1276.26
559.81	1282.29
560.16	1287.93
560.52	1293.18
560.87	1298.46
561.23	1303.48
561.58	1308.90
561.94	1313.39
562.29	1317.92
562.64	1322.70
563.00	1327.16
563.35	1332.31
563.71	1337.42
564.06	1342.44
564.42	1346.87
564.77	1351.58
565.12	1356.05
565.48	1360.61
565.83	1364.71
566.19	1369.03
566.54	1372.73
566.89	1376.06
567.25	1379.63
567.60	1383.58
567.96	1387.27
568.31	1390.85
568.66	1394.51
569.02	1397.55
569.37	1400.90
569.72	1404.23
570.08	1406.90
570.43	1410.18
570.78	1412.86
571.14	1414.90
571.49	1417.31
571.84	1420.40
572.20	1422.32
572.55	1424.00
572.90	1425.34
573.26	1427.34
573.61	1428.67
573.96	1430.44
574.31	1431.63
574.67	1432.11
575.02	1432.73
575.37	1433.36
575.72	1433.56
576.08	1434.27
576.43	1434.58
576.78	1435.09
577.13	1435.76
577.49	1436.37
577.84	1436.13
578.19	1436.28
578.54	1436.12
578.90	1435.64
579.25	1434.35
579.60	1434.10
579.95	1433.90
580.30	1433.10
580.66	1432.23
581.01	1431.47
581.36	1430.26
581.71	1429.98
582.06	1429.55
582.42	1428.39
582.77	1427.46
583.12	1426.38
583.47	1425.40
583.82	1424.53
584.17	1423.05
584.53	1421.42
584.88	1420.04
585.23	1419.00
585.58	1417.28
585.93	1415.87
586.28	1414.84
586.63	1414.08
586.98	1412.65
587.34	1410.91
587.69	1409.63
588.04	1408.26
588.39	1407.01
588.74	1404.88
589.09	1402.72
589.44	1400.13
589.79	1398.36
590.14	1396.34
590.49	1394.41
590.84	1391.93
591.19	1389.51
591.54	1386.61
591.89	1383.69
592.25	1381.00
592.60	1377.39
592.95	1374.61
593.30	1371.24
593.65	1367.85
594.00	1364.47
594.35	1361.85
594.70	1357.96
595.05	1354.84
595.40	1351.09
595.75	1347.12
596.10	1344.14
596.45	1341.00
596.80	1338.69
597.15	1335.27
597.50	1331.85
597.85	1329.08
598.19	1325.98
598.54	1322.61
598.89	1319.86
599.24	1317.49
599.59	1314.46
599.94	1311.71
600.29	1308.12
600.64	1305.29
600.99	1301.42
601.34	1298.09
601.69	1294.49
602.04	1291.87
602.39	1288.30
602.74	1285.71
603.08	1282.60
603.43	1279.46
603.78	1275.92
604.13	1272.01
604.48	1268.63
604.83	1265.34
605.18	1261.59
605.53	1257.52
605.87	1253.60
606.22	1249.70
606.57	1245.14
606.92	1241.14
607.27	1237.70
607.62	1234.37
607.96	1230.57
608.31	1227.31
608.66	1223.09
609.01	1218.11
609.36	1213.60
609.70	1209.00
610.05	1203.70
610.40	1199.15
610.75	1194.81
611.10	1190.03
611.44	1185.05
611.79	1180.58
612.14	1175.80
612.49	1170.35
612.83	1165.46
613.18	1160.61
613.53	1156.32
613.88	1151.31
614.22	1146.36
614.57	1140.89
614.92	1135.62
615.27	1130.88
615.61	1125.81
615.96	1121.04
616.31	1116.94
616.65	1112.89
617.00	1108.38
617.35	1104.02
617.70	1099.30
618.04	1094.13
618.39	1089.62
618.74	1085.30
619.08	1080.42
619.43	1075.82
619.78	1071.48
620.12	1067.07
620.47	1062.59
620.82	1057.35
621.16	1053.26
621.51	1049.07
621.85	1044.48
622.20	1039.79
622.55	1035.17
622.89	1030.63
623.24	1026.31
623.59	1021.70
623.93	1016.95
624.28	1012.38
624.62	1007.93
624.97	1003.62
625.32	999.33
625.66	994.90
626.01	990.56
626.35	986.01
626.70	981.27
627.04	976.92
627.39	972.26
627.73	967.69
628.08	963.12
628.43	958.32
628.77	953.68
629.12	949.35
629.46	944.77
629.81	939.69
630.15	934.66
630.50	929.57
630.84	924.63
631.19	919.69
631.53	914.85
631.88	909.84
632.22	904.60
632.57	900.03
632.91	894.68
633.26	889.74
633.60	884.76
633.95	880.11
634.29	875.52
634.64	871.02
634.98	866.48
635.32	862.11
635.67	858.16
636.01	853.76
636.36	849.13
636.70	844.71
637.05	840.74
637.39	836.82
637.73	832.68
638.08	828.74
638.42	824.58
638.77	820.58
639.11	816.26
639.45	812.30
639.80	807.88
640.14	804.21
640.49	800.11
640.83	796.00
641.17	792.04
641.52	787.70
641.86	783.40
642.20	779.36
642.55	775.15
642.89	770.95
643.23	766.69
643.58	762.95
643.92	758.69
644.26	754.28
644.61	750.47
644.95	746.47
645.29	741.70
645.64	737.44
645.98	733.42
646.32	729.59
646.66	725.40
647.01	721.29
647.35	717.31
647.69	713.17
648.04	709.46
648.38	705.08
648.72	700.97
649.06	696.96
649.41	692.77
649.75	688.48
650.09	683.93
650.43	679.65
650.78	675.19
651.12	671.23
651.46	667.39
651.80	663.29
652.14	659.62
652.49	656.14
652.83	652.33
653.17	648.40
653.51	644.30
653.85	640.56
654.20	636.60
654.54	632.58
654.88	628.58
655.22	624.55
655.56	620.90
655.90	617.38
656.25	613.63
656.59	609.97
656.93	606.24
657.27	602.67
657.61	598.85
657.95	595.53
658.29	592.11
658.64	588.37
658.98	584.53
659.32	580.44
659.66	576.81
660.00	573.22
660.34	569.70
660.68	566.49
661.02	563.01
661.36	559.74
661.70	556.61
662.05	553.56
662.39	550.57
662.73	547.26
663.07	544.08
663.41	541.18
663.75	538.10
664.09	535.24
664.43	532.22
664.77	529.53
665.11	526.68
665.45	523.68
665.79	520.78
666.13	517.85
666.47	515.18
666.81	512.27
667.15	509.38
667.49	506.59
667.83	503.72
668.17	500.95
668.51	498.27
668.85	495.32
669.19	492.57
669.53	489.86
669.87	487.13
670.21	484.57
670.55	481.76
670.89	479.47
671.23	477.17
671.57	474.67
671.91	472.30
672.25	469.64
672.58	467.35
672.92	464.97
673.26	462.82
673.60	460.71
673.94	458.60
674.28	456.63
674.62	454.61
674.96	452.65
675.30	450.56
675.64	448.41
675.97	446.41
676.31	444.45
676.65	442.45
676.99	440.72
677.33	438.66
677.67	436.69
678.01	434.29
678.34	432.17
678.68	430.32
679.02	428.28
679.36	426.40
679.70	424.29
680.04	422.40
680.37	420.40
680.71	418.30
681.05	416.48
681.39	414.52
681.73	412.60
682.06	410.61
682.40	408.88
682.74	407.24
683.08	405.59
683.42	403.61
683.75	401.64
684.09	399.75
684.43	397.88
684.77	395.95
685.10	394.26
685.44	392.48
685.78	390.69
686.12	388.98
686.45	387.18
686.79	385.49
687.13	383.87
687.46	382.20
687.80	380.60
688.14	378.77
688.48	377.27
688.81	375.46
689.15	373.82
689.49	372.16
689.82	370.44
690.16	368.63
690.50	367.31
690.83	365.96
691.17	364.33
691.51	362.91
691.84	361.72
692.18	360.22
692.52	358.78
692.85	357.33
693.19	355.95
693.52	354.61
693.86	353.30
694.20	351.80
694.53	350.44
694.87	348.97
695.21	347.55
695.54	345.99
695.88	344.64
696.21	343.28
696.55	341.89
696.88	340.48
697.22	339.22
697.56	337.97
697.89	336.53
698.23	335.35
698.56	334.17
698.90	332.74
699.23	331.48
699.57	330.29
699.90	329.16
700.24	327.88
700.58	326.63
700.91	325.36
701.25	324.33
701.58	323.21
701.92	322.14
702.25	320.99
702.59	319.90
702.92	318.95
703.26	317.95
703.59	316.91
703.93	316.13
704.26	315.18
704.60	314.06
704.93	313.02
705.26	311.90
705.60	310.72
705.93	309.87
706.27	309.10
706.60	308.19
706.94	307.32
707.27	306.33
707.61	305.50
707.94	304.80
708.27	303.93
708.61	303.03
708.94	302.24
709.28	301.51
709.61	300.81
709.94	300.04
710.28	299.24
710.61	298.57
710.95	297.57
711.28	296.90
711.61	296.20
711.95	295.44
712.28	294.77
712.61	294.07
712.95	293.45
713.28	292.74
713.61	291.96
713.95	291.08
714.28	290.46
714.61	289.72
714.95	289.04
715.28	288.25
715.61	287.50
715.95	286.86
716.28	286.20
716.61	285.47
716.95	284.79
717.28	284.11
717.61	283.47
717.94	282.94
718.28	282.07
718.61	281.44
718.94	280.92
719.27	280.41
719.61	279.93
719.94	279.29
720.27	278.73
720.60	278.15
720.94	277.81
721.27	277.37
721.60	277.00
721.93	276.59
722.27	276.23
722.60	275.89
722.93	275.28
723.26	274.94
723.59	274.57
723.93	274.12
724.26	273.70
724.59	273.26
724.92	272.83
725.25	272.49
725.59	272.01
725.92	271.65
726.25	271.17
726.58	270.73
726.91	270.34
727.24	269.87
727.57	269.64
727.91	269.03
728.24	268.52
728.57	268.00
728.90	267.38
729.23	266.84
729.56	266.54
729.89	266.15
730.22	265.61
730.55	265.22
730.89	264.77
731.22	264.35
731.55	263.89
731.88	263.43
732.21	263.07
732.54	262.57
732.87	262.16
733.20	261.70
733.53	261.34
733.86	260.95
734.19	260.56
734.52	260.11
734.85	259.86
735.18	259.45
735.51	258.95
735.84	258.66
736.17	258.37
736.50	257.89
736.83	257.82
737.16	257.54
737.49	257.15
737.82	256.82
738.15	256.51
738.48	256.11
738.81	255.69
739.14	255.33
739.47	255.07
739.80	254.76
740.13	254.40
740.46	254.05
740.79	253.70
741.12	253.30
741.45	252.99
741.78	252.60
742.11	252.36
742.44	252.17
742.77	251.92
743.10	251.56
743.43	251.21
743.75	250.67
744.08	250.57
744.41	250.24
744.74	250.03
745.07	249.70
745.40	249.57
745.73	249.50
746.06	249.18
746.39	248.95
746.71	248.64
747.04	248.50
747.37	248.15
747.70	247.97
748.03	247.75
748.36	247.50
748.68	247.25
749.01	246.93
749.34	246.70
749.67	246.50
750.00	246.34
750.33	246.31
750.65	246.17
750.98	245.64
751.31	245.41
751.64	245.19
751.97	245.17
752.29	244.87
752.62	244.67
752.95	244.55
753.28	244.40
753.60	244.21
753.93	244.11
754.26	244.01
754.59	243.75
754.91	243.59
755.24	243.42
755.57	243.28
755.90	243.20
756.22	243.00
756.55	242.79
756.88	242.66
757.20	242.39
757.53	242.18
757.86	242.20
758.19	242.21
758.51	242.10
758.84	241.81
759.17	241.86
759.49	241.72
759.82	241.76
760.15	241.66
760.47	241.59
760.80	241.42
761.13	241.35
761.45	241.29
761.78	241.26
762.11	241.21
762.43	241.18
762.76	241.15
763.08	241.12
763.41	241.10
763.74	240.99
764.06	240.89
764.39	240.76
764.71	240.53
765.04	240.40
765.37	240.22
765.69	240.22
766.02	240.06
766.34	239.97
766.67	239.67
767.00	239.63
767.32	239.69
767.65	239.77
767.97	239.64
768.30	239.61
768.62	239.49
768.95	239.37
769.27	239.19
769.60	238.97
769.92	238.83
770.25	238.71
770.57	238.60
770.90	238.48
771.22	238.40
771.55	238.42
771.87	238.31
772.20	238.30
772.52	238.30
772.85	238.36
773.17	238.25
773.50	238.21
773.82	238.05
774.15	237.83
774.47	237.53
774.80	237.48
775.12	237.35
775.45	237.26
775.77	237.13
776.09	237.05
776.42	236.96
776.74	236.99
777.07	236.83
777.39	236.73
777.72	236.63
778.04	236.60
778.36	236.37
778.69	236.21
779.01	236.06
779.33	235.74
779.66	235.44
779.98	235.31
780.31	235.21
780.63	235.13
780.95	234.96
781.28	234.79
781.60	234.66
781.92	234.55
782.25	234.46
782.57	234.34
782.89	234.22
783.22	234.22
783.54	234.04
783.86	233.99
784.19	233.87
784.51	233.86
784.83	233.72
785.16	233.68
785.48	233.58
785.80	233.50
786.12	233.43
786.45	233.25
786.77	233.17
787.09	233.03
787.42	232.86
787.74	232.81
788.06	232.78
788.38	232.67
788.71	232.59
789.03	232.48
789.35	232.47
