SpectraSuite Data File
++++++++++++++++++++++++++++++++++++
Date: Fri Feb 01 14:36:44 EST 2013
User: group
Dark Spectrum Present: No
Reference Spectrum Present: No
Number of Sampled Component Spectra: 1
Spectrometers: USB2E7196
Integration Time (usec): 70000 (USB2E7196)
Spectra Averaged: 10 (USB2E7196)
Boxcar Smoothing: 10 (USB2E7196)
Correct for Electrical Dark: No (USB2E7196)
Strobe/Lamp Enabled: No (USB2E7196)
Correct for Detector Non-linearity: No (USB2E7196)
Correct for Stray Light: No (USB2E7196)
Number of Pixels in Processed Spectrum: 2048
>>>>>Begin Processed Spectral Data<<<<<
339.09	0.00
339.48	216.10
339.86	217.80
340.24	217.90
340.63	221.20
341.01	224.10
341.39	221.80
341.78	223.60
342.16	225.50
342.54	227.40
342.93	214.83
343.31	225.72
343.69	226.24
344.07	226.78
344.46	227.30
344.84	227.61
345.22	227.80
345.60	228.04
345.99	228.26
346.37	228.47
346.75	228.49
347.13	228.58
347.52	228.63
347.90	228.65
348.28	228.67
348.66	228.67
349.05	228.50
349.43	228.47
349.81	228.53
350.19	228.59
350.57	228.71
350.96	228.68
351.34	228.67
351.72	228.76
352.10	228.76
352.48	228.63
352.87	228.70
353.25	228.72
353.63	228.84
354.01	228.84
354.39	228.83
354.77	228.96
355.15	229.00
355.54	229.05
355.92	229.15
356.30	229.14
356.68	229.36
357.06	229.34
357.44	229.30
357.82	229.31
358.20	229.35
358.58	229.32
358.97	229.31
359.35	229.40
359.73	229.50
360.11	229.57
360.49	229.77
360.87	229.84
361.25	229.86
361.63	229.88
362.01	230.05
362.39	230.10
362.77	229.98
363.15	230.10
363.53	230.04
363.91	230.02
364.29	230.06
364.67	229.84
365.05	229.92
365.43	230.00
365.81	230.10
366.19	230.06
366.57	230.14
366.95	230.12
367.33	230.10
367.71	230.06
368.09	230.09
368.47	229.94
368.85	229.91
369.23	230.05
369.61	229.99
369.99	229.92
370.37	229.81
370.75	229.80
371.13	229.68
371.51	229.61
371.89	229.57
372.27	229.49
372.65	229.45
373.03	229.54
373.41	229.39
373.78	229.22
374.16	229.12
374.54	228.89
374.92	228.70
375.30	228.56
375.68	228.33
376.06	228.16
376.44	228.21
376.82	228.07
377.19	227.88
377.57	227.84
377.95	227.68
378.33	227.62
378.71	227.60
379.09	227.55
379.47	227.56
379.84	227.50
380.22	227.34
380.60	227.29
380.98	227.10
381.36	227.00
381.73	227.00
382.11	226.97
382.49	226.93
382.87	226.93
383.25	226.90
383.62	227.18
384.00	227.18
384.38	227.09
384.76	227.13
385.13	227.16
385.51	227.06
385.89	226.94
386.27	226.89
386.64	226.83
387.02	226.70
387.40	226.65
387.78	226.67
388.15	226.76
388.53	226.70
388.91	226.72
389.29	226.79
389.66	226.78
390.04	226.71
390.42	226.80
390.79	226.84
391.17	226.85
391.55	226.59
391.92	226.50
392.30	226.58
392.68	226.57
393.05	226.63
393.43	226.69
393.81	226.78
394.18	226.88
394.56	226.92
394.94	227.08
395.31	227.08
395.69	227.13
396.06	227.19
396.44	227.29
396.82	227.29
397.19	227.42
397.57	227.46
397.95	227.53
398.32	227.48
398.70	227.61
399.07	227.79
399.45	227.98
399.82	228.18
400.20	228.22
400.58	228.20
400.95	228.27
401.33	228.45
401.70	228.68
402.08	228.75
402.45	228.92
402.83	229.01
403.20	229.17
403.58	229.26
403.95	229.48
404.33	229.72
404.71	229.93
405.08	230.27
405.46	230.60
405.83	230.95
406.21	231.21
406.58	231.49
406.96	231.78
407.33	232.03
407.70	232.34
408.08	232.82
408.45	233.28
408.83	233.75
409.20	234.03
409.58	234.37
409.95	234.78
410.33	235.23
410.70	235.57
411.08	236.18
411.45	236.82
411.82	237.38
412.20	237.99
412.57	238.78
412.95	239.26
413.32	239.99
413.69	240.67
414.07	241.50
414.44	242.28
414.82	243.16
415.19	244.21
415.56	245.12
415.94	246.05
416.31	247.29
416.68	248.32
417.06	249.65
417.43	250.93
417.81	252.46
418.18	253.98
418.55	255.69
418.93	257.21
419.30	258.80
419.67	260.57
420.04	262.44
420.42	264.30
420.79	266.59
421.16	268.89
421.54	271.40
421.91	273.83
422.28	276.40
422.66	279.03
423.03	281.70
423.40	284.54
423.77	287.47
424.15	290.33
424.52	293.43
424.89	296.89
425.26	300.13
425.64	303.13
426.01	306.40
426.38	310.00
426.75	313.64
427.13	317.38
427.50	321.21
427.87	325.16
428.24	329.20
428.61	333.00
428.99	336.94
429.36	341.36
429.73	345.90
430.10	350.27
430.47	354.88
430.85	359.48
431.22	364.46
431.59	369.82
431.96	374.84
432.33	380.43
432.70	385.64
433.08	392.04
433.45	398.04
433.82	404.01
434.19	410.42
434.56	416.84
434.93	423.01
435.30	429.23
435.68	436.00
436.05	442.62
436.42	449.34
436.79	455.41
437.16	461.89
437.53	468.66
437.90	475.44
438.27	481.95
438.64	488.90
439.01	495.20
439.38	500.83
439.75	506.27
440.13	512.60
440.50	518.80
440.87	523.54
441.24	528.54
441.61	534.27
441.98	538.65
442.35	543.44
442.72	548.64
443.09	553.60
443.46	556.74
443.83	558.93
444.20	560.84
444.57	563.86
444.94	565.40
445.31	567.09
445.68	568.67
446.05	570.01
446.42	569.95
446.79	569.99
447.16	569.80
447.53	570.04
447.90	568.28
448.27	566.40
448.64	563.65
449.01	562.16
449.37	558.36
449.74	554.65
450.11	550.32
450.48	545.10
450.85	539.85
451.22	535.60
451.59	531.50
451.96	527.62
452.33	522.18
452.70	517.17
453.07	511.04
453.43	505.00
453.80	498.93
454.17	493.19
454.54	487.65
454.91	481.73
455.28	475.94
455.65	470.47
456.02	465.09
456.38	460.38
456.75	454.34
457.12	449.54
457.49	444.77
457.86	440.10
458.23	436.14
458.59	431.55
458.96	426.87
459.33	422.75
459.70	418.56
460.07	415.10
460.43	411.38
460.80	407.83
461.17	404.60
461.54	401.02
461.91	397.88
462.27	394.61
462.64	391.78
463.01	388.64
463.38	385.53
463.74	382.25
464.11	379.59
464.48	377.11
464.85	374.38
465.21	372.30
465.58	370.11
465.95	367.46
466.32	365.46
466.68	363.35
467.05	361.31
467.42	359.21
467.78	356.96
468.15	354.80
468.52	353.07
468.88	351.03
469.25	349.23
469.62	347.56
469.98	345.82
470.35	344.14
470.72	342.56
471.08	340.95
471.45	339.58
471.82	338.14
472.18	336.60
472.55	335.38
472.92	334.01
473.28	332.66
473.65	331.37
474.02	330.10
474.38	328.97
474.75	327.98
475.11	326.98
475.48	326.22
475.85	325.46
476.21	324.80
476.58	324.14
476.94	323.57
477.31	322.93
477.67	322.34
478.04	321.89
478.41	321.65
478.77	321.38
479.14	320.93
479.50	320.59
479.87	320.34
480.23	320.30
480.60	319.92
480.96	319.69
481.33	319.75
481.69	319.62
482.06	319.56
482.42	319.42
482.79	319.44
483.15	319.44
483.52	319.56
483.88	319.61
484.25	319.67
484.61	319.77
484.98	320.05
485.34	320.46
485.71	320.81
486.07	320.93
486.44	321.24
486.80	321.75
487.17	322.32
487.53	322.93
487.90	323.33
488.26	323.95
488.62	324.68
488.99	325.27
489.35	325.82
489.72	326.50
490.08	327.30
490.44	328.06
490.81	328.85
491.17	329.68
491.54	330.58
491.90	331.44
492.26	332.43
492.63	333.43
492.99	334.24
493.36	335.18
493.72	336.43
494.08	337.51
494.45	338.62
494.81	339.72
495.17	340.83
495.54	341.92
495.90	343.12
496.26	344.25
496.63	345.45
496.99	346.89
497.35	348.17
497.72	349.51
498.08	350.65
498.44	352.11
498.80	353.47
499.17	354.77
499.53	356.07
499.89	357.33
500.26	358.39
500.62	359.62
500.98	361.10
501.34	362.29
501.71	363.57
502.07	364.79
502.43	365.85
502.79	366.95
503.16	368.20
503.52	369.20
503.88	370.24
504.24	371.15
504.60	372.03
504.97	373.04
505.33	373.90
505.69	375.08
506.05	375.74
506.41	376.48
506.78	376.93
507.14	377.70
507.50	378.40
507.86	379.23
508.22	379.98
508.59	380.34
508.95	380.63
509.31	381.11
509.67	381.64
510.03	382.20
510.39	382.73
510.75	383.17
511.12	383.71
511.48	384.07
511.84	384.52
512.20	384.83
512.56	385.01
512.92	385.27
513.28	385.26
513.64	385.43
514.00	385.60
514.37	385.94
514.73	386.08
515.09	386.27
515.45	386.30
515.81	386.51
516.17	386.73
516.53	387.03
516.89	387.14
517.25	387.18
517.61	387.33
517.97	387.30
518.33	387.30
518.69	387.32
519.05	387.49
519.41	387.64
519.77	387.94
520.13	388.23
520.49	388.38
520.85	388.59
521.21	388.93
521.57	389.25
521.93	389.49
522.29	389.96
522.65	390.24
523.01	390.78
523.37	390.97
523.73	391.37
524.09	391.96
524.45	392.40
524.81	392.95
525.17	393.71
525.53	394.64
525.89	395.43
526.25	396.30
526.61	397.00
526.97	397.94
527.33	398.87
527.68	399.96
528.04	401.12
528.40	402.33
528.76	403.59
529.12	405.00
529.48	406.61
529.84	407.93
530.20	409.54
530.56	411.19
530.91	413.08
531.27	414.87
531.63	416.67
531.99	418.54
532.35	420.53
532.71	422.47
533.07	424.63
533.42	426.98
533.78	429.15
534.14	431.72
534.50	434.07
534.86	436.56
535.21	439.03
535.57	441.75
535.93	444.58
536.29	447.44
536.65	450.34
537.00	453.14
537.36	456.12
537.72	459.08
538.08	462.09
538.44	465.05
538.79	468.21
539.15	471.30
539.51	474.84
539.87	478.30
540.22	481.78
540.58	485.25
540.94	488.78
541.29	492.49
541.65	496.04
542.01	499.79
542.37	503.50
542.72	507.39
543.08	511.12
543.44	514.89
543.79	518.38
544.15	522.35
544.51	526.63
544.87	530.76
545.22	534.83
545.58	539.01
545.94	543.29
546.29	547.63
546.65	551.86
547.01	555.95
547.36	560.31
547.72	564.31
548.07	568.37
548.43	572.32
548.79	576.48
549.14	580.34
549.50	584.59
549.86	588.82
550.21	593.04
550.57	597.34
550.92	601.41
551.28	605.82
551.64	609.85
551.99	613.93
552.35	618.12
552.70	622.29
553.06	626.57
553.41	630.77
553.77	635.13
554.13	639.33
554.48	643.58
554.84	647.64
555.19	652.02
555.55	656.72
555.90	660.96
556.26	665.20
556.61	669.62
556.97	673.72
557.32	678.10
557.68	682.14
558.03	686.34
558.39	690.63
558.74	694.95
559.10	699.38
559.45	703.33
559.81	707.56
560.16	711.70
560.52	715.73
560.87	720.02
561.23	723.75
561.58	728.16
561.94	732.11
562.29	735.97
562.64	739.71
563.00	743.06
563.35	747.11
563.71	751.07
564.06	755.05
564.42	759.01
564.77	762.78
565.12	766.66
565.48	770.40
565.83	774.11
566.19	777.70
566.54	781.01
566.89	784.75
567.25	788.31
567.60	792.08
567.96	795.38
568.31	798.70
568.66	801.95
569.02	804.86
569.37	808.03
569.72	811.36
570.08	814.42
570.43	817.47
570.78	820.29
571.14	823.06
571.49	825.93
571.84	828.70
572.20	831.09
572.55	833.71
572.90	836.15
573.26	838.72
573.61	840.93
573.96	843.17
574.31	844.75
574.67	846.48
575.02	848.23
575.37	850.18
575.72	851.51
576.08	853.29
576.43	854.83
576.78	856.54
577.13	858.03
577.49	859.95
577.84	861.56
578.19	863.00
578.54	864.31
578.90	865.53
579.25	866.39
579.60	867.73
579.95	868.65
580.30	869.22
580.66	869.96
581.01	870.76
581.36	871.70
581.71	873.13
582.06	874.06
582.42	874.71
582.77	875.10
583.12	875.89
583.47	876.79
583.82	877.68
584.17	877.71
584.53	878.11
584.88	878.18
585.23	878.37
585.58	878.63
585.93	878.66
586.28	878.89
586.63	879.20
586.98	879.30
587.34	879.33
587.69	879.60
588.04	879.56
588.39	879.88
588.74	879.52
589.09	879.19
589.44	878.70
589.79	878.59
590.14	878.69
590.49	878.39
590.84	877.66
591.19	877.19
591.54	876.83
591.89	875.84
592.25	875.33
592.60	874.29
592.95	873.35
593.30	872.39
593.65	871.27
594.00	870.20
594.35	869.44
594.70	868.20
595.05	867.21
595.40	866.13
595.75	864.92
596.10	863.78
596.45	862.88
596.80	862.09
597.15	860.91
597.50	859.39
597.85	858.14
598.19	857.04
598.54	855.71
598.89	854.58
599.24	853.89
599.59	852.47
599.94	851.50
600.29	850.22
600.64	849.10
600.99	847.73
601.34	846.55
601.69	844.74
602.04	843.52
602.39	841.91
602.74	840.88
603.08	839.33
603.43	838.20
603.78	836.60
604.13	834.90
604.48	833.19
604.83	831.90
605.18	830.59
605.53	828.65
605.87	826.67
606.22	824.91
606.57	823.21
606.92	821.40
607.27	819.79
607.62	818.22
607.96	816.54
608.31	814.92
608.66	812.88
609.01	810.80
609.36	808.56
609.70	806.65
610.05	804.11
610.40	802.05
610.75	799.69
611.10	797.28
611.44	794.85
611.79	792.50
612.14	790.01
612.49	787.16
612.83	784.91
613.18	782.43
613.53	779.96
613.88	777.10
614.22	774.73
614.57	771.96
614.92	769.37
615.27	766.99
615.61	764.29
615.96	761.90
616.31	759.72
616.65	757.82
617.00	755.45
617.35	753.11
617.70	750.60
618.04	747.82
618.39	745.28
618.74	742.98
619.08	740.51
619.43	737.95
619.78	735.71
620.12	733.08
620.47	730.86
620.82	728.19
621.16	725.69
621.51	723.34
621.85	720.94
622.20	718.27
622.55	715.67
622.89	713.41
623.24	710.86
623.59	708.39
623.93	705.66
624.28	703.00
624.62	700.53
624.97	697.96
625.32	695.76
625.66	693.42
626.01	690.79
626.35	688.33
626.70	685.88
627.04	683.28
627.39	680.68
627.73	678.18
628.08	675.87
628.43	673.18
628.77	670.48
629.12	667.74
629.46	665.29
629.81	662.47
630.15	659.48
630.50	656.72
630.84	653.79
631.19	651.07
631.53	648.40
631.88	645.55
632.22	642.82
632.57	640.26
632.91	637.54
633.26	634.96
633.60	632.12
633.95	629.20
634.29	626.84
634.64	624.51
634.98	621.86
635.32	619.45
635.67	617.34
636.01	614.87
636.36	612.32
636.70	609.90
637.05	607.57
637.39	605.50
637.73	603.24
638.08	601.22
638.42	598.88
638.77	596.72
639.11	594.43
639.45	592.02
639.80	589.59
640.14	587.22
640.49	585.01
640.83	582.71
641.17	580.64
641.52	577.97
641.86	575.61
642.20	573.28
642.55	570.62
642.89	568.19
643.23	565.79
643.58	563.76
643.92	561.34
644.26	558.97
644.61	556.62
644.95	554.35
645.29	551.67
645.64	549.15
645.98	546.75
646.32	544.47
646.66	542.15
647.01	539.81
647.35	537.63
647.69	535.32
648.04	533.11
648.38	530.68
648.72	528.32
649.06	525.93
649.41	523.57
649.75	521.43
650.09	518.90
650.43	516.41
650.78	513.79
651.12	511.48
651.46	509.07
651.80	506.64
652.14	504.39
652.49	502.21
652.83	500.03
653.17	497.61
653.51	495.36
653.85	493.05
654.20	490.64
654.54	488.19
654.88	485.66
655.22	483.37
655.56	481.04
655.90	478.97
656.25	476.80
656.59	474.67
656.93	472.55
657.27	470.50
657.61	468.45
657.95	466.64
658.29	464.40
658.64	462.27
658.98	460.04
659.32	457.75
659.66	455.70
660.00	453.67
660.34	451.61
660.68	449.47
661.02	447.46
661.36	445.59
661.70	443.60
662.05	441.75
662.39	439.96
662.73	438.29
663.07	436.51
663.41	434.67
663.75	432.68
664.09	430.68
664.43	428.86
664.77	427.05
665.11	425.11
665.45	423.54
665.79	421.92
666.13	420.18
666.47	418.47
666.81	416.56
667.15	414.80
667.49	413.22
667.83	411.53
668.17	409.81
668.51	408.03
668.85	406.28
669.19	404.71
669.53	403.04
669.87	401.27
670.21	399.50
670.55	397.81
670.89	396.54
671.23	395.12
671.57	393.56
671.91	391.95
672.25	390.47
672.58	388.95
672.92	387.43
673.26	386.22
673.60	384.66
673.94	383.40
674.28	381.90
674.62	380.52
674.96	379.16
675.30	377.86
675.64	376.61
675.97	375.45
676.31	374.10
676.65	372.74
676.99	371.56
677.33	370.23
677.67	369.04
678.01	367.59
678.34	366.23
678.68	364.94
679.02	363.70
679.36	362.37
679.70	361.18
680.04	359.93
680.37	358.45
680.71	357.45
681.05	356.31
681.39	355.18
681.73	353.83
682.06	352.73
682.40	351.54
682.74	350.33
683.08	349.21
683.42	347.93
683.75	346.80
684.09	345.66
684.43	344.50
684.77	343.23
685.10	342.13
685.44	341.09
685.78	339.85
686.12	338.87
686.45	337.79
686.79	336.55
687.13	335.50
687.46	334.51
687.80	333.45
688.14	332.25
688.48	331.24
688.81	330.16
689.15	329.08
689.49	328.09
689.82	327.10
690.16	326.00
690.50	325.13
690.83	324.13
691.17	322.99
691.51	322.06
691.84	321.11
692.18	320.01
692.52	318.90
692.85	318.01
693.19	317.00
693.52	316.11
693.86	315.01
694.20	314.02
694.53	313.08
694.87	312.06
695.21	311.09
695.54	310.16
695.88	309.28
696.21	308.25
696.55	307.46
696.88	306.64
697.22	305.66
697.56	304.74
697.89	303.81
698.23	303.09
698.56	302.25
698.90	301.40
699.23	300.53
699.57	299.77
699.90	299.09
700.24	298.34
700.58	297.58
700.91	296.97
701.25	296.37
701.58	295.81
701.92	295.10
702.25	294.41
702.59	293.82
702.92	293.23
703.26	292.63
703.59	291.84
703.93	291.30
704.26	290.78
704.60	290.22
704.93	289.60
705.26	288.89
705.60	288.27
705.93	287.84
706.27	287.42
706.60	286.88
706.94	286.27
707.27	285.51
707.61	284.98
707.94	284.39
708.27	283.82
708.61	283.02
708.94	282.46
709.28	282.02
709.61	281.45
709.94	281.01
710.28	280.45
710.61	280.02
710.95	279.26
711.28	278.87
711.61	278.32
711.95	277.89
712.28	277.39
712.61	276.93
712.95	276.35
713.28	275.91
713.61	275.42
713.95	274.86
714.28	274.65
714.61	274.10
714.95	273.64
715.28	272.92
715.61	272.43
715.95	272.00
716.28	271.46
716.61	270.94
716.95	270.42
717.28	270.15
717.61	269.74
717.94	269.34
718.28	268.73
718.61	268.24
718.94	267.73
719.27	267.32
719.61	266.85
719.94	266.45
720.27	265.96
720.60	265.50
720.94	265.20
721.27	264.63
721.60	264.22
721.93	263.88
722.27	263.72
722.60	263.34
722.93	262.88
723.26	262.52
723.59	262.13
723.93	261.73
724.26	261.13
724.59	260.67
724.92	260.32
725.25	260.08
725.59	259.70
725.92	259.44
726.25	259.16
726.58	258.88
726.91	258.44
727.24	258.09
727.57	257.71
727.91	257.27
728.24	257.04
728.57	256.71
728.90	256.40
729.23	256.09
729.56	255.98
729.89	255.69
730.22	255.38
730.55	255.04
730.89	254.78
731.22	254.55
731.55	254.23
731.88	253.88
732.21	253.55
732.54	253.27
732.87	253.03
733.20	252.76
733.53	252.58
733.86	252.45
734.19	252.16
734.52	252.01
734.85	251.96
735.18	251.62
735.51	251.48
735.84	251.30
736.17	251.03
736.50	250.67
736.83	250.77
737.16	250.60
737.49	250.44
737.82	250.17
738.15	249.92
738.48	249.78
738.81	249.69
739.14	249.36
739.47	249.14
739.80	248.86
740.13	248.57
740.46	248.29
740.79	248.07
741.12	247.95
741.45	247.79
741.78	247.46
742.11	247.41
742.44	247.12
742.77	246.95
743.10	246.79
743.43	246.61
743.75	246.21
744.08	246.36
744.41	246.15
744.74	245.95
745.07	245.84
745.40	245.73
745.73	245.65
746.06	245.50
746.39	245.53
746.71	245.37
747.04	245.24
747.37	245.11
747.70	244.90
748.03	244.78
748.36	244.55
748.68	244.42
749.01	244.11
749.34	243.95
749.67	243.84
750.00	243.70
750.33	243.78
750.65	243.64
750.98	243.17
751.31	243.12
751.64	243.00
751.97	243.03
752.29	242.86
752.62	242.59
752.95	242.55
753.28	242.33
753.60	242.17
753.93	242.01
754.26	241.73
754.59	241.51
754.91	241.32
755.24	241.20
755.57	241.07
755.90	240.90
756.22	240.80
756.55	240.53
756.88	240.37
757.20	239.92
757.53	239.75
757.86	239.50
758.19	239.40
758.51	239.37
758.84	239.08
759.17	238.86
759.49	238.61
759.82	238.58
760.15	238.43
760.47	238.31
760.80	238.26
761.13	238.26
761.45	238.23
761.78	238.04
762.11	237.83
762.43	237.67
762.76	237.64
763.08	237.56
763.41	237.41
763.74	237.24
764.06	237.13
764.39	236.98
764.71	237.00
765.04	236.85
765.37	236.62
765.69	236.43
766.02	236.32
766.34	236.26
766.67	235.90
767.00	235.85
767.32	235.90
767.65	235.85
767.97	235.74
768.30	235.68
768.62	235.61
768.95	235.58
769.27	235.48
769.60	235.34
769.92	235.21
770.25	235.24
770.57	235.12
770.90	235.05
771.22	234.99
771.55	234.84
771.87	234.70
772.20	234.56
772.52	234.79
772.85	235.06
773.17	235.10
773.50	235.11
773.82	235.04
774.15	234.79
774.47	234.53
774.80	234.43
775.12	234.35
775.45	234.29
775.77	234.16
776.09	234.11
776.42	234.09
776.74	234.13
777.07	233.83
777.39	233.88
777.72	233.80
778.04	233.79
778.36	233.71
778.69	233.80
779.01	233.72
779.33	233.48
779.66	233.11
779.98	233.04
780.31	233.05
780.63	233.00
780.95	232.99
781.28	233.05
781.60	232.98
781.92	232.90
782.25	232.91
782.57	232.98
782.89	233.00
783.22	232.99
783.54	232.89
783.86	232.97
784.19	232.83
784.51	232.93
784.83	232.81
785.16	232.73
785.48	232.61
785.80	232.67
786.12	232.70
786.45	232.66
786.77	232.61
787.09	232.61
787.42	232.50
787.74	232.48
788.06	232.50
788.38	232.49
788.71	232.43
789.03	232.28
789.35	232.32
789.67	232.18
789.99	232.07
790.32	232.00
790.64	232.05
790.96	232.28
791.28	232.12
791.61	232.15
791.93	232.23
792.25	232.12
792.57	232.21
792.89	232.10
793.21	232.13
793.54	232.08
793.86	231.85
794.18	231.88
