SpectraSuite Data File
++++++++++++++++++++++++++++++++++++
Date: Fri Feb 01 14:36:18 EST 2013
User: group
Dark Spectrum Present: No
Reference Spectrum Present: No
Number of Sampled Component Spectra: 1
Spectrometers: USB2E7196
Integration Time (usec): 70000 (USB2E7196)
Spectra Averaged: 10 (USB2E7196)
Boxcar Smoothing: 10 (USB2E7196)
Correct for Electrical Dark: No (USB2E7196)
Strobe/Lamp Enabled: No (USB2E7196)
Correct for Detector Non-linearity: No (USB2E7196)
Correct for Stray Light: No (USB2E7196)
Number of Pixels in Processed Spectrum: 2048
>>>>>Begin Processed Spectral Data<<<<<
339.09	0.00
339.48	217.60
339.86	217.40
340.24	218.10
340.63	221.70
341.01	225.90
341.39	222.70
341.78	223.70
342.16	226.80
342.54	227.30
342.93	214.93
343.31	225.80
343.69	226.32
344.07	226.76
344.46	227.21
344.84	227.60
345.22	227.66
345.60	227.87
345.99	228.08
346.37	228.11
346.75	228.09
347.13	228.08
347.52	228.06
347.90	228.07
348.28	228.10
348.66	227.97
349.05	227.97
349.43	228.09
349.81	228.02
350.19	228.01
350.57	228.11
350.96	228.14
351.34	228.20
351.72	228.15
352.10	228.25
352.48	228.28
352.87	228.26
353.25	228.28
353.63	228.37
354.01	228.38
354.39	228.46
354.77	228.57
355.15	228.64
355.54	228.66
355.92	228.75
356.30	228.89
356.68	229.15
357.06	229.08
357.44	229.12
357.82	229.26
358.20	229.30
358.58	229.23
358.97	229.39
359.35	229.43
359.73	229.60
360.11	229.56
360.49	229.69
360.87	229.73
361.25	229.86
361.63	229.99
362.01	230.07
362.39	230.14
362.77	230.31
363.15	230.39
363.53	230.47
363.91	230.54
364.29	230.51
364.67	230.34
365.05	230.50
365.43	230.48
365.81	230.48
366.19	230.49
366.57	230.60
366.95	230.49
367.33	230.40
367.71	230.33
368.09	230.39
368.47	230.32
368.85	230.19
369.23	230.18
369.61	230.09
369.99	230.14
370.37	230.04
370.75	230.01
371.13	229.94
371.51	229.86
371.89	229.79
372.27	229.60
372.65	229.56
373.03	229.40
373.41	229.28
373.78	229.23
374.16	229.21
374.54	229.06
374.92	228.99
375.30	228.90
375.68	228.75
376.06	228.72
376.44	228.62
376.82	228.66
377.19	228.53
377.57	228.40
377.95	228.24
378.33	228.16
378.71	227.90
379.09	227.80
379.47	227.79
379.84	227.64
380.22	227.65
380.60	227.56
380.98	227.51
381.36	227.46
381.73	227.32
382.11	227.24
382.49	227.16
382.87	227.13
383.25	227.08
383.62	227.30
384.00	227.13
384.38	227.09
384.76	227.03
385.13	227.07
385.51	227.03
385.89	226.93
386.27	226.88
386.64	226.89
387.02	226.88
387.40	226.75
387.78	226.78
388.15	226.72
388.53	226.76
388.91	226.73
389.29	226.68
389.66	226.65
390.04	226.63
390.42	226.64
390.79	226.61
391.17	226.61
391.55	226.46
391.92	226.62
392.30	226.68
392.68	226.68
393.05	226.73
393.43	226.69
393.81	226.71
394.18	226.77
394.56	226.82
394.94	226.94
395.31	226.99
395.69	227.08
396.06	227.15
396.44	227.04
396.82	227.06
397.19	227.23
397.57	227.27
397.95	227.29
398.32	227.36
398.70	227.34
399.07	227.56
399.45	227.58
399.82	227.56
400.20	227.59
400.58	227.66
400.95	227.70
401.33	227.89
401.70	228.18
402.08	228.30
402.45	228.45
402.83	228.54
403.20	228.74
403.58	228.89
403.95	229.12
404.33	229.41
404.71	229.74
405.08	230.08
405.46	230.36
405.83	230.62
406.21	230.89
406.58	231.26
406.96	231.44
407.33	231.76
407.70	232.06
408.08	232.69
408.45	233.12
408.83	233.45
409.20	233.88
409.58	234.21
409.95	234.61
410.33	235.07
410.70	235.56
411.08	236.15
411.45	236.62
411.82	237.23
412.20	237.92
412.57	238.65
412.95	239.20
413.32	239.95
413.69	240.76
414.07	241.65
414.44	242.65
414.82	243.63
415.19	244.77
415.56	246.01
415.94	247.02
416.31	248.31
416.68	249.73
417.06	251.27
417.43	252.76
417.81	254.57
418.18	256.28
418.55	258.05
418.93	259.90
419.30	261.93
419.67	263.92
420.04	265.95
420.42	268.28
420.79	270.78
421.16	273.34
421.54	276.04
421.91	278.83
422.28	281.54
422.66	284.58
423.03	287.61
423.40	290.67
423.77	294.04
424.15	297.26
424.52	300.60
424.89	304.32
425.26	307.85
425.64	311.25
426.01	314.90
426.38	318.88
426.75	322.90
427.13	326.94
427.50	331.27
427.87	335.81
428.24	340.16
428.61	344.51
428.99	349.22
429.36	354.17
429.73	359.14
430.10	364.07
430.47	369.27
430.85	374.47
431.22	379.90
431.59	385.61
431.96	391.26
432.33	397.53
432.70	403.33
433.08	410.20
433.45	416.73
433.82	423.32
434.19	430.48
434.56	437.63
434.93	444.49
435.30	451.33
435.68	458.74
436.05	466.02
436.42	473.39
436.79	480.11
437.16	487.31
437.53	494.84
437.90	502.31
438.27	509.46
438.64	516.97
439.01	524.11
439.38	530.41
439.75	536.35
440.13	543.30
440.50	549.90
440.87	555.65
441.24	561.44
441.61	567.67
441.98	572.11
442.35	577.36
442.72	582.75
443.09	588.01
443.46	591.49
443.83	594.04
444.20	596.23
444.57	599.30
444.94	601.01
445.31	602.77
445.68	604.77
446.05	606.05
446.42	605.99
446.79	605.83
447.16	605.70
447.53	606.03
447.90	604.01
448.27	602.24
448.64	598.90
449.01	597.04
449.37	592.82
449.74	588.93
450.11	584.03
450.48	578.71
450.85	573.09
451.22	568.34
451.59	564.00
451.96	559.64
452.33	553.41
452.70	548.14
453.07	541.52
453.43	534.63
453.80	527.94
454.17	521.64
454.54	515.61
454.91	509.05
455.28	502.44
455.65	496.49
456.02	490.30
456.38	485.00
456.75	478.21
457.12	472.68
457.49	467.35
457.86	462.08
458.23	457.60
458.59	452.54
458.96	447.31
459.33	442.53
459.70	437.96
460.07	434.36
460.43	429.97
460.80	425.79
461.17	422.15
461.54	418.52
461.91	415.03
462.27	411.38
462.64	408.16
463.01	404.88
463.38	401.62
463.74	398.14
464.11	395.49
464.48	392.88
464.85	390.17
465.21	387.95
465.58	385.64
465.95	382.60
466.32	380.37
466.68	378.06
467.05	375.75
467.42	373.47
467.78	370.99
468.15	368.67
468.52	367.00
468.88	364.71
469.25	362.71
469.62	360.96
469.98	359.10
470.35	357.42
470.72	355.74
471.08	353.91
471.45	352.58
471.82	350.97
472.18	349.40
472.55	348.30
472.92	346.92
473.28	345.70
473.65	344.60
474.02	343.35
474.38	342.31
474.75	341.27
475.11	340.13
475.48	339.45
475.85	338.74
476.21	338.00
476.58	337.46
476.94	336.82
477.31	336.06
477.67	335.39
478.04	334.78
478.41	334.36
478.77	334.14
479.14	333.56
479.50	333.21
479.87	333.01
480.23	332.64
480.60	332.25
480.96	331.98
481.33	331.95
481.69	331.94
482.06	331.76
482.42	331.70
482.79	331.77
483.15	331.88
483.52	332.06
483.88	332.05
484.25	332.13
484.61	332.30
484.98	332.70
485.34	333.16
485.71	333.71
486.07	334.01
486.44	334.19
486.80	334.75
487.17	335.20
487.53	335.82
487.90	336.55
488.26	337.50
488.62	338.20
488.99	338.81
489.35	339.51
489.72	340.43
490.08	341.27
490.44	341.99
490.81	342.90
491.17	343.88
491.54	345.09
491.90	346.18
492.26	347.36
492.63	348.49
492.99	349.69
493.36	350.91
493.72	352.33
494.08	353.83
494.45	355.17
494.81	356.60
495.17	358.00
495.54	359.44
495.90	360.81
496.26	362.40
496.63	364.08
496.99	365.69
497.35	367.33
497.72	369.01
498.08	370.69
498.44	372.32
498.80	373.99
499.17	375.52
499.53	377.26
499.89	378.82
500.26	380.46
500.62	382.23
500.98	383.75
501.34	385.27
501.71	386.87
502.07	388.53
502.43	390.20
502.79	391.60
503.16	393.07
503.52	394.56
503.88	395.82
504.24	397.30
504.60	398.76
504.97	400.25
505.33	401.68
505.69	403.22
506.05	404.52
506.41	405.71
506.78	407.05
507.14	408.16
507.50	409.54
507.86	410.76
508.22	411.86
508.59	413.02
508.95	414.26
509.31	415.30
509.67	416.30
510.03	417.20
510.39	418.32
510.75	419.33
511.12	420.14
511.48	421.05
511.84	421.69
512.20	422.55
512.56	423.30
512.92	423.99
513.28	424.50
513.64	425.07
514.00	425.80
514.37	426.41
514.73	426.97
515.09	427.20
515.45	427.54
515.81	427.89
516.17	428.22
516.53	428.54
516.89	428.82
517.25	429.05
517.61	429.45
517.97	429.59
518.33	429.73
518.69	430.10
519.05	430.53
519.41	430.81
519.77	431.08
520.13	431.40
520.49	431.67
520.85	432.07
521.21	432.43
521.57	432.64
521.93	432.74
522.29	433.16
522.65	433.51
523.01	434.07
523.37	434.35
523.73	434.94
524.09	435.28
524.45	435.84
524.81	436.53
525.17	437.06
525.53	437.90
525.89	438.64
526.25	439.40
526.61	439.92
526.97	440.77
527.33	441.51
527.68	442.50
528.04	443.50
528.40	444.42
528.76	445.55
529.12	446.79
529.48	448.12
529.84	449.35
530.20	450.68
530.56	452.14
530.91	453.83
531.27	455.42
531.63	457.15
531.99	458.74
532.35	460.51
532.71	462.31
533.07	464.17
533.42	466.28
533.78	468.05
534.14	470.20
534.50	472.25
534.86	474.35
535.21	476.33
535.57	478.63
535.93	480.97
536.29	483.35
536.65	485.94
537.00	488.51
537.36	491.20
537.72	494.13
538.08	496.79
538.44	499.35
538.79	502.25
539.15	505.22
539.51	508.20
539.87	511.31
540.22	514.44
540.58	517.72
540.94	520.81
541.29	524.15
541.65	527.47
542.01	531.30
542.37	534.73
542.72	537.94
543.08	541.44
543.44	545.14
543.79	548.56
544.15	552.16
544.51	556.01
544.87	559.56
545.22	563.39
545.58	567.10
545.94	570.72
546.29	574.36
546.65	578.16
547.01	582.02
547.36	585.74
547.72	589.52
548.07	593.22
548.43	596.92
548.79	600.86
549.14	604.80
549.50	608.36
549.86	612.34
550.21	616.40
550.57	620.38
550.92	624.19
551.28	628.34
551.64	632.26
551.99	636.06
552.35	640.14
552.70	643.93
553.06	648.00
553.41	652.21
553.77	656.39
554.13	660.40
554.48	664.29
554.84	668.37
555.19	672.22
555.55	676.19
555.90	680.26
556.26	684.27
556.61	688.11
556.97	692.05
557.32	696.06
557.68	700.19
558.03	704.20
558.39	708.16
558.74	712.32
559.10	716.26
559.45	720.51
559.81	724.68
560.16	728.56
560.52	732.28
560.87	736.44
561.23	740.14
561.58	743.84
561.94	747.86
562.29	751.61
562.64	755.54
563.00	759.20
563.35	763.18
563.71	766.99
564.06	770.80
564.42	774.61
564.77	778.18
565.12	781.82
565.48	785.63
565.83	789.22
566.19	792.64
566.54	796.09
566.89	799.22
567.25	802.38
567.60	805.81
567.96	809.16
568.31	812.19
568.66	815.39
569.02	818.44
569.37	821.10
569.72	823.86
570.08	826.63
570.43	829.68
570.78	831.97
571.14	834.51
571.49	837.08
571.84	839.88
572.20	842.42
572.55	844.69
572.90	846.51
573.26	848.95
573.61	850.90
573.96	852.80
574.31	854.46
574.67	856.04
575.02	857.47
575.37	859.24
575.72	860.70
576.08	862.19
576.43	863.65
576.78	865.26
577.13	866.87
577.49	868.41
577.84	869.70
578.19	871.25
578.54	872.45
578.90	873.40
579.25	873.70
579.60	874.61
579.95	875.40
580.30	875.97
580.66	876.33
581.01	876.89
581.36	877.54
581.71	878.26
582.06	879.12
582.42	879.72
582.77	880.02
583.12	880.47
583.47	880.92
583.82	881.20
584.17	881.48
584.53	881.70
584.88	881.74
585.23	881.39
585.58	881.09
585.93	880.94
586.28	881.16
586.63	881.26
586.98	881.30
587.34	881.34
587.69	881.40
588.04	881.45
588.39	881.40
588.74	880.96
589.09	880.78
589.44	880.10
589.79	879.95
590.14	879.85
590.49	879.31
590.84	878.75
591.19	878.39
591.54	877.37
591.89	876.25
592.25	875.50
592.60	874.55
592.95	873.94
593.30	872.91
593.65	871.67
594.00	870.65
594.35	869.82
594.70	868.52
595.05	867.33
595.40	865.96
595.75	864.64
596.10	863.65
596.45	862.33
596.80	861.37
597.15	859.97
597.50	858.41
597.85	857.32
598.19	856.08
598.54	854.87
598.89	853.86
599.24	852.80
599.59	851.39
599.94	850.34
600.29	848.95
600.64	847.60
600.99	846.04
601.34	844.80
601.69	842.94
602.04	841.40
602.39	839.99
602.74	838.73
603.08	837.40
603.43	835.87
603.78	834.50
604.13	832.71
604.48	831.08
604.83	829.19
605.18	827.34
605.53	825.25
605.87	823.20
606.22	821.42
606.57	819.50
606.92	817.83
607.27	816.29
607.62	814.70
607.96	813.14
608.31	811.62
608.66	809.33
609.01	807.00
609.36	804.75
609.70	802.53
610.05	800.06
610.40	798.02
610.75	795.87
611.10	793.51
611.44	790.98
611.79	788.61
612.14	786.51
612.49	783.88
612.83	781.37
613.18	778.91
613.53	776.52
613.88	773.99
614.22	771.35
614.57	768.36
614.92	765.41
615.27	762.78
615.61	759.82
615.96	757.47
616.31	755.26
616.65	753.19
617.00	750.87
617.35	748.49
617.70	745.83
618.04	742.88
618.39	740.24
618.74	737.95
619.08	735.67
619.43	732.93
619.78	730.70
620.12	728.39
620.47	725.94
620.82	723.19
621.16	720.48
621.51	718.24
621.85	715.83
622.20	713.30
622.55	710.55
622.89	708.44
623.24	706.05
623.59	703.65
623.93	701.14
624.28	698.69
624.62	696.21
624.97	693.76
625.32	691.48
625.66	689.12
626.01	686.86
626.35	683.90
626.70	681.62
627.04	679.21
627.39	676.42
627.73	673.76
628.08	671.30
628.43	668.83
628.77	666.07
629.12	663.46
629.46	660.95
629.81	658.38
630.15	655.77
630.50	652.96
630.84	649.98
631.19	647.21
631.53	644.51
631.88	641.49
632.22	638.35
632.57	635.65
632.91	632.76
633.26	629.88
633.60	627.09
633.95	624.28
634.29	621.50
634.64	619.30
634.98	616.55
635.32	614.04
635.67	611.91
636.01	609.34
636.36	606.97
636.70	604.70
637.05	602.24
637.39	599.76
637.73	597.51
638.08	595.40
638.42	593.23
638.77	590.84
639.11	588.77
639.45	586.51
639.80	584.17
640.14	581.85
640.49	579.43
640.83	577.51
641.17	575.14
641.52	572.79
641.86	570.50
642.20	568.37
642.55	566.10
642.89	563.55
643.23	561.13
643.58	559.10
643.92	556.59
644.26	554.32
644.61	552.15
644.95	549.62
645.29	546.96
645.64	544.40
645.98	541.98
646.32	539.62
646.66	537.33
647.01	535.13
647.35	532.90
647.69	530.82
648.04	528.55
648.38	526.27
648.72	523.74
649.06	521.08
649.41	518.83
649.75	516.40
650.09	514.10
650.43	511.93
650.78	509.20
651.12	506.85
651.46	504.41
651.80	501.96
652.14	499.76
652.49	497.63
652.83	495.43
653.17	493.19
653.51	490.95
653.85	488.77
654.20	486.20
654.54	483.99
654.88	481.31
655.22	478.91
655.56	476.71
655.90	474.63
656.25	472.67
656.59	470.40
656.93	468.40
657.27	466.21
657.61	463.97
657.95	462.03
658.29	459.89
658.64	457.87
658.98	455.79
659.32	453.71
659.66	451.63
660.00	449.53
660.34	447.36
660.68	445.07
661.02	442.96
661.36	441.25
661.70	439.20
662.05	437.58
662.39	435.81
662.73	433.98
663.07	432.26
663.41	430.42
663.75	428.63
664.09	426.62
664.43	424.89
664.77	423.19
665.11	421.28
665.45	419.37
665.79	417.73
666.13	415.84
666.47	414.11
666.81	412.38
667.15	410.52
667.49	408.89
667.83	407.47
668.17	405.81
668.51	404.17
668.85	402.58
669.19	401.04
669.53	399.28
669.87	397.68
670.21	396.06
670.55	394.45
670.89	393.04
671.23	391.72
671.57	390.12
671.91	388.61
672.25	387.21
672.58	385.99
672.92	384.49
673.26	383.13
673.60	381.70
673.94	380.34
674.28	379.21
674.62	378.05
674.96	376.78
675.30	375.53
675.64	374.15
675.97	372.77
676.31	371.39
676.65	370.14
676.99	368.98
677.33	367.64
677.67	366.23
678.01	364.86
678.34	363.55
678.68	362.35
679.02	360.98
679.36	359.67
679.70	358.41
680.04	357.11
680.37	355.80
680.71	354.57
681.05	353.48
681.39	352.29
681.73	351.13
682.06	349.97
682.40	348.89
682.74	347.73
683.08	346.60
683.42	345.45
683.75	344.31
684.09	343.09
684.43	341.94
684.77	340.97
685.10	339.85
685.44	338.75
685.78	337.75
686.12	336.77
686.45	335.78
686.79	334.79
687.13	333.93
687.46	333.10
687.80	332.10
688.14	330.96
688.48	329.95
688.81	328.76
689.15	327.78
689.49	326.70
689.82	325.80
690.16	324.80
690.50	323.77
690.83	322.82
691.17	321.88
691.51	321.00
691.84	320.10
692.18	319.20
692.52	318.30
692.85	317.41
693.19	316.58
693.52	315.57
693.86	314.58
694.20	313.62
694.53	312.60
694.87	311.69
695.21	310.93
695.54	310.14
695.88	309.28
696.21	308.28
696.55	307.43
696.88	306.51
697.22	305.75
697.56	305.00
697.89	304.25
698.23	303.40
698.56	302.56
698.90	301.66
699.23	300.75
699.57	299.89
699.90	298.97
700.24	298.09
700.58	297.41
700.91	296.69
701.25	296.13
701.58	295.50
701.92	294.88
702.25	294.12
702.59	293.33
702.92	292.70
703.26	292.17
703.59	291.51
703.93	290.95
704.26	290.36
704.60	289.61
704.93	288.96
705.26	288.34
705.60	287.80
705.93	287.37
706.27	286.97
706.60	286.39
706.94	285.86
707.27	285.26
707.61	284.59
707.94	284.16
708.27	283.44
708.61	282.67
708.94	282.04
709.28	281.41
709.61	280.84
709.94	280.40
710.28	279.83
710.61	279.38
710.95	278.81
711.28	278.26
711.61	277.82
711.95	277.20
712.28	276.58
712.61	276.02
712.95	275.47
713.28	274.92
713.61	274.47
713.95	273.91
714.28	273.37
714.61	272.86
714.95	272.10
715.28	271.52
715.61	271.15
715.95	270.74
716.28	270.38
716.61	269.92
716.95	269.39
717.28	268.99
717.61	268.44
717.94	267.90
718.28	267.34
718.61	266.85
718.94	266.61
719.27	266.32
719.61	265.93
719.94	265.44
720.27	265.00
720.60	264.58
720.94	264.18
721.27	263.91
721.60	263.56
721.93	263.29
722.27	263.05
722.60	262.70
722.93	262.35
723.26	262.00
723.59	261.60
723.93	261.30
724.26	260.85
724.59	260.50
724.92	260.30
725.25	260.10
725.59	259.79
725.92	259.47
726.25	259.03
726.58	258.68
726.91	258.45
727.24	258.20
727.57	257.83
727.91	257.55
728.24	257.20
728.57	256.97
728.90	256.73
729.23	256.40
729.56	256.22
729.89	255.84
730.22	255.54
730.55	255.33
730.89	255.02
731.22	254.85
731.55	254.55
731.88	254.20
732.21	253.82
732.54	253.53
732.87	253.16
733.20	252.94
733.53	252.71
733.86	252.43
734.19	252.20
734.52	252.11
734.85	252.07
735.18	251.88
735.51	251.68
735.84	251.41
736.17	251.11
736.50	250.75
736.83	250.77
737.16	250.53
737.49	250.25
737.82	250.04
738.15	249.81
738.48	249.63
738.81	249.49
739.14	249.31
739.47	249.10
739.80	248.94
740.13	248.86
740.46	248.67
740.79	248.48
741.12	248.22
741.45	248.00
741.78	247.68
742.11	247.55
742.44	247.33
742.77	247.08
743.10	246.95
743.43	246.78
743.75	246.40
744.08	246.50
744.41	246.30
744.74	246.19
745.07	245.94
745.40	245.83
745.73	245.64
746.06	245.46
746.39	245.28
746.71	245.01
747.04	244.70
747.37	244.56
747.70	244.35
748.03	244.11
748.36	243.82
748.68	243.61
749.01	243.39
749.34	243.15
749.67	243.01
750.00	242.85
750.33	242.78
750.65	242.59
750.98	242.05
751.31	241.92
751.64	241.68
751.97	241.60
752.29	241.32
752.62	241.11
752.95	241.00
753.28	240.86
753.60	240.79
753.93	240.71
754.26	240.52
754.59	240.32
754.91	240.13
755.24	239.97
755.57	239.84
755.90	239.67
756.22	239.57
756.55	239.41
756.88	239.30
757.20	239.01
757.53	238.94
757.86	238.87
758.19	238.86
758.51	238.74
758.84	238.52
759.17	238.47
759.49	238.33
759.82	238.22
760.15	238.11
760.47	237.91
760.80	237.81
761.13	237.67
761.45	237.50
761.78	237.34
762.11	237.23
762.43	237.02
762.76	236.82
763.08	236.72
763.41	236.69
763.74	236.51
764.06	236.40
764.39	236.28
764.71	236.24
765.04	236.03
765.37	235.83
765.69	235.73
766.02	235.66
766.34	235.59
766.67	235.44
767.00	235.34
767.32	235.43
767.65	235.40
767.97	235.35
768.30	235.37
768.62	235.40
768.95	235.41
769.27	235.38
769.60	235.46
769.92	235.48
770.25	235.37
770.57	235.34
770.90	235.26
771.22	235.22
771.55	235.02
771.87	234.89
772.20	234.84
772.52	234.97
772.85	235.13
773.17	235.11
773.50	235.00
773.82	235.06
774.15	234.86
774.47	234.68
774.80	234.59
775.12	234.45
775.45	234.30
775.77	234.22
776.09	234.18
776.42	234.01
776.74	233.93
777.07	233.80
777.39	233.74
777.72	233.80
778.04	233.70
778.36	233.71
778.69	233.76
779.01	233.79
779.33	233.51
779.66	233.25
779.98	233.09
780.31	233.04
780.63	232.93
780.95	232.97
781.28	232.88
781.60	232.82
781.92	232.84
782.25	232.92
782.57	232.87
782.89	232.79
783.22	232.78
783.54	232.73
783.86	232.65
784.19	232.58
784.51	232.49
784.83	232.48
785.16	232.45
785.48	232.37
785.80	232.29
786.12	232.30
786.45	232.14
786.77	232.16
787.09	232.13
787.42	232.16
787.74	232.06
788.06	232.10
788.38	232.06
788.71	232.00
789.03	231.92
789.35	231.89
789.67	231.83
789.99	231.83
790.32	231.69
790.64	231.78
790.96	231.90
791.28	231.85
791.61	231.79
791.93	231.75
792.25	231.67
792.57	231.79
792.89	231.62
793.21	231.69
793.54	231.78
793.86	231.71
794.18	231.58
