SpectraSuite Data File
++++++++++++++++++++++++++++++++++++
Date: Fri Feb 01 14:35:34 EST 2013
User: group
Dark Spectrum Present: No
Reference Spectrum Present: No
Number of Sampled Component Spectra: 1
Spectrometers: USB2E7196
Integration Time (usec): 70000 (USB2E7196)
Spectra Averaged: 10 (USB2E7196)
Boxcar Smoothing: 10 (USB2E7196)
Correct for Electrical Dark: No (USB2E7196)
Strobe/Lamp Enabled: No (USB2E7196)
Correct for Detector Non-linearity: No (USB2E7196)
Correct for Stray Light: No (USB2E7196)
Number of Pixels in Processed Spectrum: 2048
>>>>>Begin Processed Spectral Data<<<<<
339.09	0.00
339.48	215.80
339.86	216.60
340.24	218.90
340.63	220.70
341.01	224.50
341.39	223.80
341.78	224.80
342.16	224.30
342.54	226.30
342.93	214.17
343.31	224.98
343.69	225.50
344.07	226.02
344.46	226.41
344.84	226.70
345.22	226.88
345.60	227.06
345.99	227.26
346.37	227.42
346.75	227.49
347.13	227.56
347.52	227.65
347.90	227.80
348.28	227.76
348.66	227.76
349.05	227.73
349.43	227.76
349.81	227.73
350.19	227.73
350.57	227.78
350.96	228.01
351.34	228.11
351.72	228.22
352.10	228.26
352.48	228.26
352.87	228.37
353.25	228.41
353.63	228.49
354.01	228.57
354.39	228.66
354.77	228.76
355.15	228.95
355.54	229.05
355.92	229.03
356.30	229.03
356.68	229.26
357.06	229.38
357.44	229.35
357.82	229.47
358.20	229.65
358.58	229.67
358.97	229.62
359.35	229.77
359.73	229.90
360.11	229.95
360.49	230.10
360.87	230.14
361.25	230.25
361.63	230.34
362.01	230.37
362.39	230.34
362.77	230.34
363.15	230.32
363.53	230.31
363.91	230.40
364.29	230.50
364.67	230.37
365.05	230.37
365.43	230.40
365.81	230.49
366.19	230.65
366.57	230.79
366.95	230.90
367.33	230.72
367.71	230.69
368.09	230.78
368.47	230.67
368.85	230.71
369.23	230.62
369.61	230.55
369.99	230.53
370.37	230.55
370.75	230.50
371.13	230.52
371.51	230.47
371.89	230.37
372.27	230.33
372.65	230.30
373.03	230.26
373.41	230.27
373.78	230.10
374.16	229.91
374.54	229.71
374.92	229.58
375.30	229.64
375.68	229.56
376.06	229.56
376.44	229.65
376.82	229.55
377.19	229.56
377.57	229.46
377.95	229.30
378.33	229.30
378.71	229.22
379.09	229.04
379.47	229.00
379.84	228.93
380.22	228.77
380.60	228.65
380.98	228.52
381.36	228.51
381.73	228.44
382.11	228.35
382.49	228.28
382.87	228.19
383.25	228.05
383.62	228.18
384.00	227.98
384.38	227.91
384.76	227.92
385.13	227.96
385.51	227.92
385.89	227.87
386.27	227.81
386.64	227.80
387.02	227.84
387.40	227.85
387.78	227.83
388.15	227.90
388.53	227.80
388.91	227.91
389.29	227.80
389.66	227.76
390.04	227.73
390.42	227.78
390.79	227.79
391.17	227.77
391.55	227.52
391.92	227.51
392.30	227.54
392.68	227.45
393.05	227.42
393.43	227.41
393.81	227.49
394.18	227.49
394.56	227.54
394.94	227.54
395.31	227.63
395.69	227.76
396.06	227.75
396.44	227.89
396.82	227.92
397.19	228.00
397.57	228.10
397.95	228.18
398.32	228.20
398.70	228.29
399.07	228.41
399.45	228.58
399.82	228.71
400.20	228.66
400.58	228.73
400.95	228.71
401.33	228.89
401.70	229.21
402.08	229.31
402.45	229.34
402.83	229.62
403.20	229.75
403.58	229.92
403.95	230.15
404.33	230.36
404.71	230.49
405.08	230.96
405.46	231.20
405.83	231.46
406.21	231.75
406.58	232.00
406.96	232.31
407.33	232.71
407.70	233.09
408.08	233.67
408.45	234.27
408.83	234.84
409.20	235.37
409.58	235.75
409.95	236.29
410.33	236.92
410.70	237.48
411.08	238.03
411.45	238.64
411.82	239.50
412.20	240.38
412.57	241.33
412.95	241.97
413.32	242.91
413.69	243.96
414.07	245.11
414.44	246.22
414.82	247.47
415.19	248.66
415.56	250.03
415.94	251.41
416.31	252.83
416.68	254.35
417.06	256.03
417.43	257.63
417.81	259.69
418.18	261.66
418.55	263.76
418.93	266.07
419.30	268.48
419.67	270.80
420.04	273.06
420.42	275.74
420.79	278.80
421.16	281.73
421.54	284.70
421.91	287.83
422.28	291.27
422.66	294.88
423.03	298.38
423.40	301.88
423.77	305.59
424.15	309.53
424.52	313.52
424.89	317.85
425.26	321.99
425.64	326.03
426.01	330.40
426.38	335.05
426.75	339.61
427.13	344.25
427.50	349.30
427.87	354.91
428.24	360.16
428.61	365.22
428.99	370.84
429.36	377.13
429.73	383.09
430.10	388.85
430.47	394.67
430.85	400.82
431.22	407.30
431.59	414.32
431.96	421.02
432.33	428.30
432.70	435.41
433.08	443.90
433.45	451.66
433.82	459.47
434.19	467.86
434.56	476.32
434.93	484.39
435.30	492.36
435.68	501.16
436.05	509.90
436.42	518.43
436.79	526.48
437.16	534.93
437.53	543.93
437.90	552.91
438.27	561.63
438.64	570.64
439.01	579.27
439.38	586.71
439.75	594.05
440.13	602.39
440.50	610.15
440.87	616.85
441.24	623.53
441.61	631.42
441.98	637.14
442.35	643.84
442.72	650.53
443.09	657.30
443.46	661.32
443.83	664.28
444.20	667.10
444.57	670.70
444.94	672.70
445.31	675.02
445.68	677.10
446.05	678.73
446.42	678.94
446.79	678.70
447.16	678.62
447.53	678.73
447.90	676.68
448.27	674.50
448.64	670.47
449.01	668.43
449.37	663.36
449.74	658.60
450.11	652.49
450.48	646.04
450.85	639.00
451.22	633.33
451.59	627.93
451.96	622.92
452.33	615.59
452.70	609.10
453.07	600.97
453.43	593.01
453.80	585.21
454.17	577.60
454.54	570.39
454.91	562.41
455.28	554.72
455.65	547.46
456.02	540.22
456.38	534.18
456.75	526.11
457.12	519.54
457.49	513.00
457.86	506.95
458.23	501.59
458.59	495.68
458.96	489.62
459.33	484.10
459.70	478.58
460.07	474.35
460.43	469.37
460.80	464.37
461.17	460.06
461.54	455.52
461.91	451.33
462.27	446.87
462.64	443.38
463.01	439.30
463.38	435.18
463.74	431.22
464.11	427.71
464.48	424.60
464.85	421.12
465.21	418.57
465.58	415.77
465.95	412.31
466.32	409.68
466.68	406.98
467.05	404.35
467.42	401.60
467.78	398.81
468.15	396.07
468.52	394.21
468.88	391.62
469.25	389.31
469.62	387.30
469.98	385.45
470.35	383.42
470.72	381.60
471.08	379.81
471.45	378.21
471.82	376.37
472.18	374.65
472.55	373.10
472.92	371.50
473.28	369.93
473.65	368.68
474.02	367.18
474.38	365.91
474.75	364.85
475.11	363.71
475.48	362.71
475.85	361.92
476.21	361.00
476.58	360.16
476.94	359.39
477.31	358.64
477.67	357.95
478.04	357.32
478.41	356.72
478.77	356.40
479.14	355.73
479.50	355.51
479.87	355.33
480.23	355.46
480.60	355.12
480.96	354.88
481.33	354.93
481.69	355.05
482.06	354.99
482.42	354.91
482.79	354.95
483.15	355.14
483.52	355.31
483.88	355.67
484.25	355.98
484.61	356.56
484.98	357.03
485.34	357.65
485.71	358.45
486.07	359.32
486.44	359.80
486.80	360.70
487.17	361.53
487.53	362.51
487.90	363.35
488.26	364.58
488.62	365.80
488.99	366.79
489.35	367.80
489.72	369.05
490.08	370.58
490.44	371.82
490.81	373.25
491.17	374.79
491.54	376.51
491.90	378.12
492.26	379.72
492.63	381.55
492.99	383.33
493.36	385.12
493.72	386.96
494.08	389.04
494.45	391.07
494.81	393.11
495.17	395.09
495.54	397.41
495.90	399.68
496.26	401.83
496.63	404.22
496.99	406.76
497.35	409.32
497.72	411.66
498.08	414.18
498.44	416.76
498.80	419.42
499.17	421.83
499.53	424.40
499.89	426.94
500.26	429.38
500.62	432.02
500.98	434.60
501.34	437.23
501.71	439.71
502.07	442.33
502.43	445.08
502.79	447.65
503.16	449.95
503.52	452.27
503.88	454.67
504.24	457.05
504.60	459.41
504.97	461.82
505.33	464.11
505.69	466.63
506.05	469.05
506.41	471.05
506.78	473.30
507.14	475.46
507.50	477.70
507.86	479.96
508.22	482.06
508.59	484.00
508.95	485.96
509.31	488.14
509.67	490.08
510.03	491.91
510.39	493.86
510.75	495.88
511.12	497.66
511.48	499.42
511.84	501.06
512.20	502.89
512.56	504.52
512.92	506.22
513.28	507.64
513.64	508.93
514.00	510.59
514.37	511.88
514.73	513.34
515.09	514.60
515.45	515.67
515.81	516.67
516.17	517.95
516.53	518.98
516.89	519.90
517.25	520.92
517.61	521.80
517.97	522.74
518.33	523.35
518.69	524.34
519.05	525.30
519.41	526.22
519.77	527.05
520.13	527.87
520.49	528.42
520.85	529.29
521.21	530.16
521.57	530.83
521.93	531.54
522.29	532.28
522.65	533.05
523.01	533.87
523.37	534.49
523.73	535.20
524.09	535.96
524.45	536.72
524.81	537.70
525.17	538.74
525.53	539.68
525.89	540.76
526.25	541.62
526.61	542.64
526.97	543.73
527.33	544.62
527.68	545.62
528.04	546.73
528.40	547.81
528.76	549.02
529.12	550.36
529.48	551.84
529.84	553.10
530.20	554.40
530.56	555.96
530.91	557.89
531.27	559.57
531.63	561.19
531.99	563.01
532.35	564.58
532.71	566.17
533.07	568.00
533.42	570.00
533.78	571.96
534.14	573.90
534.50	575.48
534.86	577.64
535.21	579.76
535.57	582.14
535.93	584.33
536.29	586.71
536.65	588.98
537.00	591.15
537.36	593.69
537.72	596.17
538.08	598.36
538.44	600.54
538.79	602.88
539.15	605.53
539.51	608.06
539.87	610.69
540.22	613.41
540.58	616.35
540.94	619.06
541.29	621.80
541.65	624.58
542.01	627.99
542.37	630.86
542.72	633.70
543.08	636.70
543.44	639.94
543.79	642.55
544.15	645.87
544.51	649.30
544.87	652.53
545.22	656.06
545.58	659.42
545.94	662.64
546.29	666.11
546.65	669.42
547.01	672.61
547.36	675.93
547.72	679.28
548.07	682.36
548.43	685.59
548.79	689.06
549.14	692.21
549.50	695.25
549.86	698.64
550.21	702.12
550.57	705.61
550.92	709.00
551.28	712.64
551.64	715.88
551.99	719.15
552.35	722.37
552.70	725.59
553.06	729.21
553.41	732.89
553.77	736.28
554.13	739.70
554.48	743.40
554.84	747.07
555.19	750.54
555.55	754.03
555.90	757.44
556.26	760.82
556.61	764.46
556.97	767.77
557.32	771.32
557.68	774.75
558.03	777.88
558.39	781.02
558.74	784.71
559.10	787.96
559.45	791.29
559.81	794.89
560.16	798.30
560.52	801.48
560.87	804.91
561.23	808.24
561.58	811.86
561.94	814.92
562.29	817.84
562.64	820.85
563.00	824.04
563.35	827.79
563.71	831.23
564.06	834.49
564.42	837.83
564.77	840.94
565.12	844.22
565.48	847.69
565.83	850.91
566.19	853.81
566.54	856.60
566.89	859.45
567.25	862.38
567.60	865.26
567.96	868.15
568.31	870.72
568.66	873.50
569.02	875.55
569.37	878.29
569.72	881.05
570.08	883.48
570.43	885.93
570.78	887.81
571.14	889.85
571.49	892.07
571.84	894.24
572.20	896.16
572.55	897.69
572.90	899.21
573.26	900.90
573.61	902.40
573.96	904.27
574.31	905.64
574.67	906.56
575.02	907.54
575.37	908.85
575.72	909.73
576.08	910.87
576.43	912.08
576.78	912.78
577.13	913.66
577.49	914.89
577.84	915.43
578.19	916.08
578.54	916.64
578.90	917.08
579.25	917.69
579.60	917.97
579.95	918.64
580.30	918.82
580.66	918.87
581.01	919.21
581.36	919.17
581.71	919.67
582.06	920.04
582.42	919.92
582.77	919.62
583.12	919.85
583.47	919.72
583.82	919.84
584.17	919.54
584.53	919.35
584.88	918.85
585.23	918.66
585.58	918.61
585.93	918.20
586.28	918.00
586.63	917.88
586.98	917.71
587.34	917.43
587.69	917.18
588.04	916.92
588.39	916.42
588.74	915.44
589.09	914.43
589.44	913.42
589.79	913.06
590.14	912.46
590.49	911.67
590.84	910.50
591.19	909.61
591.54	908.70
591.89	907.06
592.25	906.20
592.60	904.77
592.95	903.23
593.30	902.03
593.65	900.18
594.00	898.39
594.35	897.15
594.70	895.20
595.05	893.80
595.40	891.85
595.75	889.85
596.10	888.79
596.45	887.62
596.80	886.37
597.15	884.63
597.50	882.76
597.85	881.07
598.19	879.60
598.54	877.96
598.89	876.45
599.24	875.49
599.59	873.78
599.94	872.41
600.29	870.80
600.64	868.88
600.99	867.14
601.34	865.44
601.69	863.02
602.04	861.31
602.39	859.28
602.74	857.78
603.08	856.46
603.43	854.69
603.78	852.63
604.13	850.92
604.48	849.06
604.83	847.50
605.18	845.70
605.53	843.69
605.87	841.31
606.22	839.25
606.57	836.75
606.92	834.67
607.27	832.59
607.62	830.50
607.96	828.57
608.31	826.90
608.66	824.68
609.01	822.39
609.36	819.93
609.70	817.32
610.05	814.69
610.40	812.07
610.75	809.54
611.10	806.90
611.44	803.75
611.79	801.14
612.14	798.40
612.49	795.18
612.83	792.29
613.18	789.38
613.53	786.67
613.88	783.80
614.22	780.77
614.57	777.72
614.92	774.88
615.27	772.19
615.61	769.00
615.96	765.91
616.31	763.41
616.65	761.10
617.00	758.60
617.35	755.95
617.70	753.17
618.04	750.00
618.39	747.20
618.74	744.90
619.08	741.82
619.43	738.95
619.78	736.55
620.12	733.92
620.47	731.38
620.82	728.41
621.16	725.87
621.51	723.33
621.85	720.60
622.20	717.67
622.55	714.96
622.89	712.54
623.24	710.10
623.59	707.41
623.93	704.72
624.28	702.04
624.62	699.62
624.97	697.05
625.32	694.66
625.66	692.13
626.01	689.29
626.35	686.79
626.70	684.14
627.04	681.64
627.39	678.90
627.73	676.23
628.08	673.59
628.43	670.89
628.77	668.09
629.12	665.23
629.46	662.74
629.81	659.58
630.15	656.64
630.50	653.75
630.84	650.76
631.19	647.57
631.53	644.78
631.88	641.87
632.22	638.71
632.57	636.05
632.91	633.18
633.26	630.40
633.60	627.70
633.95	624.92
634.29	622.14
634.64	619.58
634.98	616.77
635.32	614.16
635.67	611.82
636.01	609.32
636.36	607.00
636.70	604.23
637.05	601.97
637.39	599.50
637.73	597.18
638.08	595.01
638.42	592.83
638.77	590.46
639.11	587.79
639.45	585.38
639.80	582.82
640.14	580.34
640.49	577.83
640.83	575.42
641.17	573.02
641.52	570.33
641.86	567.69
642.20	565.45
642.55	563.04
642.89	560.61
643.23	558.18
643.58	555.85
643.92	553.45
644.26	551.08
644.61	549.19
644.95	546.80
645.29	544.14
645.64	541.54
645.98	539.12
646.32	536.93
646.66	534.80
647.01	532.47
647.35	530.32
647.69	528.16
648.04	525.89
648.38	523.64
648.72	521.45
649.06	519.14
649.41	516.90
649.75	514.77
650.09	512.08
650.43	509.72
650.78	507.20
651.12	504.89
651.46	502.84
651.80	500.16
652.14	497.99
652.49	495.83
652.83	493.78
653.17	491.53
653.51	489.19
653.85	486.99
654.20	484.87
654.54	482.40
654.88	480.06
655.22	477.58
655.56	475.18
655.90	472.97
656.25	470.76
656.59	468.51
656.93	466.30
657.27	464.36
657.61	462.04
657.95	460.25
658.29	458.40
658.64	456.09
658.98	454.06
659.32	451.66
659.66	449.59
660.00	447.39
660.34	445.17
660.68	443.35
661.02	441.15
661.36	439.23
661.70	437.35
662.05	435.44
662.39	433.95
662.73	432.27
663.07	430.57
663.41	428.77
663.75	426.92
664.09	425.20
664.43	423.26
664.77	421.56
665.11	419.48
665.45	417.52
665.79	415.79
666.13	413.99
666.47	412.39
666.81	410.72
667.15	408.94
667.49	407.59
667.83	405.87
668.17	404.20
668.51	402.30
668.85	400.70
669.19	399.28
669.53	397.35
669.87	395.67
670.21	394.13
670.55	392.77
670.89	391.41
671.23	389.80
671.57	388.40
671.91	387.12
672.25	385.87
672.58	384.52
672.92	382.92
673.26	381.62
673.60	380.33
673.94	378.96
674.28	377.73
674.62	376.21
674.96	374.84
675.30	373.73
675.64	372.50
675.97	371.10
676.31	369.65
676.65	368.45
676.99	367.40
677.33	366.00
677.67	364.50
678.01	363.00
678.34	361.74
678.68	360.51
679.02	359.20
679.36	357.91
679.70	356.73
680.04	355.67
680.37	354.43
680.71	353.11
681.05	351.99
681.39	351.07
681.73	349.91
682.06	348.93
682.40	347.80
682.74	346.60
683.08	345.55
683.42	344.43
683.75	343.39
684.09	342.15
684.43	341.12
684.77	340.24
685.10	339.22
685.44	338.13
685.78	337.05
686.12	335.99
686.45	334.97
686.79	333.94
687.13	332.96
687.46	331.90
687.80	330.93
688.14	329.83
688.48	328.56
688.81	327.64
689.15	326.62
689.49	325.49
689.82	324.59
690.16	323.68
690.50	322.81
690.83	321.87
691.17	320.81
691.51	319.88
691.84	318.86
692.18	317.97
692.52	317.00
692.85	316.07
693.19	315.15
693.52	314.29
693.86	313.27
694.20	312.28
694.53	311.37
694.87	310.58
695.21	309.70
695.54	308.90
695.88	307.89
696.21	306.92
696.55	306.15
696.88	305.34
697.22	304.41
697.56	303.57
697.89	302.70
698.23	301.91
698.56	301.00
698.90	300.26
699.23	299.44
699.57	298.74
699.90	298.02
700.24	297.25
700.58	296.48
700.91	295.87
701.25	295.25
701.58	294.70
701.92	293.99
702.25	293.24
702.59	292.61
702.92	292.09
703.26	291.47
703.59	290.77
703.93	290.27
704.26	289.70
704.60	289.10
704.93	288.45
705.26	287.94
705.60	287.44
705.93	286.85
706.27	286.32
706.60	285.69
706.94	285.11
707.27	284.43
707.61	283.71
707.94	283.03
708.27	282.42
708.61	281.63
708.94	280.97
709.28	280.45
709.61	279.80
709.94	279.24
710.28	278.64
710.61	278.20
710.95	277.55
711.28	277.14
711.61	276.62
711.95	276.13
712.28	275.66
712.61	275.14
712.95	274.62
713.28	274.03
713.61	273.49
713.95	272.87
714.28	272.40
714.61	271.98
714.95	271.54
715.28	270.93
715.61	270.46
715.95	270.11
716.28	269.62
716.61	269.30
716.95	268.70
717.28	268.23
717.61	267.64
717.94	267.17
718.28	266.56
718.61	265.92
718.94	265.50
719.27	264.98
719.61	264.65
719.94	264.19
720.27	263.86
720.60	263.55
720.94	263.19
721.27	262.80
721.60	262.48
721.93	262.06
722.27	261.85
722.60	261.56
722.93	261.05
723.26	260.81
723.59	260.39
723.93	260.14
724.26	259.91
724.59	259.56
724.92	259.25
725.25	259.00
725.59	258.83
725.92	258.59
726.25	258.23
726.58	257.91
726.91	257.69
727.24	257.50
727.57	257.27
727.91	256.98
728.24	256.83
728.57	256.38
728.90	256.20
729.23	255.87
729.56	255.64
729.89	255.45
730.22	255.30
730.55	255.05
730.89	254.82
731.22	254.49
731.55	254.30
731.88	253.98
732.21	253.70
732.54	253.52
732.87	253.23
733.20	253.00
733.53	252.70
733.86	252.48
734.19	252.18
734.52	252.00
734.85	252.02
735.18	251.80
735.51	251.80
735.84	251.59
736.17	251.32
736.50	251.13
736.83	251.15
737.16	250.81
737.49	250.59
737.82	250.40
738.15	250.21
738.48	250.01
738.81	249.84
739.14	249.64
739.47	249.43
739.80	249.30
740.13	249.14
740.46	248.86
740.79	248.72
741.12	248.49
741.45	248.15
741.78	247.81
742.11	247.65
742.44	247.41
742.77	247.24
743.10	247.09
743.43	246.74
743.75	246.31
744.08	246.43
744.41	246.22
744.74	245.92
745.07	245.71
745.40	245.60
745.73	245.49
746.06	245.38
746.39	245.20
746.71	244.94
747.04	244.76
747.37	244.63
747.70	244.44
748.03	244.35
748.36	244.18
748.68	243.99
749.01	243.65
749.34	243.44
749.67	243.25
750.00	243.10
750.33	243.18
750.65	243.07
750.98	242.60
751.31	242.49
751.64	242.40
751.97	242.39
752.29	242.17
752.62	241.98
752.95	241.80
753.28	241.53
753.60	241.38
753.93	241.17
754.26	240.93
754.59	240.65
754.91	240.27
755.24	240.13
755.57	240.00
755.90	239.97
756.22	239.76
756.55	239.59
756.88	239.40
757.20	239.10
757.53	238.83
757.86	238.80
758.19	238.55
758.51	238.38
758.84	238.14
759.17	237.94
759.49	237.72
759.82	237.68
760.15	237.51
760.47	237.40
760.80	237.27
761.13	237.22
761.45	237.08
761.78	237.10
762.11	236.98
762.43	236.87
762.76	236.74
763.08	236.68
763.41	236.63
763.74	236.52
764.06	236.36
764.39	236.38
764.71	236.21
765.04	236.21
765.37	236.22
765.69	236.07
766.02	236.01
766.34	235.90
766.67	235.68
767.00	235.73
767.32	235.78
767.65	235.83
767.97	235.74
768.30	235.65
768.62	235.56
768.95	235.55
769.27	235.31
769.60	235.23
769.92	235.09
770.25	234.96
770.57	234.91
770.90	234.90
771.22	234.70
771.55	234.58
771.87	234.58
772.20	234.46
772.52	234.63
772.85	234.79
773.17	234.79
773.50	234.90
773.82	234.80
774.15	234.59
774.47	234.54
774.80	234.46
775.12	234.46
775.45	234.39
775.77	234.30
776.09	234.40
776.42	234.33
776.74	234.37
777.07	234.42
777.39	234.30
777.72	234.21
778.04	234.21
778.36	234.21
778.69	234.12
779.01	234.03
779.33	233.88
779.66	233.70
779.98	233.71
780.31	233.62
780.63	233.65
780.95	233.73
781.28	233.65
781.60	233.66
781.92	233.53
782.25	233.55
782.57	233.48
782.89	233.36
783.22	233.31
783.54	233.23
783.86	233.06
784.19	233.05
784.51	233.12
784.83	233.02
785.16	232.93
785.48	232.95
785.80	232.91
786.12	232.80
786.45	232.73
786.77	232.66
787.09	232.62
787.42	232.50
787.74	232.49
788.06	232.34
788.38	232.18
788.71	232.21
789.03	232.19
789.35	232.17
789.67	232.14
789.99	232.12
790.32	232.00
790.64	232.01
790.96	232.15
791.28	232.04
791.61	232.02
791.93	232.05
792.25	231.91
792.57	231.99
792.89	231.84
793.21	231.73
793.54	231.67
793.86	231.51
794.18	231.46
