SpectraSuite Data File
++++++++++++++++++++++++++++++++++++
Date: Fri Feb 01 14:37:26 EST 2013
User: group
Dark Spectrum Present: No
Reference Spectrum Present: No
Number of Sampled Component Spectra: 1
Spectrometers: USB2E7196
Integration Time (usec): 70000 (USB2E7196)
Spectra Averaged: 10 (USB2E7196)
Boxcar Smoothing: 10 (USB2E7196)
Correct for Electrical Dark: No (USB2E7196)
Strobe/Lamp Enabled: No (USB2E7196)
Correct for Detector Non-linearity: No (USB2E7196)
Correct for Stray Light: No (USB2E7196)
Number of Pixels in Processed Spectrum: 2048
>>>>>Begin Processed Spectral Data<<<<<
339.09	0.00
339.48	216.10
339.86	217.30
340.24	218.70
340.63	221.00
341.01	224.30
341.39	222.90
341.78	223.40
342.16	226.70
342.54	226.50
342.93	214.93
343.31	225.76
343.69	226.30
344.07	226.76
344.46	227.21
344.84	227.63
345.22	227.93
345.60	228.17
345.99	228.35
346.37	228.46
346.75	228.50
347.13	228.50
347.52	228.57
347.90	228.70
348.28	228.65
348.66	228.61
349.05	228.70
349.43	228.66
349.81	228.63
350.19	228.66
350.57	228.61
350.96	228.66
351.34	228.77
351.72	228.82
352.10	228.90
352.48	228.90
352.87	228.87
353.25	228.84
353.63	228.86
354.01	228.99
354.39	228.98
354.77	229.10
355.15	229.22
355.54	229.24
355.92	229.20
356.30	229.28
356.68	229.50
357.06	229.42
357.44	229.52
357.82	229.59
358.20	229.60
358.58	229.65
358.97	229.76
359.35	229.84
359.73	229.94
360.11	229.96
360.49	230.03
360.87	230.04
361.25	230.10
361.63	230.22
362.01	230.22
362.39	230.26
362.77	230.31
363.15	230.34
363.53	230.25
363.91	230.34
364.29	230.34
364.67	230.08
365.05	230.13
365.43	230.16
365.81	230.18
366.19	230.14
366.57	230.24
366.95	230.06
367.33	229.97
367.71	229.95
368.09	229.95
368.47	229.91
368.85	229.84
369.23	229.85
369.61	229.71
369.99	229.68
370.37	229.69
370.75	229.62
371.13	229.54
371.51	229.44
371.89	229.33
372.27	229.30
372.65	229.27
373.03	229.25
373.41	229.10
373.78	228.92
374.16	228.74
374.54	228.50
374.92	228.46
375.30	228.31
375.68	228.05
376.06	228.00
376.44	227.92
376.82	227.91
377.19	227.76
377.57	227.64
377.95	227.48
378.33	227.32
378.71	227.12
379.09	227.12
379.47	227.07
379.84	227.00
380.22	226.94
380.60	226.82
380.98	226.75
381.36	226.72
381.73	226.69
382.11	226.68
382.49	226.67
382.87	226.49
383.25	226.38
383.62	226.60
384.00	226.42
384.38	226.37
384.76	226.27
385.13	226.25
385.51	226.26
385.89	226.27
386.27	226.26
386.64	226.25
387.02	226.14
387.40	226.17
387.78	226.09
388.15	226.10
388.53	226.10
388.91	225.97
389.29	225.91
389.66	225.96
390.04	225.92
390.42	225.95
390.79	226.12
391.17	226.23
391.55	226.00
391.92	226.04
392.30	226.09
392.68	226.10
393.05	226.18
393.43	226.20
393.81	226.26
394.18	226.25
394.56	226.32
394.94	226.36
395.31	226.30
395.69	226.40
396.06	226.38
396.44	226.43
396.82	226.53
397.19	226.74
397.57	226.78
397.95	226.87
398.32	226.82
398.70	226.88
399.07	226.96
399.45	227.05
399.82	227.19
400.20	227.18
400.58	227.34
400.95	227.26
401.33	227.39
401.70	227.54
402.08	227.69
402.45	227.86
402.83	228.00
403.20	228.24
403.58	228.37
403.95	228.52
404.33	228.72
404.71	228.90
405.08	229.08
405.46	229.36
405.83	229.61
406.21	229.85
406.58	230.08
406.96	230.33
407.33	230.67
407.70	230.95
408.08	231.44
408.45	231.61
408.83	231.99
409.20	232.27
409.58	232.52
409.95	232.92
410.33	233.16
410.70	233.48
411.08	233.89
411.45	234.39
411.82	234.87
412.20	235.43
412.57	236.09
412.95	236.60
413.32	237.16
413.69	237.79
414.07	238.47
414.44	239.20
414.82	239.96
415.19	240.74
415.56	241.62
415.94	242.49
416.31	243.57
416.68	244.60
417.06	245.96
417.43	247.07
417.81	248.26
418.18	249.66
418.55	250.99
418.93	252.41
419.30	253.85
419.67	255.37
420.04	257.00
420.42	258.69
420.79	260.60
421.16	262.50
421.54	264.52
421.91	266.60
422.28	268.63
422.66	270.75
423.03	273.07
423.40	275.30
423.77	277.67
424.15	280.21
424.52	282.87
424.89	285.54
425.26	288.31
425.64	290.86
426.01	293.75
426.38	296.72
426.75	299.70
427.13	302.89
427.50	306.25
427.87	309.58
428.24	312.98
428.61	316.21
428.99	319.75
429.36	323.60
429.73	327.32
430.10	331.06
430.47	334.97
430.85	338.90
431.22	343.10
431.59	347.61
431.96	351.72
432.33	356.29
432.70	360.71
433.08	365.98
433.45	371.00
433.82	376.04
434.19	381.72
434.56	387.29
434.93	392.45
435.30	397.54
435.68	403.39
436.05	408.86
436.42	414.39
436.79	419.34
437.16	424.78
437.53	430.52
437.90	436.10
438.27	441.60
438.64	447.28
439.01	452.64
439.38	457.48
439.75	462.07
440.13	467.43
440.50	472.38
440.87	476.57
441.24	480.97
441.61	485.54
441.98	488.88
442.35	492.80
442.72	496.89
443.09	500.96
443.46	503.20
443.83	504.96
444.20	506.49
444.57	508.89
444.94	510.12
445.31	511.32
445.68	512.87
446.05	513.80
446.42	513.73
446.79	513.63
447.16	513.33
447.53	513.30
447.90	511.69
448.27	510.34
448.64	507.86
449.01	506.30
449.37	503.18
449.74	500.08
450.11	496.34
450.48	492.17
450.85	487.77
451.22	484.27
451.59	480.90
451.96	477.86
452.33	473.13
452.70	469.03
453.07	464.14
453.43	458.88
453.80	453.98
454.17	449.21
454.54	444.67
454.91	439.58
455.28	434.97
455.65	430.30
456.02	425.62
456.38	421.67
456.75	416.56
457.12	412.30
457.49	408.24
457.86	404.13
458.23	400.62
458.59	396.81
458.96	392.98
459.33	389.50
459.70	385.87
460.07	383.09
460.43	379.75
460.80	376.63
461.17	373.87
461.54	370.97
461.91	368.33
462.27	365.44
462.64	363.08
463.01	360.34
463.38	357.96
463.74	355.29
464.11	353.12
464.48	351.15
464.85	348.96
465.21	347.31
465.58	345.51
465.95	343.37
466.32	341.46
466.68	339.75
467.05	337.91
467.42	336.02
467.78	334.17
468.15	332.33
468.52	330.93
468.88	329.25
469.25	327.54
469.62	326.10
469.98	324.77
470.35	323.49
470.72	322.18
471.08	320.73
471.45	319.63
471.82	318.32
472.18	316.98
472.55	316.07
472.92	314.86
473.28	313.87
473.65	312.88
474.02	311.97
474.38	310.75
474.75	310.00
475.11	309.22
475.48	308.55
475.85	307.91
476.21	307.20
476.58	306.52
476.94	306.00
477.31	305.51
477.67	304.96
478.04	304.43
478.41	304.08
478.77	303.90
479.14	303.41
479.50	303.11
479.87	302.85
480.23	302.61
480.60	302.36
480.96	302.23
481.33	302.13
481.69	302.02
482.06	301.98
482.42	301.61
482.79	301.40
483.15	301.38
483.52	301.45
483.88	301.51
484.25	301.53
484.61	301.64
484.98	301.61
485.34	301.79
485.71	302.01
486.07	302.28
486.44	302.41
486.80	302.71
487.17	302.81
487.53	303.25
487.90	303.44
488.26	303.95
488.62	304.31
488.99	304.62
489.35	304.99
489.72	305.48
490.08	306.10
490.44	306.74
490.81	307.20
491.17	307.62
491.54	308.22
491.90	308.94
492.26	309.64
492.63	310.35
492.99	310.94
493.36	311.60
493.72	312.22
494.08	312.73
494.45	313.38
494.81	314.30
495.17	315.04
495.54	315.92
495.90	316.43
496.26	317.21
496.63	317.86
496.99	318.66
497.35	319.50
497.72	320.37
498.08	321.05
498.44	321.94
498.80	322.97
499.17	323.65
499.53	324.31
499.89	324.95
500.26	325.62
500.62	326.23
500.98	326.90
501.34	327.50
501.71	328.30
502.07	329.18
502.43	329.73
502.79	330.28
503.16	330.83
503.52	331.40
503.88	331.71
504.24	332.32
504.60	332.81
504.97	333.22
505.33	333.65
505.69	334.24
506.05	334.55
506.41	334.86
506.78	335.13
507.14	335.35
507.50	335.62
507.86	335.92
508.22	336.16
508.59	336.22
508.95	336.56
509.31	336.67
509.67	336.70
510.03	336.93
510.39	337.17
510.75	337.28
511.12	337.45
511.48	337.59
511.84	337.71
512.20	337.76
512.56	337.93
512.92	338.05
513.28	338.14
513.64	338.10
514.00	338.16
514.37	338.39
514.73	338.65
515.09	338.77
515.45	338.88
515.81	339.02
516.17	339.20
516.53	339.24
516.89	339.44
517.25	339.47
517.61	339.63
517.97	339.64
518.33	339.83
518.69	340.03
519.05	340.28
519.41	340.67
519.77	341.24
520.13	341.52
520.49	341.77
520.85	342.08
521.21	342.70
521.57	343.20
521.93	343.71
522.29	344.21
522.65	344.84
523.01	345.51
523.37	346.26
523.73	347.24
524.09	348.02
524.45	348.94
524.81	350.07
525.17	351.19
525.53	352.34
525.89	353.48
526.25	354.79
526.61	356.16
526.97	357.47
527.33	358.78
527.68	360.47
528.04	362.21
528.40	363.91
528.76	365.65
529.12	367.62
529.48	369.65
529.84	371.70
530.20	373.81
530.56	376.07
530.91	378.59
531.27	380.93
531.63	383.39
531.99	385.94
532.35	388.37
532.71	390.97
533.07	393.77
533.42	396.86
533.78	399.91
534.14	402.83
534.50	405.89
534.86	409.23
535.21	412.42
535.57	415.61
535.93	419.04
536.29	422.60
536.65	426.00
537.00	429.64
537.36	433.34
537.72	436.98
538.08	440.69
538.44	444.25
538.79	448.02
539.15	451.84
539.51	455.86
539.87	459.97
540.22	463.99
540.58	468.12
540.94	472.04
541.29	476.03
541.65	480.22
542.01	484.47
542.37	488.70
542.72	492.95
543.08	497.40
543.44	501.79
543.79	506.06
544.15	510.44
544.51	514.84
544.87	519.41
545.22	524.29
545.58	528.99
545.94	533.42
546.29	538.24
546.65	542.99
547.01	547.51
547.36	552.24
547.72	556.92
548.07	561.89
548.43	566.59
548.79	571.50
549.14	576.24
549.50	581.00
549.86	585.51
550.21	590.21
550.57	594.90
550.92	599.59
551.28	604.39
551.64	609.15
551.99	614.00
552.35	618.59
552.70	623.13
553.06	627.92
553.41	632.90
553.77	637.80
554.13	642.41
554.48	647.26
554.84	652.03
555.19	656.90
555.55	661.40
555.90	666.13
556.26	670.63
556.61	675.46
556.97	680.10
557.32	684.86
557.68	689.50
558.03	694.33
558.39	698.88
558.74	703.62
559.10	708.22
559.45	712.81
559.81	717.84
560.16	722.24
560.52	726.49
560.87	731.14
561.23	735.08
561.58	739.86
561.94	744.17
562.29	748.47
562.64	752.52
563.00	756.60
563.35	761.18
563.71	765.59
564.06	769.73
564.42	773.80
564.77	777.88
565.12	781.99
565.48	785.97
565.83	789.99
566.19	793.62
566.54	797.44
566.89	800.94
567.25	804.47
567.60	808.53
567.96	812.58
568.31	815.87
568.66	819.58
569.02	822.84
569.37	826.06
569.72	829.49
570.08	832.60
570.43	835.69
570.78	838.39
571.14	841.24
571.49	844.21
571.84	847.45
572.20	850.39
572.55	852.96
572.90	855.40
573.26	857.89
573.61	860.60
573.96	863.06
574.31	865.14
574.67	866.92
575.02	868.68
575.37	870.60
575.72	872.40
576.08	874.21
576.43	875.82
576.78	877.69
577.13	879.38
577.49	881.26
577.84	882.87
578.19	884.42
578.54	885.70
578.90	886.75
579.25	887.60
579.60	888.58
579.95	889.62
580.30	890.65
580.66	891.69
581.01	892.39
581.36	893.25
581.71	894.33
582.06	895.38
582.42	896.07
582.77	896.50
583.12	897.31
583.47	897.92
583.82	898.77
584.17	898.99
584.53	899.30
584.88	899.66
585.23	900.16
585.58	900.76
585.93	901.06
586.28	901.64
586.63	902.24
586.98	902.42
587.34	902.94
587.69	903.14
588.04	903.27
588.39	903.58
588.74	903.41
589.09	903.27
589.44	902.81
589.79	902.76
590.14	902.70
590.49	902.34
590.84	902.12
591.19	901.85
591.54	901.39
591.89	900.46
592.25	900.03
592.60	899.21
592.95	897.97
593.30	897.33
593.65	896.20
594.00	894.93
594.35	894.43
594.70	892.97
595.05	891.83
595.40	890.60
595.75	889.19
596.10	888.10
596.45	887.17
596.80	886.51
597.15	885.45
597.50	884.13
597.85	883.16
598.19	882.14
598.54	880.99
598.89	879.80
599.24	879.26
599.59	877.87
599.94	876.56
600.29	875.44
600.64	874.10
600.99	872.88
601.34	871.49
601.69	869.67
602.04	868.51
602.39	867.17
602.74	865.88
603.08	864.95
603.43	863.90
603.78	862.55
604.13	861.00
604.48	859.58
604.83	858.15
605.18	856.80
605.53	854.81
605.87	852.55
606.22	850.79
606.57	848.83
606.92	847.01
607.27	845.52
607.62	843.90
607.96	842.22
608.31	840.40
608.66	838.38
609.01	836.43
609.36	834.13
609.70	831.71
610.05	829.47
610.40	826.97
610.75	824.31
611.10	821.90
611.44	819.12
611.79	816.73
612.14	814.10
612.49	811.02
612.83	808.42
613.18	806.03
613.53	803.80
613.88	800.80
614.22	798.16
614.57	795.52
614.92	792.73
615.27	790.06
615.61	787.37
615.96	784.76
616.31	782.26
616.65	780.00
617.00	777.90
617.35	775.55
617.70	772.85
618.04	770.32
618.39	767.65
618.74	765.24
619.08	762.31
619.43	760.02
619.78	757.88
620.12	755.38
620.47	752.89
620.82	750.07
621.16	747.88
621.51	745.55
621.85	742.91
622.20	740.32
622.55	737.73
622.89	735.26
623.24	732.86
623.59	730.44
623.93	728.06
624.28	725.17
624.62	722.49
624.97	720.33
625.32	717.86
625.66	715.60
626.01	713.06
626.35	710.47
626.70	707.65
627.04	704.92
627.39	702.12
627.73	699.32
628.08	696.98
628.43	694.00
628.77	691.19
629.12	688.41
629.46	685.68
629.81	682.65
630.15	679.90
630.50	677.00
630.84	673.80
631.19	670.69
631.53	668.02
631.88	665.07
632.22	661.56
632.57	658.94
632.91	655.69
633.26	652.87
633.60	650.11
633.95	647.46
634.29	644.89
634.64	642.58
634.98	639.98
635.32	637.40
635.67	635.13
636.01	632.51
636.36	629.99
636.70	627.53
637.05	625.38
637.39	623.00
637.73	620.81
638.08	618.74
638.42	616.34
638.77	614.02
639.11	611.61
639.45	609.54
639.80	606.76
640.14	604.54
640.49	602.09
640.83	599.71
641.17	597.26
641.52	594.71
641.86	592.14
642.20	590.01
642.55	587.37
642.89	584.79
643.23	582.40
643.58	580.08
643.92	577.43
644.26	574.89
644.61	572.31
644.95	569.65
645.29	566.83
645.64	564.22
645.98	561.69
646.32	559.21
646.66	556.61
647.01	554.22
647.35	551.75
647.69	549.46
648.04	547.29
648.38	544.77
648.72	542.06
649.06	539.36
649.41	536.50
649.75	533.82
650.09	531.31
650.43	528.71
650.78	526.02
651.12	523.60
651.46	520.99
651.80	518.69
652.14	516.54
652.49	514.33
652.83	512.05
653.17	509.41
653.51	506.97
653.85	504.56
654.20	502.18
654.54	499.61
654.88	496.85
655.22	494.00
655.56	491.50
655.90	489.30
656.25	487.16
656.59	485.02
656.93	482.90
657.27	480.68
657.61	478.24
657.95	476.38
658.29	474.28
658.64	472.11
658.98	469.65
659.32	467.26
659.66	464.99
660.00	462.72
660.34	460.70
660.68	458.74
661.02	456.54
661.36	454.60
661.70	452.64
662.05	450.81
662.39	449.16
662.73	447.34
663.07	445.50
663.41	443.60
663.75	441.57
664.09	439.72
664.43	437.73
664.77	436.18
665.11	434.04
665.45	432.21
665.79	430.49
666.13	428.85
666.47	426.93
666.81	425.06
667.15	423.40
667.49	421.62
667.83	419.78
668.17	418.15
668.51	416.16
668.85	414.34
669.19	412.83
669.53	410.92
669.87	409.15
670.21	407.37
670.55	405.63
670.89	404.21
671.23	402.64
671.57	401.27
671.91	399.62
672.25	398.04
672.58	396.45
672.92	394.88
673.26	393.26
673.60	391.80
673.94	390.30
674.28	388.80
674.62	387.51
674.96	386.16
675.30	384.81
675.64	383.48
675.97	382.25
676.31	380.74
676.65	379.49
676.99	378.23
677.33	376.93
677.67	375.61
678.01	374.10
678.34	372.73
678.68	371.33
679.02	369.92
679.36	368.58
679.70	367.21
680.04	365.85
680.37	364.42
680.71	363.04
681.05	361.91
681.39	360.71
681.73	359.42
682.06	358.17
682.40	356.90
682.74	355.75
683.08	354.53
683.42	353.22
683.75	351.97
684.09	350.65
684.43	349.41
684.77	348.22
685.10	347.00
685.44	345.82
685.78	344.57
686.12	343.47
686.45	342.27
686.79	341.13
687.13	339.99
687.46	338.88
687.80	337.77
688.14	336.50
688.48	335.36
688.81	334.22
689.15	333.11
689.49	331.93
689.82	330.76
690.16	329.59
690.50	328.51
690.83	327.46
691.17	326.34
691.51	325.32
691.84	324.42
692.18	323.47
692.52	322.40
692.85	321.35
693.19	320.36
693.52	319.38
693.86	318.34
694.20	317.40
694.53	316.46
694.87	315.53
695.21	314.60
695.54	313.61
695.88	312.52
696.21	311.41
696.55	310.58
696.88	309.63
697.22	308.76
697.56	307.90
697.89	307.02
698.23	306.30
698.56	305.30
698.90	304.30
699.23	303.30
699.57	302.39
699.90	301.51
700.24	300.58
700.58	299.85
700.91	299.17
701.25	298.40
701.58	297.77
701.92	297.09
702.25	296.32
702.59	295.65
702.92	294.99
703.26	294.44
703.59	293.61
703.93	293.04
704.26	292.40
704.60	291.79
704.93	291.05
705.26	290.30
705.60	289.79
705.93	289.17
706.27	288.70
706.60	288.32
706.94	287.79
707.27	287.29
707.61	286.63
707.94	286.04
708.27	285.40
708.61	284.78
708.94	284.13
709.28	283.67
709.61	283.10
709.94	282.62
710.28	282.07
710.61	281.66
710.95	280.98
711.28	280.48
711.61	279.86
711.95	279.43
712.28	278.95
712.61	278.26
712.95	277.85
713.28	277.42
713.61	276.70
713.95	276.30
714.28	275.70
714.61	275.16
714.95	274.75
715.28	274.23
715.61	273.67
715.95	273.26
716.28	272.85
716.61	272.30
716.95	271.74
717.28	271.19
717.61	270.72
717.94	270.40
718.28	269.80
718.61	269.35
718.94	268.85
719.27	268.49
719.61	268.20
719.94	267.64
720.27	267.13
720.60	266.67
720.94	266.14
721.27	265.76
721.60	265.46
721.93	264.91
722.27	264.62
722.60	264.24
722.93	263.86
723.26	263.50
723.59	263.10
723.93	262.79
724.26	262.52
724.59	262.12
724.92	261.74
725.25	261.47
725.59	261.24
725.92	260.83
726.25	260.40
726.58	260.02
726.91	259.68
727.24	259.37
727.57	259.14
727.91	258.77
728.24	258.53
728.57	258.11
728.90	257.92
729.23	257.60
729.56	257.44
729.89	257.10
730.22	256.66
730.55	256.33
730.89	255.95
731.22	255.67
731.55	255.35
731.88	255.06
732.21	254.77
732.54	254.33
732.87	254.12
733.20	253.72
733.53	253.50
733.86	253.25
734.19	252.92
734.52	252.64
734.85	252.54
735.18	252.23
735.51	252.11
735.84	251.88
736.17	251.57
736.50	251.25
736.83	251.29
737.16	251.01
737.49	250.85
737.82	250.68
738.15	250.55
738.48	250.35
738.81	250.08
739.14	249.89
739.47	249.82
739.80	249.60
740.13	249.52
740.46	249.24
740.79	248.94
741.12	248.76
741.45	248.41
741.78	248.05
742.11	247.85
742.44	247.54
742.77	247.29
743.10	247.09
743.43	246.79
743.75	246.28
744.08	246.41
744.41	246.20
744.74	246.07
745.07	245.69
745.40	245.59
745.73	245.50
746.06	245.31
746.39	245.03
746.71	244.82
747.04	244.66
747.37	244.43
747.70	244.54
748.03	244.34
748.36	244.42
748.68	244.20
749.01	244.10
749.34	243.94
749.67	243.80
750.00	243.80
750.33	243.83
750.65	243.78
750.98	243.36
751.31	243.24
751.64	243.03
751.97	243.09
752.29	242.88
752.62	242.60
752.95	242.48
753.28	242.46
753.60	242.34
753.93	242.24
754.26	242.23
754.59	241.85
754.91	241.72
755.24	241.51
755.57	241.54
755.90	241.26
756.22	241.18
756.55	241.03
756.88	240.70
757.20	240.43
757.53	240.25
757.86	240.13
758.19	240.01
758.51	239.93
758.84	239.64
759.17	239.55
759.49	239.51
759.82	239.43
760.15	239.31
760.47	239.23
760.80	239.07
761.13	239.00
761.45	239.03
761.78	238.93
762.11	238.84
762.43	238.68
762.76	238.55
763.08	238.51
763.41	238.34
763.74	238.31
764.06	238.27
764.39	238.11
764.71	238.00
765.04	237.91
765.37	237.77
765.69	237.68
766.02	237.46
766.34	237.26
766.67	237.10
767.00	236.93
767.32	236.74
767.65	236.73
767.97	236.55
768.30	236.41
768.62	236.30
768.95	236.14
769.27	236.05
769.60	235.99
769.92	235.83
770.25	235.79
770.57	235.62
770.90	235.45
771.22	235.36
771.55	235.29
771.87	235.17
772.20	235.11
772.52	235.23
772.85	235.40
773.17	235.33
773.50	235.14
773.82	235.03
774.15	235.01
774.47	234.79
774.80	234.72
775.12	234.58
775.45	234.49
775.77	234.50
776.09	234.45
776.42	234.41
776.74	234.30
777.07	234.16
777.39	234.16
777.72	234.12
778.04	234.02
778.36	233.90
778.69	233.97
779.01	233.93
779.33	233.71
779.66	233.49
779.98	233.41
780.31	233.54
780.63	233.60
780.95	233.60
781.28	233.46
781.60	233.36
781.92	233.31
782.25	233.27
782.57	233.05
782.89	232.91
783.22	232.90
783.54	232.86
783.86	232.79
784.19	232.74
784.51	232.70
784.83	232.59
785.16	232.56
785.48	232.38
785.80	232.27
786.12	232.20
786.45	232.17
786.77	232.25
787.09	232.08
787.42	232.00
787.74	231.94
788.06	231.96
788.38	231.91
788.71	231.84
789.03	231.81
789.35	231.93
789.67	231.95
789.99	231.91
790.32	231.94
790.64	232.00
790.96	232.03
791.28	232.00
791.61	232.08
791.93	232.08
792.25	232.04
792.57	232.23
792.89	232.14
793.21	232.14
793.54	232.00
793.86	232.04
794.18	231.92
