SpectraSuite Data File
++++++++++++++++++++++++++++++++++++
Date: Fri Feb 01 14:39:18 EST 2013
User: group
Dark Spectrum Present: No
Reference Spectrum Present: No
Number of Sampled Component Spectra: 1
Spectrometers: USB2E7196
Integration Time (usec): 70000 (USB2E7196)
Spectra Averaged: 10 (USB2E7196)
Boxcar Smoothing: 10 (USB2E7196)
Correct for Electrical Dark: No (USB2E7196)
Strobe/Lamp Enabled: No (USB2E7196)
Correct for Detector Non-linearity: No (USB2E7196)
Correct for Stray Light: No (USB2E7196)
Number of Pixels in Processed Spectrum: 2048
>>>>>Begin Processed Spectral Data<<<<<
339.09	0.00
339.48	216.70
339.86	218.40
340.24	218.60
340.63	220.60
341.01	224.40
341.39	222.50
341.78	224.60
342.16	225.90
342.54	226.90
342.93	214.75
343.31	225.60
343.69	226.22
344.07	226.60
344.46	227.04
344.84	227.42
345.22	227.64
345.60	227.90
345.99	228.15
346.37	228.21
346.75	228.27
347.13	228.32
347.52	228.30
347.90	228.43
348.28	228.40
348.66	228.53
349.05	228.49
349.43	228.46
349.81	228.45
350.19	228.38
350.57	228.41
350.96	228.42
351.34	228.49
351.72	228.49
352.10	228.62
352.48	228.60
352.87	228.58
353.25	228.53
353.63	228.56
354.01	228.45
354.39	228.58
354.77	228.62
355.15	228.81
355.54	228.94
355.92	228.88
356.30	228.95
356.68	229.11
357.06	229.15
357.44	229.19
357.82	229.30
358.20	229.38
358.58	229.41
358.97	229.48
359.35	229.50
359.73	229.65
360.11	229.71
360.49	229.92
360.87	229.98
361.25	230.05
361.63	230.01
362.01	230.08
362.39	230.09
362.77	230.13
363.15	230.10
363.53	230.10
363.91	230.17
364.29	230.11
364.67	229.87
365.05	229.81
365.43	229.89
365.81	229.89
366.19	229.98
366.57	229.90
366.95	229.86
367.33	229.79
367.71	229.61
368.09	229.56
368.47	229.47
368.85	229.35
369.23	229.38
369.61	229.39
369.99	229.45
370.37	229.44
370.75	229.55
371.13	229.41
371.51	229.39
371.89	229.32
372.27	229.35
372.65	229.38
373.03	229.46
373.41	229.35
373.78	229.32
374.16	229.08
374.54	228.97
374.92	228.97
375.30	228.91
375.68	228.88
376.06	228.85
376.44	228.71
376.82	228.78
377.19	228.68
377.57	228.72
377.95	228.56
378.33	228.52
378.71	228.28
379.09	228.35
379.47	228.24
379.84	228.14
380.22	228.02
380.60	227.91
380.98	227.79
381.36	227.80
381.73	227.68
382.11	227.86
382.49	227.91
382.87	227.80
383.25	227.75
383.62	227.79
384.00	227.68
384.38	227.64
384.76	227.61
385.13	227.60
385.51	227.47
385.89	227.50
386.27	227.34
386.64	227.32
387.02	227.23
387.40	227.20
387.78	227.25
388.15	227.27
388.53	227.18
388.91	227.05
389.29	227.02
389.66	226.87
390.04	226.71
390.42	226.65
390.79	226.74
391.17	226.77
391.55	226.71
391.92	226.67
392.30	226.75
392.68	226.79
393.05	226.80
393.43	226.83
393.81	226.82
394.18	226.92
394.56	226.98
394.94	227.02
395.31	226.95
395.69	227.05
396.06	227.15
396.44	227.21
396.82	227.27
397.19	227.34
397.57	227.55
397.95	227.63
398.32	227.69
398.70	227.65
399.07	227.89
399.45	227.86
399.82	228.07
400.20	228.13
400.58	228.15
400.95	228.19
401.33	228.35
401.70	228.62
402.08	228.73
402.45	228.82
402.83	228.90
403.20	229.04
403.58	229.00
403.95	229.11
404.33	229.25
404.71	229.43
405.08	229.65
405.46	229.69
405.83	229.90
406.21	230.04
406.58	230.25
406.96	230.30
407.33	230.56
407.70	230.71
408.08	230.92
408.45	231.18
408.83	231.43
409.20	231.55
409.58	231.57
409.95	231.76
410.33	232.05
410.70	232.26
411.08	232.67
411.45	233.01
411.82	233.18
412.20	233.64
412.57	234.20
412.95	234.41
413.32	234.89
413.69	235.29
414.07	235.70
414.44	236.10
414.82	236.49
415.19	237.00
415.56	237.49
415.94	238.03
416.31	238.75
416.68	239.44
417.06	240.27
417.43	241.04
417.81	241.86
418.18	242.61
418.55	243.46
418.93	244.33
419.30	245.37
419.67	246.32
420.04	247.18
420.42	248.12
420.79	249.46
421.16	250.70
421.54	251.89
421.91	253.30
422.28	254.69
422.66	256.17
423.03	257.68
423.40	259.14
423.77	260.70
424.15	262.15
424.52	263.71
424.89	265.40
425.26	267.00
425.64	268.59
426.01	270.27
426.38	272.25
426.75	274.15
427.13	275.94
427.50	278.00
427.87	280.19
428.24	282.23
428.61	284.17
428.99	286.30
429.36	288.68
429.73	290.87
430.10	293.13
430.47	295.52
430.85	297.82
431.22	300.28
431.59	303.03
431.96	305.62
432.33	308.41
432.70	311.05
433.08	314.40
433.45	317.46
433.82	320.48
434.19	323.74
434.56	326.83
434.93	329.89
435.30	333.00
435.68	336.24
436.05	339.51
436.42	342.80
436.79	345.81
437.16	349.01
437.53	352.44
437.90	355.79
438.27	358.90
438.64	362.28
439.01	365.46
439.38	368.12
439.75	370.68
440.13	373.74
440.50	376.70
440.87	378.84
441.24	381.17
441.61	383.95
441.98	385.83
442.35	388.34
442.72	390.85
443.09	393.30
443.46	394.70
443.83	395.59
444.20	396.39
444.57	397.53
444.94	398.24
445.31	398.90
445.68	399.73
446.05	400.22
446.42	400.06
446.79	399.92
447.16	399.53
447.53	399.48
447.90	398.31
448.27	397.20
448.64	395.74
449.01	394.74
449.37	392.79
449.74	390.86
450.11	388.53
450.48	385.74
450.85	382.89
451.22	380.59
451.59	378.53
451.96	376.31
452.33	373.51
452.70	370.85
453.07	367.69
453.43	364.21
453.80	361.13
454.17	358.05
454.54	355.13
454.91	352.22
455.28	349.20
455.65	346.48
456.02	343.95
456.38	341.44
456.75	338.37
457.12	335.65
457.49	333.13
457.86	330.48
458.23	328.39
458.59	325.97
458.96	323.55
459.33	321.31
459.70	319.18
460.07	317.37
460.43	315.27
460.80	313.33
461.17	311.81
461.54	309.88
461.91	308.18
462.27	306.52
462.64	305.02
463.01	303.39
463.38	301.87
463.74	300.01
464.11	298.50
464.48	297.26
464.85	295.86
465.21	294.79
465.58	293.62
465.95	292.31
466.32	291.18
466.68	290.12
467.05	289.14
467.42	288.06
467.78	286.88
468.15	285.80
468.52	284.86
468.88	283.71
469.25	282.81
469.62	282.10
469.98	281.17
470.35	280.33
470.72	279.55
471.08	278.58
471.45	277.82
471.82	277.23
472.18	276.39
472.55	275.73
472.92	274.90
473.28	274.18
473.65	273.49
474.02	272.85
474.38	272.24
474.75	271.67
475.11	270.95
475.48	270.44
475.85	269.99
476.21	269.57
476.58	269.00
476.94	268.56
477.31	268.00
477.67	267.52
478.04	267.13
478.41	266.67
478.77	266.58
479.14	266.17
479.50	265.75
479.87	265.53
480.23	265.37
480.60	265.07
480.96	264.80
481.33	264.56
481.69	264.30
482.06	264.17
482.42	263.95
482.79	263.91
483.15	263.76
483.52	263.63
483.88	263.48
484.25	263.46
484.61	263.37
484.98	263.28
485.34	263.23
485.71	263.20
486.07	263.20
486.44	262.99
486.80	262.96
487.17	263.06
487.53	263.09
487.90	263.06
488.26	263.29
488.62	263.53
488.99	263.66
489.35	263.78
489.72	263.79
490.08	263.85
490.44	263.88
490.81	264.08
491.17	264.24
491.54	264.52
491.90	264.67
492.26	264.90
492.63	265.23
492.99	265.49
493.36	265.66
493.72	265.99
494.08	266.23
494.45	266.60
494.81	266.94
495.17	267.24
495.54	267.71
495.90	267.94
496.26	268.11
496.63	268.43
496.99	268.90
497.35	269.37
497.72	269.91
498.08	270.46
498.44	271.03
498.80	271.60
499.17	272.01
499.53	272.65
499.89	273.25
500.26	273.73
500.62	274.31
500.98	274.95
501.34	275.52
501.71	276.29
502.07	277.05
502.43	277.70
502.79	278.30
503.16	279.00
503.52	279.88
503.88	280.67
504.24	281.50
504.60	282.31
504.97	283.09
505.33	283.89
505.69	284.87
506.05	285.80
506.41	286.62
506.78	287.77
507.14	288.87
507.50	290.02
507.86	291.26
508.22	292.54
508.59	293.83
508.95	295.29
509.31	296.74
509.67	298.09
510.03	299.50
510.39	301.14
510.75	302.79
511.12	304.34
511.48	306.25
511.84	308.20
512.20	310.13
512.56	312.20
512.92	314.27
513.28	316.49
513.64	318.51
514.00	320.81
514.37	323.07
514.73	325.45
515.09	327.97
515.45	330.48
515.81	333.15
516.17	335.84
516.53	338.57
516.89	341.42
517.25	344.42
517.61	347.69
517.97	350.96
518.33	354.16
518.69	357.39
519.05	360.83
519.41	364.37
519.77	368.08
520.13	371.82
520.49	375.66
520.85	379.41
521.21	383.55
521.57	387.66
521.93	391.79
522.29	396.15
522.65	400.37
523.01	404.88
523.37	409.19
523.73	413.78
524.09	418.52
524.45	423.21
524.81	428.14
525.17	433.21
525.53	438.22
525.89	443.40
526.25	448.85
526.61	453.98
526.97	459.37
527.33	464.82
527.68	470.71
528.04	476.31
528.40	482.10
528.76	488.06
529.12	494.15
529.48	500.20
529.84	506.11
530.20	512.40
530.56	518.73
530.91	525.56
531.27	532.36
531.63	538.63
531.99	545.21
532.35	551.90
532.71	558.69
533.07	565.51
533.42	572.59
533.78	579.46
534.14	586.60
534.50	593.40
534.86	600.48
535.21	607.43
535.57	614.98
535.93	622.07
536.29	629.27
536.65	636.60
537.00	643.92
537.36	651.52
537.72	659.09
538.08	666.40
538.44	673.31
538.79	680.57
539.15	688.32
539.51	695.74
539.87	703.32
540.22	710.65
540.58	718.48
540.94	725.63
541.29	733.19
541.65	740.76
542.01	748.73
542.37	756.34
542.72	763.77
543.08	771.20
543.44	779.10
543.79	786.51
544.15	794.15
544.51	802.03
544.87	809.52
545.22	816.94
545.58	824.50
545.94	831.87
546.29	839.13
546.65	846.32
547.01	853.71
547.36	860.56
547.72	867.47
548.07	874.21
548.43	881.37
548.79	888.25
549.14	895.11
549.50	901.67
549.86	908.17
550.21	914.76
550.57	921.33
550.92	927.77
551.28	934.46
551.64	940.86
551.99	947.02
552.35	953.48
552.70	959.95
553.06	966.30
553.41	972.94
553.77	979.30
554.13	985.53
554.48	991.70
554.84	998.04
555.19	1004.19
555.55	1010.46
555.90	1016.59
556.26	1022.34
556.61	1028.16
556.97	1033.91
557.32	1040.00
557.68	1045.88
558.03	1051.50
558.39	1057.12
558.74	1062.95
559.10	1068.58
559.45	1074.23
559.81	1079.54
560.16	1084.46
560.52	1089.48
560.87	1094.73
561.23	1099.64
561.58	1104.87
561.94	1109.92
562.29	1114.60
562.64	1118.95
563.00	1123.50
563.35	1128.62
563.71	1133.62
564.06	1138.61
564.42	1143.05
564.77	1147.47
565.12	1152.11
565.48	1156.71
565.83	1160.79
566.19	1164.72
566.54	1168.85
566.89	1172.65
567.25	1176.57
567.60	1180.98
567.96	1185.14
568.31	1188.70
568.66	1192.65
569.02	1195.86
569.37	1198.93
569.72	1202.43
570.08	1205.71
570.43	1208.80
570.78	1211.24
571.14	1213.56
571.49	1215.74
571.84	1218.94
572.20	1221.04
572.55	1223.10
572.90	1224.47
573.26	1226.91
573.61	1228.80
573.96	1230.62
574.31	1232.07
574.67	1233.15
575.02	1233.84
575.37	1235.09
575.72	1235.71
576.08	1236.75
576.43	1237.98
576.78	1239.13
577.13	1240.16
577.49	1241.52
577.84	1242.12
578.19	1242.78
578.54	1243.77
578.90	1244.16
579.25	1243.80
579.60	1243.96
579.95	1244.04
580.30	1244.55
580.66	1244.34
581.01	1243.92
581.36	1243.48
581.71	1243.72
582.06	1243.95
582.42	1243.78
582.77	1242.99
583.12	1242.93
583.47	1242.32
583.82	1241.91
584.17	1241.20
584.53	1240.43
584.88	1239.68
585.23	1238.90
585.58	1238.19
585.93	1237.43
586.28	1236.97
586.63	1236.60
586.98	1236.04
587.34	1235.60
587.69	1234.62
588.04	1233.59
588.39	1233.15
588.74	1231.73
589.09	1230.16
589.44	1228.16
589.79	1227.22
590.14	1226.38
590.49	1224.89
590.84	1223.47
591.19	1221.76
591.54	1219.75
591.89	1217.49
592.25	1215.80
592.60	1213.70
592.95	1211.60
593.30	1209.42
593.65	1206.89
594.00	1204.28
594.35	1202.48
594.70	1199.50
595.05	1197.48
595.40	1195.00
595.75	1192.03
596.10	1189.71
596.45	1187.36
596.80	1185.80
597.15	1183.33
597.50	1180.89
597.85	1178.85
598.19	1176.50
598.54	1174.25
598.89	1172.22
599.24	1170.25
599.59	1167.71
599.94	1165.50
600.29	1162.86
600.64	1160.16
600.99	1157.26
601.34	1154.80
601.69	1151.73
602.04	1149.10
602.39	1146.30
602.74	1144.00
603.08	1141.78
603.43	1139.47
603.78	1136.91
604.13	1133.52
604.48	1130.72
604.83	1127.75
605.18	1124.86
605.53	1121.43
605.87	1118.32
606.22	1115.45
606.57	1112.28
606.92	1108.96
607.27	1105.98
607.62	1103.38
607.96	1100.60
608.31	1097.87
608.66	1094.58
609.01	1091.06
609.36	1087.65
609.70	1083.54
610.05	1079.48
610.40	1075.64
610.75	1071.63
611.10	1067.68
611.44	1064.12
611.79	1060.24
612.14	1056.27
612.49	1051.71
612.83	1047.85
613.18	1043.54
613.53	1039.36
613.88	1035.23
614.22	1031.39
614.57	1026.96
614.92	1022.30
615.27	1018.10
615.61	1013.87
615.96	1009.84
616.31	1005.97
616.65	1002.60
617.00	998.91
617.35	995.53
617.70	991.34
618.04	986.98
618.39	983.08
618.74	978.99
619.08	974.63
619.43	970.53
619.78	967.04
620.12	963.15
620.47	959.20
620.82	954.99
621.16	951.15
621.51	947.49
621.85	943.47
622.20	939.37
622.55	935.45
622.89	931.55
623.24	927.54
623.59	923.90
623.93	919.71
624.28	915.87
624.62	911.72
624.97	908.27
625.32	904.97
625.66	901.34
626.01	897.79
626.35	894.09
626.70	890.23
627.04	886.49
627.39	882.31
627.73	878.51
628.08	874.86
628.43	870.79
628.77	866.74
629.12	862.88
629.46	859.10
629.81	854.93
630.15	850.97
630.50	846.83
630.84	842.25
631.19	838.20
631.53	834.15
631.88	829.91
632.22	825.34
632.57	821.18
632.91	816.80
633.26	812.62
633.60	808.50
633.95	804.39
634.29	800.31
634.64	796.88
634.98	792.94
635.32	789.17
635.67	785.56
636.01	781.62
636.36	777.83
636.70	774.06
637.05	770.27
637.39	766.83
637.73	763.43
638.08	760.40
638.42	756.90
638.77	753.38
639.11	749.65
639.45	746.34
639.80	742.84
640.14	739.47
640.49	735.79
640.83	732.34
641.17	728.99
641.52	725.54
641.86	721.74
642.20	718.25
642.55	714.63
642.89	710.99
643.23	707.28
643.58	704.14
643.92	700.56
644.26	697.16
644.61	693.64
644.95	690.11
645.29	685.95
645.64	681.99
645.98	678.58
646.32	675.31
646.66	671.60
647.01	667.89
647.35	664.40
647.69	660.97
648.04	657.68
648.38	653.91
648.72	649.88
649.06	646.13
649.41	642.58
649.75	638.69
650.09	635.09
650.43	631.55
650.78	627.76
651.12	624.14
651.46	620.71
651.80	617.13
652.14	613.62
652.49	610.43
652.83	607.07
653.17	603.39
653.51	599.73
653.85	596.40
654.20	592.92
654.54	589.20
654.88	585.61
655.22	581.95
655.56	578.52
655.90	575.47
656.25	572.45
656.59	569.16
656.93	566.10
657.27	563.00
657.61	559.60
657.95	556.62
658.29	553.72
658.64	550.56
658.98	547.38
659.32	543.80
659.66	540.70
660.00	537.81
660.34	534.74
660.68	531.78
661.02	528.71
661.36	525.92
661.70	523.26
662.05	520.64
662.39	517.88
662.73	515.39
663.07	512.82
663.41	510.19
663.75	507.57
664.09	504.90
664.43	502.29
664.77	499.81
665.11	497.20
665.45	494.57
665.79	491.96
666.13	489.41
666.47	487.20
666.81	484.60
667.15	481.79
667.49	479.54
667.83	477.33
668.17	474.79
668.51	472.32
668.85	469.98
669.19	467.60
669.53	465.26
669.87	462.79
670.21	460.41
670.55	458.20
670.89	456.02
671.23	453.95
671.57	451.81
671.91	449.74
672.25	447.41
672.58	445.48
672.92	443.33
673.26	441.32
673.60	439.44
673.94	437.75
674.28	436.19
674.62	434.35
674.96	432.30
675.30	430.58
675.64	428.75
675.97	426.86
676.31	424.97
676.65	423.15
676.99	421.45
677.33	419.49
677.67	417.64
678.01	415.66
678.34	413.83
678.68	411.97
679.02	410.03
679.36	408.31
679.70	406.32
680.04	404.69
680.37	402.84
680.71	401.17
681.05	399.40
681.39	397.72
681.73	395.83
682.06	394.14
682.40	392.76
682.74	391.31
683.08	389.82
683.42	388.41
683.75	386.77
684.09	385.11
684.43	383.60
684.77	381.82
685.10	380.25
685.44	378.75
685.78	377.29
686.12	375.85
686.45	374.28
686.79	372.89
687.13	371.38
687.46	369.89
687.80	368.38
688.14	366.71
688.48	365.09
688.81	363.68
689.15	362.32
689.49	360.60
689.82	359.07
690.16	357.41
690.50	355.91
690.83	354.56
691.17	353.15
691.51	351.83
691.84	350.63
692.18	349.35
692.52	347.99
692.85	346.72
693.19	345.51
693.52	344.16
693.86	342.89
694.20	341.58
694.53	340.54
694.87	339.31
695.21	338.16
695.54	336.92
695.88	335.55
696.21	334.22
696.55	333.11
696.88	331.93
697.22	330.76
697.56	329.61
697.89	328.50
698.23	327.41
698.56	326.17
698.90	324.93
699.23	323.69
699.57	322.45
699.90	321.10
700.24	319.81
700.58	318.82
700.91	317.63
701.25	316.69
701.58	315.62
701.92	314.60
702.25	313.54
702.59	312.50
702.92	311.68
703.26	310.84
703.59	309.88
703.93	309.14
704.26	308.34
704.60	307.38
704.93	306.38
705.26	305.34
705.60	304.60
705.93	303.77
706.27	303.03
706.60	302.34
706.94	301.64
707.27	300.90
707.61	300.08
707.94	299.29
708.27	298.35
708.61	297.42
708.94	296.56
709.28	295.80
709.61	295.00
709.94	294.37
710.28	293.51
710.61	292.82
710.95	291.87
711.28	291.20
711.61	290.54
711.95	289.90
712.28	289.21
712.61	288.44
712.95	287.78
713.28	287.17
713.61	286.49
713.95	285.81
714.28	285.14
714.61	284.50
714.95	284.00
715.28	283.50
715.61	282.77
715.95	282.27
716.28	281.74
716.61	281.25
716.95	280.57
717.28	280.08
717.61	279.54
717.94	278.94
718.28	278.25
718.61	277.62
718.94	277.03
719.27	276.45
719.61	275.99
719.94	275.47
720.27	274.93
720.60	274.36
720.94	273.81
721.27	273.39
721.60	272.94
721.93	272.46
722.27	271.90
722.60	271.63
722.93	271.13
723.26	270.59
723.59	270.18
723.93	269.80
724.26	269.34
724.59	268.79
724.92	268.47
725.25	268.15
725.59	267.74
725.92	267.46
726.25	267.18
726.58	266.68
726.91	266.30
727.24	265.98
727.57	265.60
727.91	265.27
728.24	264.91
728.57	264.48
728.90	264.05
729.23	263.62
729.56	263.28
729.89	262.88
730.22	262.57
730.55	262.13
730.89	261.67
731.22	261.32
731.55	261.01
731.88	260.63
732.21	260.18
732.54	259.75
732.87	259.32
733.20	258.98
733.53	258.58
733.86	258.21
734.19	257.77
734.52	257.44
734.85	257.25
735.18	256.74
735.51	256.40
735.84	256.10
736.17	255.86
736.50	255.32
736.83	255.28
737.16	254.94
737.49	254.60
737.82	254.30
738.15	254.08
738.48	253.70
738.81	253.36
739.14	253.08
739.47	252.78
739.80	252.50
740.13	252.26
740.46	252.04
740.79	251.73
741.12	251.46
741.45	251.30
741.78	250.95
742.11	250.84
742.44	250.66
742.77	250.37
743.10	250.02
743.43	249.87
743.75	249.30
744.08	249.32
744.41	249.05
744.74	248.80
745.07	248.42
745.40	248.23
745.73	248.07
746.06	247.88
746.39	247.73
746.71	247.40
747.04	247.06
747.37	246.85
747.70	246.67
748.03	246.48
748.36	246.18
748.68	245.94
749.01	245.69
749.34	245.43
749.67	245.33
750.00	245.21
750.33	245.10
750.65	245.01
750.98	244.61
751.31	244.46
751.64	244.40
751.97	244.42
752.29	244.23
752.62	244.00
752.95	243.86
753.28	243.77
753.60	243.67
753.93	243.69
754.26	243.60
754.59	243.49
754.91	243.28
755.24	243.20
755.57	243.11
755.90	242.91
756.22	242.82
756.55	242.58
756.88	242.50
757.20	242.37
757.53	242.20
757.86	242.06
758.19	242.12
758.51	241.89
758.84	241.69
759.17	241.63
759.49	241.56
759.82	241.55
760.15	241.46
760.47	241.41
760.80	241.22
761.13	241.07
761.45	240.93
761.78	240.83
762.11	240.68
762.43	240.48
762.76	240.53
763.08	240.43
763.41	240.49
763.74	240.31
764.06	240.17
764.39	240.04
764.71	239.99
765.04	239.72
765.37	239.58
765.69	239.42
766.02	239.24
766.34	239.08
766.67	238.77
767.00	238.61
767.32	238.59
767.65	238.66
767.97	238.55
768.30	238.38
768.62	238.35
768.95	238.26
769.27	238.16
769.60	237.94
769.92	237.79
770.25	237.52
770.57	237.48
770.90	237.32
771.22	237.18
771.55	237.02
771.87	236.92
772.20	236.92
772.52	237.06
772.85	237.21
773.17	237.07
773.50	237.07
773.82	236.93
774.15	236.72
774.47	236.40
774.80	236.35
775.12	236.25
775.45	236.06
775.77	235.86
776.09	235.72
776.42	235.65
776.74	235.59
777.07	235.41
777.39	235.30
777.72	235.12
778.04	235.04
778.36	234.96
778.69	234.95
779.01	234.85
779.33	234.54
779.66	234.25
779.98	234.25
780.31	234.09
780.63	234.05
780.95	233.98
781.28	233.95
781.60	233.78
781.92	233.73
782.25	233.63
782.57	233.56
782.89	233.54
783.22	233.40
783.54	233.27
783.86	233.23
784.19	233.06
784.51	233.18
784.83	233.11
785.16	233.00
785.48	232.85
785.80	232.73
786.12	232.58
786.45	232.47
786.77	232.36
787.09	232.33
787.42	232.25
787.74	232.23
788.06	232.15
788.38	232.08
788.71	231.90
789.03	231.90
789.35	231.88
789.67	231.79
789.99	231.84
790.32	231.87
790.64	231.93
