SpectraSuite Data File
++++++++++++++++++++++++++++++++++++
Date: Fri Feb 01 14:42:09 EST 2013
User: group
Dark Spectrum Present: No
Reference Spectrum Present: No
Number of Sampled Component Spectra: 1
Spectrometers: USB2E7196
Integration Time (usec): 70000 (USB2E7196)
Spectra Averaged: 10 (USB2E7196)
Boxcar Smoothing: 10 (USB2E7196)
Correct for Electrical Dark: No (USB2E7196)
Strobe/Lamp Enabled: No (USB2E7196)
Correct for Detector Non-linearity: No (USB2E7196)
Correct for Stray Light: No (USB2E7196)
Number of Pixels in Processed Spectrum: 2048
>>>>>Begin Processed Spectral Data<<<<<
339.09	0.00
339.48	215.20
339.86	217.20
340.24	220.20
340.63	221.00
341.01	224.70
341.39	224.20
341.78	224.70
342.16	225.90
342.54	226.90
342.93	214.66
343.31	225.42
343.69	226.01
344.07	226.53
344.46	226.87
344.84	227.24
345.22	227.40
345.60	227.61
345.99	227.79
346.37	227.94
346.75	228.07
347.13	228.09
347.52	228.15
347.90	228.31
348.28	228.44
348.66	228.52
349.05	228.48
349.43	228.57
349.81	228.58
350.19	228.60
350.57	228.68
350.96	228.75
351.34	228.96
351.72	229.05
352.10	229.05
352.48	229.21
352.87	229.29
353.25	229.30
353.63	229.40
354.01	229.44
354.39	229.48
354.77	229.47
355.15	229.61
355.54	229.81
355.92	229.81
356.30	229.87
356.68	230.07
357.06	230.15
357.44	230.10
357.82	230.20
358.20	230.36
358.58	230.30
358.97	230.37
359.35	230.46
359.73	230.55
360.11	230.58
360.49	230.62
360.87	230.58
361.25	230.74
361.63	230.71
362.01	230.80
362.39	230.75
362.77	230.86
363.15	230.91
363.53	230.84
363.91	230.80
364.29	230.80
364.67	230.55
365.05	230.55
365.43	230.61
365.81	230.56
366.19	230.62
366.57	230.74
366.95	230.67
367.33	230.54
367.71	230.51
368.09	230.59
368.47	230.53
368.85	230.51
369.23	230.48
369.61	230.45
369.99	230.40
370.37	230.43
370.75	230.41
371.13	230.36
371.51	230.23
371.89	230.30
372.27	230.20
372.65	230.24
373.03	230.14
373.41	230.01
373.78	230.01
374.16	229.85
374.54	229.73
374.92	229.63
375.30	229.58
375.68	229.49
376.06	229.41
376.44	229.32
376.82	229.33
377.19	229.23
377.57	229.13
377.95	229.02
378.33	228.86
378.71	228.65
379.09	228.53
379.47	228.55
379.84	228.25
380.22	228.14
380.60	227.98
380.98	227.93
381.36	228.01
381.73	227.90
382.11	227.86
382.49	227.75
382.87	227.74
383.25	227.69
383.62	227.81
384.00	227.70
384.38	227.64
384.76	227.64
385.13	227.67
385.51	227.65
385.89	227.58
386.27	227.70
386.64	227.71
387.02	227.68
387.40	227.66
387.78	227.81
388.15	227.89
388.53	227.89
388.91	227.92
389.29	227.77
389.66	227.78
390.04	227.78
390.42	227.92
390.79	227.96
391.17	227.92
391.55	227.83
391.92	227.91
392.30	227.99
392.68	227.88
393.05	227.85
393.43	227.90
393.81	228.04
394.18	227.92
394.56	228.02
394.94	228.13
395.31	228.17
395.69	228.20
396.06	228.22
396.44	228.26
396.82	228.25
397.19	228.45
397.57	228.41
397.95	228.51
398.32	228.45
398.70	228.51
399.07	228.73
399.45	228.72
399.82	228.85
400.20	228.91
400.58	229.05
400.95	229.10
401.33	229.25
401.70	229.48
402.08	229.70
402.45	229.82
402.83	230.00
403.20	230.19
403.58	230.45
403.95	230.67
404.33	230.89
404.71	231.18
405.08	231.48
405.46	231.77
405.83	232.00
406.21	232.22
406.58	232.51
406.96	232.65
407.33	232.96
407.70	233.28
408.08	233.84
408.45	234.22
408.83	234.66
409.20	234.90
409.58	235.22
409.95	235.59
410.33	235.96
410.70	236.33
411.08	236.84
411.45	237.23
411.82	237.75
412.20	238.34
412.57	238.98
412.95	239.39
413.32	240.07
413.69	240.66
414.07	241.38
414.44	242.12
414.82	242.93
415.19	243.70
415.56	244.56
415.94	245.27
416.31	246.23
416.68	247.21
417.06	248.41
417.43	249.49
417.81	250.65
418.18	251.93
418.55	253.37
418.93	254.58
419.30	256.02
419.67	257.52
420.04	259.05
420.42	260.70
420.79	262.65
421.16	264.43
421.54	266.39
421.91	268.44
422.28	270.47
422.66	272.70
423.03	275.06
423.40	277.19
423.77	279.40
424.15	281.79
424.52	284.14
424.89	286.78
425.26	289.17
425.64	291.58
426.01	294.16
426.38	296.85
426.75	299.76
427.13	302.48
427.50	305.42
427.87	308.34
428.24	311.22
428.61	314.03
428.99	317.16
429.36	320.51
429.73	323.77
430.10	327.06
430.47	330.27
430.85	333.49
431.22	336.95
431.59	340.85
431.96	344.50
432.33	348.52
432.70	352.24
433.08	356.81
433.45	360.99
433.82	365.19
434.19	369.69
434.56	374.13
434.93	378.24
435.30	382.31
435.68	387.01
436.05	391.53
436.42	395.97
436.79	399.97
437.16	404.34
437.53	408.99
437.90	413.48
438.27	417.87
438.64	422.38
439.01	426.68
439.38	430.23
439.75	433.50
440.13	437.50
440.50	441.36
440.87	444.31
441.24	447.38
441.61	450.90
441.98	453.26
442.35	456.14
442.72	459.33
443.09	462.23
443.46	463.81
443.83	464.67
444.20	465.36
444.57	466.68
444.94	467.21
445.31	467.50
445.68	468.01
446.05	468.10
446.42	467.54
446.79	466.72
447.16	465.93
447.53	465.39
447.90	463.40
448.27	461.39
448.64	458.80
449.01	456.98
449.37	453.54
449.74	450.68
450.11	447.03
450.48	442.96
450.85	438.90
451.22	435.47
451.59	432.20
451.96	429.05
452.33	424.85
452.70	420.86
453.07	416.38
453.43	411.72
453.80	407.20
454.17	402.93
454.54	398.90
454.91	394.50
455.28	390.24
455.65	386.29
456.02	382.52
456.38	379.12
456.75	374.80
457.12	371.28
457.49	367.50
457.86	363.95
458.23	360.93
458.59	357.68
458.96	354.32
459.33	351.37
459.70	348.40
460.07	346.04
460.43	343.22
460.80	340.75
461.17	338.50
461.54	336.28
461.91	333.91
462.27	331.59
462.64	329.73
463.01	327.64
463.38	325.60
463.74	323.21
464.11	321.27
464.48	319.73
464.85	317.93
465.21	316.53
465.58	315.17
465.95	313.41
466.32	311.85
466.68	310.35
467.05	308.91
467.42	307.52
467.78	306.01
468.15	304.64
468.52	303.44
468.88	301.97
469.25	300.56
469.62	299.44
469.98	298.30
470.35	297.23
470.72	296.16
471.08	294.99
471.45	294.18
471.82	293.25
472.18	292.27
472.55	291.54
472.92	290.68
473.28	289.90
473.65	289.20
474.02	288.54
474.38	287.94
474.75	287.37
475.11	286.75
475.48	286.33
475.85	285.96
476.21	285.54
476.58	285.06
476.94	284.71
477.31	284.47
477.67	284.27
478.04	283.84
478.41	283.53
478.77	283.66
479.14	283.39
479.50	283.32
479.87	283.44
480.23	283.40
480.60	283.38
480.96	283.24
481.33	283.35
481.69	283.47
482.06	283.60
482.42	283.89
482.79	284.05
483.15	284.26
483.52	284.77
483.88	285.01
484.25	285.51
484.61	286.03
484.98	286.58
485.34	287.31
485.71	288.14
486.07	289.07
486.44	289.68
486.80	290.51
487.17	291.50
487.53	292.50
487.90	293.69
488.26	294.90
488.62	296.30
488.99	297.74
489.35	299.20
489.72	300.73
490.08	302.21
490.44	303.97
490.81	305.97
491.17	307.79
491.54	310.05
491.90	312.24
492.26	314.59
492.63	316.97
492.99	319.28
493.36	321.95
493.72	324.79
494.08	327.70
494.45	330.99
494.81	334.36
495.17	337.76
495.54	341.40
495.90	345.25
496.26	349.36
496.63	353.50
496.99	358.09
497.35	362.75
497.72	367.70
498.08	372.95
498.44	378.32
498.80	383.99
499.17	389.75
499.53	395.76
499.89	402.19
500.26	408.75
500.62	415.54
500.98	422.61
501.34	430.08
501.71	437.90
502.07	445.77
502.43	454.06
502.79	462.54
503.16	471.43
503.52	480.66
503.88	489.93
504.24	499.80
504.60	509.72
504.97	520.30
505.33	531.22
505.69	542.61
506.05	553.87
506.41	565.62
506.78	577.84
507.14	590.40
507.50	603.46
507.86	616.99
508.22	630.82
508.59	645.08
508.95	659.81
509.31	674.78
509.67	690.33
510.03	706.07
510.39	722.12
510.75	738.67
511.12	755.61
511.48	772.98
511.84	790.56
512.20	808.34
512.56	826.71
512.92	845.18
513.28	864.24
513.64	883.68
514.00	903.38
514.37	923.64
514.73	944.00
515.09	964.44
515.45	985.18
515.81	1006.39
516.17	1028.03
516.53	1049.84
516.89	1071.94
517.25	1094.21
517.61	1116.62
517.97	1139.43
518.33	1161.79
518.69	1184.72
519.05	1208.39
519.41	1232.29
519.77	1256.99
520.13	1281.35
520.49	1305.73
520.85	1330.20
521.21	1354.81
521.57	1380.22
521.93	1404.27
522.29	1429.77
522.65	1455.01
523.01	1480.32
523.37	1505.20
523.73	1530.16
524.09	1555.63
524.45	1581.40
524.81	1607.14
525.17	1633.46
525.53	1659.54
525.89	1686.33
526.25	1712.83
526.61	1738.30
526.97	1764.27
527.33	1790.10
527.68	1816.37
528.04	1842.65
528.40	1868.68
528.76	1896.04
529.12	1922.22
529.48	1949.53
529.84	1975.09
530.20	2001.32
530.56	2028.13
530.91	2056.05
531.27	2083.03
531.63	2108.98
531.99	2135.12
532.35	2160.87
532.71	2185.99
533.07	2211.51
533.42	2236.79
533.78	2262.20
534.14	2287.76
534.50	2312.08
534.86	2336.34
535.21	2360.04
535.57	2385.09
535.93	2409.78
536.29	2433.28
536.65	2457.00
537.00	2479.92
537.36	2503.80
537.72	2527.07
538.08	2549.29
538.44	2571.02
538.79	2592.85
539.15	2614.25
539.51	2636.31
539.87	2658.21
540.22	2680.21
540.58	2702.73
540.94	2723.75
541.29	2743.96
541.65	2764.35
542.01	2785.55
542.37	2806.19
542.72	2826.23
543.08	2845.30
543.44	2864.33
543.79	2881.94
544.15	2900.40
544.51	2919.73
544.87	2938.34
545.22	2955.79
545.58	2973.33
545.94	2989.02
546.29	3005.37
546.65	3021.40
547.01	3036.48
547.36	3051.33
547.72	3065.83
548.07	3079.39
548.43	3093.23
548.79	3106.67
549.14	3119.28
549.50	3131.49
549.86	3143.44
550.21	3155.45
550.57	3167.16
550.92	3178.66
551.28	3190.60
551.64	3201.25
551.99	3211.71
552.35	3221.46
552.70	3231.60
553.06	3241.87
553.41	3252.28
553.77	3262.60
554.13	3273.15
554.48	3282.66
554.84	3291.60
555.19	3300.71
555.55	3309.11
555.90	3316.94
556.26	3325.30
556.61	3334.21
556.97	3341.33
557.32	3349.13
557.68	3356.71
558.03	3363.81
558.39	3370.67
558.74	3378.24
559.10	3384.96
559.45	3391.60
559.81	3399.12
560.16	3404.83
560.52	3410.00
560.87	3416.44
561.23	3420.49
561.58	3425.14
561.94	3429.51
562.29	3433.14
562.64	3436.26
563.00	3439.89
563.35	3444.95
563.71	3449.65
564.06	3454.03
564.42	3458.88
564.77	3463.08
565.12	3466.75
565.48	3470.35
565.83	3472.31
566.19	3473.92
566.54	3475.56
566.89	3476.72
567.25	3477.53
567.60	3479.95
567.96	3481.50
568.31	3482.12
568.66	3483.19
569.02	3483.47
569.37	3483.52
569.72	3484.97
570.08	3485.30
570.43	3484.77
570.78	3483.26
571.14	3481.59
571.49	3479.81
571.84	3479.30
572.20	3476.39
572.55	3473.21
572.90	3469.70
573.26	3467.86
573.61	3465.58
573.96	3462.50
574.31	3457.68
574.67	3452.18
575.02	3446.59
575.37	3442.28
575.72	3435.97
576.08	3430.97
576.43	3425.70
576.78	3420.39
577.13	3415.10
577.49	3409.53
577.84	3404.06
578.19	3397.94
578.54	3391.01
578.90	3383.83
579.25	3374.74
579.60	3367.28
579.95	3360.28
580.30	3352.70
580.66	3344.09
581.01	3334.67
581.36	3327.04
581.71	3320.72
582.06	3313.49
582.42	3306.19
582.77	3297.55
583.12	3289.69
583.47	3281.81
583.82	3273.98
584.17	3265.04
584.53	3256.24
584.88	3247.96
585.23	3239.35
585.58	3231.20
585.93	3223.16
586.28	3215.07
586.63	3207.36
586.98	3199.41
587.34	3191.14
587.69	3182.64
588.04	3174.38
588.39	3167.18
588.74	3156.63
589.09	3146.12
589.44	3135.61
589.79	3125.99
590.14	3117.35
590.49	3108.42
590.84	3098.38
591.19	3088.63
591.54	3078.08
591.89	3066.45
592.25	3055.69
592.60	3044.20
592.95	3032.80
593.30	3021.28
593.65	3009.47
594.00	2997.99
594.35	2987.46
594.70	2975.39
595.05	2964.55
595.40	2952.95
595.75	2940.61
596.10	2931.20
596.45	2921.35
596.80	2912.20
597.15	2901.81
597.50	2890.20
597.85	2879.72
598.19	2869.93
598.54	2858.96
598.89	2849.25
599.24	2840.42
599.59	2830.08
599.94	2820.61
600.29	2810.30
600.64	2800.43
600.99	2789.30
601.34	2778.55
601.69	2766.91
602.04	2757.16
602.39	2746.24
602.74	2736.57
603.08	2726.70
603.43	2716.06
603.78	2705.00
604.13	2693.56
604.48	2681.92
604.83	2671.17
605.18	2660.15
605.53	2647.85
605.87	2635.67
606.22	2624.54
606.57	2612.24
606.92	2601.18
607.27	2590.02
607.62	2579.41
607.96	2568.26
608.31	2557.93
608.66	2546.19
609.01	2534.24
609.36	2521.14
609.70	2508.16
610.05	2494.85
610.40	2482.43
610.75	2469.29
611.10	2456.77
611.44	2443.56
611.79	2431.84
612.14	2418.81
612.49	2404.96
612.83	2392.11
613.18	2379.66
613.53	2367.08
613.88	2353.83
614.22	2340.70
614.57	2326.90
614.92	2314.00
615.27	2300.97
615.61	2287.84
615.96	2275.63
616.31	2263.88
616.65	2253.18
617.00	2241.91
617.35	2230.17
617.70	2217.79
618.04	2205.25
618.39	2193.15
618.74	2181.91
619.08	2168.79
619.43	2157.24
619.78	2146.03
620.12	2134.50
620.47	2123.02
620.82	2110.50
621.16	2099.16
621.51	2087.22
621.85	2075.97
622.20	2062.80
622.55	2051.10
622.89	2039.54
623.24	2028.26
623.59	2016.87
623.93	2004.66
624.28	1993.09
624.62	1981.61
624.97	1970.45
625.32	1959.65
625.66	1948.42
626.01	1936.94
626.35	1926.01
626.70	1914.37
627.04	1903.61
627.39	1891.87
627.73	1880.16
628.08	1869.40
628.43	1857.97
628.77	1846.95
629.12	1835.24
629.46	1824.73
629.81	1812.60
630.15	1800.44
630.50	1788.57
630.84	1775.98
631.19	1763.61
631.53	1751.85
631.88	1739.37
632.22	1726.80
632.57	1715.66
632.91	1703.94
633.26	1692.18
633.60	1680.03
633.95	1668.68
634.29	1657.17
634.64	1646.86
634.98	1635.85
635.32	1625.42
635.67	1615.08
636.01	1604.28
636.36	1593.54
636.70	1583.39
637.05	1573.53
637.39	1564.02
637.73	1554.11
638.08	1545.00
638.42	1536.09
638.77	1526.31
639.11	1517.04
639.45	1507.47
639.80	1497.28
640.14	1487.34
640.49	1477.74
640.83	1468.35
641.17	1458.70
641.52	1448.34
641.86	1437.78
642.20	1428.29
642.55	1418.21
642.89	1408.32
643.23	1398.54
643.58	1389.51
643.92	1379.36
644.26	1369.44
644.61	1359.95
644.95	1350.03
645.29	1339.32
645.64	1328.98
645.98	1319.40
646.32	1309.85
646.66	1300.18
647.01	1290.27
647.35	1281.04
647.69	1271.27
648.04	1262.31
648.38	1252.62
648.72	1243.15
649.06	1233.68
649.41	1224.28
649.75	1214.02
650.09	1204.44
650.43	1194.90
650.78	1184.86
651.12	1175.41
651.46	1166.06
651.80	1156.87
652.14	1147.70
652.49	1138.99
652.83	1130.29
653.17	1120.65
653.51	1111.38
653.85	1102.56
654.20	1093.84
654.54	1084.37
654.88	1075.40
655.22	1065.76
655.56	1056.46
655.90	1047.73
656.25	1039.36
656.59	1030.63
656.93	1022.69
657.27	1014.34
657.61	1005.60
657.95	997.81
658.29	989.82
658.64	981.89
658.98	973.10
659.32	964.72
659.66	956.93
660.00	948.83
660.34	941.04
660.68	933.60
661.02	925.69
661.36	918.43
661.70	911.17
662.05	904.12
662.39	897.64
662.73	890.56
663.07	883.77
663.41	876.87
663.75	869.81
664.09	862.94
664.43	856.14
664.77	849.84
665.11	843.03
665.45	836.33
665.79	829.72
666.13	823.51
666.47	817.04
666.81	810.14
667.15	803.22
667.49	797.23
667.83	790.78
668.17	784.76
668.51	778.03
668.85	771.78
669.19	765.71
669.53	759.52
669.87	753.80
670.21	748.02
670.55	742.33
670.89	736.95
671.23	731.38
671.57	725.90
671.91	720.49
672.25	714.99
672.58	709.66
672.92	704.31
673.26	699.06
673.60	694.10
673.94	689.04
674.28	684.90
674.62	679.83
674.96	675.13
675.30	670.35
675.64	665.72
675.97	661.18
676.31	656.82
676.65	652.22
676.99	647.86
677.33	643.20
677.67	638.55
678.01	634.03
678.34	629.39
678.68	624.80
679.02	620.23
679.36	615.82
679.70	611.67
680.04	607.41
680.37	603.08
680.71	598.86
681.05	595.27
681.39	591.00
681.73	586.99
682.06	583.05
682.40	579.22
682.74	575.32
683.08	571.45
683.42	567.36
683.75	563.46
684.09	559.46
684.43	555.62
684.77	551.99
685.10	548.26
685.44	544.70
685.78	541.15
686.12	537.49
686.45	534.07
686.79	530.25
687.13	526.76
687.46	523.42
687.80	520.10
688.14	516.49
688.48	513.08
688.81	509.69
689.15	506.29
689.49	502.93
689.82	499.84
690.16	496.71
690.50	493.68
690.83	490.52
691.17	487.55
691.51	484.63
691.84	481.56
692.18	478.55
692.52	475.55
692.85	472.66
693.19	469.91
693.52	466.86
693.86	464.16
694.20	461.33
694.53	458.61
694.87	455.62
695.21	452.75
695.54	449.90
695.88	447.32
696.21	444.54
696.55	441.89
696.88	439.27
697.22	436.70
697.56	433.94
697.89	431.27
698.23	428.73
698.56	426.20
698.90	423.61
699.23	420.86
699.57	418.33
699.90	415.95
700.24	413.42
700.58	411.07
700.91	408.70
701.25	406.40
701.58	404.09
701.92	402.01
702.25	399.84
702.59	397.61
702.92	395.44
703.26	393.35
703.59	391.27
703.93	389.40
704.26	387.24
704.60	385.29
704.93	383.34
705.26	381.39
705.60	379.51
705.93	377.81
706.27	376.25
706.60	374.59
706.94	372.75
707.27	370.86
707.61	369.19
707.94	367.57
708.27	365.88
708.61	364.10
708.94	362.37
709.28	360.76
709.61	359.34
709.94	357.91
710.28	356.39
710.61	354.84
710.95	353.17
711.28	351.72
711.61	350.32
711.95	348.91
712.28	347.27
712.61	345.62
712.95	344.07
713.28	342.69
713.61	341.28
713.95	339.80
714.28	338.66
714.61	337.33
714.95	336.00
715.28	334.67
715.61	333.29
715.95	332.00
716.28	330.68
716.61	329.25
716.95	327.91
717.28	326.73
717.61	325.60
717.94	324.49
718.28	323.20
718.61	321.94
718.94	320.97
719.27	320.09
719.61	319.27
719.94	318.18
720.27	316.99
720.60	315.90
720.94	314.93
721.27	313.84
721.60	312.92
721.93	311.86
722.27	311.07
722.60	310.30
722.93	309.44
723.26	308.63
723.59	307.84
723.93	306.91
724.26	306.01
724.59	305.01
724.92	304.02
725.25	303.30
725.59	302.49
725.92	301.65
726.25	300.72
726.58	299.96
726.91	299.22
727.24	298.41
727.57	297.65
727.91	296.96
728.24	296.13
728.57	295.27
728.90	294.62
729.23	293.62
729.56	292.91
729.89	292.29
730.22	291.39
730.55	290.58
730.89	289.87
731.22	289.14
731.55	288.49
731.88	287.84
732.21	286.98
732.54	286.24
732.87	285.56
733.20	284.97
733.53	284.26
733.86	283.59
734.19	282.94
734.52	282.33
734.85	281.71
735.18	281.11
735.51	280.49
735.84	279.80
736.17	279.26
736.50	278.56
736.83	278.14
737.16	277.74
737.49	277.17
737.82	276.60
738.15	276.12
738.48	275.63
738.81	275.11
739.14	274.60
739.47	274.11
739.80	273.47
740.13	273.02
740.46	272.45
740.79	271.95
741.12	271.46
741.45	270.89
741.78	270.35
742.11	269.85
742.44	269.30
742.77	268.76
743.10	268.20
743.43	267.67
743.75	266.91
744.08	266.70
744.41	266.21
744.74	265.75
745.07	265.35
745.40	264.84
745.73	264.41
746.06	264.08
746.39	263.63
746.71	263.22
747.04	262.67
747.37	262.20
747.70	261.73
748.03	261.33
748.36	261.01
748.68	260.54
749.01	260.20
749.34	259.80
749.67	259.47
750.00	259.14
750.33	258.88
750.65	258.58
750.98	257.91
751.31	257.57
751.64	257.21
751.97	256.80
752.29	256.50
752.62	256.14
752.95	255.72
753.28	255.38
753.60	254.98
753.93	254.67
754.26	254.43
754.59	254.03
754.91	253.74
755.24	253.42
755.57	253.13
755.90	252.92
756.22	252.67
756.55	252.43
756.88	252.12
757.20	251.70
757.53	251.31
757.86	251.11
758.19	251.00
758.51	250.82
758.84	250.61
759.17	250.33
759.49	249.99
759.82	249.97
760.15	249.76
760.47	249.57
760.80	249.35
761.13	249.08
761.45	249.03
761.78	248.69
762.11	248.41
762.43	248.17
762.76	247.74
763.08	247.57
763.41	247.32
763.74	247.13
764.06	246.95
764.39	246.77
764.71	246.47
765.04	246.20
765.37	245.96
765.69	245.66
766.02	245.50
766.34	245.38
766.67	245.10
767.00	244.96
767.32	244.89
767.65	244.78
767.97	244.60
768.30	244.33
768.62	244.33
768.95	244.11
769.27	243.96
769.60	243.92
769.92	243.68
770.25	243.52
770.57	243.42
770.90	243.32
771.22	243.20
771.55	243.06
771.87	242.89
772.20	242.71
772.52	242.74
772.85	242.72
773.17	242.55
773.50	242.26
773.82	242.14
774.15	241.87
774.47	241.63
774.80	241.48
775.12	241.26
775.45	241.03
775.77	240.87
776.09	240.70
776.42	240.57
776.74	240.56
777.07	240.39
777.39	240.25
777.72	240.01
778.04	239.89
778.36	239.80
778.69	239.77
779.01	239.56
779.33	239.31
779.66	239.07
779.98	238.92
780.31	238.85
780.63	238.71
780.95	238.66
781.28	238.47
781.60	238.29
781.92	238.20
782.25	238.12
782.57	238.02
782.89	237.90
783.22	237.70
783.54	237.56
783.86	237.44
784.19	237.34
784.51	237.39
784.83	237.14
785.16	236.99
785.48	236.78
