SpectraSuite Data File
++++++++++++++++++++++++++++++++++++
Date: Fri Feb 01 14:37:47 EST 2013
User: group
Dark Spectrum Present: No
Reference Spectrum Present: No
Number of Sampled Component Spectra: 1
Spectrometers: USB2E7196
Integration Time (usec): 70000 (USB2E7196)
Spectra Averaged: 10 (USB2E7196)
Boxcar Smoothing: 10 (USB2E7196)
Correct for Electrical Dark: No (USB2E7196)
Strobe/Lamp Enabled: No (USB2E7196)
Correct for Detector Non-linearity: No (USB2E7196)
Correct for Stray Light: No (USB2E7196)
Number of Pixels in Processed Spectrum: 2048
>>>>>Begin Processed Spectral Data<<<<<
339.09	0.00
339.48	215.80
339.86	218.40
340.24	217.90
340.63	220.40
341.01	226.00
341.39	220.30
341.78	223.50
342.16	224.80
342.54	225.50
342.93	214.13
343.31	224.95
343.69	225.50
344.07	225.94
344.46	226.49
344.84	226.87
345.22	227.00
345.60	227.41
345.99	227.71
346.37	227.86
346.75	227.96
347.13	228.05
347.52	228.05
347.90	228.18
348.28	228.14
348.66	228.30
349.05	228.23
349.43	228.20
349.81	228.30
350.19	228.38
350.57	228.49
350.96	228.56
351.34	228.59
351.72	228.69
352.10	228.67
352.48	228.64
352.87	228.75
353.25	228.80
353.63	228.82
354.01	228.85
354.39	228.91
354.77	228.95
355.15	229.07
355.54	229.13
355.92	229.13
356.30	229.21
356.68	229.42
357.06	229.44
357.44	229.58
357.82	229.60
358.20	229.61
358.58	229.66
358.97	229.66
359.35	229.71
359.73	229.71
360.11	229.85
360.49	229.84
360.87	229.78
361.25	229.86
361.63	229.96
362.01	230.01
362.39	229.85
362.77	229.87
363.15	229.78
363.53	229.80
363.91	229.88
364.29	229.84
364.67	229.55
365.05	229.55
365.43	229.54
365.81	229.61
366.19	229.71
366.57	229.73
366.95	229.72
367.33	229.70
367.71	229.70
368.09	229.65
368.47	229.55
368.85	229.48
369.23	229.40
369.61	229.23
369.99	229.11
370.37	229.25
370.75	229.30
371.13	229.19
371.51	229.07
371.89	228.96
372.27	228.91
372.65	228.98
373.03	228.86
373.41	228.79
373.78	228.58
374.16	228.31
374.54	228.15
374.92	228.05
375.30	227.96
375.68	227.91
376.06	227.85
376.44	227.93
376.82	227.82
377.19	227.74
377.57	227.64
377.95	227.61
378.33	227.51
378.71	227.40
379.09	227.43
379.47	227.31
379.84	227.18
380.22	227.10
380.60	227.01
380.98	226.92
381.36	226.80
381.73	226.78
382.11	226.80
382.49	226.68
382.87	226.55
383.25	226.52
383.62	226.63
384.00	226.63
384.38	226.58
384.76	226.69
385.13	226.77
385.51	226.81
385.89	226.63
386.27	226.53
386.64	226.47
387.02	226.44
387.40	226.46
387.78	226.45
388.15	226.58
388.53	226.50
388.91	226.47
389.29	226.41
389.66	226.43
390.04	226.54
390.42	226.53
390.79	226.59
391.17	226.50
391.55	226.30
391.92	226.17
392.30	226.08
392.68	225.98
393.05	225.93
393.43	225.94
393.81	226.01
394.18	226.15
394.56	226.10
394.94	226.15
395.31	226.21
395.69	226.35
396.06	226.40
396.44	226.40
396.82	226.55
397.19	226.77
397.57	226.81
397.95	226.82
398.32	226.98
398.70	227.21
399.07	227.43
399.45	227.48
399.82	227.62
400.20	227.81
400.58	227.99
400.95	228.00
401.33	228.13
401.70	228.38
402.08	228.48
402.45	228.67
402.83	228.80
403.20	229.07
403.58	229.25
403.95	229.30
404.33	229.63
404.71	229.79
405.08	230.00
405.46	230.18
405.83	230.39
406.21	230.57
406.58	230.69
406.96	230.93
407.33	231.28
407.70	231.57
408.08	231.96
408.45	232.31
408.83	232.65
409.20	232.94
409.58	233.12
409.95	233.40
410.33	233.86
410.70	234.28
411.08	234.61
411.45	234.95
411.82	235.35
412.20	235.79
412.57	236.44
412.95	236.86
413.32	237.46
413.69	238.09
414.07	238.67
414.44	239.30
414.82	240.03
415.19	240.84
415.56	241.56
415.94	242.31
416.31	243.14
416.68	244.00
417.06	245.10
417.43	246.09
417.81	247.34
418.18	248.42
418.55	249.58
418.93	250.85
419.30	252.11
419.67	253.47
420.04	254.81
420.42	256.23
420.79	258.02
421.16	259.71
421.54	261.45
421.91	263.31
422.28	265.20
422.66	267.20
423.03	269.10
423.40	271.12
423.77	273.14
424.15	275.36
424.52	277.61
424.89	279.95
425.26	282.35
425.64	284.57
426.01	287.07
426.38	289.67
426.75	292.40
427.13	295.32
427.50	298.28
427.87	301.33
428.24	304.26
428.61	307.08
428.99	310.32
429.36	313.80
429.73	317.20
430.10	320.60
430.47	324.00
430.85	327.54
431.22	331.28
431.59	335.47
431.96	339.34
432.33	343.60
432.70	347.66
433.08	352.38
433.45	356.90
433.82	361.55
434.19	366.70
434.56	371.39
434.93	375.85
435.30	380.52
435.68	385.77
436.05	390.81
436.42	395.78
436.79	400.23
437.16	404.93
437.53	410.20
437.90	415.24
438.27	420.25
438.64	425.34
439.01	430.22
439.38	434.25
439.75	438.37
440.13	443.09
440.50	447.71
440.87	451.63
441.24	455.39
441.61	459.54
441.98	462.62
442.35	466.42
442.72	470.40
443.09	473.98
443.46	476.16
443.83	477.84
444.20	479.26
444.57	481.24
444.94	482.50
445.31	483.44
445.68	484.69
446.05	485.49
446.42	485.55
446.79	485.41
447.16	485.38
447.53	485.31
447.90	484.00
448.27	482.61
448.64	480.28
449.01	479.01
449.37	475.94
449.74	473.02
450.11	469.62
450.48	465.54
450.85	461.68
451.22	458.47
451.59	455.42
451.96	452.43
452.33	448.37
452.70	444.58
453.07	440.14
453.43	435.30
453.80	430.62
454.17	426.31
454.54	422.21
454.91	417.73
455.28	413.20
455.65	408.97
456.02	404.71
456.38	401.10
456.75	396.54
457.12	392.86
457.49	389.21
457.86	385.58
458.23	382.51
458.59	378.97
458.96	375.31
459.33	371.98
459.70	368.82
460.07	366.22
460.43	363.31
460.80	360.52
461.17	358.20
461.54	355.71
461.91	353.12
462.27	350.55
462.64	348.23
463.01	345.97
463.38	343.79
463.74	341.44
464.11	339.40
464.48	337.52
464.85	335.44
465.21	333.74
465.58	332.01
465.95	330.12
466.32	328.48
466.68	326.84
467.05	325.17
467.42	323.45
467.78	321.72
468.15	320.04
468.52	318.81
468.88	317.13
469.25	315.60
469.62	314.32
469.98	313.02
470.35	311.90
470.72	310.57
471.08	309.16
471.45	307.95
471.82	306.84
472.18	305.78
472.55	304.94
472.92	303.84
473.28	302.88
473.65	301.90
474.02	300.86
474.38	299.96
474.75	299.18
475.11	298.30
475.48	297.70
475.85	297.13
476.21	296.50
476.58	296.09
476.94	295.70
477.31	295.25
477.67	294.68
478.04	294.18
478.41	293.84
478.77	293.70
479.14	293.48
479.50	293.15
479.87	292.84
480.23	292.62
480.60	292.51
480.96	292.27
481.33	292.09
481.69	292.11
482.06	292.03
482.42	291.95
482.79	292.00
483.15	291.92
483.52	292.01
483.88	291.91
484.25	291.66
484.61	291.63
484.98	291.61
485.34	291.82
485.71	292.06
486.07	292.27
486.44	292.22
486.80	292.40
487.17	292.73
487.53	292.94
487.90	293.07
488.26	293.29
488.62	293.62
488.99	293.87
489.35	294.14
489.72	294.53
490.08	294.95
490.44	295.38
490.81	295.81
491.17	296.10
491.54	296.59
491.90	297.21
492.26	297.56
492.63	298.03
492.99	298.40
493.36	298.77
493.72	299.34
494.08	299.87
494.45	300.40
494.81	300.86
495.17	301.30
495.54	302.00
495.90	302.52
496.26	302.99
496.63	303.53
496.99	304.19
497.35	304.76
497.72	305.30
498.08	305.76
498.44	306.31
498.80	307.00
499.17	307.58
499.53	308.00
499.89	308.53
500.26	309.00
500.62	309.57
500.98	310.22
501.34	310.48
501.71	310.97
502.07	311.35
502.43	311.58
502.79	312.16
503.16	312.59
503.52	312.92
503.88	313.17
504.24	313.59
504.60	313.87
504.97	314.19
505.33	314.53
505.69	314.86
506.05	315.10
506.41	315.26
506.78	315.40
507.14	315.58
507.50	315.94
507.86	316.27
508.22	316.41
508.59	316.32
508.95	316.53
509.31	316.72
509.67	316.81
510.03	317.01
510.39	316.96
510.75	316.90
511.12	317.12
511.48	317.27
511.84	317.43
512.20	317.48
512.56	317.51
512.92	317.55
513.28	317.63
513.64	317.73
514.00	317.85
514.37	317.99
514.73	318.15
515.09	318.25
515.45	318.38
515.81	318.52
516.17	318.97
516.53	319.22
516.89	319.40
517.25	319.80
517.61	320.36
517.97	320.89
518.33	321.43
518.69	321.77
519.05	322.48
519.41	323.06
519.77	323.97
520.13	324.75
520.49	325.46
520.85	326.23
521.21	327.05
521.57	327.97
521.93	328.97
522.29	330.19
522.65	331.25
523.01	332.40
523.37	333.60
523.73	334.79
524.09	336.24
524.45	337.66
524.81	339.06
525.17	340.56
525.53	342.23
525.89	343.93
526.25	345.87
526.61	347.49
526.97	349.20
527.33	351.01
527.68	353.13
528.04	355.41
528.40	357.67
528.76	360.14
529.12	362.67
529.48	365.16
529.84	367.64
530.20	370.44
530.56	373.34
530.91	376.41
531.27	379.33
531.63	382.32
531.99	385.45
532.35	388.74
532.71	392.10
533.07	395.32
533.42	398.93
533.78	402.40
534.14	406.00
534.50	409.85
534.86	413.58
535.21	417.26
535.57	421.15
535.93	425.06
536.29	429.09
536.65	433.02
537.00	437.04
537.36	441.21
537.72	445.17
538.08	449.33
538.44	453.54
538.79	457.74
539.15	462.10
539.51	466.65
539.87	471.20
540.22	475.67
540.58	480.46
540.94	484.91
541.29	489.46
541.65	494.23
542.01	499.02
542.37	503.70
542.72	508.55
543.08	513.22
543.44	518.17
543.79	522.69
544.15	527.68
544.51	533.06
544.87	538.17
545.22	543.48
545.58	548.59
545.94	553.51
546.29	558.52
546.65	563.54
547.01	568.51
547.36	573.47
547.72	578.31
548.07	583.31
548.43	588.27
548.79	593.40
549.14	598.55
549.50	603.48
549.86	608.50
550.21	613.45
550.57	618.65
550.92	623.74
551.28	628.89
551.64	633.90
551.99	638.66
552.35	643.50
552.70	648.67
553.06	653.60
553.41	658.50
553.77	663.94
554.13	668.97
554.48	673.89
554.84	678.87
555.19	683.93
555.55	688.94
555.90	693.60
556.26	698.54
556.61	703.30
556.97	707.98
557.32	712.78
557.68	717.65
558.03	722.42
558.39	727.02
558.74	732.20
559.10	736.90
559.45	741.33
559.81	746.27
560.16	750.53
560.52	755.04
560.87	759.90
561.23	764.01
561.58	768.70
561.94	773.15
562.29	777.35
562.64	781.74
563.00	785.93
563.35	790.66
563.71	795.26
564.06	799.58
564.42	804.30
564.77	808.66
565.12	812.86
565.48	817.14
565.83	821.22
566.19	825.10
566.54	829.00
566.89	833.26
567.25	836.59
567.60	840.66
567.96	844.54
568.31	848.38
568.66	852.28
569.02	855.77
569.37	859.30
569.72	862.77
570.08	866.10
570.43	869.25
570.78	872.25
571.14	874.80
571.49	877.77
571.84	880.74
572.20	883.41
572.55	886.29
572.90	888.72
573.26	891.39
573.61	893.73
573.96	896.04
574.31	898.03
574.67	900.23
575.02	901.87
575.37	903.84
575.72	905.20
576.08	907.07
576.43	908.71
576.78	910.49
577.13	912.50
577.49	914.16
577.84	915.88
578.19	917.54
578.54	919.19
578.90	920.47
579.25	921.28
579.60	922.45
579.95	923.29
580.30	924.48
580.66	925.09
581.01	925.69
581.36	926.60
581.71	927.67
582.06	928.49
582.42	929.47
582.77	929.74
583.12	930.58
583.47	931.09
583.82	931.92
584.17	932.12
584.53	932.37
584.88	932.66
585.23	932.96
585.58	933.27
585.93	933.39
586.28	933.87
586.63	934.23
586.98	934.51
587.34	934.59
587.69	934.56
588.04	934.93
588.39	935.44
588.74	935.17
589.09	934.75
589.44	934.41
589.79	934.36
590.14	934.72
590.49	934.22
590.84	933.64
591.19	932.93
591.54	932.29
591.89	931.64
592.25	930.97
592.60	929.75
592.95	928.65
593.30	927.59
593.65	926.30
594.00	925.15
594.35	924.50
594.70	923.22
595.05	921.90
595.40	920.43
595.75	918.80
596.10	917.53
596.45	916.42
596.80	915.80
597.15	914.52
597.50	912.89
597.85	911.95
598.19	911.12
598.54	910.01
598.89	909.04
599.24	907.82
599.59	906.53
599.94	905.53
600.29	904.30
600.64	903.06
600.99	901.58
601.34	900.32
601.69	898.35
602.04	897.23
602.39	895.94
602.74	894.62
603.08	893.50
603.43	892.49
603.78	890.89
604.13	889.20
604.48	887.51
604.83	885.97
605.18	884.15
605.53	881.83
605.87	879.60
606.22	877.87
606.57	876.10
606.92	874.16
607.27	872.37
607.62	870.55
607.96	868.97
608.31	867.38
608.66	865.20
609.01	862.92
609.36	860.32
609.70	857.88
610.05	855.34
610.40	852.74
610.75	850.08
611.10	847.50
611.44	844.57
611.79	842.10
612.14	839.58
612.49	836.69
612.83	834.03
613.18	831.53
613.53	828.67
613.88	825.61
614.22	823.00
614.57	820.09
614.92	817.20
615.27	814.20
615.61	811.30
615.96	808.47
616.31	806.10
616.65	803.92
617.00	801.49
617.35	799.07
617.70	796.15
618.04	793.41
618.39	790.82
618.74	788.22
619.08	785.22
619.43	782.60
619.78	780.27
620.12	777.69
620.47	774.90
620.82	772.08
621.16	769.64
621.51	766.90
621.85	764.24
622.20	761.54
622.55	758.79
622.89	755.98
623.24	753.58
623.59	750.88
623.93	748.20
624.28	745.56
624.62	743.14
624.97	740.82
625.32	738.17
625.66	735.75
626.01	733.10
626.35	730.53
626.70	727.71
627.04	724.96
627.39	722.19
627.73	719.61
628.08	716.94
628.43	714.10
628.77	711.56
629.12	708.83
629.46	706.17
629.81	703.22
630.15	700.34
630.50	697.40
630.84	694.44
631.19	691.37
631.53	688.26
631.88	685.06
632.22	681.80
632.57	679.17
632.91	676.03
633.26	673.28
633.60	670.27
633.95	667.28
634.29	664.47
634.64	661.85
634.98	658.94
635.32	656.35
635.67	653.67
636.01	650.82
636.36	647.76
636.70	644.95
637.05	642.29
637.39	639.67
637.73	636.91
638.08	634.32
638.42	631.95
638.77	629.52
639.11	626.91
639.45	624.50
639.80	621.71
640.14	619.11
640.49	616.48
640.83	613.81
641.17	611.41
641.52	608.87
641.86	606.20
642.20	603.77
642.55	601.15
642.89	598.38
643.23	595.61
643.58	593.48
643.92	590.87
644.26	588.35
644.61	585.89
644.95	583.50
645.29	580.69
645.64	577.80
645.98	575.06
646.32	572.53
646.66	569.77
647.01	567.13
647.35	564.60
647.69	562.02
648.04	559.79
648.38	557.03
648.72	554.19
649.06	551.62
649.41	548.92
649.75	546.10
650.09	543.57
650.43	540.96
650.78	538.15
651.12	535.54
651.46	533.04
651.80	530.54
652.14	528.04
652.49	525.69
652.83	523.18
653.17	520.64
653.51	518.24
653.85	515.92
654.20	513.31
654.54	510.73
654.88	508.03
655.22	505.22
655.56	502.62
655.90	500.33
656.25	497.76
656.59	495.40
656.93	493.15
657.27	490.86
657.61	488.40
657.95	486.26
658.29	484.05
658.64	481.66
658.98	478.99
659.32	476.47
659.66	474.10
660.00	471.87
660.34	469.60
660.68	467.01
661.02	464.68
661.36	462.62
661.70	460.50
662.05	458.51
662.39	456.72
662.73	454.93
663.07	452.82
663.41	450.97
663.75	448.97
664.09	446.88
664.43	444.80
664.77	443.04
665.11	441.06
665.45	439.16
665.79	437.25
666.13	435.79
666.47	433.83
666.81	432.08
667.15	430.06
667.49	428.26
667.83	426.65
668.17	424.89
668.51	423.02
668.85	421.33
669.19	419.64
669.53	417.65
669.87	415.63
670.21	413.91
670.55	412.04
670.89	410.58
671.23	409.09
671.57	407.50
671.91	405.83
672.25	404.22
672.58	402.53
672.92	400.95
673.26	399.21
673.60	397.74
673.94	396.23
674.28	395.01
674.62	393.59
674.96	392.21
675.30	390.75
675.64	389.16
675.97	387.55
676.31	386.02
676.65	384.70
676.99	383.50
677.33	382.15
677.67	380.90
678.01	379.31
678.34	377.89
678.68	376.68
679.02	375.12
679.36	373.75
679.70	372.40
680.04	371.05
680.37	369.72
680.71	368.40
681.05	367.13
681.39	365.68
681.73	364.36
682.06	363.08
682.40	361.90
682.74	360.79
683.08	359.66
683.42	358.51
683.75	357.24
684.09	355.91
684.43	354.63
684.77	353.34
685.10	352.08
685.44	350.82
685.78	349.42
686.12	348.40
686.45	347.18
686.79	346.06
687.13	344.86
687.46	343.50
687.80	342.36
688.14	341.00
688.48	339.89
688.81	338.69
689.15	337.53
689.49	336.27
689.82	335.09
690.16	333.97
690.50	332.77
690.83	331.59
691.17	330.36
691.51	329.31
691.84	328.13
692.18	327.01
692.52	325.88
692.85	324.73
693.19	323.64
693.52	322.55
693.86	321.41
694.20	320.36
694.53	319.44
694.87	318.36
695.21	317.39
695.54	316.27
695.88	315.18
696.21	314.10
696.55	313.21
696.88	312.34
697.22	311.34
697.56	310.41
697.89	309.51
698.23	308.78
698.56	307.84
698.90	307.07
699.23	306.04
699.57	305.15
699.90	304.26
700.24	303.26
700.58	302.33
700.91	301.41
701.25	300.70
701.58	299.89
701.92	299.19
702.25	298.35
702.59	297.64
702.92	297.00
703.26	296.30
703.59	295.54
703.93	294.89
704.26	294.15
704.60	293.44
704.93	292.76
705.26	291.95
705.60	291.21
705.93	290.58
706.27	290.10
706.60	289.56
706.94	289.04
707.27	288.48
707.61	287.95
707.94	287.36
708.27	286.76
708.61	286.08
708.94	285.39
709.28	284.94
709.61	284.40
709.94	283.92
710.28	283.32
710.61	282.74
710.95	282.01
711.28	281.66
711.61	281.16
711.95	280.62
712.28	280.07
712.61	279.47
712.95	278.93
713.28	278.51
713.61	277.99
713.95	277.40
714.28	276.97
714.61	276.51
714.95	276.10
715.28	275.56
715.61	275.05
715.95	274.56
716.28	274.00
716.61	273.51
716.95	272.94
717.28	272.50
717.61	272.13
717.94	271.77
718.28	271.08
718.61	270.58
718.94	270.03
719.27	269.64
719.61	269.30
719.94	268.97
720.27	268.41
720.60	268.02
720.94	267.64
721.27	267.25
721.60	266.80
721.93	266.41
722.27	266.08
722.60	265.80
722.93	265.42
723.26	265.08
723.59	264.71
723.93	264.39
724.26	263.99
724.59	263.48
724.92	263.08
725.25	262.93
725.59	262.56
725.92	262.38
726.25	262.06
726.58	261.76
726.91	261.36
727.24	261.04
727.57	260.67
727.91	260.30
728.24	259.96
728.57	259.65
728.90	259.37
729.23	258.92
729.56	258.68
729.89	258.39
730.22	258.02
730.55	257.75
730.89	257.41
731.22	257.10
731.55	256.84
731.88	256.47
732.21	255.99
732.54	255.69
732.87	255.31
733.20	255.02
733.53	254.62
733.86	254.28
734.19	253.96
734.52	253.61
734.85	253.49
735.18	253.09
735.51	252.72
735.84	252.40
736.17	252.08
736.50	251.58
736.83	251.52
737.16	251.25
737.49	250.87
737.82	250.58
738.15	250.27
738.48	250.01
738.81	249.78
739.14	249.48
739.47	249.33
739.80	249.00
740.13	248.66
740.46	248.47
740.79	248.16
741.12	247.92
741.45	247.69
741.78	247.33
742.11	247.12
742.44	246.85
742.77	246.60
743.10	246.46
743.43	246.26
743.75	245.82
744.08	245.80
744.41	245.58
744.74	245.35
745.07	245.19
745.40	245.02
745.73	244.80
746.06	244.68
746.39	244.40
746.71	244.25
747.04	244.05
747.37	243.98
747.70	243.98
748.03	243.81
748.36	243.64
748.68	243.51
749.01	243.39
749.34	243.31
749.67	243.22
750.00	243.06
750.33	243.06
750.65	242.92
750.98	242.56
751.31	242.43
751.64	242.27
751.97	242.25
752.29	242.08
752.62	241.95
752.95	241.88
753.28	241.69
753.60	241.61
753.93	241.67
754.26	241.37
754.59	241.13
754.91	240.99
755.24	240.91
755.57	240.83
755.90	240.68
756.22	240.46
756.55	240.28
756.88	240.10
757.20	239.86
757.53	239.80
757.86	239.70
758.19	239.55
758.51	239.53
758.84	239.37
759.17	239.25
759.49	239.12
759.82	239.12
760.15	239.08
760.47	238.95
760.80	238.67
761.13	238.67
761.45	238.54
761.78	238.46
762.11	238.27
762.43	238.12
762.76	238.10
763.08	238.11
763.41	238.07
763.74	238.09
764.06	237.94
764.39	237.84
764.71	237.79
765.04	237.70
765.37	237.57
765.69	237.45
766.02	237.47
766.34	237.30
766.67	237.04
767.00	237.02
767.32	237.05
767.65	237.05
767.97	236.84
768.30	236.81
768.62	236.70
768.95	236.67
769.27	236.58
769.60	236.48
769.92	236.28
770.25	236.14
770.57	235.95
770.90	235.90
771.22	235.68
771.55	235.60
771.87	235.53
772.20	235.44
772.52	235.49
772.85	235.56
773.17	235.58
773.50	235.50
773.82	235.29
774.15	235.07
774.47	235.00
774.80	235.04
775.12	234.87
775.45	234.89
775.77	234.86
776.09	234.77
776.42	234.75
776.74	234.75
777.07	234.65
777.39	234.57
777.72	234.47
778.04	234.50
778.36	234.43
778.69	234.40
779.01	234.28
779.33	234.08
779.66	233.76
779.98	233.64
780.31	233.58
780.63	233.70
780.95	233.72
781.28	233.56
781.60	233.40
781.92	233.45
782.25	233.26
782.57	233.10
782.89	233.10
783.22	232.91
783.54	232.81
783.86	232.76
784.19	232.68
784.51	232.74
784.83	232.65
785.16	232.65
785.48	232.62
785.80	232.64
786.12	232.56
786.45	232.49
786.77	232.56
787.09	232.55
787.42	232.49
787.74	232.44
788.06	232.33
788.38	232.37
788.71	232.26
789.03	232.27
789.35	232.32
789.67	232.30
789.99	232.30
790.32	232.28
790.64	232.34
790.96	232.44
791.28	232.41
791.61	232.39
791.93	232.27
792.25	232.19
792.57	232.30
792.89	232.27
793.21	232.30
793.54	232.28
793.86	232.15
794.18	232.12
