SpectraSuite Data File
++++++++++++++++++++++++++++++++++++
Date: Fri Feb 01 14:34:41 EST 2013
User: group
Dark Spectrum Present: No
Reference Spectrum Present: No
Number of Sampled Component Spectra: 1
Spectrometers: USB2E7196
Integration Time (usec): 70000 (USB2E7196)
Spectra Averaged: 10 (USB2E7196)
Boxcar Smoothing: 10 (USB2E7196)
Correct for Electrical Dark: No (USB2E7196)
Strobe/Lamp Enabled: No (USB2E7196)
Correct for Detector Non-linearity: No (USB2E7196)
Correct for Stray Light: No (USB2E7196)
Number of Pixels in Processed Spectrum: 2048
>>>>>Begin Processed Spectral Data<<<<<
339.09	0.00
339.48	214.80
339.86	217.50
340.24	219.20
340.63	220.20
341.01	223.90
341.39	223.60
341.78	223.60
342.16	226.40
342.54	226.10
342.93	214.13
343.31	224.90
343.69	225.44
344.07	225.93
344.46	226.29
344.84	226.65
345.22	226.75
345.60	226.93
345.99	227.09
346.37	227.14
346.75	227.17
347.13	227.28
347.52	227.30
347.90	227.49
348.28	227.43
348.66	227.48
349.05	227.49
349.43	227.55
349.81	227.58
350.19	227.51
350.57	227.54
350.96	227.56
351.34	227.72
351.72	227.85
352.10	227.98
352.48	228.12
352.87	228.21
353.25	228.35
353.63	228.40
354.01	228.42
354.39	228.50
354.77	228.61
355.15	228.68
355.54	228.78
355.92	228.76
356.30	228.87
356.68	229.04
357.06	229.15
357.44	229.27
357.82	229.49
358.20	229.70
358.58	229.79
358.97	229.92
359.35	230.01
359.73	230.20
360.11	230.15
360.49	230.12
360.87	230.25
361.25	230.30
361.63	230.47
362.01	230.64
362.39	230.79
362.77	230.89
363.15	230.94
363.53	230.93
363.91	231.01
364.29	231.06
364.67	230.96
365.05	230.87
365.43	230.93
365.81	230.81
366.19	230.83
366.57	230.95
366.95	230.93
367.33	230.90
367.71	230.81
368.09	230.91
368.47	230.93
368.85	230.80
369.23	230.86
369.61	230.73
369.99	230.78
370.37	230.60
370.75	230.65
371.13	230.57
371.51	230.48
371.89	230.50
372.27	230.42
372.65	230.50
373.03	230.42
373.41	230.40
373.78	230.38
374.16	230.28
374.54	230.08
374.92	230.06
375.30	229.95
375.68	229.86
376.06	229.75
376.44	229.67
376.82	229.63
377.19	229.48
377.57	229.41
377.95	229.31
378.33	229.33
378.71	229.06
379.09	229.06
379.47	229.06
379.84	228.79
380.22	228.66
380.60	228.44
380.98	228.41
381.36	228.24
381.73	228.23
382.11	228.19
382.49	228.21
382.87	228.14
383.25	228.02
383.62	228.18
384.00	228.10
384.38	228.01
384.76	227.93
385.13	227.95
385.51	227.81
385.89	227.66
386.27	227.56
386.64	227.59
387.02	227.46
387.40	227.36
387.78	227.45
388.15	227.47
388.53	227.44
388.91	227.40
389.29	227.47
389.66	227.40
390.04	227.30
390.42	227.27
390.79	227.14
391.17	227.17
391.55	226.92
391.92	226.93
392.30	226.92
392.68	226.86
393.05	226.87
393.43	226.92
393.81	226.95
394.18	226.90
394.56	226.97
394.94	226.99
395.31	227.02
395.69	227.03
396.06	227.13
396.44	227.22
396.82	227.37
397.19	227.47
397.57	227.60
397.95	227.70
398.32	227.77
398.70	228.03
399.07	228.25
399.45	228.31
399.82	228.47
400.20	228.79
400.58	228.97
400.95	229.10
401.33	229.31
401.70	229.64
402.08	230.01
402.45	230.20
402.83	230.50
403.20	230.71
403.58	231.02
403.95	231.19
404.33	231.44
404.71	231.67
405.08	232.11
405.46	232.36
405.83	232.77
406.21	233.13
406.58	233.51
406.96	233.83
407.33	234.39
407.70	234.85
408.08	235.38
408.45	236.05
408.83	236.67
409.20	237.28
409.58	237.77
409.95	238.30
410.33	239.03
410.70	239.68
411.08	240.66
411.45	241.44
411.82	242.35
412.20	243.33
412.57	244.56
412.95	245.33
413.32	246.40
413.69	247.64
414.07	248.87
414.44	250.22
414.82	251.62
415.19	253.15
415.56	254.78
415.94	256.50
416.31	258.40
416.68	260.30
417.06	262.47
417.43	264.57
417.81	267.10
418.18	269.57
418.55	272.19
418.93	274.78
419.30	277.53
419.67	280.54
420.04	283.63
420.42	286.77
420.79	290.55
421.16	294.27
421.54	298.03
421.91	301.93
422.28	305.89
422.66	310.31
423.03	314.52
423.40	318.90
423.77	323.37
424.15	328.09
424.52	332.89
424.89	338.18
425.26	343.33
425.64	348.04
426.01	353.44
426.38	359.18
426.75	364.86
427.13	370.90
427.50	377.10
427.87	383.50
428.24	389.99
428.61	396.24
428.99	403.08
429.36	410.59
429.73	417.90
430.10	425.11
430.47	432.26
430.85	439.92
431.22	447.87
431.59	456.40
431.96	464.28
432.33	473.24
432.70	481.80
433.08	491.94
433.45	501.52
433.82	510.90
434.19	521.43
434.56	531.79
434.93	541.60
435.30	551.39
435.68	562.20
436.05	572.90
436.42	583.48
436.79	593.21
437.16	603.43
437.53	614.38
437.90	625.28
438.27	636.15
438.64	647.49
439.01	657.80
439.38	666.99
439.75	676.24
440.13	686.63
440.50	696.46
440.87	704.84
441.24	713.38
441.61	722.70
441.98	729.62
442.35	737.81
442.72	746.15
443.09	754.17
443.46	759.34
443.83	763.07
444.20	766.38
444.57	770.89
444.94	773.57
445.31	776.53
445.68	779.13
446.05	781.12
446.42	781.00
446.79	781.01
447.16	781.24
447.53	781.40
447.90	778.58
448.27	776.10
448.64	771.22
449.01	768.39
449.37	762.34
449.74	756.43
450.11	749.01
450.48	740.89
450.85	732.80
451.22	726.08
451.59	719.34
451.96	713.01
452.33	704.37
452.70	696.42
453.07	686.70
453.43	676.99
453.80	667.18
454.17	657.98
454.54	649.34
454.91	639.52
455.28	630.19
455.65	621.43
456.02	612.19
456.38	604.73
456.75	595.17
457.12	587.26
457.49	579.35
457.86	571.66
458.23	565.20
458.59	557.73
458.96	550.19
459.33	543.64
459.70	536.97
460.07	531.42
460.43	525.25
460.80	519.28
461.17	514.15
461.54	508.99
461.91	503.89
462.27	498.50
462.64	493.90
463.01	488.89
463.38	484.04
463.74	479.21
464.11	475.00
464.48	471.04
464.85	466.92
465.21	463.74
465.58	460.52
465.95	456.24
466.32	452.89
466.68	449.50
467.05	446.29
467.42	443.08
467.78	439.78
468.15	436.52
468.52	434.00
468.88	430.71
469.25	427.60
469.62	425.11
469.98	422.55
470.35	420.18
470.72	417.87
471.08	415.49
471.45	413.55
471.82	411.31
472.18	409.08
472.55	407.42
472.92	405.36
473.28	403.60
473.65	401.94
474.02	400.21
474.38	398.73
474.75	397.34
475.11	395.88
475.48	394.79
475.85	393.81
476.21	392.69
476.58	391.80
476.94	391.23
477.31	390.51
477.67	389.76
478.04	389.02
478.41	388.60
478.77	388.31
479.14	387.85
479.50	387.73
479.87	387.69
480.23	387.64
480.60	387.50
480.96	387.26
481.33	387.44
481.69	387.62
482.06	387.72
482.42	387.58
482.79	387.76
483.15	388.00
483.52	388.55
483.88	389.15
484.25	389.69
484.61	390.09
484.98	390.56
485.34	391.55
485.71	392.60
486.07	393.61
486.44	394.56
486.80	395.67
487.17	396.94
487.53	398.51
487.90	399.89
488.26	401.43
488.62	403.11
488.99	404.88
489.35	406.63
489.72	408.72
490.08	411.03
490.44	413.22
490.81	415.47
491.17	417.61
491.54	419.98
491.90	422.47
492.26	425.07
492.63	427.88
492.99	430.35
493.36	433.26
493.72	436.15
494.08	438.97
494.45	441.93
494.81	444.96
495.17	448.12
495.54	451.36
495.90	454.86
496.26	458.32
496.63	461.64
496.99	465.39
497.35	468.96
497.72	472.59
498.08	476.30
498.44	480.17
498.80	484.28
499.17	488.30
499.53	492.44
499.89	496.46
500.26	500.45
500.62	504.41
500.98	508.53
501.34	512.69
501.71	517.01
502.07	521.33
502.43	525.44
502.79	529.49
503.16	533.59
503.52	537.77
503.88	541.79
504.24	545.96
504.60	549.96
504.97	554.10
505.33	558.50
505.69	563.10
506.05	567.42
506.41	571.58
506.78	575.57
507.14	579.40
507.50	583.59
507.86	587.78
508.22	592.06
508.59	595.96
508.95	600.04
509.31	603.84
509.67	607.84
510.03	611.74
510.39	615.77
510.75	619.65
511.12	623.19
511.48	626.96
511.84	630.64
512.20	634.27
512.56	637.76
512.92	640.95
513.28	643.97
513.64	646.78
514.00	649.68
514.37	652.69
514.73	655.70
515.09	658.44
515.45	661.01
515.81	663.72
516.17	666.43
516.53	669.04
516.89	671.75
517.25	674.15
517.61	676.72
517.97	678.81
518.33	681.10
518.69	683.42
519.05	685.83
519.41	688.23
519.77	690.50
520.13	692.67
520.49	694.92
520.85	696.86
521.21	699.30
521.57	701.59
521.93	703.42
522.29	705.62
522.65	707.56
523.01	709.30
523.37	710.94
523.73	712.80
524.09	714.22
524.45	716.03
524.81	717.50
525.17	719.32
525.53	721.29
525.89	723.05
526.25	724.85
526.61	726.26
526.97	727.94
527.33	729.59
527.68	731.50
528.04	733.17
528.40	735.16
528.76	737.20
529.12	739.16
529.48	741.45
529.84	743.20
530.20	745.18
530.56	747.56
530.91	750.05
531.27	752.12
531.63	754.45
531.99	756.50
532.35	759.05
532.71	761.05
533.07	763.32
533.42	765.60
533.78	767.69
534.14	770.10
534.50	772.15
534.86	774.55
535.21	776.38
535.57	778.78
535.93	781.05
536.29	783.11
536.65	785.18
537.00	787.22
537.36	789.81
537.72	792.26
538.08	794.46
538.44	796.72
538.79	799.12
539.15	801.56
539.51	804.04
539.87	806.45
540.22	808.93
540.58	811.50
540.94	813.85
541.29	816.36
541.65	819.04
542.01	821.78
542.37	824.23
542.72	827.15
543.08	829.66
543.44	832.36
543.79	834.38
544.15	837.04
544.51	840.24
544.87	842.99
545.22	845.67
545.58	848.42
545.94	850.94
546.29	853.70
546.65	856.26
547.01	858.40
547.36	861.05
547.72	863.62
548.07	865.98
548.43	868.73
548.79	871.60
549.14	873.97
549.50	876.41
549.86	879.02
550.21	881.53
550.57	884.08
550.92	886.70
551.28	889.64
551.64	892.43
551.99	894.91
552.35	897.20
552.70	899.97
553.06	902.55
553.41	905.19
553.77	907.88
554.13	910.56
554.48	913.80
554.84	916.31
555.19	919.04
555.55	921.87
555.90	924.18
556.26	926.69
556.61	929.32
556.97	931.81
557.32	934.32
557.68	936.98
558.03	939.67
558.39	942.05
558.74	944.71
559.10	947.12
559.45	949.46
559.81	952.54
560.16	954.67
560.52	957.13
560.87	959.84
561.23	961.86
561.58	964.48
561.94	966.29
562.29	968.67
562.64	970.85
563.00	972.79
563.35	975.38
563.71	977.99
564.06	980.35
564.42	982.66
564.77	985.43
565.12	987.40
565.48	989.86
565.83	991.90
566.19	993.82
566.54	995.77
566.89	997.56
567.25	999.00
567.60	1001.39
567.96	1003.63
568.31	1005.32
568.66	1007.18
569.02	1008.56
569.37	1010.41
569.72	1011.78
570.08	1013.34
570.43	1014.96
570.78	1016.15
571.14	1017.13
571.49	1018.40
571.84	1019.87
572.20	1020.47
572.55	1021.76
572.90	1022.40
573.26	1023.54
573.61	1024.51
573.96	1025.16
574.31	1025.57
574.67	1025.94
575.02	1025.94
575.37	1025.77
575.72	1025.57
576.08	1025.80
576.43	1025.69
576.78	1026.13
577.13	1026.53
577.49	1026.49
577.84	1026.39
578.19	1026.38
578.54	1026.19
578.90	1025.67
579.25	1025.10
579.60	1024.65
579.95	1023.56
580.30	1022.61
580.66	1021.52
581.01	1020.60
581.36	1019.74
581.71	1019.06
582.06	1018.15
582.42	1016.93
582.77	1015.99
583.12	1015.44
583.47	1014.30
583.82	1013.54
584.17	1012.09
584.53	1010.86
584.88	1009.76
585.23	1008.69
585.58	1007.38
585.93	1006.10
586.28	1004.97
586.63	1003.77
586.98	1002.76
587.34	1001.86
587.69	1000.71
588.04	999.52
588.39	998.43
588.74	996.60
589.09	995.10
589.44	993.55
589.79	992.46
590.14	991.01
590.49	989.12
590.84	987.63
591.19	986.04
591.54	983.86
591.89	981.54
592.25	979.72
592.60	977.35
592.95	975.02
593.30	972.65
593.65	970.53
594.00	968.19
594.35	966.25
594.70	963.79
595.05	961.60
595.40	958.87
595.75	956.23
596.10	954.17
596.45	952.02
596.80	949.91
597.15	947.65
597.50	945.39
597.85	943.42
598.19	941.38
598.54	939.14
598.89	937.37
599.24	935.38
599.59	932.54
599.94	930.35
600.29	928.43
600.64	926.15
600.99	923.38
601.34	921.10
601.69	918.08
602.04	915.84
602.39	913.32
602.74	911.48
603.08	909.31
603.43	907.17
603.78	904.70
604.13	902.20
604.48	899.51
604.83	896.94
605.18	894.26
605.53	891.53
605.87	888.37
606.22	885.64
606.57	882.81
606.92	880.55
607.27	878.20
607.62	875.52
607.96	873.26
608.31	870.95
608.66	868.13
609.01	865.32
609.36	862.29
609.70	858.88
610.05	855.52
610.40	852.60
610.75	849.24
611.10	845.98
611.44	842.52
611.79	839.47
612.14	836.17
612.49	832.57
612.83	828.87
613.18	825.88
613.53	822.66
613.88	819.50
614.22	816.16
614.57	812.62
614.92	809.28
615.27	805.58
615.61	802.17
615.96	798.89
616.31	795.64
616.65	792.65
617.00	789.90
617.35	786.85
617.70	783.41
618.04	780.36
618.39	777.30
618.74	774.50
619.08	771.26
619.43	768.22
619.78	765.33
620.12	762.44
620.47	759.49
620.82	756.16
621.16	753.11
621.51	750.00
621.85	746.57
622.20	743.28
622.55	740.25
622.89	737.27
623.24	734.34
623.59	731.40
623.93	728.43
624.28	725.49
624.62	722.74
624.97	719.92
625.32	716.98
625.66	714.07
626.01	710.85
626.35	707.80
626.70	704.58
627.04	701.77
627.39	698.61
627.73	695.49
628.08	692.74
628.43	689.70
628.77	686.68
629.12	683.93
629.46	681.07
629.81	678.21
630.15	674.77
630.50	671.47
630.84	668.10
631.19	664.75
631.53	661.36
631.88	657.75
632.22	654.33
632.57	651.43
632.91	648.18
633.26	645.24
633.60	642.34
633.95	639.53
634.29	636.50
634.64	633.88
634.98	630.91
635.32	628.22
635.67	625.50
636.01	622.75
636.36	619.97
636.70	617.26
637.05	614.44
637.39	612.17
637.73	609.86
638.08	607.64
638.42	605.19
638.77	602.84
639.11	600.43
639.45	598.07
639.80	595.23
640.14	592.80
640.49	590.49
640.83	587.88
641.17	585.46
641.52	582.70
641.86	580.00
642.20	577.47
642.55	574.48
642.89	571.83
643.23	569.56
643.58	567.38
643.92	564.79
644.26	562.30
644.61	560.00
644.95	557.37
645.29	554.42
645.64	551.79
645.98	549.21
646.32	546.91
646.66	544.36
647.01	541.98
647.35	539.40
647.69	536.80
648.04	534.48
648.38	531.80
648.72	529.31
649.06	526.70
649.41	524.31
649.75	521.85
650.09	519.37
650.43	516.49
650.78	513.72
651.12	511.06
651.46	508.64
651.80	506.10
652.14	503.63
652.49	501.29
652.83	499.00
653.17	496.61
653.51	494.16
653.85	491.82
654.20	489.49
654.54	487.10
654.88	484.61
655.22	481.93
655.56	479.61
655.90	477.46
656.25	475.36
656.59	472.94
656.93	470.89
657.27	468.52
657.61	466.28
657.95	464.21
658.29	462.25
658.64	460.09
658.98	457.77
659.32	455.52
659.66	453.68
660.00	451.58
660.34	449.44
660.68	447.21
661.02	445.03
661.36	443.05
661.70	441.03
662.05	439.21
662.39	437.56
662.73	435.61
663.07	433.75
663.41	431.80
663.75	430.14
664.09	428.25
664.43	426.50
664.77	424.85
665.11	423.09
665.45	421.36
665.79	419.64
666.13	417.87
666.47	416.12
666.81	414.16
667.15	412.26
667.49	410.58
667.83	408.99
668.17	407.30
668.51	405.43
668.85	403.79
669.19	402.22
669.53	400.48
669.87	398.91
670.21	397.24
670.55	395.78
670.89	394.21
671.23	392.81
671.57	391.35
671.91	389.81
672.25	388.19
672.58	386.52
672.92	384.92
673.26	383.52
673.60	382.20
673.94	380.79
674.28	379.40
674.62	378.13
674.96	376.79
675.30	375.64
675.64	374.38
675.97	373.20
676.31	371.72
676.65	370.34
676.99	369.17
677.33	367.85
677.67	366.50
678.01	365.05
678.34	363.50
678.68	362.22
679.02	360.87
679.36	359.74
679.70	358.46
680.04	357.23
680.37	355.86
680.71	354.61
681.05	353.57
681.39	352.56
681.73	351.41
682.06	350.38
682.40	349.08
682.74	347.96
683.08	346.90
683.42	345.64
683.75	344.68
684.09	343.41
684.43	342.32
684.77	341.10
685.10	340.04
685.44	339.09
685.78	337.89
686.12	336.88
686.45	335.65
686.79	334.76
687.13	333.78
687.46	332.83
687.80	331.69
688.14	330.51
688.48	329.44
688.81	328.33
689.15	327.28
689.49	326.31
689.82	325.35
690.16	324.33
690.50	323.42
690.83	322.42
691.17	321.39
691.51	320.55
691.84	319.70
692.18	318.78
692.52	318.01
692.85	317.20
693.19	316.41
693.52	315.46
693.86	314.58
694.20	313.62
694.53	312.77
694.87	311.93
695.21	311.06
695.54	310.13
695.88	309.18
696.21	308.22
696.55	307.37
696.88	306.53
697.22	305.63
697.56	304.87
697.89	304.00
698.23	303.26
698.56	302.40
698.90	301.52
699.23	300.79
699.57	299.86
699.90	299.05
700.24	298.17
700.58	297.57
700.91	296.70
701.25	296.09
701.58	295.32
701.92	294.73
702.25	293.96
702.59	293.41
702.92	292.77
703.26	292.01
703.59	291.38
703.93	290.85
704.26	290.17
704.60	289.48
704.93	288.92
705.26	288.29
705.60	287.77
705.93	287.25
706.27	286.68
706.60	286.17
706.94	285.63
707.27	284.95
707.61	284.19
707.94	283.64
708.27	282.99
708.61	282.40
708.94	281.83
709.28	281.40
709.61	280.79
709.94	280.30
710.28	279.89
710.61	279.31
710.95	278.59
711.28	278.15
711.61	277.69
711.95	277.14
712.28	276.54
712.61	275.84
712.95	275.40
713.28	274.88
713.61	274.18
713.95	273.60
714.28	273.11
714.61	272.62
714.95	272.09
715.28	271.53
715.61	271.02
715.95	270.46
716.28	269.91
716.61	269.38
716.95	268.93
717.28	268.40
717.61	267.93
717.94	267.47
718.28	266.91
718.61	266.42
718.94	265.94
719.27	265.52
719.61	265.11
719.94	264.64
720.27	264.17
720.60	263.86
720.94	263.40
721.27	263.09
721.60	262.85
721.93	262.52
722.27	262.13
722.60	261.79
722.93	261.39
723.26	261.02
723.59	260.75
723.93	260.44
724.26	260.10
724.59	259.80
724.92	259.51
725.25	259.30
725.59	258.98
725.92	258.71
726.25	258.35
726.58	258.08
726.91	257.73
727.24	257.56
727.57	257.28
727.91	257.12
728.24	256.93
728.57	256.55
728.90	256.28
729.23	256.04
729.56	255.88
729.89	255.52
730.22	255.30
730.55	254.94
730.89	254.66
731.22	254.50
731.55	254.27
731.88	254.03
732.21	253.70
732.54	253.50
732.87	253.21
733.20	253.01
733.53	252.81
733.86	252.52
734.19	252.23
734.52	252.05
734.85	251.93
735.18	251.56
735.51	251.48
735.84	251.35
736.17	251.24
736.50	250.92
736.83	251.06
737.16	250.84
737.49	250.70
737.82	250.40
738.15	250.28
738.48	249.96
738.81	249.70
739.14	249.49
739.47	249.36
739.80	249.19
740.13	249.10
740.46	248.97
740.79	248.80
741.12	248.60
741.45	248.33
741.78	248.06
742.11	247.97
742.44	247.67
742.77	247.45
743.10	247.14
743.43	246.95
743.75	246.46
744.08	246.62
744.41	246.39
744.74	246.28
745.07	245.95
745.40	245.90
745.73	245.99
746.06	245.84
746.39	245.61
746.71	245.41
747.04	245.18
747.37	244.86
747.70	244.83
748.03	244.73
748.36	244.52
748.68	244.44
749.01	244.25
749.34	244.20
749.67	244.08
750.00	243.96
750.33	244.00
750.65	243.93
750.98	243.46
751.31	243.28
751.64	243.20
751.97	243.15
752.29	242.91
752.62	242.60
752.95	242.37
753.28	242.15
753.60	241.97
753.93	241.90
754.26	241.79
754.59	241.43
754.91	241.19
755.24	241.20
755.57	240.95
755.90	240.77
756.22	240.59
756.55	240.34
756.88	240.11
757.20	239.74
757.53	239.50
757.86	239.37
758.19	239.27
758.51	239.05
758.84	238.87
759.17	238.68
759.49	238.40
759.82	238.36
760.15	238.15
760.47	238.01
760.80	237.84
761.13	237.83
761.45	237.79
761.78	237.64
762.11	237.40
762.43	237.25
762.76	237.11
763.08	236.90
763.41	236.92
763.74	236.75
764.06	236.67
764.39	236.52
764.71	236.41
765.04	236.30
765.37	236.12
765.69	235.96
766.02	235.95
766.34	235.82
766.67	235.65
767.00	235.68
767.32	235.75
767.65	235.71
767.97	235.53
768.30	235.41
768.62	235.33
768.95	235.23
769.27	235.13
769.60	235.14
769.92	235.05
770.25	234.78
770.57	234.81
770.90	234.76
771.22	234.74
771.55	234.61
771.87	234.55
772.20	234.68
772.52	234.81
772.85	234.99
773.17	235.01
773.50	234.85
773.82	234.80
774.15	234.61
774.47	234.48
774.80	234.50
775.12	234.41
775.45	234.41
775.77	234.35
776.09	234.36
776.42	234.24
776.74	234.24
777.07	234.18
777.39	234.18
777.72	234.10
778.04	234.09
778.36	234.13
778.69	234.06
779.01	233.92
779.33	233.76
779.66	233.55
779.98	233.54
780.31	233.67
780.63	233.70
780.95	233.74
781.28	233.72
781.60	233.64
781.92	233.72
782.25	233.63
782.57	233.62
782.89	233.63
783.22	233.62
783.54	233.53
783.86	233.67
784.19	233.53
784.51	233.63
784.83	233.57
785.16	233.51
785.48	233.47
785.80	233.40
786.12	233.35
786.45	233.26
786.77	233.22
787.09	233.17
787.42	233.06
787.74	233.03
788.06	233.03
788.38	233.02
788.71	232.88
789.03	232.93
789.35	232.99
789.67	232.88
789.99	232.85
790.32	232.84
790.64	232.79
790.96	233.02
791.28	232.83
791.61	232.85
791.93	232.78
792.25	232.78
792.57	232.88
792.89	232.82
