SpectraSuite Data File
++++++++++++++++++++++++++++++++++++
Date: Fri Feb 01 14:42:00 EST 2013
User: group
Dark Spectrum Present: No
Reference Spectrum Present: No
Number of Sampled Component Spectra: 1
Spectrometers: USB2E7196
Integration Time (usec): 70000 (USB2E7196)
Spectra Averaged: 10 (USB2E7196)
Boxcar Smoothing: 10 (USB2E7196)
Correct for Electrical Dark: No (USB2E7196)
Strobe/Lamp Enabled: No (USB2E7196)
Correct for Detector Non-linearity: No (USB2E7196)
Correct for Stray Light: No (USB2E7196)
Number of Pixels in Processed Spectrum: 2048
>>>>>Begin Processed Spectral Data<<<<<
339.09	0.00
339.48	217.50
339.86	217.80
340.24	219.90
340.63	221.60
341.01	224.10
341.39	223.40
341.78	226.30
342.16	226.60
342.54	225.10
342.93	214.92
343.31	225.76
343.69	226.25
344.07	226.63
344.46	226.95
344.84	227.27
345.22	227.52
345.60	227.77
345.99	227.83
346.37	228.02
346.75	228.20
347.13	228.28
347.52	228.38
347.90	228.50
348.28	228.73
348.66	228.74
349.05	228.75
349.43	228.92
349.81	229.02
350.19	229.09
350.57	229.12
350.96	229.25
351.34	229.41
351.72	229.42
352.10	229.67
352.48	229.73
352.87	229.86
353.25	229.87
353.63	230.01
354.01	230.11
354.39	230.12
354.77	230.17
355.15	230.29
355.54	230.26
355.92	230.20
356.30	230.17
356.68	230.43
357.06	230.44
357.44	230.31
357.82	230.35
358.20	230.34
358.58	230.40
358.97	230.47
359.35	230.45
359.73	230.62
360.11	230.63
360.49	230.82
360.87	230.77
361.25	230.78
361.63	230.75
362.01	230.79
362.39	230.79
362.77	230.80
363.15	230.77
363.53	230.84
363.91	230.91
364.29	230.96
364.67	230.73
365.05	230.71
365.43	230.71
365.81	230.78
366.19	230.89
366.57	230.90
366.95	230.80
367.33	230.79
367.71	230.77
368.09	230.79
368.47	230.67
368.85	230.64
369.23	230.76
369.61	230.70
369.99	230.77
370.37	230.74
370.75	230.77
371.13	230.71
371.51	230.63
371.89	230.60
372.27	230.52
372.65	230.49
373.03	230.58
373.41	230.53
373.78	230.42
374.16	230.16
374.54	230.07
374.92	230.03
375.30	229.99
375.68	229.90
376.06	229.89
376.44	229.78
376.82	229.70
377.19	229.61
377.57	229.56
377.95	229.38
378.33	229.32
378.71	229.14
379.09	229.10
379.47	229.14
379.84	229.00
380.22	228.86
380.60	228.74
380.98	228.56
381.36	228.57
381.73	228.50
382.11	228.56
382.49	228.48
382.87	228.31
383.25	228.21
383.62	228.30
384.00	228.09
384.38	228.13
384.76	228.07
385.13	228.05
385.51	228.00
385.89	227.95
386.27	227.92
386.64	227.92
387.02	227.83
387.40	227.77
387.78	227.76
388.15	227.80
388.53	227.75
388.91	227.69
389.29	227.57
389.66	227.70
390.04	227.67
390.42	227.70
390.79	227.90
391.17	227.83
391.55	227.64
391.92	227.61
392.30	227.61
392.68	227.64
393.05	227.60
393.43	227.59
393.81	227.60
394.18	227.61
394.56	227.62
394.94	227.62
395.31	227.56
395.69	227.63
396.06	227.65
396.44	227.83
396.82	227.84
397.19	228.07
397.57	227.92
397.95	228.00
398.32	227.99
398.70	228.06
399.07	228.27
399.45	228.38
399.82	228.58
400.20	228.78
400.58	228.90
400.95	228.91
401.33	229.10
401.70	229.38
402.08	229.50
402.45	229.67
402.83	229.86
403.20	230.13
403.58	230.31
403.95	230.45
404.33	230.53
404.71	230.80
405.08	231.03
405.46	231.29
405.83	231.52
406.21	231.88
406.58	232.07
406.96	232.33
407.33	232.58
407.70	232.80
408.08	233.09
408.45	233.36
408.83	233.84
409.20	234.05
409.58	234.25
409.95	234.67
410.33	235.14
410.70	235.56
411.08	235.90
411.45	236.37
411.82	236.91
412.20	237.62
412.57	238.32
412.95	238.73
413.32	239.34
413.69	239.86
414.07	240.41
414.44	241.09
414.82	241.81
415.19	242.70
415.56	243.58
415.94	244.49
416.31	245.41
416.68	246.28
417.06	247.53
417.43	248.60
417.81	249.75
418.18	250.98
418.55	252.17
418.93	253.48
419.30	254.79
419.67	256.29
420.04	257.59
420.42	258.98
420.79	260.80
421.16	262.56
421.54	264.54
421.91	266.51
422.28	268.47
422.66	270.43
423.03	272.52
423.40	274.63
423.77	276.63
424.15	278.94
424.52	281.36
424.89	283.64
425.26	285.98
425.64	288.18
426.01	290.55
426.38	293.15
426.75	295.80
427.13	298.58
427.50	301.26
427.87	304.11
428.24	307.04
428.61	309.71
428.99	312.72
429.36	315.73
429.73	318.74
430.10	321.80
430.47	324.94
430.85	328.04
431.22	331.23
431.59	334.91
431.96	338.32
432.33	342.00
432.70	345.64
433.08	349.90
433.45	353.81
433.82	357.82
434.19	362.20
434.56	366.52
434.93	370.34
435.30	374.38
435.68	378.77
436.05	382.94
436.42	387.20
436.79	390.88
437.16	394.98
437.53	399.39
437.90	403.54
438.27	407.62
438.64	411.92
439.01	415.90
439.38	419.33
439.75	422.50
440.13	426.17
440.50	429.73
440.87	432.69
441.24	435.74
441.61	439.01
441.98	441.10
442.35	443.62
442.72	446.49
443.09	449.26
443.46	450.80
443.83	451.77
444.20	452.34
444.57	453.78
444.94	454.30
445.31	454.59
445.68	455.16
446.05	455.32
446.42	454.53
446.79	453.97
447.16	453.28
447.53	452.70
447.90	450.91
448.27	449.13
448.64	446.49
449.01	444.58
449.37	441.47
449.74	438.55
450.11	435.23
450.48	431.29
450.85	427.25
451.22	423.82
451.59	420.61
451.96	417.79
452.33	413.67
452.70	410.00
453.07	405.84
453.43	401.59
453.80	397.37
454.17	393.40
454.54	389.43
454.91	385.21
455.28	381.30
455.65	377.53
456.02	374.02
456.38	370.87
456.75	366.99
457.12	363.46
457.49	360.22
457.86	356.85
458.23	354.19
458.59	351.08
458.96	348.06
459.33	345.31
459.70	342.44
460.07	340.19
460.43	337.72
460.80	335.28
461.17	332.81
461.54	330.58
461.91	328.48
462.27	326.23
462.64	324.26
463.01	322.21
463.38	320.28
463.74	317.98
464.11	316.09
464.48	314.44
464.85	312.84
465.21	311.43
465.58	310.01
465.95	308.36
466.32	307.06
466.68	305.69
467.05	304.18
467.42	302.77
467.78	301.30
468.15	299.81
468.52	298.64
468.88	297.53
469.25	296.15
469.62	295.10
469.98	294.08
470.35	293.13
470.72	292.16
471.08	291.01
471.45	290.06
471.82	289.10
472.18	288.18
472.55	287.39
472.92	286.56
473.28	285.81
473.65	285.08
474.02	284.35
474.38	283.59
474.75	283.05
475.11	282.38
475.48	281.92
475.85	281.47
476.21	281.21
476.58	280.73
476.94	280.54
477.31	280.20
477.67	279.94
478.04	279.76
478.41	279.44
478.77	279.45
479.14	279.31
479.50	279.35
479.87	279.32
480.23	279.48
480.60	279.53
480.96	279.53
481.33	279.59
481.69	279.68
482.06	279.86
482.42	280.13
482.79	280.45
483.15	280.85
483.52	281.32
483.88	281.55
484.25	281.99
484.61	282.44
484.98	282.94
485.34	283.50
485.71	283.92
486.07	284.75
486.44	285.32
486.80	286.14
487.17	286.97
487.53	287.88
487.90	288.79
488.26	289.88
488.62	291.04
488.99	292.18
489.35	293.59
489.72	294.93
490.08	296.28
490.44	297.77
490.81	299.23
491.17	300.97
491.54	302.86
491.90	304.86
492.26	306.80
492.63	308.97
492.99	311.26
493.36	313.85
493.72	316.36
494.08	319.28
494.45	322.18
494.81	325.33
495.17	328.60
495.54	332.00
495.90	335.56
496.26	339.33
496.63	343.32
496.99	347.36
497.35	351.83
497.72	356.57
498.08	361.51
498.44	366.61
498.80	371.90
499.17	377.39
499.53	382.97
499.89	389.04
500.26	395.15
500.62	401.45
500.98	408.20
501.34	415.20
501.71	422.36
502.07	429.89
502.43	437.48
502.79	445.57
503.16	453.72
503.52	462.40
503.88	471.09
504.24	480.28
504.60	489.90
504.97	499.67
505.33	509.76
505.69	520.20
506.05	530.95
506.41	541.72
506.78	553.02
507.14	564.91
507.50	577.03
507.86	589.71
508.22	602.93
508.59	616.02
508.95	629.53
509.31	643.50
509.67	657.63
510.03	672.40
510.39	687.16
510.75	702.68
511.12	718.25
511.48	734.57
511.84	751.19
512.20	767.65
512.56	785.01
512.92	802.64
513.28	820.53
513.64	838.82
514.00	857.29
514.37	876.35
514.73	895.40
515.09	914.80
515.45	934.04
515.81	953.91
516.17	973.95
516.53	994.66
516.89	1015.41
517.25	1036.61
517.61	1057.66
517.97	1078.92
518.33	1100.16
518.69	1121.69
519.05	1143.73
519.41	1166.00
519.77	1188.91
520.13	1211.76
520.49	1234.45
520.85	1257.26
521.21	1280.56
521.57	1304.42
521.93	1327.35
522.29	1351.42
522.65	1375.05
523.01	1398.77
523.37	1422.06
523.73	1446.18
524.09	1469.81
524.45	1494.27
524.81	1518.71
525.17	1544.09
525.53	1569.33
525.89	1594.51
526.25	1619.65
526.61	1643.92
526.97	1668.96
527.33	1693.44
527.68	1718.33
528.04	1743.03
528.40	1768.03
528.76	1793.28
529.12	1818.11
529.48	1843.96
529.84	1868.37
530.20	1893.71
530.56	1919.90
530.91	1946.09
531.27	1971.72
531.63	1997.04
531.99	2021.89
532.35	2046.41
532.71	2069.98
533.07	2094.26
533.42	2118.55
533.78	2143.03
534.14	2167.59
534.50	2190.13
534.86	2214.03
535.21	2236.70
535.57	2260.90
535.93	2284.16
536.29	2306.88
536.65	2329.94
537.00	2352.07
537.36	2375.33
537.72	2397.00
538.08	2418.28
538.44	2439.18
538.79	2460.76
539.15	2481.27
539.51	2502.63
539.87	2523.90
540.22	2544.83
540.58	2565.91
540.94	2586.05
541.29	2605.58
541.65	2625.50
542.01	2646.48
542.37	2666.85
542.72	2686.36
543.08	2704.84
543.44	2723.27
543.79	2740.40
544.15	2757.58
544.51	2775.53
544.87	2792.90
545.22	2810.22
545.58	2827.30
545.94	2842.98
546.29	2858.68
546.65	2874.91
547.01	2889.28
547.36	2903.58
547.72	2917.34
548.07	2931.02
548.43	2944.40
548.79	2957.50
549.14	2969.73
549.50	2981.20
549.86	2992.30
550.21	3004.32
550.57	3015.89
550.92	3027.58
551.28	3038.93
551.64	3050.16
551.99	3060.83
552.35	3070.54
552.70	3080.95
553.06	3090.53
553.41	3101.28
553.77	3110.81
554.13	3120.13
554.48	3129.74
554.84	3138.76
555.19	3148.00
555.55	3156.35
555.90	3164.31
556.26	3172.36
556.61	3180.22
556.97	3187.97
557.32	3195.23
557.68	3202.21
558.03	3209.11
558.39	3215.80
558.74	3223.70
559.10	3230.49
559.45	3237.18
559.81	3244.61
560.16	3249.96
560.52	3255.31
560.87	3261.01
561.23	3265.46
561.58	3270.54
561.94	3275.16
562.29	3279.31
562.64	3282.94
563.00	3286.64
563.35	3292.21
563.71	3297.76
564.06	3303.13
564.42	3307.54
564.77	3312.08
565.12	3316.21
565.48	3320.02
565.83	3322.11
566.19	3324.50
566.54	3326.11
566.89	3327.17
567.25	3327.88
567.60	3330.61
567.96	3332.58
568.31	3333.31
568.66	3334.56
569.02	3335.20
569.37	3335.02
569.72	3335.32
570.08	3335.46
570.43	3335.58
570.78	3334.42
571.14	3331.98
571.49	3329.94
571.84	3329.45
572.20	3326.45
572.55	3323.91
572.90	3320.71
573.26	3319.28
573.61	3316.08
573.96	3313.74
574.31	3310.09
574.67	3304.81
575.02	3299.80
575.37	3295.62
575.72	3289.67
576.08	3285.45
576.43	3280.59
576.78	3276.14
577.13	3272.26
577.49	3268.10
577.84	3262.40
578.19	3256.95
578.54	3251.07
578.90	3244.62
579.25	3236.77
579.60	3230.20
579.95	3223.06
580.30	3215.95
580.66	3208.01
581.01	3200.02
581.36	3192.39
581.71	3185.84
582.06	3179.67
582.42	3171.64
582.77	3163.35
583.12	3156.30
583.47	3148.58
583.82	3141.17
584.17	3132.87
584.53	3124.27
584.88	3115.64
585.23	3107.44
585.58	3099.02
585.93	3091.44
586.28	3083.85
586.63	3076.56
586.98	3068.91
587.34	3060.70
587.69	3052.78
588.04	3045.36
588.39	3037.92
588.74	3028.20
589.09	3018.13
589.44	3008.71
589.79	3000.34
590.14	2992.54
590.49	2984.00
590.84	2974.27
591.19	2965.39
591.54	2955.18
591.89	2943.65
592.25	2934.22
592.60	2923.72
592.95	2912.59
593.30	2901.77
593.65	2890.73
594.00	2879.60
594.35	2869.51
594.70	2858.75
595.05	2848.16
595.40	2836.43
595.75	2825.00
596.10	2815.79
596.45	2806.62
596.80	2797.40
597.15	2787.70
597.50	2776.30
597.85	2766.18
598.19	2756.78
598.54	2746.68
598.89	2737.64
599.24	2730.14
599.59	2719.84
599.94	2710.53
600.29	2701.06
600.64	2691.70
600.99	2681.20
601.34	2671.15
601.69	2660.19
602.04	2650.34
602.39	2639.97
602.74	2630.94
603.08	2621.85
603.43	2612.14
603.78	2602.37
604.13	2591.53
604.48	2580.77
604.83	2570.95
605.18	2560.68
605.53	2548.89
605.87	2536.52
606.22	2525.78
606.57	2513.75
606.92	2502.62
607.27	2492.01
607.62	2481.91
607.96	2470.63
608.31	2460.39
608.66	2448.73
609.01	2437.55
609.36	2425.70
609.70	2413.55
610.05	2400.88
610.40	2388.81
610.75	2375.94
611.10	2363.70
611.44	2350.46
611.79	2339.05
612.14	2326.46
612.49	2313.10
612.83	2301.03
613.18	2289.09
613.53	2276.91
613.88	2263.98
614.22	2251.48
614.57	2238.38
614.92	2225.58
615.27	2213.77
615.61	2200.84
615.96	2189.27
616.31	2177.50
616.65	2166.99
617.00	2155.82
617.35	2144.88
617.70	2132.93
618.04	2120.88
618.39	2108.70
618.74	2098.04
619.08	2085.54
619.43	2074.78
619.78	2064.41
620.12	2053.03
620.47	2041.93
620.82	2029.34
621.16	2018.48
621.51	2007.56
621.85	1996.34
622.20	1984.30
622.55	1972.71
622.89	1962.10
623.24	1951.36
623.59	1941.06
623.93	1929.48
624.28	1918.89
624.62	1907.59
624.97	1896.98
625.32	1887.33
625.66	1876.92
626.01	1866.08
626.35	1854.79
626.70	1843.34
627.04	1832.47
627.39	1821.65
627.73	1810.92
628.08	1801.08
628.43	1790.04
628.77	1779.26
629.12	1768.22
629.46	1757.69
629.81	1746.15
630.15	1734.79
630.50	1723.16
630.84	1711.22
631.19	1699.57
631.53	1687.92
631.88	1676.33
632.22	1664.60
632.57	1653.29
632.91	1641.76
633.26	1630.48
633.60	1619.67
633.95	1608.72
634.29	1598.03
634.64	1587.88
634.98	1576.81
635.32	1566.82
635.67	1556.92
636.01	1546.80
636.36	1536.85
636.70	1527.18
637.05	1517.71
637.39	1508.68
637.73	1499.17
638.08	1490.15
638.42	1480.96
638.77	1471.98
639.11	1462.58
639.45	1453.28
639.80	1443.40
640.14	1434.24
640.49	1424.87
640.83	1415.75
641.17	1406.33
641.52	1396.77
641.86	1386.98
642.20	1377.94
642.55	1368.00
642.89	1358.51
643.23	1348.98
643.58	1340.55
643.92	1330.70
644.26	1321.39
644.61	1312.15
644.95	1303.07
645.29	1292.78
645.64	1282.70
645.98	1272.87
646.32	1263.83
646.66	1254.59
647.01	1245.75
647.35	1236.57
647.69	1227.54
648.04	1218.60
648.38	1209.46
648.72	1199.86
649.06	1190.79
649.41	1181.79
649.75	1172.43
650.09	1163.03
650.43	1153.75
650.78	1143.63
651.12	1134.97
651.46	1126.07
651.80	1117.10
652.14	1108.51
652.49	1099.95
652.83	1092.20
653.17	1083.48
653.51	1074.82
653.85	1066.03
654.20	1056.90
654.54	1047.97
654.88	1039.51
655.22	1030.39
655.56	1021.87
655.90	1013.76
656.25	1005.70
656.59	997.40
656.93	989.80
657.27	982.05
657.61	973.86
657.95	966.41
658.29	958.48
658.64	950.58
658.98	942.39
659.32	933.97
659.66	926.37
660.00	918.40
660.34	910.70
660.68	903.39
661.02	895.90
661.36	889.05
661.70	882.35
662.05	875.71
662.39	869.35
662.73	862.60
663.07	855.89
663.41	849.08
663.75	842.60
664.09	835.57
664.43	829.13
664.77	823.22
665.11	816.95
665.45	810.69
665.79	804.56
666.13	798.37
666.47	792.48
666.81	786.45
667.15	780.12
667.49	774.47
667.83	768.44
668.17	762.71
668.51	756.61
668.85	750.45
669.19	744.56
669.53	738.78
669.87	732.99
670.21	727.62
670.55	722.20
670.89	717.04
671.23	712.00
671.57	706.97
671.91	701.71
672.25	696.41
672.58	691.22
672.92	686.07
673.26	681.21
673.60	676.26
673.94	671.50
674.28	667.08
674.62	662.51
674.96	658.00
675.30	653.61
675.64	649.10
675.97	644.82
676.31	640.38
676.65	636.07
676.99	632.05
677.33	627.70
677.67	623.19
678.01	618.49
678.34	614.40
678.68	610.10
679.02	605.86
679.36	601.72
679.70	597.70
680.04	593.64
680.37	589.43
680.71	585.62
681.05	581.68
681.39	578.01
681.73	574.37
682.06	570.87
682.40	567.14
682.74	563.61
683.08	559.92
683.42	556.21
683.75	552.52
684.09	548.75
684.43	545.05
684.77	541.47
685.10	538.20
685.44	534.60
685.78	531.14
686.12	527.85
686.45	524.46
686.79	521.26
687.13	518.02
687.46	514.79
687.80	511.32
688.14	508.02
688.48	504.61
688.81	500.94
689.15	497.55
689.49	494.46
689.82	491.22
690.16	487.96
690.50	484.84
690.83	481.90
691.17	478.75
691.51	475.80
691.84	473.00
692.18	469.97
692.52	467.02
692.85	464.01
693.19	460.97
693.52	458.09
693.86	455.00
694.20	452.26
694.53	449.50
694.87	446.76
695.21	444.05
695.54	441.40
695.88	438.68
696.21	435.94
696.55	433.14
696.88	430.51
697.22	428.04
697.56	425.75
697.89	423.29
698.23	420.88
698.56	418.49
698.90	415.95
699.23	413.35
699.57	410.90
699.90	408.49
700.24	406.00
700.58	403.59
700.91	401.40
701.25	399.16
701.58	396.94
701.92	394.81
702.25	392.85
702.59	390.62
702.92	388.79
703.26	386.68
703.59	384.89
703.93	383.14
704.26	381.20
704.60	379.06
704.93	377.02
705.26	375.19
705.60	373.45
705.93	371.81
706.27	370.28
706.60	368.74
706.94	367.16
707.27	365.60
707.61	364.03
707.94	362.41
708.27	360.67
708.61	359.14
708.94	357.61
709.28	356.09
709.61	354.65
709.94	353.14
710.28	351.77
710.61	350.19
710.95	348.60
711.28	347.23
711.61	345.86
711.95	344.57
712.28	343.06
712.61	341.56
712.95	340.07
713.28	338.83
713.61	337.34
713.95	335.93
714.28	334.66
714.61	333.47
714.95	332.24
715.28	330.89
715.61	329.51
715.95	328.28
716.28	327.03
716.61	325.94
716.95	324.85
717.28	323.69
717.61	322.70
717.94	321.56
718.28	320.43
718.61	319.47
718.94	318.40
719.27	317.40
719.61	316.32
719.94	315.51
720.27	314.40
720.60	313.41
720.94	312.50
721.27	311.60
721.60	310.73
721.93	309.80
722.27	309.08
722.60	308.27
722.93	307.50
723.26	306.50
723.59	305.50
723.93	304.46
724.26	303.59
724.59	302.56
724.92	301.63
725.25	300.72
725.59	299.80
725.92	298.89
726.25	298.12
726.58	297.41
726.91	296.49
727.24	295.65
727.57	294.86
727.91	294.03
728.24	293.26
728.57	292.40
728.90	291.62
729.23	290.79
729.56	290.11
729.89	289.30
730.22	288.69
730.55	287.99
730.89	287.43
731.22	286.80
731.55	286.16
731.88	285.59
732.21	284.98
732.54	284.32
732.87	283.71
733.20	283.14
733.53	282.47
733.86	281.92
734.19	281.36
734.52	280.77
734.85	280.30
735.18	279.66
735.51	279.07
735.84	278.62
736.17	278.05
736.50	277.43
736.83	277.05
737.16	276.41
737.49	275.88
737.82	275.25
738.15	274.62
738.48	274.04
738.81	273.45
739.14	272.82
739.47	272.20
739.80	271.71
740.13	271.12
740.46	270.57
740.79	270.00
741.12	269.45
741.45	268.97
741.78	268.38
742.11	267.85
742.44	267.37
742.77	266.75
743.10	266.28
743.43	265.71
743.75	265.00
744.08	264.84
744.41	264.40
744.74	264.01
745.07	263.58
745.40	263.15
745.73	262.82
746.06	262.45
746.39	262.11
746.71	261.68
747.04	261.23
747.37	260.85
747.70	260.45
748.03	260.10
748.36	259.68
748.68	259.30
749.01	259.00
749.34	258.51
749.67	258.25
750.00	257.86
750.33	257.67
750.65	257.46
750.98	256.85
751.31	256.44
751.64	256.17
751.97	255.99
752.29	255.76
752.62	255.36
752.95	255.13
753.28	254.85
753.60	254.46
753.93	254.28
754.26	253.99
754.59	253.62
754.91	253.20
755.24	253.01
755.57	252.63
755.90	252.43
756.22	252.30
756.55	252.05
756.88	251.84
757.20	251.54
757.53	251.28
757.86	251.02
758.19	250.94
758.51	250.68
758.84	250.30
759.17	250.08
759.49	249.85
759.82	249.67
760.15	249.52
760.47	249.42
760.80	249.08
761.13	248.98
761.45	248.86
761.78	248.68
762.11	248.49
762.43	248.42
762.76	248.22
763.08	248.08
763.41	247.82
763.74	247.63
764.06	247.40
764.39	247.06
764.71	246.91
765.04	246.62
765.37	246.29
765.69	246.10
766.02	245.91
766.34	245.76
766.67	245.41
767.00	245.09
767.32	244.92
767.65	244.92
767.97	244.67
768.30	244.48
768.62	244.44
768.95	244.23
769.27	244.07
769.60	243.84
769.92	243.57
770.25	243.30
770.57	242.98
770.90	242.78
771.22	242.79
771.55	242.57
771.87	242.40
772.20	242.25
772.52	242.23
772.85	242.35
773.17	242.21
773.50	242.21
773.82	241.96
774.15	241.75
774.47	241.47
774.80	241.33
775.12	241.09
775.45	240.87
775.77	240.61
776.09	240.36
776.42	240.14
776.74	239.92
777.07	239.86
777.39	239.86
777.72	239.74
778.04	239.51
778.36	239.34
778.69	239.16
779.01	238.97
779.33	238.62
779.66	238.11
779.98	237.90
780.31	237.67
780.63	237.71
780.95	237.62
781.28	237.39
781.60	237.23
781.92	237.15
782.25	237.01
782.57	236.87
782.89	236.80
783.22	236.67
783.54	236.61
783.86	236.49
784.19	236.26
784.51	236.20
784.83	236.06
785.16	235.99
785.48	235.81
785.80	235.84
