SpectraSuite Data File
++++++++++++++++++++++++++++++++++++
Date: Fri Feb 01 14:41:58 EST 2013
User: group
Dark Spectrum Present: No
Reference Spectrum Present: No
Number of Sampled Component Spectra: 1
Spectrometers: USB2E7196
Integration Time (usec): 70000 (USB2E7196)
Spectra Averaged: 10 (USB2E7196)
Boxcar Smoothing: 10 (USB2E7196)
Correct for Electrical Dark: No (USB2E7196)
Strobe/Lamp Enabled: No (USB2E7196)
Correct for Detector Non-linearity: No (USB2E7196)
Correct for Stray Light: No (USB2E7196)
Number of Pixels in Processed Spectrum: 2048
>>>>>Begin Processed Spectral Data<<<<<
339.09	0.00
339.48	216.50
339.86	217.40
340.24	218.80
340.63	218.40
341.01	224.50
341.39	223.60
341.78	223.40
342.16	226.20
342.54	226.10
342.93	214.45
343.31	225.29
343.69	225.92
344.07	226.35
344.46	226.80
344.84	227.30
345.22	227.46
345.60	227.70
345.99	228.05
346.37	228.21
346.75	228.30
347.13	228.35
347.52	228.34
347.90	228.50
348.28	228.58
348.66	228.62
349.05	228.62
349.43	228.79
349.81	228.85
350.19	228.87
350.57	228.95
350.96	229.04
351.34	229.20
351.72	229.27
352.10	229.55
352.48	229.64
352.87	229.69
353.25	229.81
353.63	229.90
354.01	229.94
354.39	229.95
354.77	230.08
355.15	230.21
355.54	230.42
355.92	230.37
356.30	230.44
356.68	230.70
357.06	230.86
357.44	230.93
357.82	231.02
358.20	231.21
358.58	231.28
358.97	231.34
359.35	231.43
359.73	231.49
360.11	231.35
360.49	231.41
360.87	231.47
361.25	231.47
361.63	231.59
362.01	231.57
362.39	231.63
362.77	231.69
363.15	231.74
363.53	231.65
363.91	231.73
364.29	231.88
364.67	231.70
365.05	231.63
365.43	231.61
365.81	231.55
366.19	231.67
366.57	231.81
366.95	231.87
367.33	231.76
367.71	231.77
368.09	231.87
368.47	231.87
368.85	231.86
369.23	231.93
369.61	231.82
369.99	231.79
370.37	231.72
370.75	231.67
371.13	231.62
371.51	231.44
371.89	231.25
372.27	231.17
372.65	231.17
373.03	231.09
373.41	231.05
373.78	230.95
374.16	230.75
374.54	230.46
374.92	230.29
375.30	230.25
375.68	230.06
376.06	230.00
376.44	229.83
376.82	229.71
377.19	229.64
377.57	229.64
377.95	229.54
378.33	229.52
378.71	229.39
379.09	229.36
379.47	229.38
379.84	229.37
380.22	229.26
380.60	229.05
380.98	228.91
381.36	228.79
381.73	228.77
382.11	228.66
382.49	228.69
382.87	228.62
383.25	228.50
383.62	228.63
384.00	228.50
384.38	228.48
384.76	228.48
385.13	228.45
385.51	228.33
385.89	228.28
386.27	228.17
386.64	228.25
387.02	228.08
387.40	228.09
387.78	228.12
388.15	228.20
388.53	228.25
388.91	228.26
389.29	228.26
389.66	228.27
390.04	228.22
390.42	228.39
390.79	228.40
391.17	228.33
391.55	228.24
391.92	228.34
392.30	228.35
392.68	228.42
393.05	228.39
393.43	228.34
393.81	228.37
394.18	228.40
394.56	228.30
394.94	228.38
395.31	228.50
395.69	228.50
396.06	228.46
396.44	228.57
396.82	228.60
397.19	228.81
397.57	228.94
397.95	229.04
398.32	229.01
398.70	229.03
399.07	229.24
399.45	229.25
399.82	229.34
400.20	229.50
400.58	229.60
400.95	229.70
401.33	229.95
401.70	230.17
402.08	230.31
402.45	230.65
402.83	230.96
403.20	231.13
403.58	231.36
403.95	231.57
404.33	231.60
404.71	231.83
405.08	232.03
405.46	232.09
405.83	232.29
406.21	232.40
406.58	232.75
406.96	232.89
407.33	233.26
407.70	233.47
408.08	233.87
408.45	234.08
408.83	234.45
409.20	234.74
409.58	235.02
409.95	235.48
410.33	235.82
410.70	236.10
411.08	236.30
411.45	236.71
411.82	237.09
412.20	237.73
412.57	238.38
412.95	238.83
413.32	239.50
413.69	240.07
414.07	240.87
414.44	241.45
414.82	242.24
415.19	243.01
415.56	243.74
415.94	244.55
416.31	245.60
416.68	246.50
417.06	247.54
417.43	248.59
417.81	249.66
418.18	250.70
418.55	251.91
418.93	253.33
419.30	254.79
419.67	256.28
420.04	257.62
420.42	259.07
420.79	260.82
421.16	262.53
421.54	264.38
421.91	266.14
422.28	268.11
422.66	270.02
423.03	271.97
423.40	274.08
423.77	276.20
424.15	278.29
424.52	280.51
424.89	282.97
425.26	285.21
425.64	287.42
426.01	289.73
426.38	292.33
426.75	294.85
427.13	297.31
427.50	300.02
427.87	303.00
428.24	305.87
428.61	308.51
428.99	311.39
429.36	314.50
429.73	317.54
430.10	320.70
430.47	323.88
430.85	327.00
431.22	330.31
431.59	333.89
431.96	337.24
432.33	340.90
432.70	344.46
433.08	348.65
433.45	352.56
433.82	356.53
434.19	360.78
434.56	364.93
434.93	368.88
435.30	372.79
435.68	377.05
436.05	381.30
436.42	385.50
436.79	389.37
437.16	393.37
437.53	397.58
437.90	401.74
438.27	405.79
438.64	410.03
439.01	413.92
439.38	417.35
439.75	420.60
440.13	424.45
440.50	427.86
440.87	430.76
441.24	433.53
441.61	436.86
441.98	439.15
442.35	441.83
442.72	444.55
443.09	447.44
443.46	448.75
443.83	449.53
444.20	450.31
444.57	451.54
444.94	452.08
445.31	452.70
445.68	453.23
446.05	453.44
446.42	452.86
446.79	452.11
447.16	451.23
447.53	450.86
447.90	449.09
448.27	447.39
448.64	444.81
449.01	443.27
449.37	440.33
449.74	437.35
450.11	434.08
450.48	430.30
450.85	426.29
451.22	423.19
451.59	420.08
451.96	417.10
452.33	413.14
452.70	409.49
453.07	405.11
453.43	400.67
453.80	396.35
454.17	392.41
454.54	388.75
454.91	384.77
455.28	380.60
455.65	376.81
456.02	373.20
456.38	370.02
456.75	365.94
457.12	362.37
457.49	359.05
457.86	355.70
458.23	353.10
458.59	349.91
458.96	346.70
459.33	343.89
459.70	340.96
460.07	338.60
460.43	335.95
460.80	333.48
461.17	331.32
461.54	329.20
461.91	326.86
462.27	324.63
462.64	322.54
463.01	320.43
463.38	318.53
463.74	316.31
464.11	314.62
464.48	313.10
464.85	311.41
465.21	310.06
465.58	308.65
465.95	306.86
466.32	305.45
466.68	304.10
467.05	302.60
467.42	301.20
467.78	299.76
468.15	298.44
468.52	297.39
468.88	295.88
469.25	294.66
469.62	293.67
469.98	292.45
470.35	291.57
470.72	290.61
471.08	289.51
471.45	288.68
471.82	287.72
472.18	286.77
472.55	286.11
472.92	285.23
473.28	284.55
473.65	283.79
474.02	283.13
474.38	282.45
474.75	282.02
475.11	281.49
475.48	281.08
475.85	280.67
476.21	280.29
476.58	280.05
476.94	279.68
477.31	279.43
477.67	279.22
478.04	278.93
478.41	278.72
478.77	278.66
479.14	278.44
479.50	278.40
479.87	278.29
480.23	278.26
480.60	278.20
480.96	278.20
481.33	278.53
481.69	278.68
482.06	278.89
482.42	279.16
482.79	279.42
483.15	279.68
483.52	280.10
483.88	280.39
484.25	280.70
484.61	281.18
484.98	281.63
485.34	282.22
485.71	282.78
486.07	283.50
486.44	284.12
486.80	284.91
487.17	285.68
487.53	286.79
487.90	287.74
488.26	288.90
488.62	290.15
488.99	291.19
489.35	292.51
489.72	293.80
490.08	295.18
490.44	296.80
490.81	298.56
491.17	300.28
491.54	302.26
491.90	304.25
492.26	306.39
492.63	308.51
492.99	310.90
493.36	313.44
493.72	316.18
494.08	318.85
494.45	321.81
494.81	324.80
495.17	327.76
495.54	331.16
495.90	334.81
496.26	338.28
496.63	342.26
496.99	346.33
497.35	350.57
497.72	355.08
498.08	359.72
498.44	364.52
498.80	369.67
499.17	375.00
499.53	380.52
499.89	386.31
500.26	392.48
500.62	398.74
500.98	405.29
501.34	411.92
501.71	419.02
502.07	426.15
502.43	433.81
502.79	441.66
503.16	449.80
503.52	458.10
503.88	466.96
504.24	475.80
504.60	485.20
504.97	494.99
505.33	504.79
505.69	515.41
506.05	526.05
506.41	536.79
506.78	547.90
507.14	559.53
507.50	571.44
507.86	583.76
508.22	596.45
508.59	609.24
508.95	622.70
509.31	636.32
509.67	650.65
510.03	664.96
510.39	679.91
510.75	695.18
511.12	710.54
511.48	726.21
511.84	742.52
512.20	758.99
512.56	775.97
512.92	793.27
513.28	810.73
513.64	828.56
514.00	846.72
514.37	865.38
514.73	884.24
515.09	903.11
515.45	922.44
515.81	942.36
516.17	962.65
516.53	982.89
516.89	1003.50
517.25	1024.20
517.61	1045.20
517.97	1066.40
518.33	1087.38
518.69	1108.88
519.05	1131.04
519.41	1153.13
519.77	1175.75
520.13	1198.18
520.49	1220.98
520.85	1243.86
521.21	1266.88
521.57	1291.03
521.93	1313.96
522.29	1337.67
522.65	1361.17
523.01	1384.50
523.37	1407.76
523.73	1431.25
524.09	1455.05
524.45	1479.20
524.81	1503.82
525.17	1528.29
525.53	1552.55
525.89	1577.28
526.25	1602.34
526.61	1626.31
526.97	1650.95
527.33	1675.01
527.68	1700.02
528.04	1724.58
528.40	1749.25
528.76	1774.60
529.12	1799.05
529.48	1824.23
529.84	1848.28
530.20	1873.62
530.56	1899.51
530.91	1925.42
531.27	1951.38
531.63	1976.31
531.99	2000.90
532.35	2024.43
532.71	2048.02
533.07	2072.52
533.42	2096.83
533.78	2120.81
534.14	2144.76
534.50	2168.24
534.86	2192.35
535.21	2214.90
535.57	2238.72
535.93	2261.76
536.29	2284.03
536.65	2306.28
537.00	2328.52
537.36	2351.40
537.72	2373.14
538.08	2394.20
538.44	2414.99
538.79	2435.14
539.15	2455.43
539.51	2476.39
539.87	2497.87
540.22	2519.28
540.58	2540.67
540.94	2560.62
541.29	2579.77
541.65	2599.38
542.01	2619.19
542.37	2638.49
542.72	2657.90
543.08	2675.66
543.44	2694.31
543.79	2711.36
544.15	2729.06
544.51	2747.48
544.87	2764.68
545.22	2782.06
545.58	2798.77
545.94	2813.76
546.29	2829.90
546.65	2845.77
547.01	2860.42
547.36	2874.57
547.72	2888.24
548.07	2900.92
548.43	2913.83
548.79	2927.94
549.14	2940.53
549.50	2952.41
549.86	2963.52
550.21	2974.72
550.57	2986.83
550.92	2997.89
551.28	3009.19
551.64	3020.04
551.99	3029.51
552.35	3039.87
552.70	3049.72
553.06	3060.03
553.41	3070.71
553.77	3080.17
554.13	3090.15
554.48	3099.83
554.84	3108.82
555.19	3117.90
555.55	3126.20
555.90	3134.42
556.26	3142.10
556.61	3149.87
556.97	3157.10
557.32	3164.60
557.68	3172.29
558.03	3179.33
558.39	3186.12
558.74	3194.50
559.10	3201.16
559.45	3208.41
559.81	3215.82
560.16	3221.23
560.52	3226.60
560.87	3232.34
561.23	3236.96
561.58	3241.90
561.94	3246.08
562.29	3250.25
562.64	3254.33
563.00	3258.68
563.35	3264.30
563.71	3269.01
564.06	3274.30
564.42	3278.96
564.77	3283.21
565.12	3287.37
565.48	3290.57
565.83	3293.10
566.19	3295.07
566.54	3297.22
566.89	3299.01
567.25	3299.79
567.60	3302.38
567.96	3303.84
568.31	3304.70
568.66	3305.81
569.02	3306.74
569.37	3306.95
569.72	3307.25
570.08	3307.51
570.43	3307.47
570.78	3306.35
571.14	3304.63
571.49	3303.04
571.84	3302.65
572.20	3300.52
572.55	3297.72
572.90	3295.08
573.26	3293.07
573.61	3290.50
573.96	3287.80
574.31	3283.20
574.67	3278.07
575.02	3272.75
575.37	3268.83
575.72	3263.59
576.08	3259.61
576.43	3254.27
576.78	3250.12
577.13	3245.92
577.49	3241.46
577.84	3236.00
578.19	3230.49
578.54	3224.69
578.90	3217.75
579.25	3209.72
579.60	3203.19
579.95	3196.53
580.30	3189.85
580.66	3181.77
581.01	3173.91
581.36	3166.63
581.71	3160.28
582.06	3154.05
582.42	3147.15
582.77	3138.84
583.12	3131.85
583.47	3124.51
583.82	3117.67
584.17	3109.35
584.53	3101.53
584.88	3093.24
585.23	3085.41
585.58	3077.07
585.93	3069.31
586.28	3062.35
586.63	3055.14
586.98	3048.11
587.34	3040.49
587.69	3032.62
588.04	3025.14
588.39	3017.60
588.74	3007.97
589.09	2998.89
589.44	2989.43
589.79	2981.15
590.14	2973.50
590.49	2964.90
590.84	2955.10
591.19	2945.74
591.54	2935.52
591.89	2924.00
592.25	2913.89
592.60	2903.10
592.95	2892.31
593.30	2881.41
593.65	2870.37
594.00	2859.75
594.35	2848.90
594.70	2837.42
595.05	2827.49
595.40	2816.43
595.75	2804.93
596.10	2795.22
596.45	2785.47
596.80	2776.36
597.15	2766.78
597.50	2755.74
597.85	2745.40
598.19	2736.33
598.54	2726.24
598.89	2717.31
599.24	2708.98
599.59	2699.40
599.94	2690.72
600.29	2681.44
600.64	2671.92
600.99	2660.80
601.34	2651.07
601.69	2640.25
602.04	2630.80
602.39	2619.86
602.74	2610.92
603.08	2602.15
603.43	2592.79
603.78	2582.47
604.13	2572.05
604.48	2560.71
604.83	2550.77
605.18	2540.90
605.53	2528.99
605.87	2516.99
606.22	2506.26
606.57	2494.52
606.92	2483.49
607.27	2472.54
607.62	2462.01
607.96	2451.31
608.31	2441.88
608.66	2430.04
609.01	2418.92
609.36	2406.91
609.70	2394.48
610.05	2382.03
610.40	2369.80
610.75	2357.38
611.10	2345.59
611.44	2332.50
611.79	2320.90
612.14	2308.65
612.49	2295.29
612.83	2283.00
613.18	2271.23
613.53	2259.20
613.88	2247.12
614.22	2235.00
614.57	2222.05
614.92	2210.10
615.27	2198.27
615.61	2185.92
615.96	2174.35
616.31	2163.49
616.65	2153.25
617.00	2142.83
617.35	2131.74
617.70	2119.77
618.04	2107.85
618.39	2096.17
618.74	2085.48
619.08	2073.45
619.43	2062.06
619.78	2051.39
620.12	2040.45
620.47	2029.14
620.82	2017.45
621.16	2006.79
621.51	1995.86
621.85	1984.78
622.20	1972.57
622.55	1961.12
622.89	1950.09
623.24	1939.31
623.59	1928.29
623.93	1916.69
624.28	1905.60
624.62	1894.45
624.97	1883.79
625.32	1873.59
625.66	1863.32
626.01	1852.80
626.35	1842.29
626.70	1831.14
627.04	1820.51
627.39	1809.69
627.73	1799.05
628.08	1788.52
628.43	1777.75
628.77	1766.83
629.12	1755.58
629.46	1745.24
629.81	1733.72
630.15	1722.30
630.50	1711.20
630.84	1699.29
631.19	1687.79
631.53	1676.54
631.88	1664.89
632.22	1653.47
632.57	1642.37
632.91	1630.79
633.26	1619.82
633.60	1608.21
633.95	1597.73
634.29	1587.02
634.64	1577.07
634.98	1566.35
635.32	1556.21
635.67	1546.21
636.01	1536.13
636.36	1526.34
636.70	1516.86
637.05	1507.73
637.39	1498.85
637.73	1489.39
638.08	1480.40
638.42	1471.60
638.77	1462.16
639.11	1452.91
639.45	1443.68
639.80	1434.25
640.14	1424.93
640.49	1415.32
640.83	1406.30
641.17	1397.12
641.52	1387.70
641.86	1377.87
642.20	1368.66
642.55	1359.19
642.89	1349.84
643.23	1340.14
643.58	1331.40
643.92	1321.59
644.26	1312.22
644.61	1303.10
644.95	1293.72
645.29	1283.63
645.64	1273.61
645.98	1264.35
646.32	1255.71
646.66	1246.40
647.01	1237.28
647.35	1228.69
647.69	1219.73
648.04	1211.42
648.38	1201.94
648.72	1192.43
649.06	1183.23
649.41	1174.57
649.75	1165.47
650.09	1156.12
650.43	1147.17
650.78	1137.74
651.12	1128.83
651.46	1119.94
651.80	1111.06
652.14	1102.43
652.49	1094.45
652.83	1086.26
653.17	1077.62
653.51	1068.83
653.85	1060.50
654.20	1052.03
654.54	1042.91
654.88	1034.24
655.22	1025.20
655.56	1016.71
655.90	1009.24
656.25	1001.56
656.59	993.55
656.93	985.60
657.27	978.10
657.61	969.91
657.95	962.46
658.29	954.75
658.64	946.90
658.98	938.62
659.32	930.64
659.66	923.10
660.00	915.31
660.34	907.90
660.68	900.40
661.02	893.00
661.36	885.89
661.70	879.14
662.05	872.40
662.39	865.91
662.73	859.25
663.07	852.44
663.41	845.68
663.75	838.82
664.09	832.19
664.43	825.38
664.77	819.29
665.11	813.04
665.45	806.73
665.79	800.56
666.13	794.69
666.47	788.76
666.81	782.30
667.15	776.15
667.49	770.12
667.83	764.36
668.17	758.31
668.51	752.10
668.85	746.21
669.19	740.43
669.53	734.52
669.87	728.89
670.21	723.28
670.55	717.72
670.89	712.75
671.23	707.52
671.57	702.27
671.91	697.12
672.25	691.72
672.58	686.60
672.92	681.51
673.26	676.80
673.60	671.62
673.94	667.13
674.28	662.74
674.62	658.30
674.96	653.69
675.30	649.43
675.64	645.08
675.97	640.79
676.31	636.56
676.65	632.41
676.99	628.40
677.33	624.08
677.67	619.83
678.01	615.14
678.34	610.96
678.68	606.90
679.02	602.63
679.36	598.48
679.70	594.70
680.04	590.71
680.37	586.40
680.71	582.52
681.05	578.67
681.39	574.73
681.73	570.84
682.06	567.03
682.40	563.60
682.74	560.05
683.08	556.41
683.42	552.68
683.75	549.03
684.09	545.10
684.43	541.60
684.77	537.95
685.10	534.46
685.44	531.01
685.78	527.67
686.12	524.45
686.45	521.01
686.79	517.51
687.13	514.29
687.46	511.03
687.80	507.83
688.14	504.63
688.48	501.55
688.81	498.37
689.15	495.27
689.49	491.90
689.82	488.60
690.16	485.48
690.50	482.65
690.83	479.81
691.17	476.78
691.51	473.68
691.84	470.99
692.18	468.18
692.52	465.27
692.85	462.38
693.19	459.50
693.52	456.92
693.86	454.17
694.20	451.44
694.53	448.72
694.87	446.11
695.21	443.20
695.54	440.56
695.88	437.87
696.21	435.32
696.55	432.62
696.88	430.26
697.22	427.61
697.56	424.93
697.89	422.29
698.23	420.04
698.56	417.82
698.90	415.29
699.23	412.77
699.57	410.32
699.90	407.97
700.24	405.64
700.58	403.35
700.91	401.00
701.25	398.79
701.58	396.73
701.92	394.62
702.25	392.60
702.59	390.40
702.92	388.44
703.26	386.30
703.59	384.37
703.93	382.53
704.26	380.62
704.60	378.65
704.93	376.71
705.26	374.71
705.60	372.79
705.93	371.05
706.27	369.50
706.60	368.00
706.94	366.36
707.27	364.55
707.61	362.76
707.94	361.32
708.27	359.83
708.61	358.12
708.94	356.53
709.28	354.99
709.61	353.51
709.94	352.01
710.28	350.56
710.61	349.21
710.95	347.48
711.28	346.12
711.61	344.64
711.95	343.30
712.28	341.90
712.61	340.44
712.95	339.15
713.28	337.83
713.61	336.33
713.95	334.88
714.28	333.57
714.61	332.34
714.95	330.95
715.28	329.51
715.61	328.22
715.95	326.99
716.28	325.75
716.61	324.35
716.95	323.10
717.28	322.12
717.61	320.92
717.94	319.84
718.28	318.68
718.61	317.82
718.94	316.72
719.27	315.74
719.61	314.80
719.94	313.73
720.27	312.64
720.60	311.85
720.94	310.95
721.27	310.11
721.60	309.17
721.93	308.22
722.27	307.35
722.60	306.46
722.93	305.62
723.26	304.84
723.59	304.18
723.93	303.37
724.26	302.42
724.59	301.59
724.92	300.87
725.25	300.09
725.59	299.20
725.92	298.49
726.25	297.69
726.58	296.99
726.91	296.37
727.24	295.71
727.57	294.90
727.91	294.20
728.24	293.54
728.57	292.91
728.90	292.24
729.23	291.56
729.56	291.00
729.89	290.29
730.22	289.53
730.55	288.79
730.89	288.13
731.22	287.47
731.55	286.81
731.88	286.11
732.21	285.45
732.54	284.81
732.87	284.12
733.20	283.46
733.53	282.71
733.86	281.97
734.19	281.32
734.52	280.70
734.85	280.03
735.18	279.42
735.51	278.91
735.84	278.35
736.17	277.98
736.50	277.32
736.83	276.95
737.16	276.36
737.49	275.86
737.82	275.35
738.15	274.83
738.48	274.20
738.81	273.58
739.14	273.09
739.47	272.56
739.80	272.03
740.13	271.54
740.46	271.09
740.79	270.60
741.12	270.00
741.45	269.48
741.78	269.01
742.11	268.53
742.44	267.90
742.77	267.48
743.10	266.74
743.43	266.24
743.75	265.59
744.08	265.36
744.41	264.93
744.74	264.44
745.07	263.98
745.40	263.60
745.73	263.34
746.06	262.87
746.39	262.41
746.71	262.00
747.04	261.51
747.37	261.02
747.70	260.63
748.03	260.27
748.36	259.99
748.68	259.64
749.01	259.26
749.34	258.85
749.67	258.42
750.00	258.14
750.33	257.95
750.65	257.51
750.98	256.97
751.31	256.67
751.64	256.24
751.97	255.99
752.29	255.65
752.62	255.23
752.95	254.94
753.28	254.64
753.60	254.34
753.93	254.31
754.26	253.97
754.59	253.62
754.91	253.27
755.24	252.90
755.57	252.42
755.90	252.03
756.22	251.80
756.55	251.49
756.88	251.05
757.20	250.65
757.53	250.46
757.86	250.22
758.19	249.90
758.51	249.75
758.84	249.38
759.17	249.18
759.49	248.94
759.82	248.76
760.15	248.52
760.47	248.21
760.80	247.75
761.13	247.62
761.45	247.36
761.78	247.24
762.11	247.11
762.43	246.96
762.76	246.83
763.08	246.52
763.41	246.34
763.74	246.29
764.06	246.12
764.39	245.81
764.71	245.61
765.04	245.39
765.37	245.25
765.69	245.05
766.02	244.84
766.34	244.67
766.67	244.44
767.00	244.22
767.32	244.18
767.65	244.11
767.97	243.90
768.30	243.87
768.62	243.66
768.95	243.45
769.27	243.34
769.60	243.28
769.92	243.18
770.25	243.01
770.57	242.84
770.90	242.67
771.22	242.60
771.55	242.42
771.87	242.18
772.20	241.92
772.52	242.12
772.85	242.19
773.17	242.02
773.50	241.87
773.82	241.80
774.15	241.55
774.47	241.35
774.80	241.29
775.12	241.10
775.45	240.98
775.77	240.69
776.09	240.54
776.42	240.40
776.74	240.40
777.07	240.33
777.39	240.14
777.72	240.05
778.04	239.96
778.36	239.88
778.69	239.93
779.01	239.84
779.33	239.44
779.66	239.21
779.98	239.05
780.31	238.90
780.63	238.83
780.95	238.70
781.28	238.63
781.60	238.47
781.92	238.29
782.25	238.13
782.57	238.09
782.89	237.97
783.22	237.79
783.54	237.64
783.86	237.49
784.19	237.41
784.51	237.31
784.83	237.15
785.16	237.00
785.48	236.90
785.80	236.88
