SpectraSuite Data File
++++++++++++++++++++++++++++++++++++
Date: Fri Feb 01 14:36:22 EST 2013
User: group
Dark Spectrum Present: No
Reference Spectrum Present: No
Number of Sampled Component Spectra: 1
Spectrometers: USB2E7196
Integration Time (usec): 70000 (USB2E7196)
Spectra Averaged: 10 (USB2E7196)
Boxcar Smoothing: 10 (USB2E7196)
Correct for Electrical Dark: No (USB2E7196)
Strobe/Lamp Enabled: No (USB2E7196)
Correct for Detector Non-linearity: No (USB2E7196)
Correct for Stray Light: No (USB2E7196)
Number of Pixels in Processed Spectrum: 2048
>>>>>Begin Processed Spectral Data<<<<<
339.09	0.00
339.48	216.10
339.86	217.80
340.24	219.00
340.63	221.20
341.01	226.10
341.39	222.40
341.78	225.30
342.16	226.80
342.54	226.40
342.93	215.18
343.31	226.12
343.69	226.80
344.07	227.30
344.46	227.80
344.84	228.19
345.22	228.31
345.60	228.51
345.99	228.64
346.37	228.67
346.75	228.80
347.13	228.85
347.52	228.97
347.90	228.96
348.28	228.94
348.66	228.97
349.05	228.83
349.43	228.86
349.81	228.94
350.19	228.95
350.57	228.93
350.96	229.04
351.34	229.04
351.72	228.89
352.10	229.06
352.48	229.04
352.87	229.10
353.25	229.09
353.63	229.21
354.01	229.34
354.39	229.46
354.77	229.55
355.15	229.58
355.54	229.51
355.92	229.51
356.30	229.64
356.68	229.82
357.06	229.84
357.44	229.92
357.82	229.90
358.20	229.94
358.58	230.07
358.97	230.02
359.35	230.13
359.73	230.30
360.11	230.19
360.49	230.19
360.87	230.24
361.25	230.27
361.63	230.46
362.01	230.40
362.39	230.30
362.77	230.20
363.15	230.24
363.53	230.29
363.91	230.26
364.29	230.29
364.67	230.10
365.05	230.23
365.43	230.22
365.81	230.26
366.19	230.31
366.57	230.33
366.95	230.30
367.33	230.18
367.71	230.06
368.09	230.10
368.47	229.94
368.85	229.88
369.23	229.89
369.61	229.68
369.99	229.67
370.37	229.73
370.75	229.80
371.13	229.68
371.51	229.64
371.89	229.62
372.27	229.55
372.65	229.46
373.03	229.35
373.41	229.21
373.78	229.07
374.16	228.80
374.54	228.63
374.92	228.57
375.30	228.47
375.68	228.48
376.06	228.34
376.44	228.41
376.82	228.21
377.19	228.20
377.57	228.15
377.95	228.11
378.33	228.00
378.71	227.79
379.09	227.73
379.47	227.65
379.84	227.53
380.22	227.36
380.60	227.33
380.98	227.22
381.36	227.22
381.73	227.10
382.11	227.09
382.49	227.06
382.87	226.98
383.25	226.82
383.62	226.90
384.00	226.74
384.38	226.66
384.76	226.71
385.13	226.65
385.51	226.49
385.89	226.34
386.27	226.28
386.64	226.34
387.02	226.32
387.40	226.17
387.78	226.10
388.15	226.07
388.53	225.98
388.91	226.00
389.29	225.91
389.66	226.02
390.04	226.04
390.42	225.96
390.79	226.00
391.17	226.08
391.55	225.93
391.92	226.00
392.30	226.11
392.68	226.03
393.05	225.95
393.43	226.08
393.81	226.13
394.18	226.21
394.56	226.10
394.94	226.16
395.31	226.29
395.69	226.54
396.06	226.60
396.44	226.67
396.82	226.69
397.19	226.89
397.57	226.97
397.95	227.08
398.32	227.13
398.70	227.25
399.07	227.37
399.45	227.49
399.82	227.62
400.20	227.70
400.58	227.90
400.95	228.06
401.33	228.19
401.70	228.44
402.08	228.57
402.45	228.84
402.83	229.00
403.20	229.16
403.58	229.25
403.95	229.50
404.33	229.71
404.71	229.89
405.08	230.16
405.46	230.43
405.83	230.63
406.21	230.90
406.58	231.16
406.96	231.46
407.33	231.72
407.70	232.09
408.08	232.52
408.45	232.93
408.83	233.36
409.20	233.76
409.58	234.09
409.95	234.51
410.33	234.98
410.70	235.50
411.08	236.01
411.45	236.62
411.82	237.21
412.20	237.88
412.57	238.70
412.95	239.36
413.32	240.11
413.69	240.96
414.07	241.80
414.44	242.74
414.82	243.64
415.19	244.76
415.56	245.94
415.94	246.96
416.31	248.20
416.68	249.48
417.06	250.91
417.43	252.33
417.81	253.92
418.18	255.61
418.55	257.33
418.93	259.22
419.30	261.14
419.67	263.16
420.04	265.20
420.42	267.28
420.79	269.76
421.16	272.20
421.54	274.76
421.91	277.43
422.28	280.17
422.66	283.02
423.03	285.89
423.40	288.80
423.77	292.06
424.15	295.21
424.52	298.50
424.89	302.22
425.26	305.67
425.64	309.07
426.01	312.60
426.38	316.29
426.75	320.17
427.13	324.06
427.50	328.18
427.87	332.51
428.24	336.92
428.61	341.09
428.99	345.80
429.36	350.77
429.73	355.76
430.10	360.61
430.47	365.70
430.85	370.74
431.22	375.99
431.59	381.73
431.96	387.09
432.33	393.25
432.70	398.97
433.08	405.96
433.45	412.40
433.82	418.84
434.19	426.00
434.56	432.80
434.93	439.56
435.30	446.40
435.68	453.82
436.05	460.93
436.42	468.06
436.79	474.42
437.16	481.39
437.53	488.46
437.90	495.58
438.27	502.68
438.64	510.33
439.01	517.64
439.38	523.89
439.75	530.02
440.13	536.67
440.50	543.12
440.87	548.40
441.24	554.07
441.61	560.28
441.98	565.08
442.35	570.69
442.72	576.20
443.09	581.51
443.46	585.06
443.83	587.54
444.20	589.72
444.57	592.94
444.94	594.75
445.31	596.80
445.68	598.97
446.05	600.42
446.42	600.44
446.79	600.03
447.16	599.91
447.53	600.10
447.90	598.33
448.27	596.58
448.64	593.68
449.01	591.72
449.37	587.70
449.74	583.57
450.11	578.70
450.48	573.31
450.85	567.76
451.22	562.99
451.59	558.63
451.96	554.50
452.33	548.44
452.70	543.10
453.07	536.70
453.43	529.92
453.80	523.44
454.17	517.04
454.54	511.15
454.91	504.55
455.28	498.26
455.65	492.29
456.02	486.23
456.38	480.97
456.75	474.50
457.12	469.16
457.49	463.90
457.86	458.67
458.23	454.05
458.59	448.90
458.96	443.91
459.33	439.34
459.70	434.86
460.07	431.20
460.43	426.94
460.80	422.85
461.17	419.28
461.54	415.35
461.91	411.87
462.27	408.41
462.64	405.28
463.01	401.71
463.38	398.49
463.74	395.26
464.11	392.44
464.48	389.91
464.85	387.07
465.21	384.95
465.58	382.47
465.95	379.74
466.32	377.44
466.68	374.99
467.05	372.84
467.42	370.50
467.78	368.15
468.15	365.83
468.52	364.02
468.88	361.75
469.25	359.98
469.62	358.44
469.98	356.60
470.35	354.95
470.72	353.58
471.08	351.81
471.45	350.24
471.82	348.50
472.18	346.71
472.55	345.40
472.92	343.83
473.28	342.56
473.65	341.24
474.02	339.99
474.38	338.85
474.75	337.75
475.11	336.48
475.48	335.59
475.85	334.83
476.21	334.05
476.58	333.41
476.94	332.63
477.31	331.86
477.67	331.12
478.04	330.55
478.41	329.93
478.77	329.65
479.14	329.17
479.50	328.88
479.87	328.77
480.23	328.62
480.60	328.45
480.96	328.37
481.33	328.39
481.69	328.40
482.06	328.30
482.42	328.13
482.79	328.15
483.15	328.17
483.52	328.35
483.88	328.54
484.25	328.67
484.61	328.89
484.98	329.05
485.34	329.44
485.71	329.90
486.07	330.25
486.44	330.66
486.80	331.21
487.17	332.04
487.53	332.55
487.90	333.16
488.26	333.96
488.62	334.67
488.99	335.49
489.35	336.24
489.72	337.10
490.08	338.27
490.44	339.30
490.81	340.46
491.17	341.44
491.54	342.53
491.90	343.69
492.26	345.05
492.63	346.30
492.99	347.52
493.36	348.75
493.72	350.15
494.08	351.40
494.45	352.87
494.81	354.17
495.17	355.73
495.54	357.16
495.90	358.47
496.26	359.96
496.63	361.45
496.99	363.00
497.35	364.66
497.72	366.15
498.08	367.74
498.44	369.22
498.80	371.05
499.17	372.61
499.53	374.08
499.89	375.47
500.26	377.07
500.62	378.61
500.98	380.21
501.34	381.79
501.71	383.41
502.07	384.80
502.43	386.25
502.79	387.59
503.16	389.19
503.52	390.72
503.88	391.91
504.24	393.23
504.60	394.54
504.97	395.88
505.33	397.14
505.69	398.56
506.05	399.91
506.41	401.02
506.78	402.25
507.14	403.49
507.50	404.58
507.86	405.64
508.22	406.76
508.59	407.72
508.95	408.62
509.31	409.51
509.67	410.47
510.03	411.23
510.39	412.06
510.75	412.78
511.12	413.40
511.48	414.19
511.84	414.80
512.20	415.42
512.56	416.15
512.92	416.56
513.28	417.01
513.64	417.44
514.00	417.84
514.37	418.17
514.73	418.44
515.09	418.79
515.45	418.96
515.81	419.24
516.17	419.47
516.53	419.68
516.89	419.90
517.25	419.96
517.61	420.34
517.97	420.55
518.33	420.62
518.69	420.87
519.05	420.96
519.41	421.15
519.77	421.59
520.13	421.67
520.49	421.89
520.85	421.96
521.21	422.23
521.57	422.45
521.93	422.70
522.29	423.11
522.65	423.40
523.01	423.75
523.37	424.00
523.73	424.30
524.09	424.85
524.45	425.27
524.81	426.06
525.17	426.69
525.53	427.15
525.89	427.90
526.25	428.64
526.61	429.61
526.97	430.51
527.33	431.25
527.68	432.28
528.04	433.46
528.40	434.72
528.76	435.81
529.12	437.06
529.48	438.42
529.84	439.54
530.20	441.13
530.56	442.85
530.91	444.59
531.27	446.37
531.63	448.11
531.99	449.85
532.35	451.53
532.71	453.40
533.07	455.72
533.42	457.84
533.78	459.99
534.14	462.29
534.50	464.54
534.86	466.94
535.21	469.24
535.57	471.68
535.93	474.27
536.29	476.99
536.65	479.64
537.00	482.25
537.36	485.27
537.72	488.05
538.08	491.00
538.44	493.85
538.79	496.93
539.15	499.73
539.51	502.84
539.87	506.11
540.22	509.18
540.58	512.40
540.94	515.58
541.29	518.87
541.65	522.00
542.01	525.66
542.37	528.87
542.72	532.22
543.08	535.70
543.44	539.13
543.79	542.52
544.15	546.17
544.51	550.04
544.87	553.88
545.22	557.50
545.58	561.04
545.94	564.75
546.29	568.46
546.65	572.52
547.01	576.37
547.36	580.10
547.72	584.08
548.07	587.95
548.43	591.72
548.79	595.59
549.14	599.45
549.50	603.19
549.86	607.24
550.21	611.25
550.57	615.31
550.92	619.18
551.28	623.06
551.64	626.75
551.99	630.73
552.35	634.64
552.70	638.66
553.06	642.89
553.41	647.06
553.77	651.23
554.13	655.22
554.48	659.42
554.84	663.65
555.19	667.76
555.55	671.94
555.90	676.03
556.26	679.97
556.61	683.85
556.97	687.66
557.32	691.94
557.68	695.98
558.03	699.65
558.39	703.69
558.74	707.84
559.10	712.14
559.45	715.88
559.81	719.71
560.16	723.66
560.52	727.50
560.87	731.43
561.23	734.95
561.58	738.89
561.94	742.62
562.29	746.15
562.64	749.50
563.00	752.93
563.35	756.65
563.71	760.56
564.06	764.60
564.42	768.39
564.77	771.79
565.12	775.50
565.48	779.40
565.83	782.98
566.19	786.58
566.54	790.08
566.89	793.39
567.25	796.82
567.60	800.27
567.96	803.52
568.31	806.50
568.66	809.95
569.02	812.76
569.37	815.81
569.72	818.86
570.08	821.92
570.43	824.87
570.78	827.39
571.14	829.96
571.49	832.52
571.84	835.40
572.20	837.71
572.55	840.17
572.90	842.26
573.26	844.62
573.61	846.89
573.96	848.73
574.31	850.50
574.67	852.24
575.02	853.79
575.37	855.55
575.72	857.05
576.08	858.48
576.43	860.29
576.78	861.75
577.13	863.26
577.49	864.71
577.84	865.99
578.19	867.86
578.54	868.91
578.90	869.98
579.25	870.68
579.60	871.61
579.95	872.13
580.30	873.18
580.66	873.58
581.01	873.84
581.36	874.48
581.71	875.57
582.06	876.21
582.42	876.69
582.77	877.11
583.12	877.58
583.47	878.17
583.82	878.36
584.17	878.87
584.53	879.27
584.88	879.40
585.23	879.56
585.58	879.44
585.93	879.89
586.28	880.00
586.63	880.13
586.98	880.33
587.34	880.81
587.69	880.45
588.04	880.65
588.39	880.69
588.74	880.31
589.09	879.90
589.44	879.42
589.79	879.37
590.14	878.91
590.49	878.73
590.84	878.00
591.19	877.57
591.54	876.28
591.89	875.15
592.25	874.64
592.60	873.55
592.95	872.64
593.30	871.26
593.65	870.17
594.00	869.13
594.35	868.61
594.70	867.01
595.05	866.15
595.40	864.66
595.75	863.45
596.10	862.44
596.45	861.42
596.80	860.43
597.15	859.41
597.50	858.38
597.85	856.92
598.19	855.86
598.54	854.78
598.89	853.97
599.24	853.10
599.59	851.63
599.94	850.67
600.29	849.16
600.64	848.04
600.99	846.53
601.34	845.04
601.69	843.04
602.04	841.84
602.39	840.14
602.74	838.93
603.08	837.58
603.43	836.33
603.78	834.52
604.13	832.83
604.48	830.93
604.83	829.25
605.18	827.64
605.53	825.69
605.87	823.58
606.22	821.76
606.57	819.69
606.92	817.87
607.27	815.97
607.62	814.34
607.96	812.55
608.31	810.90
608.66	809.05
609.01	806.92
609.36	804.58
609.70	802.47
610.05	800.16
610.40	797.93
610.75	795.37
611.10	793.15
611.44	790.68
611.79	788.25
612.14	785.88
612.49	783.34
612.83	780.95
613.18	778.53
613.53	776.06
613.88	773.44
614.22	770.73
614.57	767.95
614.92	765.38
615.27	762.90
615.61	760.16
615.96	757.46
616.31	755.07
616.65	752.89
617.00	750.50
617.35	747.94
617.70	745.44
618.04	742.59
618.39	740.17
618.74	737.78
619.08	735.40
619.43	732.91
619.78	730.46
620.12	728.00
620.47	725.40
620.82	722.71
621.16	720.30
621.51	718.12
621.85	715.86
622.20	713.06
622.55	710.42
622.89	708.22
623.24	706.01
623.59	703.52
623.93	701.05
624.28	698.67
624.62	696.46
624.97	694.01
625.32	692.04
625.66	689.72
626.01	687.34
626.35	684.68
626.70	681.91
627.04	679.70
627.39	677.21
627.73	675.07
628.08	672.84
628.43	670.42
628.77	667.89
629.12	665.04
629.46	662.59
629.81	659.73
630.15	656.89
630.50	654.15
630.84	651.27
631.19	648.31
631.53	645.66
631.88	642.64
632.22	639.73
632.57	637.16
632.91	634.25
633.26	631.70
633.60	629.16
633.95	626.72
634.29	623.77
634.64	621.10
634.98	618.26
635.32	615.67
635.67	613.05
636.01	610.41
636.36	608.05
636.70	605.69
637.05	603.36
637.39	600.81
637.73	598.41
638.08	596.55
638.42	594.44
638.77	592.05
639.11	589.80
639.45	587.55
639.80	584.90
640.14	582.63
640.49	580.29
640.83	578.00
641.17	575.52
641.52	573.36
641.86	570.92
642.20	568.56
642.55	566.13
642.89	563.83
643.23	561.60
643.58	559.53
643.92	557.12
644.26	554.85
644.61	552.83
644.95	550.51
645.29	547.75
645.64	545.20
645.98	542.72
646.32	540.60
646.66	538.09
647.01	535.94
647.35	533.67
647.69	531.22
648.04	528.94
648.38	526.52
648.72	524.21
649.06	521.90
649.41	519.62
649.75	517.04
650.09	514.45
650.43	511.96
650.78	509.31
651.12	506.98
651.46	504.57
651.80	502.18
652.14	499.79
652.49	497.58
652.83	495.43
653.17	493.11
653.51	490.74
653.85	488.62
654.20	486.31
654.54	483.81
654.88	481.40
655.22	479.04
655.56	476.82
655.90	474.50
656.25	472.38
656.59	470.13
656.93	468.26
657.27	466.47
657.61	464.20
657.95	462.24
658.29	460.15
658.64	458.19
658.98	456.10
659.32	453.73
659.66	451.61
660.00	449.51
660.34	447.40
660.68	445.35
661.02	443.24
661.36	441.40
661.70	439.76
662.05	438.00
662.39	436.00
662.73	434.22
663.07	432.59
663.41	430.89
663.75	428.98
664.09	427.12
664.43	425.19
664.77	423.69
665.11	422.02
665.45	420.35
665.79	418.61
666.13	416.80
666.47	415.19
666.81	413.41
667.15	411.68
667.49	410.12
667.83	408.46
668.17	406.81
668.51	405.03
668.85	403.25
669.19	401.83
669.53	400.18
669.87	398.47
670.21	396.85
670.55	395.30
670.89	394.00
671.23	392.55
671.57	391.08
671.91	389.40
672.25	387.80
672.58	386.38
672.92	384.76
673.26	383.48
673.60	382.23
673.94	380.95
674.28	379.60
674.62	378.35
674.96	376.98
675.30	375.75
675.64	374.51
675.97	373.27
676.31	371.88
676.65	370.78
676.99	369.61
677.33	368.15
677.67	366.87
678.01	365.45
678.34	364.12
678.68	362.98
679.02	361.81
679.36	360.70
679.70	359.51
680.04	358.52
680.37	357.24
680.71	356.08
681.05	355.13
681.39	354.08
681.73	352.99
682.06	351.97
682.40	350.94
682.74	349.71
683.08	348.59
683.42	347.37
683.75	346.18
684.09	345.03
684.43	343.92
684.77	342.88
685.10	341.94
685.44	340.79
685.78	339.62
686.12	338.46
686.45	337.19
686.79	336.06
687.13	334.97
687.46	333.79
687.80	332.66
688.14	331.29
688.48	330.16
688.81	328.86
689.15	327.80
689.49	326.58
689.82	325.65
690.16	324.55
690.50	323.53
690.83	322.47
691.17	321.57
691.51	320.71
691.84	319.54
692.18	318.30
692.52	317.33
692.85	316.39
693.19	315.53
693.52	314.63
693.86	313.65
694.20	312.80
694.53	311.92
694.87	311.00
695.21	310.19
695.54	309.35
695.88	308.60
696.21	307.52
696.55	306.57
696.88	305.65
697.22	304.86
697.56	304.12
697.89	303.42
698.23	302.55
698.56	301.76
698.90	301.03
699.23	300.43
699.57	299.70
699.90	298.78
700.24	297.99
700.58	297.11
700.91	296.46
701.25	295.77
701.58	295.23
701.92	294.47
702.25	293.76
702.59	292.99
702.92	292.31
703.26	291.77
703.59	291.29
703.93	290.80
704.26	290.20
704.60	289.48
704.93	288.74
705.26	288.06
705.60	287.37
705.93	286.77
706.27	286.14
706.60	285.45
706.94	284.97
707.27	284.40
707.61	284.00
707.94	283.44
708.27	282.66
708.61	281.88
708.94	281.41
709.28	280.89
709.61	280.39
709.94	279.88
710.28	279.27
710.61	278.60
710.95	277.97
711.28	277.47
711.61	277.02
711.95	276.53
712.28	276.06
712.61	275.60
712.95	275.16
713.28	274.73
713.61	274.32
713.95	273.92
714.28	273.45
714.61	272.99
714.95	272.49
715.28	272.20
715.61	271.73
715.95	271.15
716.28	270.77
716.61	270.33
716.95	269.76
717.28	269.42
717.61	269.00
717.94	268.63
718.28	268.16
718.61	267.70
718.94	267.30
719.27	266.94
719.61	266.59
719.94	266.11
720.27	265.65
720.60	265.28
720.94	264.74
721.27	264.30
721.60	263.87
721.93	263.48
722.27	263.00
722.60	262.65
722.93	262.30
723.26	261.93
723.59	261.50
723.93	261.31
724.26	260.95
724.59	260.52
724.92	260.03
725.25	259.70
725.59	259.30
725.92	259.01
726.25	258.62
726.58	258.24
726.91	257.97
727.24	257.72
727.57	257.43
727.91	257.16
728.24	256.85
728.57	256.50
728.90	256.06
729.23	255.65
729.56	255.54
729.89	255.26
730.22	254.84
730.55	254.51
730.89	254.15
731.22	253.91
731.55	253.75
731.88	253.55
732.21	253.18
732.54	252.83
732.87	252.45
733.20	252.24
733.53	251.99
733.86	251.62
734.19	251.22
734.52	250.96
734.85	250.83
735.18	250.51
735.51	250.35
735.84	250.23
736.17	250.07
736.50	249.65
736.83	249.76
737.16	249.56
737.49	249.33
737.82	249.10
738.15	248.84
738.48	248.55
738.81	248.20
739.14	248.10
739.47	247.97
739.80	247.73
740.13	247.62
740.46	247.43
740.79	247.22
741.12	246.98
741.45	246.80
741.78	246.52
742.11	246.31
742.44	246.13
742.77	245.86
743.10	245.68
743.43	245.50
743.75	245.11
744.08	245.16
744.41	245.00
744.74	244.79
745.07	244.54
745.40	244.46
745.73	244.60
746.06	244.29
746.39	244.14
746.71	244.01
747.04	243.78
747.37	243.57
747.70	243.48
748.03	243.47
748.36	243.33
748.68	243.21
749.01	243.21
749.34	243.05
749.67	242.97
750.00	242.86
750.33	242.90
750.65	242.77
750.98	242.43
751.31	242.30
751.64	242.30
751.97	242.28
752.29	242.10
752.62	241.78
752.95	241.63
753.28	241.55
753.60	241.54
753.93	241.38
754.26	241.30
754.59	241.09
754.91	241.00
755.24	240.76
755.57	240.65
755.90	240.52
756.22	240.39
756.55	240.37
756.88	240.18
757.20	239.87
757.53	239.57
757.86	239.44
758.19	239.42
758.51	239.24
758.84	238.99
759.17	238.91
759.49	238.82
759.82	238.90
760.15	238.76
760.47	238.59
760.80	238.51
761.13	238.39
761.45	238.26
761.78	238.06
762.11	238.10
762.43	237.87
762.76	237.79
763.08	237.74
763.41	237.50
763.74	237.44
764.06	237.45
764.39	237.50
764.71	237.50
765.04	237.45
765.37	237.32
765.69	237.28
766.02	237.11
766.34	237.03
766.67	236.73
767.00	236.64
767.32	236.61
767.65	236.60
767.97	236.46
768.30	236.39
768.62	236.30
768.95	236.05
769.27	235.96
769.60	235.87
769.92	235.73
770.25	235.64
770.57	235.50
770.90	235.33
771.22	235.24
771.55	235.06
771.87	234.88
772.20	234.78
772.52	234.89
772.85	235.07
773.17	234.96
773.50	234.95
773.82	234.85
774.15	234.70
774.47	234.50
774.80	234.46
775.12	234.45
775.45	234.42
775.77	234.42
776.09	234.47
776.42	234.35
776.74	234.29
777.07	234.19
777.39	234.18
777.72	234.09
778.04	234.04
778.36	234.02
778.69	234.00
779.01	233.91
779.33	233.66
779.66	233.39
779.98	233.29
780.31	233.31
780.63	233.30
780.95	233.31
781.28	233.20
781.60	233.04
781.92	233.02
782.25	232.91
782.57	232.89
782.89	232.70
783.22	232.67
783.54	232.65
783.86	232.57
784.19	232.46
784.51	232.54
784.83	232.41
785.16	232.41
785.48	232.43
785.80	232.36
786.12	232.36
786.45	232.31
786.77	232.27
787.09	232.21
787.42	232.16
787.74	232.03
788.06	232.06
788.38	232.07
788.71	231.97
789.03	232.00
789.35	231.91
789.67	231.90
789.99	231.89
790.32	231.84
790.64	231.83
790.96	232.01
791.28	231.87
791.61	231.84
791.93	231.80
792.25	231.72
792.57	231.84
792.89	231.83
793.21	231.86
793.54	231.79
793.86	231.81
794.18	231.91
