SpectraSuite Data File
++++++++++++++++++++++++++++++++++++
Date: Fri Feb 01 14:35:19 EST 2013
User: group
Dark Spectrum Present: No
Reference Spectrum Present: No
Number of Sampled Component Spectra: 1
Spectrometers: USB2E7196
Integration Time (usec): 70000 (USB2E7196)
Spectra Averaged: 10 (USB2E7196)
Boxcar Smoothing: 10 (USB2E7196)
Correct for Electrical Dark: No (USB2E7196)
Strobe/Lamp Enabled: No (USB2E7196)
Correct for Detector Non-linearity: No (USB2E7196)
Correct for Stray Light: No (USB2E7196)
Number of Pixels in Processed Spectrum: 2048
>>>>>Begin Processed Spectral Data<<<<<
339.09	0.00
339.48	217.00
339.86	218.40
340.24	219.90
340.63	221.90
341.01	224.40
341.39	222.10
341.78	225.30
342.16	225.80
342.54	226.80
342.93	214.70
343.31	225.57
343.69	226.01
344.07	226.44
344.46	226.85
344.84	227.12
345.22	227.28
345.60	227.56
345.99	227.73
346.37	227.80
346.75	227.90
347.13	228.04
347.52	227.98
347.90	228.03
348.28	228.01
348.66	228.09
349.05	228.15
349.43	228.28
349.81	228.30
350.19	228.26
350.57	228.30
350.96	228.37
351.34	228.50
351.72	228.61
352.10	228.71
352.48	228.73
352.87	228.78
353.25	228.80
353.63	228.91
354.01	229.00
354.39	229.04
354.77	228.95
355.15	228.92
355.54	228.87
355.92	228.93
356.30	229.05
356.68	229.23
357.06	229.23
357.44	229.20
357.82	229.22
358.20	229.30
358.58	229.28
358.97	229.32
359.35	229.30
359.73	229.44
360.11	229.51
360.49	229.54
360.87	229.60
361.25	229.70
361.63	229.75
362.01	229.70
362.39	229.68
362.77	229.80
363.15	229.84
363.53	229.98
363.91	229.95
364.29	229.95
364.67	229.69
365.05	229.77
365.43	229.69
365.81	229.75
366.19	229.84
366.57	229.99
366.95	230.06
367.33	230.00
367.71	229.89
368.09	229.90
368.47	229.88
368.85	229.89
369.23	229.81
369.61	229.72
369.99	229.72
370.37	229.86
370.75	229.89
371.13	229.83
371.51	229.81
371.89	229.78
372.27	229.80
372.65	229.98
373.03	229.85
373.41	229.90
373.78	229.86
374.16	229.67
374.54	229.49
374.92	229.38
375.30	229.32
375.68	229.24
376.06	229.20
376.44	229.10
376.82	228.95
377.19	228.84
377.57	228.74
377.95	228.64
378.33	228.49
378.71	228.38
379.09	228.37
379.47	228.32
379.84	228.17
380.22	227.96
380.60	227.78
380.98	227.82
381.36	227.69
381.73	227.50
382.11	227.55
382.49	227.39
382.87	227.25
383.25	227.15
383.62	227.34
384.00	227.19
384.38	227.05
384.76	227.06
385.13	227.18
385.51	227.04
385.89	226.99
386.27	226.90
386.64	226.81
387.02	226.78
387.40	226.74
387.78	226.68
388.15	226.84
388.53	226.74
388.91	226.62
389.29	226.63
389.66	226.70
390.04	226.60
390.42	226.71
390.79	226.85
391.17	226.89
391.55	226.75
391.92	226.78
392.30	226.90
392.68	226.88
393.05	226.81
393.43	226.90
393.81	226.93
394.18	226.98
394.56	227.00
394.94	226.98
395.31	226.99
395.69	227.20
396.06	227.24
396.44	227.34
396.82	227.49
397.19	227.66
397.57	227.69
397.95	227.78
398.32	227.82
398.70	227.81
399.07	228.02
399.45	228.05
399.82	228.14
400.20	228.29
400.58	228.45
400.95	228.50
401.33	228.70
401.70	228.84
402.08	229.04
402.45	229.28
402.83	229.53
403.20	229.69
403.58	229.88
403.95	230.10
404.33	230.38
404.71	230.55
405.08	230.90
405.46	231.18
405.83	231.56
406.21	231.90
406.58	232.36
406.96	232.68
407.33	233.13
407.70	233.60
408.08	234.12
408.45	234.55
408.83	235.20
409.20	235.79
409.58	236.39
409.95	236.91
410.33	237.53
410.70	238.18
411.08	238.83
411.45	239.61
411.82	240.30
412.20	241.14
412.57	242.09
412.95	242.90
413.32	243.92
413.69	244.91
414.07	246.00
414.44	247.16
414.82	248.36
415.19	249.66
415.56	251.08
415.94	252.57
416.31	254.32
416.68	255.83
417.06	257.65
417.43	259.50
417.81	261.59
418.18	263.67
418.55	265.89
418.93	268.24
419.30	270.64
419.67	273.22
420.04	275.87
420.42	278.64
420.79	281.80
421.16	284.99
421.54	288.25
421.91	291.60
422.28	295.10
422.66	298.74
423.03	302.41
423.40	306.18
423.77	310.16
424.15	314.30
424.52	318.80
424.89	323.42
425.26	327.91
425.64	332.24
426.01	337.06
426.38	341.93
426.75	346.94
427.13	352.10
427.50	357.44
427.87	363.05
428.24	368.74
428.61	374.05
428.99	379.96
429.36	386.52
429.73	393.00
430.10	399.35
430.47	405.83
430.85	412.45
431.22	419.44
431.59	426.78
431.96	433.71
432.33	441.36
432.70	448.93
433.08	457.60
433.45	465.85
433.82	473.98
434.19	483.15
434.56	492.16
434.93	500.61
435.30	509.25
435.68	519.05
436.05	528.36
436.42	537.44
436.79	546.07
437.16	554.93
437.53	564.50
437.90	573.96
438.27	583.43
438.64	593.18
439.01	602.11
439.38	610.20
439.75	618.11
440.13	626.97
440.50	635.49
440.87	642.51
441.24	649.87
441.61	658.21
441.98	664.44
442.35	671.53
442.72	679.00
443.09	686.00
443.46	690.26
443.83	693.45
444.20	696.68
444.57	700.59
444.94	703.19
445.31	705.51
445.68	707.82
446.05	709.36
446.42	709.45
446.79	709.56
447.16	709.47
447.53	709.65
447.90	707.43
448.27	705.03
448.64	701.29
449.01	698.91
449.37	693.29
449.74	687.98
450.11	681.52
450.48	674.32
450.85	667.22
451.22	661.34
451.59	655.82
451.96	650.48
452.33	642.73
452.70	635.77
453.07	627.43
453.43	619.03
453.80	610.59
454.17	602.50
454.54	594.94
454.91	586.57
455.28	578.40
455.65	570.50
456.02	562.61
456.38	556.04
456.75	547.60
457.12	540.77
457.49	533.89
457.86	527.36
458.23	521.55
458.59	515.05
458.96	508.47
459.33	502.50
459.70	496.34
460.07	491.61
460.43	486.18
460.80	480.96
461.17	476.20
461.54	471.52
461.91	467.02
462.27	462.19
462.64	458.29
463.01	453.85
463.38	449.74
463.74	445.60
464.11	441.88
464.48	438.66
464.85	435.11
465.21	432.30
465.58	429.31
465.95	425.80
466.32	422.99
466.68	419.82
467.05	417.03
467.42	414.15
467.78	411.25
468.15	408.25
468.52	406.09
468.88	403.46
469.25	400.96
469.62	398.86
469.98	396.77
470.35	394.68
470.72	392.76
471.08	390.65
471.45	388.72
471.82	386.81
472.18	384.76
472.55	383.19
472.92	381.54
473.28	380.10
473.65	378.69
474.02	377.00
474.38	375.86
474.75	374.45
475.11	373.30
475.48	372.13
475.85	371.26
476.21	370.40
476.58	369.42
476.94	368.66
477.31	367.86
477.67	367.02
478.04	366.32
478.41	365.84
478.77	365.64
479.14	365.12
479.50	364.78
479.87	364.75
480.23	364.70
480.60	364.53
480.96	364.26
481.33	364.44
481.69	364.64
482.06	364.61
482.42	364.78
482.79	364.86
483.15	365.16
483.52	365.63
483.88	365.85
484.25	366.31
484.61	366.79
484.98	367.26
485.34	368.15
485.71	369.02
486.07	369.79
486.44	370.40
486.80	371.40
487.17	372.30
487.53	373.30
487.90	374.54
488.26	375.77
488.62	377.00
488.99	378.18
489.35	379.54
489.72	380.99
490.08	382.46
490.44	384.12
490.81	386.00
491.17	387.54
491.54	389.31
491.90	391.15
492.26	393.14
492.63	395.29
492.99	397.03
493.36	399.10
493.72	401.32
494.08	403.56
494.45	406.00
494.81	408.62
495.17	410.99
495.54	413.46
495.90	416.00
496.26	418.70
496.63	421.36
496.99	424.13
497.35	426.82
497.72	429.81
498.08	432.75
498.44	435.50
498.80	438.84
499.17	442.01
499.53	444.97
499.89	448.04
500.26	450.94
500.62	454.00
500.98	457.09
501.34	460.20
501.71	463.28
502.07	466.29
502.43	469.14
502.79	472.25
503.16	475.10
503.52	478.05
503.88	480.93
504.24	483.92
504.60	486.79
504.97	489.86
505.33	492.79
505.69	495.91
506.05	498.93
506.41	501.43
506.78	504.13
507.14	506.83
507.50	509.61
507.86	512.35
508.22	515.16
508.59	517.65
508.95	520.28
509.31	522.86
509.67	525.23
510.03	527.83
510.39	530.25
510.75	532.69
511.12	535.06
511.48	537.35
511.84	539.48
512.20	541.56
512.56	543.66
512.92	545.84
513.28	547.67
513.64	549.42
514.00	551.16
514.37	553.08
514.73	555.01
515.09	556.55
515.45	558.30
515.81	559.76
516.17	561.47
516.53	563.14
516.89	564.78
517.25	566.23
517.61	567.55
517.97	568.82
518.33	570.06
518.69	571.30
519.05	572.36
519.41	573.50
519.77	574.80
520.13	576.05
520.49	576.93
520.85	577.88
521.21	578.99
521.57	580.41
521.93	581.03
522.29	582.21
522.65	583.43
523.01	584.37
523.37	585.29
523.73	586.36
524.09	587.03
524.45	587.94
524.81	588.97
525.17	590.11
525.53	591.10
525.89	592.17
526.25	593.41
526.61	594.63
526.97	596.06
527.33	597.37
527.68	598.58
528.04	600.00
528.40	601.39
528.76	602.95
529.12	604.21
529.48	605.98
529.84	606.98
530.20	608.41
530.56	610.06
530.91	611.98
531.27	613.76
531.63	615.51
531.99	617.16
532.35	619.05
532.71	620.65
533.07	622.85
533.42	625.06
533.78	627.02
534.14	629.02
534.50	630.71
534.86	632.90
535.21	634.84
535.57	637.11
535.93	639.37
536.29	641.41
536.65	643.67
537.00	645.89
537.36	648.42
537.72	650.72
538.08	653.14
538.44	655.30
538.79	657.55
539.15	659.94
539.51	662.75
539.87	665.47
540.22	668.33
540.58	671.07
540.94	673.59
541.29	676.07
541.65	678.93
542.01	681.94
542.37	684.47
542.72	687.60
543.08	690.28
543.44	693.22
543.79	695.95
544.15	698.98
544.51	702.40
544.87	705.65
545.22	708.93
545.58	711.88
545.94	714.78
546.29	718.02
546.65	721.14
547.01	724.14
547.36	727.16
547.72	730.21
548.07	733.02
548.43	736.02
548.79	739.44
549.14	742.58
549.50	745.68
549.86	748.88
550.21	751.86
550.57	755.05
550.92	758.14
551.28	761.42
551.64	764.68
551.99	767.43
552.35	770.41
552.70	773.44
553.06	777.05
553.41	780.84
553.77	784.00
554.13	787.56
554.48	790.84
554.84	794.07
555.19	796.97
555.55	800.38
555.90	803.66
556.26	806.63
556.61	809.81
556.97	812.99
557.32	816.33
557.68	819.58
558.03	822.83
558.39	825.92
558.74	829.44
559.10	832.82
559.45	835.96
559.81	839.44
560.16	842.40
560.52	845.14
560.87	848.30
561.23	851.55
561.58	854.69
561.94	857.49
562.29	860.48
562.64	863.73
563.00	866.55
563.35	869.67
563.71	873.08
564.06	876.08
564.42	879.07
564.77	881.90
565.12	884.90
565.48	887.71
565.83	890.45
566.19	893.12
566.54	895.46
566.89	898.24
567.25	900.75
567.60	903.71
567.96	906.43
568.31	908.74
568.66	910.99
569.02	913.06
569.37	915.46
569.72	917.90
570.08	919.83
570.43	922.09
570.78	923.95
571.14	925.42
571.49	927.29
571.84	929.36
572.20	931.08
572.55	932.33
572.90	933.67
573.26	935.35
573.61	936.68
573.96	938.09
574.31	938.98
574.67	939.79
575.02	940.21
575.37	941.03
575.72	941.45
576.08	942.20
576.43	943.16
576.78	943.93
577.13	944.62
577.49	945.52
577.84	945.97
578.19	946.40
578.54	946.71
578.90	947.00
579.25	946.80
579.60	946.97
579.95	947.33
580.30	947.41
580.66	947.30
581.01	947.09
581.36	947.10
581.71	947.29
582.06	947.03
582.42	947.39
582.77	947.19
583.12	947.30
583.47	946.92
583.82	946.49
584.17	945.79
584.53	945.20
584.88	944.73
585.23	944.12
585.58	943.56
585.93	943.20
586.28	942.58
586.63	942.37
586.98	941.70
587.34	941.01
587.69	940.36
588.04	939.84
588.39	939.19
588.74	937.90
589.09	936.75
589.44	936.04
589.79	934.98
590.14	934.06
590.49	932.73
590.84	931.40
591.19	930.18
591.54	928.71
591.89	926.73
592.25	925.39
592.60	923.72
592.95	922.23
593.30	920.28
593.65	918.44
594.00	916.41
594.35	915.28
594.70	913.25
595.05	911.48
595.40	909.30
595.75	907.36
596.10	905.60
596.45	904.26
596.80	902.71
597.15	900.83
597.50	898.70
597.85	896.99
598.19	895.46
598.54	893.75
598.89	892.56
599.24	891.34
599.59	889.25
599.94	887.61
600.29	885.61
600.64	883.57
600.99	881.61
601.34	879.56
601.69	876.77
602.04	874.76
602.39	872.80
602.74	871.00
603.08	869.03
603.43	867.63
603.78	865.42
604.13	863.00
604.48	860.90
604.83	859.01
605.18	857.32
605.53	854.98
605.87	852.14
606.22	849.64
606.57	847.20
606.92	844.93
607.27	842.74
607.62	840.77
607.96	839.03
608.31	836.90
608.66	834.58
609.01	832.28
609.36	829.97
609.70	826.84
610.05	824.17
610.40	821.68
610.75	818.30
611.10	815.32
611.44	812.42
611.79	809.69
612.14	806.74
612.49	803.05
612.83	799.99
613.18	797.26
613.53	794.34
613.88	791.40
614.22	788.40
614.57	785.07
614.92	782.01
615.27	778.65
615.61	775.49
615.96	772.61
616.31	769.68
616.65	767.05
617.00	764.77
617.35	762.03
617.70	758.91
618.04	756.18
618.39	753.40
618.74	750.77
619.08	747.56
619.43	744.65
619.78	742.09
620.12	739.45
620.47	736.71
620.82	733.63
621.16	730.82
621.51	728.13
621.85	725.47
622.20	722.41
622.55	719.95
622.89	717.50
623.24	714.71
623.59	712.22
623.93	709.59
624.28	706.67
624.62	703.79
624.97	701.42
625.32	698.79
625.66	696.11
626.01	693.41
626.35	691.07
626.70	688.34
627.04	685.91
627.39	682.96
627.73	680.26
628.08	677.77
628.43	674.90
628.77	672.41
629.12	669.67
629.46	667.00
629.81	663.95
630.15	660.94
630.50	658.19
630.84	654.90
631.19	651.63
631.53	648.98
631.88	645.93
632.22	642.62
632.57	639.87
632.91	636.92
633.26	633.99
633.60	630.83
633.95	628.11
634.29	625.35
634.64	623.01
634.98	620.17
635.32	617.64
635.67	615.17
636.01	612.38
636.36	609.78
636.70	607.49
637.05	605.20
637.39	602.79
637.73	600.24
638.08	598.11
638.42	596.01
638.77	593.50
639.11	591.11
639.45	588.77
639.80	586.28
640.14	583.90
640.49	581.44
640.83	579.19
641.17	576.93
641.52	574.39
641.86	571.74
642.20	569.32
642.55	566.74
642.89	564.18
643.23	561.65
643.58	559.41
643.92	556.67
644.26	554.21
644.61	551.76
644.95	549.33
645.29	546.55
645.64	543.77
645.98	541.20
646.32	539.04
646.66	536.73
647.01	534.20
647.35	531.85
647.69	529.52
648.04	527.17
648.38	524.60
648.72	521.94
649.06	519.44
649.41	517.18
649.75	514.78
650.09	512.45
650.43	509.98
650.78	507.25
651.12	504.75
651.46	502.57
651.80	500.24
652.14	497.99
652.49	495.90
652.83	493.79
653.17	491.59
653.51	489.07
653.85	486.70
654.20	484.46
654.54	482.13
654.88	479.80
655.22	477.36
655.56	474.99
655.90	472.77
656.25	470.72
656.59	468.55
656.93	466.27
657.27	464.20
657.61	461.93
657.95	459.97
658.29	458.03
658.64	455.68
658.98	453.60
659.32	451.41
659.66	449.31
660.00	447.05
660.34	444.94
660.68	443.07
661.02	440.90
661.36	438.90
661.70	437.12
662.05	435.37
662.39	433.57
662.73	431.80
663.07	430.14
663.41	428.19
663.75	426.33
664.09	424.54
664.43	422.73
664.77	421.19
665.11	419.55
665.45	417.87
665.79	416.30
666.13	414.54
666.47	412.91
666.81	411.24
667.15	409.50
667.49	407.85
667.83	406.16
668.17	404.69
668.51	403.11
668.85	401.40
669.19	399.87
669.53	398.37
669.87	396.75
670.21	395.19
670.55	393.80
670.89	392.45
671.23	391.26
671.57	389.88
671.91	388.43
672.25	386.90
672.58	385.64
672.92	384.11
673.26	382.70
673.60	381.37
673.94	380.07
674.28	378.94
674.62	377.72
674.96	376.49
675.30	375.21
675.64	374.04
675.97	372.66
676.31	371.35
676.65	369.97
676.99	368.91
677.33	367.73
677.67	366.46
678.01	365.19
678.34	363.65
678.68	362.36
679.02	361.09
679.36	359.86
679.70	358.46
680.04	357.18
680.37	356.03
680.71	354.73
681.05	353.72
681.39	352.52
681.73	351.29
682.06	350.13
682.40	348.97
682.74	347.66
683.08	346.59
683.42	345.35
683.75	344.36
684.09	343.16
684.43	341.81
684.77	340.63
685.10	339.38
685.44	338.41
685.78	337.34
686.12	336.26
686.45	335.37
686.79	334.35
687.13	333.35
687.46	332.29
687.80	331.30
688.14	330.08
688.48	329.08
688.81	328.06
689.15	326.94
689.49	325.81
689.82	324.93
690.16	323.83
690.50	322.84
690.83	321.76
691.17	320.74
691.51	319.95
691.84	319.00
692.18	318.14
692.52	317.09
692.85	316.14
693.19	315.18
693.52	314.10
693.86	313.02
694.20	312.15
694.53	311.25
694.87	310.33
695.21	309.36
695.54	308.55
695.88	307.70
696.21	306.73
696.55	306.00
696.88	305.22
697.22	304.43
697.56	303.64
697.89	302.86
698.23	302.02
698.56	301.14
698.90	300.31
699.23	299.41
699.57	298.72
699.90	297.80
700.24	297.03
700.58	296.40
700.91	295.80
701.25	295.16
701.58	294.46
701.92	293.70
702.25	293.04
702.59	292.19
702.92	291.59
703.26	291.00
703.59	290.31
703.93	289.59
704.26	288.95
704.60	288.34
704.93	287.74
705.26	287.25
705.60	286.83
705.93	286.27
706.27	285.71
706.60	285.08
706.94	284.69
707.27	284.12
707.61	283.41
707.94	282.88
708.27	282.11
708.61	281.57
708.94	281.16
709.28	280.58
709.61	280.19
709.94	279.64
710.28	279.18
710.61	278.73
710.95	278.19
711.28	277.88
711.61	277.32
711.95	276.72
712.28	276.00
712.61	275.47
712.95	275.22
713.28	274.96
713.61	274.49
713.95	274.01
714.28	273.58
714.61	273.13
714.95	272.62
715.28	272.30
715.61	271.82
715.95	271.30
716.28	270.94
716.61	270.54
716.95	270.06
717.28	269.65
717.61	269.26
717.94	268.79
718.28	268.13
718.61	267.72
718.94	267.43
719.27	267.20
719.61	266.80
719.94	266.31
720.27	265.76
720.60	265.36
720.94	264.96
721.27	264.70
721.60	264.35
721.93	263.95
722.27	263.59
722.60	263.30
722.93	263.05
723.26	262.67
723.59	262.19
723.93	261.90
724.26	261.52
724.59	261.12
724.92	260.92
725.25	260.65
725.59	260.40
725.92	260.14
726.25	259.71
726.58	259.31
726.91	258.90
727.24	258.64
727.57	258.43
727.91	257.90
728.24	257.54
728.57	257.22
728.90	257.07
729.23	256.72
729.56	256.48
729.89	256.12
730.22	255.76
730.55	255.56
730.89	255.22
731.22	254.96
731.55	254.65
731.88	254.32
732.21	253.91
732.54	253.55
732.87	253.15
733.20	252.86
733.53	252.55
733.86	252.30
734.19	252.01
734.52	251.70
734.85	251.67
735.18	251.23
735.51	250.96
735.84	250.54
736.17	250.29
736.50	249.92
736.83	249.84
737.16	249.63
737.49	249.33
737.82	249.10
738.15	248.87
738.48	248.62
738.81	248.25
739.14	248.13
739.47	247.86
739.80	247.64
740.13	247.40
740.46	247.23
740.79	247.04
741.12	246.84
741.45	246.60
741.78	246.32
742.11	246.24
742.44	246.08
742.77	245.93
743.10	245.80
743.43	245.53
743.75	245.04
744.08	245.12
744.41	244.89
744.74	244.74
745.07	244.43
745.40	244.27
745.73	244.29
746.06	244.16
746.39	244.03
746.71	243.85
747.04	243.76
747.37	243.60
747.70	243.36
748.03	243.19
748.36	243.11
748.68	242.94
749.01	242.72
749.34	242.58
749.67	242.47
750.00	242.38
750.33	242.46
750.65	242.43
750.98	242.03
751.31	241.95
751.64	241.71
751.97	241.82
752.29	241.73
752.62	241.50
752.95	241.35
753.28	241.23
753.60	241.17
753.93	241.13
754.26	241.06
754.59	241.03
754.91	240.84
755.24	240.70
755.57	240.60
755.90	240.50
756.22	240.23
756.55	240.08
756.88	239.83
757.20	239.59
757.53	239.40
757.86	239.38
758.19	239.25
758.51	239.19
758.84	238.85
759.17	238.75
759.49	238.64
759.82	238.64
760.15	238.49
760.47	238.29
760.80	238.03
761.13	237.91
761.45	237.75
761.78	237.56
762.11	237.35
762.43	237.13
762.76	237.11
763.08	237.09
763.41	236.95
763.74	236.87
764.06	236.71
764.39	236.62
764.71	236.46
765.04	236.37
765.37	236.25
765.69	236.30
766.02	236.08
766.34	235.98
766.67	235.65
767.00	235.69
767.32	235.78
767.65	235.92
767.97	235.76
768.30	235.73
768.62	235.73
768.95	235.68
769.27	235.76
769.60	235.60
769.92	235.37
770.25	235.24
770.57	235.12
770.90	235.04
771.22	235.00
771.55	234.83
771.87	234.79
772.20	234.73
772.52	234.69
772.85	234.92
773.17	234.83
773.50	234.83
773.82	234.69
774.15	234.46
774.47	234.13
774.80	234.03
775.12	233.93
775.45	233.85
775.77	233.76
776.09	233.53
776.42	233.56
776.74	233.66
777.07	233.64
777.39	233.65
777.72	233.57
778.04	233.43
778.36	233.36
778.69	233.21
779.01	233.20
779.33	233.08
779.66	232.86
779.98	232.77
780.31	232.79
780.63	232.82
780.95	232.79
781.28	232.82
781.60	232.78
781.92	232.78
782.25	232.76
782.57	232.79
782.89	232.78
783.22	232.61
783.54	232.59
783.86	232.58
784.19	232.50
784.51	232.50
784.83	232.42
785.16	232.40
785.48	232.42
785.80	232.37
786.12	232.40
786.45	232.30
786.77	232.39
787.09	232.33
787.42	232.26
787.74	232.25
788.06	232.21
788.38	232.19
788.71	232.10
789.03	232.11
789.35	232.02
789.67	232.04
789.99	232.06
790.32	232.03
790.64	232.09
790.96	232.29
791.28	232.19
791.61	232.21
791.93	232.20
792.25	232.15
792.57	232.25
792.89	232.10
793.21	232.06
793.54	231.99
793.86	231.93
794.18	231.90
