SpectraSuite Data File
++++++++++++++++++++++++++++++++++++
Date: Fri Feb 01 14:34:27 EST 2013
User: group
Dark Spectrum Present: No
Reference Spectrum Present: No
Number of Sampled Component Spectra: 1
Spectrometers: USB2E7196
Integration Time (usec): 70000 (USB2E7196)
Spectra Averaged: 10 (USB2E7196)
Boxcar Smoothing: 10 (USB2E7196)
Correct for Electrical Dark: No (USB2E7196)
Strobe/Lamp Enabled: No (USB2E7196)
Correct for Detector Non-linearity: No (USB2E7196)
Correct for Stray Light: No (USB2E7196)
Number of Pixels in Processed Spectrum: 2048
>>>>>Begin Processed Spectral Data<<<<<
339.09	0.00
339.48	216.10
339.86	215.40
340.24	217.10
340.63	220.50
341.01	225.10
341.39	223.20
341.78	225.20
342.16	226.10
342.54	226.10
342.93	214.72
343.31	225.57
343.69	226.03
344.07	226.62
344.46	227.06
344.84	227.41
345.22	227.57
345.60	227.90
345.99	228.07
346.37	228.28
346.75	228.33
347.13	228.39
347.52	228.35
347.90	228.46
348.28	228.40
348.66	228.39
349.05	228.38
349.43	228.40
349.81	228.39
350.19	228.43
350.57	228.53
350.96	228.55
351.34	228.61
351.72	228.78
352.10	228.82
352.48	228.98
352.87	229.10
353.25	229.05
353.63	229.05
354.01	229.07
354.39	229.07
354.77	229.18
355.15	229.28
355.54	229.42
355.92	229.38
356.30	229.48
356.68	229.73
357.06	229.75
357.44	229.82
357.82	229.87
358.20	229.92
358.58	229.96
358.97	230.10
359.35	230.21
359.73	230.25
360.11	230.35
360.49	230.38
360.87	230.39
361.25	230.51
361.63	230.60
362.01	230.68
362.39	230.69
362.77	230.82
363.15	230.88
363.53	230.80
363.91	230.91
364.29	230.95
364.67	230.81
365.05	230.84
365.43	230.90
365.81	230.97
366.19	231.06
366.57	231.10
366.95	231.00
367.33	230.92
367.71	230.94
368.09	230.94
368.47	230.99
368.85	230.99
369.23	231.03
369.61	230.92
369.99	230.98
370.37	231.00
370.75	230.90
371.13	230.82
371.51	230.83
371.89	230.77
372.27	230.65
372.65	230.65
373.03	230.55
373.41	230.44
373.78	230.27
374.16	230.01
374.54	229.89
374.92	229.77
375.30	229.74
375.68	229.69
376.06	229.57
376.44	229.46
376.82	229.40
377.19	229.29
377.57	229.22
377.95	229.01
378.33	228.93
378.71	228.83
379.09	228.79
379.47	228.76
379.84	228.66
380.22	228.58
380.60	228.46
380.98	228.38
381.36	228.27
381.73	228.16
382.11	228.21
382.49	228.20
382.87	228.25
383.25	228.17
383.62	228.25
384.00	228.18
384.38	228.05
384.76	228.06
385.13	228.12
385.51	228.05
385.89	228.01
386.27	227.89
386.64	227.89
387.02	227.89
387.40	227.76
387.78	227.70
388.15	227.76
388.53	227.73
388.91	227.73
389.29	227.73
389.66	227.84
390.04	227.79
390.42	227.79
390.79	227.69
391.17	227.65
391.55	227.43
391.92	227.46
392.30	227.43
392.68	227.32
393.05	227.34
393.43	227.43
393.81	227.47
394.18	227.51
394.56	227.50
394.94	227.54
395.31	227.64
395.69	227.81
396.06	227.89
396.44	227.99
396.82	228.12
397.19	228.27
397.57	228.31
397.95	228.37
398.32	228.47
398.70	228.66
399.07	228.82
399.45	228.97
399.82	229.09
400.20	229.30
400.58	229.44
400.95	229.50
401.33	229.59
401.70	229.88
402.08	229.99
402.45	230.14
402.83	230.26
403.20	230.48
403.58	230.72
403.95	230.93
404.33	231.17
404.71	231.42
405.08	231.85
405.46	232.17
405.83	232.58
406.21	232.85
406.58	233.19
406.96	233.52
407.33	233.99
407.70	234.44
408.08	235.14
408.45	235.74
408.83	236.31
409.20	237.03
409.58	237.54
409.95	238.38
410.33	239.05
410.70	239.84
411.08	240.64
411.45	241.43
411.82	242.32
412.20	243.27
412.57	244.44
412.95	245.35
413.32	246.55
413.69	247.75
414.07	249.16
414.44	250.59
414.82	252.12
415.19	253.83
415.56	255.56
415.94	257.26
416.31	259.23
416.68	261.20
417.06	263.27
417.43	265.40
417.81	267.77
418.18	270.31
418.55	272.94
418.93	275.82
419.30	278.75
419.67	281.87
420.04	285.02
420.42	288.24
420.79	292.05
421.16	295.96
421.54	299.92
421.91	303.88
422.28	308.20
422.66	312.63
423.03	316.90
423.40	321.44
423.77	326.33
424.15	331.30
424.52	336.52
424.89	342.24
425.26	347.73
425.64	352.86
426.01	358.52
426.38	364.38
426.75	370.27
427.13	376.54
427.50	383.12
427.87	389.98
428.24	396.76
428.61	403.35
428.99	410.32
429.36	417.95
429.73	425.43
430.10	432.84
430.47	440.35
430.85	448.33
431.22	456.59
431.59	465.49
431.96	473.98
432.33	483.35
432.70	492.38
433.08	503.21
433.45	513.13
433.82	523.28
434.19	534.29
434.56	544.81
434.93	554.99
435.30	565.30
435.68	576.79
436.05	588.21
436.42	599.36
436.79	609.51
437.16	620.25
437.53	631.82
437.90	643.43
438.27	654.99
438.64	666.70
439.01	677.70
439.38	687.34
439.75	696.73
440.13	707.34
440.50	717.51
440.87	726.01
441.24	734.91
441.61	744.70
441.98	752.19
442.35	761.25
442.72	770.09
443.09	778.23
443.46	783.46
443.83	787.10
444.20	790.45
444.57	795.42
444.94	798.59
445.31	801.54
445.68	804.20
446.05	805.99
446.42	806.05
446.79	805.90
447.16	805.60
447.53	806.14
447.90	803.29
448.27	800.40
448.64	795.40
449.01	792.55
449.37	786.00
449.74	779.98
450.11	771.91
450.48	763.38
450.85	754.99
451.22	747.95
451.59	741.20
451.96	734.78
452.33	725.47
452.70	717.10
453.07	707.28
453.43	696.99
453.80	687.00
454.17	677.37
454.54	668.41
454.91	658.31
455.28	648.22
455.65	639.11
456.02	629.61
456.38	621.79
456.75	611.62
457.12	603.37
457.49	594.90
457.86	587.13
458.23	580.36
458.59	572.44
458.96	564.52
459.33	557.63
459.70	550.72
460.07	545.19
460.43	538.63
460.80	532.19
461.17	526.84
461.54	521.37
461.91	515.92
462.27	510.13
462.64	505.58
463.01	500.16
463.38	495.00
463.74	490.17
464.11	485.61
464.48	481.93
464.85	477.63
465.21	474.24
465.58	470.71
465.95	466.40
466.32	463.10
466.68	459.61
467.05	456.06
467.42	452.50
467.78	448.75
468.15	445.31
468.52	442.74
468.88	439.26
469.25	435.98
469.62	433.57
469.98	431.01
470.35	428.59
470.72	426.47
471.08	423.90
471.45	421.60
471.82	419.27
472.18	416.70
472.55	414.93
472.92	413.10
473.28	411.18
473.65	409.48
474.02	407.69
474.38	406.01
474.75	404.65
475.11	403.12
475.48	401.93
475.85	401.12
476.21	400.07
476.58	399.27
476.94	398.67
477.31	397.87
477.67	397.23
478.04	396.54
478.41	396.06
478.77	395.91
479.14	395.60
479.50	395.52
479.87	395.46
480.23	395.30
480.60	394.99
480.96	394.88
481.33	394.92
481.69	395.11
482.06	395.34
482.42	395.30
482.79	395.64
483.15	396.21
483.52	396.78
483.88	397.47
484.25	397.97
484.61	398.68
484.98	399.38
485.34	400.30
485.71	401.40
486.07	402.52
486.44	403.63
486.80	404.88
487.17	406.20
487.53	407.97
487.90	409.69
488.26	411.45
488.62	413.30
488.99	415.10
489.35	416.86
489.72	418.94
490.08	421.22
490.44	423.34
490.81	425.67
491.17	428.02
491.54	430.50
491.90	433.10
492.26	435.92
492.63	438.82
492.99	441.56
493.36	444.60
493.72	447.82
494.08	450.94
494.45	454.21
494.81	457.70
495.17	461.00
495.54	464.42
495.90	467.95
496.26	471.60
496.63	475.40
496.99	479.34
497.35	483.41
497.72	487.36
498.08	491.54
498.44	495.74
498.80	500.29
499.17	504.52
499.53	509.05
499.89	513.40
500.26	517.67
500.62	522.19
500.98	526.86
501.34	531.31
501.71	536.06
502.07	540.65
502.43	545.22
502.79	549.67
503.16	554.25
503.52	559.04
503.88	563.71
504.24	568.40
504.60	573.24
504.97	578.00
505.33	583.02
505.69	587.95
506.05	592.66
506.41	596.90
506.78	601.53
507.14	606.30
507.50	610.89
507.86	615.63
508.22	620.21
508.59	624.57
508.95	629.33
509.31	633.85
509.67	638.20
510.03	642.64
510.39	647.07
510.75	651.68
511.12	655.94
511.48	660.25
511.84	664.56
512.20	668.83
512.56	673.00
512.92	676.81
513.28	680.58
513.64	684.50
514.00	688.18
514.37	691.90
514.73	695.30
515.09	698.55
515.45	702.00
515.81	705.26
516.17	708.58
516.53	711.65
516.89	714.66
517.25	717.68
517.61	720.66
517.97	723.48
518.33	725.90
518.69	728.62
519.05	731.37
519.41	734.03
519.77	736.67
520.13	739.03
520.49	741.59
520.85	743.95
521.21	746.23
521.57	749.09
521.93	751.21
522.29	753.74
522.65	756.19
523.01	758.27
523.37	760.53
523.73	762.46
524.09	764.28
524.45	766.23
524.81	768.54
525.17	770.89
525.53	773.17
525.89	775.48
526.25	777.75
526.61	779.60
526.97	781.80
527.33	783.63
527.68	785.87
528.04	788.10
528.40	790.20
528.76	792.43
529.12	794.31
529.48	796.70
529.84	798.62
530.20	800.94
530.56	803.56
530.91	806.02
531.27	808.34
531.63	810.72
531.99	813.11
532.35	815.29
532.71	817.34
533.07	819.69
533.42	822.14
533.78	824.40
534.14	826.74
534.50	828.68
534.86	830.89
535.21	832.83
535.57	835.07
535.93	837.41
536.29	839.73
536.65	841.74
537.00	844.09
537.36	846.44
537.72	848.67
538.08	850.72
538.44	852.99
538.79	855.43
539.15	857.57
539.51	860.32
539.87	863.01
540.22	865.27
540.58	867.98
540.94	870.23
541.29	872.51
541.65	875.18
542.01	878.11
542.37	880.89
542.72	883.53
543.08	885.94
543.44	888.77
543.79	891.15
544.15	893.92
544.51	896.88
544.87	899.61
545.22	902.38
545.58	904.91
545.94	907.08
546.29	909.53
546.65	912.26
547.01	914.38
547.36	916.72
547.72	919.53
548.07	921.92
548.43	924.40
548.79	927.11
549.14	929.34
549.50	931.45
549.86	933.86
550.21	936.07
550.57	938.57
550.92	940.82
551.28	943.02
551.64	945.60
551.99	947.80
552.35	949.91
552.70	952.18
553.06	954.57
553.41	957.37
553.77	959.99
554.13	962.57
554.48	965.15
554.84	967.51
555.19	969.61
555.55	972.02
555.90	973.92
556.26	976.11
556.61	978.31
556.97	980.17
557.32	982.44
557.68	984.99
558.03	987.27
558.39	989.20
558.74	991.75
559.10	993.58
559.45	996.06
559.81	998.85
560.16	1000.92
560.52	1003.03
560.87	1005.21
561.23	1007.17
561.58	1009.40
561.94	1011.26
562.29	1013.21
562.64	1015.10
563.00	1016.74
563.35	1019.48
563.71	1021.71
564.06	1023.90
564.42	1026.39
564.77	1028.30
565.12	1030.30
565.48	1032.48
565.83	1034.49
566.19	1036.17
566.54	1037.91
566.89	1039.27
567.25	1040.89
567.60	1042.93
567.96	1044.90
568.31	1046.17
568.66	1047.77
569.02	1049.11
569.37	1050.58
569.72	1052.01
570.08	1053.12
570.43	1054.26
570.78	1055.05
571.14	1055.56
571.49	1056.29
571.84	1057.49
572.20	1058.12
572.55	1058.53
572.90	1058.77
573.26	1059.73
573.61	1060.46
573.96	1060.98
574.31	1060.71
574.67	1060.28
575.02	1059.70
575.37	1059.22
575.72	1058.81
576.08	1058.81
576.43	1058.32
576.78	1058.02
577.13	1057.81
577.49	1057.87
577.84	1057.52
578.19	1056.94
578.54	1056.59
578.90	1056.22
579.25	1055.19
579.60	1054.14
579.95	1053.22
580.30	1052.28
580.66	1050.63
581.01	1049.14
581.36	1048.15
581.71	1047.74
582.06	1046.82
582.42	1045.88
582.77	1044.85
583.12	1044.20
583.47	1042.66
583.82	1041.59
584.17	1040.16
584.53	1038.53
584.88	1036.98
585.23	1035.61
585.58	1034.44
585.93	1033.15
586.28	1031.78
586.63	1030.25
586.98	1029.38
587.34	1028.10
587.69	1026.90
588.04	1025.70
588.39	1024.65
588.74	1022.80
589.09	1020.57
589.44	1018.60
589.79	1016.78
590.14	1015.33
590.49	1013.49
590.84	1011.95
591.19	1009.99
591.54	1007.49
591.89	1005.15
592.25	1003.22
592.60	1000.70
592.95	997.91
593.30	995.27
593.65	992.60
594.00	989.89
594.35	987.69
594.70	984.95
595.05	982.32
595.40	979.84
595.75	976.80
596.10	974.55
596.45	972.53
596.80	970.48
597.15	968.32
597.50	965.53
597.85	963.02
598.19	960.59
598.54	958.37
598.89	956.36
599.24	954.29
599.59	951.66
599.94	949.44
600.29	947.05
600.64	944.50
600.99	942.09
601.34	939.87
601.69	936.76
602.04	934.27
602.39	931.51
602.74	929.29
603.08	927.27
603.43	925.02
603.78	922.26
604.13	919.66
604.48	916.92
604.83	914.22
605.18	911.50
605.53	908.37
605.87	905.11
606.22	902.42
606.57	899.47
606.92	896.61
607.27	893.86
607.62	891.54
607.96	888.85
608.31	886.21
608.66	883.25
609.01	880.29
609.36	877.22
609.70	873.80
610.05	869.94
610.40	866.44
610.75	862.86
611.10	859.41
611.44	855.60
611.79	852.23
612.14	848.80
612.49	845.00
612.83	841.30
613.18	837.80
613.53	834.34
613.88	830.69
614.22	826.97
614.57	823.00
614.92	819.27
615.27	816.04
615.61	812.25
615.96	808.71
616.31	805.29
616.65	802.30
617.00	799.23
617.35	796.11
617.70	792.80
618.04	789.22
618.39	786.01
618.74	783.02
619.08	779.28
619.43	776.10
619.78	773.07
620.12	769.91
620.47	766.72
620.82	763.11
621.16	760.03
621.51	757.08
621.85	754.15
622.20	750.95
622.55	747.58
622.89	744.47
623.24	741.50
623.59	738.38
623.93	735.35
624.28	732.14
624.62	729.20
624.97	726.08
625.32	723.20
625.66	720.13
626.01	716.87
626.35	714.05
626.70	710.93
627.04	707.85
627.39	704.69
627.73	701.70
628.08	699.04
628.43	695.90
628.77	692.81
629.12	689.65
629.46	686.49
629.81	683.25
630.15	680.18
630.50	676.92
630.84	673.75
631.19	670.10
631.53	667.09
631.88	663.57
632.22	660.20
632.57	657.00
632.91	653.84
633.26	650.65
633.60	647.53
633.95	644.52
634.29	641.50
634.64	638.75
634.98	635.69
635.32	632.81
635.67	630.10
636.01	627.30
636.36	624.50
636.70	621.74
637.05	619.01
637.39	616.17
637.73	613.34
638.08	610.99
638.42	608.55
638.77	606.02
639.11	603.47
639.45	601.00
639.80	598.32
640.14	595.70
640.49	593.26
640.83	590.63
641.17	587.90
641.52	585.50
641.86	582.83
642.20	580.34
642.55	577.64
642.89	574.93
643.23	572.23
643.58	569.94
643.92	567.12
644.26	564.58
644.61	562.25
644.95	560.01
645.29	557.00
645.64	554.16
645.98	551.56
646.32	549.02
646.66	546.23
647.01	543.97
647.35	541.51
647.69	539.13
648.04	536.82
648.38	534.48
648.72	531.75
649.06	529.18
649.41	526.59
649.75	523.96
650.09	521.32
650.43	518.69
650.78	515.89
651.12	513.53
651.46	511.05
651.80	508.50
652.14	505.87
652.49	503.60
652.83	501.39
653.17	498.90
653.51	496.53
653.85	494.26
654.20	491.76
654.54	489.16
654.88	486.53
655.22	483.97
655.56	481.30
655.90	479.11
656.25	476.86
656.59	474.48
656.93	472.20
657.27	470.02
657.61	467.87
657.95	465.83
658.29	463.63
658.64	461.39
658.98	459.10
659.32	456.61
659.66	454.24
660.00	452.03
660.34	449.83
660.68	447.72
661.02	445.61
661.36	443.59
661.70	441.68
662.05	439.81
662.39	438.03
662.73	436.14
663.07	434.11
663.41	432.22
663.75	430.35
664.09	428.36
664.43	426.60
664.77	424.78
665.11	422.87
665.45	421.25
665.79	419.52
666.13	417.90
666.47	416.32
666.81	414.63
667.15	412.85
667.49	411.10
667.83	409.35
668.17	407.75
668.51	405.90
668.85	404.12
669.19	402.44
669.53	400.73
669.87	399.09
670.21	397.43
670.55	395.78
670.89	394.57
671.23	393.29
671.57	391.76
671.91	390.30
672.25	388.75
672.58	387.24
672.92	385.77
673.26	384.27
673.60	382.93
673.94	381.65
674.28	380.44
674.62	379.20
674.96	378.04
675.30	376.70
675.64	375.43
675.97	374.12
676.31	372.97
676.65	371.62
676.99	370.49
677.33	369.12
677.67	367.88
678.01	366.34
678.34	364.99
678.68	363.68
679.02	362.37
679.36	361.18
679.70	359.87
680.04	358.53
680.37	357.33
680.71	355.97
681.05	354.85
681.39	353.61
681.73	352.45
682.06	351.12
682.40	349.97
682.74	348.89
683.08	347.91
683.42	346.70
683.75	345.62
684.09	344.48
684.43	343.44
684.77	342.35
685.10	341.24
685.44	340.08
685.78	338.99
686.12	338.00
686.45	336.87
686.79	335.81
687.13	334.98
687.46	333.86
687.80	332.95
688.14	331.81
688.48	330.72
688.81	329.73
689.15	328.79
689.49	327.66
689.82	326.55
690.16	325.47
690.50	324.40
690.83	323.43
691.17	322.40
691.51	321.39
691.84	320.43
692.18	319.48
692.52	318.60
692.85	317.68
693.19	316.70
693.52	315.80
693.86	314.80
694.20	313.67
694.53	312.63
694.87	311.64
695.21	310.76
695.54	309.87
695.88	308.74
696.21	307.84
696.55	307.05
696.88	306.16
697.22	305.17
697.56	304.40
697.89	303.46
698.23	302.54
698.56	301.70
698.90	300.96
699.23	300.04
699.57	299.26
699.90	298.46
700.24	297.61
700.58	296.88
700.91	296.09
701.25	295.49
701.58	294.91
701.92	294.20
702.25	293.41
702.59	292.63
702.92	292.12
703.26	291.45
703.59	290.81
703.93	290.38
704.26	289.94
704.60	289.28
704.93	288.62
705.26	288.04
705.60	287.41
705.93	286.71
706.27	286.18
706.60	285.52
706.94	284.89
707.27	284.26
707.61	283.64
707.94	283.10
708.27	282.42
708.61	281.81
708.94	281.34
709.28	280.82
709.61	280.27
709.94	279.72
710.28	279.14
710.61	278.57
710.95	277.89
711.28	277.29
711.61	276.74
711.95	276.39
712.28	275.95
712.61	275.52
712.95	275.04
713.28	274.59
713.61	274.14
713.95	273.60
714.28	273.21
714.61	272.80
714.95	272.36
715.28	271.92
715.61	271.28
715.95	270.87
716.28	270.34
716.61	270.02
716.95	269.55
717.28	269.15
717.61	268.69
717.94	268.24
718.28	267.80
718.61	267.36
718.94	266.92
719.27	266.49
719.61	266.10
719.94	265.75
720.27	265.30
720.60	264.91
720.94	264.64
721.27	264.20
721.60	263.83
721.93	263.50
722.27	263.23
722.60	262.99
722.93	262.59
723.26	262.22
723.59	261.91
723.93	261.56
724.26	261.18
724.59	260.84
724.92	260.58
725.25	260.22
725.59	259.86
725.92	259.39
726.25	259.10
726.58	258.70
726.91	258.33
727.24	258.07
727.57	257.81
727.91	257.47
728.24	257.31
728.57	257.02
728.90	256.84
729.23	256.46
729.56	256.29
729.89	255.93
730.22	255.72
730.55	255.40
730.89	255.17
731.22	254.86
731.55	254.60
731.88	254.33
732.21	253.99
732.54	253.74
732.87	253.57
733.20	253.21
733.53	253.05
733.86	252.80
734.19	252.40
734.52	251.98
734.85	251.91
735.18	251.57
735.51	251.43
735.84	251.01
736.17	250.80
736.50	250.38
736.83	250.40
737.16	250.08
737.49	249.75
737.82	249.53
738.15	249.31
738.48	249.05
738.81	248.72
739.14	248.48
739.47	248.21
739.80	247.97
740.13	247.82
740.46	247.59
740.79	247.30
741.12	247.22
741.45	247.11
741.78	246.77
742.11	246.71
742.44	246.35
742.77	246.28
743.10	246.06
743.43	246.02
743.75	245.63
744.08	245.87
744.41	245.72
744.74	245.52
745.07	245.40
745.40	245.36
745.73	245.22
746.06	245.17
746.39	245.09
746.71	244.91
747.04	244.72
747.37	244.48
747.70	244.34
748.03	244.08
748.36	243.92
748.68	243.71
749.01	243.35
749.34	243.21
749.67	243.08
750.00	242.95
750.33	242.90
750.65	242.72
750.98	242.30
751.31	242.24
751.64	241.95
751.97	241.87
752.29	241.65
752.62	241.30
752.95	241.10
753.28	240.91
753.60	240.80
753.93	240.78
754.26	240.69
754.59	240.60
754.91	240.43
755.24	240.19
755.57	240.12
755.90	240.03
756.22	239.80
756.55	239.59
756.88	239.48
757.20	239.21
757.53	239.02
757.86	238.90
758.19	238.71
758.51	238.70
758.84	238.47
759.17	238.34
759.49	238.47
759.82	238.36
760.15	238.22
760.47	238.13
760.80	237.89
761.13	237.82
761.45	237.75
761.78	237.81
762.11	237.77
762.43	237.67
762.76	237.64
763.08	237.68
763.41	237.68
763.74	237.56
764.06	237.50
764.39	237.47
764.71	237.36
765.04	237.29
765.37	237.26
765.69	237.21
766.02	237.13
766.34	237.04
766.67	237.04
767.00	237.16
767.32	237.19
767.65	237.22
767.97	237.12
768.30	237.08
768.62	237.00
768.95	236.97
769.27	236.89
769.60	236.79
769.92	236.60
770.25	236.39
770.57	236.27
770.90	236.19
771.22	236.09
771.55	236.00
771.87	235.88
772.20	235.80
772.52	235.92
772.85	236.20
773.17	236.02
773.50	235.86
773.82	235.73
774.15	235.52
774.47	235.38
774.80	235.41
775.12	235.24
775.45	235.19
775.77	235.23
776.09	235.13
776.42	235.05
776.74	235.16
777.07	235.08
777.39	234.98
777.72	234.87
778.04	234.90
778.36	234.80
778.69	234.74
779.01	234.57
779.33	234.29
779.66	233.92
779.98	233.86
780.31	233.78
780.63	233.69
780.95	233.66
781.28	233.54
781.60	233.32
781.92	233.26
782.25	233.12
782.57	232.91
782.89	232.83
783.22	232.75
783.54	232.56
783.86	232.49
784.19	232.41
784.51	232.40
784.83	232.26
785.16	232.18
785.48	232.06
785.80	232.06
786.12	231.94
786.45	231.88
786.77	231.87
787.09	231.75
787.42	231.60
787.74	231.53
788.06	231.50
788.38	231.47
788.71	231.41
789.03	231.41
789.35	231.40
789.67	231.34
789.99	231.28
790.32	231.18
790.64	231.23
790.96	231.31
791.28	231.17
791.61	231.17
791.93	231.17
792.25	231.24
