SpectraSuite Data File
++++++++++++++++++++++++++++++++++++
Date: Fri Feb 01 14:35:23 EST 2013
User: group
Dark Spectrum Present: No
Reference Spectrum Present: No
Number of Sampled Component Spectra: 1
Spectrometers: USB2E7196
Integration Time (usec): 70000 (USB2E7196)
Spectra Averaged: 10 (USB2E7196)
Boxcar Smoothing: 10 (USB2E7196)
Correct for Electrical Dark: No (USB2E7196)
Strobe/Lamp Enabled: No (USB2E7196)
Correct for Detector Non-linearity: No (USB2E7196)
Correct for Stray Light: No (USB2E7196)
Number of Pixels in Processed Spectrum: 2048
>>>>>Begin Processed Spectral Data<<<<<
339.09	0.00
339.48	215.50
339.86	216.80
340.24	218.30
340.63	220.80
341.01	223.00
341.39	223.00
341.78	224.70
342.16	224.70
342.54	225.70
342.93	214.30
343.31	225.15
343.69	225.62
344.07	226.14
344.46	226.52
344.84	226.77
345.22	226.95
345.60	227.16
345.99	227.40
346.37	227.58
346.75	227.58
347.13	227.54
347.52	227.70
347.90	227.84
348.28	227.82
348.66	227.91
349.05	227.91
349.43	227.92
349.81	228.00
350.19	227.97
350.57	228.05
350.96	228.02
351.34	228.01
351.72	228.24
352.10	228.34
352.48	228.50
352.87	228.67
353.25	228.78
353.63	228.82
354.01	228.80
354.39	228.84
354.77	229.08
355.15	229.25
355.54	229.24
355.92	229.16
356.30	229.24
356.68	229.46
357.06	229.50
357.44	229.47
357.82	229.46
358.20	229.59
358.58	229.66
358.97	229.81
359.35	230.00
359.73	230.05
360.11	230.02
360.49	230.01
360.87	230.04
361.25	229.98
361.63	230.07
362.01	230.08
362.39	230.11
362.77	230.08
363.15	230.18
363.53	230.28
363.91	230.48
364.29	230.52
364.67	230.32
365.05	230.36
365.43	230.35
365.81	230.43
366.19	230.52
366.57	230.53
366.95	230.51
367.33	230.37
367.71	230.33
368.09	230.36
368.47	230.41
368.85	230.38
369.23	230.46
369.61	230.38
369.99	230.44
370.37	230.41
370.75	230.49
371.13	230.28
371.51	230.06
371.89	229.90
372.27	229.86
372.65	229.84
373.03	229.75
373.41	229.70
373.78	229.63
374.16	229.49
374.54	229.32
374.92	229.18
375.30	229.15
375.68	229.03
376.06	229.05
376.44	228.98
376.82	228.87
377.19	228.87
377.57	228.88
377.95	228.76
378.33	228.65
378.71	228.44
379.09	228.46
379.47	228.41
379.84	228.40
380.22	228.20
380.60	228.10
380.98	228.01
381.36	227.99
381.73	227.80
382.11	227.73
382.49	227.78
382.87	227.75
383.25	227.68
383.62	227.92
384.00	227.66
384.38	227.54
384.76	227.56
385.13	227.57
385.51	227.49
385.89	227.39
386.27	227.37
386.64	227.38
387.02	227.25
387.40	227.23
387.78	227.17
388.15	227.20
388.53	227.16
388.91	227.15
389.29	227.11
389.66	227.16
390.04	227.08
390.42	227.01
390.79	227.01
391.17	226.98
391.55	226.58
391.92	226.64
392.30	226.68
392.68	226.70
393.05	226.59
393.43	226.60
393.81	226.53
394.18	226.36
394.56	226.36
394.94	226.47
395.31	226.52
395.69	226.50
396.06	226.63
396.44	226.65
396.82	226.67
397.19	226.85
397.57	226.96
397.95	227.08
398.32	227.14
398.70	227.18
399.07	227.33
399.45	227.52
399.82	227.67
400.20	227.70
400.58	227.87
400.95	227.98
401.33	228.10
401.70	228.43
402.08	228.76
402.45	228.92
402.83	229.03
403.20	229.25
403.58	229.51
403.95	229.76
404.33	229.97
404.71	230.20
405.08	230.56
405.46	230.86
405.83	231.06
406.21	231.27
406.58	231.63
406.96	231.97
407.33	232.32
407.70	232.79
408.08	233.41
408.45	233.78
408.83	234.30
409.20	234.90
409.58	235.35
409.95	235.97
410.33	236.55
410.70	237.31
411.08	238.05
411.45	238.78
411.82	239.41
412.20	240.36
412.57	241.30
412.95	242.00
413.32	242.93
413.69	244.13
414.07	245.34
414.44	246.53
414.82	247.73
415.19	249.22
415.56	250.57
415.94	251.98
416.31	253.71
416.68	255.35
417.06	257.10
417.43	258.83
417.81	260.91
418.18	263.14
418.55	265.29
418.93	267.58
419.30	269.98
419.67	272.52
420.04	275.03
420.42	277.89
420.79	281.19
421.16	284.22
421.54	287.48
421.91	290.80
422.28	294.34
422.66	298.10
423.03	301.65
423.40	305.37
423.77	309.36
424.15	313.37
424.52	317.71
424.89	322.35
425.26	327.08
425.64	331.19
426.01	335.81
426.38	340.66
426.75	345.54
427.13	350.72
427.50	356.15
427.87	361.70
428.24	367.21
428.61	372.28
428.99	378.28
429.36	384.59
429.73	390.89
430.10	397.02
430.47	403.27
430.85	409.69
431.22	416.49
431.59	423.60
431.96	430.56
432.33	438.13
432.70	445.55
433.08	454.08
433.45	462.26
433.82	470.29
434.19	479.41
434.56	488.16
434.93	496.44
435.30	504.73
435.68	514.08
436.05	523.23
436.42	532.50
436.79	540.71
437.16	549.50
437.53	558.73
437.90	568.09
438.27	577.44
438.64	587.12
439.01	595.95
439.38	603.99
439.75	611.56
440.13	620.28
440.50	628.63
440.87	635.43
441.24	642.78
441.61	650.62
441.98	656.41
442.35	663.47
442.72	670.68
443.09	677.61
443.46	682.09
443.83	685.00
444.20	687.79
444.57	691.81
444.94	694.30
445.31	696.79
445.68	699.24
446.05	700.66
446.42	700.70
446.79	700.86
447.16	700.86
447.53	701.20
447.90	698.75
448.27	696.48
448.64	692.70
449.01	690.31
449.37	685.21
449.74	680.26
450.11	674.03
450.48	667.01
450.85	660.08
451.22	654.03
451.59	648.64
451.96	643.54
452.33	636.11
452.70	629.07
453.07	620.57
453.43	611.99
453.80	603.70
454.17	595.69
454.54	588.18
454.91	579.85
455.28	571.79
455.65	564.47
456.02	556.60
456.38	550.20
456.75	542.07
457.12	535.48
457.49	528.73
457.86	522.06
458.23	516.56
458.59	510.27
458.96	503.98
459.33	498.37
459.70	492.45
460.07	487.63
460.43	482.58
460.80	477.62
461.17	473.05
461.54	468.49
461.91	464.10
462.27	459.58
462.64	455.82
463.01	451.38
463.38	447.19
463.74	443.20
464.11	439.42
464.48	436.04
464.85	432.27
465.21	429.52
465.58	426.75
465.95	423.22
466.32	420.42
466.68	417.51
467.05	414.52
467.42	411.58
467.78	408.70
468.15	405.74
468.52	403.71
468.88	400.96
469.25	398.40
469.62	396.43
469.98	394.17
470.35	392.07
470.72	390.17
471.08	388.08
471.45	386.16
471.82	384.29
472.18	382.14
472.55	380.60
472.92	378.93
473.28	377.33
473.65	375.86
474.02	374.25
474.38	372.93
474.75	371.78
475.11	370.70
475.48	369.67
475.85	368.79
476.21	367.83
476.58	367.07
476.94	366.52
477.31	365.82
477.67	364.94
478.04	364.28
478.41	364.07
478.77	363.69
479.14	363.07
479.50	362.80
479.87	362.80
480.23	362.70
480.60	362.32
480.96	361.99
481.33	361.93
481.69	361.86
482.06	361.86
482.42	361.82
482.79	361.66
483.15	361.90
483.52	362.34
483.88	362.61
484.25	363.05
484.61	363.35
484.98	363.60
485.34	364.44
485.71	365.10
486.07	365.68
486.44	366.45
486.80	367.47
487.17	368.45
487.53	369.42
487.90	370.58
488.26	371.83
488.62	373.24
488.99	374.58
489.35	375.83
489.72	377.42
490.08	378.89
490.44	380.57
490.81	382.15
491.17	383.62
491.54	385.46
491.90	387.24
492.26	389.18
492.63	391.24
492.99	393.20
493.36	395.27
493.72	397.47
494.08	399.59
494.45	401.82
494.81	404.06
495.17	406.38
495.54	408.79
495.90	411.33
496.26	413.74
496.63	416.28
496.99	419.32
497.35	421.83
497.72	424.74
498.08	427.41
498.44	430.22
498.80	433.23
499.17	436.11
499.53	438.97
499.89	441.72
500.26	444.64
500.62	447.40
500.98	450.35
501.34	453.16
501.71	456.12
502.07	459.06
502.43	461.84
502.79	464.73
503.16	467.69
503.52	470.46
503.88	473.20
504.24	476.03
504.60	478.64
504.97	481.52
505.33	484.28
505.69	487.53
506.05	490.34
506.41	492.91
506.78	495.44
507.14	498.08
507.50	500.78
507.86	503.33
508.22	505.80
508.59	508.20
508.95	510.53
509.31	512.99
509.67	515.39
510.03	517.75
510.39	519.99
510.75	522.05
511.12	524.19
511.48	526.41
511.84	528.52
512.20	530.41
512.56	532.39
512.92	534.22
513.28	535.74
513.64	537.49
514.00	539.26
514.37	540.96
514.73	542.46
515.09	543.92
515.45	545.42
515.81	546.92
516.17	548.21
516.53	549.77
516.89	550.92
517.25	552.06
517.61	553.43
517.97	554.61
518.33	555.70
518.69	556.93
519.05	558.02
519.41	559.02
519.77	560.22
520.13	561.20
520.49	562.13
520.85	563.10
521.21	563.92
521.57	564.95
521.93	565.92
522.29	567.30
522.65	568.07
523.01	568.98
523.37	569.77
523.73	570.88
524.09	571.61
524.45	572.54
524.81	573.60
525.17	574.66
525.53	575.79
525.89	577.04
526.25	578.13
526.61	579.05
526.97	580.16
527.33	581.12
527.68	582.39
528.04	583.61
528.40	584.77
528.76	586.11
529.12	587.56
529.48	589.05
529.84	590.20
530.20	592.05
530.56	593.64
530.91	595.68
531.27	597.50
531.63	599.33
531.99	600.91
532.35	602.52
532.71	603.90
533.07	605.81
533.42	607.57
533.78	609.47
534.14	611.59
534.50	613.38
534.86	615.62
535.21	617.51
535.57	619.75
535.93	622.05
536.29	624.49
536.65	626.53
537.00	628.47
537.36	630.69
537.72	632.82
538.08	635.14
538.44	637.46
538.79	639.88
539.15	642.15
539.51	644.92
539.87	647.77
540.22	650.71
540.58	653.56
540.94	656.24
541.29	658.80
541.65	661.55
542.01	664.78
542.37	667.59
542.72	670.45
543.08	673.36
543.44	676.30
543.79	678.97
544.15	682.19
544.51	685.61
544.87	688.80
545.22	692.09
545.58	695.45
545.94	698.31
546.29	701.47
546.65	704.82
547.01	708.04
547.36	710.88
547.72	714.10
548.07	717.15
548.43	720.42
548.79	723.48
549.14	726.79
549.50	729.89
549.86	733.04
550.21	736.51
550.57	740.00
550.92	743.27
551.28	746.78
551.64	749.90
551.99	753.10
552.35	756.52
552.70	759.84
553.06	763.36
553.41	766.95
553.77	770.37
554.13	773.69
554.48	777.06
554.84	780.71
555.19	784.15
555.55	787.79
555.90	790.89
556.26	794.54
556.61	797.81
556.97	800.99
557.32	804.39
557.68	807.78
558.03	810.88
558.39	813.97
558.74	817.32
559.10	820.58
559.45	823.83
559.81	827.32
560.16	830.65
560.52	833.48
560.87	836.84
561.23	839.64
561.58	842.94
561.94	846.07
562.29	848.80
562.64	851.60
563.00	854.16
563.35	857.77
563.71	861.08
564.06	864.19
564.42	867.28
564.77	870.38
565.12	873.00
565.48	876.07
565.83	878.99
566.19	881.72
566.54	884.51
566.89	887.16
567.25	889.45
567.60	892.12
567.96	894.62
568.31	896.83
568.66	899.45
569.02	901.94
569.37	903.93
569.72	906.50
570.08	908.71
570.43	910.85
570.78	912.43
571.14	913.99
571.49	915.99
571.84	918.17
572.20	919.73
572.55	921.45
572.90	922.70
573.26	924.49
573.61	925.78
573.96	927.22
574.31	928.39
574.67	929.04
575.02	929.47
575.37	930.54
575.72	931.18
576.08	931.97
576.43	932.40
576.78	932.99
577.13	933.89
577.49	934.80
577.84	935.50
578.19	936.18
578.54	936.65
578.90	936.89
579.25	936.50
579.60	936.48
579.95	936.67
580.30	936.83
580.66	936.73
581.01	936.52
581.36	936.26
581.71	936.31
582.06	936.68
582.42	937.26
582.77	937.21
583.12	937.26
583.47	937.11
583.82	937.18
584.17	937.26
584.53	936.57
584.88	935.94
585.23	935.45
585.58	934.95
585.93	934.37
586.28	933.79
586.63	933.84
586.98	933.70
587.34	933.04
587.69	932.57
588.04	932.03
588.39	931.65
588.74	930.77
589.09	930.00
589.44	929.22
589.79	928.20
590.14	927.27
590.49	926.17
590.84	924.92
591.19	923.86
591.54	922.40
591.89	920.78
592.25	919.81
592.60	918.24
592.95	916.70
593.30	915.29
593.65	913.86
594.00	912.03
594.35	910.66
594.70	908.87
595.05	907.28
595.40	905.23
595.75	903.36
596.10	901.82
596.45	900.13
596.80	898.46
597.15	896.65
597.50	894.66
597.85	893.08
598.19	891.72
598.54	889.63
598.89	888.02
599.24	886.70
599.59	884.71
599.94	883.32
600.29	881.51
600.64	879.80
600.99	877.54
601.34	875.43
601.69	873.02
602.04	871.33
602.39	869.28
602.74	867.64
603.08	865.95
603.43	864.07
603.78	861.97
604.13	859.77
604.48	857.48
604.83	855.62
605.18	853.48
605.53	850.94
605.87	848.40
606.22	846.18
606.57	843.76
606.92	841.56
607.27	839.10
607.62	837.28
607.96	834.95
608.31	833.19
608.66	830.97
609.01	828.54
609.36	825.89
609.70	823.01
610.05	820.08
610.40	817.60
610.75	814.93
611.10	812.29
611.44	809.42
611.79	806.88
612.14	803.94
612.49	800.67
612.83	797.43
613.18	794.73
613.53	792.03
613.88	789.08
614.22	786.34
614.57	783.18
614.92	779.94
615.27	776.97
615.61	773.72
615.96	770.83
616.31	767.95
616.65	765.31
617.00	762.78
617.35	760.04
617.70	756.62
618.04	753.55
618.39	750.62
618.74	747.88
619.08	744.65
619.43	741.86
619.78	739.57
620.12	737.11
620.47	734.49
620.82	731.53
621.16	728.78
621.51	725.71
621.85	723.27
622.20	720.47
622.55	717.70
622.89	714.90
623.24	712.13
623.59	709.81
623.93	707.17
624.28	704.36
624.62	702.03
624.97	699.85
625.32	697.33
625.66	694.84
626.01	692.18
626.35	689.72
626.70	687.00
627.04	684.17
627.39	681.38
627.73	678.71
628.08	676.03
628.43	673.42
628.77	670.88
629.12	667.97
629.46	665.23
629.81	662.36
630.15	659.58
630.50	656.85
630.84	653.80
631.19	650.72
631.53	648.06
631.88	644.82
632.22	641.53
632.57	638.88
632.91	635.96
633.26	633.26
633.60	630.56
633.95	627.83
634.29	625.11
634.64	622.90
634.98	620.12
635.32	617.77
635.67	615.19
636.01	612.48
636.36	609.84
636.70	607.22
637.05	604.92
637.39	602.58
637.73	600.18
638.08	597.92
638.42	595.75
638.77	593.21
639.11	590.78
639.45	588.48
639.80	585.94
640.14	583.43
640.49	580.83
640.83	578.26
641.17	575.83
641.52	573.33
641.86	570.60
642.20	568.33
642.55	565.71
642.89	563.33
643.23	560.94
643.58	558.78
643.92	556.24
644.26	553.76
644.61	551.51
644.95	549.04
645.29	545.90
645.64	543.20
645.98	540.82
646.32	538.55
646.66	536.06
647.01	533.49
647.35	531.16
647.69	528.75
648.04	526.69
648.38	524.22
648.72	521.78
649.06	519.29
649.41	516.96
649.75	514.38
650.09	512.08
650.43	509.55
650.78	507.01
651.12	504.71
651.46	502.31
651.80	499.90
652.14	497.59
652.49	495.74
652.83	493.44
653.17	490.98
653.51	488.63
653.85	486.39
654.20	484.03
654.54	481.70
654.88	479.47
655.22	476.87
655.56	474.59
655.90	472.53
656.25	470.40
656.59	467.95
656.93	465.84
657.27	463.60
657.61	461.38
657.95	459.37
658.29	457.27
658.64	455.05
658.98	452.78
659.32	450.61
659.66	448.39
660.00	446.30
660.34	444.22
660.68	442.22
661.02	440.24
661.36	438.45
661.70	436.41
662.05	434.57
662.39	433.00
662.73	431.24
663.07	429.40
663.41	427.70
663.75	425.93
664.09	424.13
664.43	422.35
664.77	420.75
665.11	418.96
665.45	417.09
665.79	415.34
666.13	413.66
666.47	411.96
666.81	410.40
667.15	408.81
667.49	407.20
667.83	405.62
668.17	403.99
668.51	402.27
668.85	400.64
669.19	399.03
669.53	397.21
669.87	395.54
670.21	393.98
670.55	392.36
670.89	391.11
671.23	389.81
671.57	388.31
671.91	386.76
672.25	385.21
672.58	384.03
672.92	382.78
673.26	381.42
673.60	380.10
673.94	378.78
674.28	377.62
674.62	376.57
674.96	375.08
675.30	373.93
675.64	372.85
675.97	371.62
676.31	370.31
676.65	369.07
676.99	368.10
677.33	366.81
677.67	365.49
678.01	364.03
678.34	362.73
678.68	361.66
679.02	360.42
679.36	359.26
679.70	358.05
680.04	356.82
680.37	355.63
680.71	354.37
681.05	353.18
681.39	352.06
681.73	350.80
682.06	349.83
682.40	348.66
682.74	347.49
683.08	346.47
683.42	345.36
683.75	344.33
684.09	343.01
684.43	342.00
684.77	341.04
685.10	340.16
685.44	339.04
685.78	337.88
686.12	336.99
686.45	336.00
686.79	334.76
687.13	333.79
687.46	332.81
687.80	332.00
688.14	330.92
688.48	329.86
688.81	328.67
689.15	327.63
689.49	326.64
689.82	325.52
690.16	324.54
690.50	323.68
690.83	322.73
691.17	321.80
691.51	320.78
691.84	319.86
692.18	318.94
692.52	317.98
692.85	317.03
693.19	316.04
693.52	315.00
693.86	314.18
694.20	313.27
694.53	312.30
694.87	311.32
695.21	310.46
695.54	309.46
695.88	308.58
696.21	307.67
696.55	306.70
696.88	306.00
697.22	305.15
697.56	304.29
697.89	303.43
698.23	302.57
698.56	301.78
698.90	300.84
699.23	299.72
699.57	298.87
699.90	298.01
700.24	297.17
700.58	296.43
700.91	295.59
701.25	294.92
701.58	294.28
701.92	293.51
702.25	292.72
702.59	292.03
702.92	291.52
703.26	290.94
703.59	290.37
703.93	289.82
704.26	289.10
704.60	288.45
704.93	287.85
705.26	287.21
705.60	286.75
705.93	286.21
706.27	285.82
706.60	285.37
706.94	284.92
707.27	284.35
707.61	283.73
707.94	283.25
708.27	282.61
708.61	281.97
708.94	281.30
709.28	280.80
709.61	280.27
709.94	279.67
710.28	279.02
710.61	278.45
710.95	277.79
711.28	277.37
711.61	276.86
711.95	276.27
712.28	275.82
712.61	275.18
712.95	274.77
713.28	274.27
713.61	273.77
713.95	273.17
714.28	272.81
714.61	272.44
714.95	272.01
715.28	271.43
715.61	270.95
715.95	270.65
716.28	270.32
716.61	269.82
716.95	269.27
717.28	268.96
717.61	268.57
717.94	268.12
718.28	267.66
718.61	267.27
718.94	266.86
719.27	266.43
719.61	266.05
719.94	265.56
720.27	265.13
720.60	264.75
720.94	264.43
721.27	264.06
721.60	263.78
721.93	263.39
722.27	263.19
722.60	262.82
722.93	262.51
723.26	262.07
723.59	261.79
723.93	261.63
724.26	261.27
724.59	260.94
724.92	260.60
725.25	260.35
725.59	260.07
725.92	259.78
726.25	259.51
726.58	259.17
726.91	258.90
727.24	258.73
727.57	258.33
727.91	258.02
728.24	257.75
728.57	257.34
728.90	257.11
729.23	256.82
729.56	256.70
729.89	256.31
730.22	256.02
730.55	255.69
730.89	255.35
731.22	255.04
731.55	254.74
731.88	254.49
732.21	254.14
732.54	253.82
732.87	253.58
733.20	253.25
733.53	252.94
733.86	252.71
734.19	252.36
734.52	252.23
734.85	252.07
735.18	251.73
735.51	251.45
735.84	251.13
736.17	250.84
736.50	250.39
736.83	250.39
737.16	250.15
737.49	249.91
737.82	249.71
738.15	249.59
738.48	249.38
738.81	249.16
739.14	248.90
739.47	248.69
739.80	248.44
740.13	248.28
740.46	248.08
740.79	247.86
741.12	247.53
741.45	247.30
741.78	247.10
742.11	246.99
742.44	246.81
742.77	246.59
743.10	246.35
743.43	246.20
743.75	245.78
744.08	245.81
744.41	245.64
744.74	245.44
745.07	245.11
745.40	244.95
745.73	244.81
746.06	244.62
746.39	244.33
746.71	244.22
747.04	243.98
747.37	243.83
747.70	243.67
748.03	243.58
748.36	243.36
748.68	243.06
749.01	242.80
749.34	242.62
749.67	242.55
750.00	242.30
750.33	242.28
750.65	242.14
750.98	241.76
751.31	241.68
751.64	241.48
751.97	241.46
752.29	241.31
752.62	241.00
752.95	240.97
753.28	240.75
753.60	240.53
753.93	240.47
754.26	240.33
754.59	240.02
754.91	239.89
755.24	239.82
755.57	239.70
755.90	239.52
756.22	239.27
756.55	239.15
756.88	239.08
757.20	238.81
757.53	238.63
757.86	238.59
758.19	238.43
758.51	238.33
758.84	238.10
759.17	238.02
759.49	238.00
759.82	237.88
760.15	237.90
760.47	237.90
760.80	237.73
761.13	237.72
761.45	237.70
761.78	237.56
762.11	237.40
762.43	237.35
762.76	237.28
763.08	237.29
763.41	237.26
763.74	237.23
764.06	237.21
764.39	237.27
764.71	237.17
765.04	237.08
765.37	237.02
765.69	236.97
766.02	236.87
766.34	236.85
766.67	236.74
767.00	236.70
767.32	236.61
767.65	236.70
767.97	236.58
768.30	236.52
768.62	236.46
768.95	236.40
769.27	236.31
769.60	236.28
769.92	236.27
770.25	236.04
770.57	235.89
770.90	235.77
771.22	235.62
771.55	235.53
771.87	235.51
772.20	235.44
772.52	235.53
772.85	235.58
773.17	235.48
773.50	235.35
773.82	235.22
774.15	235.06
774.47	234.80
774.80	234.66
775.12	234.60
775.45	234.56
775.77	234.50
776.09	234.44
776.42	234.34
776.74	234.37
777.07	234.45
777.39	234.43
777.72	234.33
778.04	234.23
778.36	234.09
778.69	233.97
779.01	233.88
779.33	233.65
779.66	233.38
779.98	233.28
780.31	233.26
780.63	233.30
780.95	233.18
781.28	233.20
781.60	233.11
781.92	233.06
782.25	233.05
782.57	232.95
782.89	232.97
783.22	232.80
783.54	232.58
783.86	232.45
784.19	232.31
784.51	232.28
784.83	232.13
785.16	232.18
785.48	232.11
785.80	232.07
786.12	231.97
786.45	231.88
786.77	231.85
787.09	231.82
787.42	231.64
787.74	231.68
788.06	231.58
788.38	231.56
788.71	231.40
789.03	231.32
789.35	231.26
789.67	231.06
789.99	231.15
790.32	231.21
790.64	231.17
790.96	231.35
791.28	231.33
791.61	231.33
791.93	231.26
792.25	231.20
792.57	231.20
792.89	231.13
793.21	231.19
793.54	231.03
793.86	230.95
794.18	230.92
