SpectraSuite Data File
++++++++++++++++++++++++++++++++++++
Date: Fri Feb 01 14:35:59 EST 2013
User: group
Dark Spectrum Present: No
Reference Spectrum Present: No
Number of Sampled Component Spectra: 1
Spectrometers: USB2E7196
Integration Time (usec): 70000 (USB2E7196)
Spectra Averaged: 10 (USB2E7196)
Boxcar Smoothing: 10 (USB2E7196)
Correct for Electrical Dark: No (USB2E7196)
Strobe/Lamp Enabled: No (USB2E7196)
Correct for Detector Non-linearity: No (USB2E7196)
Correct for Stray Light: No (USB2E7196)
Number of Pixels in Processed Spectrum: 2048
>>>>>Begin Processed Spectral Data<<<<<
339.09	0.00
339.48	215.30
339.86	216.00
340.24	218.40
340.63	220.30
341.01	226.20
341.39	221.50
341.78	223.90
342.16	224.90
342.54	226.00
342.93	214.21
343.31	225.04
343.69	225.59
344.07	226.15
344.46	226.60
344.84	226.98
345.22	227.06
345.60	227.34
345.99	227.52
346.37	227.67
346.75	227.77
347.13	227.78
347.52	227.99
347.90	228.20
348.28	228.26
348.66	228.37
349.05	228.24
349.43	228.35
349.81	228.50
350.19	228.50
350.57	228.62
350.96	228.62
351.34	228.79
351.72	228.88
352.10	228.85
352.48	228.87
352.87	228.89
353.25	228.89
353.63	228.93
354.01	229.01
354.39	228.98
354.77	228.95
355.15	229.02
355.54	229.01
355.92	228.93
356.30	229.03
356.68	229.27
357.06	229.51
357.44	229.53
357.82	229.58
358.20	229.71
358.58	229.70
358.97	229.87
359.35	229.96
359.73	230.15
360.11	230.33
360.49	230.50
360.87	230.55
361.25	230.71
361.63	230.90
362.01	230.97
362.39	231.14
362.77	231.35
363.15	231.47
363.53	231.45
363.91	231.53
364.29	231.60
364.67	231.40
365.05	231.31
365.43	231.30
365.81	231.32
366.19	231.30
366.57	231.40
366.95	231.37
367.33	231.30
367.71	231.16
368.09	231.22
368.47	231.02
368.85	231.02
369.23	231.07
369.61	231.03
369.99	231.15
370.37	231.15
370.75	231.22
371.13	231.09
371.51	231.10
371.89	231.09
372.27	230.92
372.65	230.82
373.03	230.78
373.41	230.75
373.78	230.70
374.16	230.61
374.54	230.44
374.92	230.30
375.30	230.21
375.68	230.13
376.06	229.93
376.44	229.99
376.82	230.02
377.19	229.88
377.57	229.72
377.95	229.47
378.33	229.36
378.71	229.07
379.09	229.03
379.47	228.91
379.84	228.80
380.22	228.70
380.60	228.69
380.98	228.51
381.36	228.42
381.73	228.29
382.11	228.20
382.49	228.07
382.87	228.02
383.25	227.87
383.62	227.98
384.00	227.91
384.38	227.90
384.76	227.77
385.13	227.69
385.51	227.70
385.89	227.63
386.27	227.51
386.64	227.43
387.02	227.43
387.40	227.49
387.78	227.39
388.15	227.46
388.53	227.37
388.91	227.41
389.29	227.27
389.66	227.21
390.04	227.14
390.42	227.16
390.79	227.07
391.17	227.13
391.55	226.94
391.92	226.95
392.30	226.89
392.68	226.90
393.05	226.99
393.43	226.91
393.81	226.91
394.18	226.96
394.56	227.00
394.94	226.93
395.31	226.88
395.69	227.11
396.06	227.16
396.44	227.21
396.82	227.27
397.19	227.50
397.57	227.54
397.95	227.72
398.32	227.73
398.70	227.91
399.07	228.00
399.45	228.09
399.82	228.18
400.20	228.32
400.58	228.41
400.95	228.46
401.33	228.62
401.70	228.87
402.08	229.12
402.45	229.44
402.83	229.70
403.20	229.81
403.58	229.85
403.95	230.13
404.33	230.40
404.71	230.62
405.08	231.05
405.46	231.38
405.83	231.62
406.21	232.00
406.58	232.42
406.96	232.81
407.33	233.21
407.70	233.61
408.08	234.11
408.45	234.56
408.83	235.06
409.20	235.50
409.58	235.86
409.95	236.31
410.33	236.81
410.70	237.33
411.08	238.10
411.45	238.78
411.82	239.41
412.20	240.19
412.57	241.08
412.95	241.62
413.32	242.48
413.69	243.38
414.07	244.40
414.44	245.35
414.82	246.49
415.19	247.60
415.56	248.78
415.94	250.00
416.31	251.45
416.68	252.83
417.06	254.39
417.43	256.01
417.81	257.82
418.18	259.58
418.55	261.51
418.93	263.35
419.30	265.41
419.67	267.58
420.04	269.69
420.42	272.04
420.79	274.80
421.16	277.51
421.54	280.35
421.91	283.27
422.28	286.23
422.66	289.31
423.03	292.49
423.40	295.79
423.77	299.25
424.15	302.77
424.52	306.45
424.89	310.46
425.26	314.28
425.64	317.80
426.01	321.79
426.38	326.05
426.75	330.41
427.13	334.90
427.50	339.33
427.87	344.16
428.24	348.83
428.61	353.34
428.99	358.39
429.36	363.93
429.73	369.10
430.10	374.25
430.47	379.75
430.85	385.28
431.22	391.09
431.59	397.44
431.96	403.27
432.33	409.82
432.70	416.25
433.08	423.81
433.45	430.87
433.82	437.90
434.19	445.50
434.56	453.17
434.93	460.32
435.30	467.77
435.68	475.72
436.05	483.77
436.42	491.71
436.79	498.72
437.16	506.50
437.53	514.78
437.90	523.06
438.27	530.90
438.64	539.30
439.01	547.13
439.38	553.84
439.75	560.46
440.13	567.95
440.50	575.01
440.87	581.17
441.24	587.57
441.61	594.43
441.98	599.69
442.35	605.76
442.72	611.90
443.09	618.02
443.46	621.96
443.83	624.70
444.20	627.05
444.57	630.62
444.94	632.35
445.31	634.35
445.68	636.32
446.05	637.72
446.42	637.74
446.79	637.66
447.16	637.68
447.53	638.19
447.90	636.44
448.27	634.54
448.64	630.93
449.01	628.81
449.37	624.22
449.74	619.94
450.11	614.43
450.48	608.55
450.85	602.21
451.22	597.13
451.59	592.23
451.96	587.64
452.33	581.01
452.70	575.12
453.07	567.91
453.43	560.55
453.80	553.30
454.17	546.61
454.54	540.07
454.91	532.95
455.28	525.87
455.65	519.23
456.02	512.57
456.38	506.98
456.75	499.80
457.12	494.01
457.49	488.01
457.86	482.30
458.23	477.40
458.59	472.05
458.96	466.41
459.33	461.49
459.70	456.42
460.07	452.55
460.43	448.00
460.80	443.54
461.17	439.68
461.54	435.87
461.91	431.73
462.27	427.81
462.64	424.21
463.01	420.33
463.38	416.62
463.74	413.00
464.11	409.90
464.48	407.05
464.85	403.88
465.21	401.50
465.58	398.97
465.95	395.98
466.32	393.30
466.68	390.77
467.05	388.30
467.42	385.90
467.78	383.40
468.15	380.89
468.52	379.02
468.88	376.55
469.25	374.10
469.62	372.38
469.98	370.27
470.35	368.57
470.72	366.87
471.08	365.04
471.45	363.37
471.82	361.52
472.18	359.69
472.55	358.45
472.92	356.86
473.28	355.32
473.65	353.89
474.02	352.54
474.38	351.39
474.75	350.23
475.11	349.10
475.48	348.06
475.85	347.28
476.21	346.46
476.58	345.71
476.94	345.19
477.31	344.44
477.67	343.86
478.04	343.12
478.41	342.56
478.77	342.19
479.14	341.66
479.50	341.49
479.87	341.47
480.23	341.25
480.60	340.99
480.96	340.77
481.33	340.75
481.69	340.85
482.06	340.80
482.42	340.69
482.79	340.68
483.15	340.78
483.52	341.14
483.88	341.31
484.25	341.60
484.61	341.94
484.98	342.33
485.34	342.80
485.71	343.41
486.07	344.12
486.44	344.56
486.80	345.36
487.17	346.15
487.53	346.87
487.90	347.68
488.26	348.72
488.62	349.71
488.99	350.60
489.35	351.49
489.72	352.61
490.08	353.93
490.44	355.09
490.81	356.34
491.17	357.41
491.54	358.71
491.90	360.05
492.26	361.38
492.63	362.78
492.99	364.35
493.36	365.87
493.72	367.54
494.08	369.18
494.45	370.81
494.81	372.56
495.17	374.21
495.54	375.98
495.90	377.77
496.26	379.66
496.63	381.68
496.99	383.74
497.35	385.69
497.72	387.51
498.08	389.54
498.44	391.64
498.80	393.82
499.17	395.98
499.53	398.10
499.89	400.23
500.26	402.22
500.62	404.12
500.98	406.32
501.34	408.29
501.71	410.36
502.07	412.34
502.43	414.20
502.79	416.18
503.16	418.20
503.52	420.06
503.88	421.98
504.24	423.88
504.60	425.59
504.97	427.38
505.33	429.06
505.69	430.97
506.05	432.67
506.41	434.09
506.78	435.72
507.14	437.05
507.50	438.69
507.86	440.38
508.22	441.86
508.59	443.21
508.95	444.72
509.31	446.11
509.67	447.50
510.03	448.90
510.39	450.10
510.75	451.28
511.12	452.37
511.48	453.42
511.84	454.37
512.20	455.49
512.56	456.37
512.92	457.68
513.28	458.44
513.64	459.19
514.00	459.95
514.37	460.65
514.73	461.52
515.09	461.90
515.45	462.43
515.81	463.02
516.17	463.51
516.53	463.90
516.89	464.38
517.25	464.91
517.61	465.30
517.97	465.64
518.33	465.93
518.69	466.33
519.05	466.75
519.41	467.17
519.77	467.73
520.13	468.36
520.49	468.55
520.85	468.94
521.21	469.49
521.57	470.18
521.93	470.57
522.29	471.12
522.65	471.87
523.01	472.32
523.37	472.81
523.73	473.49
524.09	473.98
524.45	474.45
524.81	474.98
525.17	475.73
525.53	476.62
525.89	477.42
526.25	478.36
526.61	479.07
526.97	479.90
527.33	480.70
527.68	481.65
528.04	482.64
528.40	483.70
528.76	484.78
529.12	485.96
529.48	487.32
529.84	488.49
530.20	489.80
530.56	491.39
530.91	493.07
531.27	494.47
531.63	496.07
531.99	497.82
532.35	499.60
532.71	501.20
533.07	503.11
533.42	505.26
533.78	507.09
534.14	509.20
534.50	511.24
534.86	513.29
535.21	515.41
535.57	517.64
535.93	520.08
536.29	522.38
536.65	524.72
537.00	526.98
537.36	529.55
537.72	532.02
538.08	534.46
538.44	537.07
538.79	539.82
539.15	542.41
539.51	545.32
539.87	548.24
540.22	551.29
540.58	554.38
540.94	557.20
541.29	560.30
541.65	563.44
542.01	566.59
542.37	569.86
542.72	572.92
543.08	576.35
543.44	579.70
543.79	582.86
544.15	586.34
544.51	590.07
544.87	593.52
545.22	597.27
545.58	600.82
545.94	604.16
546.29	607.81
546.65	611.65
547.01	615.20
547.36	618.64
547.72	622.15
548.07	625.58
548.43	629.20
548.79	632.95
549.14	636.59
549.50	640.21
549.86	643.96
550.21	647.72
550.57	651.45
550.92	655.07
551.28	658.99
551.64	662.53
551.99	666.02
552.35	669.85
552.70	673.43
553.06	677.39
553.41	681.58
553.77	685.52
554.13	689.32
554.48	693.38
554.84	697.19
555.19	700.87
555.55	704.78
555.90	708.57
556.26	712.41
556.61	716.09
556.97	719.86
557.32	723.44
557.68	727.25
558.03	731.06
558.39	734.62
558.74	738.70
559.10	742.39
559.45	746.34
559.81	750.21
560.16	753.65
560.52	757.20
560.87	760.61
561.23	763.98
561.58	767.66
561.94	770.93
562.29	774.32
562.64	777.96
563.00	781.21
563.35	784.85
563.71	788.39
564.06	792.10
564.42	795.55
564.77	799.00
565.12	802.47
565.48	805.69
565.83	809.02
566.19	812.01
566.54	815.41
566.89	818.52
567.25	821.47
567.60	825.13
567.96	828.09
568.31	831.16
568.66	834.13
569.02	836.80
569.37	839.56
569.72	842.62
570.08	845.32
570.43	847.99
570.78	850.30
571.14	852.18
571.49	854.34
571.84	856.96
572.20	859.39
572.55	861.41
572.90	863.30
573.26	865.73
573.61	867.47
573.96	869.23
574.31	870.77
574.67	872.24
575.02	873.33
575.37	874.94
575.72	875.90
576.08	877.14
576.43	878.49
576.78	879.85
577.13	881.20
577.49	882.18
577.84	883.39
578.19	884.59
578.54	885.82
578.90	886.89
579.25	887.40
579.60	887.77
579.95	888.31
580.30	888.85
580.66	889.20
581.01	889.83
581.36	890.26
581.71	891.19
582.06	891.64
582.42	891.85
582.77	892.23
583.12	892.65
583.47	892.96
583.82	893.20
584.17	893.28
584.53	893.23
584.88	893.20
585.23	893.14
585.58	892.84
585.93	892.97
586.28	892.74
586.63	892.83
586.98	892.98
587.34	893.20
587.69	893.29
588.04	893.10
588.39	892.82
588.74	892.12
589.09	891.25
589.44	890.59
589.79	890.27
590.14	890.05
590.49	889.60
590.84	888.98
591.19	888.30
591.54	887.30
591.89	886.04
592.25	885.41
592.60	884.29
592.95	883.31
593.30	881.85
593.65	880.76
594.00	879.22
594.35	878.32
594.70	876.59
595.05	875.35
595.40	873.92
595.75	872.30
596.10	871.45
596.45	870.30
596.80	869.61
597.15	868.55
597.50	866.62
597.85	865.32
598.19	863.97
598.54	862.53
598.89	861.25
599.24	860.25
599.59	858.71
599.94	857.28
600.29	855.83
600.64	854.51
600.99	852.73
601.34	851.39
601.69	849.12
602.04	847.57
602.39	845.88
602.74	844.21
603.08	842.89
603.43	841.21
603.78	839.26
604.13	837.22
604.48	835.07
604.83	833.61
605.18	831.73
605.53	829.58
605.87	827.55
606.22	825.53
606.57	823.37
606.92	821.35
607.27	819.61
607.62	817.97
607.96	816.36
608.31	814.58
608.66	812.48
609.01	810.43
609.36	808.02
609.70	805.24
610.05	802.89
610.40	800.58
610.75	798.07
611.10	795.75
611.44	793.13
611.79	790.98
612.14	788.14
612.49	785.12
612.83	782.54
613.18	779.85
613.53	777.47
613.88	774.62
614.22	771.98
614.57	769.06
614.92	766.01
615.27	762.94
615.61	760.13
615.96	757.31
616.31	754.97
616.65	752.80
617.00	750.70
617.35	748.17
617.70	745.29
618.04	742.52
618.39	739.79
618.74	737.13
619.08	734.16
619.43	731.68
619.78	729.67
620.12	727.15
620.47	724.52
620.82	721.50
621.16	719.03
621.51	716.69
621.85	714.17
622.20	711.55
622.55	709.13
622.89	706.69
623.24	704.32
623.59	701.57
623.93	699.10
624.28	696.37
624.62	693.91
624.97	691.72
625.32	689.33
625.66	687.04
626.01	684.51
626.35	682.16
626.70	679.65
627.04	676.98
627.39	674.59
627.73	672.20
628.08	670.01
628.43	667.56
628.77	665.06
629.12	662.51
629.46	660.00
629.81	657.02
630.15	654.22
630.50	651.46
630.84	648.77
631.19	645.81
631.53	643.21
631.88	640.01
632.22	637.04
632.57	634.39
632.91	631.56
633.26	628.80
633.60	626.07
633.95	623.43
634.29	620.81
634.64	618.18
634.98	615.82
635.32	613.33
635.67	610.97
636.01	608.30
636.36	605.76
636.70	603.48
637.05	601.23
637.39	598.76
637.73	596.49
638.08	594.29
638.42	592.12
638.77	589.92
639.11	587.73
639.45	585.37
639.80	582.89
640.14	580.58
640.49	578.55
640.83	576.09
641.17	573.76
641.52	571.26
641.86	568.75
642.20	566.17
642.55	563.77
642.89	561.30
643.23	558.84
643.58	556.65
643.92	554.02
644.26	551.88
644.61	549.88
644.95	547.58
645.29	544.98
645.64	542.52
645.98	540.04
646.32	537.86
646.66	535.40
647.01	533.27
647.35	531.19
647.69	528.67
648.04	526.69
648.38	524.19
648.72	521.87
649.06	519.52
649.41	517.06
649.75	514.60
650.09	512.35
650.43	510.03
650.78	507.48
651.12	505.19
651.46	502.59
651.80	500.16
652.14	497.90
652.49	495.71
652.83	493.41
653.17	491.00
653.51	488.75
653.85	486.64
654.20	484.23
654.54	481.55
654.88	479.19
655.22	476.55
655.56	474.23
655.90	472.17
656.25	469.92
656.59	467.99
656.93	465.82
657.27	463.57
657.61	461.31
657.95	459.36
658.29	457.27
658.64	455.31
658.98	453.21
659.32	450.92
659.66	448.81
660.00	446.80
660.34	444.77
660.68	442.59
661.02	440.50
661.36	438.59
661.70	436.92
662.05	435.13
662.39	433.53
662.73	431.86
663.07	430.03
663.41	428.46
663.75	426.57
664.09	424.84
664.43	423.08
664.77	421.42
665.11	419.66
665.45	417.98
665.79	416.23
666.13	414.44
666.47	412.62
666.81	410.81
667.15	409.05
667.49	407.45
667.83	405.90
668.17	404.14
668.51	402.37
668.85	400.70
669.19	399.23
669.53	397.70
669.87	396.00
670.21	394.39
670.55	392.73
670.89	391.37
671.23	389.93
671.57	388.43
671.91	386.90
672.25	385.31
672.58	383.89
672.92	382.40
673.26	380.93
673.60	379.80
673.94	378.72
674.28	377.50
674.62	376.36
674.96	374.99
675.30	373.91
675.64	372.76
675.97	371.48
676.31	370.15
676.65	368.76
676.99	367.62
677.33	366.37
677.67	365.28
678.01	363.93
678.34	362.63
678.68	361.44
679.02	360.25
679.36	359.16
679.70	357.90
680.04	356.82
680.37	355.65
680.71	354.49
681.05	353.30
681.39	352.14
681.73	350.86
682.06	349.88
682.40	348.77
682.74	347.67
683.08	346.67
683.42	345.58
683.75	344.49
684.09	343.46
684.43	342.47
684.77	341.30
685.10	340.20
685.44	339.10
685.78	338.06
686.12	337.20
686.45	336.12
686.79	335.10
687.13	334.04
687.46	333.11
687.80	332.10
688.14	331.01
688.48	329.95
688.81	328.86
689.15	327.79
689.49	326.83
689.82	325.91
690.16	324.72
690.50	323.71
690.83	322.82
691.17	321.67
691.51	320.66
691.84	319.71
692.18	318.69
692.52	317.77
692.85	316.74
693.19	315.80
693.52	314.83
693.86	313.88
694.20	312.91
694.53	311.99
694.87	310.92
695.21	309.98
695.54	309.11
695.88	308.20
696.21	307.28
696.55	306.48
696.88	305.50
697.22	304.73
697.56	303.93
697.89	303.05
698.23	302.23
698.56	301.45
698.90	300.52
699.23	299.66
699.57	298.86
699.90	298.08
700.24	297.16
700.58	296.36
700.91	295.73
701.25	295.21
701.58	294.60
701.92	293.93
702.25	293.16
702.59	292.45
702.92	291.90
703.26	291.26
703.59	290.44
703.93	290.04
704.26	289.43
704.60	288.66
704.93	287.94
705.26	287.30
705.60	286.66
705.93	286.17
706.27	285.74
706.60	285.22
706.94	284.72
707.27	284.06
707.61	283.62
707.94	283.07
708.27	282.46
708.61	281.75
708.94	281.19
709.28	280.70
709.61	280.18
709.94	279.56
710.28	278.96
710.61	278.48
710.95	277.61
711.28	277.11
711.61	276.61
711.95	276.07
712.28	275.66
712.61	275.14
712.95	274.80
713.28	274.35
713.61	273.87
713.95	273.36
714.28	273.01
714.61	272.51
714.95	271.99
715.28	271.46
715.61	271.08
715.95	270.71
716.28	270.29
716.61	269.90
716.95	269.63
717.28	269.32
717.61	268.96
717.94	268.66
718.28	268.14
718.61	267.86
718.94	267.53
719.27	267.15
719.61	266.73
719.94	266.30
720.27	265.86
720.60	265.50
720.94	265.09
721.27	264.83
721.60	264.41
721.93	264.07
722.27	263.89
722.60	263.51
722.93	263.18
723.26	262.89
723.59	262.46
723.93	262.02
724.26	261.68
724.59	261.27
724.92	260.98
725.25	260.71
725.59	260.29
725.92	259.99
726.25	259.65
726.58	259.40
726.91	258.98
727.24	258.66
727.57	258.38
727.91	258.09
728.24	257.80
728.57	257.51
728.90	257.20
729.23	256.68
729.56	256.53
729.89	256.11
730.22	255.73
730.55	255.42
730.89	255.23
731.22	254.88
731.55	254.53
731.88	254.27
732.21	254.04
732.54	253.69
732.87	253.39
733.20	253.15
733.53	252.87
733.86	252.66
734.19	252.30
734.52	251.93
734.85	251.73
735.18	251.43
735.51	251.21
735.84	250.99
736.17	250.80
736.50	250.32
736.83	250.32
737.16	249.93
737.49	249.67
737.82	249.39
738.15	249.25
738.48	249.09
738.81	248.81
739.14	248.46
739.47	248.25
739.80	247.98
740.13	247.88
740.46	247.50
740.79	247.24
741.12	247.07
741.45	246.88
741.78	246.61
742.11	246.35
742.44	246.07
742.77	245.86
743.10	245.64
743.43	245.38
743.75	245.05
744.08	245.35
744.41	245.17
744.74	245.07
745.07	244.80
745.40	244.49
745.73	244.31
746.06	244.16
746.39	244.04
746.71	243.89
747.04	243.49
747.37	243.31
747.70	243.25
748.03	243.05
748.36	242.86
748.68	242.75
749.01	242.59
749.34	242.45
749.67	242.27
750.00	242.19
750.33	242.21
750.65	242.02
750.98	241.50
751.31	241.52
751.64	241.30
751.97	241.29
752.29	241.29
752.62	241.15
752.95	241.10
753.28	240.98
753.60	240.82
753.93	240.88
754.26	240.88
754.59	240.69
754.91	240.59
755.24	240.59
755.57	240.43
755.90	240.34
756.22	240.27
756.55	240.09
756.88	239.90
757.20	239.72
757.53	239.51
757.86	239.46
758.19	239.32
758.51	239.16
758.84	238.99
759.17	238.85
759.49	238.75
759.82	238.60
760.15	238.56
760.47	238.50
760.80	238.36
761.13	238.36
761.45	238.24
761.78	238.10
762.11	237.96
762.43	237.81
762.76	237.71
763.08	237.56
763.41	237.57
763.74	237.48
764.06	237.38
764.39	237.40
764.71	237.32
765.04	237.17
765.37	237.12
765.69	237.00
766.02	236.88
766.34	236.85
766.67	236.85
767.00	236.77
767.32	236.79
767.65	236.77
767.97	236.69
768.30	236.60
768.62	236.55
768.95	236.46
769.27	236.43
769.60	236.37
769.92	236.26
770.25	236.13
770.57	235.99
770.90	235.87
771.22	235.70
771.55	235.58
771.87	235.52
772.20	235.39
772.52	235.48
772.85	235.67
773.17	235.44
773.50	235.24
773.82	235.12
774.15	234.82
774.47	234.63
774.80	234.45
775.12	234.28
775.45	234.27
775.77	234.10
776.09	234.00
776.42	233.95
776.74	233.97
777.07	233.88
777.39	233.88
777.72	233.77
778.04	233.74
778.36	233.64
778.69	233.56
779.01	233.55
779.33	233.29
779.66	232.86
779.98	232.92
780.31	232.95
780.63	232.98
780.95	233.05
781.28	233.00
781.60	232.89
781.92	232.88
782.25	232.86
782.57	232.84
782.89	232.85
783.22	232.78
783.54	232.68
783.86	232.69
784.19	232.60
784.51	232.70
784.83	232.61
785.16	232.71
785.48	232.71
785.80	232.65
786.12	232.74
786.45	232.89
786.77	232.80
787.09	232.64
787.42	232.51
787.74	232.52
788.06	232.48
788.38	232.57
788.71	232.47
789.03	232.39
789.35	232.41
789.67	232.34
789.99	232.31
790.32	232.36
790.64	232.49
790.96	232.59
791.28	232.44
791.61	232.51
791.93	232.38
792.25	232.35
792.57	232.46
792.89	232.29
793.21	232.19
793.54	232.13
793.86	232.16
794.18	232.19
