SpectraSuite Data File
++++++++++++++++++++++++++++++++++++
Date: Fri Feb 01 14:38:43 EST 2013
User: group
Dark Spectrum Present: No
Reference Spectrum Present: No
Number of Sampled Component Spectra: 1
Spectrometers: USB2E7196
Integration Time (usec): 70000 (USB2E7196)
Spectra Averaged: 10 (USB2E7196)
Boxcar Smoothing: 10 (USB2E7196)
Correct for Electrical Dark: No (USB2E7196)
Strobe/Lamp Enabled: No (USB2E7196)
Correct for Detector Non-linearity: No (USB2E7196)
Correct for Stray Light: No (USB2E7196)
Number of Pixels in Processed Spectrum: 2048
>>>>>Begin Processed Spectral Data<<<<<
339.09	0.00
339.48	216.40
339.86	217.40
340.24	220.20
340.63	220.70
341.01	223.90
341.39	223.60
341.78	225.10
342.16	225.80
342.54	225.40
342.93	214.50
343.31	225.35
343.69	225.83
344.07	226.38
344.46	226.76
344.84	227.14
345.22	227.30
345.60	227.51
345.99	227.66
346.37	227.80
346.75	227.85
347.13	227.92
347.52	227.96
347.90	228.03
348.28	227.97
348.66	227.99
349.05	227.94
349.43	227.86
349.81	227.78
350.19	227.80
350.57	227.90
350.96	227.89
351.34	227.91
351.72	227.89
352.10	227.89
352.48	227.87
352.87	227.90
353.25	228.01
353.63	228.07
354.01	228.05
354.39	228.11
354.77	228.22
355.15	228.38
355.54	228.50
355.92	228.54
356.30	228.69
356.68	228.93
357.06	228.95
357.44	229.03
357.82	229.14
358.20	229.26
358.58	229.29
358.97	229.35
359.35	229.48
359.73	229.73
360.11	229.71
360.49	229.80
360.87	229.82
361.25	229.77
361.63	229.86
362.01	229.95
362.39	229.89
362.77	229.96
363.15	229.90
363.53	229.84
363.91	229.83
364.29	229.87
364.67	229.61
365.05	229.72
365.43	229.88
365.81	229.88
366.19	229.94
366.57	229.96
366.95	229.95
367.33	229.77
367.71	229.72
368.09	229.83
368.47	229.91
368.85	229.90
369.23	229.97
369.61	229.87
369.99	229.92
370.37	229.96
370.75	230.02
371.13	230.00
371.51	230.03
371.89	230.04
372.27	230.06
372.65	230.01
373.03	229.92
373.41	229.84
373.78	229.88
374.16	229.62
374.54	229.56
374.92	229.52
375.30	229.52
375.68	229.40
376.06	229.23
376.44	229.10
376.82	229.02
377.19	228.86
377.57	228.75
377.95	228.57
378.33	228.40
378.71	228.23
379.09	228.03
379.47	227.92
379.84	227.89
380.22	227.70
380.60	227.56
380.98	227.50
381.36	227.41
381.73	227.32
382.11	227.40
382.49	227.23
382.87	227.08
383.25	227.10
383.62	227.28
384.00	227.30
384.38	227.19
384.76	227.19
385.13	227.35
385.51	227.39
385.89	227.38
386.27	227.39
386.64	227.41
387.02	227.48
387.40	227.35
387.78	227.24
388.15	227.21
388.53	227.17
388.91	227.09
389.29	227.06
389.66	227.05
390.04	226.95
390.42	227.01
390.79	227.09
391.17	227.02
391.55	226.83
391.92	226.72
392.30	226.80
392.68	226.79
393.05	226.60
393.43	226.51
393.81	226.50
394.18	226.54
394.56	226.46
394.94	226.48
395.31	226.54
395.69	226.60
396.06	226.76
396.44	226.97
396.82	226.98
397.19	227.07
397.57	227.07
397.95	227.20
398.32	227.28
398.70	227.38
399.07	227.50
399.45	227.56
399.82	227.68
400.20	227.71
400.58	227.74
400.95	227.89
401.33	228.09
401.70	228.37
402.08	228.41
402.45	228.57
402.83	228.70
403.20	228.71
403.58	228.90
403.95	228.97
404.33	229.02
404.71	229.23
405.08	229.53
405.46	229.67
405.83	229.73
406.21	229.85
406.58	229.99
406.96	230.19
407.33	230.34
407.70	230.48
408.08	230.81
408.45	231.17
408.83	231.43
409.20	231.66
409.58	231.66
409.95	231.99
410.33	232.31
410.70	232.60
411.08	233.04
411.45	233.35
411.82	233.70
412.20	234.21
412.57	234.76
412.95	234.94
413.32	235.37
413.69	235.90
414.07	236.41
414.44	236.91
414.82	237.43
415.19	238.06
415.56	238.77
415.94	239.36
416.31	240.01
416.68	240.70
417.06	241.55
417.43	242.42
417.81	243.27
418.18	244.15
418.55	245.13
418.93	246.14
419.30	247.16
419.67	248.29
420.04	249.39
420.42	250.52
420.79	251.98
421.16	253.37
421.54	254.92
421.91	256.37
422.28	257.87
422.66	259.40
423.03	260.96
423.40	262.59
423.77	264.29
424.15	265.98
424.52	267.93
424.89	269.89
425.26	271.78
425.64	273.71
426.01	275.76
426.38	277.91
426.75	279.98
427.13	282.10
427.50	284.41
427.87	286.71
428.24	288.97
428.61	291.07
428.99	293.70
429.36	296.38
429.73	298.98
430.10	301.72
430.47	304.48
430.85	307.23
431.22	310.01
431.59	313.17
431.96	316.09
432.33	319.16
432.70	322.41
433.08	326.19
433.45	329.57
433.82	332.89
434.19	336.69
434.56	340.40
434.93	344.04
435.30	347.44
435.68	351.35
436.05	355.14
436.42	359.01
436.79	362.31
437.16	365.88
437.53	369.66
437.90	373.58
438.27	377.33
438.64	381.25
439.01	384.90
439.38	388.00
439.75	391.11
440.13	394.64
440.50	397.83
440.87	400.49
441.24	403.37
441.61	406.42
441.98	408.63
442.35	411.50
442.72	414.31
443.09	417.10
443.46	418.76
443.83	419.91
444.20	420.98
444.57	422.52
444.94	423.33
445.31	424.21
445.68	425.01
446.05	425.55
446.42	425.43
446.79	425.32
447.16	425.15
447.53	425.13
447.90	424.11
448.27	423.00
448.64	421.26
449.01	420.19
449.37	418.09
449.74	415.84
450.11	413.14
450.48	410.14
450.85	407.08
451.22	404.58
451.59	402.17
451.96	399.78
452.33	396.51
452.70	393.56
453.07	390.11
453.43	386.36
453.80	382.89
454.17	379.51
454.54	376.27
454.91	372.75
455.28	369.32
455.65	366.14
456.02	363.02
456.38	360.21
456.75	356.63
457.12	353.58
457.49	350.80
457.86	347.89
458.23	345.36
458.59	342.58
458.96	339.64
459.33	337.11
459.70	334.68
460.07	332.63
460.43	330.41
460.80	328.16
461.17	326.34
461.54	324.22
461.91	322.36
462.27	320.35
462.64	318.62
463.01	316.74
463.38	314.90
463.74	312.98
464.11	311.40
464.48	309.95
464.85	308.54
465.21	307.35
465.58	306.06
465.95	304.59
466.32	303.26
466.68	302.09
467.05	300.92
467.42	299.72
467.78	298.38
468.15	296.99
468.52	296.01
468.88	294.60
469.25	293.44
469.62	292.50
469.98	291.46
470.35	290.46
470.72	289.46
471.08	288.44
471.45	287.51
471.82	286.70
472.18	285.67
472.55	284.86
472.92	283.91
473.28	283.10
473.65	282.24
474.02	281.61
474.38	280.94
474.75	280.34
475.11	279.60
475.48	279.08
475.85	278.57
476.21	278.17
476.58	277.79
476.94	277.40
477.31	276.83
477.67	276.42
478.04	276.06
478.41	275.91
478.77	275.63
479.14	275.24
479.50	274.85
479.87	274.72
480.23	274.43
480.60	273.98
480.96	273.69
481.33	273.64
481.69	273.42
482.06	273.16
482.42	272.92
482.79	272.70
483.15	272.42
483.52	272.38
483.88	271.98
484.25	271.80
484.61	271.72
484.98	271.63
485.34	271.65
485.71	271.68
486.07	271.52
486.44	271.40
486.80	271.43
487.17	271.46
487.53	271.47
487.90	271.66
488.26	271.91
488.62	272.20
488.99	272.21
489.35	272.37
489.72	272.55
490.08	272.70
490.44	272.94
490.81	273.23
491.17	273.41
491.54	273.88
491.90	274.07
492.26	274.39
492.63	274.65
492.99	274.80
493.36	275.08
493.72	275.45
494.08	275.74
494.45	276.02
494.81	276.24
495.17	276.61
495.54	276.77
495.90	277.18
496.26	277.30
496.63	277.76
496.99	278.07
497.35	278.37
497.72	278.77
498.08	279.03
498.44	279.43
498.80	279.71
499.17	280.00
499.53	280.43
499.89	280.76
500.26	281.00
500.62	281.44
500.98	281.74
501.34	282.14
501.71	282.62
502.07	283.01
502.43	283.41
502.79	283.70
503.16	284.11
503.52	284.36
503.88	284.89
504.24	285.16
504.60	285.60
504.97	286.10
505.33	286.53
505.69	287.11
506.05	287.56
506.41	288.12
506.78	288.58
507.14	289.16
507.50	289.60
507.86	290.25
508.22	290.85
508.59	291.47
508.95	291.95
509.31	292.67
509.67	293.38
510.03	294.23
510.39	294.93
510.75	295.86
511.12	296.76
511.48	297.59
511.84	298.40
512.20	299.34
512.56	300.29
512.92	301.19
513.28	302.19
513.64	303.23
514.00	304.32
514.37	305.71
514.73	307.00
515.09	308.31
515.45	309.66
515.81	311.00
516.17	312.45
516.53	313.99
516.89	315.36
517.25	317.02
517.61	318.63
517.97	320.42
518.33	322.21
518.69	323.97
519.05	325.97
519.41	328.17
519.77	330.40
520.13	332.61
520.49	334.87
520.85	337.27
521.21	339.79
521.57	342.33
521.93	344.60
522.29	347.20
522.65	349.90
523.01	352.74
523.37	355.62
523.73	358.63
524.09	361.76
524.45	364.96
524.81	368.28
525.17	371.74
525.53	375.30
525.89	378.71
526.25	382.67
526.61	386.10
526.97	389.92
527.33	393.72
527.68	397.80
528.04	401.90
528.40	406.01
528.76	410.26
529.12	414.57
529.48	419.13
529.84	423.32
530.20	427.92
530.56	432.54
530.91	437.51
531.27	442.33
531.63	447.29
531.99	452.34
532.35	457.10
532.71	461.97
533.07	467.00
533.42	472.36
533.78	477.50
534.14	483.06
534.50	488.22
534.86	493.78
535.21	498.92
535.57	504.65
535.93	510.32
536.29	515.93
536.65	521.55
537.00	527.24
537.36	533.21
537.72	539.06
538.08	544.91
538.44	550.80
538.79	556.88
539.15	562.78
539.51	568.85
539.87	575.05
540.22	581.23
540.58	587.61
540.94	593.77
541.29	599.83
541.65	606.10
542.01	612.80
542.37	619.10
542.72	625.59
543.08	631.67
543.44	638.14
543.79	644.40
544.15	651.02
544.51	657.73
544.87	664.44
545.22	670.92
545.58	677.37
545.94	683.60
546.29	689.93
546.65	696.18
547.01	702.33
547.36	708.62
547.72	714.79
548.07	720.91
548.43	726.81
548.79	733.06
549.14	739.13
549.50	744.78
549.86	750.42
550.21	756.29
550.57	762.50
550.92	768.15
551.28	774.01
551.64	779.87
551.99	785.51
552.35	790.98
552.70	796.53
553.06	802.43
553.41	808.08
553.77	813.81
554.13	819.29
554.48	825.11
554.84	830.76
555.19	836.37
555.55	842.01
555.90	847.52
556.26	853.08
556.61	858.56
556.97	864.09
557.32	869.76
557.68	875.34
558.03	880.72
558.39	885.94
558.74	891.37
559.10	896.51
559.45	901.56
559.81	907.13
560.16	912.14
560.52	917.13
560.87	922.39
561.23	927.26
561.58	932.45
561.94	937.43
562.29	942.08
562.64	946.60
563.00	950.98
563.35	955.93
563.71	960.55
564.06	965.34
564.42	969.89
564.77	974.18
565.12	978.52
565.48	983.05
565.83	987.42
566.19	991.64
566.54	995.69
566.89	999.66
567.25	1003.20
567.60	1007.37
567.96	1011.41
568.31	1015.03
568.66	1018.51
569.02	1022.10
569.37	1025.36
569.72	1028.71
570.08	1032.00
570.43	1035.60
570.78	1038.44
571.14	1041.04
571.49	1043.54
571.84	1046.71
572.20	1049.36
572.55	1051.94
572.90	1053.63
573.26	1056.29
573.61	1058.56
573.96	1060.56
574.31	1062.55
574.67	1064.20
575.02	1066.00
575.37	1067.76
575.72	1069.04
576.08	1070.60
576.43	1071.78
576.78	1073.05
577.13	1074.66
577.49	1076.24
577.84	1077.13
578.19	1078.26
578.54	1079.50
578.90	1080.29
579.25	1080.77
579.60	1081.59
579.95	1082.17
580.30	1082.88
580.66	1083.06
581.01	1083.29
581.36	1083.79
581.71	1084.29
582.06	1085.04
582.42	1085.24
582.77	1085.09
583.12	1085.27
583.47	1085.39
583.82	1085.73
584.17	1085.56
584.53	1085.07
584.88	1085.15
585.23	1084.88
585.58	1084.93
585.93	1084.62
586.28	1084.65
586.63	1084.31
586.98	1084.19
587.34	1083.92
587.69	1083.71
588.04	1083.40
588.39	1083.14
588.74	1082.00
589.09	1080.91
589.44	1079.69
589.79	1078.77
590.14	1078.10
590.49	1077.22
590.84	1076.17
591.19	1075.18
591.54	1074.05
591.89	1072.70
592.25	1071.07
592.60	1069.63
592.95	1067.60
593.30	1066.07
593.65	1064.17
594.00	1062.36
594.35	1060.94
594.70	1059.00
595.05	1057.26
595.40	1055.45
595.75	1053.43
596.10	1052.26
596.45	1051.10
596.80	1049.94
597.15	1048.41
597.50	1046.36
597.85	1044.96
598.19	1043.30
598.54	1041.78
598.89	1040.01
599.24	1039.12
599.59	1037.45
599.94	1036.04
600.29	1034.80
600.64	1032.91
600.99	1031.08
601.34	1029.38
601.69	1027.10
602.04	1025.16
602.39	1023.06
602.74	1021.42
603.08	1019.84
603.43	1017.88
603.78	1015.79
604.13	1013.40
604.48	1011.03
604.83	1009.16
605.18	1006.90
605.53	1004.78
605.87	1001.94
606.22	999.61
606.57	996.50
606.92	994.11
607.27	991.61
607.62	989.08
607.96	986.86
608.31	984.59
608.66	981.89
609.01	979.02
609.36	975.99
609.70	973.00
610.05	969.52
610.40	966.56
610.75	963.12
611.10	959.70
611.44	956.45
611.79	953.48
612.14	949.90
612.49	946.07
612.83	942.42
613.18	939.25
613.53	936.22
613.88	932.67
614.22	929.14
614.57	925.21
614.92	921.60
615.27	918.05
615.61	914.39
615.96	910.85
616.31	907.87
616.65	905.38
617.00	902.36
617.35	899.41
617.70	895.67
618.04	892.29
618.39	889.16
618.74	885.95
619.08	882.54
619.43	879.27
619.78	876.36
620.12	873.07
620.47	869.78
620.82	865.98
621.16	862.79
621.51	859.75
621.85	856.47
622.20	853.26
622.55	849.87
622.89	846.62
623.24	843.53
623.59	839.95
623.93	836.47
624.28	833.29
624.62	829.75
624.97	826.65
625.32	823.76
625.66	820.50
626.01	817.07
626.35	813.49
626.70	810.28
627.04	807.16
627.39	803.75
627.73	800.29
628.08	797.22
628.43	793.92
628.77	790.19
629.12	787.23
629.46	783.70
629.81	780.01
630.15	776.53
630.50	773.00
630.84	769.26
631.19	765.40
631.53	761.82
631.88	757.94
632.22	754.02
632.57	750.40
632.91	746.82
633.26	743.50
633.60	740.12
633.95	736.67
634.29	733.20
634.64	729.99
634.98	726.65
635.32	723.42
635.67	720.40
636.01	717.50
636.36	714.03
636.70	711.12
637.05	708.19
637.39	705.13
637.73	702.09
638.08	699.56
638.42	696.67
638.77	693.51
639.11	690.56
639.45	687.62
639.80	684.48
640.14	681.56
640.49	678.51
640.83	675.57
641.17	672.49
641.52	669.18
641.86	666.00
642.20	663.05
642.55	659.76
642.89	656.72
643.23	653.22
643.58	650.51
643.92	647.29
644.26	644.27
644.61	641.44
644.95	638.38
645.29	634.69
645.64	631.34
645.98	628.20
646.32	625.47
646.66	622.62
647.01	619.66
647.35	616.57
647.69	613.55
648.04	610.71
648.38	607.75
648.72	604.70
649.06	601.45
649.41	598.34
649.75	595.40
650.09	592.20
650.43	589.33
650.78	585.86
651.12	582.70
651.46	579.62
651.80	576.50
652.14	573.45
652.49	570.81
652.83	568.21
653.17	565.22
653.51	562.00
653.85	559.15
654.20	556.16
654.54	552.91
654.88	549.70
655.22	546.33
655.56	543.09
655.90	540.30
656.25	537.61
656.59	534.60
656.93	531.76
657.27	528.87
657.61	525.98
657.95	523.49
658.29	520.79
658.64	517.97
658.98	515.03
659.32	512.05
659.66	509.37
660.00	506.48
660.34	503.83
660.68	501.31
661.02	498.21
661.36	495.74
661.70	493.44
662.05	491.13
662.39	489.06
662.73	486.81
663.07	484.43
663.41	482.26
663.75	479.94
664.09	477.62
664.43	475.35
664.77	473.14
665.11	470.84
665.45	468.55
665.79	466.34
666.13	464.12
666.47	462.04
666.81	459.70
667.15	457.16
667.49	455.01
667.83	452.89
668.17	450.96
668.51	448.69
668.85	446.37
669.19	444.38
669.53	442.15
669.87	439.92
670.21	437.79
670.55	435.62
670.89	433.91
671.23	432.00
671.57	430.08
671.91	428.13
672.25	426.02
672.58	424.34
672.92	422.45
673.26	420.56
673.60	418.77
673.94	416.90
674.28	415.44
674.62	413.77
674.96	412.08
675.30	410.32
675.64	408.64
675.97	407.01
676.31	405.22
676.65	403.57
676.99	402.22
677.33	400.50
677.67	398.82
678.01	396.87
678.34	395.11
678.68	393.46
679.02	391.82
679.36	390.34
679.70	388.61
680.04	387.07
680.37	385.71
680.71	384.27
681.05	382.93
681.39	381.47
681.73	380.06
682.06	378.74
682.40	377.37
682.74	376.07
683.08	374.90
683.42	373.63
683.75	372.20
684.09	370.73
684.43	369.41
684.77	368.00
685.10	366.80
685.44	365.54
685.78	364.31
686.12	362.99
686.45	361.60
686.79	360.31
687.13	359.08
687.46	357.70
687.80	356.38
688.14	355.05
688.48	353.87
688.81	352.58
689.15	351.19
689.49	349.87
689.82	348.64
690.16	347.30
690.50	345.88
690.83	344.71
691.17	343.35
691.51	342.16
691.84	341.04
692.18	339.79
692.52	338.59
692.85	337.30
693.19	336.20
693.52	335.03
693.86	333.88
694.20	332.70
694.53	331.50
694.87	330.41
695.21	329.26
695.54	327.94
695.88	326.68
696.21	325.47
696.55	324.42
696.88	323.24
697.22	322.02
697.56	321.12
697.89	320.06
698.23	319.06
698.56	318.01
698.90	316.95
699.23	315.80
699.57	314.74
699.90	313.82
700.24	312.80
700.58	311.92
700.91	310.83
701.25	309.98
701.58	309.13
701.92	308.26
702.25	307.33
702.59	306.60
702.92	305.71
703.26	304.87
703.59	304.05
703.93	303.32
704.26	302.64
704.60	301.72
704.93	300.71
705.26	299.95
705.60	299.21
705.93	298.46
706.27	297.75
706.60	296.97
706.94	296.29
707.27	295.50
707.61	294.54
707.94	293.90
708.27	293.10
708.61	292.22
708.94	291.54
709.28	290.77
709.61	289.93
709.94	289.32
710.28	288.63
710.61	287.91
710.95	286.98
711.28	286.25
711.61	285.62
711.95	285.06
712.28	284.38
712.61	283.62
712.95	283.00
713.28	282.49
713.61	281.83
713.95	281.08
714.28	280.47
714.61	279.94
714.95	279.30
715.28	278.67
715.61	278.12
715.95	277.46
716.28	276.89
716.61	276.46
716.95	275.84
717.28	275.23
717.61	274.73
717.94	274.26
718.28	273.64
718.61	273.03
718.94	272.53
719.27	272.04
719.61	271.65
719.94	271.17
720.27	270.58
720.60	270.19
720.94	269.77
721.27	269.30
721.60	268.98
721.93	268.65
722.27	268.31
722.60	267.98
722.93	267.50
723.26	267.21
723.59	266.76
723.93	266.39
724.26	266.18
724.59	265.77
724.92	265.46
725.25	265.16
725.59	264.73
725.92	264.47
726.25	264.15
726.58	263.87
726.91	263.57
727.24	263.30
727.57	263.00
727.91	262.66
728.24	262.47
728.57	262.10
728.90	261.79
729.23	261.39
729.56	261.20
729.89	260.87
730.22	260.45
730.55	260.09
730.89	259.77
731.22	259.40
731.55	259.12
731.88	258.84
732.21	258.71
732.54	258.45
732.87	258.10
733.20	257.78
733.53	257.46
733.86	257.18
734.19	256.87
734.52	256.60
734.85	256.40
735.18	256.11
735.51	255.91
735.84	255.64
736.17	255.50
736.50	255.13
736.83	255.13
737.16	254.85
737.49	254.70
737.82	254.48
738.15	254.16
738.48	253.92
738.81	253.64
739.14	253.11
739.47	252.86
739.80	252.49
740.13	252.17
740.46	251.82
740.79	251.48
741.12	251.27
741.45	251.01
741.78	250.71
742.11	250.43
742.44	250.14
742.77	249.77
743.10	249.36
743.43	248.93
743.75	248.47
744.08	248.45
744.41	248.11
744.74	247.89
745.07	247.70
745.40	247.45
745.73	247.26
746.06	247.09
746.39	246.96
746.71	246.80
747.04	246.62
747.37	246.36
747.70	246.30
748.03	246.06
748.36	245.85
748.68	245.53
749.01	245.24
749.34	244.95
749.67	244.70
750.00	244.64
750.33	244.72
750.65	244.59
750.98	244.30
751.31	244.10
751.64	243.88
751.97	243.80
752.29	243.68
752.62	243.50
752.95	243.30
753.28	243.07
753.60	242.95
753.93	242.80
754.26	242.64
754.59	242.37
754.91	242.18
755.24	241.93
755.57	241.90
755.90	241.79
756.22	241.70
756.55	241.65
756.88	241.33
757.20	241.00
757.53	240.78
757.86	240.58
758.19	240.42
758.51	240.29
758.84	240.06
759.17	239.92
759.49	239.73
759.82	239.74
760.15	239.68
760.47	239.62
760.80	239.53
761.13	239.41
761.45	239.24
761.78	239.08
762.11	239.05
762.43	239.00
762.76	238.89
763.08	238.79
763.41	238.68
763.74	238.70
764.06	238.71
764.39	238.52
764.71	238.34
765.04	238.30
765.37	238.16
765.69	238.05
766.02	237.88
766.34	237.79
766.67	237.61
767.00	237.62
767.32	237.50
767.65	237.47
767.97	237.40
768.30	237.50
768.62	237.46
768.95	237.31
769.27	237.14
769.60	237.07
769.92	237.00
770.25	236.86
770.57	236.70
770.90	236.54
771.22	236.52
771.55	236.57
771.87	236.48
772.20	236.51
772.52	236.57
772.85	236.86
773.17	236.80
773.50	236.69
773.82	236.47
774.15	236.38
774.47	236.18
774.80	236.08
775.12	235.82
775.45	235.71
775.77	235.74
776.09	235.66
776.42	235.56
776.74	235.55
777.07	235.47
777.39	235.49
777.72	235.36
778.04	235.42
778.36	235.30
778.69	235.27
779.01	235.13
779.33	234.88
779.66	234.55
779.98	234.45
780.31	234.38
780.63	234.43
780.95	234.34
781.28	234.26
781.60	234.27
781.92	234.29
782.25	234.25
782.57	234.11
782.89	233.98
783.22	234.00
783.54	233.90
783.86	233.95
784.19	233.88
784.51	233.88
784.83	233.76
785.16	233.68
785.48	233.55
785.80	233.50
786.12	233.54
786.45	233.41
786.77	233.43
787.09	233.25
787.42	233.08
787.74	233.08
788.06	233.02
788.38	232.90
788.71	232.77
789.03	232.72
789.35	232.70
789.67	232.62
789.99	232.52
790.32	232.45
790.64	232.31
790.96	232.30
791.28	232.25
791.61	232.04
791.93	232.05
