SpectraSuite Data File
++++++++++++++++++++++++++++++++++++
Date: Fri Feb 01 14:38:52 EST 2013
User: group
Dark Spectrum Present: No
Reference Spectrum Present: No
Number of Sampled Component Spectra: 1
Spectrometers: USB2E7196
Integration Time (usec): 70000 (USB2E7196)
Spectra Averaged: 10 (USB2E7196)
Boxcar Smoothing: 10 (USB2E7196)
Correct for Electrical Dark: No (USB2E7196)
Strobe/Lamp Enabled: No (USB2E7196)
Correct for Detector Non-linearity: No (USB2E7196)
Correct for Stray Light: No (USB2E7196)
Number of Pixels in Processed Spectrum: 2048
>>>>>Begin Processed Spectral Data<<<<<
339.09	0.00
339.48	217.00
339.86	218.20
340.24	219.10
340.63	219.50
341.01	225.60
341.39	222.90
341.78	224.70
342.16	225.50
342.54	227.20
342.93	214.97
343.31	225.81
343.69	226.34
344.07	226.78
344.46	227.24
344.84	227.63
345.22	227.73
345.60	228.06
345.99	228.27
346.37	228.36
346.75	228.42
347.13	228.50
347.52	228.50
347.90	228.53
348.28	228.48
348.66	228.52
349.05	228.52
349.43	228.60
349.81	228.64
350.19	228.65
350.57	228.64
350.96	228.67
351.34	228.65
351.72	228.66
352.10	228.82
352.48	228.87
352.87	228.98
353.25	229.03
353.63	229.07
354.01	229.07
354.39	229.17
354.77	229.26
355.15	229.24
355.54	229.32
355.92	229.37
356.30	229.33
356.68	229.46
357.06	229.46
357.44	229.53
357.82	229.64
358.20	229.69
358.58	229.71
358.97	229.78
359.35	229.96
359.73	230.06
360.11	229.97
360.49	229.93
360.87	229.88
361.25	229.87
361.63	229.93
362.01	229.93
362.39	229.91
362.77	229.93
363.15	230.04
363.53	229.96
363.91	229.94
364.29	229.86
364.67	229.70
365.05	229.68
365.43	229.67
365.81	229.63
366.19	229.74
366.57	229.76
366.95	229.79
367.33	229.70
367.71	229.66
368.09	229.74
368.47	229.74
368.85	229.75
369.23	229.80
369.61	229.60
369.99	229.64
370.37	229.64
370.75	229.57
371.13	229.40
371.51	229.43
371.89	229.38
372.27	229.41
372.65	229.35
373.03	229.21
373.41	229.14
373.78	228.99
374.16	228.79
374.54	228.73
374.92	228.55
375.30	228.43
375.68	228.27
376.06	228.10
376.44	228.04
376.82	227.97
377.19	227.89
377.57	227.83
377.95	227.63
378.33	227.48
378.71	227.35
379.09	227.46
379.47	227.42
379.84	227.27
380.22	227.20
380.60	227.14
380.98	227.08
381.36	227.03
381.73	227.02
382.11	226.96
382.49	226.84
382.87	226.78
383.25	226.71
383.62	227.04
384.00	226.96
384.38	226.94
384.76	226.92
385.13	226.90
385.51	226.86
385.89	226.90
386.27	226.82
386.64	226.79
387.02	226.63
387.40	226.49
387.78	226.55
388.15	226.64
388.53	226.59
388.91	226.57
389.29	226.56
389.66	226.61
390.04	226.70
390.42	226.73
390.79	226.78
391.17	226.82
391.55	226.55
391.92	226.50
392.30	226.47
392.68	226.38
393.05	226.42
393.43	226.47
393.81	226.50
394.18	226.63
394.56	226.67
394.94	226.71
395.31	226.74
395.69	226.84
396.06	226.93
396.44	227.01
396.82	227.18
397.19	227.26
397.57	227.36
397.95	227.39
398.32	227.42
398.70	227.59
399.07	227.73
399.45	227.77
399.82	227.95
400.20	227.97
400.58	228.14
400.95	228.09
401.33	228.31
401.70	228.50
402.08	228.63
402.45	228.84
402.83	229.00
403.20	229.15
403.58	229.25
403.95	229.28
404.33	229.35
404.71	229.48
405.08	229.80
405.46	229.90
405.83	230.13
406.21	230.38
406.58	230.45
406.96	230.64
407.33	230.89
407.70	231.03
408.08	231.42
408.45	231.62
408.83	231.93
409.20	232.07
409.58	232.17
409.95	232.41
410.33	232.55
410.70	232.76
411.08	232.96
411.45	233.28
411.82	233.54
412.20	233.91
412.57	234.34
412.95	234.44
413.32	234.88
413.69	235.25
414.07	235.70
414.44	236.26
414.82	236.68
415.19	237.27
415.56	237.93
415.94	238.49
416.31	239.29
416.68	240.12
417.06	240.90
417.43	241.78
417.81	242.62
418.18	243.56
418.55	244.52
418.93	245.62
419.30	246.65
419.67	247.82
420.04	248.96
420.42	250.04
420.79	251.47
421.16	252.56
421.54	253.97
421.91	255.31
422.28	256.70
422.66	258.36
423.03	259.92
423.40	261.48
423.77	263.18
424.15	264.78
424.52	266.45
424.89	268.33
425.26	270.03
425.64	271.67
426.01	273.55
426.38	275.48
426.75	277.46
427.13	279.47
427.50	281.58
427.87	283.93
428.24	286.10
428.61	288.19
428.99	290.73
429.36	293.29
429.73	295.65
430.10	298.26
430.47	300.74
430.85	303.24
431.22	306.11
431.59	309.13
431.96	311.91
432.33	315.02
432.70	318.04
433.08	321.69
433.45	325.03
433.82	328.35
434.19	332.20
434.56	335.89
434.93	339.28
435.30	342.57
435.68	346.31
436.05	350.09
436.42	353.78
436.79	357.18
437.16	360.76
437.53	364.66
437.90	368.37
438.27	372.14
438.64	375.92
439.01	379.34
439.38	382.38
439.75	385.40
440.13	388.87
440.50	392.10
440.87	394.67
441.24	397.43
441.61	400.54
441.98	402.70
442.35	405.24
442.72	407.89
443.09	410.61
443.46	411.99
443.83	413.13
444.20	414.24
444.57	415.71
444.94	416.38
445.31	417.21
445.68	418.12
446.05	418.68
446.42	418.57
446.79	418.40
447.16	418.15
447.53	418.18
447.90	416.94
448.27	415.88
448.64	414.33
449.01	413.23
449.37	411.12
449.74	408.93
450.11	406.42
450.48	403.53
450.85	400.59
451.22	398.19
451.59	395.75
451.96	393.31
452.33	389.94
452.70	387.06
453.07	383.57
453.43	379.91
453.80	376.23
454.17	373.08
454.54	369.89
454.91	366.52
455.28	363.05
455.65	359.85
456.02	356.90
456.38	354.08
456.75	350.76
457.12	347.72
457.49	344.83
457.86	341.95
458.23	339.62
458.59	337.02
458.96	334.43
459.33	331.96
459.70	329.59
460.07	327.87
460.43	325.62
460.80	323.44
461.17	321.52
461.54	319.64
461.91	317.68
462.27	315.73
462.64	313.99
463.01	312.12
463.38	310.51
463.74	308.51
464.11	306.88
464.48	305.40
464.85	303.98
465.21	302.83
465.58	301.70
465.95	300.25
466.32	298.86
466.68	297.56
467.05	296.40
467.42	295.23
467.78	293.75
468.15	292.46
468.52	291.62
468.88	290.38
469.25	289.13
469.62	288.22
469.98	287.23
470.35	286.29
470.72	285.52
471.08	284.51
471.45	283.69
471.82	282.82
472.18	282.00
472.55	281.25
472.92	280.55
473.28	279.58
473.65	278.77
474.02	278.03
474.38	277.40
474.75	276.82
475.11	276.18
475.48	275.71
475.85	275.44
476.21	274.90
476.58	274.39
476.94	274.07
477.31	273.58
477.67	273.13
478.04	272.48
478.41	272.13
478.77	271.97
479.14	271.51
479.50	271.20
479.87	270.90
480.23	270.60
480.60	270.22
480.96	270.01
481.33	270.01
481.69	269.98
482.06	269.85
482.42	269.57
482.79	269.37
483.15	269.29
483.52	269.11
483.88	269.02
484.25	269.03
484.61	268.92
484.98	268.87
485.34	268.96
485.71	269.23
486.07	269.18
486.44	269.05
486.80	269.11
487.17	269.25
487.53	269.42
487.90	269.60
488.26	269.70
488.62	269.92
488.99	269.96
489.35	270.08
489.72	270.18
490.08	270.47
490.44	270.61
490.81	270.87
491.17	271.05
491.54	271.26
491.90	271.49
492.26	271.81
492.63	272.12
492.99	272.20
493.36	272.48
493.72	272.73
494.08	273.02
494.45	273.36
494.81	273.74
495.17	273.92
495.54	274.13
495.90	274.47
496.26	274.80
496.63	275.19
496.99	275.50
497.35	275.82
497.72	276.09
498.08	276.43
498.44	276.69
498.80	277.02
499.17	277.39
499.53	277.66
499.89	278.06
500.26	278.36
500.62	278.90
500.98	279.35
501.34	279.81
501.71	280.15
502.07	280.49
502.43	280.76
502.79	281.27
503.16	281.71
503.52	282.17
503.88	282.54
504.24	282.93
504.60	283.40
504.97	283.87
505.33	284.41
505.69	284.95
506.05	285.48
506.41	286.02
506.78	286.58
507.14	287.25
507.50	287.86
507.86	288.50
508.22	289.19
508.59	289.78
508.95	290.44
509.31	291.40
509.67	292.35
510.03	293.22
510.39	294.02
510.75	295.01
511.12	296.10
511.48	297.26
511.84	298.31
512.20	299.36
512.56	300.51
512.92	301.85
513.28	303.20
513.64	304.54
514.00	305.92
514.37	307.38
514.73	308.80
515.09	310.31
515.45	311.99
515.81	313.62
516.17	315.47
516.53	317.26
516.89	319.01
517.25	320.93
517.61	323.14
517.97	325.35
518.33	327.50
518.69	329.66
519.05	331.97
519.41	334.30
519.77	337.01
520.13	339.67
520.49	342.20
520.85	345.01
521.21	347.87
521.57	350.90
521.93	353.89
522.29	357.06
522.65	360.21
523.01	363.44
523.37	366.70
523.73	370.09
524.09	373.69
524.45	377.33
524.81	381.03
525.17	384.69
525.53	388.69
525.89	392.67
526.25	396.75
526.61	400.67
526.97	404.95
527.33	409.14
527.68	413.94
528.04	418.50
528.40	423.00
528.76	427.63
529.12	432.28
529.48	436.96
529.84	441.79
530.20	446.93
530.56	452.09
530.91	457.40
531.27	462.73
531.63	467.96
531.99	473.48
532.35	478.85
532.71	484.32
533.07	489.81
533.42	495.80
533.78	501.47
534.14	507.22
534.50	513.00
534.86	518.99
535.21	524.63
535.57	530.70
535.93	536.82
536.29	543.02
536.65	549.30
537.00	555.65
537.36	562.00
537.72	567.97
538.08	574.16
538.44	580.64
538.79	586.84
539.15	593.33
539.51	599.84
539.87	606.44
540.22	613.21
540.58	619.91
540.94	626.19
541.29	632.70
541.65	639.55
542.01	646.43
542.37	653.11
542.72	659.62
543.08	666.27
543.44	672.94
543.79	679.41
544.15	686.16
544.51	693.05
544.87	699.50
545.22	706.42
545.58	713.04
545.94	719.24
546.29	725.84
546.65	732.18
547.01	738.52
547.36	744.96
547.72	751.26
548.07	757.60
548.43	764.12
548.79	770.55
549.14	776.86
549.50	782.96
549.86	789.01
550.21	795.23
550.57	801.43
550.92	807.29
551.28	813.61
551.64	819.58
551.99	825.51
552.35	831.72
552.70	837.50
553.06	843.45
553.41	849.64
553.77	855.70
554.13	861.81
554.48	867.76
554.84	873.61
555.19	879.36
555.55	884.90
555.90	890.36
556.26	896.02
556.61	901.28
556.97	906.64
557.32	912.04
557.68	917.45
558.03	922.78
558.39	928.27
558.74	933.75
559.10	939.04
559.45	944.09
559.81	949.68
560.16	954.97
560.52	959.99
560.87	965.16
561.23	969.90
561.58	975.08
561.94	979.90
562.29	984.49
562.64	989.09
563.00	994.01
563.35	998.75
563.71	1003.56
564.06	1008.49
564.42	1013.62
564.77	1018.34
565.12	1023.23
565.48	1027.96
565.83	1032.18
566.19	1036.09
566.54	1040.30
566.89	1044.22
567.25	1047.91
567.60	1052.06
567.96	1056.14
568.31	1059.57
568.66	1063.24
569.02	1066.59
569.37	1069.76
569.72	1073.32
570.08	1076.53
570.43	1079.60
570.78	1082.53
571.14	1085.03
571.49	1087.47
571.84	1090.32
572.20	1092.82
572.55	1094.92
572.90	1096.95
573.26	1099.53
573.61	1101.83
573.96	1104.02
574.31	1106.07
574.67	1107.32
575.02	1108.56
575.37	1109.91
575.72	1111.34
576.08	1113.07
576.43	1114.27
576.78	1115.58
577.13	1117.16
577.49	1118.57
577.84	1119.70
578.19	1120.91
578.54	1122.16
578.90	1123.10
579.25	1123.08
579.60	1123.50
579.95	1123.78
580.30	1124.21
580.66	1124.39
581.01	1124.33
581.36	1124.16
581.71	1124.57
582.06	1125.02
582.42	1125.30
582.77	1125.50
583.12	1125.51
583.47	1125.47
583.82	1125.90
584.17	1125.95
584.53	1125.37
584.88	1124.97
585.23	1124.61
585.58	1124.42
585.93	1123.69
586.28	1123.65
586.63	1123.63
586.98	1123.43
587.34	1123.09
587.69	1122.54
588.04	1122.21
588.39	1122.06
588.74	1121.26
589.09	1120.28
589.44	1119.47
589.79	1118.63
590.14	1117.81
590.49	1116.83
590.84	1115.59
591.19	1114.06
591.54	1112.46
591.89	1110.70
592.25	1109.46
592.60	1107.41
592.95	1105.35
593.30	1103.73
593.65	1101.81
594.00	1099.78
594.35	1098.47
594.70	1096.33
595.05	1094.53
595.40	1092.22
595.75	1089.81
596.10	1088.13
596.45	1086.31
596.80	1084.82
597.15	1082.84
597.50	1080.75
597.85	1079.02
598.19	1077.06
598.54	1075.05
598.89	1073.55
599.24	1071.93
599.59	1069.84
599.94	1068.21
600.29	1066.54
600.64	1064.37
600.99	1061.81
601.34	1059.90
601.69	1056.96
602.04	1054.84
602.39	1052.39
602.74	1050.50
603.08	1048.48
603.43	1046.36
603.78	1044.31
604.13	1041.65
604.48	1039.26
604.83	1036.80
605.18	1034.53
605.53	1031.88
605.87	1029.17
606.22	1026.31
606.57	1023.77
606.92	1020.90
607.27	1018.42
607.62	1015.81
607.96	1013.46
608.31	1011.29
608.66	1008.18
609.01	1005.40
609.36	1002.19
609.70	999.22
610.05	995.90
610.40	992.86
610.75	989.46
611.10	985.93
611.44	982.29
611.79	979.15
612.14	975.48
612.49	971.41
612.83	967.86
613.18	964.46
613.53	961.19
613.88	957.29
614.22	953.90
614.57	950.15
614.92	946.37
615.27	942.77
615.61	939.08
615.96	935.78
616.31	932.43
616.65	929.69
617.00	926.39
617.35	923.05
617.70	919.47
618.04	915.96
618.39	912.52
618.74	909.42
619.08	905.55
619.43	902.60
619.78	899.69
620.12	896.35
620.47	892.83
620.82	889.00
621.16	885.70
621.51	882.39
621.85	879.18
622.20	875.45
622.55	872.03
622.89	868.59
623.24	865.10
623.59	861.74
623.93	858.23
624.28	854.60
624.62	851.12
624.97	847.69
625.32	844.15
625.66	840.70
626.01	837.01
626.35	833.74
626.70	830.08
627.04	826.66
627.39	823.20
627.73	819.68
628.08	816.47
628.43	813.10
628.77	809.54
629.12	805.68
629.46	802.34
629.81	798.65
630.15	795.11
630.50	791.48
630.84	787.68
631.19	783.84
631.53	780.25
631.88	776.54
632.22	772.79
632.57	769.21
632.91	765.51
633.26	761.96
633.60	758.35
633.95	754.85
634.29	751.16
634.64	747.76
634.98	744.33
635.32	740.92
635.67	737.68
636.01	734.34
636.36	730.96
636.70	727.68
637.05	724.33
637.39	721.12
637.73	717.92
638.08	714.77
638.42	711.63
638.77	708.56
639.11	705.44
639.45	702.28
639.80	699.22
640.14	696.23
640.49	692.97
640.83	689.71
641.17	686.52
641.52	683.19
641.86	679.85
642.20	676.84
642.55	673.79
642.89	670.54
643.23	667.05
643.58	664.30
643.92	660.91
644.26	657.92
644.61	654.75
644.95	651.42
645.29	648.04
645.64	644.61
645.98	641.33
646.32	638.20
646.66	635.00
647.01	631.85
647.35	628.60
647.69	625.53
648.04	622.63
648.38	619.37
648.72	616.21
649.06	613.20
649.41	609.74
649.75	606.19
650.09	602.89
650.43	599.77
650.78	596.18
651.12	592.90
651.46	589.54
651.80	586.40
652.14	583.28
652.49	580.33
652.83	577.49
653.17	574.25
653.51	570.67
653.85	567.60
654.20	564.37
654.54	561.13
654.88	558.00
655.22	554.67
655.56	551.43
655.90	548.42
656.25	545.44
656.59	542.70
656.93	539.82
657.27	536.97
657.61	534.15
657.95	531.51
658.29	529.00
658.64	526.33
658.98	523.48
659.32	520.52
659.66	517.61
660.00	514.88
660.34	512.10
660.68	509.75
661.02	507.14
661.36	504.57
661.70	501.96
662.05	499.61
662.39	497.25
662.73	494.98
663.07	492.63
663.41	489.99
663.75	487.40
664.09	485.17
664.43	482.69
664.77	480.35
665.11	478.10
665.45	475.80
665.79	473.41
666.13	470.87
666.47	468.61
666.81	466.40
667.15	464.04
667.49	461.86
667.83	459.73
668.17	457.37
668.51	455.09
668.85	452.94
669.19	450.73
669.53	448.45
669.87	446.10
670.21	444.06
670.55	442.01
670.89	440.19
671.23	438.16
671.57	436.10
671.91	434.16
672.25	431.89
672.58	429.84
672.92	427.74
673.26	426.00
673.60	424.27
673.94	422.49
674.28	420.73
674.62	419.03
674.96	417.13
675.30	415.47
675.64	413.65
675.97	412.08
676.31	410.37
676.65	408.84
676.99	407.32
677.33	405.40
677.67	403.63
678.01	401.82
678.34	399.95
678.68	398.31
679.02	396.65
679.36	395.13
679.70	393.51
680.04	392.01
680.37	390.36
680.71	388.85
681.05	387.34
681.39	385.84
681.73	384.26
682.06	382.74
682.40	381.34
682.74	379.99
683.08	378.50
683.42	376.90
683.75	375.25
684.09	373.70
684.43	372.37
684.77	370.94
685.10	369.49
685.44	368.16
685.78	366.89
686.12	365.56
686.45	364.21
686.79	362.69
687.13	361.43
687.46	360.14
687.80	358.74
688.14	357.30
688.48	355.91
688.81	354.50
689.15	353.30
689.49	351.92
689.82	350.60
690.16	349.21
690.50	348.07
690.83	346.79
691.17	345.48
691.51	344.17
691.84	343.11
692.18	341.85
692.52	340.48
692.85	339.17
693.19	337.85
693.52	336.65
693.86	335.61
694.20	334.40
694.53	333.26
694.87	332.08
695.21	330.74
695.54	329.42
695.88	328.30
696.21	326.98
696.55	325.87
696.88	324.66
697.22	323.42
697.56	322.30
697.89	321.40
698.23	320.37
698.56	319.27
698.90	318.09
699.23	316.88
699.57	315.91
699.90	314.85
700.24	313.77
700.58	312.70
700.91	311.56
701.25	310.60
701.58	309.63
701.92	308.69
702.25	307.94
702.59	307.15
702.92	306.39
703.26	305.58
703.59	304.60
703.93	304.02
704.26	303.30
704.60	302.41
704.93	301.39
705.26	300.68
705.60	299.87
705.93	299.17
706.27	298.66
706.60	297.94
706.94	297.27
707.27	296.54
707.61	295.79
707.94	295.19
708.27	294.45
708.61	293.65
708.94	292.91
709.28	292.13
709.61	291.53
709.94	290.78
710.28	290.02
710.61	289.44
710.95	288.59
711.28	287.91
711.61	287.21
711.95	286.65
712.28	285.99
712.61	285.35
712.95	284.80
713.28	284.29
713.61	283.71
713.95	283.05
714.28	282.45
714.61	281.91
714.95	281.22
715.28	280.52
715.61	279.83
715.95	279.28
716.28	278.80
716.61	278.13
716.95	277.65
717.28	277.20
717.61	276.57
717.94	275.88
718.28	275.32
718.61	274.82
718.94	274.24
719.27	273.75
719.61	273.35
719.94	272.78
720.27	272.09
720.60	271.53
720.94	271.08
721.27	270.68
721.60	270.27
721.93	269.85
722.27	269.53
722.60	269.12
722.93	268.73
723.26	268.25
723.59	267.90
723.93	267.34
724.26	266.94
724.59	266.55
724.92	266.31
725.25	265.94
725.59	265.55
725.92	265.32
726.25	264.84
726.58	264.38
726.91	264.07
727.24	263.77
727.57	263.42
727.91	263.07
728.24	262.70
728.57	262.17
728.90	261.83
729.23	261.35
729.56	261.08
729.89	260.61
730.22	260.38
730.55	259.90
730.89	259.68
731.22	259.20
731.55	258.90
731.88	258.51
732.21	258.15
732.54	257.83
732.87	257.30
733.20	256.91
733.53	256.57
733.86	256.22
734.19	255.84
734.52	255.48
734.85	255.20
735.18	254.88
735.51	254.70
735.84	254.41
736.17	254.30
736.50	253.95
736.83	253.98
737.16	253.47
737.49	253.25
737.82	252.82
738.15	252.75
738.48	252.35
738.81	252.11
739.14	251.84
739.47	251.63
739.80	251.51
740.13	251.42
740.46	251.22
740.79	250.86
741.12	250.58
741.45	250.39
741.78	250.06
742.11	249.81
742.44	249.52
742.77	249.33
743.10	248.97
743.43	248.71
743.75	248.22
744.08	248.33
744.41	248.08
744.74	247.92
745.07	247.60
745.40	247.49
745.73	247.38
746.06	247.21
746.39	246.95
746.71	246.73
747.04	246.50
747.37	246.39
747.70	246.26
748.03	246.16
748.36	245.97
748.68	245.70
749.01	245.57
749.34	245.44
749.67	245.22
750.00	245.15
750.33	245.18
750.65	245.13
750.98	244.85
751.31	244.76
751.64	244.58
751.97	244.59
752.29	244.42
752.62	244.18
752.95	244.02
753.28	243.86
753.60	243.75
753.93	243.61
754.26	243.29
754.59	243.05
754.91	242.79
755.24	242.74
755.57	242.69
755.90	242.42
756.22	242.18
756.55	242.01
756.88	241.83
757.20	241.50
757.53	241.22
757.86	241.02
758.19	240.89
758.51	240.78
758.84	240.56
759.17	240.62
759.49	240.59
759.82	240.56
760.15	240.45
760.47	240.36
760.80	240.18
761.13	240.12
761.45	240.09
761.78	239.95
762.11	239.77
762.43	239.68
762.76	239.53
763.08	239.50
763.41	239.39
763.74	239.20
764.06	239.16
764.39	239.04
764.71	238.93
765.04	238.74
765.37	238.59
765.69	238.36
766.02	238.05
766.34	237.80
766.67	237.58
767.00	237.45
767.32	237.36
767.65	237.27
767.97	237.20
768.30	237.11
768.62	237.05
768.95	236.84
769.27	236.70
769.60	236.57
769.92	236.35
770.25	236.20
770.57	236.05
770.90	235.84
771.22	235.72
771.55	235.58
771.87	235.50
772.20	235.31
772.52	235.44
772.85	235.64
773.17	235.51
773.50	235.37
773.82	235.24
774.15	234.93
774.47	234.80
774.80	234.63
775.12	234.50
775.45	234.37
775.77	234.29
776.09	234.15
776.42	234.20
776.74	234.15
777.07	234.13
777.39	234.07
777.72	233.98
778.04	233.98
778.36	233.96
778.69	233.84
779.01	233.92
779.33	233.67
779.66	233.25
779.98	233.23
780.31	233.19
780.63	233.32
780.95	233.36
781.28	233.22
781.60	233.13
781.92	232.95
782.25	232.99
782.57	232.99
782.89	233.06
783.22	232.92
783.54	232.78
783.86	232.70
784.19	232.70
784.51	232.68
784.83	232.50
785.16	232.40
785.48	232.40
785.80	232.25
786.12	232.26
786.45	232.33
786.77	232.39
787.09	232.35
787.42	232.29
787.74	232.26
788.06	232.27
788.38	232.27
788.71	232.31
789.03	232.27
789.35	232.31
789.67	232.29
789.99	232.40
790.32	232.46
790.64	232.39
790.96	232.45
791.28	232.44
791.61	232.50
