SpectraSuite Data File
++++++++++++++++++++++++++++++++++++
Date: Fri Feb 01 14:36:04 EST 2013
User: group
Dark Spectrum Present: No
Reference Spectrum Present: No
Number of Sampled Component Spectra: 1
Spectrometers: USB2E7196
Integration Time (usec): 70000 (USB2E7196)
Spectra Averaged: 10 (USB2E7196)
Boxcar Smoothing: 10 (USB2E7196)
Correct for Electrical Dark: No (USB2E7196)
Strobe/Lamp Enabled: No (USB2E7196)
Correct for Detector Non-linearity: No (USB2E7196)
Correct for Stray Light: No (USB2E7196)
Number of Pixels in Processed Spectrum: 2048
>>>>>Begin Processed Spectral Data<<<<<
339.09	0.00
339.48	215.90
339.86	217.50
340.24	218.40
340.63	220.90
341.01	224.60
341.39	223.20
341.78	224.60
342.16	226.30
342.54	228.60
342.93	215.10
343.31	225.97
343.69	226.45
344.07	226.94
344.46	227.40
344.84	227.76
345.22	227.97
345.60	228.20
345.99	228.30
346.37	228.43
346.75	228.38
347.13	228.39
347.52	228.38
347.90	228.46
348.28	228.49
348.66	228.48
349.05	228.44
349.43	228.62
349.81	228.55
350.19	228.51
350.57	228.57
350.96	228.60
351.34	228.64
351.72	228.81
352.10	228.79
352.48	228.85
352.87	228.90
353.25	228.88
353.63	228.87
354.01	229.03
354.39	229.09
354.77	229.10
355.15	229.23
355.54	229.25
355.92	229.22
356.30	229.26
356.68	229.45
357.06	229.50
357.44	229.51
357.82	229.61
358.20	229.75
358.58	229.74
358.97	229.79
359.35	229.86
359.73	229.95
360.11	229.96
360.49	230.00
360.87	230.02
361.25	230.06
361.63	230.29
362.01	230.27
362.39	230.20
362.77	230.24
363.15	230.15
363.53	230.20
363.91	230.16
364.29	230.21
364.67	230.01
365.05	229.93
365.43	229.92
365.81	229.92
366.19	230.00
366.57	230.00
366.95	229.86
367.33	229.76
367.71	229.58
368.09	229.64
368.47	229.61
368.85	229.54
369.23	229.54
369.61	229.33
369.99	229.30
370.37	229.30
370.75	229.37
371.13	229.36
371.51	229.24
371.89	229.18
372.27	229.13
372.65	229.08
373.03	229.10
373.41	228.99
373.78	228.94
374.16	228.71
374.54	228.60
374.92	228.53
375.30	228.41
375.68	228.50
376.06	228.40
376.44	228.28
376.82	228.22
377.19	228.25
377.57	228.12
377.95	228.10
378.33	228.10
378.71	227.97
379.09	227.87
379.47	227.89
379.84	227.84
380.22	227.73
380.60	227.58
380.98	227.51
381.36	227.31
381.73	227.16
382.11	227.28
382.49	227.28
382.87	227.20
383.25	227.20
383.62	227.25
384.00	227.26
384.38	227.22
384.76	227.24
385.13	227.22
385.51	227.30
385.89	227.20
386.27	227.16
386.64	227.05
387.02	227.08
387.40	226.95
387.78	226.96
388.15	226.89
388.53	226.93
388.91	226.84
389.29	227.02
389.66	227.14
390.04	226.95
390.42	226.92
390.79	227.00
391.17	227.02
391.55	226.84
391.92	226.83
392.30	226.89
392.68	226.81
393.05	226.71
393.43	226.69
393.81	226.73
394.18	226.63
394.56	226.81
394.94	226.84
395.31	226.86
395.69	226.91
396.06	227.04
396.44	227.13
396.82	227.20
397.19	227.27
397.57	227.30
397.95	227.51
398.32	227.58
398.70	227.64
399.07	227.78
399.45	227.84
399.82	227.96
400.20	228.10
400.58	228.25
400.95	228.37
401.33	228.54
401.70	228.82
402.08	229.02
402.45	229.21
402.83	229.47
403.20	229.78
403.58	229.88
403.95	230.09
404.33	230.27
404.71	230.46
405.08	230.79
405.46	231.00
405.83	231.24
406.21	231.42
406.58	231.69
406.96	231.95
407.33	232.38
407.70	232.69
408.08	233.18
408.45	233.60
408.83	233.98
409.20	234.32
409.58	234.55
409.95	235.16
410.33	235.72
410.70	236.13
411.08	236.72
411.45	237.27
411.82	237.91
412.20	238.67
412.57	239.51
412.95	240.11
413.32	241.00
413.69	241.81
414.07	242.88
414.44	243.88
414.82	244.90
415.19	246.05
415.56	247.29
415.94	248.43
416.31	249.89
416.68	251.34
417.06	252.96
417.43	254.48
417.81	256.07
418.18	257.70
418.55	259.57
418.93	261.50
419.30	263.69
419.67	265.80
420.04	267.94
420.42	270.16
420.79	272.90
421.16	275.59
421.54	278.41
421.91	281.21
422.28	284.20
422.66	287.32
423.03	290.33
423.40	293.54
423.77	296.89
424.15	300.27
424.52	303.80
424.89	307.75
425.26	311.64
425.64	315.32
426.01	319.35
426.38	323.40
426.75	327.44
427.13	331.88
427.50	336.45
427.87	341.18
428.24	345.92
428.61	350.34
428.99	355.38
429.36	360.77
429.73	366.08
430.10	371.27
430.47	376.54
430.85	382.04
431.22	387.91
431.59	394.12
431.96	400.00
432.33	406.73
432.70	412.97
433.08	420.27
433.45	427.29
433.82	434.17
434.19	441.98
434.56	449.56
434.93	456.55
435.30	463.67
435.68	471.56
436.05	479.22
436.42	486.95
436.79	493.90
437.16	501.41
437.53	509.37
437.90	517.27
438.27	525.11
438.64	533.24
439.01	540.57
439.38	547.13
439.75	553.52
440.13	560.68
440.50	567.80
440.87	573.54
441.24	579.47
441.61	586.09
441.98	591.04
442.35	596.60
442.72	602.57
443.09	608.27
443.46	611.91
443.83	614.65
444.20	616.97
444.57	620.24
444.94	622.03
445.31	624.01
445.68	625.82
446.05	627.25
446.42	627.26
446.79	627.30
447.16	627.47
447.53	627.84
447.90	625.89
448.27	623.77
448.64	620.50
449.01	618.54
449.37	614.10
449.74	609.88
450.11	604.92
450.48	599.11
450.85	593.09
451.22	588.11
451.59	583.21
451.96	578.64
452.33	572.11
452.70	566.46
453.07	559.42
453.43	552.25
453.80	545.16
454.17	538.40
454.54	531.89
454.91	524.67
455.28	517.76
455.65	511.38
456.02	504.85
456.38	499.40
456.75	492.30
457.12	486.42
457.49	480.61
457.86	474.95
458.23	470.04
458.59	464.69
458.96	459.18
459.33	454.58
459.70	449.80
460.07	445.94
460.43	441.34
460.80	437.04
461.17	433.28
461.54	429.26
461.91	425.60
462.27	421.77
462.64	418.55
463.01	414.89
463.38	411.31
463.74	407.75
464.11	404.62
464.48	401.77
464.85	398.90
465.21	396.48
465.58	394.07
465.95	391.18
466.32	388.79
466.68	386.39
467.05	383.90
467.42	381.55
467.78	379.02
468.15	376.65
468.52	374.80
468.88	372.50
469.25	370.36
469.62	368.51
469.98	366.79
470.35	364.92
470.72	363.30
471.08	361.44
471.45	359.86
471.82	358.40
472.18	356.78
472.55	355.40
472.92	353.96
473.28	352.53
473.65	351.09
474.02	349.85
474.38	348.69
474.75	347.68
475.11	346.44
475.48	345.46
475.85	344.67
476.21	343.73
476.58	343.10
476.94	342.60
477.31	341.90
477.67	341.16
478.04	340.47
478.41	339.97
478.77	339.77
479.14	339.40
479.50	338.98
479.87	338.86
480.23	338.69
480.60	338.45
480.96	338.38
481.33	338.43
481.69	338.41
482.06	338.44
482.42	338.43
482.79	338.53
483.15	338.87
483.52	339.04
483.88	339.41
484.25	339.62
484.61	339.78
484.98	340.13
485.34	340.62
485.71	341.14
486.07	341.67
486.44	342.02
486.80	342.78
487.17	343.43
487.53	344.15
487.90	345.08
488.26	346.01
488.62	347.04
488.99	347.91
489.35	348.59
489.72	349.56
490.08	350.60
490.44	351.68
490.81	352.80
491.17	353.88
491.54	355.09
491.90	356.22
492.26	357.51
492.63	358.90
492.99	360.18
493.36	361.71
493.72	363.24
494.08	364.74
494.45	366.10
494.81	367.81
495.17	369.38
495.54	370.96
495.90	372.64
496.26	374.15
496.63	375.99
496.99	378.05
497.35	379.80
497.72	381.67
498.08	383.55
498.44	385.34
498.80	387.41
499.17	389.19
499.53	391.20
499.89	393.37
500.26	395.20
500.62	397.00
500.98	398.93
501.34	400.77
501.71	402.70
502.07	404.53
502.43	406.28
502.79	408.19
503.16	409.96
503.52	411.62
503.88	413.23
504.24	414.93
504.60	416.58
504.97	418.43
505.33	419.99
505.69	421.74
506.05	423.43
506.41	424.80
506.78	426.34
507.14	427.72
507.50	428.98
507.86	430.38
508.22	431.96
508.59	433.32
508.95	434.53
509.31	435.93
509.67	437.23
510.03	438.43
510.39	439.58
510.75	440.77
511.12	441.90
511.48	442.97
511.84	444.12
512.20	444.92
512.56	445.86
512.92	446.96
513.28	447.61
513.64	448.32
514.00	449.07
514.37	449.67
514.73	450.36
515.09	451.05
515.45	451.74
515.81	452.10
516.17	452.42
516.53	452.97
516.89	453.38
517.25	453.81
517.61	454.25
517.97	454.39
518.33	454.49
518.69	454.80
519.05	455.27
519.41	455.51
519.77	456.10
520.13	456.38
520.49	456.41
520.85	456.76
521.21	457.07
521.57	457.64
521.93	458.06
522.29	458.52
522.65	458.90
523.01	459.13
523.37	459.69
523.73	460.36
524.09	460.96
524.45	461.40
524.81	461.81
525.17	462.37
525.53	463.16
525.89	464.07
526.25	464.82
526.61	465.39
526.97	466.12
527.33	466.92
527.68	468.10
528.04	469.16
528.40	470.25
528.76	471.42
529.12	472.60
529.48	473.90
529.84	475.13
530.20	476.51
530.56	478.23
530.91	479.73
531.27	481.20
531.63	482.83
531.99	484.47
532.35	486.42
532.71	488.23
533.07	490.20
533.42	492.28
533.78	494.20
534.14	496.45
534.50	498.50
534.86	500.75
535.21	502.67
535.57	505.18
535.93	507.64
536.29	510.04
536.65	512.41
537.00	514.93
537.36	517.69
537.72	520.34
538.08	522.92
538.44	525.55
538.79	528.38
539.15	531.07
539.51	534.02
539.87	537.01
540.22	540.14
540.58	543.24
540.94	546.10
541.29	549.35
541.65	552.40
542.01	555.93
542.37	559.18
542.72	562.50
543.08	565.61
543.44	569.03
543.79	572.36
544.15	576.06
544.51	579.84
544.87	583.20
545.22	586.77
545.58	590.31
545.94	594.05
546.29	597.74
546.65	601.29
547.01	604.74
547.36	608.46
547.72	612.01
548.07	615.54
548.43	619.39
548.79	623.04
549.14	626.73
549.50	630.29
549.86	634.09
550.21	637.83
550.57	641.79
550.92	645.49
551.28	649.35
551.64	652.87
551.99	656.50
552.35	660.33
552.70	664.23
553.06	668.08
553.41	671.72
553.77	675.56
554.13	679.40
554.48	683.42
554.84	687.36
555.19	691.44
555.55	695.54
555.90	699.25
556.26	703.00
556.61	706.67
556.97	710.43
557.32	714.37
557.68	718.27
558.03	722.06
558.39	725.86
558.74	729.55
559.10	733.23
559.45	736.86
559.81	741.04
560.16	744.64
560.52	748.53
560.87	752.46
561.23	756.00
561.58	759.88
561.94	763.38
562.29	766.49
562.64	769.85
563.00	773.44
563.35	777.11
563.71	780.87
564.06	784.87
564.42	788.27
564.77	791.55
565.12	795.00
565.48	798.57
565.83	802.05
566.19	805.72
566.54	809.09
566.89	812.25
567.25	815.09
567.60	818.46
567.96	821.65
568.31	824.68
568.66	828.13
569.02	831.02
569.37	833.92
569.72	836.93
570.08	839.60
570.43	842.04
570.78	844.77
571.14	847.10
571.49	849.21
571.84	852.05
572.20	854.42
572.55	856.70
572.90	858.38
573.26	860.37
573.61	862.07
573.96	864.06
574.31	865.80
574.67	867.24
575.02	868.60
575.37	869.85
575.72	871.09
576.08	872.21
576.43	873.49
576.78	874.90
577.13	876.27
577.49	877.73
577.84	878.81
578.19	879.83
578.54	881.03
578.90	881.96
579.25	882.50
579.60	882.97
579.95	883.46
580.30	884.20
580.66	884.41
581.01	884.79
581.36	885.35
581.71	885.91
582.06	886.59
582.42	887.02
582.77	887.30
583.12	887.62
583.47	887.88
583.82	888.30
584.17	888.26
584.53	888.40
584.88	888.26
585.23	888.53
585.58	888.21
585.93	887.98
586.28	888.02
586.63	888.08
586.98	888.68
587.34	888.97
587.69	888.97
588.04	889.02
588.39	888.93
588.74	888.28
589.09	887.81
589.44	886.95
589.79	886.73
590.14	886.41
590.49	886.10
590.84	885.34
591.19	884.64
591.54	883.62
591.89	882.52
592.25	881.90
592.60	880.79
592.95	879.70
593.30	878.81
593.65	877.69
594.00	876.30
594.35	875.14
594.70	873.33
595.05	872.05
595.40	870.81
595.75	869.56
596.10	868.51
596.45	867.45
596.80	866.79
597.15	865.10
597.50	863.82
597.85	862.21
598.19	861.04
598.54	859.88
598.89	858.83
599.24	857.72
599.59	855.98
599.94	854.68
600.29	853.31
600.64	851.73
600.99	850.20
601.34	848.69
601.69	846.50
602.04	845.15
602.39	843.45
602.74	841.94
603.08	840.64
603.43	839.27
603.78	837.62
604.13	835.75
604.48	834.04
604.83	832.44
605.18	830.98
605.53	829.04
605.87	826.66
606.22	824.88
606.57	822.88
606.92	821.14
607.27	819.40
607.62	817.85
607.96	815.92
608.31	814.20
608.66	812.23
609.01	810.03
609.36	807.60
609.70	805.07
610.05	802.50
610.40	800.09
610.75	797.54
611.10	795.10
611.44	792.59
611.79	790.34
612.14	787.55
612.49	784.79
612.83	782.14
613.18	779.75
613.53	777.22
613.88	774.70
614.22	772.08
614.57	769.16
614.92	766.27
615.27	763.77
615.61	760.89
615.96	758.21
616.31	756.05
616.65	754.09
617.00	751.80
617.35	749.41
617.70	746.68
618.04	744.00
618.39	741.17
618.74	738.43
619.08	735.63
619.43	733.22
619.78	730.70
620.12	728.15
620.47	725.44
620.82	722.73
621.16	720.19
621.51	717.59
621.85	714.86
622.20	712.24
622.55	709.58
622.89	706.90
623.24	704.43
623.59	701.70
623.93	698.99
624.28	696.66
624.62	694.28
624.97	691.98
625.32	689.50
625.66	687.24
626.01	684.78
626.35	682.32
626.70	679.61
627.04	677.19
627.39	674.43
627.73	671.96
628.08	669.54
628.43	666.73
628.77	664.22
629.12	661.58
629.46	659.14
629.81	656.34
630.15	653.76
630.50	651.06
630.84	648.08
631.19	645.16
631.53	642.28
631.88	639.17
632.22	635.87
632.57	633.35
632.91	630.76
633.26	628.09
633.60	625.33
633.95	622.82
634.29	620.11
634.64	617.77
634.98	615.13
635.32	612.71
635.67	610.50
636.01	607.95
636.36	605.74
636.70	603.20
637.05	600.87
637.39	598.54
637.73	596.20
638.08	594.23
638.42	592.29
638.77	590.05
639.11	587.80
639.45	585.73
639.80	583.11
640.14	580.61
640.49	578.45
640.83	576.28
641.17	573.83
641.52	571.48
641.86	568.98
642.20	566.86
642.55	564.25
642.89	561.71
643.23	559.29
643.58	557.01
643.92	554.59
644.26	552.38
644.61	550.12
644.95	547.90
645.29	545.36
645.64	542.52
645.98	540.12
646.32	538.03
646.66	535.60
647.01	533.38
647.35	531.15
647.69	528.93
648.04	526.79
648.38	524.32
648.72	521.88
649.06	519.56
649.41	517.00
649.75	514.59
650.09	512.28
650.43	509.91
650.78	507.37
651.12	505.10
651.46	502.74
651.80	500.40
652.14	497.98
652.49	495.92
652.83	493.81
653.17	491.48
653.51	489.00
653.85	486.70
654.20	484.39
654.54	481.94
654.88	479.52
655.22	477.01
655.56	474.71
655.90	472.53
656.25	470.40
656.59	468.41
656.93	466.49
657.27	464.37
657.61	462.19
657.95	460.19
658.29	458.16
658.64	456.06
658.98	453.77
659.32	451.53
659.66	449.25
660.00	446.98
660.34	444.87
660.68	442.94
661.02	441.00
661.36	439.00
661.70	437.08
662.05	435.29
662.39	433.48
662.73	431.80
663.07	429.99
663.41	428.24
663.75	426.48
664.09	424.59
664.43	422.81
664.77	421.16
665.11	419.43
665.45	417.70
665.79	416.04
666.13	414.47
666.47	412.96
666.81	411.23
667.15	409.62
667.49	408.05
667.83	406.38
668.17	404.80
668.51	403.14
668.85	401.58
669.19	400.01
669.53	398.43
669.87	396.75
670.21	395.33
670.55	393.82
670.89	392.44
671.23	391.09
671.57	389.53
671.91	388.14
672.25	386.58
672.58	385.11
672.92	383.65
673.26	382.33
673.60	380.88
673.94	379.72
674.28	378.67
674.62	377.51
674.96	376.23
675.30	374.96
675.64	373.65
675.97	372.45
676.31	371.03
676.65	369.74
676.99	368.73
677.33	367.35
677.67	366.06
678.01	364.69
678.34	363.33
678.68	362.13
679.02	360.80
679.36	359.65
679.70	358.36
680.04	357.15
680.37	355.87
680.71	354.73
681.05	353.53
681.39	352.22
681.73	351.00
682.06	349.95
682.40	348.84
682.74	347.85
683.08	346.78
683.42	345.64
683.75	344.62
684.09	343.34
684.43	342.23
684.77	340.97
685.10	339.68
685.44	338.64
685.78	337.53
686.12	336.43
686.45	335.36
686.79	334.34
687.13	333.40
687.46	332.40
687.80	331.37
688.14	330.16
688.48	329.19
688.81	328.17
689.15	327.10
689.49	326.11
689.82	325.15
690.16	324.02
690.50	323.07
690.83	322.07
691.17	321.00
691.51	320.05
691.84	319.24
692.18	318.33
692.52	317.34
692.85	316.44
693.19	315.67
693.52	314.71
693.86	313.82
694.20	312.80
694.53	311.86
694.87	310.95
695.21	310.09
695.54	309.18
695.88	308.20
696.21	307.22
696.55	306.25
696.88	305.25
697.22	304.37
697.56	303.53
697.89	302.60
698.23	301.94
698.56	301.17
698.90	300.45
699.23	299.53
699.57	298.81
699.90	298.06
700.24	297.09
700.58	296.23
700.91	295.33
701.25	294.65
701.58	294.05
701.92	293.24
702.25	292.60
702.59	291.87
702.92	291.16
703.26	290.68
703.59	290.05
703.93	289.71
704.26	289.17
704.60	288.52
704.93	287.76
705.26	287.13
705.60	286.55
705.93	286.03
706.27	285.65
706.60	284.99
706.94	284.54
707.27	283.95
707.61	283.51
707.94	283.20
708.27	282.55
708.61	281.93
708.94	281.44
709.28	280.84
709.61	280.28
709.94	279.77
710.28	279.24
710.61	278.68
710.95	277.88
711.28	277.31
711.61	276.68
711.95	276.45
712.28	275.88
712.61	275.30
712.95	274.79
713.28	274.25
713.61	273.76
713.95	273.09
714.28	272.60
714.61	272.09
714.95	271.55
715.28	271.06
715.61	270.54
715.95	270.01
716.28	269.62
716.61	269.30
716.95	268.87
717.28	268.35
717.61	268.00
717.94	267.69
718.28	267.21
718.61	266.92
718.94	266.36
719.27	265.98
719.61	265.58
719.94	265.17
720.27	264.69
720.60	264.39
720.94	264.15
721.27	263.88
721.60	263.57
721.93	263.18
722.27	262.94
722.60	262.60
722.93	262.37
723.26	262.12
723.59	261.68
723.93	261.41
724.26	261.22
724.59	260.90
724.92	260.48
725.25	260.29
725.59	260.00
725.92	259.73
726.25	259.48
726.58	259.23
726.91	258.96
727.24	258.87
727.57	258.53
727.91	258.13
728.24	257.82
728.57	257.47
728.90	257.18
729.23	256.83
729.56	256.69
729.89	256.41
730.22	256.06
730.55	255.77
730.89	255.48
731.22	255.20
731.55	254.76
731.88	254.44
732.21	254.06
732.54	253.63
732.87	253.42
733.20	253.10
733.53	252.80
733.86	252.46
734.19	252.09
734.52	251.93
734.85	251.85
735.18	251.58
735.51	251.44
735.84	251.37
736.17	251.17
736.50	250.77
736.83	250.64
737.16	250.34
737.49	250.15
737.82	250.00
738.15	249.68
738.48	249.50
738.81	249.31
739.14	249.08
739.47	249.02
739.80	248.78
740.13	248.53
740.46	248.40
740.79	248.20
741.12	248.01
741.45	247.68
741.78	247.35
742.11	247.24
742.44	246.92
742.77	246.61
743.10	246.44
743.43	246.22
743.75	245.87
744.08	246.06
744.41	245.79
744.74	245.48
745.07	245.33
745.40	245.28
745.73	245.14
746.06	245.00
746.39	244.77
746.71	244.50
747.04	244.38
747.37	244.13
747.70	243.97
748.03	243.74
748.36	243.63
748.68	243.54
749.01	243.36
749.34	243.24
749.67	243.06
750.00	242.83
750.33	242.97
750.65	242.84
750.98	242.45
751.31	242.40
751.64	242.21
751.97	242.05
752.29	241.73
752.62	241.55
752.95	241.45
753.28	241.37
753.60	241.35
753.93	241.18
754.26	241.07
754.59	240.89
754.91	240.72
755.24	240.55
755.57	240.23
755.90	240.09
756.22	239.94
756.55	239.70
756.88	239.54
757.20	239.20
757.53	239.00
757.86	238.80
758.19	238.66
758.51	238.60
758.84	238.49
759.17	238.54
759.49	238.48
759.82	238.41
760.15	238.31
760.47	238.21
760.80	238.12
761.13	238.05
761.45	237.97
761.78	237.87
762.11	237.82
762.43	237.94
762.76	237.85
763.08	237.73
763.41	237.78
763.74	237.70
764.06	237.64
764.39	237.62
764.71	237.48
765.04	237.48
765.37	237.41
765.69	237.29
766.02	237.18
766.34	237.07
766.67	236.92
767.00	236.86
767.32	236.85
767.65	236.88
767.97	236.72
768.30	236.65
768.62	236.54
768.95	236.47
769.27	236.23
769.60	236.14
769.92	236.12
770.25	236.02
770.57	235.93
770.90	235.76
771.22	235.68
771.55	235.74
771.87	235.55
772.20	235.45
772.52	235.48
772.85	235.63
773.17	235.52
773.50	235.39
773.82	235.31
774.15	235.03
774.47	234.79
774.80	234.74
775.12	234.66
775.45	234.55
775.77	234.52
776.09	234.46
776.42	234.42
776.74	234.42
777.07	234.28
777.39	234.23
777.72	234.19
778.04	234.10
778.36	233.85
778.69	233.83
779.01	233.69
779.33	233.54
779.66	233.09
779.98	233.04
780.31	232.99
780.63	232.82
780.95	232.94
781.28	232.84
781.60	232.77
781.92	232.61
782.25	232.60
782.57	232.40
782.89	232.33
783.22	232.19
783.54	232.04
783.86	232.13
784.19	232.05
784.51	232.01
784.83	231.92
785.16	231.89
785.48	231.88
785.80	231.90
786.12	231.75
786.45	231.87
786.77	231.84
787.09	231.77
787.42	231.87
787.74	231.67
788.06	231.70
788.38	231.57
788.71	231.60
789.03	231.65
789.35	231.69
789.67	231.63
789.99	231.72
790.32	231.60
790.64	231.47
790.96	231.60
791.28	231.46
791.61	231.40
791.93	231.37
792.25	231.25
792.57	231.27
792.89	231.29
793.21	231.20
793.54	231.09
793.86	231.07
794.18	230.91
