SpectraSuite Data File
++++++++++++++++++++++++++++++++++++
Date: Fri Feb 01 14:36:29 EST 2013
User: group
Dark Spectrum Present: No
Reference Spectrum Present: No
Number of Sampled Component Spectra: 1
Spectrometers: USB2E7196
Integration Time (usec): 70000 (USB2E7196)
Spectra Averaged: 10 (USB2E7196)
Boxcar Smoothing: 10 (USB2E7196)
Correct for Electrical Dark: No (USB2E7196)
Strobe/Lamp Enabled: No (USB2E7196)
Correct for Detector Non-linearity: No (USB2E7196)
Correct for Stray Light: No (USB2E7196)
Number of Pixels in Processed Spectrum: 2048
>>>>>Begin Processed Spectral Data<<<<<
339.09	0.00
339.48	215.10
339.86	217.80
340.24	218.50
340.63	221.20
341.01	225.40
341.39	224.10
341.78	225.40
342.16	227.10
342.54	226.90
342.93	214.48
343.31	225.27
343.69	225.91
344.07	226.35
344.46	226.83
344.84	227.13
345.22	227.22
345.60	227.36
345.99	227.50
346.37	227.62
346.75	227.72
347.13	227.84
347.52	227.96
347.90	228.05
348.28	228.13
348.66	228.29
349.05	228.33
349.43	228.32
349.81	228.36
350.19	228.32
350.57	228.45
350.96	228.63
351.34	228.78
351.72	228.87
352.10	228.94
352.48	228.97
352.87	229.02
353.25	229.16
353.63	229.32
354.01	229.40
354.39	229.35
354.77	229.48
355.15	229.67
355.54	229.70
355.92	229.68
356.30	229.79
356.68	230.04
357.06	230.04
357.44	230.12
357.82	230.27
358.20	230.46
358.58	230.34
358.97	230.38
359.35	230.49
359.73	230.50
360.11	230.53
360.49	230.57
360.87	230.72
361.25	230.76
361.63	230.82
362.01	230.85
362.39	230.97
362.77	231.00
363.15	230.89
363.53	230.94
363.91	230.99
364.29	230.94
364.67	230.73
365.05	230.81
365.43	230.86
365.81	230.80
366.19	230.80
366.57	230.93
366.95	230.92
367.33	230.69
367.71	230.71
368.09	230.77
368.47	230.85
368.85	230.66
369.23	230.62
369.61	230.51
369.99	230.52
370.37	230.41
370.75	230.31
371.13	230.21
371.51	230.11
371.89	230.18
372.27	230.19
372.65	230.10
373.03	229.99
373.41	229.81
373.78	229.72
374.16	229.61
374.54	229.51
374.92	229.36
375.30	229.32
375.68	229.16
376.06	229.07
376.44	228.84
376.82	228.87
377.19	228.81
377.57	228.61
377.95	228.44
378.33	228.33
378.71	228.16
379.09	228.12
379.47	227.96
379.84	227.75
380.22	227.61
380.60	227.57
380.98	227.50
381.36	227.45
381.73	227.34
382.11	227.23
382.49	227.10
382.87	227.12
383.25	227.16
383.62	227.43
384.00	227.34
384.38	227.34
384.76	227.28
385.13	227.29
385.51	227.37
385.89	227.25
386.27	227.20
386.64	227.25
387.02	227.21
387.40	227.18
387.78	227.13
388.15	227.08
388.53	226.96
388.91	227.02
389.29	226.96
389.66	226.99
390.04	226.97
390.42	227.05
390.79	226.96
391.17	226.97
391.55	226.71
391.92	226.75
392.30	226.69
392.68	226.64
393.05	226.65
393.43	226.63
393.81	226.70
394.18	226.70
394.56	226.60
394.94	226.71
395.31	226.78
395.69	226.94
396.06	227.00
396.44	227.17
396.82	227.17
397.19	227.34
397.57	227.38
397.95	227.58
398.32	227.60
398.70	227.77
399.07	227.94
399.45	228.01
399.82	228.16
400.20	228.30
400.58	228.44
400.95	228.43
401.33	228.62
401.70	228.97
402.08	229.16
402.45	229.37
402.83	229.51
403.20	229.66
403.58	229.68
403.95	229.92
404.33	230.07
404.71	230.27
405.08	230.65
405.46	230.92
405.83	231.12
406.21	231.30
406.58	231.56
406.96	231.75
407.33	232.07
407.70	232.39
408.08	232.89
408.45	233.37
408.83	233.79
409.20	234.16
409.58	234.56
409.95	235.17
410.33	235.65
410.70	236.12
411.08	236.74
411.45	237.27
411.82	237.79
412.20	238.54
412.57	239.28
412.95	239.81
413.32	240.54
413.69	241.30
414.07	242.21
414.44	243.10
414.82	244.05
415.19	244.93
415.56	245.95
415.94	246.92
416.31	248.08
416.68	249.30
417.06	250.65
417.43	251.82
417.81	253.27
418.18	254.93
418.55	256.64
418.93	258.39
419.30	260.32
419.67	262.34
420.04	264.21
420.42	266.27
420.79	268.68
421.16	271.09
421.54	273.55
421.91	276.02
422.28	278.66
422.66	281.54
423.03	284.45
423.40	287.26
423.77	290.37
424.15	293.60
424.52	296.90
424.89	300.33
425.26	303.87
425.64	306.97
426.01	310.45
426.38	314.08
426.75	317.92
427.13	321.67
427.50	325.69
427.87	329.91
428.24	334.23
428.61	338.40
428.99	342.83
429.36	347.72
429.73	352.58
430.10	357.23
430.47	362.06
430.85	367.00
431.22	372.30
431.59	377.96
431.96	383.14
432.33	388.90
432.70	394.75
433.08	401.30
433.45	407.70
433.82	413.96
434.19	421.06
434.56	427.85
434.93	434.50
435.30	441.18
435.68	448.63
436.05	455.52
436.42	462.31
436.79	468.67
437.16	475.50
437.53	482.63
437.90	489.97
438.27	496.93
438.64	504.15
439.01	510.82
439.38	516.97
439.75	522.92
440.13	529.69
440.50	535.86
440.87	541.37
441.24	546.91
441.61	553.08
441.98	557.61
442.35	562.79
442.72	568.08
443.09	573.25
443.46	576.45
443.83	578.82
444.20	581.02
444.57	584.11
444.94	585.77
445.31	587.62
445.68	589.30
446.05	590.58
446.42	590.81
446.79	590.85
447.16	590.50
447.53	590.52
447.90	588.85
448.27	587.15
448.64	583.93
449.01	582.06
449.37	577.87
449.74	573.88
450.11	569.14
450.48	564.06
450.85	558.48
451.22	553.81
451.59	549.73
451.96	545.62
452.33	539.81
452.70	534.62
453.07	528.15
453.43	521.55
453.80	515.20
454.17	509.21
454.54	503.34
454.91	497.14
455.28	491.10
455.65	485.33
456.02	479.58
456.38	474.64
456.75	468.29
457.12	463.21
457.49	457.94
457.86	452.79
458.23	448.30
458.59	443.43
458.96	438.36
459.33	433.88
459.70	429.50
460.07	425.76
460.43	421.69
460.80	417.89
461.17	414.42
461.54	410.72
461.91	406.96
462.27	403.53
462.64	400.42
463.01	397.01
463.38	393.69
463.74	390.19
464.11	387.19
464.48	384.42
464.85	381.60
465.21	379.45
465.58	377.21
465.95	374.41
466.32	372.01
466.68	369.95
467.05	367.70
467.42	365.30
467.78	363.04
468.15	360.80
468.52	359.02
468.88	356.85
469.25	354.87
469.62	353.52
469.98	351.73
470.35	350.07
470.72	348.53
471.08	346.88
471.45	345.57
471.82	344.24
472.18	342.80
472.55	341.48
472.92	340.13
473.28	338.89
473.65	337.73
474.02	336.71
474.38	335.66
474.75	334.61
475.11	333.72
475.48	333.04
475.85	332.21
476.21	331.47
476.58	330.90
476.94	330.37
477.31	329.60
477.67	328.89
478.04	328.35
478.41	327.90
478.77	327.60
479.14	327.07
479.50	326.82
479.87	326.65
480.23	326.54
480.60	326.29
480.96	326.11
481.33	326.19
481.69	326.07
482.06	325.99
482.42	325.86
482.79	325.87
483.15	325.86
483.52	326.10
483.88	326.20
484.25	326.30
484.61	326.40
484.98	326.74
485.34	327.36
485.71	327.85
486.07	328.29
486.44	328.60
486.80	329.08
487.17	329.70
487.53	330.36
487.90	330.98
488.26	331.67
488.62	332.32
488.99	332.80
489.35	333.67
489.72	334.53
490.08	335.53
490.44	336.40
490.81	337.41
491.17	338.30
491.54	339.46
491.90	340.50
492.26	341.79
492.63	342.88
492.99	343.99
493.36	345.19
493.72	346.31
494.08	347.63
494.45	348.97
494.81	350.15
495.17	351.43
495.54	352.91
495.90	354.23
496.26	355.69
496.63	357.22
496.99	358.56
497.35	359.95
497.72	361.36
498.08	362.71
498.44	364.09
498.80	365.66
499.17	367.01
499.53	368.61
499.89	369.96
500.26	371.27
500.62	372.64
500.98	374.12
501.34	375.48
501.71	376.79
502.07	378.21
502.43	379.49
502.79	380.86
503.16	381.97
503.52	383.30
503.88	384.53
504.24	385.83
504.60	387.07
504.97	388.20
505.33	389.37
505.69	390.70
506.05	391.90
506.41	392.83
506.78	393.79
507.14	394.68
507.50	395.60
507.86	396.58
508.22	397.44
508.59	398.24
508.95	399.17
509.31	399.94
509.67	400.65
510.03	401.41
510.39	401.95
510.75	402.55
511.12	403.11
511.48	403.59
511.84	404.05
512.20	404.53
512.56	404.91
512.92	405.39
513.28	405.82
513.64	405.96
514.00	406.29
514.37	406.51
514.73	406.75
515.09	407.10
515.45	407.18
515.81	407.32
516.17	407.49
516.53	407.78
516.89	408.08
517.25	408.15
517.61	408.36
517.97	408.48
518.33	408.68
518.69	408.99
519.05	409.27
519.41	409.52
519.77	409.88
520.13	410.20
520.49	410.33
520.85	410.39
521.21	410.66
521.57	411.08
521.93	411.41
522.29	411.81
522.65	412.19
523.01	412.53
523.37	412.91
523.73	413.24
524.09	413.57
524.45	414.00
524.81	414.91
525.17	415.70
525.53	416.36
525.89	417.16
526.25	417.89
526.61	418.58
526.97	419.30
527.33	420.17
527.68	421.28
528.04	422.46
528.40	423.56
528.76	425.06
529.12	426.15
529.48	427.65
529.84	429.12
530.20	430.65
530.56	432.59
530.91	434.50
531.27	436.34
531.63	438.02
531.99	439.74
532.35	441.52
532.71	443.34
533.07	445.64
533.42	447.88
533.78	449.89
534.14	452.18
534.50	454.45
534.86	456.89
535.21	459.11
535.57	461.68
535.93	464.39
536.29	466.99
536.65	469.83
537.00	472.38
537.36	475.14
537.72	477.95
538.08	480.68
538.44	483.42
538.79	486.37
539.15	489.47
539.51	492.80
539.87	495.98
540.22	499.24
540.58	502.54
540.94	505.80
541.29	509.30
541.65	512.91
542.01	516.51
542.37	519.98
542.72	523.70
543.08	527.04
543.44	530.66
543.79	533.99
544.15	537.86
544.51	541.86
544.87	545.59
545.22	549.50
545.58	553.21
545.94	557.01
546.29	560.93
546.65	565.00
547.01	568.83
547.36	572.43
547.72	576.25
548.07	580.05
548.43	583.90
548.79	588.04
549.14	591.89
549.50	595.88
549.86	599.86
550.21	603.65
550.57	607.81
550.92	611.83
551.28	615.98
551.64	619.95
551.99	624.01
552.35	628.13
552.70	632.16
553.06	636.60
553.41	640.70
553.77	644.86
554.13	648.92
554.48	653.20
554.84	657.76
555.19	661.70
555.55	665.98
555.90	670.10
556.26	674.00
556.61	678.08
556.97	681.96
557.32	685.97
557.68	690.22
558.03	694.33
558.39	698.36
558.74	702.41
559.10	706.50
559.45	710.46
559.81	714.67
560.16	718.54
560.52	722.29
560.87	726.40
561.23	730.23
561.58	734.35
561.94	738.10
562.29	741.39
562.64	745.48
563.00	749.17
563.35	753.22
563.71	757.13
564.06	761.05
564.42	764.80
564.77	768.43
565.12	772.22
565.48	775.95
565.83	779.38
566.19	783.26
566.54	786.46
566.89	789.88
567.25	793.10
567.60	796.94
567.96	800.51
568.31	803.80
568.66	807.20
569.02	810.28
569.37	813.36
569.72	816.72
570.08	819.72
570.43	822.55
570.78	825.38
571.14	827.94
571.49	830.40
571.84	833.56
572.20	836.39
572.55	838.65
572.90	840.85
573.26	843.60
573.61	845.64
573.96	848.23
574.31	850.07
574.67	851.79
575.02	853.16
575.37	854.62
575.72	856.14
576.08	857.72
576.43	859.26
576.78	860.80
577.13	862.40
577.49	863.74
577.84	865.25
578.19	866.43
578.54	867.68
578.90	868.90
579.25	869.49
579.60	870.26
579.95	871.19
580.30	871.88
580.66	872.38
581.01	872.93
581.36	873.25
581.71	874.03
582.06	874.67
582.42	875.13
582.77	875.69
583.12	876.44
583.47	876.95
583.82	877.59
584.17	877.98
584.53	878.28
584.88	878.55
585.23	878.84
585.58	879.13
585.93	879.24
586.28	879.49
586.63	879.68
586.98	879.71
587.34	879.94
587.69	880.22
588.04	880.35
588.39	880.50
588.74	880.39
589.09	880.35
589.44	879.92
589.79	879.70
590.14	879.73
590.49	878.87
590.84	878.02
591.19	877.30
591.54	876.44
591.89	875.50
592.25	874.90
592.60	873.84
592.95	872.86
593.30	872.02
593.65	870.92
594.00	869.82
594.35	869.43
594.70	868.00
595.05	866.72
595.40	865.32
595.75	863.85
596.10	862.85
596.45	861.51
596.80	860.79
597.15	859.75
597.50	858.15
597.85	857.50
598.19	856.62
598.54	855.22
598.89	854.31
599.24	853.35
599.59	851.84
599.94	850.61
600.29	849.16
600.64	847.81
600.99	846.09
601.34	844.80
601.69	842.70
602.04	841.18
602.39	839.80
602.74	838.70
603.08	837.57
603.43	836.00
603.78	834.73
604.13	833.13
604.48	831.37
604.83	829.85
605.18	828.04
605.53	826.02
605.87	823.97
606.22	822.10
606.57	820.13
606.92	818.39
607.27	816.83
607.62	815.29
607.96	813.50
608.31	811.95
608.66	810.16
609.01	808.15
609.36	806.12
609.70	804.00
610.05	801.79
610.40	799.46
610.75	797.06
611.10	794.43
611.44	791.90
611.79	789.91
612.14	787.66
612.49	785.00
612.83	782.77
613.18	780.61
613.53	778.14
613.88	775.66
614.22	773.28
614.57	770.41
614.92	767.65
615.27	764.98
615.61	762.21
615.96	759.49
616.31	757.10
616.65	754.96
617.00	752.73
617.35	750.04
617.70	747.40
618.04	744.78
618.39	742.46
618.74	740.11
619.08	737.34
619.43	734.84
619.78	732.46
620.12	729.85
620.47	727.27
620.82	724.58
621.16	722.02
621.51	719.76
621.85	717.33
622.20	714.69
622.55	712.29
622.89	710.01
623.24	707.49
623.59	705.07
623.93	702.74
624.28	699.93
624.62	697.74
624.97	695.56
625.32	693.42
625.66	691.11
626.01	688.52
626.35	686.10
626.70	683.49
627.04	681.16
627.39	678.64
627.73	676.38
628.08	673.93
628.43	671.44
628.77	668.61
629.12	665.96
629.46	663.60
629.81	660.97
630.15	658.39
630.50	655.80
630.84	653.19
631.19	650.08
631.53	647.39
631.88	644.27
632.22	641.06
632.57	638.38
632.91	635.54
633.26	632.94
633.60	630.09
633.95	627.44
634.29	624.85
634.64	622.30
634.98	619.60
635.32	617.30
635.67	615.11
636.01	612.72
636.36	610.41
636.70	608.12
637.05	605.74
637.39	603.29
637.73	601.03
638.08	598.70
638.42	596.60
638.77	594.32
639.11	592.05
639.45	589.99
639.80	587.32
640.14	584.95
640.49	582.71
640.83	580.38
641.17	577.97
641.52	575.44
641.86	573.00
642.20	570.67
642.55	568.05
642.89	565.46
643.23	562.75
643.58	560.52
643.92	557.85
644.26	555.56
644.61	553.37
644.95	550.86
645.29	548.15
645.64	545.74
645.98	543.36
646.32	541.10
646.66	538.78
647.01	536.55
647.35	534.36
647.69	531.89
648.04	529.90
648.38	527.56
648.72	524.96
649.06	522.58
649.41	520.24
649.75	517.89
650.09	515.40
650.43	513.28
650.78	510.59
651.12	508.26
651.46	505.92
651.80	503.55
652.14	501.26
652.49	499.11
652.83	496.71
653.17	494.37
653.51	492.02
653.85	489.71
654.20	487.29
654.54	484.81
654.88	482.44
655.22	479.75
655.56	477.46
655.90	475.41
656.25	473.37
656.59	470.94
656.93	468.97
657.27	467.00
657.61	464.68
657.95	462.73
658.29	460.57
658.64	458.27
658.98	455.98
659.32	453.77
659.66	451.68
660.00	449.74
660.34	447.70
660.68	445.55
661.02	443.56
661.36	441.91
661.70	440.07
662.05	438.34
662.39	436.77
662.73	434.94
663.07	433.33
663.41	431.54
663.75	429.96
664.09	428.07
664.43	426.31
664.77	424.85
665.11	423.34
665.45	421.72
665.79	420.20
666.13	418.40
666.47	416.70
666.81	414.90
667.15	413.03
667.49	411.34
667.83	409.85
668.17	408.09
668.51	406.29
668.85	404.60
669.19	403.04
669.53	401.27
669.87	399.55
670.21	397.93
670.55	396.33
670.89	394.87
671.23	393.40
671.57	391.71
671.91	390.00
672.25	388.23
672.58	386.88
672.92	385.19
673.26	384.12
673.60	382.78
673.94	381.48
674.28	380.33
674.62	379.09
674.96	377.76
675.30	376.61
675.64	375.37
675.97	374.10
676.31	372.70
676.65	371.44
676.99	370.33
677.33	368.87
677.67	367.48
678.01	366.07
678.34	364.69
678.68	363.62
679.02	362.39
679.36	361.14
679.70	359.75
680.04	358.65
680.37	357.16
680.71	355.95
681.05	354.80
681.39	353.56
681.73	352.42
682.06	351.35
682.40	350.16
682.74	349.04
683.08	347.91
683.42	346.68
683.75	345.47
684.09	344.32
684.43	343.30
684.77	342.25
685.10	341.24
685.44	340.18
685.78	338.95
686.12	337.91
686.45	336.88
686.79	335.75
687.13	334.76
687.46	333.68
687.80	332.63
688.14	331.42
688.48	330.31
688.81	329.24
689.15	328.14
689.49	327.02
689.82	325.95
690.16	324.87
690.50	323.87
690.83	322.92
691.17	321.77
691.51	320.74
691.84	319.90
692.18	318.85
692.52	317.83
692.85	316.87
693.19	315.89
693.52	314.90
693.86	314.03
694.20	313.10
694.53	312.27
694.87	311.30
695.21	310.56
695.54	309.71
695.88	308.75
696.21	307.89
696.55	307.07
696.88	306.24
697.22	305.52
697.56	304.80
697.89	304.02
698.23	303.37
698.56	302.64
698.90	301.70
699.23	300.80
699.57	300.01
699.90	299.31
700.24	298.43
700.58	297.66
700.91	296.92
701.25	296.21
701.58	295.53
701.92	294.91
702.25	294.17
702.59	293.38
702.92	292.66
703.26	291.96
703.59	291.25
703.93	290.65
704.26	289.87
704.60	289.26
704.93	288.49
705.26	287.76
705.60	287.15
705.93	286.66
706.27	286.23
706.60	285.72
706.94	285.10
707.27	284.58
707.61	284.09
707.94	283.45
708.27	282.73
708.61	282.09
708.94	281.51
709.28	281.00
709.61	280.49
709.94	279.98
710.28	279.37
710.61	278.83
710.95	278.09
711.28	277.83
711.61	277.29
711.95	276.84
712.28	276.35
712.61	275.74
712.95	275.13
713.28	274.54
713.61	273.97
713.95	273.50
714.28	273.03
714.61	272.47
714.95	271.96
715.28	271.44
715.61	270.91
715.95	270.45
716.28	269.81
716.61	269.49
716.95	269.12
717.28	268.74
717.61	268.36
717.94	267.96
718.28	267.26
718.61	266.70
718.94	266.17
719.27	265.70
719.61	265.28
719.94	264.98
720.27	264.55
720.60	264.12
720.94	263.63
721.27	263.20
721.60	262.89
721.93	262.57
722.27	262.36
722.60	262.09
722.93	261.71
723.26	261.55
723.59	260.97
723.93	260.55
724.26	260.18
724.59	259.71
724.92	259.47
725.25	259.25
725.59	259.00
725.92	258.72
726.25	258.46
726.58	258.14
726.91	257.78
727.24	257.59
727.57	257.32
727.91	257.09
728.24	256.93
728.57	256.65
728.90	256.36
729.23	256.05
729.56	255.84
729.89	255.53
730.22	255.24
730.55	255.04
730.89	254.74
731.22	254.50
731.55	254.31
731.88	254.10
732.21	253.81
732.54	253.51
732.87	253.35
733.20	253.10
733.53	252.86
733.86	252.62
734.19	252.32
734.52	252.03
734.85	251.88
735.18	251.50
735.51	251.28
735.84	251.19
736.17	250.88
736.50	250.59
736.83	250.73
737.16	250.51
737.49	250.27
737.82	250.13
738.15	249.95
738.48	249.75
738.81	249.49
739.14	249.23
739.47	249.10
739.80	248.89
740.13	248.73
740.46	248.54
740.79	248.22
741.12	248.10
741.45	247.92
741.78	247.64
742.11	247.68
742.44	247.35
742.77	247.15
743.10	246.95
743.43	246.82
743.75	246.32
744.08	246.41
744.41	246.33
744.74	246.06
745.07	245.87
745.40	245.75
745.73	245.56
746.06	245.45
746.39	245.26
746.71	245.03
747.04	244.91
747.37	244.77
747.70	244.80
748.03	244.53
748.36	244.48
748.68	244.21
749.01	243.94
749.34	243.84
749.67	243.64
750.00	243.60
750.33	243.47
750.65	243.26
750.98	242.76
751.31	242.57
751.64	242.46
751.97	242.47
752.29	242.28
752.62	242.13
752.95	241.91
753.28	241.83
753.60	241.69
753.93	241.54
754.26	241.21
754.59	240.95
754.91	240.78
755.24	240.45
755.57	240.36
755.90	240.20
756.22	240.07
756.55	239.89
756.88	239.66
757.20	239.44
757.53	239.39
757.86	239.33
758.19	239.23
758.51	239.11
758.84	238.83
759.17	238.60
759.49	238.37
759.82	238.42
760.15	238.20
760.47	238.16
760.80	237.92
761.13	238.04
761.45	237.90
761.78	237.82
762.11	237.88
762.43	237.85
762.76	237.70
763.08	237.62
763.41	237.53
763.74	237.50
764.06	237.46
764.39	237.38
764.71	237.19
765.04	237.08
765.37	237.02
765.69	236.94
766.02	236.96
766.34	236.95
766.67	236.70
767.00	236.73
767.32	236.63
767.65	236.65
767.97	236.49
768.30	236.42
768.62	236.28
768.95	236.12
769.27	235.95
769.60	235.88
769.92	235.75
770.25	235.58
770.57	235.30
770.90	235.11
771.22	234.94
771.55	234.93
771.87	234.83
772.20	234.74
772.52	234.74
772.85	234.78
773.17	234.74
773.50	234.70
773.82	234.55
774.15	234.50
774.47	234.36
774.80	234.30
775.12	234.27
775.45	234.26
775.77	234.13
776.09	234.10
776.42	234.02
776.74	234.02
777.07	234.03
777.39	234.04
777.72	233.86
778.04	233.90
778.36	233.80
778.69	233.79
779.01	233.71
779.33	233.54
779.66	233.33
779.98	233.20
780.31	233.10
780.63	233.21
780.95	233.15
781.28	233.13
781.60	233.06
781.92	232.98
782.25	232.92
782.57	232.96
782.89	232.88
783.22	232.80
783.54	232.71
783.86	232.60
784.19	232.65
784.51	232.72
784.83	232.59
785.16	232.52
785.48	232.50
785.80	232.57
786.12	232.52
786.45	232.51
786.77	232.56
787.09	232.57
787.42	232.32
787.74	232.25
788.06	232.23
788.38	232.26
788.71	232.29
789.03	232.23
789.35	232.25
789.67	232.22
789.99	232.30
790.32	232.29
790.64	232.37
790.96	232.41
791.28	232.45
791.61	232.46
791.93	232.56
792.25	232.50
792.57	232.52
792.89	232.49
793.21	232.40
793.54	232.26
793.86	232.15
794.18	232.22
