SpectraSuite Data File
++++++++++++++++++++++++++++++++++++
Date: Fri Feb 01 14:38:23 EST 2013
User: group
Dark Spectrum Present: No
Reference Spectrum Present: No
Number of Sampled Component Spectra: 1
Spectrometers: USB2E7196
Integration Time (usec): 70000 (USB2E7196)
Spectra Averaged: 10 (USB2E7196)
Boxcar Smoothing: 10 (USB2E7196)
Correct for Electrical Dark: No (USB2E7196)
Strobe/Lamp Enabled: No (USB2E7196)
Correct for Detector Non-linearity: No (USB2E7196)
Correct for Stray Light: No (USB2E7196)
Number of Pixels in Processed Spectrum: 2048
>>>>>Begin Processed Spectral Data<<<<<
339.09	0.00
339.48	217.30
339.86	218.00
340.24	218.60
340.63	220.90
341.01	226.60
341.39	224.90
341.78	223.70
342.16	226.10
342.54	226.80
342.93	214.87
343.31	225.75
343.69	226.14
344.07	226.50
344.46	226.97
344.84	227.33
345.22	227.40
345.60	227.56
345.99	227.80
346.37	227.93
346.75	227.90
347.13	227.98
347.52	228.09
347.90	228.15
348.28	228.08
348.66	228.14
349.05	228.04
349.43	228.10
349.81	228.08
350.19	227.94
350.57	228.03
350.96	228.00
351.34	228.08
351.72	228.18
352.10	228.35
352.48	228.42
352.87	228.50
353.25	228.49
353.63	228.52
354.01	228.52
354.39	228.54
354.77	228.71
355.15	228.76
355.54	228.78
355.92	228.89
356.30	229.01
356.68	229.23
357.06	229.37
357.44	229.45
357.82	229.46
358.20	229.59
358.58	229.69
358.97	229.69
359.35	229.69
359.73	229.84
360.11	229.85
360.49	229.93
360.87	229.93
361.25	230.03
361.63	230.15
362.01	230.22
362.39	230.30
362.77	230.30
363.15	230.40
363.53	230.31
363.91	230.28
364.29	230.22
364.67	230.02
365.05	229.99
365.43	230.04
365.81	230.19
366.19	230.25
366.57	230.26
366.95	230.27
367.33	230.30
367.71	230.31
368.09	230.35
368.47	230.21
368.85	230.17
369.23	230.26
369.61	230.14
369.99	230.09
370.37	229.99
370.75	229.98
371.13	229.85
371.51	229.88
371.89	229.83
372.27	229.79
372.65	229.74
373.03	229.62
373.41	229.47
373.78	229.36
374.16	229.20
374.54	229.14
374.92	229.19
375.30	229.01
375.68	228.87
376.06	228.83
376.44	228.73
376.82	228.65
377.19	228.48
377.57	228.42
377.95	228.34
378.33	228.34
378.71	228.25
379.09	228.18
379.47	228.20
379.84	228.09
380.22	227.91
380.60	227.77
380.98	227.75
381.36	227.68
381.73	227.56
382.11	227.51
382.49	227.40
382.87	227.18
383.25	227.19
383.62	227.32
384.00	227.17
384.38	227.14
384.76	227.10
385.13	227.12
385.51	227.10
385.89	227.01
386.27	226.84
386.64	226.78
387.02	226.77
387.40	226.54
387.78	226.51
388.15	226.52
388.53	226.47
388.91	226.34
389.29	226.37
389.66	226.35
390.04	226.36
390.42	226.39
390.79	226.34
391.17	226.34
391.55	226.14
391.92	226.10
392.30	226.17
392.68	226.14
393.05	226.13
393.43	226.06
393.81	226.16
394.18	226.19
394.56	226.20
394.94	226.24
395.31	226.30
395.69	226.35
396.06	226.47
396.44	226.64
396.82	226.59
397.19	226.68
397.57	226.62
397.95	226.69
398.32	226.59
398.70	226.73
399.07	226.78
399.45	226.80
399.82	226.91
400.20	226.93
400.58	227.08
400.95	227.14
401.33	227.26
401.70	227.42
402.08	227.55
402.45	227.64
402.83	227.75
403.20	227.91
403.58	228.06
403.95	228.25
404.33	228.36
404.71	228.66
405.08	228.98
405.46	229.18
405.83	229.33
406.21	229.57
406.58	229.82
406.96	230.01
407.33	230.33
407.70	230.60
408.08	230.98
408.45	231.31
408.83	231.56
409.20	231.80
409.58	231.94
409.95	232.23
410.33	232.63
410.70	232.90
411.08	233.29
411.45	233.67
411.82	234.01
412.20	234.50
412.57	235.09
412.95	235.30
413.32	235.92
413.69	236.41
414.07	237.03
414.44	237.60
414.82	238.17
415.19	238.85
415.56	239.46
415.94	240.10
416.31	240.68
416.68	241.50
417.06	242.38
417.43	243.26
417.81	244.20
418.18	245.10
418.55	246.23
418.93	247.37
419.30	248.48
419.67	249.67
420.04	250.85
420.42	252.13
420.79	253.76
421.16	255.27
421.54	256.96
421.91	258.45
422.28	260.12
422.66	261.94
423.03	263.66
423.40	265.47
423.77	267.37
424.15	269.31
424.52	271.27
424.89	273.59
425.26	275.67
425.64	277.73
426.01	279.93
426.38	282.09
426.75	284.23
427.13	286.58
427.50	289.08
427.87	291.79
428.24	294.23
428.61	296.54
428.99	299.20
429.36	302.09
429.73	305.04
430.10	307.84
430.47	310.81
430.85	313.80
431.22	317.12
431.59	320.50
431.96	323.78
432.33	327.22
432.70	330.51
433.08	334.58
433.45	338.22
433.82	342.10
434.19	346.38
434.56	350.59
434.93	354.42
435.30	358.10
435.68	362.33
436.05	366.63
436.42	370.88
436.79	374.63
437.16	378.50
437.53	382.66
437.90	386.89
438.27	391.06
438.64	395.19
439.01	399.02
439.38	402.53
439.75	406.07
440.13	410.10
440.50	413.83
440.87	416.92
441.24	420.24
441.61	423.57
441.98	426.07
442.35	429.11
442.72	432.28
443.09	435.53
443.46	437.30
443.83	438.58
444.20	439.74
444.57	441.36
444.94	442.20
445.31	443.16
445.68	444.30
446.05	444.72
446.42	444.77
446.79	444.74
447.16	444.52
447.53	444.44
447.90	443.20
448.27	441.98
448.64	440.04
449.01	438.73
449.37	436.42
449.74	434.07
450.11	431.23
450.48	427.96
450.85	424.44
451.22	421.52
451.59	418.89
451.96	416.16
452.33	412.79
452.70	409.76
453.07	405.96
453.43	401.93
453.80	398.30
454.17	394.42
454.54	390.73
454.91	386.85
455.28	382.90
455.65	379.44
456.02	376.01
456.38	373.02
456.75	369.27
457.12	365.98
457.49	362.79
457.86	359.56
458.23	356.95
458.59	354.10
458.96	351.26
459.33	348.60
459.70	346.05
460.07	343.73
460.43	341.24
460.80	338.93
461.17	336.75
461.54	334.45
461.91	332.45
462.27	330.28
462.64	328.44
463.01	326.55
463.38	324.64
463.74	322.57
464.11	320.76
464.48	319.26
464.85	317.69
465.21	316.35
465.58	315.00
465.95	313.36
466.32	312.13
466.68	310.68
467.05	309.04
467.42	307.66
467.78	306.29
468.15	304.91
468.52	303.78
468.88	302.30
469.25	300.98
469.62	299.95
469.98	298.87
470.35	297.81
470.72	296.79
471.08	295.67
471.45	294.78
471.82	293.88
472.18	292.82
472.55	291.97
472.92	290.98
473.28	290.08
473.65	289.25
474.02	288.22
474.38	287.43
474.75	286.80
475.11	286.13
475.48	285.43
475.85	284.85
476.21	284.27
476.58	283.81
476.94	283.36
477.31	282.86
477.67	282.35
478.04	281.93
478.41	281.51
478.77	281.18
479.14	280.69
479.50	280.33
479.87	280.06
480.23	279.81
480.60	279.58
480.96	279.31
481.33	279.16
481.69	278.99
482.06	278.77
482.42	278.74
482.79	278.49
483.15	278.43
483.52	278.52
483.88	278.48
484.25	278.49
484.61	278.31
484.98	278.28
485.34	278.40
485.71	278.48
486.07	278.54
486.44	278.40
486.80	278.34
487.17	278.39
487.53	278.44
487.90	278.48
488.26	278.62
488.62	278.72
488.99	278.74
489.35	278.94
489.72	279.10
490.08	279.27
490.44	279.49
490.81	279.67
491.17	279.78
491.54	279.90
491.90	280.00
492.26	280.42
492.63	280.61
492.99	280.79
493.36	281.03
493.72	281.42
494.08	281.85
494.45	282.30
494.81	282.73
495.17	283.06
495.54	283.51
495.90	283.78
496.26	284.14
496.63	284.67
496.99	284.96
497.35	285.47
497.72	285.99
498.08	286.49
498.44	286.97
498.80	287.30
499.17	287.73
499.53	288.22
499.89	288.52
500.26	288.90
500.62	289.37
500.98	289.89
501.34	290.15
501.71	290.51
502.07	290.90
502.43	291.13
502.79	291.58
503.16	291.84
503.52	292.35
503.88	292.75
504.24	293.06
504.60	293.51
504.97	293.84
505.33	294.10
505.69	294.43
506.05	294.79
506.41	295.10
506.78	295.41
507.14	295.57
507.50	296.01
507.86	296.49
508.22	296.94
508.59	297.12
508.95	297.59
509.31	298.10
509.67	298.54
510.03	299.04
510.39	299.36
510.75	299.76
511.12	300.24
511.48	300.69
511.84	301.14
512.20	301.63
512.56	302.15
512.92	302.76
513.28	303.37
513.64	303.93
514.00	304.70
514.37	305.40
514.73	306.27
515.09	307.00
515.45	307.70
515.81	308.35
516.17	309.26
516.53	310.07
516.89	310.89
517.25	311.93
517.61	313.10
517.97	314.29
518.33	315.60
518.69	316.84
519.05	318.19
519.41	319.56
519.77	321.17
520.13	322.71
520.49	324.11
520.85	325.75
521.21	327.55
521.57	329.35
521.93	331.30
522.29	333.25
522.65	335.37
523.01	337.46
523.37	339.61
523.73	341.97
524.09	344.50
524.45	346.77
524.81	349.20
525.17	351.72
525.53	354.20
525.89	356.86
526.25	359.64
526.61	362.44
526.97	365.37
527.33	368.24
527.68	371.51
528.04	374.82
528.40	377.98
528.76	381.36
529.12	384.80
529.48	388.36
529.84	391.90
530.20	395.50
530.56	399.41
530.91	403.45
531.27	407.37
531.63	411.43
531.99	415.51
532.35	419.73
532.71	423.88
533.07	428.51
533.42	433.08
533.78	437.63
534.14	442.22
534.50	446.93
534.86	451.79
535.21	456.44
535.57	461.41
535.93	466.29
536.29	471.45
536.65	476.60
537.00	481.61
537.36	486.86
537.72	492.17
538.08	497.43
538.44	502.77
538.79	508.19
539.15	513.43
539.51	519.13
539.87	524.66
540.22	530.14
540.58	535.71
540.94	541.23
541.29	546.60
541.65	552.20
542.01	557.96
542.37	563.73
542.72	569.27
543.08	575.11
543.44	581.08
543.79	586.42
544.15	592.17
544.51	598.34
544.87	604.37
545.22	610.11
545.58	615.86
545.94	621.64
546.29	627.44
546.65	633.33
547.01	639.17
547.36	645.05
547.72	650.91
548.07	656.68
548.43	662.31
548.79	668.24
549.14	674.18
549.50	679.80
549.86	685.30
550.21	691.10
550.57	696.67
550.92	702.30
551.28	708.09
551.64	713.75
551.99	719.28
552.35	724.74
552.70	730.49
553.06	736.17
553.41	741.65
553.77	747.26
554.13	752.81
554.48	758.41
554.84	763.67
555.19	769.40
555.55	774.71
555.90	780.00
556.26	785.39
556.61	790.46
556.97	795.59
557.32	800.95
557.68	805.97
558.03	811.19
558.39	816.26
558.74	821.66
559.10	826.84
559.45	831.83
559.81	837.06
560.16	841.78
560.52	846.86
560.87	851.88
561.23	856.60
561.58	861.50
561.94	865.99
562.29	870.66
562.64	874.95
563.00	879.56
563.35	884.42
563.71	889.00
564.06	893.74
564.42	898.29
564.77	902.53
565.12	907.30
565.48	911.60
565.83	915.72
566.19	919.60
566.54	923.54
566.89	927.19
567.25	930.97
567.60	935.41
567.96	939.02
568.31	942.79
568.66	946.30
569.02	949.73
569.37	953.03
569.72	956.40
570.08	959.49
570.43	962.70
570.78	965.76
571.14	968.63
571.49	971.24
571.84	974.34
572.20	977.24
572.55	979.55
572.90	981.81
573.26	984.26
573.61	986.70
573.96	988.95
574.31	991.15
574.67	992.80
575.02	994.25
575.37	996.22
575.72	997.51
576.08	999.38
576.43	1000.64
576.78	1002.64
577.13	1004.30
577.49	1006.00
577.84	1007.26
578.19	1008.60
578.54	1009.80
578.90	1010.72
579.25	1011.47
579.60	1012.23
579.95	1013.13
580.30	1013.76
580.66	1014.49
581.01	1014.70
581.36	1015.14
581.71	1015.77
582.06	1016.62
582.42	1016.88
582.77	1016.90
583.12	1017.32
583.47	1017.48
583.82	1018.19
584.17	1017.90
584.53	1018.06
584.88	1018.22
585.23	1018.32
585.58	1018.26
585.93	1018.36
586.28	1018.96
586.63	1018.83
586.98	1019.03
587.34	1019.23
587.69	1019.33
588.04	1019.26
588.39	1019.49
588.74	1018.77
589.09	1018.21
589.44	1017.30
589.79	1016.86
590.14	1016.94
590.49	1016.29
590.84	1015.68
591.19	1014.59
591.54	1013.57
591.89	1012.19
592.25	1011.32
592.60	1010.23
592.95	1008.87
593.30	1007.48
593.65	1005.97
594.00	1004.80
594.35	1003.45
594.70	1001.67
595.05	1000.42
595.40	998.70
595.75	996.91
596.10	995.86
596.45	994.60
596.80	993.63
597.15	992.26
597.50	990.10
597.85	988.93
598.19	987.71
598.54	986.70
598.89	985.41
599.24	984.57
599.59	982.91
599.94	981.39
600.29	979.67
600.64	977.99
600.99	975.96
601.34	974.06
601.69	971.96
602.04	970.30
602.39	968.32
602.74	966.88
603.08	965.59
603.43	963.95
603.78	962.04
604.13	959.90
604.48	957.96
604.83	956.10
605.18	954.18
605.53	951.78
605.87	949.06
606.22	947.02
606.57	944.46
606.92	942.27
607.27	940.13
607.62	938.20
607.96	935.85
608.31	934.17
608.66	932.05
609.01	929.55
609.36	926.69
609.70	923.75
610.05	920.88
610.40	917.84
610.75	914.89
611.10	911.97
611.44	908.90
611.79	906.36
612.14	903.66
612.49	900.06
612.83	896.82
613.18	893.58
613.53	890.53
613.88	887.31
614.22	884.20
614.57	880.75
614.92	877.70
615.27	875.03
615.61	871.37
615.96	868.10
616.31	865.38
616.65	863.01
617.00	860.31
617.35	857.16
617.70	853.91
618.04	850.42
618.39	847.38
618.74	844.50
619.08	840.99
619.43	837.80
619.78	835.13
620.12	832.18
620.47	829.52
620.82	826.19
621.16	823.10
621.51	820.25
621.85	817.26
622.20	813.80
622.55	810.56
622.89	807.65
623.24	804.74
623.59	801.50
623.93	798.20
624.28	795.10
624.62	792.30
624.97	789.56
625.32	786.87
625.66	783.92
626.01	781.07
626.35	778.10
626.70	775.00
627.04	771.97
627.39	768.94
627.73	765.88
628.08	763.04
628.43	759.95
628.77	756.62
629.12	753.39
629.46	750.23
629.81	746.57
630.15	743.01
630.50	739.83
630.84	736.37
631.19	732.92
631.53	729.57
631.88	725.96
632.22	722.43
632.57	719.46
632.91	716.29
633.26	712.87
633.60	709.62
633.95	706.47
634.29	703.29
634.64	700.17
634.98	697.03
635.32	694.17
635.67	691.48
636.01	688.43
636.36	685.57
636.70	682.93
637.05	680.41
637.39	677.98
637.73	674.92
638.08	672.71
638.42	670.02
638.77	667.35
639.11	664.52
639.45	661.58
639.80	658.48
640.14	655.54
640.49	652.72
640.83	649.90
641.17	647.09
641.52	644.10
641.86	641.23
642.20	638.48
642.55	635.33
642.89	632.50
643.23	629.63
643.58	627.14
643.92	624.15
644.26	621.28
644.61	618.53
644.95	615.88
645.29	612.44
645.64	609.54
645.98	606.72
646.32	604.21
646.66	601.51
647.01	598.82
647.35	596.14
647.69	593.27
648.04	590.36
648.38	587.44
648.72	584.71
649.06	582.00
649.41	579.14
649.75	576.19
650.09	573.10
650.43	570.33
650.78	567.02
651.12	564.26
651.46	561.47
651.80	558.74
652.14	555.99
652.49	553.40
652.83	550.60
653.17	547.54
653.51	544.61
653.85	541.94
654.20	538.93
654.54	536.01
654.88	533.28
655.22	530.42
655.56	527.59
655.90	524.73
656.25	521.95
656.59	519.29
656.93	516.73
657.27	514.05
657.61	511.15
657.95	508.71
658.29	506.07
658.64	503.45
658.98	500.53
659.32	497.44
659.66	494.86
660.00	492.23
660.34	489.87
660.68	487.30
661.02	484.70
661.36	482.50
661.70	480.28
662.05	478.04
662.39	475.81
662.73	473.70
663.07	471.50
663.41	469.25
663.75	466.90
664.09	464.77
664.43	462.52
664.77	460.50
665.11	458.23
665.45	456.13
665.79	454.04
666.13	451.81
666.47	449.82
666.81	447.47
667.15	445.37
667.49	443.35
667.83	441.45
668.17	439.39
668.51	437.13
668.85	434.95
669.19	432.89
669.53	431.05
669.87	428.86
670.21	426.88
670.55	425.01
670.89	423.29
671.23	421.45
671.57	419.65
671.91	417.67
672.25	415.87
672.58	414.02
672.92	412.14
673.26	410.54
673.60	409.05
673.94	407.56
674.28	406.15
674.62	404.65
674.96	403.00
675.30	401.58
675.64	400.07
675.97	398.54
676.31	396.97
676.65	395.40
676.99	394.04
677.33	392.59
677.67	391.02
678.01	389.37
678.34	387.85
678.68	386.37
679.02	384.93
679.36	383.68
679.70	382.17
680.04	380.79
680.37	379.35
680.71	377.90
681.05	376.61
681.39	375.10
681.73	373.64
682.06	372.42
682.40	371.10
682.74	369.72
683.08	368.49
683.42	367.23
683.75	365.83
684.09	364.49
684.43	363.14
684.77	361.84
685.10	360.52
685.44	359.34
685.78	358.20
686.12	357.10
686.45	355.76
686.79	354.56
687.13	353.49
687.46	352.35
687.80	351.20
688.14	349.82
688.48	348.67
688.81	347.42
689.15	346.09
689.49	344.80
689.82	343.73
690.16	342.48
690.50	341.28
690.83	340.21
691.17	339.05
691.51	337.96
691.84	336.80
692.18	335.73
692.52	334.36
692.85	333.05
693.19	331.91
693.52	330.72
693.86	329.69
694.20	328.42
694.53	327.33
694.87	326.15
695.21	325.02
695.54	323.86
695.88	322.66
696.21	321.50
696.55	320.46
696.88	319.31
697.22	318.25
697.56	317.28
697.89	316.22
698.23	315.17
698.56	314.19
698.90	313.21
699.23	312.05
699.57	311.16
699.90	310.32
700.24	309.33
700.58	308.37
700.91	307.32
701.25	306.56
701.58	305.69
701.92	304.70
702.25	303.84
702.59	302.97
702.92	302.20
703.26	301.55
703.59	300.58
703.93	299.95
704.26	299.05
704.60	298.09
704.93	297.13
705.26	296.31
705.60	295.52
705.93	294.68
706.27	294.07
706.60	293.31
706.94	292.51
707.27	291.67
707.61	290.90
707.94	290.22
708.27	289.31
708.61	288.59
708.94	287.99
709.28	287.36
709.61	286.66
709.94	286.08
710.28	285.18
710.61	284.59
710.95	283.78
711.28	283.30
711.61	282.60
711.95	282.12
712.28	281.54
712.61	280.86
712.95	280.25
713.28	279.57
713.61	278.93
713.95	278.41
714.28	277.90
714.61	277.46
714.95	276.90
715.28	276.31
715.61	275.70
715.95	275.21
716.28	274.63
716.61	274.12
716.95	273.49
717.28	273.19
717.61	272.76
717.94	272.31
718.28	271.69
718.61	271.34
718.94	270.82
719.27	270.45
719.61	270.03
719.94	269.72
720.27	269.30
720.60	268.91
720.94	268.50
721.27	268.18
721.60	267.69
721.93	267.24
722.27	267.00
722.60	266.69
722.93	266.39
723.26	266.10
723.59	265.83
723.93	265.63
724.26	265.27
724.59	265.01
724.92	264.72
725.25	264.42
725.59	264.15
725.92	263.90
726.25	263.46
726.58	263.09
726.91	262.67
727.24	262.36
727.57	262.00
727.91	261.62
728.24	261.34
728.57	261.05
728.90	260.85
729.23	260.46
729.56	260.22
729.89	259.83
730.22	259.50
730.55	259.07
730.89	258.65
731.22	258.32
731.55	257.93
731.88	257.60
732.21	257.21
732.54	256.90
732.87	256.57
733.20	256.34
733.53	256.10
733.86	255.99
734.19	255.80
734.52	255.72
734.85	255.54
735.18	255.23
735.51	255.10
735.84	254.72
736.17	254.50
736.50	254.06
736.83	254.03
737.16	253.86
737.49	253.61
737.82	253.34
738.15	253.01
738.48	252.63
738.81	252.34
739.14	252.17
739.47	251.87
739.80	251.58
740.13	251.25
740.46	250.98
740.79	250.59
741.12	250.31
741.45	249.90
741.78	249.59
742.11	249.34
742.44	248.96
742.77	248.84
743.10	248.66
743.43	248.45
743.75	247.92
744.08	247.82
744.41	247.66
744.74	247.46
745.07	247.33
745.40	247.12
745.73	246.99
746.06	246.77
746.39	246.47
746.71	246.25
747.04	246.06
747.37	245.94
747.70	245.79
748.03	245.46
748.36	245.30
748.68	245.04
749.01	244.81
749.34	244.58
749.67	244.36
750.00	244.11
750.33	244.00
750.65	243.82
750.98	243.50
751.31	243.25
751.64	243.01
751.97	242.90
752.29	242.78
752.62	242.55
752.95	242.40
753.28	242.26
753.60	242.06
753.93	241.99
754.26	241.60
754.59	241.29
754.91	241.19
755.24	241.00
755.57	240.86
755.90	240.61
756.22	240.46
756.55	240.38
756.88	240.19
757.20	239.99
757.53	239.82
757.86	239.59
758.19	239.50
758.51	239.40
758.84	239.23
759.17	239.15
759.49	239.02
759.82	239.00
760.15	238.90
760.47	238.91
760.80	238.70
761.13	238.72
761.45	238.70
761.78	238.58
762.11	238.50
762.43	238.50
762.76	238.47
763.08	238.35
763.41	238.23
763.74	238.23
764.06	238.14
764.39	238.16
764.71	238.14
765.04	237.96
765.37	237.85
765.69	237.75
766.02	237.60
766.34	237.56
766.67	237.36
767.00	237.33
767.32	237.30
767.65	237.30
767.97	237.28
768.30	237.18
768.62	237.19
768.95	237.20
769.27	237.06
769.60	237.08
769.92	236.99
770.25	236.89
770.57	236.71
770.90	236.69
771.22	236.61
771.55	236.52
771.87	236.57
772.20	236.50
772.52	236.64
772.85	236.86
773.17	236.66
773.50	236.60
773.82	236.56
774.15	236.33
774.47	236.23
774.80	236.17
775.12	236.23
775.45	236.14
775.77	236.13
776.09	236.11
776.42	235.96
776.74	236.01
777.07	235.94
777.39	235.95
777.72	235.76
778.04	235.61
778.36	235.55
778.69	235.46
779.01	235.53
779.33	235.21
779.66	234.81
779.98	234.77
780.31	234.65
780.63	234.57
780.95	234.54
781.28	234.49
781.60	234.40
781.92	234.17
782.25	234.18
782.57	233.89
782.89	233.74
783.22	233.68
783.54	233.57
783.86	233.51
784.19	233.38
784.51	233.40
784.83	233.37
785.16	233.33
785.48	233.11
785.80	233.00
786.12	232.94
786.45	232.97
786.77	232.97
787.09	232.87
787.42	232.71
787.74	232.60
788.06	232.50
788.38	232.35
788.71	232.34
789.03	232.15
789.35	232.14
789.67	232.03
789.99	232.02
790.32	231.93
790.64	231.85
790.96	231.94
791.28	231.78
791.61	231.67
791.93	231.50
792.25	231.60
792.57	231.56
792.89	231.55
793.21	231.50
