SpectraSuite Data File
++++++++++++++++++++++++++++++++++++
Date: Fri Feb 01 14:33:37 EST 2013
User: group
Dark Spectrum Present: No
Reference Spectrum Present: No
Number of Sampled Component Spectra: 1
Spectrometers: USB2E7196
Integration Time (usec): 70000 (USB2E7196)
Spectra Averaged: 10 (USB2E7196)
Boxcar Smoothing: 10 (USB2E7196)
Correct for Electrical Dark: No (USB2E7196)
Strobe/Lamp Enabled: No (USB2E7196)
Correct for Detector Non-linearity: No (USB2E7196)
Correct for Stray Light: No (USB2E7196)
Number of Pixels in Processed Spectrum: 2048
>>>>>Begin Processed Spectral Data<<<<<
339.09	0.00
339.48	217.20
339.86	219.20
340.24	221.80
340.63	220.80
341.01	225.30
341.39	223.80
341.78	225.90
342.16	227.50
342.54	227.30
342.93	215.52
343.31	226.39
343.69	226.90
344.07	227.29
344.46	227.65
344.84	228.03
345.22	228.20
345.60	228.51
345.99	228.63
346.37	228.69
346.75	228.77
347.13	228.81
347.52	228.83
347.90	229.04
348.28	229.14
348.66	229.26
349.05	229.22
349.43	229.21
349.81	229.25
350.19	229.30
350.57	229.17
350.96	229.29
351.34	229.36
351.72	229.44
352.10	229.61
352.48	229.62
352.87	229.68
353.25	229.72
353.63	229.71
354.01	229.80
354.39	229.93
354.77	230.02
355.15	230.08
355.54	230.13
355.92	230.04
356.30	230.03
356.68	230.20
357.06	230.24
357.44	230.26
357.82	230.31
358.20	230.42
358.58	230.63
358.97	230.56
359.35	230.61
359.73	230.68
360.11	230.79
360.49	230.81
360.87	230.91
361.25	231.00
361.63	231.13
362.01	231.21
362.39	231.15
362.77	231.21
363.15	231.28
363.53	231.27
363.91	231.31
364.29	231.39
364.67	231.16
365.05	231.11
365.43	231.24
365.81	231.32
366.19	231.36
366.57	231.34
366.95	231.41
367.33	231.37
367.71	231.33
368.09	231.28
368.47	231.32
368.85	231.22
369.23	231.23
369.61	230.98
369.99	231.00
370.37	230.97
370.75	230.88
371.13	230.69
371.51	230.54
371.89	230.46
372.27	230.42
372.65	230.58
373.03	230.51
373.41	230.32
373.78	230.17
374.16	230.02
374.54	229.83
374.92	229.68
375.30	229.59
375.68	229.47
376.06	229.32
376.44	229.15
376.82	229.11
377.19	228.92
377.57	228.93
377.95	228.75
378.33	228.67
378.71	228.53
379.09	228.59
379.47	228.57
379.84	228.53
380.22	228.40
380.60	228.21
380.98	228.22
381.36	228.16
381.73	228.05
382.11	228.10
382.49	228.04
382.87	227.95
383.25	227.89
383.62	227.94
384.00	227.86
384.38	227.87
384.76	227.82
385.13	227.89
385.51	227.86
385.89	227.72
386.27	227.71
386.64	227.71
387.02	227.59
387.40	227.51
387.78	227.49
388.15	227.43
388.53	227.41
388.91	227.32
389.29	227.26
389.66	227.29
390.04	227.12
390.42	227.17
390.79	227.20
391.17	227.28
391.55	227.19
391.92	227.21
392.30	227.24
392.68	227.22
393.05	227.21
393.43	227.28
393.81	227.41
394.18	227.49
394.56	227.53
394.94	227.62
395.31	227.73
395.69	227.85
396.06	228.03
396.44	228.07
396.82	228.16
397.19	228.34
397.57	228.50
397.95	228.66
398.32	228.78
398.70	229.00
399.07	229.15
399.45	229.42
399.82	229.52
400.20	229.65
400.58	229.78
400.95	229.93
401.33	230.13
401.70	230.43
402.08	230.61
402.45	230.88
402.83	231.28
403.20	231.58
403.58	231.87
403.95	232.18
404.33	232.58
404.71	232.93
405.08	233.43
405.46	233.82
405.83	234.26
406.21	234.78
406.58	235.24
406.96	235.78
407.33	236.16
407.70	236.84
408.08	237.61
408.45	238.29
408.83	239.14
409.20	239.78
409.58	240.53
409.95	241.31
410.33	242.22
410.70	242.92
411.08	243.88
411.45	244.87
411.82	245.88
412.20	246.88
412.57	248.34
412.95	249.49
413.32	250.92
413.69	252.47
414.07	253.93
414.44	255.64
414.82	257.34
415.19	259.31
415.56	261.31
415.94	263.44
416.31	266.00
416.68	268.21
417.06	271.00
417.43	273.43
417.81	276.35
418.18	279.38
418.55	282.65
418.93	286.19
419.30	289.74
419.67	293.45
420.04	297.39
420.42	301.36
420.79	305.95
421.16	310.37
421.54	314.94
421.91	319.90
422.28	324.87
422.66	330.28
423.03	335.56
423.40	341.14
423.77	346.94
424.15	352.83
424.52	359.10
424.89	365.88
425.26	372.51
425.64	378.71
426.01	385.30
426.38	392.49
426.75	399.60
427.13	407.00
427.50	414.72
427.87	422.78
428.24	430.89
428.61	438.70
428.99	447.36
429.36	456.75
429.73	465.90
430.10	474.97
430.47	484.22
430.85	493.80
431.22	503.87
431.59	514.42
431.96	524.64
432.33	535.95
432.70	546.83
433.08	559.56
433.45	571.58
433.82	583.64
434.19	596.81
434.56	609.84
434.93	622.45
435.30	634.74
435.68	648.44
436.05	662.11
436.42	675.74
436.79	687.98
437.16	701.20
437.53	715.09
437.90	728.94
438.27	742.40
438.64	756.63
439.01	769.71
439.38	781.36
439.75	792.38
440.13	805.29
440.50	817.66
440.87	827.91
441.24	838.83
441.61	850.68
441.98	859.57
442.35	869.85
442.72	880.36
443.09	890.86
443.46	897.33
443.83	901.93
444.20	906.06
444.57	912.02
444.94	915.52
445.31	919.02
445.68	922.56
446.05	925.09
446.42	925.39
446.79	925.20
447.16	925.39
447.53	926.18
447.90	922.59
448.27	919.17
448.64	913.23
449.01	909.86
449.37	902.37
449.74	895.13
450.11	885.80
450.48	875.52
450.85	865.26
451.22	856.85
451.59	848.51
451.96	840.66
452.33	829.55
452.70	819.30
453.07	807.11
453.43	794.70
453.80	782.67
454.17	770.74
454.54	759.76
454.91	747.47
455.28	735.45
455.65	724.53
456.02	713.02
456.38	703.81
456.75	691.38
457.12	681.28
457.49	671.20
457.86	661.70
458.23	653.43
458.59	643.92
458.96	634.53
459.33	626.34
459.70	617.89
460.07	611.11
460.43	603.42
460.80	595.95
461.17	589.42
461.54	582.46
461.91	576.00
462.27	569.45
462.64	564.03
463.01	557.78
463.38	551.86
463.74	545.96
464.11	540.74
464.48	536.08
464.85	530.77
465.21	526.93
465.58	522.74
465.95	517.79
466.32	513.73
466.68	509.53
467.05	505.34
467.42	501.21
467.78	496.88
468.15	492.76
468.52	489.86
468.88	485.89
469.25	482.43
469.62	479.56
469.98	476.43
470.35	473.48
470.72	470.75
471.08	467.66
471.45	465.02
471.82	462.30
472.18	459.54
472.55	457.72
472.92	455.14
473.28	453.03
473.65	450.87
474.02	448.61
474.38	446.86
474.75	445.22
475.11	443.54
475.48	442.27
475.85	441.22
476.21	440.06
476.58	439.05
476.94	438.17
477.31	437.28
477.67	436.28
478.04	435.45
478.41	434.90
478.77	434.70
479.14	434.32
479.50	434.05
479.87	433.96
480.23	433.79
480.60	433.63
480.96	433.42
481.33	433.85
481.69	434.44
482.06	434.58
482.42	434.67
482.79	435.00
483.15	435.63
483.52	436.48
483.88	437.23
484.25	438.18
484.61	439.32
484.98	440.29
485.34	441.83
485.71	443.41
486.07	445.06
486.44	446.46
486.80	448.14
487.17	449.98
487.53	452.25
487.90	454.58
488.26	457.07
488.62	459.62
488.99	461.82
489.35	464.30
489.72	467.13
490.08	470.32
490.44	473.58
490.81	476.72
491.17	480.08
491.54	483.64
491.90	487.02
492.26	490.62
492.63	494.61
492.99	498.44
493.36	502.49
493.72	506.81
494.08	511.28
494.45	516.06
494.81	520.97
495.17	525.74
495.54	530.61
495.90	535.82
496.26	541.13
496.63	546.62
496.99	552.41
497.35	558.32
497.72	564.17
498.08	569.88
498.44	575.97
498.80	582.29
499.17	588.70
499.53	595.03
499.89	601.69
500.26	608.13
500.62	614.64
500.98	621.28
501.34	628.14
501.71	634.91
502.07	641.78
502.43	648.48
502.79	655.31
503.16	662.40
503.52	669.55
503.88	676.64
504.24	683.99
504.60	691.14
504.97	698.49
505.33	705.76
505.69	713.57
506.05	720.95
506.41	727.88
506.78	734.80
507.14	742.18
507.50	749.40
507.86	757.08
508.22	764.71
508.59	771.92
508.95	779.21
509.31	786.70
509.67	793.87
510.03	801.43
510.39	808.88
510.75	816.26
511.12	823.28
511.48	830.49
511.84	837.38
512.20	844.17
512.56	850.92
512.92	858.07
513.28	864.99
513.64	871.58
514.00	878.18
514.37	885.06
514.73	891.69
515.09	897.99
515.45	903.97
515.81	910.05
516.17	916.53
516.53	922.50
516.89	928.47
517.25	934.07
517.61	939.68
517.97	944.98
518.33	950.06
518.69	955.35
519.05	960.40
519.41	965.84
519.77	971.44
520.13	976.68
520.49	981.44
520.85	986.02
521.21	990.68
521.57	995.73
521.93	1000.14
522.29	1005.02
522.65	1009.58
523.01	1013.69
523.37	1017.53
523.73	1021.33
524.09	1025.21
524.45	1029.31
524.81	1033.54
525.17	1037.53
525.53	1042.04
525.89	1046.02
526.25	1049.72
526.61	1053.40
526.97	1057.39
527.33	1061.04
527.68	1064.82
528.04	1068.20
528.40	1071.61
528.76	1075.76
529.12	1079.53
529.48	1083.39
529.84	1086.35
530.20	1090.16
530.56	1094.27
530.91	1098.72
531.27	1102.24
531.63	1105.69
531.99	1108.89
532.35	1111.95
532.71	1115.10
533.07	1118.09
533.42	1121.64
533.78	1125.18
534.14	1128.56
534.50	1131.00
534.86	1133.66
535.21	1136.26
535.57	1139.59
535.93	1142.39
536.29	1144.67
536.65	1147.20
537.00	1149.47
537.36	1152.27
537.72	1154.37
538.08	1156.53
538.44	1158.40
538.79	1161.27
539.15	1163.73
539.51	1166.09
539.87	1168.92
540.22	1171.37
540.58	1174.08
540.94	1175.80
541.29	1177.57
541.65	1179.78
542.01	1182.29
542.37	1184.59
542.72	1186.47
543.08	1188.02
543.44	1190.58
543.79	1192.37
544.15	1194.47
544.51	1196.93
544.87	1199.05
545.22	1201.32
545.58	1203.22
545.94	1204.86
546.29	1206.20
546.65	1207.60
547.01	1209.13
547.36	1210.50
547.72	1211.70
548.07	1212.89
548.43	1214.58
548.79	1216.10
549.14	1217.00
549.50	1217.88
549.86	1218.84
550.21	1220.11
550.57	1221.50
550.92	1222.21
551.28	1223.37
551.64	1224.32
551.99	1225.04
552.35	1225.62
552.70	1226.30
553.06	1227.29
553.41	1228.18
553.77	1229.35
554.13	1230.28
554.48	1231.43
554.84	1232.35
555.19	1233.65
555.55	1234.35
555.90	1234.93
556.26	1235.83
556.61	1236.73
556.97	1237.79
557.32	1238.43
557.68	1239.15
558.03	1239.67
558.39	1240.08
558.74	1240.96
559.10	1241.74
559.45	1242.44
559.81	1243.92
560.16	1244.23
560.52	1244.71
560.87	1245.80
561.23	1245.82
561.58	1247.01
561.94	1247.43
562.29	1247.68
562.64	1247.76
563.00	1247.93
563.35	1248.74
563.71	1249.42
564.06	1249.93
564.42	1250.11
564.77	1250.76
565.12	1251.42
565.48	1251.96
565.83	1252.36
566.19	1252.81
566.54	1252.25
566.89	1251.93
567.25	1251.53
567.60	1252.13
567.96	1252.08
568.31	1251.58
568.66	1251.55
569.02	1250.98
569.37	1250.52
569.72	1250.58
570.08	1250.05
570.43	1249.77
570.78	1249.20
571.14	1248.29
571.49	1247.90
571.84	1247.52
572.20	1246.76
572.55	1245.68
572.90	1244.60
573.26	1244.08
573.61	1242.93
573.96	1242.13
574.31	1240.73
574.67	1238.96
575.02	1237.03
575.37	1235.60
575.72	1233.50
576.08	1232.20
576.43	1230.45
576.78	1228.81
577.13	1226.76
577.49	1225.56
577.84	1223.43
578.19	1221.51
578.54	1219.80
578.90	1217.49
579.25	1214.96
579.60	1212.54
579.95	1210.11
580.30	1207.80
580.66	1205.15
581.01	1202.62
581.36	1200.39
581.71	1198.06
582.06	1195.83
582.42	1193.28
582.77	1190.92
583.12	1188.79
583.47	1186.12
583.82	1183.72
584.17	1181.11
584.53	1178.76
584.88	1175.79
585.23	1173.09
585.58	1170.16
585.93	1167.40
586.28	1164.96
586.63	1162.58
586.98	1160.11
587.34	1157.53
587.69	1154.95
588.04	1152.13
588.39	1149.48
588.74	1146.09
589.09	1143.44
589.44	1140.37
589.79	1137.88
590.14	1135.21
590.49	1132.29
590.84	1129.13
591.19	1126.07
591.54	1122.66
591.89	1118.90
592.25	1115.65
592.60	1112.17
592.95	1108.74
593.30	1104.96
593.65	1101.04
594.00	1097.23
594.35	1094.14
594.70	1090.14
595.05	1086.40
595.40	1082.76
595.75	1078.73
596.10	1075.69
596.45	1072.44
596.80	1069.44
597.15	1066.00
597.50	1062.00
597.85	1058.84
598.19	1055.63
598.54	1052.05
598.89	1048.77
599.24	1045.89
599.59	1042.33
599.94	1039.27
600.29	1035.82
600.64	1032.20
600.99	1028.61
601.34	1025.43
601.69	1021.15
602.04	1018.06
602.39	1014.64
602.74	1011.57
603.08	1008.60
603.43	1005.15
603.78	1001.47
604.13	997.66
604.48	993.71
604.83	990.38
605.18	986.71
605.53	982.64
605.87	978.79
606.22	975.18
606.57	971.03
606.92	967.18
607.27	963.70
607.62	960.23
607.96	956.71
608.31	953.60
608.66	949.64
609.01	946.17
609.36	941.95
609.70	937.64
610.05	933.19
610.40	928.95
610.75	924.71
611.10	920.67
611.44	916.13
611.79	912.34
612.14	907.95
612.49	903.49
612.83	899.37
613.18	895.33
613.53	891.15
613.88	887.04
614.22	883.00
614.57	878.65
614.92	874.23
615.27	870.33
615.61	865.89
615.96	861.76
616.31	857.63
616.65	854.07
617.00	850.30
617.35	846.31
617.70	842.44
618.04	838.37
618.39	834.37
618.74	830.59
619.08	826.22
619.43	822.53
619.78	818.75
620.12	815.10
620.47	811.27
620.82	807.21
621.16	803.47
621.51	799.90
621.85	796.22
622.20	792.46
622.55	788.75
622.89	785.11
623.24	781.62
623.59	777.89
623.93	774.20
624.28	770.81
624.62	767.51
624.97	764.00
625.32	760.80
625.66	757.47
626.01	754.37
626.35	751.23
626.70	747.87
627.04	744.69
627.39	741.04
627.73	737.60
628.08	734.34
628.43	731.05
628.77	727.37
629.12	723.54
629.46	720.23
629.81	716.66
630.15	713.16
630.50	709.61
630.84	705.89
631.19	702.18
631.53	698.62
631.88	694.72
632.22	691.02
632.57	687.42
632.91	683.82
633.26	680.14
633.60	676.40
633.95	672.70
634.29	669.31
634.64	666.15
634.98	662.82
635.32	659.64
635.67	656.52
636.01	653.56
636.36	650.48
636.70	647.40
637.05	644.22
637.39	641.39
637.73	638.31
638.08	635.85
638.42	633.27
638.77	630.40
639.11	627.46
639.45	624.63
639.80	621.73
640.14	618.87
640.49	615.91
640.83	613.23
641.17	610.44
641.52	607.35
641.86	604.26
642.20	601.51
642.55	598.54
642.89	595.58
643.23	592.62
643.58	590.11
643.92	587.11
644.26	584.32
644.61	581.48
644.95	578.69
645.29	575.57
645.64	572.38
645.98	569.39
646.32	566.73
646.66	563.83
647.01	560.85
647.35	558.21
647.69	555.62
648.04	553.03
648.38	550.26
648.72	547.39
649.06	544.70
649.41	541.83
649.75	538.86
650.09	535.95
650.43	533.28
650.78	530.26
651.12	527.54
651.46	524.78
651.80	521.91
652.14	519.32
652.49	516.80
652.83	514.39
653.17	511.88
653.51	509.25
653.85	506.66
654.20	504.19
654.54	501.24
654.88	498.38
655.22	495.49
655.56	492.80
655.90	490.38
656.25	487.97
656.59	485.43
656.93	483.34
657.27	481.07
657.61	478.38
657.95	476.11
658.29	473.96
658.64	471.86
658.98	469.40
659.32	466.80
659.66	464.30
660.00	462.08
660.34	459.87
660.68	457.58
661.02	455.30
661.36	453.11
661.70	451.02
662.05	449.03
662.39	447.14
662.73	445.25
663.07	443.30
663.41	441.36
663.75	439.36
664.09	437.17
664.43	435.12
664.77	433.40
665.11	431.56
665.45	429.43
665.79	427.37
666.13	425.55
666.47	423.78
666.81	421.93
667.15	419.86
667.49	417.77
667.83	416.27
668.17	414.47
668.51	412.61
668.85	410.80
669.19	409.10
669.53	407.28
669.87	405.35
670.21	403.63
670.55	401.92
670.89	400.45
671.23	399.03
671.57	397.37
671.91	395.78
672.25	394.15
672.58	392.83
672.92	391.37
673.26	389.98
673.60	388.57
673.94	387.10
674.28	385.84
674.62	384.70
674.96	383.02
675.30	381.93
675.64	380.71
675.97	379.40
676.31	378.02
676.65	376.82
676.99	375.78
677.33	374.38
677.67	373.03
678.01	371.55
678.34	370.16
678.68	368.94
679.02	367.57
679.36	366.25
679.70	364.86
680.04	363.56
680.37	362.10
680.71	360.89
681.05	359.91
681.39	358.73
681.73	357.47
682.06	356.27
682.40	354.88
682.74	353.67
683.08	352.60
683.42	351.41
683.75	350.21
684.09	348.85
684.43	347.70
684.77	346.52
685.10	345.33
685.44	344.08
685.78	342.78
686.12	341.76
686.45	340.57
686.79	339.53
687.13	338.45
687.46	337.38
687.80	336.13
688.14	334.78
688.48	333.58
688.81	332.37
689.15	331.37
689.49	330.25
689.82	329.22
690.16	328.00
690.50	326.89
690.83	325.77
691.17	324.66
691.51	323.80
691.84	322.83
692.18	321.79
692.52	320.88
692.85	320.12
693.19	319.11
693.52	318.08
693.86	317.04
694.20	315.95
694.53	315.17
694.87	314.34
695.21	313.39
695.54	312.39
695.88	311.48
696.21	310.52
696.55	309.67
696.88	308.62
697.22	307.75
697.56	306.91
697.89	306.16
698.23	305.47
698.56	304.33
698.90	303.36
699.23	302.63
699.57	301.80
699.90	300.75
700.24	299.91
700.58	299.22
700.91	298.30
701.25	297.64
701.58	296.89
701.92	296.14
702.25	295.40
702.59	294.71
702.92	293.96
703.26	293.33
703.59	292.56
703.93	292.05
704.26	291.41
704.60	290.73
704.93	289.90
705.26	289.10
705.60	288.64
705.93	288.07
706.27	287.52
706.60	286.92
706.94	286.41
707.27	285.79
707.61	285.11
707.94	284.65
708.27	284.07
708.61	283.37
708.94	282.77
709.28	282.34
709.61	281.88
709.94	281.44
710.28	280.90
710.61	280.46
710.95	279.79
711.28	279.35
711.61	278.91
711.95	278.53
712.28	278.06
712.61	277.52
712.95	277.05
713.28	276.50
713.61	276.09
713.95	275.60
714.28	275.13
714.61	274.77
714.95	274.17
715.28	273.63
715.61	273.18
715.95	272.70
716.28	272.25
716.61	271.81
716.95	271.37
717.28	270.82
717.61	270.36
717.94	270.04
718.28	269.56
718.61	269.06
718.94	268.62
719.27	268.27
719.61	267.85
719.94	267.34
720.27	266.91
720.60	266.43
720.94	266.08
721.27	265.79
721.60	265.44
721.93	265.22
722.27	264.96
722.60	264.60
722.93	264.26
723.26	263.93
723.59	263.52
723.93	263.11
724.26	262.90
724.59	262.61
724.92	262.17
725.25	261.81
725.59	261.49
725.92	261.12
726.25	260.78
726.58	260.48
726.91	260.30
727.24	260.13
727.57	259.82
727.91	259.41
728.24	259.08
728.57	258.67
728.90	258.39
729.23	257.99
729.56	257.83
729.89	257.53
730.22	257.10
730.55	256.80
730.89	256.46
731.22	256.16
731.55	255.78
731.88	255.54
732.21	255.26
732.54	254.98
732.87	254.79
733.20	254.42
733.53	254.11
733.86	253.82
734.19	253.37
734.52	253.23
734.85	253.15
735.18	252.86
735.51	252.64
735.84	252.31
736.17	252.10
736.50	251.73
736.83	251.78
737.16	251.58
737.49	251.26
737.82	251.10
738.15	250.74
738.48	250.51
738.81	250.28
739.14	250.11
739.47	249.95
739.80	249.71
740.13	249.50
740.46	249.21
740.79	248.89
741.12	248.72
741.45	248.39
741.78	248.08
742.11	247.94
742.44	247.76
742.77	247.53
743.10	247.31
743.43	247.10
743.75	246.58
744.08	246.66
744.41	246.60
744.74	246.29
745.07	246.15
745.40	246.02
745.73	245.90
746.06	245.65
746.39	245.38
746.71	245.21
747.04	245.06
747.37	245.06
747.70	245.07
748.03	244.80
748.36	244.67
748.68	244.49
749.01	244.12
749.34	243.89
749.67	243.76
750.00	243.67
750.33	243.67
750.65	243.63
750.98	243.18
751.31	242.96
751.64	242.85
751.97	242.82
752.29	242.73
752.62	242.53
752.95	242.37
753.28	242.33
753.60	242.13
753.93	242.02
754.26	241.77
754.59	241.61
754.91	241.60
755.24	241.43
755.57	241.25
755.90	241.21
756.22	241.14
756.55	241.04
756.88	240.87
757.20	240.58
757.53	240.35
757.86	240.40
758.19	240.34
758.51	240.33
758.84	240.13
759.17	239.80
759.49	239.64
759.82	239.64
760.15	239.48
760.47	239.40
760.80	239.29
761.13	239.29
761.45	239.17
761.78	239.03
762.11	239.02
762.43	239.10
762.76	239.04
763.08	238.91
763.41	238.84
763.74	238.67
764.06	238.62
764.39	238.50
764.71	238.28
765.04	238.13
765.37	237.99
765.69	237.96
766.02	237.90
766.34	237.86
766.67	237.72
767.00	237.73
767.32	237.63
767.65	237.57
767.97	237.28
768.30	237.04
768.62	236.98
768.95	236.80
769.27	236.52
769.60	236.39
769.92	236.27
770.25	236.08
770.57	236.04
770.90	235.94
771.22	235.87
771.55	235.73
771.87	235.71
772.20	235.51
772.52	235.46
772.85	235.63
773.17	235.48
773.50	235.26
773.82	235.10
774.15	234.93
774.47	234.79
774.80	234.74
775.12	234.71
775.45	234.57
775.77	234.42
776.09	234.43
776.42	234.33
776.74	234.24
777.07	234.17
777.39	234.03
777.72	233.90
778.04	233.82
778.36	233.72
778.69	233.52
779.01	233.46
779.33	233.22
779.66	233.03
779.98	232.89
780.31	232.89
780.63	232.94
780.95	232.98
781.28	232.95
781.60	232.95
781.92	232.90
782.25	233.00
782.57	233.04
782.89	232.98
783.22	232.98
783.54	232.88
783.86	232.85
784.19	232.80
784.51	232.84
784.83	232.94
785.16	232.90
785.48	232.88
785.80	233.01
786.12	232.98
786.45	232.90
786.77	232.99
787.09	232.96
787.42	232.72
787.74	232.68
788.06	232.56
788.38	232.40
788.71	232.42
789.03	232.22
789.35	232.28
