SpectraSuite Data File
++++++++++++++++++++++++++++++++++++
Date: Fri Feb 01 14:34:11 EST 2013
User: group
Dark Spectrum Present: No
Reference Spectrum Present: No
Number of Sampled Component Spectra: 1
Spectrometers: USB2E7196
Integration Time (usec): 70000 (USB2E7196)
Spectra Averaged: 10 (USB2E7196)
Boxcar Smoothing: 10 (USB2E7196)
Correct for Electrical Dark: No (USB2E7196)
Strobe/Lamp Enabled: No (USB2E7196)
Correct for Detector Non-linearity: No (USB2E7196)
Correct for Stray Light: No (USB2E7196)
Number of Pixels in Processed Spectrum: 2048
>>>>>Begin Processed Spectral Data<<<<<
339.09	0.00
339.48	213.70
339.86	215.80
340.24	220.30
340.63	219.60
341.01	222.50
341.39	223.10
341.78	226.30
342.16	223.70
342.54	226.40
342.93	213.83
343.31	224.62
343.69	225.22
344.07	225.69
344.46	225.96
344.84	226.38
345.22	226.60
345.60	226.79
345.99	226.96
346.37	227.13
346.75	227.27
347.13	227.38
347.52	227.46
347.90	227.60
348.28	227.63
348.66	227.65
349.05	227.70
349.43	227.75
349.81	227.72
350.19	227.69
350.57	227.80
350.96	227.93
351.34	228.01
351.72	228.13
352.10	228.31
352.48	228.51
352.87	228.54
353.25	228.71
353.63	228.80
354.01	228.78
354.39	228.93
354.77	228.94
355.15	229.00
355.54	228.99
355.92	229.07
356.30	229.16
356.68	229.30
357.06	229.44
357.44	229.54
357.82	229.74
358.20	229.96
358.58	229.95
358.97	230.03
359.35	230.20
359.73	230.26
360.11	230.40
360.49	230.34
360.87	230.44
361.25	230.45
361.63	230.57
362.01	230.59
362.39	230.63
362.77	230.76
363.15	230.80
363.53	230.98
363.91	230.99
364.29	230.99
364.67	230.97
365.05	231.03
365.43	231.12
365.81	231.11
366.19	231.16
366.57	231.33
366.95	231.30
367.33	231.27
367.71	231.24
368.09	231.15
368.47	231.27
368.85	231.21
369.23	231.30
369.61	231.22
369.99	231.30
370.37	231.25
370.75	231.23
371.13	231.26
371.51	231.08
371.89	231.03
372.27	231.07
372.65	231.05
373.03	230.93
373.41	230.78
373.78	230.69
374.16	230.50
374.54	230.40
374.92	230.30
375.30	230.19
375.68	230.16
376.06	230.17
376.44	230.07
376.82	230.06
377.19	229.87
377.57	229.80
377.95	229.69
378.33	229.65
378.71	229.46
379.09	229.28
379.47	229.25
379.84	229.15
380.22	228.94
380.60	228.79
380.98	228.70
381.36	228.64
381.73	228.45
382.11	228.38
382.49	228.36
382.87	228.19
383.25	228.13
383.62	228.21
384.00	228.06
384.38	227.99
384.76	227.90
385.13	227.90
385.51	227.80
385.89	227.65
386.27	227.62
386.64	227.68
387.02	227.66
387.40	227.69
387.78	227.69
388.15	227.73
388.53	227.66
388.91	227.61
389.29	227.58
389.66	227.67
390.04	227.60
390.42	227.50
390.79	227.60
391.17	227.60
391.55	227.37
391.92	227.37
392.30	227.38
392.68	227.30
393.05	227.23
393.43	227.33
393.81	227.43
394.18	227.40
394.56	227.26
394.94	227.37
395.31	227.30
395.69	227.34
396.06	227.30
396.44	227.45
396.82	227.50
397.19	227.57
397.57	227.70
397.95	227.87
398.32	227.98
398.70	228.06
399.07	228.23
399.45	228.42
399.82	228.52
400.20	228.50
400.58	228.61
400.95	228.70
401.33	228.94
401.70	229.27
402.08	229.53
402.45	229.76
402.83	230.02
403.20	230.30
403.58	230.54
403.95	230.93
404.33	231.21
404.71	231.59
405.08	232.08
405.46	232.33
405.83	232.65
406.21	233.00
406.58	233.44
406.96	233.93
407.33	234.49
407.70	234.97
408.08	235.80
408.45	236.52
408.83	237.32
409.20	237.82
409.58	238.40
409.95	239.10
410.33	239.98
410.70	240.79
411.08	241.75
411.45	242.75
411.82	243.78
412.20	244.84
412.57	246.15
412.95	247.17
413.32	248.50
413.69	249.94
414.07	251.52
414.44	253.08
414.82	254.54
415.19	256.26
415.56	258.18
415.94	260.18
416.31	262.17
416.68	264.19
417.06	266.62
417.43	268.96
417.81	271.54
418.18	274.14
418.55	276.92
418.93	279.83
419.30	282.87
419.67	286.07
420.04	289.41
420.42	292.85
420.79	296.82
421.16	300.80
421.54	304.94
421.91	309.12
422.28	313.58
422.66	318.38
423.03	323.06
423.40	327.80
423.77	332.84
424.15	338.17
424.52	343.69
424.89	349.61
425.26	355.20
425.64	360.54
426.01	366.51
426.38	372.77
426.75	379.00
427.13	385.53
427.50	392.33
427.87	399.40
428.24	406.40
428.61	413.09
428.99	420.50
429.36	428.30
429.73	436.19
430.10	443.86
430.47	451.77
430.85	460.14
431.22	468.97
431.59	478.08
431.96	486.99
432.33	496.76
432.70	506.12
433.08	517.40
433.45	527.88
433.82	538.33
434.19	549.84
434.56	560.84
434.93	571.70
435.30	582.50
435.68	594.41
436.05	606.21
436.42	617.94
436.79	628.74
437.16	640.27
437.53	652.23
437.90	664.43
438.27	676.07
438.64	688.18
439.01	699.34
439.38	709.30
439.75	718.88
440.13	730.14
440.50	740.90
440.87	749.61
441.24	758.73
441.61	768.91
441.98	776.46
442.35	785.76
442.72	794.77
443.09	803.93
443.46	809.90
443.83	813.95
444.20	817.85
444.57	822.90
444.94	825.94
445.31	829.19
445.68	831.89
446.05	834.07
446.42	834.17
446.79	834.33
447.16	834.60
447.53	835.03
447.90	832.07
448.27	829.04
448.64	824.11
449.01	821.04
449.37	814.24
449.74	807.90
450.11	799.70
450.48	790.81
450.85	781.60
451.22	773.80
451.59	766.53
451.96	759.49
452.33	749.94
452.70	741.49
453.07	730.77
453.43	720.29
453.80	709.83
454.17	699.82
454.54	690.25
454.91	679.59
455.28	669.36
455.65	660.00
456.02	650.04
456.38	641.84
456.75	631.53
457.12	622.92
457.49	614.16
457.86	606.17
458.23	599.00
458.59	591.05
458.96	582.74
459.33	575.59
459.70	568.33
460.07	562.34
460.43	555.29
460.80	548.93
461.17	543.16
461.54	537.17
461.91	531.50
462.27	525.76
462.64	520.84
463.01	515.50
463.38	509.93
463.74	504.84
464.11	500.18
464.48	496.04
464.85	491.70
465.21	488.41
465.58	484.50
465.95	480.17
466.32	476.16
466.68	472.65
467.05	469.01
467.42	465.38
467.78	461.47
468.15	457.91
468.52	455.25
468.88	451.80
469.25	448.67
469.62	445.96
469.98	443.04
470.35	440.48
470.72	437.91
471.08	435.30
471.45	432.98
471.82	430.65
472.18	428.19
472.55	426.28
472.92	424.07
473.28	422.07
473.65	419.99
474.02	418.27
474.38	416.66
474.75	415.23
475.11	413.89
475.48	412.85
475.85	411.89
476.21	410.63
476.58	409.66
476.94	409.07
477.31	408.29
477.67	407.49
478.04	406.70
478.41	406.13
478.77	405.65
479.14	405.02
479.50	404.75
479.87	404.68
480.23	404.56
480.60	404.28
480.96	404.17
481.33	404.59
481.69	404.76
482.06	404.88
482.42	404.73
482.79	405.00
483.15	405.44
483.52	406.20
483.88	406.84
484.25	407.47
484.61	408.16
484.98	408.99
485.34	410.21
485.71	411.50
486.07	412.78
486.44	414.07
486.80	415.56
487.17	416.88
487.53	418.40
487.90	420.12
488.26	422.09
488.62	424.23
488.99	426.03
489.35	428.06
489.72	430.26
490.08	432.93
490.44	435.20
490.81	437.77
491.17	440.14
491.54	443.10
491.90	445.99
492.26	448.90
492.63	452.00
492.99	454.96
493.36	458.18
493.72	461.79
494.08	465.17
494.45	468.94
494.81	472.87
495.17	476.60
495.54	480.48
495.90	484.45
496.26	488.41
496.63	492.76
496.99	497.06
497.35	501.60
497.72	506.23
498.08	510.93
498.44	515.64
498.80	520.56
499.17	525.32
499.53	530.09
499.89	535.21
500.26	540.14
500.62	545.13
500.98	550.30
501.34	555.20
501.71	560.51
502.07	565.64
502.43	570.88
502.79	576.21
503.16	581.42
503.52	586.80
503.88	591.97
504.24	596.95
504.60	602.25
504.97	607.72
505.33	613.05
505.69	618.53
506.05	623.87
506.41	628.80
506.78	633.86
507.14	639.07
507.50	644.23
507.86	649.44
508.22	654.83
508.59	660.03
508.95	665.13
509.31	670.19
509.67	675.47
510.03	680.43
510.39	685.38
510.75	690.36
511.12	695.11
511.48	700.14
511.84	705.26
512.20	710.19
512.56	714.67
512.92	719.23
513.28	723.86
513.64	727.93
514.00	732.35
514.37	736.64
514.73	740.89
515.09	744.86
515.45	748.70
515.81	752.21
516.17	755.91
516.53	759.91
516.89	763.50
517.25	766.86
517.61	770.38
517.97	773.86
518.33	777.16
518.69	780.32
519.05	783.55
519.41	786.71
519.77	789.87
520.13	792.80
520.49	795.69
520.85	798.52
521.21	801.55
521.57	804.69
521.93	807.40
522.29	810.38
522.65	813.12
523.01	815.93
523.37	818.68
523.73	821.29
524.09	823.38
524.45	826.09
524.81	828.79
525.17	831.50
525.53	834.09
525.89	836.80
526.25	839.42
526.61	841.64
526.97	844.14
527.33	846.38
527.68	848.90
528.04	851.15
528.40	853.30
528.76	855.98
529.12	858.51
529.48	861.22
529.84	863.23
530.20	865.89
530.56	868.51
530.91	871.46
531.27	874.21
531.63	877.01
531.99	879.30
532.35	881.62
532.71	883.73
533.07	886.10
533.42	888.44
533.78	891.16
534.14	893.70
534.50	895.79
534.86	898.58
535.21	900.94
535.57	903.77
535.93	906.23
536.29	908.71
536.65	911.20
537.00	913.32
537.36	916.20
537.72	918.49
538.08	920.70
538.44	922.72
538.79	924.82
539.15	927.15
539.51	929.80
539.87	932.56
540.22	935.05
540.58	938.00
540.94	940.41
541.29	942.61
541.65	945.02
542.01	948.18
542.37	950.60
542.72	953.21
543.08	955.53
543.44	958.10
543.79	960.20
544.15	962.62
544.51	965.48
544.87	967.92
545.22	970.34
545.58	972.79
545.94	975.02
546.29	977.37
546.65	979.84
547.01	982.12
547.36	984.12
547.72	986.26
548.07	988.29
548.43	990.56
548.79	992.63
549.14	994.99
549.50	996.44
549.86	998.28
550.21	1000.29
550.57	1002.36
550.92	1004.59
551.28	1006.56
551.64	1008.28
551.99	1010.36
552.35	1012.11
552.70	1013.94
553.06	1015.85
553.41	1018.00
553.77	1020.25
554.13	1022.27
554.48	1024.28
554.84	1026.40
555.19	1028.67
555.55	1030.40
555.90	1032.21
556.26	1034.08
556.61	1036.06
556.97	1037.98
557.32	1040.10
557.68	1042.10
558.03	1044.14
558.39	1045.74
558.74	1048.16
559.10	1050.43
559.45	1052.00
559.81	1054.28
560.16	1056.18
560.52	1058.18
560.87	1060.03
561.23	1061.50
561.58	1063.44
561.94	1065.38
562.29	1066.60
562.64	1068.18
563.00	1069.68
563.35	1071.89
563.71	1074.17
564.06	1075.93
564.42	1078.00
564.77	1079.68
565.12	1081.48
565.48	1083.03
565.83	1084.61
566.19	1086.02
566.54	1087.37
566.89	1088.82
567.25	1090.12
567.60	1092.05
567.96	1093.33
568.31	1094.55
568.66	1095.78
569.02	1096.83
569.37	1097.37
569.72	1098.61
570.08	1099.50
570.43	1100.66
570.78	1100.96
571.14	1101.03
571.49	1101.54
571.84	1102.16
572.20	1102.69
572.55	1102.80
572.90	1102.81
573.26	1103.34
573.61	1103.15
573.96	1102.98
574.31	1102.57
574.67	1101.72
575.02	1100.85
575.37	1100.48
575.72	1100.12
576.08	1099.79
576.43	1098.82
576.78	1098.51
577.13	1098.18
577.49	1097.61
577.84	1096.68
578.19	1096.24
578.54	1095.83
578.90	1094.88
579.25	1093.38
579.60	1091.62
579.95	1090.14
580.30	1088.75
580.66	1087.16
581.01	1085.81
581.36	1084.30
581.71	1083.27
582.06	1082.19
582.42	1080.62
582.77	1078.98
583.12	1077.52
583.47	1075.93
583.82	1074.62
584.17	1072.82
584.53	1071.10
584.88	1069.43
585.23	1067.78
585.58	1065.74
585.93	1063.74
586.28	1062.03
586.63	1060.42
586.98	1059.07
587.34	1057.55
587.69	1056.15
588.04	1054.41
588.39	1052.93
588.74	1050.78
589.09	1048.62
589.44	1046.65
589.79	1044.88
590.14	1043.44
590.49	1041.33
590.84	1039.18
591.19	1037.22
591.54	1034.80
591.89	1032.03
592.25	1029.79
592.60	1027.11
592.95	1024.37
593.30	1021.60
593.65	1018.91
594.00	1016.12
594.35	1013.94
594.70	1011.07
595.05	1008.30
595.40	1005.52
595.75	1002.48
596.10	1000.16
596.45	997.72
596.80	995.34
597.15	992.80
597.50	989.73
597.85	987.13
598.19	984.55
598.54	981.98
598.89	979.76
599.24	977.56
599.59	974.71
599.94	972.30
600.29	969.81
600.64	967.34
600.99	964.23
601.34	961.70
601.69	958.34
602.04	955.48
602.39	952.60
602.74	949.94
603.08	947.51
603.43	944.98
603.78	942.09
604.13	938.95
604.48	935.94
604.83	933.21
605.18	930.10
605.53	926.83
605.87	923.18
606.22	919.99
606.57	916.63
606.92	913.40
607.27	910.59
607.62	907.68
607.96	904.66
608.31	902.02
608.66	898.77
609.01	895.71
609.36	892.31
609.70	888.63
610.05	884.95
610.40	881.36
610.75	877.72
611.10	874.10
611.44	870.44
611.79	867.00
612.14	863.20
612.49	859.30
612.83	855.65
613.18	852.14
613.53	848.38
613.88	844.76
614.22	841.12
614.57	837.13
614.92	833.33
615.27	829.67
615.61	825.72
615.96	821.90
616.31	818.43
616.65	815.50
617.00	812.34
617.35	808.92
617.70	805.20
618.04	801.23
618.39	797.96
618.74	794.52
619.08	790.80
619.43	787.23
619.78	784.13
620.12	780.72
620.47	777.48
620.82	774.10
621.16	770.72
621.51	767.54
621.85	764.39
622.20	760.75
622.55	757.46
622.89	754.46
623.24	751.23
623.59	747.78
623.93	744.66
624.28	741.30
624.62	738.02
624.97	734.91
625.32	732.32
625.66	729.21
626.01	726.19
626.35	723.04
626.70	720.11
627.04	716.87
627.39	713.78
627.73	710.40
628.08	707.19
628.43	703.99
628.77	700.64
629.12	697.44
629.46	694.56
629.81	691.10
630.15	687.67
630.50	684.66
630.84	681.30
631.19	677.74
631.53	674.47
631.88	671.18
632.22	667.80
632.57	664.60
632.91	661.15
633.26	657.90
633.60	654.62
633.95	651.38
634.29	648.40
634.64	645.51
634.98	642.46
635.32	639.58
635.67	636.79
636.01	634.03
636.36	631.00
636.70	628.15
637.05	625.49
637.39	622.78
637.73	619.93
638.08	617.60
638.42	614.97
638.77	612.35
639.11	609.74
639.45	607.15
639.80	603.97
640.14	601.38
640.49	598.58
640.83	596.01
641.17	593.30
641.52	590.63
641.86	587.83
642.20	585.34
642.55	582.67
642.89	579.83
643.23	577.04
643.58	574.46
643.92	571.50
644.26	568.80
644.61	566.36
644.95	563.86
645.29	560.75
645.64	557.91
645.98	555.37
646.32	552.82
646.66	550.04
647.01	547.54
647.35	544.98
647.69	542.60
648.04	540.09
648.38	537.40
648.72	534.54
649.06	531.90
649.41	529.30
649.75	526.57
650.09	524.09
650.43	521.61
650.78	518.89
651.12	516.48
651.46	514.08
651.80	511.43
652.14	509.03
652.49	506.69
652.83	504.20
653.17	501.60
653.51	499.04
653.85	496.69
654.20	494.35
654.54	491.70
654.88	489.23
655.22	486.51
655.56	484.13
655.90	481.93
656.25	479.66
656.59	477.40
656.93	475.21
657.27	472.85
657.61	470.31
657.95	468.27
658.29	466.04
658.64	463.69
658.98	461.44
659.32	459.11
659.66	456.94
660.00	454.80
660.34	452.76
660.68	450.65
661.02	448.52
661.36	446.34
661.70	444.34
662.05	442.32
662.39	440.66
662.73	438.77
663.07	436.88
663.41	434.99
663.75	433.05
664.09	431.31
664.43	429.49
664.77	427.76
665.11	425.96
665.45	424.20
665.79	422.29
666.13	420.29
666.47	418.33
666.81	416.57
667.15	414.68
667.49	412.84
667.83	411.19
668.17	409.57
668.51	407.89
668.85	406.20
669.19	404.64
669.53	402.77
669.87	401.09
670.21	399.49
670.55	397.90
670.89	396.50
671.23	394.82
671.57	393.31
671.91	391.80
672.25	390.27
672.58	388.77
672.92	387.34
673.26	385.99
673.60	384.68
673.94	383.26
674.28	381.92
674.62	380.72
674.96	379.38
675.30	377.95
675.64	376.70
675.97	375.50
676.31	374.08
676.65	372.95
676.99	371.77
677.33	370.22
677.67	368.76
678.01	367.19
678.34	365.88
678.68	364.50
679.02	363.19
679.36	361.79
679.70	360.58
680.04	359.41
680.37	358.16
680.71	356.87
681.05	355.72
681.39	354.52
681.73	353.36
682.06	352.17
682.40	351.07
682.74	350.02
683.08	348.86
683.42	347.65
683.75	346.44
684.09	345.09
684.43	344.15
684.77	342.98
685.10	341.82
685.44	340.65
685.78	339.71
686.12	338.82
686.45	337.72
686.79	336.57
687.13	335.58
687.46	334.43
687.80	333.51
688.14	332.29
688.48	331.35
688.81	330.22
689.15	329.19
689.49	328.06
689.82	326.86
690.16	325.71
690.50	324.79
690.83	323.91
691.17	323.02
691.51	321.95
691.84	321.13
692.18	320.20
692.52	319.28
692.85	318.20
693.19	317.18
693.52	316.22
693.86	315.30
694.20	314.30
694.53	313.49
694.87	312.46
695.21	311.60
695.54	310.66
695.88	309.59
696.21	308.56
696.55	307.63
696.88	306.85
697.22	306.02
697.56	305.13
697.89	304.17
698.23	303.38
698.56	302.55
698.90	301.76
699.23	300.89
699.57	300.20
699.90	299.32
700.24	298.49
700.58	297.74
700.91	297.07
701.25	296.44
701.58	295.68
701.92	294.81
702.25	294.00
702.59	293.23
702.92	292.58
703.26	291.93
703.59	291.30
703.93	290.73
704.26	290.18
704.60	289.55
704.93	288.89
705.26	288.23
705.60	287.69
705.93	286.98
706.27	286.55
706.60	285.84
706.94	285.43
707.27	284.81
707.61	284.07
707.94	283.54
708.27	282.85
708.61	282.25
708.94	281.86
709.28	281.48
709.61	281.00
709.94	280.58
710.28	280.05
710.61	279.53
710.95	278.87
711.28	278.46
711.61	277.88
711.95	277.30
712.28	276.63
712.61	276.05
712.95	275.65
713.28	275.21
713.61	274.67
713.95	274.09
714.28	273.58
714.61	273.20
714.95	272.63
715.28	272.17
715.61	271.66
715.95	271.23
716.28	270.76
716.61	270.26
716.95	269.76
717.28	269.34
717.61	268.90
717.94	268.33
718.28	267.54
718.61	267.13
718.94	266.77
719.27	266.38
719.61	266.02
719.94	265.57
720.27	265.00
720.60	264.56
720.94	264.17
721.27	263.94
721.60	263.64
721.93	263.19
722.27	262.87
722.60	262.58
722.93	262.12
723.26	261.76
723.59	261.42
723.93	261.03
724.26	260.73
724.59	260.33
724.92	260.14
725.25	259.94
725.59	259.59
725.92	259.27
726.25	258.97
726.58	258.56
726.91	258.14
727.24	257.79
727.57	257.49
727.91	257.14
728.24	256.88
728.57	256.56
728.90	256.36
729.23	255.96
729.56	255.82
729.89	255.58
730.22	255.20
730.55	254.94
730.89	254.72
731.22	254.38
731.55	254.11
731.88	253.79
732.21	253.61
732.54	253.27
732.87	253.09
733.20	252.95
733.53	252.75
733.86	252.58
734.19	252.39
734.52	252.16
734.85	252.07
735.18	251.77
735.51	251.56
735.84	251.24
736.17	251.03
736.50	250.73
736.83	250.72
737.16	250.60
737.49	250.36
737.82	250.10
738.15	249.90
738.48	249.87
738.81	249.86
739.14	249.54
739.47	249.46
739.80	249.26
740.13	249.04
740.46	248.93
740.79	248.81
741.12	248.57
741.45	248.33
741.78	248.09
742.11	247.86
742.44	247.62
742.77	247.49
743.10	247.31
743.43	247.02
743.75	246.62
744.08	246.60
744.41	246.41
744.74	246.30
745.07	246.14
745.40	245.81
745.73	245.54
746.06	245.38
746.39	245.21
746.71	245.01
747.04	244.89
747.37	244.75
747.70	244.61
748.03	244.57
748.36	244.49
748.68	244.29
749.01	244.12
749.34	243.95
749.67	243.82
750.00	243.70
750.33	243.66
750.65	243.51
750.98	243.12
751.31	243.02
751.64	242.86
751.97	242.77
752.29	242.61
752.62	242.47
752.95	242.35
753.28	242.15
753.60	241.94
753.93	241.84
754.26	241.52
754.59	241.25
754.91	241.10
755.24	240.92
755.57	240.71
755.90	240.56
756.22	240.43
756.55	240.21
756.88	239.99
757.20	239.80
757.53	239.63
757.86	239.52
758.19	239.36
758.51	239.23
758.84	238.91
759.17	238.91
759.49	238.81
759.82	238.78
760.15	238.70
760.47	238.59
760.80	238.37
761.13	238.40
761.45	238.30
761.78	238.07
762.11	237.95
762.43	237.85
762.76	237.78
763.08	237.72
763.41	237.67
763.74	237.64
764.06	237.51
764.39	237.41
764.71	237.33
765.04	237.16
765.37	237.11
765.69	237.10
766.02	236.88
766.34	236.72
766.67	236.50
767.00	236.40
767.32	236.40
767.65	236.36
767.97	236.22
768.30	236.08
768.62	236.12
768.95	236.13
769.27	236.05
769.60	235.99
769.92	235.81
770.25	235.64
770.57	235.46
770.90	235.47
771.22	235.39
771.55	235.23
771.87	235.24
772.20	235.17
772.52	235.29
772.85	235.50
773.17	235.45
773.50	235.39
773.82	235.31
774.15	235.15
774.47	235.00
774.80	234.92
775.12	234.91
775.45	234.68
775.77	234.54
776.09	234.50
776.42	234.38
776.74	234.35
777.07	234.30
777.39	234.30
777.72	234.22
778.04	234.20
778.36	234.32
778.69	234.28
779.01	234.17
779.33	233.86
779.66	233.54
779.98	233.40
780.31	233.30
780.63	233.37
780.95	233.40
781.28	233.35
781.60	233.27
781.92	233.22
782.25	233.28
782.57	233.22
782.89	233.22
783.22	233.02
783.54	232.98
783.86	233.07
784.19	233.09
784.51	233.01
784.83	232.89
785.16	232.72
785.48	232.73
785.80	232.71
786.12	232.74
786.45	232.75
786.77	232.84
787.09	232.89
787.42	232.72
787.74	232.71
788.06	232.73
788.38	232.80
788.71	232.75
789.03	232.73
789.35	232.78
789.67	232.63
789.99	232.80
790.32	232.72
790.64	232.64
790.96	232.71
791.28	232.71
791.61	232.70
