SpectraSuite Data File
++++++++++++++++++++++++++++++++++++
Date: Fri Feb 01 14:34:34 EST 2013
User: group
Dark Spectrum Present: No
Reference Spectrum Present: No
Number of Sampled Component Spectra: 1
Spectrometers: USB2E7196
Integration Time (usec): 70000 (USB2E7196)
Spectra Averaged: 10 (USB2E7196)
Boxcar Smoothing: 10 (USB2E7196)
Correct for Electrical Dark: No (USB2E7196)
Strobe/Lamp Enabled: No (USB2E7196)
Correct for Detector Non-linearity: No (USB2E7196)
Correct for Stray Light: No (USB2E7196)
Number of Pixels in Processed Spectrum: 2048
>>>>>Begin Processed Spectral Data<<<<<
339.09	0.00
339.48	216.70
339.86	219.70
340.24	219.90
340.63	220.10
341.01	223.40
341.39	224.80
341.78	225.30
342.16	226.90
342.54	228.00
342.93	215.50
343.31	226.48
343.69	226.98
344.07	227.36
344.46	227.87
344.84	228.34
345.22	228.70
345.60	228.88
345.99	229.05
346.37	229.11
346.75	229.21
347.13	229.35
347.52	229.49
347.90	229.52
348.28	229.55
348.66	229.64
349.05	229.63
349.43	229.76
349.81	229.81
350.19	229.85
350.57	229.96
350.96	229.92
351.34	229.93
351.72	230.11
352.10	230.19
352.48	230.14
352.87	230.19
353.25	230.16
353.63	230.22
354.01	230.30
354.39	230.42
354.77	230.50
355.15	230.56
355.54	230.51
355.92	230.51
356.30	230.68
356.68	230.87
357.06	230.90
357.44	230.92
357.82	230.99
358.20	231.09
358.58	231.05
358.97	231.05
359.35	231.05
359.73	231.09
360.11	231.17
360.49	231.22
360.87	231.18
361.25	231.22
361.63	231.25
362.01	231.26
362.39	231.29
362.77	231.28
363.15	231.23
363.53	231.25
363.91	231.22
364.29	231.16
364.67	230.91
365.05	230.90
365.43	230.75
365.81	230.72
366.19	230.85
366.57	230.82
366.95	230.76
367.33	230.80
367.71	230.72
368.09	230.70
368.47	230.68
368.85	230.63
369.23	230.62
369.61	230.52
369.99	230.52
370.37	230.42
370.75	230.41
371.13	230.23
371.51	230.12
371.89	230.06
372.27	229.94
372.65	229.84
373.03	229.75
373.41	229.78
373.78	229.66
374.16	229.36
374.54	229.24
374.92	229.13
375.30	228.91
375.68	228.79
376.06	228.66
376.44	228.56
376.82	228.41
377.19	228.30
377.57	228.23
377.95	228.10
378.33	228.06
378.71	227.82
379.09	227.78
379.47	227.67
379.84	227.51
380.22	227.42
380.60	227.22
380.98	227.13
381.36	227.02
381.73	226.89
382.11	226.90
382.49	226.80
382.87	226.80
383.25	226.71
383.62	226.84
384.00	226.71
384.38	226.69
384.76	226.85
385.13	226.82
385.51	226.80
385.89	226.72
386.27	226.68
386.64	226.76
387.02	226.82
387.40	226.86
387.78	227.02
388.15	227.10
388.53	227.17
388.91	227.21
389.29	227.17
389.66	227.31
390.04	227.20
390.42	227.29
390.79	227.24
391.17	227.39
391.55	227.23
391.92	227.30
392.30	227.33
392.68	227.26
393.05	227.32
393.43	227.40
393.81	227.50
394.18	227.48
394.56	227.60
394.94	227.74
395.31	227.73
395.69	227.82
396.06	227.98
396.44	228.15
396.82	228.32
397.19	228.67
397.57	228.77
397.95	229.04
398.32	229.20
398.70	229.49
399.07	229.63
399.45	229.79
399.82	230.00
400.20	230.15
400.58	230.40
400.95	230.50
401.33	230.75
401.70	231.13
402.08	231.32
402.45	231.46
402.83	231.71
403.20	231.95
403.58	232.13
403.95	232.37
404.33	232.66
404.71	232.85
405.08	233.08
405.46	233.31
405.83	233.74
406.21	234.09
406.58	234.36
406.96	234.69
407.33	235.08
407.70	235.58
408.08	236.22
408.45	236.70
408.83	237.28
409.20	237.73
409.58	238.22
409.95	238.90
410.33	239.52
410.70	240.02
411.08	240.86
411.45	241.65
411.82	242.42
412.20	243.31
412.57	244.43
412.95	245.38
413.32	246.59
413.69	247.66
414.07	248.87
414.44	250.21
414.82	251.64
415.19	253.25
415.56	254.93
415.94	256.56
416.31	258.43
416.68	260.21
417.06	262.49
417.43	264.49
417.81	266.97
418.18	269.45
418.55	272.14
418.93	274.85
419.30	277.61
419.67	280.51
420.04	283.63
420.42	286.73
420.79	290.40
421.16	294.25
421.54	298.05
421.91	302.04
422.28	306.20
422.66	310.63
423.03	314.92
423.40	319.29
423.77	324.10
424.15	328.81
424.52	334.00
424.89	339.22
425.26	344.51
425.64	349.37
426.01	354.82
426.38	360.54
426.75	366.36
427.13	372.44
427.50	378.83
427.87	385.34
428.24	391.91
428.61	398.11
428.99	405.01
429.36	412.59
429.73	419.86
430.10	427.00
430.47	434.25
430.85	442.09
431.22	450.22
431.59	458.66
431.96	466.96
432.33	476.06
432.70	484.92
433.08	495.35
433.45	505.23
433.82	515.10
434.19	525.70
434.56	536.29
434.93	546.52
435.30	556.52
435.68	567.81
436.05	578.85
436.42	589.80
436.79	599.50
437.16	610.04
437.53	621.44
437.90	632.72
438.27	643.75
438.64	654.96
439.01	665.57
439.38	675.04
439.75	684.18
440.13	694.42
440.50	704.53
440.87	712.85
441.24	721.38
441.61	730.83
441.98	738.21
442.35	746.53
442.72	754.92
443.09	763.25
443.46	768.56
443.83	772.19
444.20	775.70
444.57	780.61
444.94	783.53
445.31	786.39
445.68	789.19
446.05	791.21
446.42	791.49
446.79	791.55
447.16	791.46
447.53	791.85
447.90	789.40
448.27	786.56
448.64	781.84
449.01	779.13
449.37	773.00
449.74	766.97
450.11	759.38
450.48	751.33
450.85	742.86
451.22	735.52
451.59	729.01
451.96	722.78
452.33	713.74
452.70	705.57
453.07	695.74
453.43	685.73
453.80	675.92
454.17	666.40
454.54	657.43
454.91	647.74
455.28	638.25
455.65	629.22
456.02	620.01
456.38	612.18
456.75	602.35
457.12	594.19
457.49	586.07
457.86	578.44
458.23	571.53
458.59	564.09
458.96	556.69
459.33	549.94
459.70	543.06
460.07	537.56
460.43	531.25
460.80	525.26
461.17	519.92
461.54	514.42
461.91	509.07
462.27	503.64
462.64	499.03
463.01	493.90
463.38	489.03
463.74	484.11
464.11	479.88
464.48	475.97
464.85	471.74
465.21	468.47
465.58	464.95
465.95	460.80
466.32	457.52
466.68	453.97
467.05	450.50
467.42	447.12
467.78	443.61
468.15	440.02
468.52	437.25
468.88	434.07
469.25	431.09
469.62	428.89
469.98	426.24
470.35	423.67
470.72	421.31
471.08	418.61
471.45	416.47
471.82	414.21
472.18	411.84
472.55	410.08
472.92	408.17
473.28	406.37
473.65	404.65
474.02	402.70
474.38	401.33
474.75	399.96
475.11	398.41
475.48	397.28
475.85	396.60
476.21	395.69
476.58	394.70
476.94	394.05
477.31	393.21
477.67	392.49
478.04	391.92
478.41	391.33
478.77	391.14
479.14	390.75
479.50	390.57
479.87	390.41
480.23	390.37
480.60	390.13
480.96	390.12
481.33	390.40
481.69	390.66
482.06	390.79
482.42	390.87
482.79	391.15
483.15	391.56
483.52	392.15
483.88	392.72
484.25	393.48
484.61	394.10
484.98	394.76
485.34	395.70
485.71	396.80
486.07	398.07
486.44	399.09
486.80	400.29
487.17	401.67
487.53	403.36
487.90	404.96
488.26	406.85
488.62	408.56
488.99	410.24
489.35	412.14
489.72	414.20
490.08	416.49
490.44	418.70
490.81	420.92
491.17	422.97
491.54	425.45
491.90	427.97
492.26	430.56
492.63	433.30
492.99	436.06
493.36	438.80
493.72	441.87
494.08	444.92
494.45	448.24
494.81	451.59
495.17	454.75
495.54	458.16
495.90	461.50
496.26	464.90
496.63	468.47
496.99	472.11
497.35	475.88
497.72	479.66
498.08	483.49
498.44	487.43
498.80	491.76
499.17	495.69
499.53	499.63
499.89	503.80
500.26	507.78
500.62	511.88
500.98	516.31
501.34	520.51
501.71	524.85
502.07	528.98
502.43	533.07
502.79	537.43
503.16	541.71
503.52	545.98
503.88	550.19
504.24	554.50
504.60	559.06
504.97	563.46
505.33	568.02
505.69	572.68
506.05	577.26
506.41	581.40
506.78	585.75
507.14	589.99
507.50	594.11
507.86	598.49
508.22	602.85
508.59	607.09
508.95	611.19
509.31	615.32
509.67	619.50
510.03	623.73
510.39	627.83
510.75	631.90
511.12	635.82
511.48	640.09
511.84	643.92
512.20	647.44
512.56	651.21
512.92	654.46
513.28	658.04
513.64	661.33
514.00	664.70
514.37	668.05
514.73	671.27
515.09	674.58
515.45	677.58
515.81	680.35
516.17	683.18
516.53	686.16
516.89	688.89
517.25	691.54
517.61	694.18
517.97	696.43
518.33	698.58
518.69	700.99
519.05	703.34
519.41	705.91
519.77	708.58
520.13	710.94
520.49	713.61
520.85	715.61
521.21	717.72
521.57	720.11
521.93	722.00
522.29	724.42
522.65	726.57
523.01	728.95
523.37	730.92
523.73	732.71
524.09	734.43
524.45	736.59
524.81	738.55
525.17	740.60
525.53	742.98
525.89	745.20
526.25	747.33
526.61	748.96
526.97	750.79
527.33	752.35
527.68	754.02
528.04	755.79
528.40	757.71
528.76	759.82
529.12	761.69
529.48	763.99
529.84	765.86
530.20	767.83
530.56	769.81
530.91	772.30
531.27	774.74
531.63	776.92
531.99	779.06
532.35	781.16
532.71	783.06
533.07	785.03
533.42	787.28
533.78	789.59
534.14	792.21
534.50	794.12
534.86	796.63
535.21	798.65
535.57	801.01
535.93	803.35
536.29	805.66
536.65	808.10
537.00	810.13
537.36	812.43
537.72	814.69
538.08	817.04
538.44	819.15
538.79	821.46
539.15	823.98
539.51	826.26
539.87	829.13
540.22	831.80
540.58	834.61
540.94	836.95
541.29	839.21
541.65	841.60
542.01	844.53
542.37	847.04
542.72	849.95
543.08	852.33
543.44	854.93
543.79	857.52
544.15	860.16
544.51	863.23
544.87	866.17
545.22	869.18
545.58	871.56
545.94	874.08
546.29	876.56
546.65	879.25
547.01	881.83
547.36	884.13
547.72	886.54
548.07	889.16
548.43	891.92
548.79	894.55
549.14	896.52
549.50	899.09
549.86	901.37
550.21	903.72
550.57	906.53
550.92	908.97
551.28	911.36
551.64	913.86
551.99	916.38
552.35	918.50
552.70	920.80
553.06	923.67
553.41	926.41
553.77	929.26
554.13	931.82
554.48	934.60
554.84	937.16
555.19	939.80
555.55	942.25
555.90	944.48
556.26	946.67
556.61	949.72
556.97	951.96
557.32	954.85
557.68	957.58
558.03	959.88
558.39	962.64
558.74	965.11
559.10	967.15
559.45	969.54
559.81	972.54
560.16	974.78
560.52	977.09
560.87	979.53
561.23	981.60
561.58	983.81
561.94	985.49
562.29	987.47
562.64	989.49
563.00	991.44
563.35	994.03
563.71	996.67
564.06	998.67
564.42	1000.85
564.77	1002.70
565.12	1004.77
565.48	1006.90
565.83	1008.79
566.19	1010.52
566.54	1012.58
566.89	1014.07
567.25	1015.68
567.60	1017.68
567.96	1019.43
568.31	1021.18
568.66	1022.71
569.02	1024.10
569.37	1025.84
569.72	1027.48
570.08	1028.96
570.43	1030.22
570.78	1031.02
571.14	1031.87
571.49	1033.16
571.84	1034.57
572.20	1035.52
572.55	1035.99
572.90	1036.70
573.26	1037.36
573.61	1038.38
573.96	1039.22
574.31	1039.43
574.67	1039.59
575.02	1039.49
575.37	1039.42
575.72	1039.24
576.08	1039.24
576.43	1039.19
576.78	1039.18
577.13	1039.11
577.49	1039.16
577.84	1039.00
578.19	1039.11
578.54	1038.93
578.90	1038.28
579.25	1037.26
579.60	1036.65
579.95	1036.33
580.30	1035.53
580.66	1034.63
581.01	1033.68
581.36	1032.66
581.71	1032.25
582.06	1031.36
582.42	1030.44
582.77	1029.40
583.12	1028.29
583.47	1027.44
583.82	1026.42
584.17	1025.10
584.53	1024.15
584.88	1022.76
585.23	1021.49
585.58	1020.08
585.93	1018.79
586.28	1017.80
586.63	1016.63
586.98	1015.40
587.34	1013.90
587.69	1012.55
588.04	1011.12
588.39	1009.79
588.74	1007.88
589.09	1006.22
589.44	1004.27
589.79	1002.90
590.14	1001.80
590.49	999.89
590.84	997.98
591.19	996.31
591.54	994.43
591.89	991.98
592.25	990.13
592.60	987.69
592.95	985.05
593.30	982.43
593.65	979.99
594.00	977.45
594.35	975.31
594.70	972.56
595.05	970.11
595.40	967.60
595.75	964.85
596.10	962.66
596.45	960.56
596.80	958.56
597.15	956.14
597.50	953.21
597.85	951.29
598.19	948.81
598.54	946.44
598.89	944.35
599.24	942.51
599.59	939.97
599.94	937.82
600.29	935.62
600.64	933.34
600.99	930.65
601.34	928.54
601.69	925.69
602.04	923.45
602.39	920.87
602.74	918.48
603.08	916.23
603.43	913.82
603.78	910.97
604.13	908.40
604.48	905.90
604.83	903.42
605.18	900.68
605.53	898.05
605.87	894.89
606.22	891.95
606.57	888.92
606.92	886.40
607.27	883.93
607.62	881.40
607.96	878.87
608.31	876.31
608.66	873.33
609.01	870.40
609.36	867.51
609.70	864.25
610.05	860.87
610.40	857.74
610.75	854.62
611.10	851.42
611.44	847.67
611.79	844.31
612.14	841.15
612.49	837.49
612.83	833.73
613.18	830.64
613.53	827.30
613.88	823.55
614.22	819.88
614.57	816.00
614.92	812.36
615.27	809.05
615.61	805.52
615.96	801.94
616.31	798.75
616.65	795.89
617.00	792.92
617.35	790.02
617.70	786.63
618.04	783.01
618.39	779.61
618.74	776.62
619.08	773.16
619.43	769.96
619.78	766.98
620.12	764.20
620.47	761.11
620.82	757.75
621.16	754.81
621.51	751.73
621.85	748.85
622.20	745.70
622.55	742.50
622.89	739.47
623.24	736.72
623.59	733.56
623.93	730.25
624.28	727.33
624.62	724.44
624.97	721.57
625.32	718.82
625.66	715.97
626.01	712.89
626.35	710.16
626.70	706.98
627.04	704.10
627.39	700.85
627.73	697.68
628.08	694.85
628.43	691.69
628.77	688.85
629.12	685.62
629.46	682.65
629.81	679.34
630.15	676.14
630.50	673.00
630.84	669.84
631.19	666.58
631.53	663.46
631.88	660.06
632.22	656.69
632.57	653.74
632.91	650.80
633.26	647.98
633.60	644.83
633.95	641.97
634.29	639.02
634.64	636.49
634.98	633.41
635.32	630.65
635.67	628.02
636.01	625.08
636.36	622.18
636.70	619.56
637.05	616.94
637.39	614.41
637.73	611.73
638.08	609.30
638.42	606.78
638.77	604.22
639.11	601.42
639.45	598.74
639.80	595.98
640.14	593.27
640.49	590.52
640.83	587.92
641.17	585.21
641.52	582.45
641.86	579.73
642.20	577.49
642.55	574.83
642.89	572.48
643.23	569.98
643.58	567.85
643.92	565.14
644.26	562.65
644.61	560.18
644.95	557.66
645.29	554.82
645.64	552.19
645.98	549.49
646.32	547.29
646.66	544.79
647.01	542.25
647.35	539.79
647.69	537.26
648.04	534.94
648.38	532.32
648.72	529.76
649.06	527.14
649.41	524.58
649.75	521.79
650.09	519.09
650.43	516.55
650.78	513.80
651.12	511.36
651.46	508.84
651.80	506.45
652.14	504.01
652.49	501.70
652.83	499.45
653.17	497.00
653.51	494.48
653.85	492.31
654.20	489.92
654.54	487.51
654.88	484.79
655.22	482.32
655.56	479.95
655.90	477.80
656.25	475.71
656.59	473.40
656.93	471.44
657.27	469.26
657.61	466.81
657.95	464.83
658.29	462.72
658.64	460.65
658.98	458.26
659.32	456.10
659.66	454.12
660.00	451.90
660.34	449.72
660.68	447.64
661.02	445.38
661.36	443.53
661.70	441.53
662.05	440.05
662.39	438.20
662.73	436.47
663.07	434.60
663.41	432.79
663.75	430.90
664.09	429.21
664.43	427.41
664.77	425.84
665.11	424.11
665.45	422.35
665.79	420.68
666.13	419.05
666.47	417.23
666.81	415.47
667.15	413.62
667.49	411.97
667.83	410.23
668.17	408.69
668.51	406.78
668.85	405.09
669.19	403.41
669.53	401.71
669.87	399.96
670.21	398.28
670.55	396.46
670.89	395.11
671.23	393.48
671.57	391.81
671.91	390.17
672.25	388.54
672.58	386.94
672.92	385.41
673.26	384.00
673.60	382.68
673.94	381.17
674.28	380.05
674.62	378.81
674.96	377.54
675.30	376.17
675.64	374.88
675.97	373.64
676.31	372.29
676.65	370.89
676.99	369.68
677.33	368.47
677.67	367.30
678.01	366.04
678.34	364.82
678.68	363.62
679.02	362.40
679.36	361.23
679.70	360.08
680.04	358.76
680.37	357.49
680.71	356.22
681.05	355.18
681.39	353.88
681.73	352.79
682.06	351.69
682.40	350.73
682.74	349.59
683.08	348.47
683.42	347.26
683.75	346.23
684.09	345.01
684.43	343.93
684.77	342.78
685.10	341.51
685.44	340.24
685.78	339.18
686.12	337.98
686.45	336.90
686.79	335.80
687.13	334.91
687.46	333.84
687.80	332.89
688.14	331.68
688.48	330.64
688.81	329.40
689.15	328.39
689.49	327.15
689.82	326.28
690.16	325.19
690.50	324.38
690.83	323.47
691.17	322.52
691.51	321.49
691.84	320.60
692.18	319.58
692.52	318.69
692.85	317.84
693.19	317.09
693.52	316.18
693.86	315.33
694.20	314.22
694.53	313.32
694.87	312.23
695.21	311.39
695.54	310.58
695.88	309.71
696.21	308.74
696.55	307.80
696.88	306.88
697.22	306.10
697.56	305.29
697.89	304.31
698.23	303.49
698.56	302.61
698.90	301.72
699.23	300.94
699.57	300.13
699.90	299.28
700.24	298.33
700.58	297.44
700.91	296.56
701.25	296.08
701.58	295.44
701.92	294.85
702.25	294.09
702.59	293.27
702.92	292.62
703.26	291.95
703.59	291.40
703.93	290.90
704.26	290.21
704.60	289.38
704.93	288.75
705.26	288.03
705.60	287.48
705.93	286.88
706.27	286.34
706.60	285.82
706.94	285.20
707.27	284.73
707.61	284.20
707.94	283.76
708.27	282.96
708.61	282.29
708.94	281.59
709.28	281.12
709.61	280.60
709.94	280.04
710.28	279.44
710.61	278.92
710.95	278.10
711.28	277.72
711.61	277.21
711.95	276.80
712.28	276.30
712.61	275.78
712.95	275.36
713.28	274.92
713.61	274.35
713.95	273.76
714.28	273.24
714.61	272.65
714.95	272.11
715.28	271.64
715.61	271.18
715.95	270.85
716.28	270.27
716.61	269.75
716.95	269.25
717.28	268.88
717.61	268.47
717.94	268.05
718.28	267.41
718.61	267.04
718.94	266.48
719.27	266.16
719.61	265.80
719.94	265.28
720.27	264.85
720.60	264.42
720.94	264.20
721.27	263.75
721.60	263.41
721.93	263.04
722.27	262.88
722.60	262.46
722.93	261.96
723.26	261.66
723.59	261.32
723.93	261.09
724.26	260.77
724.59	260.48
724.92	260.22
725.25	260.01
725.59	259.68
725.92	259.49
726.25	259.22
726.58	258.87
726.91	258.55
727.24	258.29
727.57	258.03
727.91	257.63
728.24	257.40
728.57	257.18
728.90	256.89
729.23	256.49
729.56	256.33
729.89	256.14
730.22	255.85
730.55	255.62
730.89	255.34
731.22	255.14
731.55	254.77
731.88	254.53
732.21	254.18
732.54	253.94
732.87	253.57
733.20	253.23
733.53	252.98
733.86	252.75
734.19	252.36
734.52	252.18
734.85	252.09
735.18	251.83
735.51	251.61
735.84	251.51
736.17	251.18
736.50	250.90
736.83	250.91
737.16	250.69
737.49	250.54
737.82	250.41
738.15	250.12
738.48	250.00
738.81	249.72
739.14	249.50
739.47	249.22
739.80	248.97
740.13	248.80
740.46	248.55
740.79	248.44
741.12	248.28
741.45	248.03
741.78	247.69
742.11	247.50
742.44	247.26
742.77	246.96
743.10	246.89
743.43	246.65
743.75	246.28
744.08	246.34
744.41	246.10
744.74	245.83
745.07	245.60
745.40	245.33
745.73	245.26
746.06	245.11
746.39	245.00
746.71	244.89
747.04	244.66
747.37	244.50
747.70	244.24
748.03	244.09
748.36	243.91
748.68	243.76
749.01	243.52
749.34	243.38
749.67	243.29
750.00	243.14
750.33	243.10
750.65	242.92
750.98	242.50
751.31	242.30
751.64	242.14
751.97	242.19
752.29	241.98
752.62	241.66
752.95	241.34
753.28	241.13
753.60	240.95
753.93	240.83
754.26	240.68
754.59	240.47
754.91	240.22
755.24	240.00
755.57	239.84
755.90	239.77
756.22	239.59
756.55	239.27
756.88	239.11
757.20	238.80
757.53	238.46
757.86	238.46
758.19	238.29
758.51	238.06
758.84	237.83
759.17	237.70
759.49	237.69
759.82	237.85
760.15	237.71
760.47	237.70
760.80	237.58
761.13	237.45
761.45	237.41
761.78	237.38
762.11	237.40
762.43	237.29
762.76	237.23
763.08	237.16
763.41	237.18
763.74	237.00
764.06	237.03
764.39	237.04
764.71	236.85
765.04	236.70
765.37	236.66
765.69	236.60
766.02	236.68
766.34	236.54
766.67	236.40
767.00	236.44
767.32	236.37
767.65	236.48
767.97	236.42
768.30	236.31
768.62	236.32
768.95	236.25
769.27	236.26
769.60	236.12
769.92	236.09
770.25	235.92
770.57	235.90
770.90	235.73
771.22	235.67
771.55	235.60
771.87	235.49
772.20	235.45
772.52	235.34
772.85	235.48
773.17	235.46
773.50	235.38
773.82	235.26
774.15	235.25
774.47	234.94
774.80	234.85
775.12	234.77
775.45	234.58
775.77	234.56
776.09	234.49
776.42	234.50
776.74	234.51
777.07	234.56
777.39	234.47
777.72	234.40
778.04	234.37
778.36	234.33
778.69	234.37
779.01	234.28
779.33	234.20
779.66	233.85
779.98	233.82
780.31	233.83
780.63	233.86
780.95	233.69
781.28	233.69
781.60	233.70
781.92	233.73
782.25	233.73
782.57	233.60
782.89	233.46
783.22	233.30
783.54	233.20
783.86	233.18
784.19	233.20
784.51	233.28
784.83	233.22
785.16	233.15
785.48	233.12
785.80	233.15
786.12	233.10
786.45	233.15
786.77	233.06
787.09	232.94
787.42	232.81
787.74	232.80
788.06	232.84
788.38	232.73
788.71	232.68
789.03	232.60
789.35	232.58
789.67	232.60
789.99	232.66
790.32	232.51
790.64	232.49
790.96	232.62
791.28	232.53
791.61	232.49
791.93	232.53
792.25	232.55
792.57	232.69
