SpectraSuite Data File
++++++++++++++++++++++++++++++++++++
Date: Fri Feb 01 14:37:10 EST 2013
User: group
Dark Spectrum Present: No
Reference Spectrum Present: No
Number of Sampled Component Spectra: 1
Spectrometers: USB2E7196
Integration Time (usec): 70000 (USB2E7196)
Spectra Averaged: 10 (USB2E7196)
Boxcar Smoothing: 10 (USB2E7196)
Correct for Electrical Dark: No (USB2E7196)
Strobe/Lamp Enabled: No (USB2E7196)
Correct for Detector Non-linearity: No (USB2E7196)
Correct for Stray Light: No (USB2E7196)
Number of Pixels in Processed Spectrum: 2048
>>>>>Begin Processed Spectral Data<<<<<
339.09	0.00
339.48	216.20
339.86	218.80
340.24	220.60
340.63	222.60
341.01	225.00
341.39	223.40
341.78	224.60
342.16	226.10
342.54	226.90
342.93	215.33
343.31	226.16
343.69	226.73
344.07	227.17
344.46	227.67
344.84	227.93
345.22	228.07
345.60	228.37
345.99	228.59
346.37	228.65
346.75	228.78
347.13	228.81
347.52	228.81
347.90	228.83
348.28	228.72
348.66	228.78
349.05	228.68
349.43	228.62
349.81	228.69
350.19	228.74
350.57	228.66
350.96	228.78
351.34	228.89
351.72	228.89
352.10	228.94
352.48	228.89
352.87	228.95
353.25	229.04
353.63	229.00
354.01	229.03
354.39	229.15
354.77	229.12
355.15	229.19
355.54	229.18
355.92	229.22
356.30	229.36
356.68	229.59
357.06	229.65
357.44	229.72
357.82	229.71
358.20	229.71
358.58	229.80
358.97	229.88
359.35	229.92
359.73	229.98
360.11	229.93
360.49	229.93
360.87	229.94
361.25	229.97
361.63	230.07
362.01	230.02
362.39	229.98
362.77	230.07
363.15	230.05
363.53	229.98
363.91	229.92
364.29	229.93
364.67	229.75
365.05	229.75
365.43	229.75
365.81	229.89
366.19	229.93
366.57	229.97
366.95	229.85
367.33	229.77
367.71	229.84
368.09	229.90
368.47	229.92
368.85	229.85
369.23	229.86
369.61	229.70
369.99	229.72
370.37	229.71
370.75	229.60
371.13	229.58
371.51	229.55
371.89	229.43
372.27	229.40
372.65	229.27
373.03	229.16
373.41	229.10
373.78	228.95
374.16	228.77
374.54	228.63
374.92	228.58
375.30	228.51
375.68	228.32
376.06	228.16
376.44	228.07
376.82	228.00
377.19	227.90
377.57	227.84
377.95	227.75
378.33	227.66
378.71	227.55
379.09	227.35
379.47	227.30
379.84	227.29
380.22	227.23
380.60	227.12
380.98	227.09
381.36	226.96
381.73	226.92
382.11	226.92
382.49	226.88
382.87	226.83
383.25	226.77
383.62	226.84
384.00	226.92
384.38	226.80
384.76	226.79
385.13	226.79
385.51	226.78
385.89	226.71
386.27	226.72
386.64	226.78
387.02	226.83
387.40	226.78
387.78	226.70
388.15	226.62
388.53	226.68
388.91	226.71
389.29	226.73
389.66	226.71
390.04	226.76
390.42	226.80
390.79	226.76
391.17	226.78
391.55	226.73
391.92	226.59
392.30	226.70
392.68	226.81
393.05	226.84
393.43	226.95
393.81	226.92
394.18	226.99
394.56	226.92
394.94	227.01
395.31	227.12
395.69	227.35
396.06	227.47
396.44	227.58
396.82	227.51
397.19	227.70
397.57	227.85
397.95	227.89
398.32	227.92
398.70	228.10
399.07	228.27
399.45	228.28
399.82	228.48
400.20	228.55
400.58	228.59
400.95	228.58
401.33	228.78
401.70	229.02
402.08	229.11
402.45	229.33
402.83	229.50
403.20	229.57
403.58	229.67
403.95	229.79
404.33	229.95
404.71	230.23
405.08	230.58
405.46	230.63
405.83	230.97
406.21	231.21
406.58	231.42
406.96	231.62
407.33	231.96
407.70	232.19
408.08	232.55
408.45	232.87
408.83	233.24
409.20	233.49
409.58	233.74
409.95	234.11
410.33	234.58
410.70	234.90
411.08	235.38
411.45	235.77
411.82	236.32
412.20	236.79
412.57	237.37
412.95	237.75
413.32	238.45
413.69	238.97
414.07	239.59
414.44	240.31
414.82	241.08
415.19	241.99
415.56	242.93
415.94	243.81
416.31	244.89
416.68	245.95
417.06	247.10
417.43	248.37
417.81	249.70
418.18	250.91
418.55	252.32
418.93	253.83
419.30	255.35
419.67	256.93
420.04	258.70
420.42	260.53
420.79	262.65
421.16	264.67
421.54	266.70
421.91	269.03
422.28	271.26
422.66	273.65
423.03	276.04
423.40	278.52
423.77	281.10
424.15	283.74
424.52	286.49
424.89	289.43
425.26	292.35
425.64	294.94
426.01	298.04
426.38	301.20
426.75	304.51
427.13	307.95
427.50	311.41
427.87	315.02
428.24	318.56
428.61	321.95
428.99	325.76
429.36	329.94
429.73	333.87
430.10	337.97
430.47	342.03
430.85	346.23
431.22	350.61
431.59	355.36
431.96	359.77
432.33	364.89
432.70	369.90
433.08	375.44
433.45	380.98
433.82	386.30
434.19	392.38
434.56	398.04
434.93	403.50
435.30	408.95
435.68	415.14
436.05	421.25
436.42	427.28
436.79	432.64
437.16	438.47
437.53	444.55
437.90	450.69
438.27	456.68
438.64	462.95
439.01	468.75
439.38	473.95
439.75	479.00
440.13	484.64
440.50	490.01
440.87	494.52
441.24	499.23
441.61	504.21
441.98	508.00
442.35	512.45
442.72	517.14
443.09	521.39
443.46	524.12
443.83	526.11
444.20	527.84
444.57	530.52
444.94	531.98
445.31	533.46
445.68	534.90
446.05	535.90
446.42	535.90
446.79	535.93
447.16	535.85
447.53	536.08
447.90	534.33
448.27	532.76
448.64	530.39
449.01	528.62
449.37	525.42
449.74	522.11
450.11	518.05
450.48	513.39
450.85	509.11
451.22	505.24
451.59	501.54
451.96	497.99
452.33	492.93
452.70	488.41
453.07	483.16
453.43	477.76
453.80	472.42
454.17	467.22
454.54	462.27
454.91	456.78
455.28	451.50
455.65	446.70
456.02	441.69
456.38	437.30
456.75	431.94
457.12	427.45
457.49	422.94
457.86	418.60
458.23	414.89
458.59	410.76
458.96	406.44
459.33	402.72
459.70	399.15
460.07	396.15
460.43	392.71
460.80	389.28
461.17	386.24
461.54	383.19
461.91	380.24
462.27	377.24
462.64	374.77
463.01	371.90
463.38	369.07
463.74	366.12
464.11	363.67
464.48	361.51
464.85	359.28
465.21	357.47
465.58	355.55
465.95	353.25
466.32	351.19
466.68	349.28
467.05	347.26
467.42	345.15
467.78	343.10
468.15	341.18
468.52	339.73
468.88	337.62
469.25	335.80
469.62	334.42
469.98	332.88
470.35	331.36
470.72	329.90
471.08	328.47
471.45	327.29
471.82	326.04
472.18	324.70
472.55	323.43
472.92	322.09
473.28	321.05
473.65	319.91
474.02	318.85
474.38	317.90
474.75	316.93
475.11	316.02
475.48	315.28
475.85	314.56
476.21	313.81
476.58	313.17
476.94	312.64
477.31	311.94
477.67	311.30
478.04	310.74
478.41	310.49
478.77	310.17
479.14	309.60
479.50	309.16
479.87	308.84
480.23	308.65
480.60	308.52
480.96	308.06
481.33	307.99
481.69	307.84
482.06	307.70
482.42	307.65
482.79	307.40
483.15	307.44
483.52	307.58
483.88	307.62
484.25	307.75
484.61	307.89
484.98	307.96
485.34	308.30
485.71	308.55
486.07	308.60
486.44	308.74
486.80	309.09
487.17	309.52
487.53	309.98
487.90	310.52
488.26	310.97
488.62	311.60
488.99	312.08
489.35	312.65
489.72	313.33
490.08	313.97
490.44	314.69
490.81	315.29
491.17	315.90
491.54	316.65
491.90	317.38
492.26	318.09
492.63	318.95
492.99	319.66
493.36	320.49
493.72	321.62
494.08	322.58
494.45	323.60
494.81	324.35
495.17	325.24
495.54	326.01
495.90	326.97
496.26	327.95
496.63	328.80
496.99	329.63
497.35	330.66
497.72	331.48
498.08	332.43
498.44	333.40
498.80	334.51
499.17	335.53
499.53	336.59
499.89	337.64
500.26	338.55
500.62	339.40
500.98	340.44
501.34	341.16
501.71	342.10
502.07	342.87
502.43	343.82
502.79	344.62
503.16	345.32
503.52	345.97
503.88	346.49
504.24	347.22
504.60	347.99
504.97	348.48
505.33	349.14
505.69	349.87
506.05	350.40
506.41	350.74
506.78	351.14
507.14	351.53
507.50	351.86
507.86	352.21
508.22	352.74
508.59	352.90
508.95	353.14
509.31	353.37
509.67	353.59
510.03	353.67
510.39	353.85
510.75	354.11
511.12	354.25
511.48	354.41
511.84	354.65
512.20	354.74
512.56	354.86
512.92	354.96
513.28	354.85
513.64	354.80
514.00	354.81
514.37	354.83
514.73	354.76
515.09	354.73
515.45	354.78
515.81	354.59
516.17	354.64
516.53	354.67
516.89	354.63
517.25	354.69
517.61	354.80
517.97	354.84
518.33	354.82
518.69	354.92
519.05	355.12
519.41	355.16
519.77	355.36
520.13	355.53
520.49	355.75
520.85	356.04
521.21	356.54
521.57	356.91
521.93	357.27
522.29	357.81
522.65	358.28
523.01	358.72
523.37	359.31
523.73	359.95
524.09	360.46
524.45	361.23
524.81	362.10
525.17	363.00
525.53	363.96
525.89	365.00
526.25	366.17
526.61	367.22
526.97	368.52
527.33	369.83
527.68	371.26
528.04	372.86
528.40	374.40
528.76	376.01
529.12	377.71
529.48	379.60
529.84	381.35
530.20	383.39
530.56	385.39
530.91	387.55
531.27	389.79
531.63	392.18
531.99	394.43
532.35	396.81
532.71	399.16
533.07	401.73
533.42	404.68
533.78	407.25
534.14	410.05
534.50	412.74
534.86	415.65
535.21	418.62
535.57	421.77
535.93	424.71
536.29	427.87
536.65	431.16
537.00	434.39
537.36	437.89
537.72	441.22
538.08	444.82
538.44	448.29
538.79	451.73
539.15	455.31
539.51	458.98
539.87	462.67
540.22	466.69
540.58	470.66
540.94	474.06
541.29	478.11
541.65	482.13
542.01	486.22
542.37	490.26
542.72	494.30
543.08	498.13
543.44	502.62
543.79	506.56
544.15	511.05
544.51	515.38
544.87	519.71
545.22	524.02
545.58	528.37
545.94	532.63
546.29	537.04
546.65	541.45
547.01	545.88
547.36	550.37
547.72	554.72
548.07	559.12
548.43	563.92
548.79	568.49
549.14	572.88
549.50	577.21
549.86	581.62
550.21	585.96
550.57	590.87
550.92	595.30
551.28	600.00
551.64	604.32
551.99	608.76
552.35	613.19
552.70	617.62
553.06	622.02
553.41	626.70
553.77	631.35
554.13	636.06
554.48	640.75
554.84	645.28
555.19	649.75
555.55	654.12
555.90	658.24
556.26	662.33
556.61	666.85
556.97	671.38
557.32	675.65
557.68	680.21
558.03	684.37
558.39	688.69
558.74	693.07
559.10	697.36
559.45	701.75
559.81	706.05
560.16	710.29
560.52	714.55
560.87	718.78
561.23	722.97
561.58	727.20
561.94	731.39
562.29	735.42
562.64	739.33
563.00	743.55
563.35	748.00
563.71	752.17
564.06	756.30
564.42	760.26
564.77	764.72
565.12	768.69
565.48	772.73
565.83	776.40
566.19	780.29
566.54	783.83
566.89	787.66
567.25	791.59
567.60	795.58
567.96	799.37
568.31	802.82
568.66	806.05
569.02	809.08
569.37	812.04
569.72	815.40
570.08	819.00
570.43	822.15
570.78	825.10
571.14	828.05
571.49	830.76
571.84	833.94
572.20	836.61
572.55	839.13
572.90	841.57
573.26	844.47
573.61	846.92
573.96	849.52
574.31	851.46
574.67	853.16
575.02	854.79
575.37	856.66
575.72	858.48
576.08	860.48
576.43	862.42
576.78	864.31
577.13	866.13
577.49	867.60
577.84	868.97
578.19	870.52
578.54	872.15
578.90	873.64
579.25	874.40
579.60	875.18
579.95	876.40
580.30	877.27
580.66	878.15
581.01	879.02
581.36	880.07
581.71	881.10
582.06	882.17
582.42	883.30
582.77	883.94
583.12	884.92
583.47	885.83
583.82	886.49
584.17	887.22
584.53	887.70
584.88	888.16
585.23	888.65
585.58	888.84
585.93	889.01
586.28	889.49
586.63	890.20
586.98	890.86
587.34	891.13
587.69	891.55
588.04	891.67
588.39	891.86
588.74	891.11
589.09	890.81
589.44	890.56
589.79	890.26
590.14	890.43
590.49	889.92
590.84	889.30
591.19	889.13
591.54	888.30
591.89	887.15
592.25	886.70
592.60	885.52
592.95	884.58
593.30	883.77
593.65	882.52
594.00	881.57
594.35	880.77
594.70	879.52
595.05	878.74
595.40	877.50
595.75	876.07
596.10	875.43
596.45	874.50
596.80	873.33
597.15	872.42
597.50	870.99
597.85	869.91
598.19	868.85
598.54	867.41
598.89	866.11
599.24	865.50
599.59	864.30
599.94	863.44
600.29	862.24
600.64	860.94
600.99	859.67
601.34	858.16
601.69	856.29
602.04	855.00
602.39	853.28
602.74	852.29
603.08	851.11
603.43	850.07
603.78	848.68
604.13	847.15
604.48	845.41
604.83	843.98
605.18	842.28
605.53	840.49
605.87	838.54
606.22	836.84
606.57	834.84
606.92	833.02
607.27	831.51
607.62	830.07
607.96	828.45
608.31	826.90
608.66	825.01
609.01	823.20
609.36	820.96
609.70	818.42
610.05	815.87
610.40	813.75
610.75	811.06
611.10	808.71
611.44	806.40
611.79	804.16
612.14	801.59
612.49	798.91
612.83	796.30
613.18	794.04
613.53	791.81
613.88	789.36
614.22	786.49
614.57	783.55
614.92	780.79
615.27	778.17
615.61	775.31
615.96	772.55
616.31	770.07
616.65	768.01
617.00	765.58
617.35	763.15
617.70	760.39
618.04	757.86
618.39	755.25
618.74	752.98
619.08	750.21
619.43	747.76
619.78	745.55
620.12	743.15
620.47	740.65
620.82	737.89
621.16	735.25
621.51	733.05
621.85	730.71
622.20	728.10
622.55	725.71
622.89	723.43
623.24	721.08
623.59	718.59
623.93	716.20
624.28	713.89
624.62	711.36
624.97	709.04
625.32	706.78
625.66	704.36
626.01	701.83
626.35	699.57
626.70	697.08
627.04	694.65
627.39	691.94
627.73	689.50
628.08	687.39
628.43	684.80
628.77	682.27
629.12	679.79
629.46	677.41
629.81	674.44
630.15	671.60
630.50	668.69
630.84	665.77
631.19	662.69
631.53	659.99
631.88	657.08
632.22	654.22
632.57	651.57
632.91	648.75
633.26	645.94
633.60	642.74
633.95	639.89
634.29	637.30
634.64	634.95
634.98	632.09
635.32	629.49
635.67	627.18
636.01	624.61
636.36	621.97
636.70	619.47
637.05	617.13
637.39	614.76
637.73	612.63
638.08	610.57
638.42	608.47
638.77	606.06
639.11	603.84
639.45	601.54
639.80	598.75
640.14	596.45
640.49	593.99
640.83	591.88
641.17	589.52
641.52	586.85
641.86	584.11
642.20	581.88
642.55	579.10
642.89	576.61
643.23	573.89
643.58	571.65
643.92	569.00
644.26	566.38
644.61	564.15
644.95	561.72
645.29	558.98
645.64	556.25
645.98	553.81
646.32	551.42
646.66	548.81
647.01	546.61
647.35	544.04
647.69	541.59
648.04	539.30
648.38	536.90
648.72	534.47
649.06	532.20
649.41	529.88
649.75	527.42
650.09	524.77
650.43	522.62
650.78	519.81
651.12	517.30
651.46	515.08
651.80	512.64
652.14	510.16
652.49	507.98
652.83	505.81
653.17	503.50
653.51	501.09
653.85	498.84
654.20	496.38
654.54	494.10
654.88	491.78
655.22	489.29
655.56	486.90
655.90	484.66
656.25	482.40
656.59	480.11
656.93	477.99
657.27	475.95
657.61	473.47
657.95	471.60
658.29	469.60
658.64	467.27
658.98	464.99
659.32	462.80
659.66	460.54
660.00	458.25
660.34	456.23
660.68	454.12
661.02	452.05
661.36	450.09
661.70	448.22
662.05	446.51
662.39	444.75
662.73	443.00
663.07	441.26
663.41	439.46
663.75	437.42
664.09	435.60
664.43	433.65
664.77	431.84
665.11	430.09
665.45	428.29
665.79	426.70
666.13	424.80
666.47	423.00
666.81	421.20
667.15	419.45
667.49	417.65
667.83	416.00
668.17	414.20
668.51	412.48
668.85	410.74
669.19	409.17
669.53	407.39
669.87	405.60
670.21	403.88
670.55	402.31
670.89	401.02
671.23	399.61
671.57	398.18
671.91	396.76
672.25	395.01
672.58	393.50
672.92	391.92
673.26	390.61
673.60	389.29
673.94	387.89
674.28	386.56
674.62	385.26
674.96	383.88
675.30	382.56
675.64	381.29
675.97	380.00
676.31	378.47
676.65	377.14
676.99	375.96
677.33	374.68
677.67	373.25
678.01	371.68
678.34	370.08
678.68	368.83
679.02	367.56
679.36	366.30
679.70	365.10
680.04	363.80
680.37	362.50
680.71	361.23
681.05	360.13
681.39	358.89
681.73	357.63
682.06	356.39
682.40	355.23
682.74	353.87
683.08	352.63
683.42	351.36
683.75	350.20
684.09	348.83
684.43	347.59
684.77	346.49
685.10	345.35
685.44	344.32
685.78	343.05
686.12	341.59
686.45	340.48
686.79	339.23
687.13	338.15
687.46	336.82
687.80	335.63
688.14	334.25
688.48	333.18
688.81	331.97
689.15	330.87
689.49	329.65
689.82	328.64
690.16	327.42
690.50	326.45
690.83	325.32
691.17	324.20
691.51	323.11
691.84	322.20
692.18	321.12
692.52	320.14
692.85	319.11
693.19	318.27
693.52	317.23
693.86	316.21
694.20	315.30
694.53	314.53
694.87	313.55
695.21	312.72
695.54	311.79
695.88	310.84
696.21	309.88
696.55	309.19
696.88	308.21
697.22	307.53
697.56	306.73
697.89	305.98
698.23	305.31
698.56	304.49
698.90	303.48
699.23	302.64
699.57	301.73
699.90	301.04
700.24	300.34
700.58	299.56
700.91	298.80
701.25	298.14
701.58	297.50
701.92	296.86
702.25	296.27
702.59	295.52
702.92	294.97
703.26	294.33
703.59	293.56
703.93	293.05
704.26	292.24
704.60	291.43
704.93	290.69
705.26	289.99
705.60	289.54
705.93	288.94
706.27	288.48
706.60	288.03
706.94	287.51
707.27	286.79
707.61	286.17
707.94	285.66
708.27	284.97
708.61	284.27
708.94	283.74
709.28	283.11
709.61	282.59
709.94	281.95
710.28	281.41
710.61	280.87
710.95	280.20
711.28	279.87
711.61	279.42
711.95	279.04
712.28	278.48
712.61	277.86
712.95	277.57
713.28	277.05
713.61	276.40
713.95	275.81
714.28	275.36
714.61	274.92
714.95	274.40
715.28	273.90
715.61	273.43
715.95	272.94
716.28	272.49
716.61	271.80
716.95	271.40
717.28	270.86
717.61	270.41
717.94	270.02
718.28	269.45
718.61	268.86
718.94	268.28
719.27	267.87
719.61	267.44
719.94	266.90
720.27	266.34
720.60	266.02
720.94	265.65
721.27	265.31
721.60	264.90
721.93	264.53
722.27	264.20
722.60	263.77
722.93	263.38
723.26	262.97
723.59	262.76
723.93	262.33
724.26	262.04
724.59	261.67
724.92	261.24
725.25	260.91
725.59	260.50
725.92	260.23
726.25	259.88
726.58	259.56
726.91	259.16
727.24	259.03
727.57	258.63
727.91	258.27
728.24	257.94
728.57	257.58
728.90	257.34
729.23	256.98
729.56	256.79
729.89	256.45
730.22	256.17
730.55	255.89
730.89	255.66
731.22	255.26
731.55	254.99
731.88	254.70
732.21	254.38
732.54	254.15
732.87	253.80
733.20	253.57
733.53	253.37
733.86	253.13
734.19	252.73
734.52	252.56
734.85	252.34
735.18	251.97
735.51	251.83
735.84	251.54
736.17	251.32
736.50	250.95
736.83	250.90
737.16	250.68
737.49	250.41
737.82	250.11
738.15	249.99
738.48	249.77
738.81	249.51
739.14	249.30
739.47	249.12
739.80	248.97
740.13	248.79
740.46	248.52
740.79	248.40
741.12	248.21
741.45	248.02
741.78	247.83
742.11	247.90
742.44	247.59
742.77	247.47
743.10	247.21
743.43	247.02
743.75	246.64
744.08	246.74
744.41	246.53
744.74	246.38
745.07	246.21
745.40	246.00
745.73	246.00
746.06	245.84
746.39	245.81
746.71	245.70
747.04	245.50
747.37	245.30
747.70	245.16
748.03	244.97
748.36	244.84
748.68	244.70
749.01	244.31
749.34	244.20
749.67	244.01
750.00	243.90
750.33	243.82
750.65	243.70
750.98	243.19
751.31	242.99
751.64	242.88
751.97	242.75
752.29	242.63
752.62	242.39
752.95	242.24
753.28	241.90
753.60	241.70
753.93	241.61
754.26	241.48
754.59	241.24
754.91	241.07
755.24	240.92
755.57	240.74
755.90	240.67
756.22	240.59
756.55	240.41
756.88	240.21
757.20	240.04
757.53	239.86
757.86	239.77
758.19	239.75
758.51	239.58
758.84	239.40
759.17	239.24
759.49	239.22
759.82	239.20
760.15	239.28
760.47	239.14
760.80	238.95
761.13	238.85
761.45	238.70
761.78	238.58
762.11	238.45
762.43	238.28
762.76	238.20
763.08	238.05
763.41	237.87
763.74	237.82
764.06	237.72
764.39	237.71
764.71	237.60
765.04	237.51
765.37	237.34
765.69	237.19
766.02	237.20
766.34	237.06
766.67	236.84
767.00	236.65
767.32	236.72
767.65	236.73
767.97	236.57
768.30	236.45
768.62	236.38
768.95	236.27
769.27	236.16
769.60	236.00
769.92	235.78
770.25	235.71
770.57	235.56
770.90	235.50
771.22	235.32
771.55	235.25
771.87	235.14
772.20	235.11
772.52	235.27
772.85	235.29
773.17	235.11
773.50	235.08
773.82	234.93
774.15	234.67
774.47	234.44
774.80	234.39
775.12	234.36
775.45	234.26
775.77	234.22
776.09	234.18
776.42	234.11
776.74	234.32
777.07	234.30
777.39	234.30
777.72	234.14
778.04	234.06
778.36	233.98
778.69	233.93
779.01	233.85
779.33	233.61
779.66	233.35
779.98	233.22
780.31	233.15
780.63	233.27
780.95	233.30
781.28	233.28
781.60	233.29
781.92	233.33
782.25	233.27
782.57	233.06
782.89	233.08
783.22	232.98
783.54	232.72
783.86	232.60
784.19	232.56
784.51	232.72
784.83	232.66
785.16	232.60
785.48	232.53
785.80	232.54
786.12	232.53
786.45	232.62
786.77	232.66
787.09	232.65
787.42	232.45
787.74	232.40
788.06	232.37
788.38	232.25
788.71	232.20
789.03	232.19
789.35	232.29
789.67	232.25
789.99	232.34
790.32	232.38
790.64	232.44
790.96	232.57
791.28	232.31
791.61	232.35
791.93	232.34
792.25	232.32
792.57	232.40
792.89	232.31
793.21	232.22
793.54	232.22
793.86	232.05
794.18	232.13
