SpectraSuite Data File
++++++++++++++++++++++++++++++++++++
Date: Fri Feb 01 14:33:50 EST 2013
User: group
Dark Spectrum Present: No
Reference Spectrum Present: No
Number of Sampled Component Spectra: 1
Spectrometers: USB2E7196
Integration Time (usec): 70000 (USB2E7196)
Spectra Averaged: 10 (USB2E7196)
Boxcar Smoothing: 10 (USB2E7196)
Correct for Electrical Dark: No (USB2E7196)
Strobe/Lamp Enabled: No (USB2E7196)
Correct for Detector Non-linearity: No (USB2E7196)
Correct for Stray Light: No (USB2E7196)
Number of Pixels in Processed Spectrum: 2048
>>>>>Begin Processed Spectral Data<<<<<
339.09	0.00
339.48	215.80
339.86	218.30
340.24	217.70
340.63	221.40
341.01	224.50
341.39	224.00
341.78	225.60
342.16	225.30
342.54	228.10
342.93	215.01
343.31	225.78
343.69	226.30
344.07	226.73
344.46	227.43
344.84	227.81
345.22	228.00
345.60	228.19
345.99	228.32
346.37	228.51
346.75	228.45
347.13	228.56
347.52	228.62
347.90	228.78
348.28	228.79
348.66	228.80
349.05	228.76
349.43	228.76
349.81	228.83
350.19	228.93
350.57	229.06
350.96	229.12
351.34	229.33
351.72	229.48
352.10	229.58
352.48	229.40
352.87	229.36
353.25	229.36
353.63	229.51
354.01	229.60
354.39	229.75
354.77	229.91
355.15	230.01
355.54	230.03
355.92	229.92
356.30	230.02
356.68	230.32
357.06	230.44
357.44	230.50
357.82	230.49
358.20	230.58
358.58	230.61
358.97	230.63
359.35	230.70
359.73	230.74
360.11	230.81
360.49	230.90
360.87	230.89
361.25	231.02
361.63	231.10
362.01	231.16
362.39	231.02
362.77	230.99
363.15	230.98
363.53	231.05
363.91	231.06
364.29	231.04
364.67	230.79
365.05	230.72
365.43	230.76
365.81	230.80
366.19	230.88
366.57	230.86
366.95	230.80
367.33	230.79
367.71	230.81
368.09	230.80
368.47	230.75
368.85	230.86
369.23	230.81
369.61	230.64
369.99	230.62
370.37	230.64
370.75	230.74
371.13	230.67
371.51	230.56
371.89	230.50
372.27	230.38
372.65	230.30
373.03	230.24
373.41	230.19
373.78	230.07
374.16	229.76
374.54	229.69
374.92	229.74
375.30	229.62
375.68	229.51
376.06	229.34
376.44	229.31
376.82	229.08
377.19	228.98
377.57	228.93
377.95	228.80
378.33	228.65
378.71	228.41
379.09	228.28
379.47	228.20
379.84	228.13
380.22	228.08
380.60	227.99
380.98	227.95
381.36	227.79
381.73	227.66
382.11	227.76
382.49	227.70
382.87	227.54
383.25	227.39
383.62	227.47
384.00	227.47
384.38	227.35
384.76	227.41
385.13	227.52
385.51	227.55
385.89	227.49
386.27	227.57
386.64	227.60
387.02	227.56
387.40	227.44
387.78	227.50
388.15	227.41
388.53	227.30
388.91	227.25
389.29	227.30
389.66	227.29
390.04	227.14
390.42	227.19
390.79	227.19
391.17	227.36
391.55	227.25
391.92	227.28
392.30	227.39
392.68	227.47
393.05	227.52
393.43	227.49
393.81	227.51
394.18	227.51
394.56	227.58
394.94	227.76
395.31	227.94
395.69	228.01
396.06	228.21
396.44	228.50
396.82	228.67
397.19	228.86
397.57	229.13
397.95	229.40
398.32	229.41
398.70	229.60
399.07	229.72
399.45	229.91
399.82	230.13
400.20	230.19
400.58	230.30
400.95	230.31
401.33	230.54
401.70	230.95
402.08	231.21
402.45	231.42
402.83	231.69
403.20	231.96
403.58	232.23
403.95	232.68
404.33	232.95
404.71	233.20
405.08	233.62
405.46	233.94
405.83	234.35
406.21	234.81
406.58	235.30
406.96	235.75
407.33	236.10
407.70	236.57
408.08	237.26
408.45	237.96
408.83	238.68
409.20	239.31
409.58	239.87
409.95	240.61
410.33	241.41
410.70	242.15
411.08	243.06
411.45	243.99
411.82	244.90
412.20	245.97
412.57	247.33
412.95	248.37
413.32	249.58
413.69	250.85
414.07	252.28
414.44	253.79
414.82	255.37
415.19	257.37
415.56	259.35
415.94	261.39
416.31	263.59
416.68	265.70
417.06	268.27
417.43	270.67
417.81	273.31
418.18	276.18
418.55	279.20
418.93	282.39
419.30	285.62
419.67	288.94
420.04	292.37
420.42	296.05
420.79	300.46
421.16	304.84
421.54	309.30
421.91	313.85
422.28	318.61
422.66	323.63
423.03	328.34
423.40	333.39
423.77	338.77
424.15	344.37
424.52	350.24
424.89	356.43
425.26	362.50
425.64	368.39
426.01	374.70
426.38	381.51
426.75	388.07
427.13	395.09
427.50	402.30
427.87	409.96
428.24	417.45
428.61	424.61
428.99	432.44
429.36	441.09
429.73	449.78
430.10	458.20
430.47	466.61
430.85	475.70
431.22	485.05
431.59	494.92
431.96	504.27
432.33	514.84
432.70	524.98
433.08	536.96
433.45	548.34
433.82	559.47
434.19	571.66
434.56	583.96
434.93	595.56
435.30	607.18
435.68	620.03
436.05	632.84
436.42	645.30
436.79	656.73
437.16	669.07
437.53	682.00
437.90	694.82
438.27	707.69
438.64	721.02
439.01	733.30
439.38	744.29
439.75	754.74
440.13	766.72
440.50	778.34
440.87	788.16
441.24	797.94
441.61	809.04
441.98	817.48
442.35	826.94
442.72	836.57
443.09	846.18
443.46	852.60
443.83	856.61
444.20	860.48
444.57	866.05
444.94	869.36
445.31	872.71
445.68	876.20
446.05	878.55
446.42	878.68
446.79	878.74
447.16	878.85
447.53	879.36
447.90	875.93
448.27	872.60
448.64	866.96
449.01	863.74
449.37	856.50
449.74	849.77
450.11	841.18
450.48	831.94
450.85	822.39
451.22	814.22
451.59	806.75
451.96	799.54
452.33	789.29
452.70	779.75
453.07	768.32
453.43	756.25
453.80	744.95
454.17	733.89
454.54	723.32
454.91	712.02
455.28	701.10
455.65	690.99
456.02	680.31
456.38	671.64
456.75	660.21
457.12	650.94
457.49	641.22
457.86	632.44
458.23	624.66
458.59	616.23
458.96	607.15
459.33	599.30
459.70	591.64
460.07	585.31
460.43	578.13
460.80	570.89
461.17	565.06
461.54	558.72
461.91	552.82
462.27	546.92
462.64	541.41
463.01	535.60
463.38	529.99
463.74	524.51
464.11	519.43
464.48	515.28
464.85	510.38
465.21	506.83
465.58	502.78
465.95	497.96
466.32	493.75
466.68	489.95
467.05	486.06
467.42	481.99
467.78	477.90
468.15	473.90
468.52	471.17
468.88	467.43
469.25	464.04
469.62	461.09
469.98	458.03
470.35	455.36
470.72	452.62
471.08	449.89
471.45	447.45
471.82	444.98
472.18	442.14
472.55	440.34
472.92	437.96
473.28	435.83
473.65	433.90
474.02	431.78
474.38	429.97
474.75	428.64
475.11	427.14
475.48	425.94
475.85	424.94
476.21	423.82
476.58	422.89
476.94	422.05
477.31	421.23
477.67	420.34
478.04	419.60
478.41	419.24
478.77	418.87
479.14	418.42
479.50	418.09
479.87	418.10
480.23	418.17
480.60	418.18
480.96	418.24
481.33	418.66
481.69	419.05
482.06	419.30
482.42	419.42
482.79	419.70
483.15	420.40
483.52	421.14
483.88	421.93
484.25	422.64
484.61	423.51
484.98	424.52
485.34	425.87
485.71	427.30
486.07	428.61
486.44	429.89
486.80	431.39
487.17	433.13
487.53	434.99
487.90	436.97
488.26	439.03
488.62	441.27
488.99	443.39
489.35	445.93
489.72	448.45
490.08	451.19
490.44	454.12
490.81	456.82
491.17	459.79
491.54	462.97
491.90	466.10
492.26	469.41
492.63	472.74
492.99	476.14
493.36	479.59
493.72	483.50
494.08	487.61
494.45	491.81
494.81	496.00
495.17	500.38
495.54	504.36
495.90	508.83
496.26	513.37
496.63	518.18
496.99	522.98
497.35	528.12
497.72	533.23
498.08	538.20
498.44	543.42
498.80	548.96
499.17	554.57
499.53	560.23
499.89	566.05
500.26	572.00
500.62	577.49
500.98	583.64
501.34	589.39
501.71	595.16
502.07	601.09
502.43	607.10
502.79	612.98
503.16	619.27
503.52	625.42
503.88	631.47
504.24	637.49
504.60	643.64
504.97	649.75
505.33	655.98
505.69	662.69
506.05	669.35
506.41	675.41
506.78	681.54
507.14	687.77
507.50	693.87
507.86	699.82
508.22	706.30
508.59	712.14
508.95	718.35
509.31	724.44
509.67	730.69
510.03	736.72
510.39	742.74
510.75	748.97
511.12	754.79
511.48	760.70
511.84	766.63
512.20	772.17
512.56	778.04
512.92	783.78
513.28	789.30
513.64	794.35
514.00	799.92
514.37	804.91
514.73	810.09
515.09	814.97
515.45	820.15
515.81	824.98
516.17	829.93
516.53	834.78
516.89	839.66
517.25	844.01
517.61	848.64
517.97	853.10
518.33	856.95
518.69	861.36
519.05	865.77
519.41	869.93
519.77	874.46
520.13	878.53
520.49	882.60
520.85	886.29
521.21	890.29
521.57	894.05
521.93	897.59
522.29	901.55
522.65	905.44
523.01	908.56
523.37	911.62
523.73	915.09
524.09	918.31
524.45	921.49
524.81	924.98
525.17	928.20
525.53	931.60
525.89	934.95
526.25	938.16
526.61	940.95
526.97	944.12
527.33	947.07
527.68	950.00
528.04	952.70
528.40	955.40
528.76	958.30
529.12	961.23
529.48	964.57
529.84	966.96
530.20	970.11
530.56	973.70
530.91	977.57
531.27	980.67
531.63	983.30
531.99	986.22
532.35	988.87
532.71	991.57
533.07	994.43
533.42	997.40
533.78	1000.12
534.14	1003.16
534.50	1005.32
534.86	1008.01
535.21	1010.30
535.57	1013.30
535.93	1016.07
536.29	1018.60
536.65	1021.10
537.00	1023.55
537.36	1026.25
537.72	1028.20
538.08	1030.28
538.44	1032.16
538.79	1034.03
539.15	1036.34
539.51	1038.97
539.87	1041.89
540.22	1044.63
540.58	1047.23
540.94	1049.63
541.29	1051.61
541.65	1053.52
542.01	1056.47
542.37	1058.43
542.72	1060.79
543.08	1062.75
543.44	1065.15
543.79	1066.93
544.15	1068.90
544.51	1071.43
544.87	1074.02
545.22	1076.41
545.58	1078.75
545.94	1081.05
546.29	1083.23
546.65	1085.34
547.01	1086.96
547.36	1088.24
547.72	1089.79
548.07	1091.29
548.43	1092.75
548.79	1094.78
549.14	1096.35
549.50	1097.74
549.86	1099.42
550.21	1101.02
550.57	1102.53
550.92	1103.91
551.28	1105.70
551.64	1107.53
551.99	1109.13
552.35	1110.26
552.70	1111.68
553.06	1113.26
553.41	1114.42
553.77	1116.22
554.13	1118.04
554.48	1119.95
554.84	1121.83
555.19	1123.31
555.55	1124.68
555.90	1126.22
556.26	1127.82
556.61	1129.46
556.97	1130.79
557.32	1132.20
557.68	1133.52
558.03	1135.19
558.39	1136.66
558.74	1138.67
559.10	1140.22
559.45	1141.11
559.81	1143.10
560.16	1144.37
560.52	1145.45
560.87	1147.29
561.23	1148.37
561.58	1149.38
561.94	1150.20
562.29	1150.94
562.64	1152.04
563.00	1153.30
563.35	1154.69
563.71	1155.93
564.06	1157.40
564.42	1158.49
564.77	1159.93
565.12	1161.44
565.48	1162.67
565.83	1163.57
566.19	1164.24
566.54	1164.83
566.89	1165.86
567.25	1166.21
567.60	1167.38
567.96	1168.30
568.31	1168.82
568.66	1169.23
569.02	1169.80
569.37	1170.25
569.72	1170.92
570.08	1171.22
570.43	1171.20
570.78	1171.11
571.14	1170.90
571.49	1170.77
571.84	1171.17
572.20	1170.75
572.55	1170.36
572.90	1169.69
573.26	1169.69
573.61	1169.10
573.96	1168.62
574.31	1167.32
574.67	1166.32
575.02	1165.22
575.37	1164.04
575.72	1162.77
576.08	1162.10
576.43	1161.18
576.78	1160.01
577.13	1159.00
577.49	1158.04
577.84	1156.89
578.19	1155.82
578.54	1154.69
578.90	1153.20
579.25	1151.07
579.60	1149.21
579.95	1147.21
580.30	1145.12
580.66	1143.22
581.01	1141.35
581.36	1139.39
581.71	1138.13
582.06	1136.34
582.42	1134.37
582.77	1132.47
583.12	1130.51
583.47	1128.75
583.82	1127.00
584.17	1124.91
584.53	1122.69
584.88	1120.39
585.23	1118.24
585.58	1116.19
585.93	1113.90
586.28	1112.20
586.63	1110.74
586.98	1109.16
587.34	1107.43
587.69	1105.75
588.04	1103.66
588.39	1101.79
588.74	1099.15
589.09	1096.45
589.44	1094.01
589.79	1091.80
590.14	1089.50
590.49	1087.22
590.84	1084.26
591.19	1081.36
591.54	1078.44
591.89	1075.19
592.25	1072.65
592.60	1069.50
592.95	1066.10
593.30	1062.67
593.65	1059.09
594.00	1055.60
594.35	1052.74
594.70	1048.97
595.05	1045.76
595.40	1041.97
595.75	1038.30
596.10	1035.66
596.45	1032.95
596.80	1030.12
597.15	1026.87
597.50	1023.61
597.85	1020.39
598.19	1017.59
598.54	1014.75
598.89	1011.95
599.24	1009.26
599.59	1005.85
599.94	1003.13
600.29	1000.10
600.64	997.21
600.99	993.80
601.34	990.66
601.69	986.82
602.04	984.03
602.39	980.78
602.74	977.75
603.08	974.85
603.43	971.91
603.78	968.62
604.13	965.45
604.48	962.15
604.83	958.76
605.18	955.66
605.53	951.86
605.87	948.19
606.22	944.97
606.57	941.50
606.92	938.18
607.27	934.97
607.62	932.09
607.96	929.03
608.31	926.30
608.66	922.93
609.01	919.58
609.36	915.64
609.70	911.71
610.05	908.20
610.40	904.50
610.75	900.39
611.10	896.48
611.44	891.92
611.79	888.07
612.14	884.49
612.49	880.15
612.83	876.35
613.18	872.30
613.53	868.40
613.88	864.74
614.22	860.75
614.57	856.46
614.92	852.45
615.27	848.63
615.61	844.34
615.96	840.40
616.31	836.72
616.65	833.63
617.00	830.31
617.35	826.46
617.70	822.58
618.04	818.92
618.39	815.47
618.74	812.25
619.08	808.34
619.43	804.46
619.78	801.11
620.12	797.67
620.47	794.26
620.82	790.44
621.16	786.79
621.51	783.40
621.85	780.30
622.20	776.59
622.55	772.92
622.89	769.79
623.24	766.61
623.59	763.44
623.93	759.90
624.28	756.34
624.62	753.21
624.97	749.99
625.32	746.58
625.66	743.10
626.01	739.90
626.35	736.85
626.70	733.80
627.04	730.68
627.39	727.25
627.73	723.86
628.08	720.71
628.43	717.42
628.77	714.01
629.12	710.32
629.46	706.91
629.81	703.40
630.15	699.87
630.50	696.16
630.84	692.43
631.19	688.88
631.53	685.44
631.88	681.92
632.22	678.20
632.57	675.11
632.91	671.57
633.26	667.95
633.60	664.58
633.95	661.13
634.29	657.82
634.64	654.73
634.98	651.55
635.32	648.56
635.67	645.50
636.01	642.71
636.36	639.78
636.70	637.03
637.05	634.41
637.39	631.43
637.73	628.63
638.08	625.93
638.42	623.56
638.77	620.98
639.11	617.94
639.45	615.36
639.80	612.39
640.14	609.74
640.49	607.06
640.83	604.47
641.17	601.78
641.52	598.88
641.86	596.02
642.20	593.50
642.55	590.57
642.89	587.91
643.23	584.99
643.58	582.37
643.92	579.49
644.26	576.50
644.61	573.90
644.95	571.23
645.29	568.24
645.64	565.13
645.98	562.30
646.32	559.88
646.66	557.10
647.01	554.34
647.35	551.90
647.69	549.38
648.04	546.86
648.38	544.28
648.72	541.31
649.06	538.74
649.41	536.00
649.75	533.33
650.09	530.52
650.43	527.81
650.78	524.88
651.12	522.04
651.46	519.48
651.80	516.96
652.14	514.40
652.49	512.07
652.83	509.57
653.17	507.05
653.51	504.26
653.85	501.83
654.20	499.24
654.54	496.38
654.88	493.69
655.22	490.87
655.56	488.21
655.90	486.07
656.25	483.63
656.59	481.14
656.93	478.76
657.27	476.60
657.61	474.29
657.95	472.27
658.29	470.12
658.64	467.82
658.98	465.57
659.32	463.21
659.66	460.92
660.00	458.50
660.34	456.22
660.68	454.20
661.02	451.99
661.36	450.00
661.70	448.03
662.05	446.19
662.39	444.24
662.73	442.22
663.07	440.37
663.41	438.50
663.75	436.49
664.09	434.59
664.43	432.64
664.77	430.70
665.11	428.80
665.45	426.90
665.79	425.03
666.13	423.11
666.47	421.36
666.81	419.47
667.15	417.77
667.49	416.11
667.83	414.42
668.17	412.75
668.51	410.90
668.85	409.14
669.19	407.60
669.53	405.99
669.87	404.35
670.21	402.69
670.55	400.88
670.89	399.57
671.23	398.02
671.57	396.44
671.91	394.98
672.25	393.28
672.58	391.92
672.92	390.45
673.26	389.06
673.60	387.61
673.94	386.22
674.28	385.05
674.62	383.64
674.96	382.24
675.30	380.85
675.64	379.64
675.97	378.30
676.31	376.80
676.65	375.45
676.99	374.22
677.33	372.73
677.67	371.50
678.01	370.01
678.34	368.66
678.68	367.28
679.02	365.77
679.36	364.61
679.70	363.28
680.04	362.08
680.37	360.72
680.71	359.43
681.05	358.19
681.39	356.85
681.73	355.63
682.06	354.45
682.40	353.29
682.74	352.06
683.08	351.05
683.42	349.71
683.75	348.59
684.09	347.48
684.43	346.41
684.77	345.39
685.10	344.14
685.44	343.15
685.78	342.07
686.12	341.09
686.45	339.98
686.79	338.79
687.13	337.51
687.46	336.38
687.80	335.44
688.14	334.41
688.48	333.31
688.81	332.25
689.15	331.16
689.49	329.98
689.82	328.97
690.16	327.80
690.50	326.80
690.83	325.70
691.17	324.55
691.51	323.50
691.84	322.43
692.18	321.47
692.52	320.39
692.85	319.35
693.19	318.41
693.52	317.30
693.86	316.36
694.20	315.57
694.53	314.69
694.87	313.69
695.21	312.75
695.54	311.70
695.88	310.68
696.21	309.72
696.55	308.87
696.88	307.91
697.22	307.01
697.56	306.42
697.89	305.50
698.23	304.74
698.56	303.88
698.90	303.06
699.23	302.15
699.57	301.38
699.90	300.55
700.24	299.67
700.58	298.89
700.91	298.06
701.25	297.39
701.58	296.64
701.92	295.93
702.25	295.09
702.59	294.42
702.92	293.74
703.26	293.13
703.59	292.53
703.93	292.12
704.26	291.52
704.60	290.74
704.93	290.21
705.26	289.60
705.60	289.03
705.93	288.32
706.27	287.93
706.60	287.34
706.94	286.77
707.27	286.19
707.61	285.80
707.94	285.24
708.27	284.46
708.61	283.91
708.94	283.23
709.28	282.66
709.61	282.04
709.94	281.55
710.28	280.95
710.61	280.44
710.95	279.60
711.28	279.16
711.61	278.46
711.95	277.92
712.28	277.20
712.61	276.65
712.95	276.23
713.28	275.74
713.61	275.16
713.95	274.64
714.28	274.18
714.61	273.45
714.95	273.00
715.28	272.60
715.61	272.04
715.95	271.61
716.28	271.26
716.61	270.87
716.95	270.36
717.28	269.92
717.61	269.38
717.94	269.00
718.28	268.35
718.61	268.00
718.94	267.54
719.27	267.27
719.61	266.85
719.94	266.41
720.27	265.85
720.60	265.49
720.94	265.18
721.27	264.85
721.60	264.75
721.93	264.40
722.27	264.11
722.60	263.72
722.93	263.30
723.26	262.95
723.59	262.64
723.93	262.31
724.26	261.94
724.59	261.59
724.92	261.25
725.25	261.04
725.59	260.77
725.92	260.45
726.25	260.05
726.58	259.70
726.91	259.36
727.24	259.16
727.57	258.90
727.91	258.49
728.24	258.24
728.57	257.80
728.90	257.44
729.23	257.07
729.56	256.80
729.89	256.53
730.22	256.27
730.55	255.91
730.89	255.59
731.22	255.39
731.55	255.17
731.88	254.91
732.21	254.65
732.54	254.32
732.87	254.15
733.20	253.90
733.53	253.68
733.86	253.40
734.19	253.06
734.52	252.77
734.85	252.68
735.18	252.36
735.51	252.18
735.84	252.03
736.17	251.73
736.50	251.46
736.83	251.53
737.16	251.20
737.49	251.01
737.82	250.79
738.15	250.47
738.48	250.21
738.81	249.91
739.14	249.65
739.47	249.39
739.80	249.09
740.13	248.84
740.46	248.63
740.79	248.41
741.12	248.17
741.45	247.81
741.78	247.48
742.11	247.31
742.44	247.02
742.77	246.80
743.10	246.67
743.43	246.49
743.75	246.08
744.08	246.11
744.41	245.93
744.74	245.76
745.07	245.53
745.40	245.30
745.73	245.27
746.06	245.00
746.39	244.82
746.71	244.69
747.04	244.47
747.37	244.24
747.70	244.10
748.03	243.98
748.36	243.88
748.68	243.72
749.01	243.40
749.34	243.22
749.67	243.03
750.00	242.93
750.33	242.89
750.65	242.73
750.98	242.38
751.31	242.26
751.64	242.17
751.97	242.25
752.29	242.08
752.62	241.84
752.95	241.75
753.28	241.57
753.60	241.28
753.93	241.19
754.26	241.06
754.59	240.94
754.91	240.79
755.24	240.66
755.57	240.48
755.90	240.39
756.22	240.25
756.55	240.14
756.88	239.92
757.20	239.59
757.53	239.35
757.86	239.15
758.19	239.01
758.51	238.88
758.84	238.48
759.17	238.35
759.49	238.25
759.82	238.25
760.15	238.17
760.47	238.09
760.80	237.95
761.13	237.90
761.45	237.81
761.78	237.70
762.11	237.67
762.43	237.53
762.76	237.49
763.08	237.39
763.41	237.33
763.74	237.20
764.06	237.09
764.39	237.07
764.71	237.01
765.04	236.77
765.37	236.55
765.69	236.65
766.02	236.58
766.34	236.41
766.67	236.33
767.00	236.34
767.32	236.44
767.65	236.51
767.97	236.36
768.30	236.31
768.62	236.25
768.95	236.08
769.27	236.09
769.60	236.01
769.92	235.98
770.25	235.76
770.57	235.71
770.90	235.67
771.22	235.51
771.55	235.54
771.87	235.62
772.20	235.73
772.52	235.75
772.85	236.04
773.17	236.00
773.50	235.89
773.82	235.80
774.15	235.55
774.47	235.28
774.80	235.25
775.12	235.11
775.45	235.00
775.77	235.05
776.09	234.90
776.42	234.89
776.74	234.81
777.07	234.73
777.39	234.71
777.72	234.64
778.04	234.64
778.36	234.52
778.69	234.44
779.01	234.34
779.33	234.09
779.66	233.73
779.98	233.63
780.31	233.55
780.63	233.59
780.95	233.51
781.28	233.48
781.60	233.34
781.92	233.25
782.25	233.09
782.57	233.02
782.89	232.89
783.22	232.73
783.54	232.65
783.86	232.69
784.19	232.55
784.51	232.61
784.83	232.53
785.16	232.42
785.48	232.25
785.80	232.11
786.12	232.07
786.45	231.98
786.77	231.98
787.09	231.89
787.42	231.73
787.74	231.75
788.06	231.85
788.38	231.83
788.71	231.88
789.03	231.90
789.35	231.80
789.67	231.89
789.99	231.89
790.32	231.84
