SpectraSuite Data File
++++++++++++++++++++++++++++++++++++
Date: Fri Feb 01 14:36:03 EST 2013
User: group
Dark Spectrum Present: No
Reference Spectrum Present: No
Number of Sampled Component Spectra: 1
Spectrometers: USB2E7196
Integration Time (usec): 70000 (USB2E7196)
Spectra Averaged: 10 (USB2E7196)
Boxcar Smoothing: 10 (USB2E7196)
Correct for Electrical Dark: No (USB2E7196)
Strobe/Lamp Enabled: No (USB2E7196)
Correct for Detector Non-linearity: No (USB2E7196)
Correct for Stray Light: No (USB2E7196)
Number of Pixels in Processed Spectrum: 2048
>>>>>Begin Processed Spectral Data<<<<<
339.09	0.00
339.48	216.40
339.86	217.40
340.24	218.20
340.63	222.20
341.01	225.50
341.39	221.50
341.78	225.10
342.16	226.30
342.54	225.60
342.93	214.45
343.31	225.31
343.69	225.77
344.07	226.25
344.46	226.79
344.84	227.06
345.22	227.16
345.60	227.46
345.99	227.62
346.37	227.77
346.75	227.88
347.13	227.80
347.52	227.93
347.90	228.01
348.28	228.08
348.66	228.18
349.05	228.01
349.43	228.14
349.81	228.26
350.19	228.25
350.57	228.33
350.96	228.45
351.34	228.51
351.72	228.68
352.10	228.79
352.48	228.77
352.87	228.77
353.25	228.88
353.63	228.95
354.01	229.03
354.39	229.10
354.77	229.26
355.15	229.45
355.54	229.46
355.92	229.45
356.30	229.50
356.68	229.59
357.06	229.88
357.44	229.94
357.82	230.08
358.20	230.21
358.58	230.22
358.97	230.30
359.35	230.40
359.73	230.45
360.11	230.49
360.49	230.60
360.87	230.73
361.25	230.80
361.63	230.93
362.01	230.89
362.39	230.82
362.77	230.84
363.15	230.84
363.53	230.90
363.91	230.85
364.29	230.91
364.67	230.86
365.05	230.77
365.43	230.73
365.81	230.69
366.19	230.74
366.57	230.83
366.95	230.77
367.33	230.69
367.71	230.61
368.09	230.65
368.47	230.60
368.85	230.50
369.23	230.51
369.61	230.36
369.99	230.46
370.37	230.49
370.75	230.50
371.13	230.43
371.51	230.31
371.89	230.30
372.27	230.20
372.65	230.22
373.03	230.09
373.41	230.05
373.78	229.89
374.16	229.59
374.54	229.50
374.92	229.53
375.30	229.50
375.68	229.44
376.06	229.31
376.44	229.11
376.82	229.05
377.19	228.93
377.57	228.87
377.95	228.67
378.33	228.54
378.71	228.30
379.09	228.12
379.47	228.02
379.84	227.94
380.22	227.78
380.60	227.61
380.98	227.70
381.36	227.70
381.73	227.65
382.11	227.75
382.49	227.67
382.87	227.45
383.25	227.41
383.62	227.56
384.00	227.40
384.38	227.41
384.76	227.34
385.13	227.29
385.51	227.27
385.89	227.19
386.27	227.15
386.64	227.21
387.02	227.28
387.40	227.28
387.78	227.15
388.15	227.08
388.53	226.96
388.91	226.90
389.29	226.70
389.66	226.69
390.04	226.62
390.42	226.65
390.79	226.65
391.17	226.60
391.55	226.35
391.92	226.33
392.30	226.29
392.68	226.36
393.05	226.50
393.43	226.54
393.81	226.59
394.18	226.56
394.56	226.56
394.94	226.61
395.31	226.60
395.69	226.77
396.06	226.88
396.44	226.99
396.82	226.96
397.19	227.17
397.57	227.23
397.95	227.29
398.32	227.28
398.70	227.37
399.07	227.41
399.45	227.54
399.82	227.75
400.20	227.96
400.58	228.08
400.95	228.10
401.33	228.20
401.70	228.45
402.08	228.59
402.45	228.71
402.83	228.80
403.20	229.00
403.58	229.02
403.95	229.14
404.33	229.34
404.71	229.58
405.08	229.93
405.46	230.24
405.83	230.54
406.21	230.84
406.58	231.17
406.96	231.49
407.33	231.75
407.70	232.16
408.08	232.57
408.45	233.01
408.83	233.34
409.20	233.86
409.58	234.28
409.95	234.81
410.33	235.31
410.70	235.93
411.08	236.55
411.45	237.31
411.82	237.96
412.20	238.67
412.57	239.62
412.95	240.20
413.32	241.01
413.69	241.90
414.07	242.83
414.44	243.82
414.82	244.88
415.19	246.23
415.56	247.31
415.94	248.65
416.31	250.02
416.68	251.40
417.06	252.86
417.43	254.37
417.81	256.13
418.18	257.97
418.55	259.80
418.93	261.74
419.30	263.84
419.67	266.10
420.04	268.43
420.42	270.65
420.79	273.42
421.16	276.08
421.54	278.83
421.91	281.73
422.28	284.58
422.66	287.63
423.03	290.59
423.40	293.95
423.77	297.31
424.15	300.70
424.52	304.42
424.89	308.30
425.26	312.06
425.64	315.63
426.01	319.55
426.38	323.62
426.75	327.90
427.13	332.16
427.50	336.55
427.87	341.20
428.24	345.91
428.61	350.37
428.99	355.34
429.36	360.65
429.73	365.92
430.10	371.34
430.47	376.72
430.85	382.11
431.22	387.87
431.59	394.12
431.96	400.05
432.33	406.57
432.70	413.01
433.08	420.46
433.45	427.37
433.82	434.20
434.19	441.99
434.56	449.33
434.93	456.45
435.30	463.74
435.68	471.63
436.05	479.52
436.42	487.38
436.79	494.47
437.16	502.11
437.53	510.20
437.90	518.09
438.27	526.07
438.64	534.28
439.01	541.82
439.38	548.29
439.75	554.58
440.13	561.98
440.50	568.98
440.87	574.82
441.24	580.92
441.61	587.70
441.98	592.60
442.35	598.70
442.72	604.64
443.09	610.59
443.46	614.34
443.83	616.79
444.20	619.14
444.57	622.50
444.94	624.37
445.31	626.27
445.68	628.31
446.05	629.72
446.42	629.76
446.79	629.66
447.16	629.54
447.53	630.16
447.90	628.12
448.27	626.10
448.64	622.56
449.01	620.62
449.37	616.40
449.74	612.45
450.11	607.20
450.48	601.55
450.85	595.36
451.22	590.45
451.59	586.02
451.96	581.50
452.33	575.11
452.70	569.47
453.07	562.37
453.43	555.23
453.80	548.21
454.17	541.63
454.54	535.31
454.91	528.34
455.28	521.39
455.65	515.02
456.02	508.42
456.38	503.14
456.75	496.09
457.12	490.10
457.49	484.15
457.86	478.26
458.23	473.44
458.59	468.11
458.96	462.49
459.33	457.40
459.70	452.48
460.07	448.61
460.43	444.06
460.80	439.60
461.17	435.70
461.54	431.61
461.91	427.70
462.27	423.69
462.64	420.50
463.01	416.72
463.38	413.19
463.74	409.74
464.11	406.52
464.48	403.74
464.85	400.66
465.21	398.24
465.58	395.85
465.95	392.90
466.32	390.59
466.68	388.16
467.05	385.70
467.42	383.20
467.78	380.48
468.15	377.92
468.52	376.10
468.88	373.59
469.25	371.45
469.62	369.77
469.98	368.00
470.35	366.20
470.72	364.43
471.08	362.44
471.45	360.75
471.82	359.20
472.18	357.51
472.55	356.38
472.92	354.80
473.28	353.36
473.65	351.98
474.02	350.59
474.38	349.42
474.75	348.41
475.11	347.30
475.48	346.40
475.85	345.70
476.21	345.04
476.58	344.32
476.94	343.67
477.31	342.83
477.67	342.25
478.04	341.56
478.41	341.13
478.77	340.93
479.14	340.51
479.50	340.38
479.87	340.08
480.23	339.80
480.60	339.62
480.96	339.50
481.33	339.46
481.69	339.39
482.06	339.32
482.42	339.06
482.79	339.13
483.15	339.17
483.52	339.39
483.88	339.37
484.25	339.59
484.61	339.84
484.98	340.22
485.34	340.60
485.71	341.30
486.07	341.86
486.44	342.26
486.80	342.86
487.17	343.35
487.53	344.11
487.90	344.91
488.26	345.87
488.62	346.85
488.99	347.76
489.35	348.57
489.72	349.41
490.08	350.76
490.44	351.82
490.81	353.03
491.17	354.11
491.54	355.57
491.90	356.84
492.26	358.14
492.63	359.65
492.99	360.91
493.36	362.30
493.72	363.89
494.08	365.54
494.45	367.13
494.81	368.93
495.17	370.56
495.54	372.07
495.90	373.76
496.26	375.37
496.63	377.17
496.99	379.18
497.35	381.18
497.72	383.05
498.08	384.93
498.44	386.86
498.80	388.94
499.17	390.88
499.53	392.88
499.89	394.92
500.26	396.66
500.62	398.74
500.98	400.69
501.34	402.64
501.71	404.54
502.07	406.47
502.43	408.14
502.79	409.97
503.16	411.85
503.52	413.74
503.88	415.56
504.24	417.28
504.60	419.05
504.97	420.89
505.33	422.53
505.69	424.35
506.05	425.95
506.41	427.48
506.78	428.86
507.14	430.28
507.50	431.68
507.86	433.13
508.22	434.40
508.59	435.71
508.95	437.01
509.31	438.46
509.67	439.70
510.03	440.84
510.39	442.15
510.75	443.36
511.12	444.42
511.48	445.57
511.84	446.52
512.20	447.22
512.56	448.15
512.92	449.05
513.28	449.77
513.64	450.61
514.00	451.47
514.37	452.14
514.73	452.92
515.09	453.59
515.45	454.28
515.81	454.76
516.17	455.38
516.53	455.82
516.89	456.06
517.25	456.52
517.61	457.08
517.97	457.33
518.33	457.69
518.69	457.92
519.05	458.11
519.41	458.73
519.77	459.40
520.13	459.79
520.49	460.21
520.85	460.48
521.21	460.75
521.57	460.96
521.93	461.42
522.29	461.89
522.65	462.47
523.01	462.89
523.37	463.43
523.73	463.85
524.09	464.19
524.45	464.87
524.81	465.46
525.17	466.13
525.53	466.99
525.89	467.68
526.25	468.44
526.61	469.30
526.97	469.95
527.33	470.80
527.68	471.75
528.04	472.64
528.40	473.69
528.76	474.89
529.12	476.23
529.48	477.63
529.84	478.87
530.20	480.07
530.56	481.67
530.91	483.23
531.27	484.61
531.63	486.43
531.99	487.97
532.35	489.77
532.71	491.38
533.07	493.21
533.42	495.38
533.78	497.36
534.14	499.47
534.50	501.42
534.86	503.60
535.21	505.60
535.57	507.94
535.93	510.30
536.29	512.86
536.65	515.11
537.00	517.36
537.36	520.03
537.72	522.66
538.08	525.15
538.44	527.84
538.79	530.90
539.15	533.51
539.51	536.39
539.87	539.32
540.22	542.55
540.58	545.65
540.94	548.61
541.29	551.78
541.65	555.05
542.01	558.60
542.37	561.78
542.72	565.23
543.08	568.47
543.44	571.93
543.79	575.02
544.15	578.68
544.51	582.42
544.87	585.81
545.22	589.36
545.58	592.90
545.94	596.42
546.29	599.95
546.65	603.80
547.01	607.26
547.36	610.92
547.72	614.53
548.07	618.31
548.43	621.91
548.79	625.69
549.14	629.20
549.50	632.66
549.86	636.55
550.21	640.16
550.57	643.97
550.92	647.96
551.28	651.81
551.64	655.56
551.99	659.24
552.35	662.95
552.70	666.74
553.06	670.64
553.41	674.66
553.77	678.68
554.13	682.45
554.48	686.64
554.84	690.58
555.19	694.31
555.55	698.04
555.90	701.86
556.26	705.52
556.61	709.19
556.97	713.10
557.32	716.77
557.68	720.59
558.03	724.58
558.39	728.21
558.74	732.17
559.10	735.83
559.45	739.70
559.81	743.89
560.16	747.41
560.52	751.20
560.87	755.03
561.23	758.53
561.58	762.48
561.94	766.09
562.29	769.41
562.64	773.05
563.00	776.49
563.35	780.20
563.71	784.05
564.06	787.87
564.42	791.07
564.77	794.51
565.12	798.16
565.48	801.59
565.83	804.86
566.19	807.91
566.54	811.14
566.89	814.27
567.25	817.23
567.60	820.69
567.96	823.72
568.31	826.66
568.66	829.63
569.02	832.19
569.37	834.90
569.72	837.62
570.08	840.30
570.43	842.91
570.78	845.18
571.14	847.29
571.49	849.68
571.84	852.66
572.20	854.82
572.55	856.74
572.90	858.63
573.26	861.00
573.61	862.82
573.96	864.84
574.31	866.37
574.67	867.71
575.02	869.08
575.37	870.39
575.72	871.52
576.08	873.06
576.43	874.23
576.78	875.53
577.13	877.37
577.49	878.74
577.84	879.97
578.19	881.20
578.54	882.44
578.90	883.31
579.25	883.56
579.60	884.52
579.95	885.45
580.30	886.15
580.66	886.34
581.01	886.97
581.36	887.36
581.71	888.09
582.06	888.73
582.42	889.24
582.77	889.81
583.12	890.07
583.47	890.31
583.82	891.04
584.17	891.02
584.53	890.83
584.88	890.84
585.23	891.05
585.58	891.16
585.93	891.09
586.28	890.79
586.63	891.12
586.98	891.16
587.34	891.10
587.69	890.85
588.04	890.68
588.39	890.65
588.74	890.15
589.09	889.59
589.44	888.94
589.79	888.44
590.14	887.83
590.49	887.46
590.84	886.60
591.19	885.82
591.54	885.00
591.89	883.72
592.25	882.80
592.60	881.49
592.95	880.32
593.30	879.05
593.65	878.15
594.00	876.81
594.35	875.80
594.70	874.15
595.05	872.94
595.40	871.58
595.75	869.86
596.10	868.57
596.45	867.60
596.80	866.63
597.15	865.58
597.50	864.43
597.85	863.50
598.19	862.19
598.54	860.76
598.89	859.89
599.24	859.13
599.59	857.63
599.94	856.40
600.29	854.80
600.64	853.37
600.99	851.52
601.34	850.16
601.69	848.38
602.04	846.75
602.39	845.10
602.74	843.68
603.08	842.69
603.43	841.32
603.78	839.59
604.13	837.73
604.48	835.66
604.83	833.59
605.18	831.58
605.53	829.47
605.87	827.25
606.22	825.17
606.57	822.94
606.92	821.05
607.27	819.57
607.62	818.01
607.96	816.25
608.31	814.74
608.66	812.50
609.01	810.17
609.36	807.80
609.70	805.46
610.05	802.90
610.40	800.48
610.75	797.90
611.10	795.47
611.44	792.86
611.79	790.50
612.14	788.13
612.49	784.96
612.83	782.59
613.18	780.17
613.53	777.49
613.88	774.83
614.22	772.00
614.57	768.62
614.92	765.63
615.27	762.89
615.61	759.98
615.96	757.32
616.31	754.80
616.65	752.85
617.00	750.38
617.35	747.96
617.70	745.00
618.04	742.43
618.39	739.57
618.74	737.18
619.08	734.44
619.43	731.77
619.78	729.45
620.12	726.89
620.47	724.18
620.82	721.37
621.16	718.72
621.51	716.37
621.85	713.91
622.20	711.14
622.55	708.42
622.89	706.09
623.24	703.58
623.59	701.08
623.93	698.22
624.28	695.63
624.62	693.26
624.97	691.07
625.32	688.50
625.66	686.41
626.01	683.70
626.35	681.25
626.70	678.71
627.04	676.47
627.39	673.80
627.73	671.37
628.08	669.15
628.43	666.58
628.77	664.09
629.12	661.37
629.46	658.99
629.81	656.60
630.15	653.60
630.50	650.98
630.84	648.04
631.19	645.31
631.53	642.63
631.88	639.79
632.22	636.75
632.57	634.31
632.91	631.21
633.26	628.79
633.60	626.06
633.95	623.54
634.29	620.85
634.64	618.56
634.98	615.87
635.32	613.13
635.67	610.75
636.01	608.27
636.36	605.79
636.70	603.53
637.05	600.97
637.39	598.78
637.73	596.28
638.08	594.22
638.42	592.08
638.77	589.78
639.11	587.42
639.45	585.25
639.80	582.78
640.14	580.55
640.49	578.15
640.83	575.92
641.17	573.59
641.52	571.15
641.86	568.59
642.20	566.40
642.55	564.11
642.89	561.74
643.23	559.29
643.58	557.37
643.92	554.79
644.26	552.45
644.61	550.18
644.95	548.00
645.29	545.27
645.64	542.78
645.98	540.53
646.32	538.29
646.66	535.90
647.01	533.65
647.35	531.13
647.69	528.80
648.04	526.46
648.38	524.03
648.72	521.48
649.06	519.21
649.41	516.66
649.75	514.26
650.09	511.67
650.43	509.18
650.78	506.52
651.12	504.30
651.46	502.03
651.80	499.79
652.14	497.42
652.49	495.24
652.83	493.14
653.17	490.70
653.51	488.27
653.85	486.09
654.20	483.74
654.54	481.77
654.88	479.30
655.22	476.88
655.56	474.59
655.90	472.45
656.25	470.21
656.59	468.00
656.93	465.79
657.27	463.81
657.61	461.74
657.95	459.80
658.29	457.74
658.64	455.63
658.98	453.42
659.32	451.23
659.66	449.20
660.00	446.96
660.34	444.86
660.68	442.74
661.02	440.54
661.36	438.50
661.70	436.44
662.05	434.66
662.39	432.99
662.73	431.19
663.07	429.62
663.41	427.88
663.75	426.19
664.09	424.49
664.43	422.72
664.77	420.98
665.11	419.14
665.45	417.39
665.79	415.61
666.13	413.90
666.47	412.14
666.81	410.43
667.15	408.60
667.49	406.95
667.83	405.50
668.17	403.97
668.51	402.41
668.85	400.79
669.19	399.30
669.53	397.72
669.87	396.10
670.21	394.47
670.55	392.81
670.89	391.66
671.23	390.23
671.57	388.90
671.91	387.39
672.25	386.16
672.58	384.79
672.92	383.41
673.26	381.97
673.60	380.80
673.94	379.41
674.28	378.37
674.62	377.15
674.96	375.77
675.30	374.40
675.64	373.17
675.97	372.04
676.31	370.77
676.65	369.43
676.99	368.40
677.33	367.13
677.67	366.04
678.01	364.58
678.34	363.26
678.68	362.01
679.02	360.84
679.36	359.35
679.70	358.15
680.04	356.96
680.37	355.80
680.71	354.45
681.05	353.51
681.39	352.30
681.73	351.21
682.06	350.26
682.40	349.31
682.74	348.16
683.08	347.11
683.42	346.02
683.75	344.98
684.09	343.65
684.43	342.54
684.77	341.43
685.10	340.52
685.44	339.50
685.78	338.39
686.12	337.35
686.45	336.31
686.79	335.21
687.13	334.25
687.46	333.30
687.80	332.31
688.14	331.17
688.48	330.23
688.81	329.16
689.15	328.11
689.49	327.04
689.82	326.06
690.16	324.88
690.50	323.92
690.83	322.91
691.17	322.05
691.51	321.02
691.84	320.07
692.18	319.03
692.52	317.99
692.85	317.08
693.19	316.20
693.52	315.35
693.86	314.45
694.20	313.51
694.53	312.57
694.87	311.73
695.21	310.79
695.54	309.76
695.88	308.81
696.21	307.88
696.55	307.00
696.88	306.09
697.22	305.30
697.56	304.48
697.89	303.61
698.23	302.73
698.56	302.01
698.90	301.13
699.23	300.30
699.57	299.60
699.90	298.78
700.24	297.93
700.58	297.11
700.91	296.33
701.25	295.70
701.58	295.01
701.92	294.24
702.25	293.57
702.59	292.94
702.92	292.40
703.26	291.71
703.59	291.00
703.93	290.46
704.26	289.73
704.60	288.96
704.93	288.46
705.26	287.85
705.60	287.15
705.93	286.53
706.27	285.93
706.60	285.38
706.94	284.84
707.27	284.26
707.61	283.80
707.94	283.26
708.27	282.54
708.61	281.86
708.94	281.33
709.28	280.75
709.61	280.15
709.94	279.54
710.28	278.92
710.61	278.42
710.95	277.70
711.28	277.25
711.61	276.74
711.95	276.12
712.28	275.47
712.61	274.98
712.95	274.56
713.28	274.10
713.61	273.50
713.95	272.94
714.28	272.35
714.61	271.67
714.95	271.22
715.28	270.66
715.61	270.19
715.95	269.79
716.28	269.30
716.61	268.91
716.95	268.41
717.28	268.07
717.61	267.64
717.94	267.32
718.28	266.87
718.61	266.43
718.94	266.11
719.27	265.84
719.61	265.43
719.94	265.12
720.27	264.65
720.60	264.20
720.94	263.82
721.27	263.61
721.60	263.28
721.93	262.83
722.27	262.55
722.60	262.26
722.93	261.83
723.26	261.60
723.59	261.27
723.93	260.93
724.26	260.61
724.59	260.30
724.92	259.95
725.25	259.66
725.59	259.46
725.92	259.17
726.25	258.80
726.58	258.53
726.91	258.13
727.24	257.91
727.57	257.76
727.91	257.56
728.24	257.22
728.57	257.08
728.90	256.85
729.23	256.53
729.56	256.30
729.89	256.06
730.22	255.83
730.55	255.57
730.89	255.39
731.22	255.15
731.55	254.86
731.88	254.65
732.21	254.40
732.54	254.01
732.87	253.78
733.20	253.52
733.53	253.34
733.86	253.08
734.19	252.84
734.52	252.57
734.85	252.38
735.18	252.17
735.51	251.91
735.84	251.73
736.17	251.61
736.50	251.30
736.83	251.20
737.16	250.84
737.49	250.56
737.82	250.32
738.15	250.12
738.48	249.97
738.81	249.75
739.14	249.39
739.47	249.30
739.80	249.03
740.13	248.94
740.46	248.55
740.79	248.34
741.12	248.03
741.45	247.89
741.78	247.66
742.11	247.54
742.44	247.38
742.77	247.15
743.10	246.85
743.43	246.58
743.75	246.16
744.08	246.33
744.41	246.12
744.74	245.81
745.07	245.51
745.40	245.29
745.73	245.15
746.06	244.99
746.39	244.77
746.71	244.55
747.04	244.24
747.37	244.14
747.70	244.00
748.03	243.87
748.36	243.66
748.68	243.39
749.01	243.19
749.34	243.00
749.67	242.81
750.00	242.69
750.33	242.77
750.65	242.69
750.98	242.14
751.31	241.95
751.64	241.94
751.97	241.86
752.29	241.70
752.62	241.45
752.95	241.33
753.28	241.13
753.60	240.87
753.93	240.77
754.26	240.59
754.59	240.40
754.91	240.37
755.24	240.15
755.57	240.04
755.90	239.85
756.22	239.62
756.55	239.47
756.88	239.29
757.20	238.99
757.53	238.82
757.86	238.74
758.19	238.65
758.51	238.45
758.84	238.29
759.17	238.18
759.49	238.03
759.82	238.06
760.15	237.94
760.47	237.95
760.80	237.82
761.13	237.79
761.45	237.55
761.78	237.38
762.11	237.33
762.43	237.20
762.76	237.10
763.08	236.99
763.41	236.89
763.74	236.87
764.06	236.77
764.39	236.73
764.71	236.62
765.04	236.63
765.37	236.59
765.69	236.50
766.02	236.55
766.34	236.47
766.67	236.31
767.00	236.23
767.32	236.29
767.65	236.33
767.97	236.19
768.30	236.21
768.62	236.00
768.95	235.91
769.27	235.85
769.60	235.82
769.92	235.76
770.25	235.73
770.57	235.65
770.90	235.56
771.22	235.50
771.55	235.50
771.87	235.42
772.20	235.33
772.52	235.46
772.85	235.43
773.17	235.43
773.50	235.39
773.82	235.40
774.15	235.21
774.47	235.02
774.80	234.94
775.12	234.91
775.45	234.92
775.77	234.75
776.09	234.70
776.42	234.63
776.74	234.61
777.07	234.43
777.39	234.33
777.72	234.26
778.04	234.26
778.36	234.23
778.69	234.11
779.01	234.04
779.33	233.84
779.66	233.69
779.98	233.56
780.31	233.42
780.63	233.55
780.95	233.60
781.28	233.57
781.60	233.60
781.92	233.54
782.25	233.40
782.57	233.42
782.89	233.39
783.22	233.29
783.54	233.20
783.86	233.12
784.19	232.97
784.51	232.93
784.83	232.81
785.16	232.73
785.48	232.62
785.80	232.68
786.12	232.57
786.45	232.43
786.77	232.50
787.09	232.49
787.42	232.25
787.74	232.09
788.06	232.00
788.38	231.94
788.71	231.81
789.03	231.80
789.35	231.69
789.67	231.60
789.99	231.58
790.32	231.56
790.64	231.64
790.96	231.70
791.28	231.67
791.61	231.64
791.93	231.51
792.25	231.51
792.57	231.51
792.89	231.43
793.21	231.48
793.54	231.36
793.86	231.25
794.18	231.15
