SpectraSuite Data File
++++++++++++++++++++++++++++++++++++
Date: Fri Feb 01 14:34:08 EST 2013
User: group
Dark Spectrum Present: No
Reference Spectrum Present: No
Number of Sampled Component Spectra: 1
Spectrometers: USB2E7196
Integration Time (usec): 70000 (USB2E7196)
Spectra Averaged: 10 (USB2E7196)
Boxcar Smoothing: 10 (USB2E7196)
Correct for Electrical Dark: No (USB2E7196)
Strobe/Lamp Enabled: No (USB2E7196)
Correct for Detector Non-linearity: No (USB2E7196)
Correct for Stray Light: No (USB2E7196)
Number of Pixels in Processed Spectrum: 2048
>>>>>Begin Processed Spectral Data<<<<<
339.09	0.00
339.48	215.90
339.86	218.80
340.24	220.00
340.63	222.50
341.01	225.80
341.39	224.80
341.78	226.80
342.16	227.70
342.54	225.70
342.93	215.24
343.31	226.07
343.69	226.72
344.07	227.24
344.46	227.78
344.84	228.02
345.22	228.18
345.60	228.37
345.99	228.47
346.37	228.53
346.75	228.64
347.13	228.75
347.52	228.93
347.90	229.11
348.28	229.00
348.66	229.02
349.05	229.00
349.43	229.07
349.81	229.13
350.19	229.23
350.57	229.33
350.96	229.39
351.34	229.48
351.72	229.51
352.10	229.50
352.48	229.48
352.87	229.57
353.25	229.66
353.63	229.76
354.01	229.78
354.39	229.89
354.77	230.03
355.15	230.07
355.54	230.09
355.92	230.12
356.30	230.15
356.68	230.32
357.06	230.44
357.44	230.46
357.82	230.47
358.20	230.58
358.58	230.55
358.97	230.66
359.35	230.80
359.73	230.91
360.11	231.02
360.49	230.99
360.87	231.05
361.25	230.96
361.63	230.96
362.01	231.03
362.39	231.00
362.77	230.96
363.15	230.96
363.53	230.97
363.91	231.08
364.29	231.17
364.67	231.01
365.05	230.95
365.43	231.00
365.81	231.09
366.19	231.15
366.57	231.28
366.95	231.21
367.33	231.10
367.71	231.02
368.09	230.95
368.47	231.00
368.85	230.95
369.23	231.00
369.61	230.94
369.99	231.02
370.37	230.96
370.75	231.01
371.13	231.00
371.51	230.98
371.89	230.85
372.27	230.74
372.65	230.68
373.03	230.58
373.41	230.50
373.78	230.37
374.16	230.14
374.54	230.01
374.92	229.90
375.30	229.93
375.68	229.83
376.06	229.79
376.44	229.69
376.82	229.63
377.19	229.59
377.57	229.53
377.95	229.30
378.33	229.29
378.71	229.01
379.09	228.95
379.47	228.77
379.84	228.70
380.22	228.67
380.60	228.56
380.98	228.56
381.36	228.47
381.73	228.34
382.11	228.33
382.49	228.20
382.87	228.15
383.25	227.96
383.62	228.14
384.00	227.97
384.38	227.85
384.76	227.90
385.13	227.95
385.51	227.90
385.89	227.82
386.27	227.76
386.64	227.83
387.02	227.70
387.40	227.77
387.78	227.72
388.15	227.74
388.53	227.74
388.91	227.71
389.29	227.65
389.66	227.69
390.04	227.63
390.42	227.60
390.79	227.58
391.17	227.67
391.55	227.38
391.92	227.42
392.30	227.39
392.68	227.27
393.05	227.23
393.43	227.26
393.81	227.41
394.18	227.36
394.56	227.47
394.94	227.58
395.31	227.54
395.69	227.63
396.06	227.69
396.44	227.80
396.82	227.89
397.19	228.10
397.57	228.17
397.95	228.33
398.32	228.43
398.70	228.59
399.07	228.80
399.45	228.95
399.82	229.11
400.20	229.36
400.58	229.52
400.95	229.67
401.33	229.86
401.70	230.20
402.08	230.53
402.45	230.76
402.83	231.06
403.20	231.40
403.58	231.64
403.95	231.97
404.33	232.27
404.71	232.62
405.08	233.10
405.46	233.48
405.83	233.89
406.21	234.30
406.58	234.71
406.96	235.11
407.33	235.62
407.70	236.21
408.08	236.84
408.45	237.50
408.83	238.10
409.20	238.67
409.58	239.14
409.95	239.76
410.33	240.51
410.70	241.23
411.08	242.15
411.45	243.10
411.82	243.98
412.20	245.00
412.57	246.21
412.95	247.13
413.32	248.40
413.69	249.64
414.07	251.08
414.44	252.65
414.82	254.19
415.19	255.98
415.56	257.76
415.94	259.65
416.31	261.70
416.68	263.68
417.06	266.14
417.43	268.46
417.81	271.06
418.18	273.65
418.55	276.61
418.93	279.60
419.30	282.72
419.67	285.92
420.04	289.29
420.42	292.78
420.79	296.86
421.16	300.81
421.54	304.99
421.91	309.25
422.28	313.71
422.66	318.44
423.03	322.88
423.40	327.63
423.77	332.85
424.15	338.20
424.52	343.85
424.89	349.68
425.26	355.44
425.64	360.89
426.01	366.97
426.38	373.18
426.75	379.32
427.13	385.80
427.50	392.69
427.87	399.70
428.24	406.89
428.61	413.65
428.99	421.24
429.36	429.40
429.73	437.31
430.10	445.21
430.47	453.29
430.85	462.01
431.22	470.87
431.59	480.09
431.96	488.90
432.33	498.54
432.70	507.98
433.08	519.21
433.45	529.80
433.82	540.30
434.19	552.04
434.56	563.32
434.93	574.27
435.30	585.11
435.68	597.20
436.05	609.08
436.42	620.79
436.79	631.44
437.16	643.03
437.53	655.38
437.90	667.42
438.27	679.24
438.64	691.57
439.01	702.95
439.38	713.41
439.75	723.46
440.13	734.97
440.50	745.96
440.87	754.90
441.24	764.29
441.61	774.84
441.98	782.43
442.35	791.62
442.72	800.96
443.09	809.97
443.46	815.91
443.83	819.73
444.20	823.65
444.57	828.97
444.94	832.00
445.31	835.17
445.68	838.36
446.05	840.69
446.42	840.90
446.79	841.12
447.16	840.96
447.53	841.54
447.90	838.54
448.27	835.61
448.64	830.48
449.01	827.42
449.37	820.51
449.74	814.04
450.11	805.94
450.48	796.89
450.85	787.88
451.22	780.30
451.59	773.38
451.96	766.73
452.33	756.96
452.70	748.16
453.07	737.46
453.43	726.56
453.80	715.84
454.17	705.53
454.54	695.77
454.91	685.02
455.28	674.37
455.65	664.83
456.02	654.82
456.38	646.62
456.75	636.02
457.12	627.14
457.49	618.43
457.86	610.05
458.23	602.88
458.59	594.78
458.96	586.43
459.33	578.83
459.70	571.20
460.07	565.24
460.43	558.43
460.80	551.76
461.17	545.90
461.54	539.93
461.91	534.06
462.27	528.20
462.64	523.37
463.01	517.87
463.38	512.37
463.74	506.95
464.11	502.14
464.48	498.07
464.85	493.51
465.21	489.96
465.58	486.31
465.95	481.76
466.32	477.94
466.68	474.22
467.05	470.68
467.42	466.98
467.78	463.24
468.15	459.40
468.52	456.70
468.88	453.09
469.25	449.85
469.62	447.47
469.98	444.69
470.35	441.96
470.72	439.46
471.08	436.74
471.45	434.56
471.82	432.26
472.18	429.68
472.55	427.93
472.92	425.82
473.28	423.91
473.65	422.04
474.02	420.20
474.38	418.54
474.75	417.23
475.11	415.68
475.48	414.37
475.85	413.48
476.21	412.34
476.58	411.55
476.94	410.83
477.31	409.64
477.67	408.82
478.04	408.06
478.41	407.51
478.77	407.22
479.14	406.62
479.50	406.43
479.87	406.43
480.23	406.24
480.60	406.04
480.96	405.79
481.33	405.99
481.69	406.04
482.06	406.29
482.42	406.20
482.79	406.46
483.15	407.10
483.52	407.89
483.88	408.53
484.25	409.14
484.61	409.88
484.98	410.91
485.34	412.08
485.71	413.32
486.07	414.71
486.44	415.89
486.80	417.52
487.17	419.17
487.53	420.72
487.90	422.52
488.26	424.39
488.62	426.35
488.99	428.43
489.35	430.75
489.72	432.94
490.08	435.56
490.44	438.14
490.81	440.70
491.17	443.19
491.54	446.06
491.90	449.01
492.26	452.28
492.63	455.44
492.99	458.58
493.36	461.92
493.72	465.38
494.08	469.06
494.45	472.80
494.81	476.36
495.17	480.08
495.54	484.25
495.90	488.32
496.26	492.55
496.63	496.71
496.99	501.26
497.35	505.87
497.72	510.29
498.08	514.97
498.44	519.67
498.80	524.80
499.17	529.72
499.53	534.75
499.89	539.66
500.26	544.50
500.62	549.54
500.98	554.77
501.34	559.91
501.71	565.22
502.07	570.18
502.43	575.57
502.79	581.10
503.16	586.21
503.52	591.80
503.88	597.16
504.24	602.64
504.60	607.76
504.97	613.11
505.33	618.95
505.69	624.76
506.05	630.20
506.41	635.30
506.78	640.51
507.14	645.45
507.50	650.89
507.86	656.38
508.22	661.76
508.59	666.95
508.95	672.15
509.31	677.33
509.67	682.82
510.03	688.01
510.39	693.06
510.75	698.23
511.12	703.03
511.48	707.99
511.84	712.68
512.20	717.57
512.56	722.71
512.92	727.30
513.28	731.47
513.64	735.73
514.00	740.20
514.37	744.75
514.73	749.39
515.09	753.28
515.45	757.44
515.81	761.38
516.17	765.48
516.53	769.37
516.89	773.15
517.25	776.78
517.61	780.56
517.97	784.12
518.33	787.42
518.69	790.87
519.05	794.25
519.41	797.86
519.77	801.25
520.13	804.17
520.49	807.08
520.85	810.17
521.21	813.56
521.57	816.68
521.93	819.40
522.29	822.56
522.65	825.53
523.01	827.84
523.37	830.43
523.73	832.89
524.09	835.34
524.45	837.89
524.81	840.54
525.17	843.34
525.53	846.12
525.89	848.59
526.25	851.21
526.61	853.49
526.97	856.05
527.33	858.44
527.68	861.16
528.04	863.65
528.40	866.48
528.76	869.05
529.12	871.52
529.48	874.29
529.84	876.28
530.20	878.82
530.56	881.83
530.91	885.14
531.27	888.02
531.63	890.56
531.99	892.90
532.35	895.16
532.71	897.18
533.07	899.64
533.42	902.45
533.78	904.98
534.14	907.88
534.50	910.10
534.86	912.63
535.21	914.79
535.57	917.18
535.93	919.34
536.29	921.54
536.65	923.98
537.00	926.23
537.36	928.76
537.72	931.26
538.08	933.44
538.44	935.10
538.79	937.03
539.15	939.39
539.51	942.03
539.87	944.57
540.22	947.37
540.58	950.11
540.94	952.53
541.29	954.61
541.65	956.86
542.01	959.54
542.37	961.85
542.72	964.23
543.08	966.80
543.44	969.37
543.79	971.30
544.15	973.85
544.51	976.67
544.87	979.32
545.22	981.40
545.58	984.05
545.94	986.37
546.29	989.04
546.65	991.69
547.01	993.95
547.36	995.97
547.72	997.63
548.07	999.28
548.43	1001.50
548.79	1003.94
549.14	1005.96
549.50	1007.81
549.86	1010.11
550.21	1012.18
550.57	1014.26
550.92	1016.18
551.28	1018.43
551.64	1020.19
551.99	1021.92
552.35	1023.90
552.70	1026.22
553.06	1028.26
553.41	1030.60
553.77	1032.44
554.13	1034.30
554.48	1036.35
554.84	1038.54
555.19	1040.70
555.55	1042.91
555.90	1044.52
556.26	1046.28
556.61	1048.14
556.97	1050.04
557.32	1051.96
557.68	1053.77
558.03	1055.70
558.39	1057.40
558.74	1059.63
559.10	1061.71
559.45	1063.49
559.81	1065.64
560.16	1067.26
560.52	1069.03
560.87	1070.76
561.23	1072.42
561.58	1074.23
561.94	1075.81
562.29	1077.51
562.64	1079.27
563.00	1080.51
563.35	1082.15
563.71	1084.00
564.06	1085.92
564.42	1087.18
564.77	1088.63
565.12	1090.44
565.48	1091.95
565.83	1093.20
566.19	1094.40
566.54	1095.47
566.89	1096.71
567.25	1097.64
567.60	1099.34
567.96	1100.62
568.31	1101.55
568.66	1102.79
569.02	1103.48
569.37	1104.31
569.72	1105.35
570.08	1106.19
570.43	1107.21
570.78	1107.81
571.14	1108.09
571.49	1108.41
571.84	1109.49
572.20	1109.65
572.55	1109.67
572.90	1109.72
573.26	1110.19
573.61	1110.32
573.96	1110.28
574.31	1109.83
574.67	1109.22
575.02	1108.05
575.37	1107.19
575.72	1106.13
576.08	1105.47
576.43	1104.99
576.78	1104.61
577.13	1103.84
577.49	1103.02
577.84	1101.94
578.19	1101.34
578.54	1100.43
578.90	1099.36
579.25	1097.51
579.60	1096.26
579.95	1094.89
580.30	1093.29
580.66	1091.81
581.01	1090.33
581.36	1088.89
581.71	1087.72
582.06	1086.29
582.42	1084.94
582.77	1083.41
583.12	1082.28
583.47	1080.76
583.82	1079.24
584.17	1077.34
584.53	1075.35
584.88	1073.70
585.23	1072.24
585.58	1070.50
585.93	1069.07
586.28	1067.75
586.63	1066.63
586.98	1065.00
587.34	1063.56
587.69	1061.94
588.04	1060.31
588.39	1058.74
588.74	1056.45
589.09	1054.26
589.44	1052.18
589.79	1050.48
590.14	1048.90
590.49	1047.16
590.84	1044.99
591.19	1042.90
591.54	1040.27
591.89	1037.75
592.25	1035.30
592.60	1032.50
592.95	1029.57
593.30	1026.55
593.65	1023.61
594.00	1020.77
594.35	1018.69
594.70	1015.52
595.05	1012.89
595.40	1009.94
595.75	1006.80
596.10	1004.48
596.45	1001.93
596.80	999.50
597.15	996.78
597.50	993.74
597.85	990.91
598.19	988.38
598.54	985.82
598.89	983.49
599.24	981.33
599.59	978.63
599.94	976.10
600.29	973.62
600.64	971.03
600.99	967.95
601.34	965.11
601.69	961.64
602.04	958.99
602.39	956.03
602.74	953.24
603.08	950.57
603.43	947.82
603.78	944.95
604.13	941.99
604.48	938.92
604.83	936.05
605.18	933.05
605.53	929.57
605.87	926.09
606.22	922.97
606.57	919.63
606.92	916.43
607.27	913.45
607.62	910.70
607.96	907.75
608.31	905.03
608.66	901.66
609.01	898.60
609.36	894.98
609.70	891.18
610.05	887.81
610.40	884.38
610.75	880.60
611.10	877.15
611.44	873.18
611.79	869.62
612.14	865.83
612.49	861.76
612.83	858.29
613.18	854.58
613.53	850.83
613.88	846.90
614.22	843.09
614.57	839.21
614.92	835.16
615.27	831.48
615.61	827.53
615.96	823.89
616.31	820.26
616.65	817.06
617.00	814.16
617.35	810.67
617.70	807.00
618.04	803.55
618.39	799.81
618.74	796.71
619.08	792.88
619.43	789.39
619.78	786.22
620.12	782.66
620.47	779.17
620.82	775.76
621.16	772.60
621.51	769.60
621.85	766.26
622.20	762.80
622.55	759.35
622.89	756.01
623.24	752.81
623.59	749.58
623.93	746.46
624.28	742.85
624.62	739.70
624.97	736.75
625.32	733.61
625.66	730.47
626.01	727.31
626.35	724.45
626.70	721.55
627.04	718.41
627.39	715.18
627.73	712.18
628.08	709.20
628.43	705.97
628.77	702.48
629.12	699.23
629.46	696.00
629.81	692.59
630.15	689.35
630.50	686.00
630.84	682.52
631.19	679.20
631.53	675.97
631.88	672.19
632.22	668.60
632.57	665.35
632.91	662.20
633.26	658.85
633.60	655.39
633.95	652.05
634.29	648.78
634.64	645.84
634.98	642.82
635.32	639.84
635.67	637.09
636.01	634.31
636.36	631.40
636.70	628.82
637.05	626.18
637.39	623.53
637.73	621.04
638.08	618.69
638.42	616.17
638.77	613.66
639.11	611.07
639.45	608.24
639.80	605.54
640.14	602.89
640.49	600.36
640.83	597.80
641.17	595.13
641.52	592.80
641.86	589.82
642.20	587.34
642.55	584.63
642.89	581.91
643.23	579.13
643.58	576.82
643.92	573.97
644.26	571.46
644.61	568.90
644.95	566.24
645.29	563.10
645.64	559.91
645.98	557.29
646.32	554.99
646.66	552.63
647.01	550.02
647.35	547.45
647.69	544.99
648.04	542.63
648.38	539.93
648.72	536.89
649.06	534.68
649.41	531.75
649.75	529.12
650.09	526.39
650.43	523.83
650.78	520.82
651.12	518.18
651.46	515.47
651.80	512.79
652.14	510.25
652.49	508.06
652.83	505.91
653.17	503.38
653.51	500.70
653.85	498.00
654.20	495.41
654.54	492.80
654.88	489.99
655.22	487.35
655.56	484.93
655.90	482.88
656.25	480.48
656.59	478.23
656.93	475.78
657.27	473.56
657.61	470.99
657.95	468.74
658.29	466.68
658.64	464.41
658.98	462.24
659.32	459.80
659.66	457.39
660.00	455.03
660.34	452.69
660.68	450.45
661.02	448.32
661.36	446.43
661.70	444.48
662.05	442.66
662.39	440.60
662.73	438.61
663.07	436.49
663.41	434.54
663.75	432.67
664.09	430.67
664.43	428.74
664.77	427.20
665.11	425.42
665.45	423.33
665.79	421.49
666.13	419.54
666.47	417.81
666.81	415.96
667.15	413.99
667.49	412.27
667.83	410.58
668.17	408.90
668.51	407.00
668.85	405.36
669.19	403.71
669.53	402.17
669.87	400.51
670.21	399.00
670.55	397.38
670.89	395.98
671.23	394.67
671.57	393.16
671.91	391.50
672.25	390.10
672.58	388.84
672.92	387.42
673.26	386.11
673.60	384.76
673.94	383.31
674.28	382.14
674.62	380.97
674.96	379.62
675.30	378.38
675.64	377.09
675.97	375.73
676.31	374.38
676.65	373.13
676.99	371.93
677.33	370.58
677.67	369.24
678.01	367.84
678.34	366.54
678.68	365.23
679.02	364.02
679.36	362.72
679.70	361.41
680.04	360.12
680.37	358.77
680.71	357.46
681.05	356.58
681.39	355.48
681.73	354.29
682.06	353.22
682.40	352.12
682.74	350.99
683.08	349.83
683.42	348.80
683.75	347.65
684.09	346.56
684.43	345.48
684.77	344.34
685.10	343.05
685.44	341.94
685.78	340.94
686.12	339.81
686.45	338.64
686.79	337.50
687.13	336.45
687.46	335.30
687.80	334.36
688.14	333.06
688.48	331.96
688.81	330.80
689.15	329.80
689.49	328.78
689.82	327.80
690.16	326.68
690.50	325.55
690.83	324.46
691.17	323.29
691.51	322.21
691.84	321.22
692.18	320.20
692.52	319.13
692.85	318.06
693.19	317.17
693.52	316.20
693.86	315.24
694.20	314.20
694.53	313.34
694.87	312.26
695.21	311.42
695.54	310.39
695.88	309.42
696.21	308.47
696.55	307.47
696.88	306.54
697.22	305.63
697.56	304.79
697.89	303.95
698.23	303.21
698.56	302.27
698.90	301.42
699.23	300.54
699.57	299.72
699.90	298.94
700.24	298.01
700.58	297.23
700.91	296.51
701.25	295.89
701.58	295.21
701.92	294.48
702.25	293.74
702.59	293.16
702.92	292.53
703.26	291.80
703.59	291.08
703.93	290.67
704.26	290.11
704.60	289.47
704.93	288.90
705.26	288.18
705.60	287.60
705.93	287.00
706.27	286.50
706.60	285.90
706.94	285.31
707.27	284.80
707.61	284.24
707.94	283.69
708.27	283.03
708.61	282.45
708.94	281.97
709.28	281.45
709.61	280.71
709.94	280.20
710.28	279.64
710.61	279.12
710.95	278.29
711.28	277.85
711.61	277.20
711.95	276.70
712.28	276.16
712.61	275.66
712.95	275.21
713.28	274.90
713.61	274.46
713.95	273.91
714.28	273.51
714.61	272.93
714.95	272.40
715.28	271.95
715.61	271.44
715.95	270.95
716.28	270.45
716.61	270.19
716.95	269.67
717.28	269.34
717.61	268.95
717.94	268.57
718.28	268.07
718.61	267.80
718.94	267.42
719.27	267.07
719.61	266.71
719.94	266.29
720.27	265.73
720.60	265.32
720.94	265.02
721.27	264.61
721.60	264.44
721.93	264.25
722.27	263.95
722.60	263.69
722.93	263.38
723.26	262.99
723.59	262.70
723.93	262.47
724.26	261.96
724.59	261.68
724.92	261.40
725.25	261.17
725.59	260.72
725.92	260.38
726.25	260.00
726.58	259.71
726.91	259.45
727.24	259.19
727.57	258.91
727.91	258.56
728.24	258.32
728.57	258.11
728.90	257.65
729.23	257.23
729.56	257.01
729.89	256.76
730.22	256.50
730.55	256.04
730.89	255.78
731.22	255.53
731.55	255.22
731.88	254.85
732.21	254.40
732.54	254.14
732.87	253.84
733.20	253.62
733.53	253.40
733.86	253.17
734.19	252.81
734.52	252.55
734.85	252.37
735.18	252.02
735.51	251.67
735.84	251.33
736.17	251.16
736.50	250.80
736.83	250.68
737.16	250.52
737.49	250.39
737.82	250.03
738.15	249.84
738.48	249.53
738.81	249.34
739.14	249.20
739.47	249.00
739.80	248.77
740.13	248.60
740.46	248.22
740.79	247.88
741.12	247.73
741.45	247.44
741.78	247.22
742.11	246.99
742.44	246.67
742.77	246.62
743.10	246.33
743.43	246.04
743.75	245.62
744.08	245.52
744.41	245.34
744.74	245.12
745.07	244.93
745.40	244.80
745.73	244.59
746.06	244.34
746.39	244.15
746.71	243.96
747.04	243.73
747.37	243.69
747.70	243.60
748.03	243.49
748.36	243.36
748.68	243.17
749.01	243.00
749.34	242.92
749.67	242.81
750.00	242.76
750.33	242.69
750.65	242.43
750.98	242.12
751.31	241.98
751.64	241.89
751.97	241.89
752.29	241.70
752.62	241.59
752.95	241.50
753.28	241.35
753.60	241.18
753.93	241.11
754.26	241.02
754.59	240.92
754.91	240.74
755.24	240.60
755.57	240.46
755.90	240.38
756.22	240.22
756.55	240.08
756.88	239.99
757.20	239.89
757.53	239.94
757.86	239.90
758.19	239.84
758.51	239.69
758.84	239.51
759.17	239.43
759.49	239.49
759.82	239.48
760.15	239.40
760.47	239.38
760.80	239.36
761.13	239.24
761.45	239.02
761.78	238.93
762.11	238.84
762.43	238.81
762.76	238.62
763.08	238.55
763.41	238.51
763.74	238.46
764.06	238.24
764.39	238.07
764.71	237.91
765.04	237.74
765.37	237.67
765.69	237.60
766.02	237.62
766.34	237.42
766.67	237.31
767.00	237.38
767.32	237.36
767.65	237.34
767.97	237.20
768.30	237.25
768.62	237.16
768.95	237.07
769.27	236.86
769.60	236.80
769.92	236.66
770.25	236.40
770.57	236.17
770.90	236.18
771.22	236.14
771.55	236.08
771.87	236.04
772.20	235.96
772.52	235.93
772.85	236.01
773.17	235.94
773.50	235.66
773.82	235.37
774.15	235.16
774.47	234.88
774.80	234.81
775.12	234.64
775.45	234.61
775.77	234.57
776.09	234.58
776.42	234.57
776.74	234.58
777.07	234.49
777.39	234.50
777.72	234.24
778.04	234.07
778.36	233.91
778.69	233.91
779.01	233.82
779.33	233.50
779.66	233.16
779.98	233.04
780.31	233.02
780.63	233.10
780.95	233.08
781.28	232.99
781.60	232.85
781.92	232.82
782.25	232.65
782.57	232.61
782.89	232.53
783.22	232.50
783.54	232.34
783.86	232.31
784.19	232.26
784.51	232.47
784.83	232.48
785.16	232.50
785.48	232.30
785.80	232.30
786.12	232.34
786.45	232.31
786.77	232.29
787.09	232.23
787.42	232.05
787.74	231.99
788.06	231.96
788.38	231.96
788.71	231.77
789.03	231.82
789.35	231.86
789.67	231.84
789.99	231.81
790.32	231.80
790.64	231.94
790.96	232.00
791.28	231.95
