SpectraSuite Data File
++++++++++++++++++++++++++++++++++++
Date: Fri Feb 01 14:38:07 EST 2013
User: group
Dark Spectrum Present: No
Reference Spectrum Present: No
Number of Sampled Component Spectra: 1
Spectrometers: USB2E7196
Integration Time (usec): 70000 (USB2E7196)
Spectra Averaged: 10 (USB2E7196)
Boxcar Smoothing: 10 (USB2E7196)
Correct for Electrical Dark: No (USB2E7196)
Strobe/Lamp Enabled: No (USB2E7196)
Correct for Detector Non-linearity: No (USB2E7196)
Correct for Stray Light: No (USB2E7196)
Number of Pixels in Processed Spectrum: 2048
>>>>>Begin Processed Spectral Data<<<<<
339.09	0.00
339.48	219.10
339.86	219.70
340.24	219.30
340.63	220.60
341.01	224.40
341.39	223.60
341.78	226.40
342.16	226.70
342.54	226.10
342.93	215.63
343.31	226.50
343.69	226.94
344.07	227.35
344.46	227.83
344.84	228.18
345.22	228.43
345.60	228.71
345.99	228.78
346.37	228.84
346.75	228.93
347.13	229.00
347.52	229.02
347.90	229.16
348.28	229.07
348.66	229.03
349.05	228.96
349.43	229.00
349.81	229.07
350.19	229.06
350.57	229.07
350.96	229.02
351.34	229.06
351.72	229.15
352.10	229.18
352.48	229.14
352.87	229.19
353.25	229.14
353.63	229.13
354.01	229.22
354.39	229.30
354.77	229.42
355.15	229.53
355.54	229.49
355.92	229.40
356.30	229.38
356.68	229.61
357.06	229.62
357.44	229.61
357.82	229.66
358.20	229.77
358.58	229.70
358.97	229.82
359.35	229.96
359.73	229.98
360.11	230.04
360.49	230.13
360.87	230.23
361.25	230.28
361.63	230.43
362.01	230.50
362.39	230.42
362.77	230.40
363.15	230.39
363.53	230.44
363.91	230.44
364.29	230.53
364.67	230.28
365.05	230.24
365.43	230.24
365.81	230.27
366.19	230.33
366.57	230.43
366.95	230.36
367.33	230.16
367.71	230.11
368.09	230.07
368.47	230.01
368.85	229.97
369.23	229.95
369.61	229.72
369.99	229.65
370.37	229.73
370.75	229.80
371.13	229.71
371.51	229.57
371.89	229.51
372.27	229.45
372.65	229.41
373.03	229.43
373.41	229.34
373.78	229.22
374.16	228.95
374.54	228.77
374.92	228.69
375.30	228.71
375.68	228.56
376.06	228.54
376.44	228.43
376.82	228.30
377.19	228.30
377.57	228.17
377.95	227.98
378.33	227.89
378.71	227.63
379.09	227.58
379.47	227.55
379.84	227.45
380.22	227.31
380.60	227.15
380.98	227.11
381.36	227.08
381.73	227.07
382.11	227.06
382.49	226.98
382.87	226.82
383.25	226.68
383.62	226.72
384.00	226.57
384.38	226.53
384.76	226.52
385.13	226.51
385.51	226.55
385.89	226.58
386.27	226.48
386.64	226.46
387.02	226.44
387.40	226.38
387.78	226.36
388.15	226.41
388.53	226.44
388.91	226.33
389.29	226.19
389.66	226.10
390.04	226.13
390.42	226.20
390.79	226.30
391.17	226.30
391.55	226.32
391.92	226.36
392.30	226.35
392.68	226.31
393.05	226.18
393.43	226.22
393.81	226.20
394.18	226.23
394.56	226.29
394.94	226.20
395.31	226.22
395.69	226.30
396.06	226.23
396.44	226.27
396.82	226.28
397.19	226.56
397.57	226.60
397.95	226.60
398.32	226.55
398.70	226.45
399.07	226.56
399.45	226.50
399.82	226.60
400.20	226.69
400.58	226.75
400.95	226.87
401.33	226.97
401.70	227.25
402.08	227.38
402.45	227.46
402.83	227.76
403.20	227.95
403.58	228.05
403.95	228.34
404.33	228.55
404.71	228.77
405.08	228.94
405.46	229.10
405.83	229.25
406.21	229.46
406.58	229.89
406.96	230.11
407.33	230.38
407.70	230.61
408.08	231.08
408.45	231.39
408.83	231.74
409.20	232.03
409.58	232.20
409.95	232.51
410.33	232.89
410.70	233.16
411.08	233.50
411.45	233.93
411.82	234.16
412.20	234.66
412.57	235.22
412.95	235.65
413.32	236.20
413.69	236.82
414.07	237.42
414.44	238.01
414.82	238.70
415.19	239.47
415.56	240.25
415.94	240.93
416.31	241.80
416.68	242.54
417.06	243.50
417.43	244.50
417.81	245.58
418.18	246.54
418.55	247.59
418.93	248.78
419.30	249.96
419.67	251.37
420.04	252.66
420.42	253.98
420.79	255.68
421.16	257.41
421.54	259.08
421.91	260.85
422.28	262.50
422.66	264.34
423.03	266.11
423.40	267.97
423.77	269.83
424.15	271.86
424.52	274.07
424.89	276.33
425.26	278.53
425.64	280.65
426.01	283.04
426.38	285.56
426.75	287.99
427.13	290.49
427.50	293.24
427.87	295.96
428.24	298.70
428.61	301.18
428.99	303.99
429.36	307.26
429.73	310.38
430.10	313.40
430.47	316.63
430.85	320.01
431.22	323.39
431.59	327.04
431.96	330.48
432.33	334.27
432.70	338.03
433.08	342.34
433.45	346.51
433.82	350.67
434.19	355.20
434.56	359.74
434.93	364.06
435.30	368.19
435.68	372.86
436.05	377.51
436.42	382.08
436.79	386.24
437.16	390.67
437.53	395.35
437.90	400.18
438.27	404.50
438.64	408.94
439.01	413.37
439.38	417.20
439.75	420.98
440.13	425.18
440.50	429.30
440.87	432.60
441.24	436.10
441.61	439.94
441.98	442.61
442.35	445.94
442.72	449.27
443.09	452.55
443.46	454.53
443.83	455.83
444.20	457.05
444.57	458.69
444.94	459.48
445.31	460.42
445.68	461.58
446.05	462.42
446.42	462.41
446.79	462.30
447.16	462.22
447.53	462.10
447.90	460.78
448.27	459.31
448.64	457.27
449.01	455.86
449.37	453.11
449.74	450.61
450.11	447.49
450.48	443.85
450.85	440.16
451.22	437.23
451.59	434.43
451.96	431.66
452.33	427.91
452.70	424.45
453.07	420.27
453.43	415.75
453.80	411.51
454.17	407.55
454.54	403.59
454.91	399.42
455.28	395.48
455.65	391.73
456.02	388.02
456.38	384.74
456.75	380.57
457.12	377.19
457.49	373.81
457.86	370.24
458.23	367.59
458.59	364.46
458.96	361.21
459.33	358.36
459.70	355.50
460.07	353.28
460.43	350.65
460.80	348.02
461.17	345.69
461.54	343.33
461.91	341.10
462.27	338.97
462.64	337.05
463.01	334.81
463.38	332.85
463.74	330.62
464.11	328.90
464.48	327.26
464.85	325.30
465.21	323.86
465.58	322.49
465.95	320.73
466.32	319.22
466.68	317.71
467.05	316.22
467.42	314.71
467.78	313.06
468.15	311.52
468.52	310.45
468.88	309.10
469.25	307.66
469.62	306.63
469.98	305.34
470.35	304.11
470.72	303.01
471.08	301.82
471.45	300.80
471.82	299.65
472.18	298.55
472.55	297.74
472.92	296.75
473.28	295.77
473.65	294.84
474.02	294.03
474.38	293.17
474.75	292.49
475.11	291.84
475.48	291.27
475.85	290.70
476.21	290.05
476.58	289.41
476.94	289.12
477.31	288.49
477.67	287.97
478.04	287.48
478.41	287.10
478.77	286.82
479.14	286.35
479.50	286.07
479.87	285.88
480.23	285.74
480.60	285.34
480.96	285.08
481.33	284.93
481.69	284.84
482.06	284.76
482.42	284.52
482.79	284.41
483.15	284.30
483.52	284.27
483.88	284.19
484.25	284.18
484.61	284.06
484.98	284.07
485.34	284.14
485.71	284.28
486.07	284.31
486.44	284.24
486.80	284.45
487.17	284.57
487.53	284.60
487.90	284.75
488.26	285.13
488.62	285.41
488.99	285.55
489.35	285.68
489.72	285.85
490.08	286.13
490.44	286.21
490.81	286.46
491.17	286.72
491.54	287.13
491.90	287.49
492.26	287.81
492.63	288.10
492.99	288.41
493.36	288.72
493.72	289.19
494.08	289.57
494.45	290.01
494.81	290.35
495.17	290.83
495.54	291.20
495.90	291.64
496.26	292.03
496.63	292.59
496.99	292.97
497.35	293.31
497.72	293.71
498.08	294.27
498.44	294.72
498.80	295.33
499.17	295.80
499.53	296.12
499.89	296.55
500.26	297.01
500.62	297.49
500.98	297.91
501.34	298.34
501.71	298.72
502.07	299.02
502.43	299.45
502.79	299.71
503.16	299.99
503.52	300.29
503.88	300.52
504.24	300.84
504.60	301.28
504.97	301.68
505.33	301.84
505.69	302.20
506.05	302.46
506.41	302.72
506.78	302.93
507.14	303.27
507.50	303.60
507.86	303.80
508.22	304.07
508.59	304.37
508.95	304.58
509.31	304.90
509.67	305.10
510.03	305.36
510.39	305.70
510.75	306.00
511.12	306.26
511.48	306.52
511.84	306.79
512.20	307.01
512.56	307.32
512.92	307.85
513.28	308.12
513.64	308.45
514.00	308.87
514.37	309.28
514.73	309.67
515.09	310.07
515.45	310.62
515.81	311.07
516.17	311.65
516.53	312.19
516.89	312.83
517.25	313.58
517.61	314.34
517.97	315.10
518.33	315.94
518.69	316.85
519.05	317.85
519.41	318.78
519.77	319.93
520.13	320.93
520.49	322.07
520.85	323.22
521.21	324.59
521.57	325.76
521.93	327.05
522.29	328.70
522.65	330.30
523.01	331.91
523.37	333.54
523.73	335.23
524.09	337.15
524.45	339.12
524.81	341.06
525.17	343.14
525.53	345.29
525.89	347.46
526.25	349.70
526.61	351.97
526.97	354.38
527.33	356.86
527.68	359.80
528.04	362.55
528.40	365.33
528.76	368.17
529.12	371.14
529.48	374.28
529.84	377.18
530.20	380.30
530.56	383.53
530.91	386.94
531.27	390.47
531.63	393.89
531.99	397.38
532.35	401.02
532.71	404.65
533.07	408.51
533.42	412.48
533.78	416.44
534.14	420.51
534.50	424.59
534.86	428.73
535.21	432.72
535.57	436.97
535.93	441.43
536.29	446.15
536.65	450.70
537.00	455.18
537.36	459.81
537.72	464.55
538.08	469.39
538.44	474.06
538.79	478.74
539.15	483.58
539.51	488.48
539.87	493.61
540.22	498.83
540.58	503.96
540.94	508.95
541.29	514.04
541.65	519.27
542.01	524.66
542.37	530.10
542.72	535.40
543.08	540.59
543.44	545.76
543.79	550.85
544.15	556.21
544.51	561.93
544.87	567.60
545.22	572.96
545.58	578.29
545.94	583.58
546.29	589.25
546.65	594.79
547.01	600.40
547.36	605.87
547.72	611.03
548.07	616.46
548.43	621.80
548.79	627.16
549.14	632.35
549.50	637.66
549.86	642.84
550.21	648.13
550.57	653.80
550.92	659.23
551.28	664.67
551.64	670.31
551.99	675.77
552.35	680.87
552.70	686.30
553.06	691.59
553.41	697.08
553.77	702.10
554.13	707.54
554.48	712.53
554.84	717.95
555.19	723.18
555.55	728.48
555.90	733.64
556.26	739.10
556.61	744.30
556.97	749.25
557.32	754.30
557.68	759.43
558.03	764.31
558.39	769.41
558.74	774.36
559.10	779.10
559.45	783.52
559.81	788.64
560.16	793.10
560.52	797.94
560.87	803.08
561.23	807.70
561.58	812.23
561.94	816.91
562.29	820.97
562.64	825.32
563.00	829.58
563.35	834.46
563.71	838.80
564.06	843.35
564.42	847.84
564.77	852.44
565.12	856.79
565.48	861.23
565.83	865.28
566.19	869.39
566.54	873.36
566.89	877.41
567.25	881.34
567.60	885.70
567.96	889.60
568.31	893.07
568.66	896.98
569.02	900.39
569.37	903.81
569.72	907.41
570.08	911.12
570.43	914.32
570.78	917.17
571.14	920.03
571.49	923.01
571.84	926.01
572.20	928.54
572.55	931.09
572.90	933.62
573.26	936.43
573.61	938.53
573.96	940.77
574.31	942.48
574.67	944.21
575.02	945.88
575.37	947.90
575.72	949.54
576.08	951.14
576.43	953.05
576.78	954.66
577.13	956.69
577.49	958.31
577.84	959.64
578.19	960.93
578.54	962.53
578.90	963.66
579.25	964.52
579.60	965.39
579.95	966.41
580.30	966.89
580.66	967.46
581.01	968.46
581.36	969.15
581.71	970.38
582.06	971.30
582.42	971.94
582.77	972.15
583.12	972.42
583.47	973.01
583.82	973.60
584.17	973.97
584.53	973.87
584.88	973.91
585.23	974.19
585.58	974.63
585.93	974.55
586.28	975.02
586.63	975.45
586.98	975.78
587.34	975.82
587.69	976.22
588.04	976.02
588.39	975.85
588.74	975.31
589.09	974.80
589.44	974.14
589.79	973.81
590.14	973.85
590.49	973.55
590.84	973.01
591.19	972.20
591.54	971.14
591.89	970.08
592.25	969.30
592.60	968.22
592.95	966.85
593.30	965.47
593.65	963.98
594.00	962.51
594.35	961.56
594.70	959.92
595.05	958.32
595.40	957.00
595.75	955.54
596.10	954.61
596.45	953.61
596.80	952.75
597.15	951.41
597.50	949.80
597.85	948.67
598.19	947.38
598.54	945.96
598.89	945.17
599.24	944.07
599.59	942.50
599.94	941.37
600.29	939.95
600.64	938.75
600.99	937.07
601.34	935.73
601.69	933.74
602.04	932.39
602.39	931.01
602.74	929.60
603.08	928.20
603.43	926.56
603.78	924.65
604.13	922.75
604.48	921.03
604.83	919.25
605.18	917.36
605.53	915.37
605.87	913.51
606.22	911.50
606.57	909.36
606.92	907.81
607.27	905.93
607.62	904.19
607.96	902.31
608.31	900.70
608.66	898.44
609.01	896.21
609.36	893.87
609.70	891.13
610.05	888.51
610.40	886.09
610.75	883.54
611.10	881.12
611.44	878.14
611.79	875.51
612.14	872.67
612.49	869.55
612.83	866.67
613.18	863.65
613.53	860.60
613.88	857.59
614.22	854.21
614.57	850.94
614.92	848.06
615.27	845.21
615.61	842.12
615.96	839.04
616.31	836.41
616.65	833.91
617.00	831.28
617.35	828.66
617.70	825.67
618.04	822.43
618.39	819.41
618.74	816.60
619.08	813.66
619.43	811.03
619.78	808.25
620.12	805.37
620.47	802.54
620.82	799.71
621.16	796.89
621.51	794.14
621.85	791.30
622.20	788.10
622.55	785.03
622.89	782.19
623.24	779.50
623.59	776.60
623.93	773.80
624.28	771.06
624.62	768.06
624.97	765.24
625.32	762.84
625.66	760.08
626.01	757.19
626.35	754.26
626.70	751.25
627.04	748.66
627.39	745.81
627.73	742.90
628.08	740.07
628.43	737.05
628.77	734.04
629.12	731.13
629.46	728.10
629.81	724.99
630.15	721.64
630.50	718.50
630.84	715.03
631.19	711.65
631.53	708.28
631.88	705.04
632.22	701.73
632.57	698.60
632.91	695.19
633.26	692.15
633.60	688.96
633.95	685.99
634.29	682.90
634.64	680.11
634.98	677.15
635.32	674.36
635.67	671.86
636.01	669.15
636.36	666.20
636.70	663.70
637.05	660.95
637.39	658.26
637.73	655.70
638.08	653.32
638.42	650.73
638.77	648.02
639.11	645.35
639.45	642.64
639.80	639.91
640.14	637.67
640.49	635.16
640.83	632.57
641.17	629.71
641.52	627.09
641.86	624.21
642.20	621.64
642.55	618.73
642.89	615.84
643.23	613.12
643.58	610.67
643.92	607.70
644.26	604.78
644.61	602.50
644.95	599.70
645.29	596.48
645.64	593.60
645.98	590.98
646.32	588.40
646.66	585.71
647.01	583.08
647.35	580.25
647.69	577.53
648.04	574.87
648.38	572.27
648.72	569.19
649.06	566.40
649.41	563.52
649.75	560.73
650.09	558.15
650.43	555.36
650.78	552.37
651.12	549.67
651.46	547.16
651.80	544.20
652.14	541.50
652.49	539.31
652.83	536.71
653.17	534.07
653.51	531.44
653.85	528.99
654.20	526.18
654.54	523.46
654.88	520.70
655.22	517.94
655.56	514.97
655.90	512.50
656.25	509.91
656.59	507.42
656.93	505.15
657.27	502.72
657.61	500.06
657.95	497.83
658.29	495.29
658.64	492.88
658.98	490.40
659.32	487.85
659.66	485.26
660.00	482.87
660.34	480.69
660.68	478.27
661.02	475.72
661.36	473.43
661.70	471.17
662.05	469.00
662.39	467.08
662.73	465.21
663.07	463.24
663.41	461.18
663.75	458.93
664.09	456.56
664.43	454.31
664.77	452.32
665.11	450.23
665.45	448.49
665.79	446.51
666.13	444.45
666.47	442.58
666.81	440.41
667.15	438.37
667.49	436.30
667.83	434.47
668.17	432.55
668.51	430.53
668.85	428.64
669.19	426.77
669.53	424.69
669.87	422.66
670.21	420.69
670.55	418.91
670.89	417.36
671.23	415.77
671.57	413.98
671.91	412.11
672.25	410.30
672.58	408.55
672.92	406.80
673.26	405.22
673.60	403.51
673.94	402.07
674.28	400.56
674.62	398.98
674.96	397.28
675.30	395.76
675.64	394.34
675.97	392.78
676.31	391.31
676.65	389.79
676.99	388.50
677.33	386.96
677.67	385.28
678.01	383.63
678.34	382.16
678.68	380.68
679.02	379.31
679.36	377.97
679.70	376.48
680.04	375.03
680.37	373.54
680.71	372.13
681.05	370.89
681.39	369.53
681.73	368.28
682.06	367.00
682.40	365.86
682.74	364.42
683.08	363.20
683.42	361.85
683.75	360.65
684.09	359.35
684.43	358.11
684.77	356.85
685.10	355.57
685.44	354.16
685.78	353.00
686.12	351.92
686.45	350.62
686.79	349.34
687.13	348.12
687.46	346.81
687.80	345.70
688.14	344.42
688.48	343.23
688.81	341.80
689.15	340.72
689.49	339.46
689.82	338.40
690.16	337.27
690.50	336.09
690.83	334.91
691.17	333.57
691.51	332.68
691.84	331.80
692.18	330.59
692.52	329.52
692.85	328.40
693.19	327.19
693.52	326.10
693.86	325.02
694.20	324.00
694.53	323.09
694.87	321.96
695.21	320.86
695.54	319.80
695.88	318.80
696.21	317.64
696.55	316.62
696.88	315.69
697.22	314.56
697.56	313.67
697.89	312.80
698.23	312.00
698.56	310.90
698.90	309.92
699.23	309.11
699.57	308.13
699.90	307.24
700.24	306.42
700.58	305.56
700.91	304.70
701.25	303.77
701.58	303.05
701.92	302.20
702.25	301.38
702.59	300.52
702.92	299.80
703.26	299.00
703.59	298.22
703.93	297.55
704.26	296.81
704.60	295.94
704.93	295.09
705.26	294.36
705.60	293.76
705.93	293.08
706.27	292.40
706.60	291.90
706.94	291.17
707.27	290.43
707.61	289.81
707.94	289.16
708.27	288.52
708.61	287.68
708.94	287.09
709.28	286.39
709.61	285.80
709.94	285.17
710.28	284.62
710.61	284.08
710.95	283.27
711.28	282.71
711.61	282.10
711.95	281.57
712.28	280.87
712.61	280.10
712.95	279.50
713.28	279.00
713.61	278.30
713.95	277.79
714.28	277.38
714.61	276.73
714.95	276.27
715.28	275.61
715.61	275.03
715.95	274.50
716.28	274.13
716.61	273.55
716.95	273.10
717.28	272.59
717.61	271.93
717.94	271.46
718.28	271.08
718.61	270.70
718.94	270.33
719.27	269.88
719.61	269.52
719.94	269.03
720.27	268.59
720.60	268.23
720.94	267.78
721.27	267.30
721.60	267.02
721.93	266.62
722.27	266.42
722.60	266.13
722.93	265.66
723.26	265.26
723.59	264.93
723.93	264.48
724.26	264.08
724.59	263.78
724.92	263.42
725.25	262.99
725.59	262.69
725.92	262.32
726.25	262.05
726.58	261.61
726.91	261.25
727.24	260.91
727.57	260.66
727.91	260.25
728.24	259.90
728.57	259.49
728.90	259.19
729.23	258.73
729.56	258.64
729.89	258.48
730.22	258.10
730.55	257.86
730.89	257.60
731.22	257.28
731.55	256.98
731.88	256.71
732.21	256.37
732.54	255.97
732.87	255.64
733.20	255.35
733.53	255.18
733.86	255.03
734.19	254.72
734.52	254.38
734.85	254.32
735.18	254.06
735.51	253.88
735.84	253.60
736.17	253.42
736.50	252.78
736.83	252.62
737.16	252.35
737.49	252.11
737.82	251.85
738.15	251.70
738.48	251.51
738.81	251.26
739.14	250.97
739.47	250.80
739.80	250.51
740.13	250.34
740.46	249.96
740.79	249.62
741.12	249.37
741.45	249.10
741.78	248.71
742.11	248.64
742.44	248.39
742.77	248.20
743.10	248.02
743.43	247.92
743.75	247.49
744.08	247.61
744.41	247.35
744.74	247.12
745.07	246.76
745.40	246.61
745.73	246.31
746.06	246.23
746.39	246.03
746.71	245.79
747.04	245.40
747.37	245.20
747.70	245.11
748.03	244.87
748.36	244.70
748.68	244.50
749.01	244.17
749.34	243.86
749.67	243.57
750.00	243.40
750.33	243.33
750.65	243.23
750.98	242.90
751.31	242.74
751.64	242.63
751.97	242.61
752.29	242.44
752.62	242.37
752.95	242.05
753.28	241.79
753.60	241.68
753.93	241.65
754.26	241.60
754.59	241.37
754.91	241.23
755.24	241.06
755.57	240.93
755.90	240.67
756.22	240.51
756.55	240.50
756.88	240.17
757.20	239.93
757.53	239.71
757.86	239.50
758.19	239.34
758.51	239.17
758.84	238.92
759.17	238.71
759.49	238.66
759.82	238.73
760.15	238.68
760.47	238.65
760.80	238.60
761.13	238.55
761.45	238.39
761.78	238.30
762.11	238.35
762.43	238.29
762.76	238.27
763.08	238.20
763.41	238.06
763.74	238.09
764.06	238.04
764.39	237.94
764.71	237.84
765.04	237.79
765.37	237.71
765.69	237.72
766.02	237.62
766.34	237.43
766.67	237.23
767.00	237.26
767.32	237.22
767.65	237.14
767.97	237.00
768.30	236.92
768.62	236.85
768.95	236.69
769.27	236.63
769.60	236.54
769.92	236.55
770.25	236.39
770.57	236.34
770.90	236.27
771.22	236.19
771.55	236.09
771.87	236.00
772.20	235.88
772.52	235.98
772.85	236.17
773.17	236.10
773.50	236.04
773.82	235.89
774.15	235.69
774.47	235.52
774.80	235.53
775.12	235.48
775.45	235.35
775.77	235.30
776.09	235.25
776.42	235.26
776.74	235.14
777.07	235.13
777.39	235.04
777.72	234.91
778.04	234.89
778.36	234.79
778.69	234.75
779.01	234.78
779.33	234.43
779.66	234.09
779.98	234.09
780.31	234.05
780.63	233.98
780.95	233.95
781.28	233.93
781.60	233.70
781.92	233.60
782.25	233.57
782.57	233.33
782.89	233.25
783.22	233.14
783.54	233.10
783.86	233.10
784.19	232.99
784.51	232.97
784.83	232.85
785.16	232.78
785.48	232.60
785.80	232.42
786.12	232.50
786.45	232.46
786.77	232.40
787.09	232.39
787.42	232.29
787.74	232.20
788.06	232.08
788.38	232.14
788.71	232.13
789.03	232.19
789.35	232.22
789.67	232.09
789.99	232.04
790.32	231.99
790.64	231.93
790.96	232.05
791.28	231.95
791.61	231.93
791.93	231.93
792.25	232.07
792.57	232.28
792.89	232.17
793.21	232.10
793.54	232.12
793.86	231.97
794.18	231.99
