SpectraSuite Data File
++++++++++++++++++++++++++++++++++++
Date: Fri Feb 01 14:34:57 EST 2013
User: group
Dark Spectrum Present: No
Reference Spectrum Present: No
Number of Sampled Component Spectra: 1
Spectrometers: USB2E7196
Integration Time (usec): 70000 (USB2E7196)
Spectra Averaged: 10 (USB2E7196)
Boxcar Smoothing: 10 (USB2E7196)
Correct for Electrical Dark: No (USB2E7196)
Strobe/Lamp Enabled: No (USB2E7196)
Correct for Detector Non-linearity: No (USB2E7196)
Correct for Stray Light: No (USB2E7196)
Number of Pixels in Processed Spectrum: 2048
>>>>>Begin Processed Spectral Data<<<<<
339.09	0.00
339.48	215.20
339.86	217.90
340.24	219.00
340.63	220.00
341.01	224.50
341.39	224.00
341.78	224.30
342.16	226.10
342.54	226.30
342.93	215.02
343.31	225.84
343.69	226.46
344.07	227.00
344.46	227.37
344.84	227.75
345.22	228.01
345.60	228.27
345.99	228.49
346.37	228.60
346.75	228.71
347.13	228.75
347.52	228.65
347.90	228.69
348.28	228.62
348.66	228.65
349.05	228.55
349.43	228.55
349.81	228.68
350.19	228.69
350.57	228.70
350.96	228.67
351.34	228.71
351.72	228.81
352.10	228.76
352.48	228.84
352.87	228.93
353.25	228.86
353.63	228.81
354.01	228.84
354.39	228.91
354.77	229.00
355.15	229.10
355.54	229.21
355.92	229.34
356.30	229.46
356.68	229.63
357.06	229.70
357.44	229.81
357.82	229.86
358.20	229.79
358.58	229.79
358.97	229.81
359.35	229.95
359.73	229.93
360.11	229.95
360.49	230.02
360.87	230.12
361.25	230.23
361.63	230.34
362.01	230.36
362.39	230.32
362.77	230.27
363.15	230.20
363.53	230.19
363.91	230.13
364.29	230.07
364.67	229.81
365.05	229.89
365.43	229.90
365.81	229.97
366.19	230.13
366.57	230.20
366.95	230.26
367.33	230.20
367.71	230.15
368.09	230.30
368.47	230.36
368.85	230.21
369.23	230.19
369.61	230.17
369.99	230.18
370.37	230.13
370.75	230.24
371.13	230.17
371.51	230.11
371.89	230.09
372.27	230.06
372.65	230.08
373.03	230.01
373.41	229.88
373.78	229.71
374.16	229.48
374.54	229.36
374.92	229.26
375.30	229.24
375.68	229.24
376.06	229.08
376.44	228.93
376.82	228.89
377.19	228.85
377.57	228.73
377.95	228.62
378.33	228.60
378.71	228.42
379.09	228.44
379.47	228.30
379.84	228.25
380.22	228.13
380.60	227.98
380.98	227.85
381.36	227.80
381.73	227.65
382.11	227.70
382.49	227.62
382.87	227.54
383.25	227.37
383.62	227.38
384.00	227.34
384.38	227.25
384.76	227.26
385.13	227.25
385.51	227.25
385.89	227.13
386.27	227.08
386.64	227.08
387.02	226.97
387.40	227.00
387.78	226.92
388.15	226.99
388.53	226.94
388.91	226.90
389.29	226.90
389.66	226.99
390.04	226.93
390.42	226.97
390.79	226.98
391.17	227.03
391.55	226.91
391.92	226.86
392.30	226.98
392.68	226.95
393.05	226.91
393.43	226.91
393.81	226.87
394.18	226.92
394.56	226.88
394.94	227.00
395.31	227.00
395.69	227.05
396.06	227.12
396.44	227.25
396.82	227.27
397.19	227.38
397.57	227.35
397.95	227.35
398.32	227.43
398.70	227.57
399.07	227.75
399.45	227.80
399.82	227.89
400.20	227.87
400.58	227.94
400.95	227.98
401.33	228.08
401.70	228.56
402.08	228.67
402.45	228.79
402.83	229.00
403.20	229.22
403.58	229.43
403.95	229.65
404.33	229.91
404.71	230.26
405.08	230.65
405.46	230.97
405.83	231.42
406.21	231.70
406.58	232.02
406.96	232.35
407.33	232.78
407.70	233.31
408.08	234.00
408.45	234.66
408.83	235.32
409.20	235.98
409.58	236.39
409.95	237.09
410.33	237.94
410.70	238.58
411.08	239.43
411.45	240.22
411.82	241.04
412.20	242.02
412.57	243.12
412.95	244.01
413.32	245.21
413.69	246.44
414.07	247.69
414.44	249.05
414.82	250.44
415.19	252.13
415.56	253.66
415.94	255.15
416.31	256.89
416.68	258.62
417.06	260.67
417.43	262.66
417.81	264.90
418.18	267.14
418.55	269.64
418.93	272.14
419.30	274.75
419.67	277.56
420.04	280.44
420.42	283.46
420.79	286.91
421.16	290.28
421.54	293.85
421.91	297.64
422.28	301.54
422.66	305.66
423.03	309.52
423.40	313.55
423.77	318.29
424.15	322.74
424.52	327.39
424.89	332.43
425.26	337.36
425.64	342.01
426.01	347.19
426.38	352.40
426.75	357.91
427.13	363.54
427.50	369.57
427.87	375.69
428.24	381.82
428.61	387.54
428.99	394.03
429.36	400.99
429.73	407.92
430.10	414.64
430.47	421.43
430.85	428.76
431.22	436.41
431.59	444.11
431.96	451.70
432.33	460.41
432.70	468.66
433.08	478.43
433.45	487.40
433.82	496.30
434.19	506.42
434.56	516.10
434.93	525.48
435.30	534.62
435.68	544.89
436.05	554.81
436.42	564.97
436.79	574.17
437.16	584.03
437.53	594.21
437.90	604.46
438.27	614.75
438.64	625.37
439.01	635.19
439.38	644.07
439.75	652.80
440.13	662.24
440.50	671.21
440.87	678.66
441.24	686.74
441.61	695.58
441.98	702.22
442.35	710.04
442.72	718.01
443.09	725.62
443.46	730.42
443.83	734.16
444.20	737.36
444.57	741.69
444.94	744.32
445.31	747.24
445.68	749.74
446.05	751.29
446.42	751.27
446.79	751.30
447.16	750.98
447.53	751.10
447.90	748.54
448.27	746.01
448.64	741.83
449.01	739.22
449.37	733.37
449.74	727.59
450.11	720.52
450.48	712.82
450.85	705.21
451.22	698.65
451.59	692.51
451.96	686.86
452.33	678.63
452.70	671.06
453.07	661.65
453.43	652.59
453.80	643.72
454.17	634.92
454.54	626.71
454.91	617.86
455.28	609.00
455.65	600.67
456.02	592.04
456.38	584.91
456.75	575.68
457.12	568.26
457.49	560.85
457.86	553.69
458.23	547.35
458.59	540.40
458.96	533.20
459.33	526.74
459.70	520.23
460.07	515.22
460.43	509.28
460.80	503.76
461.17	498.57
461.54	493.51
461.91	488.67
462.27	483.61
462.64	479.32
463.01	474.47
463.38	469.97
463.74	465.67
464.11	461.53
464.48	458.20
464.85	454.22
465.21	451.28
465.58	448.20
465.95	444.51
466.32	441.24
466.68	438.21
467.05	435.05
467.42	431.82
467.78	428.31
468.15	425.16
468.52	422.90
468.88	420.15
469.25	417.29
469.62	415.06
469.98	412.57
470.35	410.31
470.72	408.34
471.08	406.08
471.45	404.11
471.82	402.11
472.18	399.74
472.55	398.27
472.92	396.42
473.28	394.71
473.65	392.97
474.02	391.41
474.38	390.06
474.75	389.08
475.11	387.95
475.48	387.14
475.85	386.38
476.21	385.37
476.58	384.46
476.94	383.78
477.31	383.08
477.67	382.37
478.04	381.81
478.41	381.44
478.77	381.05
479.14	380.52
479.50	380.20
479.87	380.15
480.23	380.00
480.60	379.76
480.96	379.46
481.33	379.59
481.69	379.63
482.06	379.69
482.42	379.38
482.79	379.39
483.15	379.71
483.52	379.99
483.88	380.36
484.25	380.81
484.61	381.44
484.98	381.89
485.34	382.70
485.71	383.35
486.07	384.13
486.44	385.02
486.80	386.17
487.17	387.42
487.53	388.69
487.90	389.95
488.26	391.37
488.62	392.90
488.99	394.45
489.35	395.92
489.72	397.60
490.08	399.54
490.44	401.39
490.81	403.15
491.17	405.07
491.54	407.15
491.90	409.03
492.26	411.08
492.63	413.32
492.99	415.65
493.36	418.29
493.72	420.90
494.08	423.38
494.45	426.05
494.81	428.82
495.17	431.62
495.54	434.56
495.90	437.50
496.26	440.48
496.63	443.48
496.99	446.86
497.35	450.16
497.72	453.71
498.08	456.89
498.44	460.40
498.80	464.07
499.17	467.65
499.53	471.29
499.89	474.92
500.26	478.65
500.62	482.17
500.98	485.74
501.34	489.31
501.71	493.27
502.07	496.93
502.43	500.44
502.79	504.10
503.16	507.65
503.52	511.28
503.88	514.85
504.24	518.56
504.60	522.13
504.97	525.80
505.33	529.38
505.69	533.39
506.05	537.04
506.41	540.64
506.78	544.12
507.14	547.70
507.50	551.40
507.86	554.89
508.22	558.38
508.59	561.75
508.95	565.20
509.31	568.65
509.67	572.18
510.03	575.55
510.39	579.10
510.75	582.47
511.12	585.97
511.48	589.24
511.84	592.35
512.20	595.40
512.56	598.45
512.92	601.09
513.28	603.70
513.64	606.33
514.00	608.78
514.37	611.58
514.73	614.25
515.09	616.47
515.45	618.70
515.81	621.09
516.17	623.48
516.53	625.73
516.89	627.65
517.25	629.53
517.61	631.61
517.97	633.39
518.33	635.20
518.69	636.80
519.05	638.55
519.41	640.60
519.77	642.43
520.13	644.03
520.49	645.89
520.85	647.51
521.21	649.08
521.57	650.85
521.93	652.25
522.29	653.94
522.65	655.68
523.01	657.12
523.37	658.30
523.73	659.75
524.09	661.08
524.45	662.42
524.81	663.90
525.17	665.47
525.53	667.11
525.89	668.66
526.25	670.15
526.61	671.56
526.97	672.64
527.33	674.12
527.68	675.57
528.04	676.89
528.40	678.64
528.76	680.46
529.12	682.10
529.48	684.06
529.84	685.48
530.20	686.99
530.56	689.10
530.91	691.20
531.27	693.23
531.63	695.03
531.99	696.97
532.35	698.82
532.71	700.51
533.07	702.53
533.42	704.71
533.78	706.92
534.14	708.99
534.50	711.04
534.86	712.91
535.21	715.00
535.57	717.25
535.93	719.35
536.29	721.40
536.65	723.58
537.00	725.48
537.36	727.80
537.72	730.14
538.08	732.23
538.44	734.63
538.79	736.78
539.15	739.05
539.51	741.65
539.87	744.30
540.22	746.81
540.58	749.32
540.94	751.71
541.29	753.94
541.65	756.48
542.01	759.55
542.37	762.47
542.72	765.18
543.08	768.00
543.44	770.88
543.79	773.40
544.15	776.27
544.51	779.44
544.87	782.56
545.22	785.54
545.58	788.40
545.94	791.15
546.29	794.10
546.65	796.98
547.01	799.75
547.36	802.44
547.72	805.30
548.07	807.86
548.43	810.60
548.79	813.75
549.14	816.70
549.50	819.44
549.86	822.11
550.21	825.22
550.57	828.11
550.92	830.90
551.28	833.85
551.64	836.64
551.99	839.31
552.35	841.98
552.70	845.10
553.06	848.29
553.41	851.28
553.77	854.12
554.13	857.19
554.48	860.12
554.84	863.08
555.19	866.11
555.55	869.15
555.90	872.08
556.26	874.85
556.61	877.77
556.97	880.22
557.32	883.34
557.68	886.01
558.03	888.99
558.39	891.70
558.74	894.74
559.10	897.52
559.45	900.32
559.81	903.39
560.16	906.09
560.52	908.55
560.87	911.32
561.23	914.10
561.58	916.96
561.94	919.72
562.29	922.40
562.64	924.97
563.00	927.34
563.35	930.40
563.71	933.39
564.06	936.06
564.42	938.72
564.77	941.05
565.12	944.00
565.48	946.44
565.83	948.61
566.19	951.15
566.54	953.61
566.89	955.89
567.25	957.85
567.60	960.00
567.96	962.47
568.31	964.54
568.66	966.41
569.02	968.21
569.37	970.02
569.72	971.91
570.08	973.76
570.43	975.58
570.78	976.80
571.14	977.91
571.49	979.19
571.84	980.70
572.20	982.04
572.55	982.75
572.90	983.58
573.26	984.95
573.61	985.85
573.96	986.32
574.31	986.78
574.67	987.14
575.02	987.56
575.37	987.87
575.72	987.89
576.08	988.37
576.43	989.01
576.78	989.52
577.13	989.90
577.49	989.80
577.84	989.93
578.19	990.01
578.54	989.97
578.90	989.88
579.25	989.37
579.60	989.00
579.95	988.78
580.30	988.50
580.66	988.16
581.01	987.41
581.36	987.04
581.71	986.89
582.06	986.55
582.42	985.86
582.77	985.11
583.12	984.81
583.47	984.26
583.82	983.39
584.17	982.01
584.53	981.05
584.88	980.38
585.23	979.52
585.58	978.29
585.93	977.60
586.28	976.74
586.63	975.99
586.98	974.86
587.34	974.00
587.69	973.22
588.04	971.99
588.39	970.68
588.74	969.19
589.09	967.65
589.44	966.14
589.79	965.02
590.14	963.97
590.49	962.36
590.84	960.40
591.19	958.90
591.54	957.32
591.89	955.22
592.25	953.70
592.60	951.47
592.95	949.85
593.30	947.54
593.65	945.74
594.00	943.69
594.35	942.38
594.70	939.92
595.05	937.90
595.40	935.83
595.75	933.92
596.10	932.22
596.45	930.39
596.80	928.59
597.15	926.53
597.50	924.51
597.85	922.77
598.19	921.14
598.54	919.18
598.89	917.29
599.24	915.83
599.59	913.51
599.94	912.10
600.29	909.97
600.64	907.90
600.99	905.41
601.34	903.30
601.69	900.60
602.04	898.51
602.39	896.31
602.74	894.30
603.08	892.39
603.43	890.35
603.78	888.13
604.13	886.05
604.48	883.81
604.83	881.29
605.18	879.03
605.53	876.49
605.87	873.73
606.22	871.28
606.57	868.25
606.92	865.81
607.27	863.32
607.62	860.97
607.96	858.59
608.31	856.34
608.66	853.78
609.01	851.31
609.36	848.57
609.70	845.41
610.05	842.35
610.40	839.55
610.75	836.54
611.10	833.47
611.44	829.87
611.79	826.92
612.14	823.66
612.49	820.10
612.83	816.96
613.18	813.76
613.53	810.76
613.88	807.67
614.22	804.39
614.57	801.00
614.92	797.67
615.27	794.58
615.61	791.22
615.96	787.97
616.31	784.90
616.65	782.12
617.00	779.32
617.35	776.28
617.70	772.95
618.04	769.64
618.39	766.63
618.74	764.18
619.08	760.77
619.43	757.82
619.78	755.00
620.12	751.95
620.47	749.17
620.82	745.87
621.16	743.13
621.51	740.40
621.85	737.17
622.20	733.84
622.55	730.82
622.89	727.84
623.24	725.04
623.59	721.95
623.93	718.88
624.28	715.55
624.62	712.84
624.97	710.21
625.32	707.57
625.66	704.65
626.01	701.44
626.35	698.33
626.70	695.35
627.04	692.56
627.39	689.54
627.73	686.33
628.08	683.60
628.43	680.57
628.77	677.65
629.12	674.70
629.46	672.06
629.81	669.00
630.15	666.04
630.50	663.01
630.84	659.87
631.19	656.83
631.53	654.09
631.88	650.80
632.22	647.50
632.57	644.80
632.91	641.54
633.26	638.73
633.60	635.81
633.95	632.79
634.29	629.85
634.64	627.10
634.98	624.33
635.32	621.74
635.67	619.15
636.01	616.37
636.36	613.70
636.70	611.12
637.05	608.52
637.39	606.10
637.73	603.67
638.08	601.20
638.42	598.65
638.77	596.00
639.11	593.53
639.45	590.80
639.80	588.15
640.14	586.04
640.49	583.40
640.83	581.18
641.17	579.14
641.52	576.53
641.86	573.97
642.20	571.62
642.55	569.13
642.89	566.68
643.23	564.14
643.58	561.90
643.92	559.37
644.26	556.87
644.61	554.61
644.95	551.95
645.29	549.28
645.64	546.69
645.98	544.53
646.32	542.12
646.66	540.01
647.01	537.58
647.35	535.07
647.69	532.86
648.04	530.67
648.38	528.13
648.72	525.60
649.06	523.32
649.41	520.97
649.75	518.23
650.09	515.73
650.43	513.38
650.78	510.81
651.12	508.43
651.46	506.23
651.80	503.60
652.14	501.62
652.49	499.57
652.83	497.47
653.17	494.90
653.51	492.62
653.85	490.24
654.20	487.76
654.54	485.37
654.88	482.97
655.22	480.36
655.56	477.96
655.90	475.93
656.25	473.71
656.59	471.46
656.93	469.51
657.27	467.32
657.61	464.96
657.95	463.02
658.29	460.84
658.64	458.71
658.98	456.42
659.32	453.95
659.66	451.82
660.00	449.80
660.34	447.68
660.68	445.62
661.02	443.48
661.36	441.67
661.70	439.84
662.05	437.96
662.39	436.25
662.73	434.34
663.07	432.53
663.41	430.62
663.75	428.62
664.09	426.67
664.43	424.83
664.77	423.19
665.11	421.40
665.45	419.74
665.79	417.83
666.13	416.20
666.47	414.48
666.81	412.69
667.15	410.65
667.49	408.98
667.83	407.40
668.17	405.72
668.51	403.89
668.85	402.16
669.19	400.46
669.53	398.71
669.87	396.96
670.21	395.31
670.55	393.68
670.89	392.35
671.23	390.93
671.57	389.40
671.91	387.93
672.25	386.34
672.58	384.81
672.92	383.44
673.26	382.04
673.60	380.82
673.94	379.51
674.28	378.42
674.62	377.12
674.96	375.60
675.30	374.35
675.64	372.83
675.97	371.35
676.31	370.11
676.65	368.88
676.99	367.75
677.33	366.34
677.67	365.11
678.01	363.66
678.34	362.24
678.68	360.97
679.02	359.55
679.36	358.25
679.70	357.01
680.04	355.73
680.37	354.50
680.71	353.39
681.05	352.12
681.39	350.86
681.73	349.66
682.06	348.65
682.40	347.53
682.74	346.59
683.08	345.62
683.42	344.51
683.75	343.54
684.09	342.30
684.43	341.35
684.77	340.33
685.10	339.23
685.44	338.39
685.78	337.29
686.12	336.28
686.45	335.47
686.79	334.39
687.13	333.52
687.46	332.53
687.80	331.54
688.14	330.48
688.48	329.46
688.81	328.50
689.15	327.47
689.49	326.55
689.82	325.57
690.16	324.61
690.50	323.66
690.83	322.63
691.17	321.78
691.51	320.82
691.84	319.78
692.18	318.85
692.52	317.85
692.85	317.03
693.19	316.24
693.52	315.25
693.86	314.34
694.20	313.42
694.53	312.55
694.87	311.47
695.21	310.70
695.54	309.82
695.88	308.93
696.21	308.10
696.55	307.21
696.88	306.31
697.22	305.49
697.56	304.68
697.89	303.86
698.23	303.16
698.56	302.39
698.90	301.70
699.23	300.97
699.57	300.12
699.90	299.27
700.24	298.47
700.58	297.66
700.91	296.94
701.25	296.24
701.58	295.67
701.92	295.03
702.25	294.22
702.59	293.55
702.92	292.80
703.26	291.96
703.59	291.29
703.93	290.80
704.26	290.05
704.60	289.38
704.93	288.76
705.26	288.04
705.60	287.38
705.93	286.56
706.27	285.96
706.60	285.34
706.94	284.81
707.27	284.15
707.61	283.57
707.94	283.00
708.27	282.21
708.61	281.49
708.94	280.83
709.28	280.35
709.61	279.85
709.94	279.36
710.28	278.87
710.61	278.36
710.95	277.69
711.28	277.28
711.61	276.75
711.95	276.14
712.28	275.53
712.61	274.86
712.95	274.36
713.28	273.90
713.61	273.38
713.95	272.83
714.28	272.35
714.61	271.65
714.95	271.11
715.28	270.67
715.61	270.10
715.95	269.61
716.28	269.01
716.61	268.47
716.95	268.07
717.28	267.58
717.61	267.10
717.94	266.71
718.28	266.19
718.61	265.64
718.94	265.22
719.27	264.95
719.61	264.64
719.94	264.36
720.27	263.93
720.60	263.59
720.94	263.19
721.27	262.80
721.60	262.49
721.93	262.19
722.27	261.84
722.60	261.54
722.93	261.20
723.26	260.91
723.59	260.63
723.93	260.23
724.26	260.05
724.59	259.62
724.92	259.29
725.25	259.06
725.59	258.80
725.92	258.55
726.25	258.17
726.58	257.99
726.91	257.70
727.24	257.31
727.57	257.09
727.91	256.81
728.24	256.55
728.57	256.48
728.90	256.20
729.23	255.95
729.56	255.80
729.89	255.58
730.22	255.30
730.55	255.00
730.89	254.86
731.22	254.54
731.55	254.42
731.88	254.12
732.21	253.83
732.54	253.60
732.87	253.30
733.20	253.10
733.53	252.92
733.86	252.67
734.19	252.67
734.52	252.49
734.85	252.45
735.18	252.17
735.51	251.92
735.84	251.82
736.17	251.64
736.50	251.35
736.83	251.48
737.16	251.35
737.49	251.21
737.82	250.92
738.15	250.80
738.48	250.54
738.81	250.41
739.14	250.11
739.47	249.89
739.80	249.73
740.13	249.49
740.46	249.16
740.79	248.94
741.12	248.56
741.45	248.39
741.78	248.04
742.11	247.97
742.44	247.68
742.77	247.49
743.10	247.27
743.43	247.02
743.75	246.49
744.08	246.62
744.41	246.43
744.74	246.34
745.07	246.03
745.40	245.92
745.73	245.72
746.06	245.56
746.39	245.43
746.71	245.27
747.04	245.05
747.37	244.87
747.70	244.68
748.03	244.53
748.36	244.25
748.68	243.94
749.01	243.73
749.34	243.62
749.67	243.37
750.00	243.22
750.33	243.24
750.65	243.07
750.98	242.54
751.31	242.34
751.64	242.14
751.97	242.04
752.29	241.85
752.62	241.61
752.95	241.52
753.28	241.27
753.60	241.07
753.93	240.99
754.26	240.73
754.59	240.60
754.91	240.35
755.24	240.25
755.57	240.16
755.90	239.98
756.22	239.74
756.55	239.59
756.88	239.40
757.20	239.05
757.53	238.83
757.86	238.76
758.19	238.62
758.51	238.45
758.84	238.11
759.17	238.00
759.49	237.86
759.82	237.70
760.15	237.63
760.47	237.53
760.80	237.41
761.13	237.43
761.45	237.25
761.78	237.23
762.11	237.10
762.43	237.03
762.76	236.85
763.08	236.76
763.41	236.74
763.74	236.57
764.06	236.55
764.39	236.51
764.71	236.49
765.04	236.44
765.37	236.39
765.69	236.48
766.02	236.26
766.34	236.21
766.67	236.13
767.00	235.97
767.32	235.93
767.65	235.93
767.97	235.83
768.30	235.88
768.62	235.88
768.95	235.73
769.27	235.66
769.60	235.59
769.92	235.55
770.25	235.33
770.57	235.35
770.90	235.21
771.22	235.17
771.55	235.01
771.87	234.97
772.20	234.87
772.52	234.87
772.85	235.16
773.17	235.08
773.50	235.07
773.82	235.10
774.15	235.10
774.47	234.90
774.80	234.82
775.12	234.71
775.45	234.51
775.77	234.51
776.09	234.57
776.42	234.60
776.74	234.58
777.07	234.57
777.39	234.51
777.72	234.47
778.04	234.49
778.36	234.49
778.69	234.38
779.01	234.32
779.33	234.26
779.66	233.98
779.98	233.96
780.31	233.87
780.63	233.93
780.95	233.81
781.28	233.81
781.60	233.79
781.92	233.77
782.25	233.90
782.57	233.87
782.89	233.73
783.22	233.81
783.54	233.81
783.86	233.85
784.19	233.90
784.51	233.94
784.83	233.81
785.16	233.68
785.48	233.67
785.80	233.54
786.12	233.45
786.45	233.30
786.77	233.30
787.09	233.32
787.42	233.16
787.74	233.18
788.06	233.17
788.38	233.07
788.71	233.00
789.03	232.78
789.35	232.80
789.67	232.74
789.99	232.62
790.32	232.51
790.64	232.40
790.96	232.36
791.28	232.22
791.61	232.09
791.93	232.06
792.25	231.97
792.57	232.18
792.89	232.08
793.21	232.13
793.54	232.04
793.86	231.93
794.18	231.91
