SpectraSuite Data File
++++++++++++++++++++++++++++++++++++
Date: Fri Feb 01 14:38:55 EST 2013
User: group
Dark Spectrum Present: No
Reference Spectrum Present: No
Number of Sampled Component Spectra: 1
Spectrometers: USB2E7196
Integration Time (usec): 70000 (USB2E7196)
Spectra Averaged: 10 (USB2E7196)
Boxcar Smoothing: 10 (USB2E7196)
Correct for Electrical Dark: No (USB2E7196)
Strobe/Lamp Enabled: No (USB2E7196)
Correct for Detector Non-linearity: No (USB2E7196)
Correct for Stray Light: No (USB2E7196)
Number of Pixels in Processed Spectrum: 2048
>>>>>Begin Processed Spectral Data<<<<<
339.09	0.00
339.48	217.30
339.86	218.00
340.24	219.40
340.63	219.40
341.01	225.80
341.39	223.50
341.78	223.50
342.16	226.10
342.54	225.10
342.93	214.77
343.31	225.60
343.69	226.12
344.07	226.56
344.46	226.92
344.84	227.36
345.22	227.40
345.60	227.68
345.99	227.88
346.37	227.97
346.75	228.10
347.13	228.16
347.52	228.17
347.90	228.32
348.28	228.33
348.66	228.38
349.05	228.25
349.43	228.30
349.81	228.44
350.19	228.51
350.57	228.50
350.96	228.60
351.34	228.74
351.72	228.70
352.10	228.80
352.48	228.96
352.87	228.97
353.25	229.15
353.63	229.20
354.01	229.29
354.39	229.42
354.77	229.48
355.15	229.70
355.54	229.74
355.92	229.66
356.30	229.75
356.68	229.89
357.06	229.94
357.44	229.90
357.82	229.87
358.20	229.93
358.58	230.01
358.97	230.04
359.35	230.11
359.73	230.21
360.11	230.27
360.49	230.28
360.87	230.32
361.25	230.29
361.63	230.35
362.01	230.37
362.39	230.34
362.77	230.37
363.15	230.31
363.53	230.37
363.91	230.41
364.29	230.35
364.67	230.10
365.05	230.24
365.43	230.26
365.81	230.35
366.19	230.39
366.57	230.32
366.95	230.28
367.33	230.15
367.71	230.16
368.09	230.06
368.47	230.00
368.85	229.93
369.23	230.02
369.61	229.91
369.99	229.95
370.37	229.88
370.75	229.85
371.13	229.80
371.51	229.75
371.89	229.70
372.27	229.67
372.65	229.73
373.03	229.61
373.41	229.58
373.78	229.37
374.16	229.17
374.54	229.04
374.92	228.99
375.30	229.00
375.68	228.88
376.06	228.91
376.44	228.80
376.82	228.78
377.19	228.57
377.57	228.51
377.95	228.29
378.33	228.22
378.71	228.08
379.09	227.96
379.47	227.80
379.84	227.73
380.22	227.56
380.60	227.37
380.98	227.31
381.36	227.17
381.73	227.11
382.11	227.10
382.49	227.05
382.87	227.00
383.25	226.85
383.62	226.90
384.00	226.80
384.38	226.74
384.76	226.69
385.13	226.73
385.51	226.55
385.89	226.54
386.27	226.49
386.64	226.47
387.02	226.46
387.40	226.50
387.78	226.37
388.15	226.48
388.53	226.45
388.91	226.39
389.29	226.40
389.66	226.35
390.04	226.39
390.42	226.48
390.79	226.46
391.17	226.47
391.55	226.30
391.92	226.24
392.30	226.37
392.68	226.37
393.05	226.34
393.43	226.41
393.81	226.43
394.18	226.39
394.56	226.40
394.94	226.38
395.31	226.40
395.69	226.55
396.06	226.56
396.44	226.63
396.82	226.71
397.19	226.98
397.57	227.10
397.95	227.23
398.32	227.26
398.70	227.32
399.07	227.50
399.45	227.72
399.82	227.92
400.20	227.94
400.58	227.91
400.95	227.93
401.33	228.08
401.70	228.31
402.08	228.48
402.45	228.65
402.83	228.80
403.20	228.89
403.58	229.05
403.95	229.18
404.33	229.40
404.71	229.45
405.08	229.55
405.46	229.68
405.83	229.81
406.21	229.96
406.58	230.17
406.96	230.39
407.33	230.56
407.70	230.73
408.08	231.09
408.45	231.40
408.83	231.73
409.20	231.95
409.58	232.18
409.95	232.51
410.33	232.81
410.70	233.02
411.08	233.33
411.45	233.70
411.82	233.94
412.20	234.31
412.57	234.77
412.95	235.14
413.32	235.66
413.69	236.08
414.07	236.50
414.44	237.02
414.82	237.46
415.19	238.00
415.56	238.55
415.94	239.11
416.31	239.84
416.68	240.44
417.06	241.28
417.43	242.02
417.81	242.92
418.18	243.72
418.55	244.78
418.93	245.79
419.30	246.71
419.67	247.78
420.04	248.83
420.42	250.03
420.79	251.30
421.16	252.49
421.54	253.82
421.91	255.32
422.28	256.70
422.66	258.24
423.03	259.77
423.40	261.29
423.77	262.91
424.15	264.60
424.52	266.40
424.89	268.30
425.26	270.04
425.64	271.64
426.01	273.64
426.38	275.69
426.75	277.71
427.13	279.78
427.50	282.12
427.87	284.32
428.24	286.45
428.61	288.53
428.99	291.00
429.36	293.53
429.73	295.89
430.10	298.40
430.47	300.88
430.85	303.53
431.22	306.27
431.59	309.26
431.96	312.03
432.33	315.10
432.70	318.00
433.08	321.61
433.45	325.00
433.82	328.23
434.19	331.73
434.56	335.38
434.93	338.68
435.30	341.78
435.68	345.44
436.05	349.05
436.42	352.65
436.79	355.95
437.16	359.46
437.53	363.25
437.90	366.94
438.27	370.57
438.64	374.29
439.01	377.73
439.38	380.63
439.75	383.49
440.13	386.95
440.50	389.96
440.87	392.38
441.24	394.87
441.61	397.86
441.98	399.78
442.35	402.32
442.72	404.87
443.09	407.53
443.46	409.14
443.83	410.30
444.20	411.21
444.57	412.44
444.94	413.17
445.31	413.86
445.68	414.70
446.05	415.02
446.42	414.93
446.79	414.79
447.16	414.50
447.53	414.55
447.90	413.33
448.27	412.31
448.64	410.69
449.01	409.72
449.37	407.53
449.74	405.72
450.11	403.03
450.48	400.27
450.85	397.29
451.22	394.77
451.59	392.44
451.96	390.20
452.33	387.17
452.70	384.36
453.07	380.88
453.43	377.45
453.80	374.26
454.17	370.83
454.54	367.71
454.91	364.44
455.28	361.05
455.65	358.00
456.02	355.17
456.38	352.59
456.75	349.25
457.12	346.41
457.49	343.47
457.86	340.75
458.23	338.48
458.59	335.98
458.96	333.37
459.33	331.10
459.70	328.76
460.07	326.87
460.43	324.66
460.80	322.70
461.17	320.80
461.54	318.73
461.91	316.95
462.27	315.06
462.64	313.41
463.01	311.71
463.38	309.82
463.74	307.86
464.11	306.22
464.48	304.78
464.85	303.27
465.21	302.08
465.58	300.89
465.95	299.36
466.32	298.07
466.68	296.91
467.05	295.55
467.42	294.34
467.78	293.00
468.15	291.83
468.52	290.93
468.88	289.63
469.25	288.64
469.62	287.71
469.98	286.80
470.35	285.91
470.72	285.03
471.08	284.19
471.45	283.51
471.82	282.80
472.18	281.88
472.55	281.21
472.92	280.53
473.28	279.70
473.65	279.03
474.02	278.49
474.38	277.90
474.75	277.46
475.11	276.87
475.48	276.33
475.85	275.67
476.21	275.19
476.58	274.69
476.94	274.23
477.31	273.76
477.67	273.34
478.04	272.94
478.41	272.49
478.77	272.30
479.14	271.71
479.50	271.32
479.87	271.13
480.23	270.83
480.60	270.60
480.96	270.33
481.33	270.20
481.69	269.90
482.06	269.48
482.42	269.21
482.79	269.01
483.15	268.96
483.52	269.00
483.88	268.83
484.25	268.79
484.61	268.62
484.98	268.60
485.34	268.44
485.71	268.32
486.07	268.30
486.44	268.17
486.80	268.23
487.17	268.17
487.53	268.17
487.90	268.28
488.26	268.39
488.62	268.53
488.99	268.58
489.35	268.71
489.72	268.92
490.08	269.01
490.44	268.95
490.81	269.02
491.17	269.14
491.54	269.26
491.90	269.25
492.26	269.40
492.63	269.66
492.99	270.00
493.36	270.31
493.72	270.63
494.08	270.92
494.45	271.31
494.81	271.75
495.17	272.05
495.54	272.35
495.90	272.56
496.26	272.82
496.63	273.03
496.99	273.31
497.35	273.79
497.72	274.17
498.08	274.71
498.44	275.14
498.80	275.62
499.17	275.91
499.53	276.35
499.89	276.80
500.26	277.15
500.62	277.46
500.98	277.90
501.34	278.32
501.71	278.63
502.07	278.99
502.43	279.34
502.79	279.86
503.16	280.28
503.52	280.77
503.88	281.28
504.24	281.85
504.60	282.34
504.97	282.76
505.33	283.31
505.69	283.96
506.05	284.56
506.41	285.20
506.78	286.11
507.14	286.82
507.50	287.71
507.86	288.46
508.22	289.28
508.59	290.10
508.95	290.93
509.31	292.10
509.67	293.09
510.03	294.06
510.39	295.03
510.75	296.11
511.12	297.13
511.48	298.33
511.84	299.58
512.20	300.99
512.56	302.27
512.92	303.68
513.28	305.11
513.64	306.54
514.00	308.06
514.37	309.54
514.73	311.34
515.09	312.95
515.45	314.82
515.81	316.75
516.17	318.57
516.53	320.57
516.89	322.40
517.25	324.57
517.61	326.81
517.97	329.06
518.33	331.45
518.69	333.90
519.05	336.47
519.41	339.02
519.77	341.66
520.13	344.56
520.49	347.31
520.85	350.15
521.21	353.12
521.57	356.20
521.93	359.29
522.29	362.54
522.65	365.70
523.01	368.90
523.37	372.23
523.73	375.86
524.09	379.39
524.45	383.10
524.81	386.90
525.17	390.81
525.53	394.80
525.89	398.85
526.25	403.07
526.61	407.12
526.97	411.44
527.33	415.83
527.68	420.45
528.04	424.96
528.40	429.69
528.76	434.57
529.12	439.29
529.48	444.20
529.84	449.05
530.20	454.41
530.56	459.77
530.91	465.19
531.27	470.60
531.63	476.03
531.99	481.42
532.35	486.75
532.71	492.36
533.07	498.08
533.42	503.94
533.78	509.69
534.14	515.65
534.50	521.43
534.86	527.39
535.21	533.18
535.57	539.29
535.93	545.34
536.29	551.46
536.65	557.72
537.00	563.89
537.36	570.47
537.72	576.67
538.08	582.84
538.44	589.23
538.79	595.57
539.15	601.99
539.51	608.73
539.87	615.66
540.22	622.14
540.58	629.03
540.94	635.49
541.29	642.18
541.65	648.82
542.01	655.96
542.37	662.75
542.72	669.55
543.08	676.26
543.44	683.10
543.79	689.69
544.15	696.73
544.51	703.79
544.87	710.48
545.22	717.14
545.58	723.96
545.94	730.27
546.29	737.06
546.65	743.83
547.01	750.41
547.36	756.86
547.72	763.36
548.07	769.50
548.43	775.81
548.79	782.11
549.14	788.20
549.50	794.19
549.86	800.37
550.21	806.42
550.57	812.72
550.92	818.74
551.28	825.15
551.64	830.83
551.99	836.84
552.35	842.70
552.70	848.98
553.06	854.95
553.41	861.30
553.77	866.98
554.13	872.86
554.48	878.78
554.84	884.73
555.19	890.62
555.55	896.52
555.90	902.39
556.26	907.94
556.61	913.88
556.97	919.33
557.32	925.12
557.68	930.64
558.03	936.25
558.39	941.78
558.74	947.29
559.10	952.91
559.45	958.36
559.81	964.01
560.16	969.27
560.52	974.70
560.87	979.89
561.23	985.08
561.58	990.19
561.94	995.19
562.29	999.41
562.64	1003.93
563.00	1008.35
563.35	1013.16
563.71	1018.35
564.06	1023.33
564.42	1027.98
564.77	1032.30
565.12	1036.99
565.48	1041.66
565.83	1045.97
566.19	1049.93
566.54	1053.73
566.89	1057.61
567.25	1061.40
567.60	1065.42
567.96	1069.21
568.31	1072.86
568.66	1076.54
569.02	1079.88
569.37	1083.07
569.72	1086.72
570.08	1090.31
570.43	1093.61
570.78	1096.47
571.14	1099.05
571.49	1101.58
571.84	1104.70
572.20	1107.12
572.55	1109.41
572.90	1111.07
573.26	1113.43
573.61	1115.82
573.96	1117.99
574.31	1119.70
574.67	1121.04
575.02	1122.26
575.37	1123.67
575.72	1124.65
576.08	1126.16
576.43	1127.47
576.78	1128.58
577.13	1129.83
577.49	1130.56
577.84	1131.85
578.19	1132.82
578.54	1133.59
578.90	1134.19
579.25	1134.18
579.60	1134.45
579.95	1134.80
580.30	1135.31
580.66	1135.35
581.01	1135.33
581.36	1135.61
581.71	1135.98
582.06	1136.16
582.42	1136.04
582.77	1135.86
583.12	1135.92
583.47	1135.56
583.82	1135.78
584.17	1135.52
584.53	1135.36
584.88	1135.50
585.23	1135.13
585.58	1134.81
585.93	1134.34
586.28	1134.12
586.63	1134.21
586.98	1134.15
587.34	1133.96
587.69	1133.67
588.04	1133.29
588.39	1132.71
588.74	1131.54
589.09	1130.48
589.44	1129.46
589.79	1128.66
590.14	1128.15
590.49	1127.25
590.84	1125.80
591.19	1124.59
591.54	1123.17
591.89	1120.80
592.25	1119.19
592.60	1117.13
592.95	1115.25
593.30	1113.41
593.65	1111.41
594.00	1109.14
594.35	1107.56
594.70	1105.17
595.05	1103.36
595.40	1101.07
595.75	1098.82
596.10	1097.19
596.45	1095.37
596.80	1094.06
597.15	1092.30
597.50	1089.85
597.85	1087.95
598.19	1086.41
598.54	1084.36
598.89	1082.62
599.24	1081.67
599.59	1079.72
599.94	1077.85
600.29	1075.93
600.64	1074.10
600.99	1071.59
601.34	1069.70
601.69	1067.45
602.04	1065.58
602.39	1063.15
602.74	1061.43
603.08	1059.51
603.43	1057.82
603.78	1055.45
604.13	1052.82
604.48	1050.27
604.83	1047.96
605.18	1045.84
605.53	1043.24
605.87	1040.19
606.22	1037.56
606.57	1034.48
606.92	1031.77
607.27	1029.34
607.62	1027.15
607.96	1024.70
608.31	1022.42
608.66	1019.56
609.01	1016.28
609.36	1012.81
609.70	1009.42
610.05	1005.90
610.40	1002.81
610.75	999.31
611.10	995.80
611.44	991.99
611.79	988.61
612.14	984.90
612.49	980.93
612.83	977.12
613.18	973.68
613.53	970.04
613.88	966.28
614.22	962.70
614.57	958.88
614.92	954.98
615.27	951.16
615.61	947.04
615.96	943.29
616.31	940.02
616.65	937.12
617.00	933.81
617.35	930.50
617.70	926.69
618.04	922.60
618.39	919.14
618.74	915.95
619.08	912.58
619.43	909.35
619.78	905.98
620.12	902.94
620.47	899.57
620.82	895.77
621.16	892.54
621.51	888.97
621.85	885.21
622.20	881.40
622.55	877.78
622.89	874.50
623.24	871.12
623.59	867.57
623.93	864.00
624.28	860.47
624.62	856.94
624.97	853.42
625.32	850.27
625.66	847.09
626.01	843.79
626.35	840.03
626.70	836.40
627.04	833.01
627.39	828.99
627.73	825.49
628.08	822.31
628.43	818.73
628.77	815.25
629.12	811.79
629.46	808.40
629.81	804.56
630.15	800.93
630.50	797.38
630.84	793.29
631.19	789.58
631.53	785.91
631.88	781.91
632.22	778.19
632.57	774.39
632.91	770.50
633.26	766.40
633.60	762.68
633.95	758.96
634.29	755.38
634.64	752.21
634.98	748.49
635.32	745.25
635.67	741.91
636.01	738.49
636.36	735.24
636.70	731.96
637.05	728.90
637.39	726.03
637.73	722.75
638.08	720.10
638.42	717.01
638.77	713.80
639.11	710.55
639.45	707.26
639.80	704.03
640.14	700.94
640.49	698.01
640.83	695.04
641.17	692.11
641.52	689.04
641.86	685.81
642.20	682.92
642.55	679.42
642.89	676.21
643.23	672.70
643.58	669.58
643.92	666.08
644.26	662.76
644.61	659.59
644.95	656.20
645.29	652.59
645.64	649.07
645.98	645.75
646.32	642.83
646.66	639.65
647.01	636.32
647.35	633.25
647.69	630.07
648.04	627.04
648.38	623.54
648.72	619.87
649.06	616.40
649.41	612.98
649.75	609.64
650.09	606.24
650.43	603.09
650.78	599.66
651.12	596.44
651.46	593.31
651.80	589.85
652.14	586.90
652.49	583.71
652.83	580.79
653.17	577.67
653.51	574.20
653.85	570.99
654.20	568.00
654.54	564.62
654.88	561.19
655.22	557.70
655.56	554.75
655.90	551.81
656.25	548.90
656.59	545.91
656.93	543.16
657.27	540.40
657.61	537.43
657.95	534.72
658.29	532.12
658.64	529.25
658.98	526.50
659.32	523.28
659.66	520.48
660.00	517.52
660.34	515.00
660.68	512.33
661.02	509.79
661.36	507.07
661.70	504.51
662.05	502.16
662.39	499.76
662.73	497.40
663.07	494.99
663.41	492.56
663.75	490.04
664.09	487.65
664.43	485.29
664.77	483.09
665.11	480.71
665.45	478.27
665.79	475.90
666.13	473.21
666.47	471.09
666.81	468.77
667.15	466.40
667.49	463.84
667.83	461.72
668.17	459.36
668.51	457.00
668.85	454.70
669.19	452.63
669.53	450.39
669.87	447.90
670.21	445.69
670.55	443.46
670.89	441.53
671.23	439.39
671.57	437.27
671.91	435.16
672.25	433.05
672.58	431.03
672.92	429.10
673.26	427.39
673.60	425.61
673.94	423.91
674.28	422.18
674.62	420.62
674.96	418.86
675.30	417.19
675.64	415.58
675.97	413.90
676.31	412.00
676.65	410.29
676.99	408.88
677.33	407.10
677.67	405.41
678.01	403.59
678.34	401.86
678.68	400.24
679.02	398.52
679.36	396.83
679.70	395.24
680.04	393.53
680.37	391.88
680.71	390.07
681.05	388.40
681.39	386.86
681.73	385.28
682.06	383.81
682.40	382.50
682.74	381.02
683.08	379.57
683.42	378.08
683.75	376.49
684.09	374.78
684.43	373.44
684.77	372.12
685.10	370.65
685.44	369.28
685.78	367.82
686.12	366.59
686.45	365.32
686.79	363.82
687.13	362.58
687.46	361.16
687.80	359.76
688.14	358.28
688.48	356.78
688.81	355.36
689.15	353.83
689.49	352.31
689.82	351.11
690.16	349.72
690.50	348.50
690.83	347.26
691.17	346.10
691.51	344.80
691.84	343.52
692.18	342.27
692.52	340.95
692.85	339.65
693.19	338.41
693.52	337.19
693.86	335.95
694.20	334.67
694.53	333.51
694.87	332.40
695.21	331.26
695.54	330.08
695.88	328.70
696.21	327.60
696.55	326.37
696.88	325.04
697.22	323.91
697.56	322.71
697.89	321.65
698.23	320.41
698.56	319.23
698.90	318.15
699.23	317.07
699.57	315.90
699.90	314.98
700.24	313.80
700.58	312.80
700.91	311.92
701.25	311.10
701.58	310.26
701.92	309.35
702.25	308.44
702.59	307.57
702.92	306.82
703.26	305.95
703.59	305.10
703.93	304.45
704.26	303.52
704.60	302.65
704.93	301.82
705.26	301.10
705.60	300.42
705.93	299.67
706.27	299.09
706.60	298.55
706.94	297.79
707.27	296.96
707.61	296.00
707.94	295.12
708.27	294.14
708.61	293.42
708.94	292.76
709.28	292.05
709.61	291.22
709.94	290.53
710.28	289.92
710.61	289.28
710.95	288.37
711.28	287.94
711.61	287.40
711.95	286.76
712.28	286.08
712.61	285.47
712.95	284.87
713.28	284.24
713.61	283.50
713.95	282.79
714.28	282.33
714.61	281.95
714.95	281.46
715.28	280.93
715.61	280.30
715.95	279.62
716.28	279.15
716.61	278.79
716.95	278.23
717.28	277.67
717.61	277.17
717.94	276.58
718.28	276.07
718.61	275.51
718.94	275.00
719.27	274.53
719.61	273.89
719.94	273.39
720.27	272.73
720.60	272.34
720.94	271.91
721.27	271.44
721.60	270.94
721.93	270.53
722.27	270.24
722.60	269.80
722.93	269.39
723.26	268.94
723.59	268.55
723.93	268.13
724.26	267.71
724.59	267.32
724.92	267.03
725.25	266.65
725.59	266.28
725.92	265.93
726.25	265.55
726.58	265.30
726.91	264.78
727.24	264.49
727.57	264.07
727.91	263.74
728.24	263.42
728.57	263.03
728.90	262.64
729.23	262.21
729.56	261.84
729.89	261.52
730.22	261.28
730.55	260.83
730.89	260.43
731.22	260.05
731.55	259.64
731.88	259.36
732.21	258.90
732.54	258.58
732.87	258.30
733.20	258.01
733.53	257.67
733.86	257.49
734.19	257.06
734.52	256.82
734.85	256.59
735.18	256.20
735.51	256.00
735.84	255.71
736.17	255.50
736.50	255.19
736.83	255.08
737.16	254.60
737.49	254.28
737.82	254.01
738.15	253.80
738.48	253.43
738.81	253.11
739.14	252.77
739.47	252.48
739.80	252.28
740.13	251.95
740.46	251.64
740.79	251.30
741.12	251.19
741.45	250.86
741.78	250.44
742.11	250.21
742.44	249.85
742.77	249.58
743.10	249.31
743.43	249.05
743.75	248.62
744.08	248.60
744.41	248.34
744.74	248.17
745.07	247.73
745.40	247.65
745.73	247.46
746.06	247.22
746.39	247.03
746.71	246.64
747.04	246.41
747.37	246.25
747.70	246.07
748.03	245.82
748.36	245.65
748.68	245.52
749.01	245.37
749.34	245.07
749.67	244.90
750.00	244.63
750.33	244.48
750.65	244.32
750.98	243.86
751.31	243.75
751.64	243.59
751.97	243.62
752.29	243.39
752.62	243.19
752.95	243.03
753.28	242.79
753.60	242.61
753.93	242.60
754.26	242.42
754.59	242.20
754.91	242.04
755.24	241.86
755.57	241.68
755.90	241.46
756.22	241.37
756.55	241.33
756.88	241.19
757.20	240.99
757.53	240.70
757.86	240.62
758.19	240.51
758.51	240.37
758.84	240.18
759.17	240.10
759.49	240.08
759.82	240.05
760.15	240.00
760.47	239.92
760.80	239.63
761.13	239.57
761.45	239.56
761.78	239.42
762.11	239.33
762.43	239.27
762.76	239.11
763.08	239.10
763.41	239.02
763.74	238.94
764.06	238.85
764.39	238.81
764.71	238.71
765.04	238.57
765.37	238.46
765.69	238.33
766.02	238.12
766.34	237.78
766.67	237.64
767.00	237.53
767.32	237.56
767.65	237.70
767.97	237.68
768.30	237.47
768.62	237.40
768.95	237.33
769.27	237.21
769.60	237.14
769.92	237.00
770.25	236.79
770.57	236.63
770.90	236.54
771.22	236.49
771.55	236.52
771.87	236.46
772.20	236.39
772.52	236.39
772.85	236.60
773.17	236.60
773.50	236.51
773.82	236.26
774.15	236.10
774.47	235.82
774.80	235.58
775.12	235.52
775.45	235.32
775.77	235.27
776.09	235.10
776.42	235.12
776.74	235.16
777.07	235.08
777.39	235.04
777.72	234.99
778.04	234.91
778.36	234.69
778.69	234.62
779.01	234.57
779.33	234.38
779.66	234.07
779.98	233.93
780.31	233.84
780.63	234.04
780.95	234.01
781.28	233.84
781.60	233.78
781.92	233.72
782.25	233.72
782.57	233.58
782.89	233.59
783.22	233.41
783.54	233.21
783.86	233.09
784.19	232.87
784.51	232.89
784.83	232.84
785.16	232.75
785.48	232.69
785.80	232.64
786.12	232.61
786.45	232.62
786.77	232.70
787.09	232.70
787.42	232.45
787.74	232.30
788.06	232.38
788.38	232.30
788.71	232.21
789.03	232.25
789.35	232.26
789.67	232.20
789.99	232.15
790.32	232.19
790.64	232.23
790.96	232.42
791.28	232.26
