SpectraSuite Data File
++++++++++++++++++++++++++++++++++++
Date: Fri Feb 01 14:39:07 EST 2013
User: group
Dark Spectrum Present: No
Reference Spectrum Present: No
Number of Sampled Component Spectra: 1
Spectrometers: USB2E7196
Integration Time (usec): 70000 (USB2E7196)
Spectra Averaged: 10 (USB2E7196)
Boxcar Smoothing: 10 (USB2E7196)
Correct for Electrical Dark: No (USB2E7196)
Strobe/Lamp Enabled: No (USB2E7196)
Correct for Detector Non-linearity: No (USB2E7196)
Correct for Stray Light: No (USB2E7196)
Number of Pixels in Processed Spectrum: 2048
>>>>>Begin Processed Spectral Data<<<<<
339.09	0.00
339.48	216.50
339.86	217.60
340.24	218.80
340.63	219.70
341.01	223.30
341.39	220.90
341.78	225.80
342.16	225.30
342.54	224.90
342.93	214.12
343.31	224.97
343.69	225.48
344.07	225.92
344.46	226.39
344.84	226.80
345.22	227.10
345.60	227.43
345.99	227.57
346.37	227.73
346.75	227.80
347.13	227.99
347.52	228.03
347.90	228.11
348.28	228.18
348.66	228.19
349.05	228.15
349.43	228.20
349.81	228.24
350.19	228.30
350.57	228.35
350.96	228.46
351.34	228.57
351.72	228.60
352.10	228.66
352.48	228.69
352.87	228.67
353.25	228.67
353.63	228.65
354.01	228.72
354.39	228.75
354.77	228.93
355.15	228.93
355.54	228.94
355.92	228.96
356.30	229.00
356.68	229.30
357.06	229.32
357.44	229.30
357.82	229.20
358.20	229.28
358.58	229.42
358.97	229.48
359.35	229.50
359.73	229.60
360.11	229.67
360.49	229.68
360.87	229.73
361.25	229.78
361.63	229.85
362.01	229.87
362.39	229.81
362.77	229.77
363.15	229.76
363.53	229.78
363.91	229.75
364.29	229.70
364.67	229.48
365.05	229.54
365.43	229.53
365.81	229.60
366.19	229.64
366.57	229.58
366.95	229.52
367.33	229.36
367.71	229.36
368.09	229.38
368.47	229.43
368.85	229.44
369.23	229.36
369.61	229.30
369.99	229.27
370.37	229.35
370.75	229.38
371.13	229.30
371.51	229.18
371.89	229.15
372.27	229.09
372.65	229.04
373.03	228.95
373.41	228.79
373.78	228.70
374.16	228.54
374.54	228.45
374.92	228.42
375.30	228.40
375.68	228.25
376.06	228.13
376.44	227.98
376.82	227.92
377.19	227.87
377.57	227.84
377.95	227.69
378.33	227.61
378.71	227.41
379.09	227.36
379.47	227.35
379.84	227.31
380.22	227.31
380.60	227.17
380.98	227.07
381.36	227.07
381.73	227.05
382.11	227.06
382.49	227.05
382.87	226.91
383.25	226.84
383.62	227.00
384.00	226.90
384.38	226.82
384.76	226.81
385.13	226.85
385.51	226.77
385.89	226.72
386.27	226.66
386.64	226.70
387.02	226.60
387.40	226.45
387.78	226.35
388.15	226.32
388.53	226.32
388.91	226.40
389.29	226.32
389.66	226.39
390.04	226.30
390.42	226.35
390.79	226.26
391.17	226.38
391.55	226.28
391.92	226.26
392.30	226.33
392.68	226.28
393.05	226.25
393.43	226.38
393.81	226.40
394.18	226.39
394.56	226.44
394.94	226.66
395.31	226.80
395.69	226.98
396.06	226.97
396.44	227.10
396.82	227.05
397.19	227.30
397.57	227.31
397.95	227.51
398.32	227.49
398.70	227.73
399.07	227.82
399.45	227.83
399.82	228.00
400.20	228.06
400.58	228.24
400.95	228.32
401.33	228.45
401.70	228.74
402.08	228.86
402.45	228.98
402.83	229.06
403.20	229.26
403.58	229.31
403.95	229.52
404.33	229.64
404.71	229.83
405.08	230.04
405.46	230.17
405.83	230.17
406.21	230.32
406.58	230.50
406.96	230.61
407.33	230.78
407.70	231.00
408.08	231.36
408.45	231.44
408.83	231.72
409.20	231.85
409.58	231.91
409.95	232.20
410.33	232.40
410.70	232.66
411.08	232.98
411.45	233.27
411.82	233.55
412.20	233.88
412.57	234.22
412.95	234.31
413.32	234.60
413.69	235.06
414.07	235.44
414.44	235.87
414.82	236.39
415.19	236.99
415.56	237.45
415.94	237.94
416.31	238.64
416.68	239.25
417.06	239.95
417.43	240.80
417.81	241.56
418.18	242.30
418.55	243.08
418.93	244.00
419.30	244.96
419.67	245.99
420.04	246.97
420.42	248.09
420.79	249.41
421.16	250.72
421.54	252.02
421.91	253.36
422.28	254.73
422.66	256.16
423.03	257.67
423.40	259.17
423.77	260.76
424.15	262.29
424.52	263.90
424.89	265.84
425.26	267.50
425.64	269.10
426.01	271.11
426.38	273.12
426.75	275.06
427.13	277.05
427.50	279.20
427.87	281.30
428.24	283.50
428.61	285.68
428.99	287.96
429.36	290.39
429.73	292.88
430.10	295.20
430.47	297.63
430.85	299.92
431.22	302.60
431.59	305.44
431.96	308.20
432.33	311.17
432.70	313.95
433.08	317.38
433.45	320.56
433.82	323.53
434.19	326.99
434.56	330.24
434.93	333.44
435.30	336.53
435.68	340.22
436.05	343.81
436.42	347.23
436.79	350.32
437.16	353.73
437.53	357.15
437.90	360.64
438.27	364.23
438.64	367.90
439.01	371.23
439.38	374.07
439.75	376.85
440.13	380.08
440.50	383.25
440.87	385.55
441.24	388.17
441.61	391.12
441.98	393.17
442.35	395.69
442.72	398.31
443.09	400.87
443.46	402.32
443.83	403.26
444.20	404.00
444.57	405.38
444.94	405.99
445.31	406.63
445.68	407.56
446.05	407.96
446.42	407.69
446.79	407.58
447.16	407.31
447.53	407.27
447.90	406.13
448.27	404.80
448.64	403.20
449.01	402.07
449.37	399.92
449.74	397.84
450.11	395.44
450.48	392.60
450.85	389.68
451.22	387.28
451.59	384.98
451.96	382.88
452.33	380.00
452.70	377.31
453.07	374.20
453.43	370.63
453.80	367.26
454.17	364.25
454.54	361.28
454.91	358.07
455.28	354.81
455.65	351.94
456.02	349.19
456.38	346.63
456.75	343.41
457.12	340.63
457.49	337.90
457.86	335.12
458.23	332.86
458.59	330.34
458.96	327.67
459.33	325.31
459.70	322.99
460.07	321.04
460.43	318.93
460.80	317.00
461.17	315.39
461.54	313.56
461.91	311.67
462.27	309.77
462.64	308.15
463.01	306.44
463.38	304.66
463.74	302.79
464.11	301.37
464.48	300.06
464.85	298.70
465.21	297.63
465.58	296.44
465.95	294.98
466.32	293.81
466.68	292.80
467.05	291.73
467.42	290.63
467.78	289.37
468.15	288.30
468.52	287.28
468.88	286.05
469.25	284.98
469.62	284.19
469.98	283.25
470.35	282.46
470.72	281.56
471.08	280.63
471.45	279.89
471.82	279.16
472.18	278.36
472.55	277.64
472.92	276.79
473.28	276.12
473.65	275.49
474.02	274.81
474.38	274.09
474.75	273.45
475.11	272.85
475.48	272.24
475.85	271.62
476.21	271.19
476.58	270.73
476.94	270.28
477.31	269.84
477.67	269.39
478.04	268.96
478.41	268.72
478.77	268.70
479.14	268.29
479.50	267.91
479.87	267.62
480.23	267.28
480.60	266.99
480.96	266.77
481.33	266.63
481.69	266.45
482.06	266.40
482.42	266.18
482.79	266.00
483.15	265.90
483.52	265.91
483.88	265.78
484.25	265.72
484.61	265.78
484.98	265.77
485.34	265.80
485.71	265.83
486.07	265.85
486.44	265.69
486.80	265.76
487.17	265.79
487.53	265.96
487.90	266.30
488.26	266.57
488.62	266.63
488.99	266.73
489.35	266.88
489.72	267.00
490.08	267.23
490.44	267.37
490.81	267.62
491.17	267.79
491.54	267.91
491.90	268.09
492.26	268.22
492.63	268.50
492.99	268.62
493.36	268.80
493.72	269.13
494.08	269.40
494.45	269.75
494.81	270.10
495.17	270.40
495.54	270.61
495.90	270.88
496.26	271.27
496.63	271.57
496.99	271.90
497.35	272.23
497.72	272.59
498.08	273.04
498.44	273.45
498.80	273.84
499.17	274.31
499.53	274.80
499.89	275.25
500.26	275.69
500.62	276.18
500.98	276.70
501.34	277.07
501.71	277.56
502.07	278.06
502.43	278.48
502.79	278.84
503.16	279.46
503.52	280.07
503.88	280.63
504.24	281.27
504.60	281.92
504.97	282.52
505.33	283.14
505.69	283.91
506.05	284.59
506.41	285.36
506.78	286.21
507.14	286.96
507.50	287.92
507.86	288.70
508.22	289.69
508.59	290.64
508.95	291.59
509.31	292.70
509.67	293.81
510.03	295.13
510.39	296.53
510.75	297.76
511.12	298.92
511.48	300.26
511.84	301.59
512.20	303.03
512.56	304.58
512.92	306.41
513.28	308.11
513.64	309.93
514.00	311.76
514.37	313.54
514.73	315.52
515.09	317.53
515.45	319.80
515.81	321.96
516.17	324.28
516.53	326.72
516.89	329.07
517.25	331.60
517.61	334.24
517.97	336.67
518.33	339.28
518.69	342.41
519.05	345.48
519.41	348.60
519.77	351.90
520.13	355.09
520.49	358.34
520.85	361.54
521.21	365.00
521.57	368.50
521.93	372.16
522.29	375.89
522.65	379.51
523.01	383.30
523.37	387.22
523.73	391.20
524.09	395.39
524.45	399.58
524.81	403.88
525.17	408.23
525.53	412.81
525.89	417.53
526.25	421.96
526.61	426.52
526.97	431.50
527.33	436.32
527.68	441.76
528.04	446.85
528.40	452.26
528.76	457.69
529.12	463.20
529.48	468.66
529.84	474.27
530.20	480.11
530.56	486.03
530.91	492.19
531.27	498.25
531.63	504.30
531.99	510.54
532.35	516.70
532.71	522.90
533.07	529.44
533.42	535.99
533.78	542.53
534.14	549.21
534.50	555.47
534.86	562.25
535.21	568.64
535.57	575.49
535.93	582.30
536.29	589.16
536.65	596.02
537.00	602.87
537.36	609.77
537.72	616.73
538.08	623.63
538.44	630.17
538.79	637.11
539.15	644.06
539.51	651.07
539.87	658.35
540.22	665.61
540.58	672.92
540.94	679.90
541.29	686.89
541.65	693.81
542.01	701.18
542.37	708.20
542.72	715.13
543.08	722.24
543.44	729.25
543.79	736.04
544.15	743.10
544.51	750.57
544.87	757.70
545.22	764.50
545.58	771.41
545.94	778.38
546.29	785.60
546.65	792.70
547.01	799.51
547.36	806.03
547.72	812.71
548.07	819.29
548.43	826.13
548.79	832.83
549.14	839.57
549.50	845.98
549.86	852.28
550.21	858.95
550.57	865.26
550.92	871.65
551.28	877.90
551.64	884.20
551.99	890.50
552.35	896.91
552.70	903.28
553.06	909.80
553.41	915.95
553.77	921.79
554.13	927.46
554.48	933.57
554.84	939.70
555.19	945.64
555.55	951.55
555.90	957.04
556.26	963.03
556.61	968.64
556.97	974.16
557.32	979.98
557.68	985.43
558.03	991.05
558.39	996.59
558.74	1002.45
559.10	1007.78
559.45	1013.04
559.81	1018.28
560.16	1023.55
560.52	1028.29
560.87	1033.85
561.23	1038.78
561.58	1044.26
561.94	1049.29
562.29	1053.95
562.64	1058.55
563.00	1063.17
563.35	1068.46
563.71	1073.18
564.06	1078.19
564.42	1082.95
564.77	1087.34
565.12	1092.28
565.48	1096.58
565.83	1100.46
566.19	1104.76
566.54	1108.85
566.89	1112.94
567.25	1116.81
567.60	1120.72
567.96	1124.83
568.31	1128.35
568.66	1132.07
569.02	1135.35
569.37	1138.25
569.72	1141.45
570.08	1144.40
570.43	1147.26
570.78	1149.90
571.14	1152.48
571.49	1154.86
571.84	1158.09
572.20	1160.90
572.55	1163.06
572.90	1165.40
573.26	1167.90
573.61	1169.70
573.96	1171.85
574.31	1173.09
574.67	1174.41
575.02	1175.86
575.37	1177.15
575.72	1178.10
576.08	1179.35
576.43	1180.40
576.78	1181.72
577.13	1183.11
577.49	1184.45
577.84	1185.53
578.19	1186.04
578.54	1186.51
578.90	1186.98
579.25	1187.08
579.60	1187.01
579.95	1186.87
580.30	1186.89
580.66	1186.96
581.01	1187.13
581.36	1186.89
581.71	1187.18
582.06	1187.40
582.42	1187.35
582.77	1186.97
583.12	1186.78
583.47	1186.60
583.82	1186.51
584.17	1186.17
584.53	1185.82
584.88	1185.44
585.23	1185.04
585.58	1184.93
585.93	1184.56
586.28	1184.37
586.63	1183.84
586.98	1183.78
587.34	1183.38
587.69	1182.56
588.04	1182.17
588.39	1181.28
588.74	1180.16
589.09	1178.73
589.44	1177.37
589.79	1176.20
590.14	1175.64
590.49	1174.61
590.84	1173.26
591.19	1171.69
591.54	1169.63
591.89	1167.51
592.25	1165.90
592.60	1163.68
592.95	1161.22
593.30	1159.06
593.65	1156.72
594.00	1154.38
594.35	1152.51
594.70	1150.28
595.05	1148.29
595.40	1145.91
595.75	1143.43
596.10	1141.60
596.45	1139.99
596.80	1138.30
597.15	1136.38
597.50	1133.83
597.85	1131.83
598.19	1129.88
598.54	1128.01
598.89	1126.39
599.24	1124.81
599.59	1122.56
599.94	1120.90
600.29	1119.00
600.64	1117.12
600.99	1114.72
601.34	1112.48
601.69	1109.39
602.04	1106.95
602.39	1104.47
602.74	1101.93
603.08	1099.84
603.43	1097.46
603.78	1094.83
604.13	1092.20
604.48	1089.25
604.83	1086.77
605.18	1084.03
605.53	1080.95
605.87	1077.60
606.22	1074.73
606.57	1071.50
606.92	1068.41
607.27	1065.58
607.62	1063.15
607.96	1060.19
608.31	1057.49
608.66	1054.19
609.01	1051.09
609.36	1047.77
609.70	1044.16
610.05	1040.69
610.40	1037.25
610.75	1033.44
611.10	1030.01
611.44	1026.03
611.79	1022.83
612.14	1018.83
612.49	1014.73
612.83	1010.93
613.18	1007.39
613.53	1003.88
613.88	999.65
614.22	995.80
614.57	991.47
614.92	987.26
615.27	983.70
615.61	979.77
615.96	976.03
616.31	972.36
616.65	969.26
617.00	965.98
617.35	962.49
617.70	958.62
618.04	954.83
618.39	951.18
618.74	947.62
619.08	943.60
619.43	940.07
619.78	936.82
620.12	933.14
620.47	929.40
620.82	925.37
621.16	922.12
621.51	918.74
621.85	915.11
622.20	911.14
622.55	907.09
622.89	903.45
623.24	899.80
623.59	896.42
623.93	892.69
624.28	888.92
624.62	885.07
624.97	881.73
625.32	878.25
625.66	874.45
626.01	870.80
626.35	867.23
626.70	863.41
627.04	859.72
627.39	855.90
627.73	852.22
628.08	848.60
628.43	844.80
628.77	840.79
629.12	837.04
629.46	833.19
629.81	829.33
630.15	825.26
630.50	821.34
630.84	816.99
631.19	812.59
631.53	808.62
631.88	804.72
632.22	800.37
632.57	796.66
632.91	792.56
633.26	788.54
633.60	784.39
633.95	780.70
634.29	776.91
634.64	773.13
634.98	769.36
635.32	765.67
635.67	762.20
636.01	758.78
636.36	755.24
636.70	751.68
637.05	748.02
637.39	744.97
637.73	741.66
638.08	738.66
638.42	735.53
638.77	732.28
639.11	728.61
639.45	725.44
639.80	721.95
640.14	718.75
640.49	715.37
640.83	711.92
641.17	708.39
641.52	704.82
641.86	701.53
642.20	698.40
642.55	695.00
642.89	691.59
643.23	688.04
643.58	684.83
643.92	681.67
644.26	678.53
644.61	674.92
644.95	671.62
645.29	667.79
645.64	663.98
645.98	660.70
646.32	657.45
646.66	654.00
647.01	650.37
647.35	647.05
647.69	643.91
648.04	640.88
648.38	637.59
648.72	634.06
649.06	630.57
649.41	626.89
649.75	623.37
650.09	619.84
650.43	616.35
650.78	612.68
651.12	609.39
651.46	606.08
651.80	602.90
652.14	599.56
652.49	596.61
652.83	593.60
653.17	590.18
653.51	587.05
653.85	583.64
654.20	580.61
654.54	577.14
654.88	573.75
655.22	570.20
655.56	566.86
655.90	564.11
656.25	561.09
656.59	558.14
656.93	555.25
657.27	552.16
657.61	549.04
657.95	546.26
658.29	543.16
658.64	540.10
658.98	536.89
659.32	533.81
659.66	530.72
660.00	527.79
660.34	524.78
660.68	521.86
661.02	519.03
661.36	516.47
661.70	513.85
662.05	511.14
662.39	508.69
662.73	506.30
663.07	503.49
663.41	501.11
663.75	498.53
664.09	495.97
664.43	493.48
664.77	491.16
665.11	488.54
665.45	486.14
665.79	483.55
666.13	481.07
666.47	478.78
666.81	476.31
667.15	473.82
667.49	471.45
667.83	469.20
668.17	466.77
668.51	464.27
668.85	461.92
669.19	459.77
669.53	457.45
669.87	454.93
670.21	452.70
670.55	450.37
670.89	448.29
671.23	446.22
671.57	444.30
671.91	442.08
672.25	440.00
672.58	437.98
672.92	436.24
673.26	434.56
673.60	432.54
673.94	430.69
674.28	428.84
674.62	427.13
674.96	425.10
675.30	423.49
675.64	421.48
675.97	419.77
676.31	418.02
676.65	416.35
676.99	414.76
677.33	412.95
677.67	411.28
678.01	409.36
678.34	407.52
678.68	405.66
679.02	403.95
679.36	402.32
679.70	400.56
680.04	398.73
680.37	396.80
680.71	395.14
681.05	393.57
681.39	392.02
681.73	390.40
682.06	388.94
682.40	387.30
682.74	385.85
683.08	384.10
683.42	382.42
683.75	380.83
684.09	379.18
684.43	377.62
684.77	376.10
685.10	374.66
685.44	373.10
685.78	371.54
686.12	370.16
686.45	368.76
686.79	367.21
687.13	365.73
687.46	364.26
687.80	362.85
688.14	361.28
688.48	359.85
688.81	358.33
689.15	357.06
689.49	355.68
689.82	354.28
690.16	353.01
690.50	351.70
690.83	350.43
691.17	349.10
691.51	347.80
691.84	346.46
692.18	345.20
692.52	343.99
692.85	342.78
693.19	341.61
693.52	340.41
693.86	339.17
694.20	338.00
694.53	336.90
694.87	335.75
695.21	334.51
695.54	333.28
695.88	331.97
696.21	330.76
696.55	329.66
696.88	328.52
697.22	327.40
697.56	326.42
697.89	325.21
698.23	324.17
698.56	323.05
698.90	321.93
699.23	320.67
699.57	319.57
699.90	318.47
700.24	317.31
700.58	316.09
700.91	315.12
701.25	314.20
701.58	313.27
701.92	312.23
702.25	311.32
702.59	310.32
702.92	309.55
703.26	308.51
703.59	307.56
703.93	306.89
704.26	306.03
704.60	305.08
704.93	304.19
705.26	303.29
705.60	302.50
705.93	301.74
706.27	301.18
706.60	300.41
706.94	299.67
707.27	298.81
707.61	298.12
707.94	297.41
708.27	296.59
708.61	295.73
708.94	294.93
709.28	294.30
709.61	293.54
709.94	292.97
710.28	292.16
710.61	291.45
710.95	290.58
711.28	290.05
711.61	289.31
711.95	288.71
712.28	288.11
712.61	287.36
712.95	286.75
713.28	286.03
713.61	285.31
713.95	284.68
714.28	284.03
714.61	283.30
714.95	282.63
715.28	281.92
715.61	281.31
715.95	280.69
716.28	280.07
716.61	279.61
716.95	278.90
717.28	278.41
717.61	277.89
717.94	277.39
718.28	276.61
718.61	276.08
718.94	275.49
719.27	274.86
719.61	274.50
719.94	273.80
720.27	273.28
720.60	272.78
720.94	272.33
721.27	271.94
721.60	271.43
721.93	270.97
722.27	270.57
722.60	270.21
722.93	269.80
723.26	269.37
723.59	268.89
723.93	268.43
724.26	268.04
724.59	267.57
724.92	267.10
725.25	266.75
725.59	266.20
725.92	265.88
726.25	265.58
726.58	265.09
726.91	264.89
727.24	264.51
727.57	264.17
727.91	263.67
728.24	263.23
728.57	262.84
728.90	262.50
729.23	262.03
729.56	261.66
729.89	261.19
730.22	260.83
730.55	260.53
730.89	260.23
731.22	259.80
731.55	259.51
731.88	259.14
732.21	258.86
732.54	258.61
732.87	258.27
733.20	257.86
733.53	257.65
733.86	257.26
734.19	256.96
734.52	256.75
734.85	256.56
735.18	256.30
735.51	256.11
735.84	255.82
736.17	255.75
736.50	255.41
736.83	255.44
737.16	255.10
737.49	254.66
737.82	254.32
738.15	254.16
738.48	253.86
738.81	253.59
739.14	253.30
739.47	253.00
739.80	252.65
740.13	252.43
740.46	252.09
740.79	251.94
741.12	251.70
741.45	251.44
741.78	251.10
742.11	250.81
742.44	250.61
742.77	250.45
743.10	250.09
743.43	249.84
743.75	249.36
744.08	249.37
744.41	249.25
744.74	249.15
745.07	248.94
745.40	248.74
745.73	248.62
746.06	248.35
746.39	248.37
746.71	248.28
747.04	248.15
747.37	247.97
747.70	247.66
748.03	247.49
748.36	247.28
748.68	247.14
749.01	247.03
749.34	246.80
749.67	246.54
750.00	246.41
750.33	246.48
750.65	246.35
750.98	245.93
751.31	245.75
751.64	245.50
751.97	245.32
752.29	245.12
752.62	244.86
752.95	244.56
753.28	244.21
753.60	243.98
753.93	243.76
754.26	243.62
754.59	243.34
754.91	243.05
755.24	242.84
755.57	242.70
755.90	242.42
756.22	242.22
756.55	242.05
756.88	241.74
757.20	241.36
757.53	241.16
757.86	241.04
758.19	240.83
758.51	240.81
758.84	240.76
759.17	240.58
759.49	240.49
759.82	240.55
760.15	240.53
760.47	240.34
760.80	240.11
761.13	239.87
761.45	239.81
761.78	239.65
762.11	239.57
762.43	239.47
762.76	239.39
763.08	239.34
763.41	239.23
763.74	239.22
764.06	239.12
764.39	238.96
764.71	238.83
765.04	238.80
765.37	238.52
765.69	238.39
766.02	238.23
766.34	238.01
766.67	237.89
767.00	237.78
767.32	237.71
767.65	237.70
767.97	237.54
768.30	237.45
768.62	237.40
768.95	237.15
769.27	236.94
769.60	236.79
769.92	236.56
770.25	236.30
770.57	236.08
770.90	235.87
771.22	235.76
771.55	235.64
771.87	235.45
772.20	235.30
772.52	235.28
772.85	235.52
773.17	235.47
773.50	235.24
773.82	235.01
774.15	234.85
774.47	234.77
774.80	234.73
775.12	234.53
775.45	234.48
775.77	234.45
776.09	234.41
776.42	234.24
776.74	234.28
777.07	234.32
777.39	234.30
777.72	234.26
778.04	234.21
778.36	234.19
778.69	234.18
779.01	234.17
779.33	233.94
779.66	233.64
779.98	233.51
780.31	233.53
780.63	233.64
780.95	233.70
781.28	233.64
781.60	233.67
781.92	233.70
782.25	233.52
782.57	233.46
782.89	233.44
783.22	233.45
783.54	233.35
783.86	233.32
784.19	233.22
784.51	233.31
784.83	233.22
785.16	233.11
785.48	233.14
785.80	233.05
786.12	233.02
786.45	233.00
786.77	233.09
787.09	233.03
787.42	232.87
787.74	232.86
788.06	232.83
788.38	232.71
788.71	232.77
789.03	232.86
789.35	232.89
789.67	232.94
789.99	232.96
790.32	232.98
790.64	233.03
790.96	233.22
