SpectraSuite Data File
++++++++++++++++++++++++++++++++++++
Date: Fri Feb 01 14:41:07 EST 2013
User: group
Dark Spectrum Present: No
Reference Spectrum Present: No
Number of Sampled Component Spectra: 1
Spectrometers: USB2E7196
Integration Time (usec): 70000 (USB2E7196)
Spectra Averaged: 10 (USB2E7196)
Boxcar Smoothing: 10 (USB2E7196)
Correct for Electrical Dark: No (USB2E7196)
Strobe/Lamp Enabled: No (USB2E7196)
Correct for Detector Non-linearity: No (USB2E7196)
Correct for Stray Light: No (USB2E7196)
Number of Pixels in Processed Spectrum: 2048
>>>>>Begin Processed Spectral Data<<<<<
339.09	0.00
339.48	216.60
339.86	216.00
340.24	217.60
340.63	220.30
341.01	223.20
341.39	224.40
341.78	223.10
342.16	226.80
342.54	225.40
342.93	214.06
343.31	224.81
343.69	225.30
344.07	225.82
344.46	226.39
344.84	226.78
345.22	226.97
345.60	227.20
345.99	227.44
346.37	227.53
346.75	227.66
347.13	227.78
347.52	227.85
347.90	228.12
348.28	228.16
348.66	228.26
349.05	228.34
349.43	228.49
349.81	228.49
350.19	228.48
350.57	228.46
350.96	228.52
351.34	228.75
351.72	228.74
352.10	228.79
352.48	228.78
352.87	228.86
353.25	229.02
353.63	229.08
354.01	229.09
354.39	229.14
354.77	229.24
355.15	229.37
355.54	229.36
355.92	229.29
356.30	229.35
356.68	229.60
357.06	229.68
357.44	229.68
357.82	229.89
358.20	230.02
358.58	230.12
358.97	230.22
359.35	230.26
359.73	230.42
360.11	230.59
360.49	230.65
360.87	230.70
361.25	230.71
361.63	230.81
362.01	230.90
362.39	230.94
362.77	230.98
363.15	230.99
363.53	231.12
363.91	231.29
364.29	231.35
364.67	231.11
365.05	231.04
365.43	231.04
365.81	231.13
366.19	231.22
366.57	231.28
366.95	231.32
367.33	231.25
367.71	231.37
368.09	231.35
368.47	231.28
368.85	231.20
369.23	231.28
369.61	231.12
369.99	231.21
370.37	231.27
370.75	231.28
371.13	231.12
371.51	230.97
371.89	230.82
372.27	230.78
372.65	230.82
373.03	230.77
373.41	230.79
373.78	230.64
374.16	230.60
374.54	230.49
374.92	230.39
375.30	230.34
375.68	230.15
376.06	229.99
376.44	230.01
376.82	230.02
377.19	229.81
377.57	229.82
377.95	229.67
378.33	229.55
378.71	229.36
379.09	229.31
379.47	229.30
379.84	229.17
380.22	229.07
380.60	228.87
380.98	228.80
381.36	228.67
381.73	228.53
382.11	228.34
382.49	228.18
382.87	228.00
383.25	227.90
383.62	228.09
384.00	228.02
384.38	227.95
384.76	227.86
385.13	227.95
385.51	227.84
385.89	227.73
386.27	227.60
386.64	227.61
387.02	227.64
387.40	227.58
387.78	227.55
388.15	227.50
388.53	227.50
388.91	227.39
389.29	227.31
389.66	227.40
390.04	227.37
390.42	227.48
390.79	227.57
391.17	227.54
391.55	227.30
391.92	227.32
392.30	227.26
392.68	227.15
393.05	227.19
393.43	227.15
393.81	227.12
394.18	227.17
394.56	227.16
394.94	227.11
395.31	227.11
395.69	227.20
396.06	227.24
396.44	227.26
396.82	227.44
397.19	227.57
397.57	227.54
397.95	227.62
398.32	227.50
398.70	227.45
399.07	227.63
399.45	227.65
399.82	227.71
400.20	227.78
400.58	227.90
400.95	227.87
401.33	228.09
401.70	228.41
402.08	228.51
402.45	228.65
402.83	228.76
403.20	228.84
403.58	229.00
403.95	229.16
404.33	229.34
404.71	229.46
405.08	229.72
405.46	229.86
405.83	230.02
406.21	230.28
406.58	230.59
406.96	230.75
407.33	231.01
407.70	231.28
408.08	231.67
408.45	231.84
408.83	232.05
409.20	232.20
409.58	232.30
409.95	232.65
410.33	233.00
410.70	233.31
411.08	233.71
411.45	234.06
411.82	234.44
412.20	234.83
412.57	235.38
412.95	235.57
413.32	236.08
413.69	236.54
414.07	237.06
414.44	237.60
414.82	238.22
415.19	238.82
415.56	239.44
415.94	240.02
416.31	240.87
416.68	241.57
417.06	242.40
417.43	243.21
417.81	244.00
418.18	244.84
418.55	245.80
418.93	246.82
419.30	247.80
419.67	248.90
420.04	250.06
420.42	251.10
420.79	252.61
421.16	253.84
421.54	255.23
421.91	256.64
422.28	258.10
422.66	259.50
423.03	261.13
423.40	262.58
423.77	264.23
424.15	265.79
424.52	267.50
424.89	269.41
425.26	271.12
425.64	272.68
426.01	274.43
426.38	276.28
426.75	278.14
427.13	280.08
427.50	282.09
427.87	284.15
428.24	286.20
428.61	288.10
428.99	290.48
429.36	292.76
429.73	294.95
430.10	297.28
430.47	299.59
430.85	301.95
431.22	304.55
431.59	307.30
431.96	309.83
432.33	312.63
432.70	315.24
433.08	318.41
433.45	321.53
433.82	324.58
434.19	327.96
434.56	331.12
434.93	334.18
435.30	337.19
435.68	340.46
436.05	343.65
436.42	346.83
436.79	349.61
437.16	352.80
437.53	356.11
437.90	359.26
438.27	362.28
438.64	365.30
439.01	368.24
439.38	370.68
439.75	373.07
440.13	375.98
440.50	378.67
440.87	380.82
441.24	383.12
441.61	385.40
441.98	386.99
442.35	388.96
442.72	390.94
443.09	392.91
443.46	393.99
443.83	394.68
444.20	395.04
444.57	395.78
444.94	395.99
445.31	396.30
445.68	396.69
446.05	396.77
446.42	396.40
446.79	395.90
447.16	395.15
447.53	394.79
447.90	393.33
448.27	391.82
448.64	389.87
449.01	388.33
449.37	386.11
449.74	383.94
450.11	381.57
450.48	378.80
450.85	375.87
451.22	373.38
451.59	370.99
451.96	368.79
452.33	365.93
452.70	363.26
453.07	360.09
453.43	356.68
453.80	353.60
454.17	350.47
454.54	347.55
454.91	344.69
455.28	341.66
455.65	338.79
456.02	336.29
456.38	334.00
456.75	331.11
457.12	328.59
457.49	326.08
457.86	323.55
458.23	321.42
458.59	319.02
458.96	316.82
459.33	314.86
459.70	312.86
460.07	311.14
460.43	309.14
460.80	307.26
461.17	305.61
461.54	303.98
461.91	302.37
462.27	300.68
462.64	299.19
463.01	297.76
463.38	296.30
463.74	294.52
464.11	293.15
464.48	291.87
464.85	290.50
465.21	289.49
465.58	288.30
465.95	287.03
466.32	286.05
466.68	284.90
467.05	283.73
467.42	282.62
467.78	281.51
468.15	280.43
468.52	279.60
468.88	278.53
469.25	277.49
469.62	276.73
469.98	275.92
470.35	275.07
470.72	274.20
471.08	273.39
471.45	272.81
471.82	272.06
472.18	271.34
472.55	270.82
472.92	270.13
473.28	269.51
473.65	268.86
474.02	268.19
474.38	267.52
474.75	267.15
475.11	266.77
475.48	266.37
475.85	266.10
476.21	265.77
476.58	265.62
476.94	265.25
477.31	264.81
477.67	264.49
478.04	264.33
478.41	264.15
478.77	264.16
479.14	263.71
479.50	263.51
479.87	263.43
480.23	263.31
480.60	263.21
480.96	263.10
481.33	263.11
481.69	263.10
482.06	263.20
482.42	263.12
482.79	263.06
483.15	263.12
483.52	263.13
483.88	263.29
484.25	263.28
484.61	263.59
484.98	263.90
485.34	264.24
485.71	264.38
486.07	264.67
486.44	264.68
486.80	265.21
487.17	265.69
487.53	266.09
487.90	266.58
488.26	267.06
488.62	267.63
488.99	268.19
489.35	268.82
489.72	269.43
490.08	270.24
490.44	270.95
490.81	271.76
491.17	272.61
491.54	273.59
491.90	274.62
492.26	275.54
492.63	276.53
492.99	277.67
493.36	279.02
493.72	280.48
494.08	282.09
494.45	283.47
494.81	285.07
495.17	286.90
495.54	288.71
495.90	290.64
496.26	292.67
496.63	294.83
496.99	297.15
497.35	299.58
497.72	302.05
498.08	304.64
498.44	307.30
498.80	310.21
499.17	313.07
499.53	316.11
499.89	319.62
500.26	323.12
500.62	326.68
500.98	330.48
501.34	334.27
501.71	338.31
502.07	342.58
502.43	346.90
502.79	351.27
503.16	356.06
503.52	360.83
503.88	365.99
504.24	371.33
504.60	376.85
504.97	382.52
505.33	388.51
505.69	394.87
506.05	401.27
506.41	407.73
506.78	414.63
507.14	421.60
507.50	428.64
507.86	436.23
508.22	443.84
508.59	451.59
508.95	459.94
509.31	468.38
509.67	476.99
510.03	485.71
510.39	494.91
510.75	504.26
511.12	513.80
511.48	523.59
511.84	533.49
512.20	543.54
512.56	554.04
512.92	564.69
513.28	575.49
513.64	586.52
514.00	598.07
514.37	609.71
514.73	621.58
515.09	633.63
515.45	645.63
515.81	658.15
516.17	670.97
516.53	683.74
516.89	696.53
517.25	709.57
517.61	723.00
517.97	736.34
518.33	749.81
518.69	763.81
519.05	777.91
519.41	792.30
519.77	806.96
520.13	821.76
520.49	836.41
520.85	851.17
521.21	866.31
521.57	881.54
521.93	896.38
522.29	912.23
522.65	927.52
523.01	942.95
523.37	958.47
523.73	974.15
524.09	989.89
524.45	1006.05
524.81	1022.72
525.17	1039.82
525.53	1056.75
525.89	1073.67
526.25	1090.61
526.61	1107.09
526.97	1124.48
527.33	1141.36
527.68	1158.31
528.04	1175.58
528.40	1193.16
528.76	1210.94
529.12	1228.35
529.48	1246.23
529.84	1263.13
530.20	1281.22
530.56	1299.45
530.91	1317.86
531.27	1335.94
531.63	1353.66
531.99	1371.74
532.35	1389.10
532.71	1405.82
533.07	1423.38
533.42	1440.77
533.78	1458.34
534.14	1476.39
534.50	1492.75
534.86	1509.95
535.21	1526.88
535.57	1544.36
535.93	1561.10
536.29	1577.63
536.65	1594.64
537.00	1611.02
537.36	1628.30
537.72	1644.43
538.08	1660.33
538.44	1676.14
538.79	1692.07
539.15	1708.12
539.51	1724.20
539.87	1740.42
540.22	1756.69
540.58	1772.75
540.94	1788.21
541.29	1803.13
541.65	1817.64
542.01	1833.44
542.37	1848.56
542.72	1863.22
543.08	1877.40
543.44	1892.18
543.79	1905.75
544.15	1919.60
544.51	1933.99
544.87	1947.62
545.22	1960.69
545.58	1974.13
545.94	1986.79
546.29	1999.50
546.65	2011.65
547.01	2023.33
547.36	2034.74
547.72	2045.78
548.07	2056.82
548.43	2068.19
548.79	2079.21
549.14	2090.01
549.50	2100.02
549.86	2109.89
550.21	2119.98
550.57	2129.81
550.92	2139.21
551.28	2149.07
551.64	2158.26
551.99	2167.26
552.35	2176.00
552.70	2185.24
553.06	2194.53
553.41	2203.54
553.77	2212.20
554.13	2221.41
554.48	2230.10
554.84	2238.46
555.19	2246.40
555.55	2254.00
555.90	2260.96
556.26	2268.23
556.61	2275.47
556.97	2282.19
557.32	2289.40
557.68	2295.98
558.03	2302.83
558.39	2309.99
558.74	2317.19
559.10	2323.72
559.45	2330.62
559.81	2337.74
560.16	2343.75
560.52	2348.85
560.87	2354.62
561.23	2359.29
561.58	2364.36
561.94	2368.93
562.29	2373.48
562.64	2378.08
563.00	2382.51
563.35	2388.08
563.71	2393.53
564.06	2398.91
564.42	2403.84
564.77	2408.54
565.12	2413.47
565.48	2417.56
565.83	2420.61
566.19	2423.69
566.54	2426.33
566.89	2428.67
567.25	2430.84
567.60	2434.36
567.96	2437.13
568.31	2439.39
568.66	2442.04
569.02	2443.96
569.37	2445.52
569.72	2447.29
570.08	2449.35
570.43	2450.84
570.78	2451.22
571.14	2450.84
571.49	2450.87
571.84	2451.79
572.20	2451.10
572.55	2450.47
572.90	2449.87
573.26	2449.78
573.61	2449.22
573.96	2448.82
574.31	2446.93
574.67	2444.52
575.02	2442.09
575.37	2440.17
575.72	2437.14
576.08	2435.30
576.43	2432.48
576.78	2429.95
577.13	2428.10
577.49	2425.60
577.84	2422.39
578.19	2419.56
578.54	2416.37
578.90	2412.53
579.25	2407.99
579.60	2404.15
579.95	2400.10
580.30	2395.69
580.66	2390.73
581.01	2386.42
581.36	2382.48
581.71	2379.04
582.06	2375.23
582.42	2370.12
582.77	2365.35
583.12	2360.99
583.47	2356.23
583.82	2352.40
584.17	2347.82
584.53	2342.65
584.88	2337.34
585.23	2332.59
585.58	2327.73
585.93	2323.30
586.28	2318.82
586.63	2314.47
586.98	2310.17
587.34	2305.47
587.69	2300.60
588.04	2296.02
588.39	2291.27
588.74	2284.17
589.09	2278.11
589.44	2271.90
589.79	2266.84
590.14	2261.61
590.49	2255.89
590.84	2249.59
591.19	2243.50
591.54	2236.69
591.89	2229.45
592.25	2223.03
592.60	2215.62
592.95	2207.82
593.30	2200.30
593.65	2192.50
594.00	2185.04
594.35	2178.30
594.70	2170.56
595.05	2163.69
595.40	2155.70
595.75	2147.45
596.10	2141.15
596.45	2134.73
596.80	2128.86
597.15	2122.27
597.50	2114.91
597.85	2108.09
598.19	2101.88
598.54	2094.90
598.89	2088.71
599.24	2082.94
599.59	2076.33
599.94	2070.47
600.29	2064.09
600.64	2057.36
600.99	2050.15
601.34	2043.26
601.69	2035.30
602.04	2028.62
602.39	2021.33
602.74	2015.19
603.08	2008.86
603.43	2002.20
603.78	1994.86
604.13	1986.84
604.48	1978.97
604.83	1971.74
605.18	1964.92
605.53	1956.11
605.87	1947.39
606.22	1939.75
606.57	1931.15
606.92	1922.81
607.27	1914.83
607.62	1907.81
607.96	1900.67
608.31	1893.85
608.66	1885.45
609.01	1877.15
609.36	1868.78
609.70	1859.60
610.05	1850.73
610.40	1841.77
610.75	1833.28
611.10	1823.61
611.44	1814.25
611.79	1805.65
612.14	1796.74
612.49	1786.85
612.83	1778.12
613.18	1769.80
613.53	1760.90
613.88	1751.80
614.22	1743.08
614.57	1733.65
614.92	1724.16
615.27	1715.21
615.61	1705.91
615.96	1697.43
616.31	1689.54
616.65	1681.77
617.00	1674.17
617.35	1665.76
617.70	1657.38
618.04	1648.42
618.39	1640.40
618.74	1632.22
619.08	1623.78
619.43	1615.55
619.78	1607.90
620.12	1600.08
620.47	1591.50
620.82	1582.60
621.16	1574.56
621.51	1566.66
621.85	1558.74
622.20	1549.99
622.55	1541.45
622.89	1533.25
623.24	1525.24
623.59	1516.93
623.93	1508.43
624.28	1500.26
624.62	1492.41
624.97	1484.37
625.32	1476.72
625.66	1469.29
626.01	1461.47
626.35	1453.44
626.70	1445.33
627.04	1437.34
627.39	1429.03
627.73	1420.99
628.08	1413.47
628.43	1405.37
628.77	1397.03
629.12	1388.49
629.46	1380.61
629.81	1372.18
630.15	1363.56
630.50	1354.97
630.84	1346.08
631.19	1337.45
631.53	1329.00
631.88	1320.22
632.22	1311.56
632.57	1303.30
632.91	1294.57
633.26	1286.10
633.60	1277.44
633.95	1269.10
634.29	1260.87
634.64	1253.18
634.98	1245.23
635.32	1237.70
635.67	1230.18
636.01	1222.46
636.36	1215.06
636.70	1207.76
637.05	1200.40
637.39	1193.76
637.73	1186.61
638.08	1180.21
638.42	1173.34
638.77	1166.49
639.11	1159.35
639.45	1152.41
639.80	1144.97
640.14	1137.97
640.49	1131.18
640.83	1124.31
641.17	1117.44
641.52	1110.37
641.86	1103.10
642.20	1096.36
642.55	1089.05
642.89	1082.11
643.23	1075.32
643.58	1068.98
643.92	1061.72
644.26	1054.99
644.61	1048.24
644.95	1041.60
645.29	1033.91
645.64	1026.25
645.98	1019.17
646.32	1012.60
646.66	1005.55
647.01	998.77
647.35	992.10
647.69	985.44
648.04	979.18
648.38	972.30
648.72	965.36
649.06	958.79
649.41	951.99
649.75	945.05
650.09	938.13
650.43	931.20
650.78	923.95
651.12	917.49
651.46	910.91
651.80	904.27
652.14	897.69
652.49	891.58
652.83	885.53
653.17	878.84
653.51	872.05
653.85	865.84
654.20	859.66
654.54	853.19
654.88	846.57
655.22	839.68
655.56	833.24
655.90	827.11
656.25	820.84
656.59	814.82
656.93	808.98
657.27	803.33
657.61	797.14
657.95	791.59
658.29	786.06
658.64	780.09
658.98	773.86
659.32	767.85
659.66	762.02
660.00	756.49
660.34	750.80
660.68	745.42
661.02	739.77
661.36	734.36
661.70	729.12
662.05	724.13
662.39	719.26
662.73	714.24
663.07	709.34
663.41	704.50
663.75	699.51
664.09	694.57
664.43	689.57
664.77	684.99
665.11	680.23
665.45	675.30
665.79	670.50
666.13	666.03
666.47	661.55
666.81	656.80
667.15	651.81
667.49	647.49
667.83	642.98
668.17	638.56
668.51	633.86
668.85	629.49
669.19	625.41
669.53	621.12
669.87	616.77
670.21	612.74
670.55	608.60
670.89	604.83
671.23	601.06
671.57	597.28
671.91	593.47
672.25	589.47
672.58	585.76
672.92	582.13
673.26	578.59
673.60	574.79
673.94	571.38
674.28	568.06
674.62	564.81
674.96	561.30
675.30	558.00
675.64	554.68
675.97	551.23
676.31	547.78
676.65	544.61
676.99	541.76
677.33	538.30
677.67	534.97
678.01	531.36
678.34	528.14
678.68	524.75
679.02	521.54
679.36	518.41
679.70	515.30
680.04	512.12
680.37	509.08
680.71	506.13
681.05	503.34
681.39	500.65
681.73	497.63
682.06	494.94
682.40	492.24
682.74	489.57
683.08	486.96
683.42	484.13
683.75	481.33
684.09	478.19
684.43	475.50
684.77	472.70
685.10	469.98
685.44	467.11
685.78	464.51
686.12	461.92
686.45	459.46
686.79	456.89
687.13	454.53
687.46	451.85
687.80	449.30
688.14	446.47
688.48	443.85
688.81	441.29
689.15	438.82
689.49	436.41
689.82	434.04
690.16	431.45
690.50	429.04
690.83	426.68
691.17	424.45
691.51	422.09
691.84	420.16
692.18	418.02
692.52	415.74
692.85	413.62
693.19	411.54
693.52	409.13
693.86	406.82
694.20	404.65
694.53	402.67
694.87	400.61
695.21	398.62
695.54	396.62
695.88	394.40
696.21	392.38
696.55	390.28
696.88	388.36
697.22	386.41
697.56	384.50
697.89	382.58
698.23	380.78
698.56	379.07
698.90	377.14
699.23	375.05
699.57	373.30
699.90	371.40
700.24	369.48
700.58	367.84
700.91	366.21
701.25	364.49
701.58	362.50
701.92	361.00
702.25	359.61
702.59	358.00
702.92	356.58
703.26	355.18
703.59	353.70
703.93	352.21
704.26	350.89
704.60	349.46
704.93	347.98
705.26	346.50
705.60	345.13
705.93	343.60
706.27	342.63
706.60	341.31
706.94	339.97
707.27	338.66
707.61	337.19
707.94	335.91
708.27	334.52
708.61	333.30
708.94	331.87
709.28	330.45
709.61	329.26
709.94	328.21
710.28	326.95
710.61	325.76
710.95	324.38
711.28	323.29
711.61	322.09
711.95	321.02
712.28	319.87
712.61	318.49
712.95	317.47
713.28	316.21
713.61	315.17
713.95	314.23
714.28	313.23
714.61	312.49
714.95	311.40
715.28	310.40
715.61	309.40
715.95	308.58
716.28	307.61
716.61	306.63
716.95	305.49
717.28	304.52
717.61	303.64
717.94	302.77
718.28	301.81
718.61	301.11
718.94	300.23
719.27	299.43
719.61	298.76
719.94	297.98
720.27	297.17
720.60	296.34
720.94	295.70
721.27	294.97
721.60	294.24
721.93	293.54
722.27	293.05
722.60	292.48
722.93	291.77
723.26	291.24
723.59	290.50
723.93	289.90
724.26	289.15
724.59	288.45
724.92	287.91
725.25	287.18
725.59	286.32
725.92	285.70
726.25	285.03
726.58	284.45
726.91	283.84
727.24	283.25
727.57	282.63
727.91	281.90
728.24	281.36
728.57	280.70
728.90	280.15
729.23	279.38
729.56	278.92
729.89	278.30
730.22	277.55
730.55	277.14
730.89	276.59
731.22	276.14
731.55	275.52
731.88	274.95
732.21	274.48
732.54	274.02
732.87	273.57
733.20	273.09
733.53	272.52
733.86	272.05
734.19	271.59
734.52	271.08
734.85	270.67
735.18	270.03
735.51	269.52
735.84	269.19
736.17	268.78
736.50	268.24
736.83	268.02
737.16	267.66
737.49	267.10
737.82	266.72
738.15	266.32
738.48	265.93
738.81	265.51
739.14	265.13
739.47	264.75
739.80	264.28
740.13	263.95
740.46	263.44
740.79	263.06
741.12	262.61
741.45	262.28
741.78	261.80
742.11	261.44
742.44	261.10
742.77	260.71
743.10	260.29
743.43	259.89
743.75	259.38
744.08	259.28
744.41	259.02
744.74	258.65
745.07	258.22
745.40	257.91
745.73	257.58
746.06	257.13
746.39	256.78
746.71	256.39
747.04	255.90
747.37	255.63
747.70	255.12
748.03	254.84
748.36	254.52
748.68	254.14
749.01	253.83
749.34	253.41
749.67	253.08
750.00	252.84
750.33	252.65
750.65	252.29
750.98	251.66
751.31	251.39
751.64	251.02
751.97	250.77
752.29	250.50
752.62	250.18
752.95	249.90
753.28	249.67
753.60	249.35
753.93	249.18
754.26	248.98
754.59	248.85
754.91	248.57
755.24	248.27
755.57	248.09
755.90	247.79
756.22	247.48
756.55	247.25
756.88	246.98
757.20	246.59
757.53	246.34
757.86	246.31
758.19	246.01
758.51	245.94
758.84	245.69
759.17	245.49
759.49	245.37
759.82	245.35
760.15	245.23
760.47	245.20
760.80	244.98
761.13	244.83
761.45	244.59
761.78	244.39
762.11	244.31
762.43	244.12
762.76	244.07
763.08	243.99
763.41	243.78
763.74	243.61
764.06	243.51
764.39	243.40
764.71	243.07
765.04	242.97
765.37	242.75
765.69	242.60
766.02	242.51
766.34	242.37
766.67	241.99
767.00	241.72
767.32	241.66
767.65	241.65
767.97	241.51
768.30	241.36
768.62	241.33
768.95	241.11
769.27	241.01
769.60	240.97
769.92	240.97
770.25	240.87
770.57	240.69
770.90	240.41
771.22	240.22
771.55	240.16
771.87	240.00
772.20	239.86
772.52	239.96
772.85	239.99
773.17	239.87
773.50	239.80
773.82	239.74
774.15	239.45
774.47	239.28
774.80	239.17
775.12	239.11
775.45	238.95
775.77	238.85
776.09	238.72
776.42	238.45
776.74	238.30
777.07	238.10
777.39	238.16
777.72	238.17
778.04	238.13
778.36	238.00
778.69	237.86
779.01	237.70
779.33	237.48
779.66	237.18
779.98	236.98
780.31	236.87
780.63	236.86
780.95	236.79
781.28	236.57
781.60	236.39
781.92	236.31
782.25	236.23
782.57	236.09
782.89	236.02
783.22	235.82
783.54	235.71
783.86	235.61
784.19	235.45
784.51	235.46
784.83	235.30
785.16	235.26
785.48	235.22
785.80	235.14
786.12	234.99
786.45	234.84
786.77	234.77
