SpectraSuite Data File
++++++++++++++++++++++++++++++++++++
Date: Fri Feb 01 14:36:58 EST 2013
User: group
Dark Spectrum Present: No
Reference Spectrum Present: No
Number of Sampled Component Spectra: 1
Spectrometers: USB2E7196
Integration Time (usec): 70000 (USB2E7196)
Spectra Averaged: 10 (USB2E7196)
Boxcar Smoothing: 10 (USB2E7196)
Correct for Electrical Dark: No (USB2E7196)
Strobe/Lamp Enabled: No (USB2E7196)
Correct for Detector Non-linearity: No (USB2E7196)
Correct for Stray Light: No (USB2E7196)
Number of Pixels in Processed Spectrum: 2048
>>>>>Begin Processed Spectral Data<<<<<
339.09	0.00
339.48	217.30
339.86	217.20
340.24	218.40
340.63	221.10
341.01	226.10
341.39	223.70
341.78	224.10
342.16	225.70
342.54	227.50
342.93	215.03
343.31	225.88
343.69	226.40
344.07	226.90
344.46	227.41
344.84	227.76
345.22	227.86
345.60	228.16
345.99	228.40
346.37	228.50
346.75	228.50
347.13	228.60
347.52	228.63
347.90	228.66
348.28	228.68
348.66	228.68
349.05	228.72
349.43	228.73
349.81	228.80
350.19	228.75
350.57	228.83
350.96	228.93
351.34	229.07
351.72	229.03
352.10	229.04
352.48	229.00
352.87	229.04
353.25	229.07
353.63	228.95
354.01	228.96
354.39	229.10
354.77	229.17
355.15	229.33
355.54	229.35
355.92	229.31
356.30	229.35
356.68	229.41
357.06	229.46
357.44	229.54
357.82	229.63
358.20	229.72
358.58	229.81
358.97	229.81
359.35	229.79
359.73	229.98
360.11	230.10
360.49	230.17
360.87	230.22
361.25	230.31
361.63	230.50
362.01	230.63
362.39	230.59
362.77	230.61
363.15	230.63
363.53	230.75
363.91	230.77
364.29	230.70
364.67	230.61
365.05	230.66
365.43	230.71
365.81	230.72
366.19	230.79
366.57	230.80
366.95	230.72
367.33	230.64
367.71	230.65
368.09	230.63
368.47	230.65
368.85	230.54
369.23	230.51
369.61	230.44
369.99	230.30
370.37	230.27
370.75	230.44
371.13	230.31
371.51	230.12
371.89	230.09
372.27	230.12
372.65	230.12
373.03	230.05
373.41	229.90
373.78	229.71
374.16	229.60
374.54	229.40
374.92	229.33
375.30	229.30
375.68	229.26
376.06	229.19
376.44	229.08
376.82	229.09
377.19	229.07
377.57	228.93
377.95	228.84
378.33	228.83
378.71	228.58
379.09	228.55
379.47	228.54
379.84	228.39
380.22	228.31
380.60	228.17
380.98	228.10
381.36	228.04
381.73	228.00
382.11	227.84
382.49	227.86
382.87	227.76
383.25	227.73
383.62	227.78
384.00	227.68
384.38	227.68
384.76	227.66
385.13	227.63
385.51	227.61
385.89	227.55
386.27	227.46
386.64	227.40
387.02	227.25
387.40	227.19
387.78	227.16
388.15	227.07
388.53	227.00
388.91	226.91
389.29	226.87
389.66	226.94
390.04	227.02
390.42	226.82
390.79	226.90
391.17	226.87
391.55	226.57
391.92	226.65
392.30	226.58
392.68	226.50
393.05	226.47
393.43	226.44
393.81	226.50
394.18	226.50
394.56	226.57
394.94	226.64
395.31	226.68
395.69	226.76
396.06	226.82
396.44	226.90
396.82	226.99
397.19	227.12
397.57	227.08
397.95	227.19
398.32	227.40
398.70	227.37
399.07	227.42
399.45	227.56
399.82	227.67
400.20	227.70
400.58	227.82
400.95	227.81
401.33	227.87
401.70	228.07
402.08	228.17
402.45	228.22
402.83	228.43
403.20	228.56
403.58	228.70
403.95	228.91
404.33	229.14
404.71	229.36
405.08	229.60
405.46	229.89
405.83	230.07
406.21	230.25
406.58	230.54
406.96	230.77
407.33	231.07
407.70	231.34
408.08	231.87
408.45	232.24
408.83	232.63
409.20	233.04
409.58	233.34
409.95	233.82
410.33	234.32
410.70	234.69
411.08	235.24
411.45	235.75
411.82	236.26
412.20	236.79
412.57	237.50
412.95	238.02
413.32	238.75
413.69	239.40
414.07	240.21
414.44	241.08
414.82	241.92
415.19	242.94
415.56	243.89
415.94	244.76
416.31	245.95
416.68	247.09
417.06	248.47
417.43	249.79
417.81	251.17
418.18	252.60
418.55	254.15
418.93	255.77
419.30	257.49
419.67	259.22
420.04	261.02
420.42	262.88
420.79	265.20
421.16	267.32
421.54	269.69
421.91	271.90
422.28	274.27
422.66	276.92
423.03	279.44
423.40	282.09
423.77	284.97
424.15	287.68
424.52	290.63
424.89	293.63
425.26	296.59
425.64	299.49
426.01	302.67
426.38	306.04
426.75	309.39
427.13	312.87
427.50	316.64
427.87	320.36
428.24	324.15
428.61	327.64
428.99	331.75
429.36	336.01
429.73	340.45
430.10	344.57
430.47	348.74
430.85	353.22
431.22	357.89
431.59	362.92
431.96	367.77
432.33	372.94
432.70	378.08
433.08	384.20
433.45	389.83
433.82	395.22
434.19	401.47
434.56	407.54
434.93	413.29
435.30	419.02
435.68	425.54
436.05	431.80
436.42	438.13
436.79	443.74
437.16	449.88
437.53	456.32
437.90	462.76
438.27	469.13
438.64	475.53
439.01	481.55
439.38	486.81
439.75	491.72
440.13	497.68
440.50	503.30
440.87	507.86
441.24	512.59
441.61	518.20
441.98	522.30
442.35	526.95
442.72	531.52
443.09	536.24
443.46	539.11
443.83	541.28
444.20	543.17
444.57	545.72
444.94	547.08
445.31	548.57
445.68	550.21
446.05	551.31
446.42	551.17
446.79	550.81
447.16	550.79
447.53	551.19
447.90	549.68
448.27	548.02
448.64	545.45
449.01	543.87
449.37	540.26
449.74	536.80
450.11	532.50
450.48	527.99
450.85	522.94
451.22	518.94
451.59	515.02
451.96	511.29
452.33	506.15
452.70	501.55
453.07	495.89
453.43	490.01
453.80	484.23
454.17	478.86
454.54	473.86
454.91	468.13
455.28	462.51
455.65	457.17
456.02	452.00
456.38	447.41
456.75	441.73
457.12	437.21
457.49	432.37
457.86	427.70
458.23	423.97
458.59	419.75
458.96	415.40
459.33	411.41
459.70	407.36
460.07	404.20
460.43	400.52
460.80	397.04
461.17	394.08
461.54	390.94
461.91	387.95
462.27	384.81
462.64	382.09
463.01	379.08
463.38	376.34
463.74	373.39
464.11	370.96
464.48	368.72
464.85	366.05
465.21	364.22
465.58	362.38
465.95	359.80
466.32	357.71
466.68	355.57
467.05	353.69
467.42	351.82
467.78	349.81
468.15	347.92
468.52	346.41
468.88	344.37
469.25	342.54
469.62	341.09
469.98	339.60
470.35	338.26
470.72	336.92
471.08	335.43
471.45	334.20
471.82	332.78
472.18	331.32
472.55	330.25
472.92	328.83
473.28	327.61
473.65	326.46
474.02	325.28
474.38	324.26
474.75	323.26
475.11	322.19
475.48	321.26
475.85	320.49
476.21	319.64
476.58	319.10
476.94	318.38
477.31	317.76
477.67	317.21
478.04	316.51
478.41	316.02
478.77	315.75
479.14	315.22
479.50	314.91
479.87	314.75
480.23	314.54
480.60	314.28
480.96	313.92
481.33	313.79
481.69	313.77
482.06	313.67
482.42	313.54
482.79	313.49
483.15	313.56
483.52	313.66
483.88	313.74
484.25	313.62
484.61	313.84
484.98	313.97
485.34	314.12
485.71	314.38
486.07	314.69
486.44	314.72
486.80	315.11
487.17	315.34
487.53	315.77
487.90	316.24
488.26	316.78
488.62	317.42
488.99	317.92
489.35	318.59
489.72	319.22
490.08	319.88
490.44	320.56
490.81	321.24
491.17	321.82
491.54	322.48
491.90	323.26
492.26	324.16
492.63	324.93
492.99	325.81
493.36	326.81
493.72	327.79
494.08	328.80
494.45	329.63
494.81	330.69
495.17	331.66
495.54	332.70
495.90	333.70
496.26	334.89
496.63	336.00
496.99	336.94
497.35	337.99
497.72	339.09
498.08	340.26
498.44	341.42
498.80	342.69
499.17	343.87
499.53	344.98
499.89	346.01
500.26	347.16
500.62	348.19
500.98	349.08
501.34	350.04
501.71	351.17
502.07	352.41
502.43	353.30
502.79	354.18
503.16	355.01
503.52	355.90
503.88	356.62
504.24	357.58
504.60	358.33
504.97	359.12
505.33	359.91
505.69	360.83
506.05	361.44
506.41	361.97
506.78	362.59
507.14	363.25
507.50	363.99
507.86	364.52
508.22	365.03
508.59	365.47
508.95	366.00
509.31	366.46
509.67	366.81
510.03	367.34
510.39	367.82
510.75	368.20
511.12	368.54
511.48	368.79
511.84	368.93
512.20	369.25
512.56	369.49
512.92	369.55
513.28	369.55
513.64	369.67
514.00	369.84
514.37	369.96
514.73	369.94
515.09	369.88
515.45	369.89
515.81	369.97
516.17	370.21
516.53	370.14
516.89	370.00
517.25	369.97
517.61	370.01
517.97	369.97
518.33	369.97
518.69	370.11
519.05	370.17
519.41	370.39
519.77	370.63
520.13	370.84
520.49	371.07
520.85	371.27
521.21	371.69
521.57	371.92
521.93	372.13
522.29	372.71
522.65	373.13
523.01	373.62
523.37	374.08
523.73	374.61
524.09	375.15
524.45	375.76
524.81	376.48
525.17	377.18
525.53	378.10
525.89	379.01
526.25	380.01
526.61	380.94
526.97	381.93
527.33	382.99
527.68	384.19
528.04	385.49
528.40	386.65
528.76	387.92
529.12	389.48
529.48	391.15
529.84	392.70
530.20	394.37
530.56	396.19
530.91	398.06
531.27	399.89
531.63	402.05
531.99	404.12
532.35	406.24
532.71	408.27
533.07	410.40
533.42	412.97
533.78	415.23
534.14	417.96
534.50	420.46
534.86	423.19
535.21	425.84
535.57	428.88
535.93	431.73
536.29	434.68
536.65	437.61
537.00	440.75
537.36	443.92
537.72	447.11
538.08	450.30
538.44	453.60
538.79	457.05
539.15	460.26
539.51	463.96
539.87	467.71
540.22	471.58
540.58	475.30
540.94	478.76
541.29	482.61
541.65	486.12
542.01	490.05
542.37	493.96
542.72	497.87
543.08	501.58
543.44	505.76
543.79	509.60
544.15	513.92
544.51	518.12
544.87	522.50
545.22	526.75
545.58	531.10
545.94	535.45
546.29	539.73
546.65	544.18
547.01	548.42
547.36	552.46
547.72	556.60
548.07	561.05
548.43	565.49
548.79	570.03
549.14	574.47
549.50	578.84
549.86	583.01
550.21	587.62
550.57	592.14
550.92	596.49
551.28	601.15
551.64	605.33
551.99	609.59
552.35	613.55
552.70	617.88
553.06	622.47
553.41	626.94
553.77	631.46
554.13	635.93
554.48	640.44
554.84	645.04
555.19	649.67
555.55	653.99
555.90	658.10
556.26	662.40
556.61	666.86
556.97	671.05
557.32	675.48
557.68	679.53
558.03	683.98
558.39	688.47
558.74	692.62
559.10	696.83
559.45	701.23
559.81	705.99
560.16	710.32
560.52	714.42
560.87	718.82
561.23	722.98
561.58	727.22
561.94	731.23
562.29	735.13
562.64	738.99
563.00	743.12
563.35	747.58
563.71	751.52
564.06	755.72
564.42	759.87
564.77	764.08
565.12	768.06
565.48	771.97
565.83	775.54
566.19	779.56
566.54	783.30
566.89	786.84
567.25	790.11
567.60	793.83
567.96	797.45
568.31	800.61
568.66	803.73
569.02	806.85
569.37	810.13
569.72	813.41
570.08	816.61
570.43	819.63
570.78	822.31
571.14	824.97
571.49	827.32
571.84	830.47
572.20	832.75
572.55	835.37
572.90	837.87
573.26	840.68
573.61	842.56
573.96	844.80
574.31	846.80
574.67	848.63
575.02	850.11
575.37	851.83
575.72	853.25
576.08	855.35
576.43	856.80
576.78	858.46
577.13	860.10
577.49	861.61
577.84	862.95
578.19	864.58
578.54	866.00
578.90	867.44
579.25	868.14
579.60	869.51
579.95	870.52
580.30	870.94
580.66	871.52
581.01	872.45
581.36	873.37
581.71	874.34
582.06	875.42
582.42	876.18
582.77	876.68
583.12	877.41
583.47	877.72
583.82	878.61
584.17	878.91
584.53	879.48
584.88	880.09
585.23	880.50
585.58	880.51
585.93	880.89
586.28	881.36
586.63	881.66
586.98	882.01
587.34	882.32
587.69	882.72
588.04	882.69
588.39	882.86
588.74	882.47
589.09	882.19
589.44	881.60
589.79	881.67
590.14	881.72
590.49	881.71
590.84	881.30
591.19	880.83
591.54	880.04
591.89	878.92
592.25	878.17
592.60	877.18
592.95	876.24
593.30	875.28
593.65	874.29
594.00	873.35
594.35	872.61
594.70	871.36
595.05	870.62
595.40	869.59
595.75	868.30
596.10	867.72
596.45	866.80
596.80	866.33
597.15	865.27
597.50	863.87
597.85	862.66
598.19	861.91
598.54	860.73
598.89	859.81
599.24	859.16
599.59	858.02
599.94	857.32
600.29	856.28
600.64	855.07
600.99	853.70
601.34	852.38
601.69	850.40
602.04	849.22
602.39	847.71
602.74	846.42
603.08	845.26
603.43	844.07
603.78	842.72
604.13	841.21
604.48	839.71
604.83	838.52
605.18	836.98
605.53	835.23
605.87	833.44
606.22	831.89
606.57	829.96
606.92	827.67
607.27	825.89
607.62	824.43
607.96	822.67
608.31	820.96
608.66	818.98
609.01	817.17
609.36	814.95
609.70	812.43
610.05	810.20
610.40	808.08
610.75	805.38
611.10	803.04
611.44	800.29
611.79	797.92
612.14	795.48
612.49	792.71
612.83	790.11
613.18	787.56
613.53	784.97
613.88	782.29
614.22	779.92
614.57	777.17
614.92	774.42
615.27	771.94
615.61	769.30
615.96	766.68
616.31	764.11
616.65	761.90
617.00	759.68
617.35	757.27
617.70	754.46
618.04	751.70
618.39	749.28
618.74	746.91
619.08	744.13
619.43	741.51
619.78	739.28
620.12	736.65
620.47	734.27
620.82	731.74
621.16	729.48
621.51	727.17
621.85	724.37
622.20	721.72
622.55	719.34
622.89	716.81
623.24	714.60
623.59	712.14
623.93	709.60
624.28	707.18
624.62	704.78
624.97	702.59
625.32	700.51
625.66	697.81
626.01	695.14
626.35	692.71
626.70	690.16
627.04	687.93
627.39	685.47
627.73	683.19
628.08	680.77
628.43	678.12
628.77	675.69
629.12	673.36
629.46	670.78
629.81	667.79
630.15	665.23
630.50	662.31
630.84	659.47
631.19	656.58
631.53	653.87
631.88	650.89
632.22	647.98
632.57	645.39
632.91	642.80
633.26	640.15
633.60	637.51
633.95	634.85
634.29	632.04
634.64	629.41
634.98	626.55
635.32	624.21
635.67	621.82
636.01	619.23
636.36	616.66
636.70	614.31
637.05	612.11
637.39	609.68
637.73	607.49
638.08	605.46
638.42	603.41
638.77	601.03
639.11	598.82
639.45	596.67
639.80	594.00
640.14	591.53
640.49	589.42
640.83	587.16
641.17	584.95
641.52	582.45
641.86	580.17
642.20	578.11
642.55	575.47
642.89	572.98
643.23	570.70
643.58	568.35
643.92	565.93
644.26	563.57
644.61	561.36
644.95	558.89
645.29	556.17
645.64	553.47
645.98	551.06
646.32	548.80
646.66	546.26
647.01	543.74
647.35	541.30
647.69	538.88
648.04	536.41
648.38	533.69
648.72	531.27
649.06	528.88
649.41	526.29
649.75	523.78
650.09	521.33
650.43	518.69
650.78	516.18
651.12	513.77
651.46	511.39
651.80	508.91
652.14	506.63
652.49	504.38
652.83	502.10
653.17	499.76
653.51	497.36
653.85	495.10
654.20	493.08
654.54	490.80
654.88	488.29
655.22	485.90
655.56	483.62
655.90	481.38
656.25	478.99
656.59	476.71
656.93	474.53
657.27	472.47
657.61	470.26
657.95	468.27
658.29	466.14
658.64	463.97
658.98	461.68
659.32	459.25
659.66	456.96
660.00	454.81
660.34	452.70
660.68	450.60
661.02	448.50
661.36	446.49
661.70	444.64
662.05	442.83
662.39	441.00
662.73	439.12
663.07	437.38
663.41	435.49
663.75	433.62
664.09	431.81
664.43	429.85
664.77	428.26
665.11	426.39
665.45	424.70
665.79	422.85
666.13	421.04
666.47	419.36
666.81	417.62
667.15	415.79
667.49	414.01
667.83	412.27
668.17	410.50
668.51	408.76
668.85	406.92
669.19	405.26
669.53	403.55
669.87	401.95
670.21	400.33
670.55	398.80
670.89	397.35
671.23	395.78
671.57	394.25
671.91	392.77
672.25	391.37
672.58	389.76
672.92	388.27
673.26	387.01
673.60	385.70
673.94	384.42
674.28	383.14
674.62	381.91
674.96	380.54
675.30	379.38
675.64	378.05
675.97	376.91
676.31	375.68
676.65	374.37
676.99	373.17
677.33	371.76
677.67	370.50
678.01	369.00
678.34	367.71
678.68	366.53
679.02	365.28
679.36	364.05
679.70	362.85
680.04	361.65
680.37	360.40
680.71	359.23
681.05	358.02
681.39	356.89
681.73	355.74
682.06	354.77
682.40	353.61
682.74	352.37
683.08	351.22
683.42	350.00
683.75	348.87
684.09	347.69
684.43	346.72
684.77	345.52
685.10	344.59
685.44	343.51
685.78	342.40
686.12	341.20
686.45	340.04
686.79	338.97
687.13	337.91
687.46	336.70
687.80	335.53
688.14	334.48
688.48	333.42
688.81	332.19
689.15	331.20
689.49	330.16
689.82	329.24
690.16	328.03
690.50	327.13
690.83	326.13
691.17	325.10
691.51	323.98
691.84	322.95
692.18	321.98
692.52	321.00
692.85	319.95
693.19	319.03
693.52	318.08
693.86	317.01
694.20	316.02
694.53	315.24
694.87	314.37
695.21	313.46
695.54	312.47
695.88	311.50
696.21	310.43
696.55	309.37
696.88	308.39
697.22	307.55
697.56	306.56
697.89	305.64
698.23	304.75
698.56	303.88
698.90	303.18
699.23	302.24
699.57	301.38
699.90	300.58
700.24	299.64
700.58	298.83
700.91	298.15
701.25	297.47
701.58	296.67
701.92	295.98
702.25	295.22
702.59	294.51
702.92	293.88
703.26	293.06
703.59	292.43
703.93	291.95
704.26	291.33
704.60	290.69
704.93	290.06
705.26	289.37
705.60	288.73
705.93	288.07
706.27	287.47
706.60	286.94
706.94	286.39
707.27	285.82
707.61	285.23
707.94	284.63
708.27	283.95
708.61	283.28
708.94	282.60
709.28	282.09
709.61	281.47
709.94	280.95
710.28	280.51
710.61	280.02
710.95	279.19
711.28	278.85
711.61	278.27
711.95	277.83
712.28	277.21
712.61	276.73
712.95	276.14
713.28	275.72
713.61	275.17
713.95	274.71
714.28	274.22
714.61	273.70
714.95	273.23
715.28	272.75
715.61	272.18
715.95	271.63
716.28	271.23
716.61	270.91
716.95	270.41
717.28	269.97
717.61	269.44
717.94	269.12
718.28	268.43
718.61	267.99
718.94	267.58
719.27	267.39
719.61	267.05
719.94	266.71
720.27	266.26
720.60	265.88
720.94	265.49
721.27	265.10
721.60	264.68
721.93	264.40
722.27	264.15
722.60	264.03
722.93	263.80
723.26	263.48
723.59	263.01
723.93	262.79
724.26	262.51
724.59	262.20
724.92	261.95
725.25	261.86
725.59	261.55
725.92	261.26
726.25	260.86
726.58	260.53
726.91	260.20
727.24	259.95
727.57	259.66
727.91	259.19
728.24	259.01
728.57	258.70
728.90	258.30
729.23	257.91
729.56	257.68
729.89	257.39
730.22	257.01
730.55	256.74
730.89	256.41
731.22	256.08
731.55	255.87
731.88	255.51
732.21	255.10
732.54	254.83
732.87	254.47
733.20	254.19
733.53	254.00
733.86	253.75
734.19	253.47
734.52	253.20
734.85	253.10
735.18	252.74
735.51	252.54
735.84	252.37
736.17	252.14
736.50	251.78
736.83	251.84
737.16	251.59
737.49	251.32
737.82	251.07
738.15	250.85
738.48	250.45
738.81	250.25
739.14	249.95
739.47	249.74
739.80	249.52
740.13	249.29
740.46	248.86
740.79	248.61
741.12	248.35
741.45	248.11
741.78	247.73
742.11	247.60
742.44	247.41
742.77	247.25
743.10	246.99
743.43	246.82
743.75	246.30
744.08	246.36
744.41	246.19
744.74	245.90
745.07	245.68
745.40	245.65
745.73	245.51
746.06	245.28
746.39	245.08
746.71	244.92
747.04	244.73
747.37	244.62
747.70	244.50
748.03	244.33
748.36	244.29
748.68	244.22
749.01	243.88
749.34	243.67
749.67	243.45
750.00	243.24
750.33	243.07
750.65	242.99
750.98	242.50
751.31	242.44
751.64	242.33
751.97	242.23
752.29	242.02
752.62	241.78
752.95	241.67
753.28	241.55
753.60	241.38
753.93	241.28
754.26	241.12
754.59	240.96
754.91	240.74
755.24	240.46
755.57	240.31
755.90	240.26
756.22	240.20
756.55	240.04
756.88	240.06
757.20	239.93
757.53	239.72
757.86	239.66
758.19	239.52
758.51	239.47
758.84	239.32
759.17	239.21
759.49	239.18
759.82	239.15
760.15	239.02
760.47	238.93
760.80	238.74
761.13	238.72
761.45	238.60
761.78	238.53
762.11	238.45
762.43	238.45
762.76	238.30
763.08	238.23
763.41	238.20
763.74	238.07
764.06	238.02
764.39	238.00
764.71	237.92
765.04	237.73
765.37	237.76
765.69	237.68
766.02	237.66
766.34	237.60
766.67	237.48
767.00	237.43
767.32	237.44
767.65	237.53
767.97	237.43
768.30	237.37
768.62	237.31
768.95	237.23
769.27	237.18
769.60	237.25
769.92	237.06
770.25	236.84
770.57	236.62
770.90	236.45
771.22	236.24
771.55	236.18
771.87	236.16
772.20	235.90
772.52	236.00
772.85	236.10
773.17	235.95
773.50	235.80
773.82	235.64
774.15	235.52
774.47	235.30
774.80	235.15
775.12	235.09
775.45	235.10
775.77	235.06
776.09	234.97
776.42	234.91
776.74	235.06
777.07	234.94
777.39	234.96
777.72	234.84
778.04	234.83
778.36	234.72
778.69	234.66
779.01	234.66
779.33	234.36
779.66	234.04
779.98	233.98
780.31	233.94
780.63	234.06
780.95	234.02
781.28	233.97
781.60	233.86
781.92	233.73
782.25	233.58
782.57	233.50
782.89	233.31
783.22	233.07
783.54	232.77
783.86	232.83
784.19	232.75
784.51	232.72
784.83	232.66
785.16	232.54
785.48	232.40
785.80	232.34
786.12	232.30
786.45	232.25
786.77	232.18
787.09	232.15
787.42	231.98
787.74	231.97
788.06	231.94
788.38	231.85
788.71	231.83
789.03	231.77
789.35	231.79
789.67	231.72
789.99	231.86
790.32	231.84
790.64	231.75
790.96	231.88
791.28	231.87
791.61	231.78
791.93	231.77
792.25	231.77
792.57	231.83
792.89	231.76
793.21	231.70
793.54	231.73
793.86	231.66
794.18	231.67
