SpectraSuite Data File
++++++++++++++++++++++++++++++++++++
Date: Fri Feb 01 14:36:25 EST 2013
User: group
Dark Spectrum Present: No
Reference Spectrum Present: No
Number of Sampled Component Spectra: 1
Spectrometers: USB2E7196
Integration Time (usec): 70000 (USB2E7196)
Spectra Averaged: 10 (USB2E7196)
Boxcar Smoothing: 10 (USB2E7196)
Correct for Electrical Dark: No (USB2E7196)
Strobe/Lamp Enabled: No (USB2E7196)
Correct for Detector Non-linearity: No (USB2E7196)
Correct for Stray Light: No (USB2E7196)
Number of Pixels in Processed Spectrum: 2048
>>>>>Begin Processed Spectral Data<<<<<
339.09	0.00
339.48	215.70
339.86	218.70
340.24	218.90
340.63	221.10
341.01	226.40
341.39	223.90
341.78	224.30
342.16	226.90
342.54	226.30
342.93	214.90
343.31	225.75
343.69	226.34
344.07	226.76
344.46	227.25
344.84	227.57
345.22	227.65
345.60	227.80
345.99	228.00
346.37	228.08
346.75	228.23
347.13	228.24
347.52	228.37
347.90	228.39
348.28	228.39
348.66	228.30
349.05	228.30
349.43	228.32
349.81	228.36
350.19	228.39
350.57	228.49
350.96	228.57
351.34	228.56
351.72	228.60
352.10	228.65
352.48	228.60
352.87	228.70
353.25	228.71
353.63	228.83
354.01	228.81
354.39	228.90
354.77	228.94
355.15	229.12
355.54	229.03
355.92	228.97
356.30	229.04
356.68	229.30
357.06	229.35
357.44	229.38
357.82	229.49
358.20	229.57
358.58	229.61
358.97	229.65
359.35	229.83
359.73	229.91
360.11	229.92
360.49	230.04
360.87	230.02
361.25	230.13
361.63	230.22
362.01	230.27
362.39	230.28
362.77	230.29
363.15	230.22
363.53	230.34
363.91	230.41
364.29	230.33
364.67	230.27
365.05	230.27
365.43	230.27
365.81	230.30
366.19	230.32
366.57	230.33
366.95	230.32
367.33	230.17
367.71	230.07
368.09	230.19
368.47	230.08
368.85	230.06
369.23	230.02
369.61	229.86
369.99	229.96
370.37	229.91
370.75	229.92
371.13	229.90
371.51	229.82
371.89	229.90
372.27	229.93
372.65	229.76
373.03	229.60
373.41	229.55
373.78	229.40
374.16	229.34
374.54	229.28
374.92	229.15
375.30	229.11
375.68	229.10
376.06	229.04
376.44	228.91
376.82	228.86
377.19	228.78
377.57	228.82
377.95	228.64
378.33	228.51
378.71	228.29
379.09	228.15
379.47	227.99
379.84	227.82
380.22	227.71
380.60	227.57
380.98	227.50
381.36	227.30
381.73	227.23
382.11	227.08
382.49	227.00
382.87	226.91
383.25	226.85
383.62	226.98
384.00	226.87
384.38	226.93
384.76	226.87
385.13	226.89
385.51	226.76
385.89	226.66
386.27	226.67
386.64	226.70
387.02	226.70
387.40	226.68
387.78	226.63
388.15	226.64
388.53	226.67
388.91	226.73
389.29	226.75
389.66	226.71
390.04	226.80
390.42	226.87
390.79	227.01
391.17	227.03
391.55	226.86
391.92	226.82
392.30	226.76
392.68	226.77
393.05	226.78
393.43	226.88
393.81	226.92
394.18	226.82
394.56	226.88
394.94	226.97
395.31	227.05
395.69	227.16
396.06	227.17
396.44	227.26
396.82	227.41
397.19	227.66
397.57	227.78
397.95	227.82
398.32	227.83
398.70	227.94
399.07	228.03
399.45	228.19
399.82	228.34
400.20	228.40
400.58	228.52
400.95	228.54
401.33	228.65
401.70	228.89
402.08	229.18
402.45	229.24
402.83	229.51
403.20	229.77
403.58	229.82
403.95	230.10
404.33	230.21
404.71	230.40
405.08	230.67
405.46	230.87
405.83	231.08
406.21	231.27
406.58	231.55
406.96	231.81
407.33	232.13
407.70	232.43
408.08	232.98
408.45	233.29
408.83	233.74
409.20	234.11
409.58	234.53
409.95	235.07
410.33	235.67
410.70	236.05
411.08	236.53
411.45	237.17
411.82	237.66
412.20	238.40
412.57	239.09
412.95	239.72
413.32	240.53
413.69	241.28
414.07	242.15
414.44	242.97
414.82	244.00
415.19	245.00
415.56	246.15
415.94	247.26
416.31	248.54
416.68	249.80
417.06	251.18
417.43	252.58
417.81	253.99
418.18	255.56
418.55	257.20
418.93	259.05
419.30	260.87
419.67	262.91
420.04	264.97
420.42	267.10
420.79	269.53
421.16	272.02
421.54	274.63
421.91	277.31
422.28	280.03
422.66	282.76
423.03	285.59
423.40	288.53
423.77	291.67
424.15	294.76
424.52	298.01
424.89	301.67
425.26	305.05
425.64	308.48
426.01	312.15
426.38	316.00
426.75	319.70
427.13	323.70
427.50	327.82
427.87	332.10
428.24	336.44
428.61	340.55
428.99	344.90
429.36	349.78
429.73	354.45
430.10	359.20
430.47	364.20
430.85	369.37
431.22	374.71
431.59	380.33
431.96	385.90
432.33	391.99
432.70	397.69
433.08	404.55
433.45	410.82
433.82	417.08
434.19	424.17
434.56	431.22
434.93	437.81
435.30	444.50
435.68	451.69
436.05	458.81
436.42	465.96
436.79	472.68
437.16	479.83
437.53	487.25
437.90	494.51
438.27	501.64
438.64	508.91
439.01	515.76
439.38	521.94
439.75	527.94
440.13	534.70
440.50	541.25
440.87	546.41
441.24	552.13
441.61	558.52
441.98	562.90
442.35	568.19
442.72	573.67
443.09	578.89
443.46	582.38
443.83	584.76
444.20	586.91
444.57	589.90
444.94	591.64
445.31	593.63
445.68	595.41
446.05	596.70
446.42	596.80
446.79	596.85
447.16	596.70
447.53	596.80
447.90	594.88
448.27	592.94
448.64	590.15
449.01	588.12
449.37	583.95
449.74	580.04
450.11	575.16
450.48	569.56
450.85	564.08
451.22	559.46
451.59	555.26
451.96	551.07
452.33	545.24
452.70	539.93
453.07	533.38
453.43	526.73
453.80	520.21
454.17	514.00
454.54	508.03
454.91	501.50
455.28	495.27
455.65	489.45
456.02	483.64
456.38	478.50
456.75	471.97
457.12	466.47
457.49	461.29
457.86	456.21
458.23	452.05
458.59	447.03
458.96	442.02
459.33	437.40
459.70	432.82
460.07	429.07
460.43	424.74
460.80	420.42
461.17	417.06
461.54	413.36
461.91	409.80
462.27	406.07
462.64	403.13
463.01	399.70
463.38	396.32
463.74	392.95
464.11	390.05
464.48	387.60
464.85	384.84
465.21	382.63
465.58	380.11
465.95	377.27
466.32	374.98
466.68	372.63
467.05	370.30
467.42	368.07
467.78	365.69
468.15	363.41
468.52	361.94
468.88	359.71
469.25	357.78
469.62	356.27
469.98	354.59
470.35	352.88
470.72	351.28
471.08	349.57
471.45	348.06
471.82	346.56
472.18	344.92
472.55	343.68
472.92	342.25
473.28	341.06
473.65	339.84
474.02	338.54
474.38	337.50
474.75	336.55
475.11	335.59
475.48	334.76
475.85	334.03
476.21	333.25
476.58	332.50
476.94	331.89
477.31	331.08
477.67	330.44
478.04	329.88
478.41	329.50
478.77	329.30
479.14	328.94
479.50	328.60
479.87	328.45
480.23	328.20
480.60	327.87
480.96	327.69
481.33	327.70
481.69	327.73
482.06	327.61
482.42	327.52
482.79	327.35
483.15	327.46
483.52	327.57
483.88	327.77
484.25	327.93
484.61	328.17
484.98	328.39
485.34	328.87
485.71	329.33
486.07	329.76
486.44	330.15
486.80	330.51
487.17	330.98
487.53	331.72
487.90	332.48
488.26	333.41
488.62	334.28
488.99	334.94
489.35	335.63
489.72	336.46
490.08	337.44
490.44	338.41
490.81	339.40
491.17	340.44
491.54	341.52
491.90	342.58
492.26	343.76
492.63	345.08
492.99	346.22
493.36	347.45
493.72	348.80
494.08	350.02
494.45	351.56
494.81	353.07
495.17	354.33
495.54	355.75
495.90	357.10
496.26	358.42
496.63	359.88
496.99	361.54
497.35	363.20
497.72	364.76
498.08	366.34
498.44	367.85
498.80	369.40
499.17	370.93
499.53	372.63
499.89	374.24
500.26	375.66
500.62	377.10
500.98	378.50
501.34	379.86
501.71	381.38
502.07	382.97
502.43	384.36
502.79	385.65
503.16	387.13
503.52	388.46
503.88	389.70
504.24	391.05
504.60	392.36
504.97	393.50
505.33	394.81
505.69	396.19
506.05	397.28
506.41	398.35
506.78	399.34
507.14	400.42
507.50	401.45
507.86	402.64
508.22	403.59
508.59	404.69
508.95	405.66
509.31	406.48
509.67	407.18
510.03	408.02
510.39	408.85
510.75	409.44
511.12	410.11
511.48	410.83
511.84	411.37
512.20	411.95
512.56	412.50
512.92	412.91
513.28	413.20
513.64	413.61
514.00	414.06
514.37	414.47
514.73	414.58
515.09	414.78
515.45	415.01
515.81	415.26
516.17	415.38
516.53	415.51
516.89	415.75
517.25	415.84
517.61	416.02
517.97	416.27
518.33	416.40
518.69	416.52
519.05	416.80
519.41	417.14
519.77	417.50
520.13	417.74
520.49	417.84
520.85	418.05
521.21	418.41
521.57	418.70
521.93	418.95
522.29	419.32
522.65	419.73
523.01	420.00
523.37	420.31
523.73	420.75
524.09	421.27
524.45	421.85
524.81	422.36
525.17	423.02
525.53	423.49
525.89	424.30
526.25	425.08
526.61	425.72
526.97	426.48
527.33	427.31
527.68	428.27
528.04	429.28
528.40	430.35
528.76	431.50
529.12	432.66
529.48	433.85
529.84	435.16
530.20	436.61
530.56	438.13
530.91	440.09
531.27	441.75
531.63	443.50
531.99	445.31
532.35	447.12
532.71	449.02
533.07	451.18
533.42	453.36
533.78	455.61
534.14	457.91
534.50	460.16
534.86	462.42
535.21	464.52
535.57	467.07
535.93	469.65
536.29	472.45
536.65	475.37
537.00	478.04
537.36	480.90
537.72	483.73
538.08	486.61
538.44	489.20
538.79	492.26
539.15	495.15
539.51	498.12
539.87	501.39
540.22	504.61
540.58	508.12
540.94	511.27
541.29	514.38
541.65	517.80
542.01	521.36
542.37	524.86
542.72	528.59
543.08	532.20
543.44	535.71
543.79	539.09
544.15	542.67
544.51	546.77
544.87	550.73
545.22	554.39
545.58	558.06
545.94	561.99
546.29	565.70
546.65	569.56
547.01	573.48
547.36	577.18
547.72	580.98
548.07	584.56
548.43	588.45
548.79	592.52
549.14	596.42
549.50	600.14
549.86	603.93
550.21	608.36
550.57	612.30
550.92	616.50
551.28	620.52
551.64	624.50
551.99	628.51
552.35	632.14
552.70	636.26
553.06	640.55
553.41	644.49
553.77	648.68
554.13	652.94
554.48	657.13
554.84	661.49
555.19	665.50
555.55	669.78
555.90	673.67
556.26	677.83
556.61	681.76
556.97	686.09
557.32	690.30
557.68	693.95
558.03	698.23
558.39	702.08
558.74	706.24
559.10	710.29
559.45	714.26
559.81	718.59
560.16	722.36
560.52	726.23
560.87	730.23
561.23	734.10
561.58	738.20
561.94	741.83
562.29	745.45
562.64	749.22
563.00	752.75
563.35	756.68
563.71	760.57
564.06	764.46
564.42	768.05
564.77	771.68
565.12	775.60
565.48	778.96
565.83	782.43
566.19	785.74
566.54	789.31
566.89	792.54
567.25	795.80
567.60	799.48
567.96	802.70
568.31	806.12
568.66	809.29
569.02	812.00
569.37	815.16
569.72	818.35
570.08	821.29
570.43	824.29
570.78	827.11
571.14	829.59
571.49	832.09
571.84	834.91
572.20	837.44
572.55	839.66
572.90	842.00
573.26	844.36
573.61	846.55
573.96	848.57
574.31	850.46
574.67	852.08
575.02	853.66
575.37	855.26
575.72	856.42
576.08	858.08
576.43	859.48
576.78	861.08
577.13	862.41
577.49	864.00
577.84	865.27
578.19	866.51
578.54	867.50
578.90	868.70
579.25	869.35
579.60	870.02
579.95	870.62
580.30	871.13
580.66	872.02
581.01	872.84
581.36	873.54
581.71	874.34
582.06	875.24
582.42	875.82
582.77	876.20
583.12	876.54
583.47	877.04
583.82	877.73
584.17	877.97
584.53	878.25
584.88	878.44
585.23	878.65
585.58	878.80
585.93	879.08
586.28	879.15
586.63	879.34
586.98	879.80
587.34	880.15
587.69	880.35
588.04	880.34
588.39	880.30
588.74	879.51
589.09	878.97
589.44	878.42
589.79	878.28
590.14	878.46
590.49	878.34
590.84	877.88
591.19	877.22
591.54	876.33
591.89	875.36
592.25	874.45
592.60	873.47
592.95	872.33
593.30	871.32
593.65	870.41
594.00	869.25
594.35	868.30
594.70	866.78
595.05	865.70
595.40	864.25
595.75	862.92
596.10	862.10
596.45	861.42
596.80	860.35
597.15	858.92
597.50	857.53
597.85	856.45
598.19	855.12
598.54	854.11
598.89	852.99
599.24	852.33
599.59	851.16
599.94	850.02
600.29	848.83
600.64	847.47
600.99	845.77
601.34	844.50
601.69	842.79
602.04	841.54
602.39	840.00
602.74	838.65
603.08	837.33
603.43	836.00
603.78	834.22
604.13	833.05
604.48	831.50
604.83	830.02
605.18	828.53
605.53	826.89
605.87	824.78
606.22	823.28
606.57	821.10
606.92	819.28
607.27	817.53
607.62	815.93
607.96	814.36
608.31	812.93
608.66	810.82
609.01	808.74
609.36	806.69
609.70	804.43
610.05	802.34
610.40	800.14
610.75	797.89
611.10	795.66
611.44	792.90
611.79	790.51
612.14	788.07
612.49	784.98
612.83	782.26
613.18	779.86
613.53	777.22
613.88	774.63
614.22	772.09
614.57	769.46
614.92	766.76
615.27	764.24
615.61	761.44
615.96	758.95
616.31	756.69
616.65	754.54
617.00	752.24
617.35	749.71
617.70	746.99
618.04	744.19
618.39	741.68
618.74	739.31
619.08	736.89
619.43	734.30
619.78	732.05
620.12	729.60
620.47	727.21
620.82	724.57
621.16	722.11
621.51	719.68
621.85	717.08
622.20	714.31
622.55	711.64
622.89	709.08
623.24	706.53
623.59	703.73
623.93	701.08
624.28	698.61
624.62	696.10
624.97	693.84
625.32	691.56
625.66	689.09
626.01	686.41
626.35	683.74
626.70	681.02
627.04	678.81
627.39	676.27
627.73	673.75
628.08	671.39
628.43	668.56
628.77	666.03
629.12	663.44
629.46	661.06
629.81	658.25
630.15	655.46
630.50	652.91
630.84	650.30
631.19	647.40
631.53	644.70
631.88	641.87
632.22	638.89
632.57	636.28
632.91	633.36
633.26	630.79
633.60	628.05
633.95	625.47
634.29	622.70
634.64	620.18
634.98	617.65
635.32	615.10
635.67	612.90
636.01	610.22
636.36	607.67
636.70	605.35
637.05	603.10
637.39	601.03
637.73	598.68
638.08	596.45
638.42	594.30
638.77	592.16
639.11	589.83
639.45	587.63
639.80	585.10
640.14	583.03
640.49	580.63
640.83	578.43
641.17	576.09
641.52	573.75
641.86	571.39
642.20	568.92
642.55	566.41
642.89	564.18
643.23	561.91
643.58	559.87
643.92	557.40
644.26	555.11
644.61	553.01
644.95	550.66
645.29	548.16
645.64	545.71
645.98	543.21
646.32	540.94
646.66	538.48
647.01	536.17
647.35	533.86
647.69	531.77
648.04	529.63
648.38	527.41
648.72	524.93
649.06	522.61
649.41	520.41
649.75	518.00
650.09	515.36
650.43	512.90
650.78	510.35
651.12	507.94
651.46	505.66
651.80	503.10
652.14	500.89
652.49	498.79
652.83	496.61
653.17	494.25
653.51	491.86
653.85	489.54
654.20	487.39
654.54	484.88
654.88	482.44
655.22	479.93
655.56	477.60
655.90	475.60
656.25	473.37
656.59	471.17
656.93	469.18
657.27	467.21
657.61	465.12
657.95	463.13
658.29	461.16
658.64	459.07
658.98	456.87
659.32	454.66
659.66	452.43
660.00	450.30
660.34	448.33
660.68	446.38
661.02	444.49
661.36	442.45
661.70	440.55
662.05	438.54
662.39	436.87
662.73	435.01
663.07	433.15
663.41	431.42
663.75	429.41
664.09	427.55
664.43	425.78
664.77	424.01
665.11	422.33
665.45	420.41
665.79	418.46
666.13	416.71
666.47	414.98
666.81	413.16
667.15	411.24
667.49	409.44
667.83	407.76
668.17	406.10
668.51	404.45
668.85	402.85
669.19	401.39
669.53	399.50
669.87	397.65
670.21	396.10
670.55	394.39
670.89	393.10
671.23	391.65
671.57	390.10
671.91	388.69
672.25	386.97
672.58	385.60
672.92	384.21
673.26	382.84
673.60	381.56
673.94	380.34
674.28	379.24
674.62	378.11
674.96	376.86
675.30	375.57
675.64	374.16
675.97	372.98
676.31	371.78
676.65	370.72
676.99	369.70
677.33	368.34
677.67	367.06
678.01	365.61
678.34	364.33
678.68	363.23
679.02	361.93
679.36	360.80
679.70	359.56
680.04	358.40
680.37	357.18
680.71	355.94
681.05	354.85
681.39	353.57
681.73	352.34
682.06	351.31
682.40	350.22
682.74	349.33
683.08	348.24
683.42	347.06
683.75	345.92
684.09	344.82
684.43	343.68
684.77	342.64
685.10	341.57
685.44	340.41
685.78	339.20
686.12	338.21
686.45	337.18
686.79	336.15
687.13	335.04
687.46	334.14
687.80	333.12
688.14	332.07
688.48	331.05
688.81	329.98
689.15	328.97
689.49	327.99
689.82	326.90
690.16	325.79
690.50	324.71
690.83	323.73
691.17	322.69
691.51	321.82
691.84	320.95
692.18	320.02
692.52	319.11
692.85	318.17
693.19	317.23
693.52	316.36
693.86	315.60
694.20	314.84
694.53	313.96
694.87	312.95
695.21	312.00
695.54	311.17
695.88	310.32
696.21	309.21
696.55	308.31
696.88	307.41
697.22	306.56
697.56	305.88
697.89	304.96
698.23	304.24
698.56	303.46
698.90	302.56
699.23	301.71
699.57	300.96
699.90	300.28
700.24	299.44
700.58	298.54
700.91	297.66
701.25	296.90
701.58	296.11
701.92	295.55
702.25	294.81
702.59	294.11
702.92	293.30
703.26	292.81
703.59	292.05
703.93	291.56
704.26	290.90
704.60	290.13
704.93	289.48
705.26	288.81
705.60	288.11
705.93	287.55
706.27	287.01
706.60	286.46
706.94	285.81
707.27	285.20
707.61	284.67
707.94	284.10
708.27	283.30
708.61	282.60
708.94	281.92
709.28	281.27
709.61	280.57
709.94	280.13
710.28	279.50
710.61	279.05
710.95	278.25
711.28	277.81
711.61	277.31
711.95	276.72
712.28	276.02
712.61	275.39
712.95	274.90
713.28	274.35
713.61	273.67
713.95	273.09
714.28	272.56
714.61	271.99
714.95	271.47
715.28	270.95
715.61	270.58
715.95	270.12
716.28	269.67
716.61	269.30
716.95	268.83
717.28	268.41
717.61	267.92
717.94	267.47
718.28	266.94
718.61	266.59
718.94	266.23
719.27	265.90
719.61	265.60
719.94	265.18
720.27	264.79
720.60	264.37
720.94	263.97
721.27	263.66
721.60	263.32
721.93	262.94
722.27	262.74
722.60	262.34
722.93	262.00
723.26	261.61
723.59	261.25
723.93	260.80
724.26	260.40
724.59	259.96
724.92	259.71
725.25	259.38
725.59	258.95
725.92	258.65
726.25	258.31
726.58	257.94
726.91	257.62
727.24	257.28
727.57	257.06
727.91	256.75
728.24	256.49
728.57	256.20
728.90	256.00
729.23	255.68
729.56	255.45
729.89	255.08
730.22	254.77
730.55	254.40
730.89	254.17
731.22	253.96
731.55	253.85
731.88	253.53
732.21	253.23
732.54	252.89
732.87	252.71
733.20	252.67
733.53	252.55
733.86	252.28
734.19	252.02
734.52	251.75
734.85	251.68
735.18	251.48
735.51	251.33
735.84	251.05
736.17	250.74
736.50	250.47
736.83	250.49
737.16	250.39
737.49	250.20
737.82	250.02
738.15	249.82
738.48	249.56
738.81	249.34
739.14	249.14
739.47	249.05
739.80	248.78
740.13	248.45
740.46	248.13
740.79	247.94
741.12	247.80
741.45	247.71
741.78	247.42
742.11	247.22
742.44	246.97
742.77	246.88
743.10	246.77
743.43	246.54
743.75	246.08
744.08	246.05
744.41	245.87
744.74	245.72
745.07	245.51
745.40	245.42
745.73	245.40
746.06	245.19
746.39	245.05
746.71	244.92
747.04	244.60
747.37	244.41
747.70	244.18
748.03	243.92
748.36	243.78
748.68	243.69
749.01	243.40
749.34	243.33
749.67	243.15
750.00	242.98
750.33	243.05
750.65	243.01
750.98	242.56
751.31	242.47
751.64	242.28
751.97	242.13
752.29	241.83
752.62	241.52
752.95	241.37
753.28	241.19
753.60	240.86
753.93	240.74
754.26	240.62
754.59	240.41
754.91	240.32
755.24	240.16
755.57	240.00
755.90	239.81
756.22	239.48
756.55	239.30
756.88	239.16
757.20	238.84
757.53	238.70
757.86	238.68
758.19	238.62
758.51	238.50
758.84	238.45
759.17	238.47
759.49	238.43
759.82	238.44
760.15	238.35
760.47	238.35
760.80	238.37
761.13	238.37
761.45	238.30
761.78	238.16
762.11	237.96
762.43	237.83
762.76	237.84
763.08	237.82
763.41	237.76
763.74	237.77
764.06	237.69
764.39	237.58
764.71	237.46
765.04	237.30
765.37	237.30
765.69	237.16
766.02	236.97
766.34	236.77
766.67	236.56
767.00	236.50
767.32	236.52
767.65	236.50
767.97	236.34
768.30	236.33
768.62	236.40
768.95	236.34
769.27	236.20
769.60	236.08
769.92	235.94
770.25	235.83
770.57	235.58
770.90	235.51
771.22	235.41
771.55	235.40
771.87	235.33
772.20	235.12
772.52	235.26
772.85	235.39
773.17	235.43
773.50	235.39
773.82	235.33
774.15	235.23
774.47	235.07
774.80	235.08
775.12	234.96
775.45	234.80
775.77	234.76
776.09	234.75
776.42	234.73
776.74	234.85
777.07	234.73
777.39	234.84
777.72	234.65
778.04	234.60
778.36	234.53
778.69	234.47
779.01	234.52
779.33	234.19
779.66	233.99
779.98	233.87
780.31	233.91
780.63	233.82
780.95	233.69
781.28	233.60
781.60	233.51
781.92	233.55
782.25	233.50
782.57	233.45
782.89	233.39
783.22	233.29
783.54	233.12
783.86	233.18
784.19	233.04
784.51	233.05
784.83	233.05
785.16	232.98
785.48	233.00
785.80	232.85
786.12	232.87
786.45	232.82
786.77	232.92
787.09	232.80
787.42	232.74
787.74	232.78
788.06	232.84
788.38	232.80
788.71	232.65
789.03	232.60
789.35	232.49
789.67	232.39
789.99	232.37
790.32	232.30
790.64	232.20
790.96	232.32
791.28	232.27
791.61	232.24
791.93	232.17
792.25	232.11
792.57	232.20
792.89	232.13
793.21	232.06
793.54	231.85
793.86	231.86
794.18	231.76
