SpectraSuite Data File
++++++++++++++++++++++++++++++++++++
Date: Fri Feb 01 14:37:30 EST 2013
User: group
Dark Spectrum Present: No
Reference Spectrum Present: No
Number of Sampled Component Spectra: 1
Spectrometers: USB2E7196
Integration Time (usec): 70000 (USB2E7196)
Spectra Averaged: 10 (USB2E7196)
Boxcar Smoothing: 10 (USB2E7196)
Correct for Electrical Dark: No (USB2E7196)
Strobe/Lamp Enabled: No (USB2E7196)
Correct for Detector Non-linearity: No (USB2E7196)
Correct for Stray Light: No (USB2E7196)
Number of Pixels in Processed Spectrum: 2048
>>>>>Begin Processed Spectral Data<<<<<
339.09	0.00
339.48	214.70
339.86	217.30
340.24	220.30
340.63	218.80
341.01	225.90
341.39	222.90
341.78	224.20
342.16	225.80
342.54	227.50
342.93	215.13
343.31	225.87
343.69	226.45
344.07	226.95
344.46	227.35
344.84	227.76
345.22	227.85
345.60	228.14
345.99	228.24
346.37	228.37
346.75	228.34
347.13	228.36
347.52	228.43
347.90	228.35
348.28	228.28
348.66	228.28
349.05	228.14
349.43	228.08
349.81	228.15
350.19	228.14
350.57	228.10
350.96	228.13
351.34	228.30
351.72	228.36
352.10	228.41
352.48	228.52
352.87	228.60
353.25	228.67
353.63	228.76
354.01	228.85
354.39	229.00
354.77	229.06
355.15	229.18
355.54	229.20
355.92	229.04
356.30	229.08
356.68	229.42
357.06	229.47
357.44	229.43
357.82	229.42
358.20	229.49
358.58	229.58
358.97	229.68
359.35	229.74
359.73	229.83
360.11	229.87
360.49	229.68
360.87	229.69
361.25	229.79
361.63	229.82
362.01	229.91
362.39	229.76
362.77	229.80
363.15	229.74
363.53	229.74
363.91	229.81
364.29	229.94
364.67	229.63
365.05	229.56
365.43	229.63
365.81	229.63
366.19	229.68
366.57	229.75
366.95	229.62
367.33	229.56
367.71	229.53
368.09	229.47
368.47	229.50
368.85	229.43
369.23	229.33
369.61	229.33
369.99	229.40
370.37	229.40
370.75	229.52
371.13	229.52
371.51	229.38
371.89	229.40
372.27	229.30
372.65	229.31
373.03	229.30
373.41	229.22
373.78	229.02
374.16	228.94
374.54	228.82
374.92	228.78
375.30	228.72
375.68	228.64
376.06	228.60
376.44	228.61
376.82	228.61
377.19	228.61
377.57	228.35
377.95	228.19
378.33	228.12
378.71	227.90
379.09	227.79
379.47	227.79
379.84	227.67
380.22	227.54
380.60	227.41
380.98	227.38
381.36	227.34
381.73	227.35
382.11	227.19
382.49	227.05
382.87	226.97
383.25	226.86
383.62	227.09
384.00	227.05
384.38	226.89
384.76	226.92
385.13	226.88
385.51	226.85
385.89	226.70
386.27	226.70
386.64	226.64
387.02	226.65
387.40	226.56
387.78	226.60
388.15	226.56
388.53	226.52
388.91	226.48
389.29	226.40
389.66	226.42
390.04	226.49
390.42	226.53
390.79	226.49
391.17	226.47
391.55	226.10
391.92	226.12
392.30	226.26
392.68	226.16
393.05	226.07
393.43	226.17
393.81	226.27
394.18	226.28
394.56	226.36
394.94	226.40
395.31	226.40
395.69	226.55
396.06	226.70
396.44	226.84
396.82	226.88
397.19	227.04
397.57	227.15
397.95	227.26
398.32	227.26
398.70	227.44
399.07	227.72
399.45	227.79
399.82	227.86
400.20	227.98
400.58	228.09
400.95	228.19
401.33	228.31
401.70	228.58
402.08	228.70
402.45	228.83
402.83	229.10
403.20	229.28
403.58	229.30
403.95	229.54
404.33	229.68
404.71	229.82
405.08	230.17
405.46	230.30
405.83	230.46
406.21	230.72
406.58	230.96
406.96	231.03
407.33	231.34
407.70	231.62
408.08	231.95
408.45	232.21
408.83	232.65
409.20	232.89
409.58	233.15
409.95	233.57
410.33	234.00
410.70	234.28
411.08	234.72
411.45	235.23
411.82	235.56
412.20	236.04
412.57	236.80
412.95	237.18
413.32	237.78
413.69	238.43
414.07	239.01
414.44	239.88
414.82	240.58
415.19	241.46
415.56	242.32
415.94	243.22
416.31	244.32
416.68	245.21
417.06	246.43
417.43	247.49
417.81	248.60
418.18	249.76
418.55	251.11
418.93	252.59
419.30	254.00
419.67	255.43
420.04	257.05
420.42	258.69
420.79	260.66
421.16	262.56
421.54	264.58
421.91	266.71
422.28	268.60
422.66	270.98
423.03	273.16
423.40	275.36
423.77	277.70
424.15	280.06
424.52	282.57
424.89	285.19
425.26	287.78
425.64	290.36
426.01	293.10
426.38	296.02
426.75	298.88
427.13	301.98
427.50	305.35
427.87	308.65
428.24	311.88
428.61	315.00
428.99	318.52
429.36	322.25
429.73	325.77
430.10	329.41
430.47	333.00
430.85	336.81
431.22	340.81
431.59	345.11
431.96	349.36
432.33	354.08
432.70	358.60
433.08	363.76
433.45	368.65
433.82	373.60
434.19	378.86
434.56	384.13
434.93	389.23
435.30	394.25
435.68	399.91
436.05	405.52
436.42	410.92
436.79	415.73
437.16	420.89
437.53	426.54
437.90	432.20
438.27	437.77
438.64	443.45
439.01	448.93
439.38	453.47
439.75	457.83
440.13	462.73
440.50	467.56
440.87	471.72
441.24	476.05
441.61	480.63
441.98	484.12
442.35	488.10
442.72	492.12
443.09	495.89
443.46	498.22
443.83	499.86
444.20	501.37
444.57	503.83
444.94	505.21
445.31	506.66
445.68	507.86
446.05	508.47
446.42	508.52
446.79	508.13
447.16	508.09
447.53	508.19
447.90	506.80
448.27	505.42
448.64	502.99
449.01	501.43
449.37	498.30
449.74	495.20
450.11	491.51
450.48	487.38
450.85	483.14
451.22	479.73
451.59	476.41
451.96	473.25
452.33	468.57
452.70	464.52
453.07	459.30
453.43	454.23
453.80	449.60
454.17	444.78
454.54	440.42
454.91	435.53
455.28	430.75
455.65	426.25
456.02	421.70
456.38	417.71
456.75	412.75
457.12	408.66
457.49	404.83
457.86	400.96
458.23	397.65
458.59	394.02
458.96	390.04
459.33	386.46
459.70	383.05
460.07	380.35
460.43	377.25
460.80	374.33
461.17	371.62
461.54	368.82
461.91	366.12
462.27	363.33
462.64	361.00
463.01	358.40
463.38	356.00
463.74	353.38
464.11	351.25
464.48	349.24
464.85	347.11
465.21	345.28
465.58	343.48
465.95	341.11
466.32	339.31
466.68	337.59
467.05	335.83
467.42	333.94
467.78	332.05
468.15	330.10
468.52	328.79
468.88	327.02
469.25	325.39
469.62	324.09
469.98	322.69
470.35	321.46
470.72	320.13
471.08	318.67
471.45	317.50
471.82	316.45
472.18	315.21
472.55	314.18
472.92	313.15
473.28	312.10
473.65	311.21
474.02	310.24
474.38	309.38
474.75	308.63
475.11	307.85
475.48	307.15
475.85	306.58
476.21	305.90
476.58	305.32
476.94	304.77
477.31	304.26
477.67	303.97
478.04	303.34
478.41	302.97
478.77	302.74
479.14	302.37
479.50	301.84
479.87	301.55
480.23	301.35
480.60	300.95
480.96	300.70
481.33	300.46
481.69	300.14
482.06	299.85
482.42	299.56
482.79	299.42
483.15	299.30
483.52	299.33
483.88	299.20
484.25	299.15
484.61	299.27
484.98	299.30
485.34	299.18
485.71	299.36
486.07	299.53
486.44	299.60
486.80	299.75
487.17	299.99
487.53	300.39
487.90	300.64
488.26	300.99
488.62	301.40
488.99	301.76
489.35	302.14
489.72	302.57
490.08	303.22
490.44	303.58
490.81	304.10
491.17	304.46
491.54	305.10
491.90	305.58
492.26	306.02
492.63	306.55
492.99	307.16
493.36	307.79
493.72	308.46
494.08	309.03
494.45	309.71
494.81	310.54
495.17	311.06
495.54	311.87
495.90	312.65
496.26	313.39
496.63	314.15
496.99	315.03
497.35	315.84
497.72	316.48
498.08	317.27
498.44	317.97
498.80	318.81
499.17	319.68
499.53	320.63
499.89	321.40
500.26	322.20
500.62	322.83
500.98	323.52
501.34	324.13
501.71	324.82
502.07	325.49
502.43	326.05
502.79	326.62
503.16	327.13
503.52	327.59
503.88	327.97
504.24	328.56
504.60	329.13
504.97	329.68
505.33	330.16
505.69	330.72
506.05	331.29
506.41	331.62
506.78	331.81
507.14	332.02
507.50	332.43
507.86	332.66
508.22	332.93
508.59	333.27
508.95	333.61
509.31	333.98
509.67	334.12
510.03	334.23
510.39	334.39
510.75	334.58
511.12	334.83
511.48	334.91
511.84	334.94
512.20	335.02
512.56	335.06
512.92	335.20
513.28	335.12
513.64	335.10
514.00	335.14
514.37	335.27
514.73	335.47
515.09	335.50
515.45	335.50
515.81	335.68
516.17	335.68
516.53	335.73
516.89	335.65
517.25	335.74
517.61	335.78
517.97	336.13
518.33	336.20
518.69	336.31
519.05	336.60
519.41	336.77
519.77	337.18
520.13	337.52
520.49	337.80
520.85	338.28
521.21	338.68
521.57	339.23
521.93	339.65
522.29	340.26
522.65	340.86
523.01	341.70
523.37	342.45
523.73	343.29
524.09	344.17
524.45	345.30
524.81	346.47
525.17	347.91
525.53	349.03
525.89	350.30
526.25	351.69
526.61	353.14
526.97	354.69
527.33	356.09
527.68	357.89
528.04	359.70
528.40	361.47
528.76	363.53
529.12	365.54
529.48	367.78
529.84	369.86
530.20	372.14
530.56	374.40
530.91	376.93
531.27	379.37
531.63	381.97
531.99	384.41
532.35	387.00
532.71	389.51
533.07	392.25
533.42	395.32
533.78	398.32
534.14	401.33
534.50	404.39
534.86	407.71
535.21	410.81
535.57	414.22
535.93	417.82
536.29	421.30
536.65	424.83
537.00	428.39
537.36	432.09
537.72	435.83
538.08	439.55
538.44	443.18
538.79	447.05
539.15	450.84
539.51	455.05
539.87	459.27
540.22	463.58
540.58	468.15
540.94	472.42
541.29	476.83
541.65	481.25
542.01	485.84
542.37	490.21
542.72	494.70
543.08	499.16
543.44	503.87
543.79	508.30
544.15	513.07
544.51	517.82
544.87	522.78
545.22	527.40
545.58	532.34
545.94	536.93
546.29	541.74
546.65	546.73
547.01	551.47
547.36	556.13
547.72	560.70
548.07	565.28
548.43	569.87
548.79	574.65
549.14	579.36
549.50	584.09
549.86	588.88
550.21	593.55
550.57	598.41
550.92	602.99
551.28	607.81
551.64	612.35
551.99	617.01
552.35	621.71
552.70	626.40
553.06	631.33
553.41	636.32
553.77	641.33
554.13	646.15
554.48	650.97
554.84	655.89
555.19	660.84
555.55	665.74
555.90	670.64
556.26	675.09
556.61	679.93
556.97	684.43
557.32	689.25
557.68	694.19
558.03	698.83
558.39	703.59
558.74	708.21
559.10	713.02
559.45	717.70
559.81	722.35
560.16	726.83
560.52	731.11
560.87	735.42
561.23	739.53
561.58	744.04
561.94	748.39
562.29	752.35
562.64	756.57
563.00	760.62
563.35	764.90
563.71	769.42
564.06	773.32
564.42	777.63
564.77	781.44
565.12	785.66
565.48	789.78
565.83	793.46
566.19	797.40
566.54	801.20
566.89	804.88
567.25	808.55
567.60	812.67
567.96	816.57
568.31	820.50
568.66	824.02
569.02	827.12
569.37	830.30
569.72	833.90
570.08	836.93
570.43	840.02
570.78	842.98
571.14	845.69
571.49	848.72
571.84	851.91
572.20	854.70
572.55	857.23
572.90	859.73
573.26	862.57
573.61	865.19
573.96	867.59
574.31	869.83
574.67	871.55
575.02	873.17
575.37	875.05
575.72	876.59
576.08	878.50
576.43	880.27
576.78	882.08
577.13	884.11
577.49	886.03
577.84	887.80
578.19	889.34
578.54	890.80
578.90	892.12
579.25	893.20
579.60	894.30
579.95	894.98
580.30	895.68
580.66	896.29
581.01	896.79
581.36	897.44
581.71	898.48
582.06	899.58
582.42	900.37
582.77	900.90
583.12	901.66
583.47	902.19
583.82	902.91
584.17	903.40
584.53	903.55
584.88	903.71
585.23	904.08
585.58	904.52
585.93	904.94
586.28	905.45
586.63	905.55
586.98	906.10
587.34	906.81
587.69	907.40
588.04	907.83
588.39	908.30
588.74	907.91
589.09	907.73
589.44	907.36
589.79	907.41
590.14	907.25
590.49	906.93
590.84	906.69
591.19	906.61
591.54	905.67
591.89	904.58
592.25	904.23
592.60	903.21
592.95	902.05
593.30	901.09
593.65	900.08
594.00	899.10
594.35	898.65
594.70	896.94
595.05	895.60
595.40	894.33
595.75	892.96
596.10	892.44
596.45	891.17
596.80	890.51
597.15	889.36
597.50	887.98
597.85	887.08
598.19	886.08
598.54	884.70
598.89	884.05
599.24	883.53
599.59	882.15
599.94	881.24
600.29	880.11
600.64	879.06
600.99	877.42
601.34	876.23
601.69	874.17
602.04	873.11
602.39	871.69
602.74	870.68
603.08	869.59
603.43	868.33
603.78	866.97
604.13	865.26
604.48	863.86
604.83	862.66
605.18	861.02
605.53	859.20
605.87	857.06
606.22	855.30
606.57	853.16
606.92	851.50
607.27	849.69
607.62	848.00
607.96	846.07
608.31	844.40
608.66	842.38
609.01	840.14
609.36	837.88
609.70	835.54
610.05	832.67
610.40	830.38
610.75	827.79
611.10	825.40
611.44	822.60
611.79	820.10
612.14	817.31
612.49	814.44
612.83	811.70
613.18	809.36
613.53	806.63
613.88	803.74
614.22	801.10
614.57	798.13
614.92	795.43
615.27	792.91
615.61	790.06
615.96	787.47
616.31	784.97
616.65	782.92
617.00	780.73
617.35	778.53
617.70	775.63
618.04	772.87
618.39	770.20
618.74	767.88
619.08	765.07
619.43	762.58
619.78	760.38
620.12	757.84
620.47	755.32
620.82	752.56
621.16	750.19
621.51	747.71
621.85	745.11
622.20	742.35
622.55	739.66
622.89	737.32
623.24	734.90
623.59	732.59
623.93	730.10
624.28	727.22
624.62	724.57
624.97	722.22
625.32	719.68
625.66	717.30
626.01	714.78
626.35	712.29
626.70	709.76
627.04	707.05
627.39	704.37
627.73	701.60
628.08	699.10
628.43	696.73
628.77	693.86
629.12	691.32
629.46	688.85
629.81	686.01
630.15	683.08
630.50	680.10
630.84	677.07
631.19	673.69
631.53	670.98
631.88	668.20
632.22	665.13
632.57	662.55
632.91	659.82
633.26	656.87
633.60	653.84
633.95	651.09
634.29	648.42
634.64	645.80
634.98	642.99
635.32	640.67
635.67	638.03
636.01	635.61
636.36	633.11
636.70	630.65
637.05	628.10
637.39	625.86
637.73	623.32
638.08	621.10
638.42	619.04
638.77	616.71
639.11	614.05
639.45	611.81
639.80	609.21
640.14	606.65
640.49	604.30
640.83	602.08
641.17	599.72
641.52	597.28
641.86	594.89
642.20	592.52
642.55	589.80
642.89	587.26
643.23	584.60
643.58	582.26
643.92	579.46
644.26	577.00
644.61	574.51
644.95	572.21
645.29	569.49
645.64	566.73
645.98	564.35
646.32	562.15
646.66	559.43
647.01	556.90
647.35	554.40
647.69	551.92
648.04	549.59
648.38	546.81
648.72	544.00
649.06	541.28
649.41	538.76
649.75	536.15
650.09	533.79
650.43	531.18
650.78	528.41
651.12	525.96
651.46	523.58
651.80	521.07
652.14	518.69
652.49	516.28
652.83	513.99
653.17	511.30
653.51	508.71
653.85	506.31
654.20	503.89
654.54	501.30
654.88	498.69
655.22	495.97
655.56	493.51
655.90	491.25
656.25	489.06
656.59	486.77
656.93	484.58
657.27	482.15
657.61	479.75
657.95	477.69
658.29	475.43
658.64	472.95
658.98	470.73
659.32	468.33
659.66	466.19
660.00	463.89
660.34	461.64
660.68	459.44
661.02	457.28
661.36	455.27
661.70	453.33
662.05	451.40
662.39	449.55
662.73	447.69
663.07	445.84
663.41	444.00
663.75	441.98
664.09	439.96
664.43	438.05
664.77	436.35
665.11	434.33
665.45	432.48
665.79	430.71
666.13	428.77
666.47	426.90
666.81	424.88
667.15	423.01
667.49	421.19
667.83	419.43
668.17	417.68
668.51	415.74
668.85	414.04
669.19	412.47
669.53	410.78
669.87	409.06
670.21	407.35
670.55	405.63
670.89	404.21
671.23	402.68
671.57	401.04
671.91	399.46
672.25	397.87
672.58	396.43
672.92	394.97
673.26	393.51
673.60	391.96
673.94	390.70
674.28	389.43
674.62	388.25
674.96	386.82
675.30	385.54
675.64	384.11
675.97	382.53
676.31	381.02
676.65	379.59
676.99	378.30
677.33	377.01
677.67	375.64
678.01	374.11
678.34	372.74
678.68	371.57
679.02	370.26
679.36	369.04
679.70	367.75
680.04	366.52
680.37	365.24
680.71	364.15
681.05	362.71
681.39	361.57
681.73	360.36
682.06	359.20
682.40	357.97
682.74	357.00
683.08	355.87
683.42	354.69
683.75	353.55
684.09	352.30
684.43	351.10
684.77	349.83
685.10	348.89
685.44	347.76
685.78	346.46
686.12	345.40
686.45	344.19
686.79	342.93
687.13	341.90
687.46	340.78
687.80	339.60
688.14	338.51
688.48	337.27
688.81	336.00
689.15	334.82
689.49	333.71
689.82	332.60
690.16	331.54
690.50	330.58
690.83	329.43
691.17	328.22
691.51	327.11
691.84	326.19
692.18	324.90
692.52	323.74
692.85	322.78
693.19	321.73
693.52	320.62
693.86	319.53
694.20	318.40
694.53	317.34
694.87	316.22
695.21	315.18
695.54	314.18
695.88	313.16
696.21	312.19
696.55	311.26
696.88	310.20
697.22	309.25
697.56	308.40
697.89	307.54
698.23	306.78
698.56	305.96
698.90	305.00
699.23	304.18
699.57	303.37
699.90	302.50
700.24	301.58
700.58	300.82
700.91	300.14
701.25	299.40
701.58	298.78
701.92	298.10
702.25	297.38
702.59	296.60
702.92	295.93
703.26	295.26
703.59	294.46
703.93	293.98
704.26	293.31
704.60	292.52
704.93	291.86
705.26	291.23
705.60	290.45
705.93	289.90
706.27	289.56
706.60	288.97
706.94	288.22
707.27	287.60
707.61	286.92
707.94	286.30
708.27	285.54
708.61	284.81
708.94	284.24
709.28	283.78
709.61	283.26
709.94	282.75
710.28	282.16
710.61	281.64
710.95	280.84
711.28	280.35
711.61	279.67
711.95	279.05
712.28	278.47
712.61	277.99
712.95	277.50
713.28	276.83
713.61	276.32
713.95	275.86
714.28	275.43
714.61	275.13
714.95	274.65
715.28	274.30
715.61	273.85
715.95	273.31
716.28	272.76
716.61	272.24
716.95	271.81
717.28	271.44
717.61	271.01
717.94	270.76
718.28	270.38
718.61	270.13
718.94	269.80
719.27	269.29
719.61	268.90
719.94	268.50
720.27	268.03
720.60	267.65
720.94	267.30
721.27	266.91
721.60	266.42
721.93	266.06
722.27	265.73
722.60	265.31
722.93	264.93
723.26	264.64
723.59	264.27
723.93	263.85
724.26	263.46
724.59	263.14
724.92	262.73
725.25	262.36
725.59	261.91
725.92	261.57
726.25	261.21
726.58	260.81
726.91	260.49
727.24	260.27
727.57	259.96
727.91	259.52
728.24	259.14
728.57	258.80
728.90	258.42
729.23	257.89
729.56	257.71
729.89	257.34
730.22	256.96
730.55	256.61
730.89	256.31
731.22	255.96
731.55	255.65
731.88	255.21
732.21	254.83
732.54	254.50
732.87	254.13
733.20	253.88
733.53	253.54
733.86	253.24
734.19	252.89
734.52	252.59
734.85	252.54
735.18	252.23
735.51	252.00
735.84	251.71
736.17	251.54
736.50	251.08
736.83	251.12
737.16	250.93
737.49	250.78
737.82	250.57
738.15	250.30
738.48	250.02
738.81	249.80
739.14	249.58
739.47	249.34
739.80	249.09
740.13	248.91
740.46	248.76
740.79	248.43
741.12	248.10
741.45	247.86
741.78	247.54
742.11	247.37
742.44	247.17
742.77	247.10
743.10	246.85
743.43	246.69
743.75	246.22
744.08	246.30
744.41	246.07
744.74	245.82
745.07	245.69
745.40	245.50
745.73	245.45
746.06	245.22
746.39	245.01
746.71	244.81
747.04	244.66
747.37	244.45
747.70	244.36
748.03	244.29
748.36	244.17
748.68	243.92
749.01	243.82
749.34	243.62
749.67	243.33
750.00	243.26
750.33	243.18
750.65	243.05
750.98	242.67
751.31	242.59
751.64	242.36
751.97	242.29
752.29	242.17
752.62	241.97
752.95	241.90
753.28	241.81
753.60	241.73
753.93	241.70
754.26	241.50
754.59	241.28
754.91	241.13
755.24	241.03
755.57	240.93
755.90	240.72
756.22	240.53
756.55	240.42
756.88	240.26
757.20	240.11
757.53	239.95
757.86	239.91
758.19	239.68
758.51	239.69
758.84	239.55
759.17	239.44
759.49	239.41
759.82	239.39
760.15	239.28
760.47	239.16
760.80	238.94
761.13	238.88
761.45	238.75
761.78	238.63
762.11	238.47
762.43	238.40
762.76	238.32
763.08	238.39
763.41	238.29
763.74	238.22
764.06	238.11
764.39	238.06
764.71	237.86
765.04	237.78
765.37	237.64
765.69	237.44
766.02	237.34
766.34	237.15
766.67	236.95
767.00	236.94
767.32	236.89
767.65	236.89
767.97	236.80
768.30	236.79
768.62	236.67
768.95	236.60
769.27	236.48
769.60	236.38
769.92	236.13
770.25	236.06
770.57	236.00
770.90	235.93
771.22	235.78
771.55	235.67
771.87	235.59
772.20	235.43
772.52	235.60
772.85	235.70
773.17	235.59
773.50	235.43
773.82	235.29
774.15	235.10
774.47	234.85
774.80	234.70
775.12	234.47
775.45	234.40
775.77	234.21
776.09	234.05
776.42	233.94
776.74	233.89
777.07	233.84
777.39	233.66
777.72	233.51
778.04	233.50
778.36	233.31
778.69	233.25
779.01	233.19
779.33	232.89
779.66	232.67
779.98	232.56
780.31	232.56
780.63	232.55
780.95	232.63
781.28	232.55
781.60	232.45
781.92	232.44
782.25	232.49
782.57	232.50
782.89	232.45
783.22	232.41
783.54	232.35
783.86	232.18
784.19	232.10
784.51	232.09
784.83	231.98
785.16	231.93
785.48	231.90
785.80	231.90
786.12	231.86
786.45	231.77
786.77	231.71
787.09	231.61
787.42	231.49
787.74	231.39
788.06	231.50
788.38	231.47
788.71	231.59
789.03	231.48
789.35	231.55
789.67	231.60
789.99	231.52
790.32	231.48
790.64	231.53
790.96	231.70
791.28	231.65
791.61	231.66
791.93	231.81
792.25	231.80
792.57	231.93
792.89	231.85
793.21	231.81
793.54	231.77
793.86	231.71
794.18	231.74
