SpectraSuite Data File
++++++++++++++++++++++++++++++++++++
Date: Fri Feb 01 14:39:10 EST 2013
User: group
Dark Spectrum Present: No
Reference Spectrum Present: No
Number of Sampled Component Spectra: 1
Spectrometers: USB2E7196
Integration Time (usec): 70000 (USB2E7196)
Spectra Averaged: 10 (USB2E7196)
Boxcar Smoothing: 10 (USB2E7196)
Correct for Electrical Dark: No (USB2E7196)
Strobe/Lamp Enabled: No (USB2E7196)
Correct for Detector Non-linearity: No (USB2E7196)
Correct for Stray Light: No (USB2E7196)
Number of Pixels in Processed Spectrum: 2048
>>>>>Begin Processed Spectral Data<<<<<
339.09	0.00
339.48	215.80
339.86	217.80
340.24	218.30
340.63	219.40
341.01	226.00
341.39	223.80
341.78	225.70
342.16	223.80
342.54	225.80
342.93	214.44
343.31	225.32
343.69	225.91
344.07	226.39
344.46	226.87
344.84	227.30
345.22	227.34
345.60	227.58
345.99	227.73
346.37	227.91
346.75	227.95
347.13	228.05
347.52	228.10
347.90	228.21
348.28	228.33
348.66	228.41
349.05	228.41
349.43	228.52
349.81	228.65
350.19	228.65
350.57	228.62
350.96	228.69
351.34	228.63
351.72	228.63
352.10	228.67
352.48	228.74
352.87	228.75
353.25	228.95
353.63	229.01
354.01	229.08
354.39	229.12
354.77	229.23
355.15	229.30
355.54	229.36
355.92	229.31
356.30	229.36
356.68	229.50
357.06	229.59
357.44	229.60
357.82	229.51
358.20	229.53
358.58	229.56
358.97	229.59
359.35	229.82
359.73	229.96
360.11	229.98
360.49	229.99
360.87	230.04
361.25	230.07
361.63	230.05
362.01	230.07
362.39	230.15
362.77	230.20
363.15	230.16
363.53	230.13
363.91	230.23
364.29	230.20
364.67	230.09
365.05	229.98
365.43	230.00
365.81	230.05
366.19	230.25
366.57	230.33
366.95	230.34
367.33	230.23
367.71	230.17
368.09	230.23
368.47	230.23
368.85	230.21
369.23	230.16
369.61	230.17
369.99	230.12
370.37	230.10
370.75	230.21
371.13	230.14
371.51	230.03
371.89	229.96
372.27	229.92
372.65	229.87
373.03	229.86
373.41	229.83
373.78	229.87
374.16	229.66
374.54	229.53
374.92	229.50
375.30	229.49
375.68	229.36
376.06	229.22
376.44	229.16
376.82	229.07
377.19	228.99
377.57	228.95
377.95	228.80
378.33	228.77
378.71	228.50
379.09	228.44
379.47	228.46
379.84	228.34
380.22	228.37
380.60	228.30
380.98	228.25
381.36	228.19
381.73	228.06
382.11	228.03
382.49	228.01
382.87	227.93
383.25	227.81
383.62	227.97
384.00	228.00
384.38	227.82
384.76	227.85
385.13	227.84
385.51	227.76
385.89	227.74
386.27	227.60
386.64	227.58
387.02	227.50
387.40	227.39
387.78	227.31
388.15	227.21
388.53	227.12
388.91	226.96
389.29	226.75
389.66	226.72
390.04	226.66
390.42	226.60
390.79	226.50
391.17	226.40
391.55	226.21
391.92	226.20
392.30	226.24
392.68	226.16
393.05	226.11
393.43	226.06
393.81	226.09
394.18	226.09
394.56	226.07
394.94	226.16
395.31	226.13
395.69	226.28
396.06	226.23
396.44	226.37
396.82	226.47
397.19	226.70
397.57	226.73
397.95	226.73
398.32	226.80
398.70	226.85
399.07	226.96
399.45	226.96
399.82	226.91
400.20	227.05
400.58	227.08
400.95	227.09
401.33	227.24
401.70	227.41
402.08	227.45
402.45	227.67
402.83	227.91
403.20	228.11
403.58	228.19
403.95	228.39
404.33	228.42
404.71	228.66
405.08	228.93
405.46	228.98
405.83	229.11
406.21	229.35
406.58	229.54
406.96	229.75
407.33	230.02
407.70	230.32
408.08	230.68
408.45	230.96
408.83	231.21
409.20	231.37
409.58	231.63
409.95	231.98
410.33	232.33
410.70	232.50
411.08	232.84
411.45	233.28
411.82	233.60
412.20	234.13
412.57	234.63
412.95	234.90
413.32	235.53
413.69	236.11
414.07	236.53
414.44	237.09
414.82	237.71
415.19	238.36
415.56	238.93
415.94	239.40
416.31	240.18
416.68	240.86
417.06	241.64
417.43	242.34
417.81	243.21
418.18	243.96
418.55	244.89
418.93	245.85
419.30	246.76
419.67	247.85
420.04	248.89
420.42	249.90
420.79	251.30
421.16	252.45
421.54	253.65
421.91	254.92
422.28	256.31
422.66	257.60
423.03	259.14
423.40	260.70
423.77	262.30
424.15	263.84
424.52	265.58
424.89	267.39
425.26	269.07
425.64	270.65
426.01	272.30
426.38	274.06
426.75	275.87
427.13	277.88
427.50	279.90
427.87	281.92
428.24	284.07
428.61	285.88
428.99	288.15
429.36	290.53
429.73	292.94
430.10	295.28
430.47	297.74
430.85	299.95
431.22	302.50
431.59	305.31
431.96	307.81
432.33	310.62
432.70	313.40
433.08	316.69
433.45	319.76
433.82	322.73
434.19	326.23
434.56	329.74
434.93	332.68
435.30	335.68
435.68	339.23
436.05	342.60
436.42	345.99
436.79	349.00
437.16	352.34
437.53	355.66
437.90	359.19
438.27	362.56
438.64	366.10
439.01	369.20
439.38	371.86
439.75	374.57
440.13	377.81
440.50	380.76
440.87	383.17
441.24	385.73
441.61	388.71
441.98	390.53
442.35	392.65
442.72	395.21
443.09	397.84
443.46	399.10
443.83	400.03
444.20	400.84
444.57	402.01
444.94	402.66
445.31	403.53
445.68	404.11
446.05	404.57
446.42	404.29
446.79	404.00
447.16	403.82
447.53	403.78
447.90	402.53
448.27	401.44
448.64	399.78
449.01	398.63
449.37	396.54
449.74	394.70
450.11	392.51
450.48	389.88
450.85	386.96
451.22	384.63
451.59	382.47
451.96	380.41
452.33	377.54
452.70	374.84
453.07	371.51
453.43	368.07
453.80	364.86
454.17	361.87
454.54	359.02
454.91	355.87
455.28	352.74
455.65	349.85
456.02	347.17
456.38	344.70
456.75	341.73
457.12	338.90
457.49	336.20
457.86	333.41
458.23	331.22
458.59	328.78
458.96	326.40
459.33	324.11
459.70	321.88
460.07	320.20
460.43	318.06
460.80	316.12
461.17	314.46
461.54	312.63
461.91	310.86
462.27	309.06
462.64	307.58
463.01	305.99
463.38	304.54
463.74	302.77
464.11	301.36
464.48	300.02
464.85	298.85
465.21	297.86
465.58	296.84
465.95	295.41
466.32	294.23
466.68	293.00
467.05	291.94
467.42	290.87
467.78	289.58
468.15	288.48
468.52	287.65
468.88	286.60
469.25	285.61
469.62	284.89
469.98	284.07
470.35	283.19
470.72	282.44
471.08	281.51
471.45	280.68
471.82	279.90
472.18	279.05
472.55	278.28
472.92	277.44
473.28	276.71
473.65	276.00
474.02	275.35
474.38	274.78
474.75	274.18
475.11	273.50
475.48	273.01
475.85	272.52
476.21	271.97
476.58	271.51
476.94	271.01
477.31	270.48
477.67	269.94
478.04	269.49
478.41	268.99
478.77	268.72
479.14	268.41
479.50	268.06
479.87	267.73
480.23	267.45
480.60	267.15
480.96	266.95
481.33	266.80
481.69	266.52
482.06	266.21
482.42	265.93
482.79	265.71
483.15	265.56
483.52	265.57
483.88	265.44
484.25	265.30
484.61	265.17
484.98	265.05
485.34	265.11
485.71	265.10
486.07	265.12
486.44	264.92
486.80	264.90
487.17	264.89
487.53	264.93
487.90	265.00
488.26	265.07
488.62	264.98
488.99	264.92
489.35	264.99
489.72	265.16
490.08	265.34
490.44	265.50
490.81	265.73
491.17	265.70
491.54	265.90
491.90	265.99
492.26	266.13
492.63	266.36
492.99	266.47
493.36	266.68
493.72	266.92
494.08	267.16
494.45	267.43
494.81	267.76
495.17	268.14
495.54	268.48
495.90	268.73
496.26	269.13
496.63	269.52
496.99	269.90
497.35	270.20
497.72	270.55
498.08	270.83
498.44	271.04
498.80	271.57
499.17	271.93
499.53	272.31
499.89	272.86
500.26	273.31
500.62	273.90
500.98	274.47
501.34	275.05
501.71	275.57
502.07	276.06
502.43	276.57
502.79	277.03
503.16	277.73
503.52	278.46
503.88	279.07
504.24	279.88
504.60	280.67
504.97	281.59
505.33	282.41
505.69	283.36
506.05	284.23
506.41	285.16
506.78	286.15
507.14	287.22
507.50	288.25
507.86	289.42
508.22	290.53
508.59	291.58
508.95	292.62
509.31	294.04
509.67	295.31
510.03	296.66
510.39	298.15
510.75	299.60
511.12	301.09
511.48	302.58
511.84	304.04
512.20	305.68
512.56	307.30
512.92	308.99
513.28	310.86
513.64	312.76
514.00	314.78
514.37	316.84
514.73	319.11
515.09	321.29
515.45	323.56
515.81	325.88
516.17	328.36
516.53	330.90
516.89	333.39
517.25	336.08
517.61	338.84
517.97	341.71
518.33	344.46
518.69	347.44
519.05	350.61
519.41	353.91
519.77	357.33
520.13	360.74
520.49	364.23
520.85	367.58
521.21	371.32
521.57	375.00
521.93	378.69
522.29	382.37
522.65	386.24
523.01	390.21
523.37	394.42
523.73	398.56
524.09	402.96
524.45	407.31
524.81	411.89
525.17	416.55
525.53	421.00
525.89	425.87
526.25	430.70
526.61	435.32
526.97	440.24
527.33	445.26
527.68	450.59
528.04	455.78
528.40	461.12
528.76	466.48
529.12	471.86
529.48	477.60
529.84	483.28
530.20	488.99
530.56	495.05
530.91	501.08
531.27	507.44
531.63	513.39
531.99	519.61
532.35	525.68
532.71	531.79
533.07	538.06
533.42	544.73
533.78	551.18
534.14	557.84
534.50	564.36
534.86	571.02
535.21	577.48
535.57	584.66
535.93	591.70
536.29	598.72
536.65	605.70
537.00	612.49
537.36	619.51
537.72	626.58
538.08	633.36
538.44	640.09
538.79	646.81
539.15	653.85
539.51	661.02
539.87	668.29
540.22	675.55
540.58	683.18
540.94	689.91
541.29	696.94
541.65	704.23
542.01	711.74
542.37	719.00
542.72	726.26
543.08	733.13
543.44	740.18
543.79	747.00
544.15	754.16
544.51	761.72
544.87	769.03
545.22	776.34
545.58	783.43
545.94	790.48
546.29	797.85
546.65	804.63
547.01	811.60
547.36	818.46
547.72	825.08
548.07	831.80
548.43	838.96
548.79	845.90
549.14	852.51
549.50	858.68
549.86	865.10
550.21	871.53
550.57	878.30
550.92	884.77
551.28	891.49
551.64	898.09
551.99	904.16
552.35	910.26
552.70	916.60
553.06	923.08
553.41	929.50
553.77	935.45
554.13	941.96
554.48	947.98
554.84	953.99
555.19	960.12
555.55	966.17
555.90	971.72
556.26	977.33
556.61	983.12
556.97	989.00
557.32	994.63
557.68	1000.24
558.03	1005.74
558.39	1011.30
558.74	1016.88
559.10	1022.41
559.45	1028.05
559.81	1033.80
560.16	1038.85
560.52	1043.93
560.87	1049.50
561.23	1054.41
561.58	1059.63
561.94	1064.43
562.29	1069.30
562.64	1073.84
563.00	1078.08
563.35	1083.26
563.71	1088.32
564.06	1093.50
564.42	1098.32
564.77	1102.77
565.12	1107.48
565.48	1112.06
565.83	1116.65
566.19	1120.94
566.54	1124.72
566.89	1128.27
567.25	1132.02
567.60	1136.51
567.96	1140.31
568.31	1143.41
568.66	1146.93
569.02	1150.46
569.37	1153.95
569.72	1157.23
570.08	1160.70
570.43	1164.02
570.78	1166.46
571.14	1169.07
571.49	1171.54
571.84	1174.55
572.20	1177.12
572.55	1179.54
572.90	1181.20
573.26	1183.21
573.61	1185.33
573.96	1187.55
574.31	1189.31
574.67	1190.69
575.02	1191.72
575.37	1193.16
575.72	1194.39
576.08	1195.81
576.43	1196.83
576.78	1197.86
577.13	1199.05
577.49	1200.04
577.84	1200.93
578.19	1201.71
578.54	1202.41
578.90	1202.81
579.25	1202.54
579.60	1203.07
579.95	1203.25
580.30	1203.41
580.66	1203.36
581.01	1202.93
581.36	1202.96
581.71	1203.21
582.06	1203.18
582.42	1202.52
582.77	1201.88
583.12	1201.83
583.47	1201.38
583.82	1200.91
584.17	1200.53
584.53	1199.62
584.88	1199.23
585.23	1198.77
585.58	1198.20
585.93	1197.33
586.28	1197.07
586.63	1196.78
586.98	1196.23
587.34	1195.57
587.69	1195.24
588.04	1194.76
588.39	1194.07
588.74	1192.24
589.09	1190.86
589.44	1189.47
589.79	1188.55
590.14	1187.72
590.49	1186.03
590.84	1184.70
591.19	1183.40
591.54	1181.55
591.89	1179.72
592.25	1177.70
592.60	1175.41
592.95	1173.51
593.30	1171.54
593.65	1169.08
594.00	1166.78
594.35	1165.00
594.70	1162.41
595.05	1160.00
595.40	1157.16
595.75	1154.50
596.10	1152.66
596.45	1150.54
596.80	1148.74
597.15	1146.66
597.50	1144.37
597.85	1142.56
598.19	1140.60
598.54	1138.32
598.89	1136.24
599.24	1134.54
599.59	1132.62
599.94	1130.75
600.29	1128.44
600.64	1126.41
600.99	1123.71
601.34	1121.65
601.69	1118.73
602.04	1116.43
602.39	1114.02
602.74	1112.09
603.08	1110.20
603.43	1108.44
603.78	1106.15
604.13	1103.85
604.48	1101.03
604.83	1098.53
605.18	1096.06
605.53	1092.90
605.87	1089.67
606.22	1087.02
606.57	1084.03
606.92	1080.93
607.27	1078.32
607.62	1075.79
607.96	1072.93
608.31	1070.56
608.66	1067.03
609.01	1063.52
609.36	1060.02
609.70	1056.36
610.05	1052.60
610.40	1049.18
610.75	1045.31
611.10	1041.78
611.44	1037.58
611.79	1034.30
612.14	1030.35
612.49	1026.03
612.83	1022.22
613.18	1018.53
613.53	1014.70
613.88	1010.49
614.22	1006.60
614.57	1002.25
614.92	998.03
615.27	994.22
615.61	990.11
615.96	986.27
616.31	982.86
616.65	979.64
617.00	976.32
617.35	972.44
617.70	968.19
618.04	963.78
618.39	959.84
618.74	956.31
619.08	952.24
619.43	948.60
619.78	945.05
620.12	941.41
620.47	937.70
620.82	933.61
621.16	929.91
621.51	926.32
621.85	922.50
622.20	918.64
622.55	914.79
622.89	910.96
623.24	907.48
623.59	903.63
623.93	899.69
624.28	895.72
624.62	892.28
624.97	888.83
625.32	885.59
625.66	881.86
626.01	877.96
626.35	874.21
626.70	870.23
627.04	866.59
627.39	862.91
627.73	859.08
628.08	855.47
628.43	851.77
628.77	847.96
629.12	844.33
629.46	840.54
629.81	836.22
630.15	832.13
630.50	827.90
630.84	823.57
631.19	819.67
631.53	815.56
631.88	811.27
632.22	806.95
632.57	802.94
632.91	798.87
633.26	794.89
633.60	790.88
633.95	787.18
634.29	783.07
634.64	779.34
634.98	775.39
635.32	771.95
635.67	768.47
636.01	764.82
636.36	760.90
636.70	757.50
637.05	754.22
637.39	750.90
637.73	747.41
638.08	744.64
638.42	741.10
638.77	737.88
639.11	734.31
639.45	731.07
639.80	727.46
640.14	723.85
640.49	720.40
640.83	717.19
641.17	713.66
641.52	710.37
641.86	706.90
642.20	703.99
642.55	700.14
642.89	696.65
643.23	692.95
643.58	689.95
643.92	686.37
644.26	683.01
644.61	679.72
644.95	676.40
645.29	672.46
645.64	668.84
645.98	665.29
646.32	662.22
646.66	658.75
647.01	655.22
647.35	652.05
647.69	648.87
648.04	645.67
648.38	642.29
648.72	638.54
649.06	634.89
649.41	631.37
649.75	627.77
650.09	624.35
650.43	621.02
650.78	617.33
651.12	613.97
651.46	610.58
651.80	607.14
652.14	603.99
652.49	600.87
652.83	597.93
653.17	594.49
653.51	591.08
653.85	588.01
654.20	585.07
654.54	581.61
654.88	578.20
655.22	574.70
655.56	571.19
655.90	568.34
656.25	565.32
656.59	562.01
656.93	559.35
657.27	556.35
657.61	553.23
657.95	550.24
658.29	547.17
658.64	544.10
658.98	541.11
659.32	537.75
659.66	534.76
660.00	531.67
660.34	528.86
660.68	525.97
661.02	522.80
661.36	519.94
661.70	517.30
662.05	514.50
662.39	511.97
662.73	509.66
663.07	507.04
663.41	504.51
663.75	501.80
664.09	498.91
664.43	496.12
664.77	493.59
665.11	491.04
665.45	488.51
665.79	486.01
666.13	483.44
666.47	481.09
666.81	478.30
667.15	475.53
667.49	473.11
667.83	470.85
668.17	468.50
668.51	465.95
668.85	463.51
669.19	461.38
669.53	458.87
669.87	456.50
670.21	454.22
670.55	452.09
670.89	450.07
671.23	448.11
671.57	446.10
671.91	443.94
672.25	441.81
672.58	439.87
672.92	437.69
673.26	435.68
673.60	433.78
673.94	431.88
674.28	430.25
674.62	428.40
674.96	426.42
675.30	424.68
675.64	422.72
675.97	420.99
676.31	419.12
676.65	417.21
676.99	415.48
677.33	413.64
677.67	411.52
678.01	409.61
678.34	407.73
678.68	405.77
679.02	404.10
679.36	402.32
679.70	400.39
680.04	398.68
680.37	396.87
680.71	395.13
681.05	393.66
681.39	391.92
681.73	390.32
682.06	388.69
682.40	387.20
682.74	385.68
683.08	384.29
683.42	382.72
683.75	381.23
684.09	379.51
684.43	377.98
684.77	376.55
685.10	375.06
685.44	373.62
685.78	372.42
686.12	371.01
686.45	369.53
686.79	368.19
687.13	366.87
687.46	365.42
687.80	364.06
688.14	362.68
688.48	361.32
688.81	359.86
689.15	358.62
689.49	357.07
689.82	355.96
690.16	354.49
690.50	353.21
690.83	351.92
691.17	350.64
691.51	349.37
691.84	348.06
692.18	346.75
692.52	345.49
692.85	344.25
693.19	342.93
693.52	341.80
693.86	340.54
694.20	339.21
694.53	338.19
694.87	336.87
695.21	335.55
695.54	334.36
695.88	333.12
696.21	331.75
696.55	330.69
696.88	329.37
697.22	328.20
697.56	326.89
697.89	325.86
698.23	324.71
698.56	323.59
698.90	322.44
699.23	321.30
699.57	320.22
699.90	319.05
700.24	317.95
700.58	316.74
700.91	315.80
701.25	314.90
701.58	313.94
701.92	313.04
702.25	311.98
702.59	310.95
702.92	310.10
703.26	309.19
703.59	308.18
703.93	307.45
704.26	306.55
704.60	305.78
704.93	304.85
705.26	304.08
705.60	303.23
705.93	302.50
706.27	301.76
706.60	300.96
706.94	300.24
707.27	299.43
707.61	298.74
707.94	297.90
708.27	296.90
708.61	295.99
708.94	295.25
709.28	294.63
709.61	294.02
709.94	293.23
710.28	292.55
710.61	291.92
710.95	290.86
711.28	290.25
711.61	289.42
711.95	288.81
712.28	288.02
712.61	287.30
712.95	286.63
713.28	286.10
713.61	285.35
713.95	284.63
714.28	284.07
714.61	283.39
714.95	282.83
715.28	282.26
715.61	281.57
715.95	280.87
716.28	280.22
716.61	279.58
716.95	279.02
717.28	278.38
717.61	277.74
717.94	277.30
718.28	276.64
718.61	276.13
718.94	275.51
719.27	275.02
719.61	274.49
719.94	274.02
720.27	273.37
720.60	272.88
720.94	272.41
721.27	271.87
721.60	271.39
721.93	270.90
722.27	270.60
722.60	270.21
722.93	269.89
723.26	269.49
723.59	269.05
723.93	268.62
724.26	268.18
724.59	267.87
724.92	267.35
725.25	267.00
725.59	266.57
725.92	266.10
726.25	265.73
726.58	265.32
726.91	264.86
727.24	264.54
727.57	264.10
727.91	263.68
728.24	263.36
728.57	263.00
728.90	262.55
729.23	262.11
729.56	261.77
729.89	261.31
730.22	260.91
730.55	260.49
730.89	260.21
731.22	259.98
731.55	259.56
731.88	259.37
732.21	258.95
732.54	258.59
732.87	258.25
733.20	257.98
733.53	257.80
733.86	257.53
734.19	257.24
734.52	257.15
734.85	256.95
735.18	256.64
735.51	256.41
735.84	256.24
736.17	256.10
736.50	255.76
736.83	255.63
737.16	255.46
737.49	255.30
737.82	254.92
738.15	254.65
738.48	254.35
738.81	254.05
739.14	253.91
739.47	253.70
739.80	253.43
740.13	253.14
740.46	252.80
740.79	252.50
741.12	252.27
741.45	251.96
741.78	251.54
742.11	251.38
742.44	251.13
742.77	250.70
743.10	250.37
743.43	250.19
743.75	249.88
744.08	249.86
744.41	249.56
744.74	249.31
745.07	249.10
745.40	248.90
745.73	248.79
746.06	248.43
746.39	248.24
746.71	248.12
747.04	247.90
747.37	247.73
747.70	247.59
748.03	247.40
748.36	247.16
748.68	247.00
749.01	246.69
749.34	246.46
749.67	246.28
750.00	246.04
750.33	245.92
750.65	245.75
750.98	245.31
751.31	245.14
751.64	244.96
751.97	244.88
752.29	244.71
752.62	244.45
752.95	244.36
753.28	244.18
753.60	243.99
753.93	243.85
754.26	243.60
754.59	243.35
754.91	242.97
755.24	242.89
755.57	242.65
755.90	242.42
756.22	242.20
756.55	241.99
756.88	241.85
757.20	241.64
757.53	241.42
757.86	241.24
758.19	241.09
758.51	240.98
758.84	240.84
759.17	240.63
759.49	240.44
759.82	240.32
760.15	240.18
760.47	240.05
760.80	239.83
761.13	239.80
761.45	239.75
761.78	239.71
762.11	239.45
762.43	239.43
762.76	239.29
763.08	239.23
763.41	239.21
763.74	239.04
764.06	238.94
764.39	238.76
764.71	238.61
765.04	238.48
765.37	238.30
765.69	238.09
766.02	237.98
766.34	237.96
766.67	237.66
767.00	237.65
767.32	237.54
767.65	237.63
767.97	237.42
768.30	237.26
768.62	237.24
768.95	237.17
769.27	237.07
769.60	237.10
769.92	236.95
770.25	236.88
770.57	236.84
770.90	236.68
771.22	236.71
771.55	236.71
771.87	236.63
772.20	236.59
772.52	236.63
772.85	236.82
773.17	236.66
773.50	236.70
773.82	236.56
774.15	236.50
774.47	236.24
774.80	236.16
775.12	236.07
775.45	235.92
775.77	235.74
776.09	235.78
776.42	235.68
776.74	235.68
777.07	235.57
777.39	235.44
777.72	235.40
778.04	235.34
778.36	235.22
778.69	235.19
779.01	235.13
779.33	234.92
779.66	234.61
779.98	234.55
780.31	234.54
780.63	234.59
780.95	234.49
781.28	234.40
781.60	234.41
781.92	234.46
782.25	234.38
782.57	234.40
782.89	234.20
783.22	234.10
783.54	233.95
783.86	233.94
784.19	233.81
784.51	233.74
784.83	233.57
785.16	233.52
785.48	233.46
785.80	233.32
786.12	233.34
786.45	233.24
786.77	233.20
787.09	233.10
787.42	232.95
787.74	232.97
788.06	232.92
788.38	232.74
788.71	232.61
789.03	232.61
789.35	232.65
789.67	232.50
789.99	232.48
790.32	232.50
790.64	232.39
