SpectraSuite Data File
++++++++++++++++++++++++++++++++++++
Date: Fri Feb 01 14:33:41 EST 2013
User: group
Dark Spectrum Present: No
Reference Spectrum Present: No
Number of Sampled Component Spectra: 1
Spectrometers: USB2E7196
Integration Time (usec): 70000 (USB2E7196)
Spectra Averaged: 10 (USB2E7196)
Boxcar Smoothing: 10 (USB2E7196)
Correct for Electrical Dark: No (USB2E7196)
Strobe/Lamp Enabled: No (USB2E7196)
Correct for Detector Non-linearity: No (USB2E7196)
Correct for Stray Light: No (USB2E7196)
Number of Pixels in Processed Spectrum: 2048
>>>>>Begin Processed Spectral Data<<<<<
339.09	0.00
339.48	217.20
339.86	218.40
340.24	220.50
340.63	219.70
341.01	226.00
341.39	222.90
341.78	223.80
342.16	224.90
342.54	227.10
342.93	215.10
343.31	226.03
343.69	226.50
344.07	226.89
344.46	227.31
344.84	227.65
345.22	227.70
345.60	228.02
345.99	228.32
346.37	228.56
346.75	228.60
347.13	228.59
347.52	228.72
347.90	228.86
348.28	228.89
348.66	228.91
349.05	228.88
349.43	228.83
349.81	228.82
350.19	228.92
350.57	228.92
350.96	228.93
351.34	228.98
351.72	229.14
352.10	229.31
352.48	229.35
352.87	229.47
353.25	229.64
353.63	229.72
354.01	229.75
354.39	229.76
354.77	229.86
355.15	229.94
355.54	230.01
355.92	230.01
356.30	229.97
356.68	230.30
357.06	230.39
357.44	230.46
357.82	230.61
358.20	230.70
358.58	230.90
358.97	231.01
359.35	231.01
359.73	231.07
360.11	231.01
360.49	231.07
360.87	231.14
361.25	231.08
361.63	231.13
362.01	231.15
362.39	231.17
362.77	231.20
363.15	231.27
363.53	231.24
363.91	231.31
364.29	231.26
364.67	231.07
365.05	231.05
365.43	231.10
365.81	231.00
366.19	231.01
366.57	230.94
366.95	230.90
367.33	230.93
367.71	230.93
368.09	230.98
368.47	230.95
368.85	230.86
369.23	230.94
369.61	230.84
369.99	230.86
370.37	230.89
370.75	230.96
371.13	230.80
371.51	230.68
371.89	230.55
372.27	230.53
372.65	230.40
373.03	230.29
373.41	230.22
373.78	230.22
374.16	230.11
374.54	229.98
374.92	229.87
375.30	229.79
375.68	229.60
376.06	229.54
376.44	229.42
376.82	229.33
377.19	229.32
377.57	229.27
377.95	229.10
378.33	228.92
378.71	228.69
379.09	228.73
379.47	228.79
379.84	228.66
380.22	228.65
380.60	228.52
380.98	228.44
381.36	228.28
381.73	228.23
382.11	228.24
382.49	228.25
382.87	228.07
383.25	227.97
383.62	228.19
384.00	228.13
384.38	228.13
384.76	228.25
385.13	228.31
385.51	228.13
385.89	228.10
386.27	228.08
386.64	228.11
387.02	228.01
387.40	228.02
387.78	228.03
388.15	227.98
388.53	227.99
388.91	228.01
389.29	228.05
389.66	227.91
390.04	227.76
390.42	227.70
390.79	227.90
391.17	227.91
391.55	227.77
391.92	227.71
392.30	227.71
392.68	227.69
393.05	227.63
393.43	227.70
393.81	227.79
394.18	227.81
394.56	227.83
394.94	227.90
395.31	227.83
395.69	227.97
396.06	228.10
396.44	228.21
396.82	228.35
397.19	228.54
397.57	228.82
397.95	229.04
398.32	229.11
398.70	229.18
399.07	229.39
399.45	229.45
399.82	229.67
400.20	229.79
400.58	229.98
400.95	229.99
401.33	230.24
401.70	230.52
402.08	230.80
402.45	231.08
402.83	231.37
403.20	231.75
403.58	232.04
403.95	232.36
404.33	232.70
404.71	233.02
405.08	233.41
405.46	233.61
405.83	234.03
406.21	234.48
406.58	234.88
406.96	235.32
407.33	235.80
407.70	236.40
408.08	237.14
408.45	237.66
408.83	238.39
409.20	239.03
409.58	239.83
409.95	240.57
410.33	241.42
410.70	242.20
411.08	243.03
411.45	244.04
411.82	245.15
412.20	246.32
412.57	247.65
412.95	248.78
413.32	250.33
413.69	251.72
414.07	253.26
414.44	254.87
414.82	256.50
415.19	258.48
415.56	260.39
415.94	262.40
416.31	264.72
416.68	267.07
417.06	269.72
417.43	272.02
417.81	274.83
418.18	277.73
418.55	280.89
418.93	284.24
419.30	287.50
419.67	291.01
420.04	294.66
420.42	298.50
420.79	302.87
421.16	307.22
421.54	311.79
421.91	316.59
422.28	321.62
422.66	327.03
423.03	332.12
423.40	337.50
423.77	343.15
424.15	348.94
424.52	354.85
424.89	361.40
425.26	367.70
425.64	373.74
426.01	380.40
426.38	387.25
426.75	394.23
427.13	401.52
427.50	408.98
427.87	416.90
428.24	424.80
428.61	432.49
428.99	440.66
429.36	449.59
429.73	458.40
430.10	467.00
430.47	475.71
430.85	484.93
431.22	494.63
431.59	504.80
431.96	514.56
432.33	525.38
432.70	535.80
433.08	548.14
433.45	559.76
433.82	571.28
434.19	584.15
434.56	596.70
434.93	608.88
435.30	620.90
435.68	634.08
436.05	647.16
436.42	660.10
436.79	671.90
437.16	684.54
437.53	697.70
437.90	711.37
438.27	724.56
438.64	738.25
439.01	750.80
439.38	762.24
439.75	773.18
440.13	785.77
440.50	797.79
440.87	807.65
441.24	817.83
441.61	829.22
441.98	837.82
442.35	847.41
442.72	857.58
443.09	867.47
443.46	873.77
443.83	878.19
444.20	882.34
444.57	888.19
444.94	891.52
445.31	895.33
445.68	898.23
446.05	900.59
446.42	900.65
446.79	900.68
447.16	900.52
447.53	901.16
447.90	897.92
448.27	894.71
448.64	889.29
449.01	886.35
449.37	878.90
449.74	871.75
450.11	862.97
450.48	853.04
450.85	843.05
451.22	834.54
451.59	826.45
451.96	818.84
452.33	808.05
452.70	798.65
453.07	786.83
453.43	775.04
453.80	763.19
454.17	752.16
454.54	741.55
454.91	729.77
455.28	718.36
455.65	707.88
456.02	696.44
456.38	687.41
456.75	675.48
457.12	665.97
457.49	656.26
457.86	647.16
458.23	639.02
458.59	630.00
458.96	621.20
459.33	613.49
459.70	605.52
460.07	599.03
460.43	591.38
460.80	584.13
461.17	577.72
461.54	571.27
461.91	564.83
462.27	558.26
462.64	552.92
463.01	546.65
463.38	540.55
463.74	535.06
464.11	529.93
464.48	525.24
464.85	520.14
465.21	516.39
465.58	512.19
465.95	507.50
466.32	503.66
466.68	499.50
467.05	495.30
467.42	491.10
467.78	486.91
468.15	482.84
468.52	479.84
468.88	476.26
469.25	472.83
469.62	469.87
469.98	466.94
470.35	464.11
470.72	461.45
471.08	458.58
471.45	456.11
471.82	453.36
472.18	450.67
472.55	448.56
472.92	446.20
473.28	444.24
473.65	442.15
474.02	440.01
474.38	438.18
474.75	436.68
475.11	435.08
475.48	433.89
475.85	432.77
476.21	431.50
476.58	430.39
476.94	429.62
477.31	428.83
477.67	428.09
478.04	427.25
478.41	426.78
478.77	426.45
479.14	425.80
479.50	425.67
479.87	425.70
480.23	425.84
480.60	425.78
480.96	425.88
481.33	426.16
481.69	426.48
482.06	426.82
482.42	426.79
482.79	427.13
483.15	427.64
483.52	428.51
483.88	429.12
484.25	429.98
484.61	430.98
484.98	431.91
485.34	433.23
485.71	434.84
486.07	436.21
486.44	437.54
486.80	439.34
487.17	441.07
487.53	443.22
487.90	445.27
488.26	447.37
488.62	449.70
488.99	451.85
489.35	454.28
489.72	457.10
490.08	460.22
490.44	463.18
490.81	466.32
491.17	469.30
491.54	472.84
491.90	476.06
492.26	479.56
492.63	483.37
492.99	487.07
493.36	490.94
493.72	495.21
494.08	499.46
494.45	503.88
494.81	508.44
495.17	512.90
495.54	517.57
495.90	522.26
496.26	526.80
496.63	532.02
496.99	537.25
497.35	542.45
497.72	547.85
498.08	553.28
498.44	558.90
498.80	565.06
499.17	570.85
499.53	576.88
499.89	582.81
500.26	588.80
500.62	594.81
500.98	601.17
501.34	607.41
501.71	614.09
502.07	620.45
502.43	626.84
502.79	633.23
503.16	639.96
503.52	646.79
503.88	653.47
504.24	660.09
504.60	666.93
504.97	673.73
505.33	680.52
505.69	687.62
506.05	694.55
506.41	700.93
506.78	707.46
507.14	714.10
507.50	720.93
507.86	727.84
508.22	734.62
508.59	741.19
508.95	747.82
509.31	754.21
509.67	761.30
510.03	767.98
510.39	774.81
510.75	781.20
511.12	787.69
511.48	794.37
511.84	801.05
512.20	807.30
512.56	813.76
512.92	820.15
513.28	826.22
513.64	831.99
514.00	838.07
514.37	844.00
514.73	849.69
515.09	855.04
515.45	860.33
515.81	865.69
516.17	871.39
516.53	876.89
516.89	882.07
517.25	886.96
517.61	891.98
517.97	896.69
518.33	901.42
518.69	906.20
519.05	910.76
519.41	915.35
519.77	920.59
520.13	925.10
520.49	929.65
520.85	934.01
521.21	938.31
521.57	942.86
521.93	947.16
522.29	951.65
522.65	955.76
523.01	959.69
523.37	963.20
523.73	966.62
524.09	970.21
524.45	973.95
524.81	977.48
525.17	981.23
525.53	984.92
525.89	988.49
526.25	991.93
526.61	995.26
526.97	998.45
527.33	1000.93
527.68	1004.06
528.04	1006.59
528.40	1009.49
528.76	1012.97
529.12	1016.14
529.48	1019.46
529.84	1022.23
530.20	1025.56
530.56	1029.01
530.91	1033.03
531.27	1036.47
531.63	1039.59
531.99	1042.61
532.35	1045.38
532.71	1048.04
533.07	1050.97
533.42	1053.61
533.78	1056.64
534.14	1059.55
534.50	1062.28
534.86	1065.18
535.21	1067.43
535.57	1070.32
535.93	1073.10
536.29	1075.51
536.65	1077.94
537.00	1080.00
537.36	1082.64
537.72	1085.03
538.08	1087.17
538.44	1088.98
538.79	1091.21
539.15	1093.30
539.51	1095.51
539.87	1098.30
540.22	1100.62
540.58	1103.32
540.94	1105.67
541.29	1107.73
541.65	1109.94
542.01	1112.43
542.37	1114.61
542.72	1117.19
543.08	1119.58
543.44	1121.63
543.79	1123.48
544.15	1125.58
544.51	1128.34
544.87	1130.70
545.22	1132.76
545.58	1134.82
545.94	1136.64
546.29	1138.35
546.65	1140.27
547.01	1141.97
547.36	1143.34
547.72	1145.34
548.07	1146.56
548.43	1148.58
548.79	1150.30
549.14	1152.19
549.50	1153.53
549.86	1155.00
550.21	1156.34
550.57	1157.64
550.92	1159.29
551.28	1160.55
551.64	1161.71
551.99	1163.10
552.35	1163.98
552.70	1165.54
553.06	1167.39
553.41	1168.78
553.77	1170.32
554.13	1171.66
554.48	1173.28
554.84	1174.83
555.19	1175.73
555.55	1176.87
555.90	1177.52
556.26	1178.68
556.61	1179.25
556.97	1180.13
557.32	1181.31
557.68	1182.61
558.03	1183.85
558.39	1184.70
558.74	1186.36
559.10	1187.62
559.45	1188.37
559.81	1190.14
560.16	1190.78
560.52	1191.36
560.87	1192.97
561.23	1193.69
561.58	1194.67
561.94	1195.69
562.29	1196.21
562.64	1196.92
563.00	1197.70
563.35	1199.21
563.71	1200.09
564.06	1201.35
564.42	1202.05
564.77	1203.07
565.12	1203.98
565.48	1204.81
565.83	1205.22
566.19	1205.74
566.54	1206.13
566.89	1206.40
567.25	1206.50
567.60	1207.47
567.96	1207.80
568.31	1207.78
568.66	1207.77
569.02	1207.74
569.37	1207.29
569.72	1207.26
570.08	1207.67
570.43	1207.75
570.78	1207.34
571.14	1206.69
571.49	1206.33
571.84	1206.57
572.20	1205.69
572.55	1204.79
572.90	1203.85
573.26	1203.57
573.61	1202.77
573.96	1202.12
574.31	1200.95
574.67	1199.55
575.02	1197.79
575.37	1196.75
575.72	1195.19
576.08	1194.04
576.43	1192.89
576.78	1191.60
577.13	1190.44
577.49	1188.74
577.84	1187.43
578.19	1186.00
578.54	1184.60
578.90	1182.83
579.25	1180.56
579.60	1178.58
579.95	1176.43
580.30	1174.54
580.66	1172.40
581.01	1170.00
581.36	1167.72
581.71	1166.30
582.06	1164.31
582.42	1162.30
582.77	1159.80
583.12	1157.55
583.47	1155.51
583.82	1153.36
584.17	1150.90
584.53	1148.39
584.88	1145.82
585.23	1143.19
585.58	1140.64
585.93	1138.13
586.28	1135.90
586.63	1133.49
586.98	1131.28
587.34	1129.50
587.69	1127.13
588.04	1124.76
588.39	1122.65
588.74	1119.59
589.09	1116.50
589.44	1113.55
589.79	1110.95
590.14	1108.51
590.49	1105.83
590.84	1103.15
591.19	1100.26
591.54	1097.31
591.89	1093.90
592.25	1091.13
592.60	1087.62
592.95	1084.25
593.30	1081.05
593.65	1077.55
594.00	1074.49
594.35	1071.67
594.70	1067.88
595.05	1064.60
595.40	1061.06
595.75	1057.36
596.10	1054.76
596.45	1051.78
596.80	1049.06
597.15	1045.94
597.50	1042.41
597.85	1039.34
598.19	1035.99
598.54	1032.75
598.89	1029.95
599.24	1027.64
599.59	1024.57
599.94	1021.86
600.29	1018.79
600.64	1015.45
600.99	1011.92
601.34	1008.76
601.69	1005.03
602.04	1001.78
602.39	998.21
602.74	995.25
603.08	992.20
603.43	988.98
603.78	985.34
604.13	981.73
604.48	978.18
604.83	975.14
605.18	971.87
605.53	968.08
605.87	964.25
606.22	960.71
606.57	956.79
606.92	953.36
607.27	949.88
607.62	946.60
607.96	943.31
608.31	940.10
608.66	936.27
609.01	932.47
609.36	928.50
609.70	924.52
610.05	920.44
610.40	916.63
610.75	912.59
611.10	908.75
611.44	904.44
611.79	900.49
612.14	896.39
612.49	891.76
612.83	887.94
613.18	884.10
613.53	879.79
613.88	875.56
614.22	871.22
614.57	866.66
614.92	862.27
615.27	858.23
615.61	854.14
615.96	850.22
616.31	846.40
616.65	843.03
617.00	839.57
617.35	835.70
617.70	831.69
618.04	827.25
618.39	823.40
618.74	819.98
619.08	816.19
619.43	812.32
619.78	808.90
620.12	804.97
620.47	801.15
620.82	797.61
621.16	794.08
621.51	790.70
621.85	787.45
622.20	783.80
622.55	780.17
622.89	776.65
623.24	773.01
623.59	769.60
623.93	765.77
624.28	761.98
624.62	758.68
624.97	755.23
625.32	752.33
625.66	749.17
626.01	745.66
626.35	742.25
626.70	738.80
627.04	735.54
627.39	732.03
627.73	728.75
628.08	725.37
628.43	721.94
628.77	718.49
629.12	714.80
629.46	711.34
629.81	707.94
630.15	704.31
630.50	701.01
630.84	697.36
631.19	693.90
631.53	690.60
631.88	686.96
632.22	683.45
632.57	680.09
632.91	676.48
633.26	673.14
633.60	669.72
633.95	666.50
634.29	663.10
634.64	660.22
634.98	656.93
635.32	653.89
635.67	651.00
636.01	647.86
636.36	644.94
636.70	641.91
637.05	638.74
637.39	635.85
637.73	632.97
638.08	630.39
638.42	627.87
638.77	625.27
639.11	622.54
639.45	619.87
639.80	616.86
640.14	614.11
640.49	611.40
640.83	608.72
641.17	605.99
641.52	603.36
641.86	600.47
642.20	597.98
642.55	595.15
642.89	592.28
643.23	589.50
643.58	587.07
643.92	584.41
644.26	581.72
644.61	579.12
644.95	576.22
645.29	573.19
645.64	570.22
645.98	567.22
646.32	564.35
646.66	561.54
647.01	558.69
647.35	556.09
647.69	553.43
648.04	550.68
648.38	547.80
648.72	544.96
649.06	542.26
649.41	539.33
649.75	536.39
650.09	533.72
650.43	530.90
650.78	527.77
651.12	525.00
651.46	522.40
651.80	519.89
652.14	517.58
652.49	515.15
652.83	512.62
653.17	510.02
653.51	507.53
653.85	504.96
654.20	502.50
654.54	499.74
654.88	497.02
655.22	494.31
655.56	491.80
655.90	489.21
656.25	486.80
656.59	484.41
656.93	482.08
657.27	479.59
657.61	477.04
657.95	474.75
658.29	472.50
658.64	470.20
658.98	467.88
659.32	465.21
659.66	462.74
660.00	460.38
660.34	458.11
660.68	455.81
661.02	453.53
661.36	451.34
661.70	449.29
662.05	447.32
662.39	445.38
662.73	443.33
663.07	441.43
663.41	439.45
663.75	437.41
664.09	435.51
664.43	433.50
664.77	431.77
665.11	429.86
665.45	427.85
665.79	426.03
666.13	423.88
666.47	422.01
666.81	420.14
667.15	418.23
667.49	416.47
667.83	414.77
668.17	412.96
668.51	411.14
668.85	409.32
669.19	407.59
669.53	405.91
669.87	404.15
670.21	402.55
670.55	400.96
670.89	399.39
671.23	397.89
671.57	396.40
671.91	394.88
672.25	393.50
672.58	392.19
672.92	390.68
673.26	389.38
673.60	388.09
673.94	386.65
674.28	385.38
674.62	384.06
674.96	382.67
675.30	381.29
675.64	380.03
675.97	378.54
676.31	377.06
676.65	375.72
676.99	374.44
677.33	373.08
677.67	371.69
678.01	370.36
678.34	368.98
678.68	367.69
679.02	366.36
679.36	364.93
679.70	363.42
680.04	361.95
680.37	360.70
680.71	359.40
681.05	358.26
681.39	357.10
681.73	355.91
682.06	354.76
682.40	353.74
682.74	352.64
683.08	351.79
683.42	350.66
683.75	349.50
684.09	348.33
684.43	347.19
684.77	346.06
685.10	344.95
685.44	343.80
685.78	342.77
686.12	341.72
686.45	340.51
686.79	339.53
687.13	338.61
687.46	337.44
687.80	336.48
688.14	335.44
688.48	334.45
688.81	333.41
689.15	332.36
689.49	331.30
689.82	330.17
690.16	328.98
690.50	328.01
690.83	326.86
691.17	325.88
691.51	324.87
691.84	323.90
692.18	322.76
692.52	321.83
692.85	320.78
693.19	319.78
693.52	318.84
693.86	317.86
694.20	316.82
694.53	315.86
694.87	314.88
695.21	313.95
695.54	312.86
695.88	311.75
696.21	310.76
696.55	309.73
696.88	308.90
697.22	308.04
697.56	307.19
697.89	306.47
698.23	305.67
698.56	304.80
698.90	303.82
699.23	303.05
699.57	302.19
699.90	301.37
700.24	300.41
700.58	299.65
700.91	298.81
701.25	298.09
701.58	297.41
701.92	296.51
702.25	295.64
702.59	294.87
702.92	294.16
703.26	293.45
703.59	292.82
703.93	292.12
704.26	291.37
704.60	290.62
704.93	289.85
705.26	289.12
705.60	288.54
705.93	287.86
706.27	287.37
706.60	286.62
706.94	285.86
707.27	285.20
707.61	284.58
707.94	284.03
708.27	283.41
708.61	282.75
708.94	282.19
709.28	281.63
709.61	281.05
709.94	280.56
710.28	279.97
710.61	279.33
710.95	278.70
711.28	278.25
711.61	277.65
711.95	277.21
712.28	276.61
712.61	275.96
712.95	275.50
713.28	274.85
713.61	274.49
713.95	274.07
714.28	273.67
714.61	273.17
714.95	272.65
715.28	272.15
715.61	271.69
715.95	271.29
716.28	270.69
716.61	270.25
716.95	269.75
717.28	269.37
717.61	268.90
717.94	268.45
718.28	267.97
718.61	267.50
718.94	266.97
719.27	266.55
719.61	266.20
719.94	265.86
720.27	265.47
720.60	265.00
720.94	264.73
721.27	264.40
721.60	264.18
721.93	263.81
722.27	263.58
722.60	263.20
722.93	262.72
723.26	262.53
723.59	262.21
723.93	261.86
724.26	261.53
724.59	261.31
724.92	261.05
725.25	260.68
725.59	260.50
725.92	260.30
726.25	260.01
726.58	259.72
726.91	259.46
727.24	259.30
727.57	259.01
727.91	258.72
728.24	258.48
728.57	258.16
728.90	257.92
729.23	257.59
729.56	257.38
729.89	257.23
730.22	256.97
730.55	256.67
730.89	256.54
731.22	256.30
731.55	255.98
731.88	255.60
732.21	255.45
732.54	255.10
732.87	254.80
733.20	254.61
733.53	254.41
733.86	254.22
734.19	253.77
734.52	253.57
734.85	253.42
735.18	253.19
735.51	252.98
735.84	252.76
736.17	252.54
736.50	252.21
736.83	251.97
737.16	251.71
737.49	251.47
737.82	251.19
738.15	250.94
738.48	250.80
738.81	250.58
739.14	250.30
739.47	250.05
739.80	249.81
740.13	249.55
740.46	249.19
740.79	248.80
741.12	248.61
741.45	248.39
741.78	247.95
742.11	247.63
742.44	247.33
742.77	247.02
743.10	246.81
743.43	246.57
743.75	246.35
744.08	246.37
744.41	246.10
744.74	245.84
745.07	245.55
745.40	245.31
745.73	245.10
746.06	244.95
746.39	244.83
746.71	244.45
747.04	244.19
747.37	244.00
747.70	243.89
748.03	243.66
748.36	243.58
748.68	243.42
749.01	243.20
749.34	243.03
749.67	242.91
750.00	242.76
750.33	242.74
750.65	242.52
750.98	242.10
751.31	241.97
751.64	241.68
751.97	241.69
752.29	241.47
752.62	241.38
752.95	241.26
753.28	241.07
753.60	241.11
753.93	240.96
754.26	240.80
754.59	240.53
754.91	240.42
755.24	240.20
755.57	240.01
755.90	239.92
756.22	239.72
756.55	239.54
756.88	239.27
757.20	239.07
757.53	238.76
757.86	238.64
758.19	238.59
758.51	238.67
758.84	238.40
759.17	238.32
759.49	238.12
759.82	237.94
760.15	237.85
760.47	237.74
760.80	237.61
761.13	237.65
761.45	237.68
761.78	237.58
762.11	237.40
762.43	237.38
762.76	237.32
763.08	237.29
763.41	237.27
763.74	237.19
764.06	237.08
764.39	237.17
764.71	237.13
765.04	236.95
765.37	236.79
765.69	236.73
766.02	236.62
766.34	236.68
766.67	236.68
767.00	236.73
767.32	236.82
767.65	236.98
767.97	236.91
768.30	236.83
768.62	236.76
768.95	236.70
769.27	236.65
769.60	236.60
769.92	236.59
770.25	236.50
770.57	236.45
770.90	236.34
771.22	236.31
771.55	236.24
771.87	236.32
772.20	236.25
772.52	236.39
772.85	236.56
773.17	236.43
773.50	236.32
773.82	236.17
774.15	235.97
774.47	235.80
774.80	235.65
775.12	235.58
775.45	235.58
775.77	235.57
776.09	235.50
776.42	235.44
776.74	235.39
777.07	235.28
777.39	235.18
777.72	235.20
778.04	235.14
778.36	235.13
778.69	235.00
779.01	234.96
779.33	234.74
779.66	234.48
779.98	234.38
780.31	234.33
780.63	234.35
780.95	234.24
781.28	234.28
781.60	234.22
781.92	234.07
782.25	234.01
782.57	233.99
782.89	233.92
783.22	233.79
783.54	233.61
783.86	233.59
784.19	233.58
784.51	233.48
784.83	233.36
785.16	233.27
785.48	233.21
785.80	233.07
786.12	232.93
786.45	232.85
786.77	232.81
787.09	232.76
787.42	232.63
787.74	232.62
788.06	232.42
788.38	232.36
788.71	232.36
789.03	232.37
789.35	232.24
789.67	232.13
