SpectraSuite Data File
++++++++++++++++++++++++++++++++++++
Date: Fri Feb 01 14:37:38 EST 2013
User: group
Dark Spectrum Present: No
Reference Spectrum Present: No
Number of Sampled Component Spectra: 1
Spectrometers: USB2E7196
Integration Time (usec): 70000 (USB2E7196)
Spectra Averaged: 10 (USB2E7196)
Boxcar Smoothing: 10 (USB2E7196)
Correct for Electrical Dark: No (USB2E7196)
Strobe/Lamp Enabled: No (USB2E7196)
Correct for Detector Non-linearity: No (USB2E7196)
Correct for Stray Light: No (USB2E7196)
Number of Pixels in Processed Spectrum: 2048
>>>>>Begin Processed Spectral Data<<<<<
339.09	0.00
339.48	214.90
339.86	216.50
340.24	219.90
340.63	219.30
341.01	225.10
341.39	223.20
341.78	223.50
342.16	223.90
342.54	224.30
342.93	213.94
343.31	224.78
343.69	225.38
344.07	225.85
344.46	226.25
344.84	226.62
345.22	226.70
345.60	226.95
345.99	227.13
346.37	227.39
346.75	227.55
347.13	227.60
347.52	227.73
347.90	227.80
348.28	227.94
348.66	227.95
349.05	228.02
349.43	228.12
349.81	228.12
350.19	228.15
350.57	227.99
350.96	228.08
351.34	228.20
351.72	228.32
352.10	228.40
352.48	228.44
352.87	228.59
353.25	228.66
353.63	228.69
354.01	228.71
354.39	228.73
354.77	228.79
355.15	229.00
355.54	229.01
355.92	229.06
356.30	229.10
356.68	229.28
357.06	229.34
357.44	229.43
357.82	229.52
358.20	229.63
358.58	229.74
358.97	229.88
359.35	229.95
359.73	230.00
360.11	230.03
360.49	230.09
360.87	230.14
361.25	230.30
361.63	230.42
362.01	230.51
362.39	230.56
362.77	230.62
363.15	230.57
363.53	230.70
363.91	230.71
364.29	230.65
364.67	230.42
365.05	230.30
365.43	230.29
365.81	230.33
366.19	230.46
366.57	230.58
366.95	230.52
367.33	230.45
367.71	230.44
368.09	230.49
368.47	230.50
368.85	230.44
369.23	230.46
369.61	230.36
369.99	230.40
370.37	230.44
370.75	230.54
371.13	230.42
371.51	230.30
371.89	230.27
372.27	230.21
372.65	230.20
373.03	230.15
373.41	230.08
373.78	229.96
374.16	229.62
374.54	229.40
374.92	229.35
375.30	229.30
375.68	229.12
376.06	229.06
376.44	228.98
376.82	228.84
377.19	228.71
377.57	228.61
377.95	228.36
378.33	228.14
378.71	227.93
379.09	227.84
379.47	227.72
379.84	227.61
380.22	227.51
380.60	227.34
380.98	227.40
381.36	227.30
381.73	227.28
382.11	227.35
382.49	227.33
382.87	227.10
383.25	227.02
383.62	227.11
384.00	226.98
384.38	226.85
384.76	226.81
385.13	226.73
385.51	226.60
385.89	226.62
386.27	226.63
386.64	226.55
387.02	226.54
387.40	226.56
387.78	226.57
388.15	226.62
388.53	226.66
388.91	226.52
389.29	226.54
389.66	226.40
390.04	226.34
390.42	226.37
390.79	226.43
391.17	226.33
391.55	226.26
391.92	226.24
392.30	226.24
392.68	226.23
393.05	226.17
393.43	226.30
393.81	226.32
394.18	226.30
394.56	226.31
394.94	226.41
395.31	226.32
395.69	226.28
396.06	226.30
396.44	226.36
396.82	226.33
397.19	226.44
397.57	226.59
397.95	226.69
398.32	226.63
398.70	226.69
399.07	226.87
399.45	226.89
399.82	226.98
400.20	227.00
400.58	227.12
400.95	227.16
401.33	227.38
401.70	227.64
402.08	227.76
402.45	227.91
402.83	228.10
403.20	228.37
403.58	228.61
403.95	228.84
404.33	229.01
404.71	229.28
405.08	229.57
405.46	229.72
405.83	229.88
406.21	230.18
406.58	230.37
406.96	230.60
407.33	230.77
407.70	231.20
408.08	231.72
408.45	232.00
408.83	232.43
409.20	232.64
409.58	232.71
409.95	233.12
410.33	233.55
410.70	233.88
411.08	234.38
411.45	234.85
411.82	235.30
412.20	235.87
412.57	236.51
412.95	236.87
413.32	237.49
413.69	238.20
414.07	238.90
414.44	239.66
414.82	240.33
415.19	241.21
415.56	241.92
415.94	242.68
416.31	243.60
416.68	244.56
417.06	245.62
417.43	246.74
417.81	247.80
418.18	248.96
418.55	250.20
418.93	251.54
419.30	252.91
419.67	254.27
420.04	255.76
420.42	257.26
420.79	259.23
421.16	261.01
421.54	262.83
421.91	264.81
422.28	266.83
422.66	268.98
423.03	271.27
423.40	273.41
423.77	275.63
424.15	278.07
424.52	280.59
424.89	283.15
425.26	285.77
425.64	288.20
426.01	290.76
426.38	293.58
426.75	296.34
427.13	299.40
427.50	302.53
427.87	305.67
428.24	308.89
428.61	311.77
428.99	315.32
429.36	318.85
429.73	322.26
430.10	325.78
430.47	329.53
430.85	333.12
431.22	337.00
431.59	341.24
431.96	345.27
432.33	349.47
432.70	353.83
433.08	358.89
433.45	363.70
433.82	368.59
434.19	373.96
434.56	378.94
434.93	383.71
435.30	388.60
435.68	394.00
436.05	399.21
436.42	404.35
436.79	409.03
437.16	414.16
437.53	419.65
437.90	424.90
438.27	430.00
438.64	435.46
439.01	440.52
439.38	444.99
439.75	449.27
440.13	454.31
440.50	458.89
440.87	462.72
441.24	466.78
441.61	471.09
441.98	474.19
442.35	478.00
442.72	481.82
443.09	485.53
443.46	487.78
443.83	489.44
444.20	491.12
444.57	493.11
444.94	494.36
445.31	495.59
445.68	496.91
446.05	497.62
446.42	497.59
446.79	497.49
447.16	497.48
447.53	497.68
447.90	496.31
448.27	495.14
448.64	492.77
449.01	491.34
449.37	488.45
449.74	485.56
450.11	482.06
450.48	478.06
450.85	474.15
451.22	470.83
451.59	467.65
451.96	464.52
452.33	460.20
452.70	456.30
453.07	451.52
453.43	446.75
453.80	442.04
454.17	437.50
454.54	433.33
454.91	428.41
455.28	423.41
455.65	419.01
456.02	414.63
456.38	410.89
456.75	406.06
457.12	401.99
457.49	397.98
457.86	394.12
458.23	390.98
458.59	387.32
458.96	383.63
459.33	380.39
459.70	377.20
460.07	374.65
460.43	371.57
460.80	368.74
461.17	366.13
461.54	363.49
461.91	360.72
462.27	357.96
462.64	355.80
463.01	353.54
463.38	351.10
463.74	348.47
464.11	346.49
464.48	344.61
464.85	342.62
465.21	341.04
465.58	339.35
465.95	337.29
466.32	335.52
466.68	333.83
467.05	332.10
467.42	330.33
467.78	328.50
468.15	326.70
468.52	325.25
468.88	323.60
469.25	322.18
469.62	321.09
469.98	319.81
470.35	318.50
470.72	317.19
471.08	315.90
471.45	314.82
471.82	313.63
472.18	312.35
472.55	311.30
472.92	310.20
473.28	309.26
473.65	308.23
474.02	307.20
474.38	306.32
474.75	305.48
475.11	304.66
475.48	303.91
475.85	303.46
476.21	302.86
476.58	302.26
476.94	301.74
477.31	301.06
477.67	300.40
478.04	299.88
478.41	299.54
478.77	299.39
479.14	298.94
479.50	298.73
479.87	298.54
480.23	298.26
480.60	297.95
480.96	297.53
481.33	297.37
481.69	297.20
482.06	296.92
482.42	296.74
482.79	296.50
483.15	296.45
483.52	296.34
483.88	296.20
484.25	296.20
484.61	296.21
484.98	296.27
485.34	296.40
485.71	296.59
486.07	296.69
486.44	296.62
486.80	296.76
487.17	296.78
487.53	297.16
487.90	297.46
488.26	297.83
488.62	298.30
488.99	298.56
489.35	298.82
489.72	299.13
490.08	299.54
490.44	300.00
490.81	300.47
491.17	300.92
491.54	301.43
491.90	301.76
492.26	302.22
492.63	302.71
492.99	303.32
493.36	303.83
493.72	304.47
494.08	305.07
494.45	305.82
494.81	306.45
495.17	306.88
495.54	307.57
495.90	308.20
496.26	308.87
496.63	309.56
496.99	310.37
497.35	311.11
497.72	311.89
498.08	312.42
498.44	313.09
498.80	313.71
499.17	314.32
499.53	315.05
499.89	315.79
500.26	316.48
500.62	317.00
500.98	317.67
501.34	318.26
501.71	318.90
502.07	319.41
502.43	319.94
502.79	320.41
503.16	320.90
503.52	321.34
503.88	321.64
504.24	322.02
504.60	322.51
504.97	323.01
505.33	323.24
505.69	323.73
506.05	324.19
506.41	324.50
506.78	324.90
507.14	325.06
507.50	325.29
507.86	325.49
508.22	325.80
508.59	325.93
508.95	326.11
509.31	326.41
509.67	326.59
510.03	326.79
510.39	327.01
510.75	327.20
511.12	327.31
511.48	327.51
511.84	327.68
512.20	327.70
512.56	327.71
512.92	327.94
513.28	328.13
513.64	328.11
514.00	328.30
514.37	328.34
514.73	328.51
515.09	328.60
515.45	328.62
515.81	328.85
516.17	328.94
516.53	329.03
516.89	328.91
517.25	329.07
517.61	329.34
517.97	329.67
518.33	329.92
518.69	330.35
519.05	330.71
519.41	331.22
519.77	331.90
520.13	332.53
520.49	333.03
520.85	333.57
521.21	334.35
521.57	335.04
521.93	335.74
522.29	336.59
522.65	337.40
523.01	338.42
523.37	339.24
523.73	340.41
524.09	341.52
524.45	342.74
524.81	343.90
525.17	345.22
525.53	346.67
525.89	347.99
526.25	349.53
526.61	351.09
526.97	352.68
527.33	354.24
527.68	356.11
528.04	357.94
528.40	359.97
528.76	361.98
529.12	364.11
529.48	366.46
529.84	368.90
530.20	371.22
530.56	373.68
530.91	376.36
531.27	379.08
531.63	381.82
531.99	384.67
532.35	387.59
532.71	390.35
533.07	393.29
533.42	396.60
533.78	399.64
534.14	402.90
534.50	406.01
534.86	409.44
535.21	412.75
535.57	416.47
535.93	420.02
536.29	423.72
536.65	427.46
537.00	431.11
537.36	434.75
537.72	438.75
538.08	442.75
538.44	446.51
538.79	450.62
539.15	454.62
539.51	458.82
539.87	463.06
540.22	467.55
540.58	472.02
540.94	476.34
541.29	480.67
541.65	485.03
542.01	489.94
542.37	494.56
542.72	499.18
543.08	503.69
543.44	508.28
543.79	512.68
544.15	517.35
544.51	522.28
544.87	527.13
545.22	531.86
545.58	536.55
545.94	541.46
546.29	546.14
546.65	550.96
547.01	555.92
547.36	560.85
547.72	565.65
548.07	570.58
548.43	575.29
548.79	580.49
549.14	585.37
549.50	590.14
549.86	594.92
550.21	599.65
550.57	604.54
550.92	609.50
551.28	614.53
551.64	619.35
551.99	624.06
552.35	628.92
552.70	633.74
553.06	638.59
553.41	643.56
553.77	648.45
554.13	653.40
554.48	658.30
554.84	663.35
555.19	668.25
555.55	673.01
555.90	677.88
556.26	682.59
556.61	687.51
556.97	691.87
557.32	696.62
557.68	701.54
558.03	706.25
558.39	710.92
558.74	715.84
559.10	720.52
559.45	725.45
559.81	730.46
560.16	735.20
560.52	739.90
560.87	744.48
561.23	748.80
561.58	753.58
561.94	757.67
562.29	761.66
562.64	765.91
563.00	770.10
563.35	774.74
563.71	779.18
564.06	783.40
564.42	788.00
564.77	792.11
565.12	796.33
565.48	800.64
565.83	804.69
566.19	808.49
566.54	812.30
566.89	815.94
567.25	819.26
567.60	823.10
567.96	826.96
568.31	830.73
568.66	834.25
569.02	837.47
569.37	841.01
569.72	844.63
570.08	847.63
570.43	850.80
570.78	853.59
571.14	856.32
571.49	859.36
571.84	862.63
572.20	865.45
572.55	868.06
572.90	870.69
573.26	873.43
573.61	875.81
573.96	878.32
574.31	880.36
574.67	882.30
575.02	884.16
575.37	885.99
575.72	887.41
576.08	889.54
576.43	891.27
576.78	893.03
577.13	894.86
577.49	896.99
577.84	898.48
578.19	900.01
578.54	901.38
578.90	902.65
579.25	903.24
579.60	904.34
579.95	905.19
580.30	905.88
580.66	906.39
581.01	907.29
581.36	908.13
581.71	909.16
582.06	910.22
582.42	910.82
582.77	911.53
583.12	912.30
583.47	912.94
583.82	913.77
584.17	914.10
584.53	914.49
584.88	914.73
585.23	915.31
585.58	915.59
585.93	915.99
586.28	916.41
586.63	916.86
586.98	917.05
587.34	917.43
587.69	917.85
588.04	918.17
588.39	918.25
588.74	918.10
589.09	917.90
589.44	917.39
589.79	917.43
590.14	917.18
590.49	916.86
590.84	916.49
591.19	916.00
591.54	915.44
591.89	914.18
592.25	913.47
592.60	912.22
592.95	911.31
593.30	910.36
593.65	909.32
594.00	908.01
594.35	907.36
594.70	906.06
595.05	904.77
595.40	903.46
595.75	902.01
596.10	901.06
596.45	900.12
596.80	899.48
597.15	898.46
597.50	897.13
597.85	896.12
598.19	894.96
598.54	893.79
598.89	892.77
599.24	892.26
599.59	890.99
599.94	890.22
600.29	888.96
600.64	887.41
600.99	885.90
601.34	884.92
601.69	883.30
602.04	882.02
602.39	880.62
602.74	879.30
603.08	878.20
603.43	876.79
603.78	875.20
604.13	873.49
604.48	871.67
604.83	870.28
605.18	868.69
605.53	866.72
605.87	864.68
606.22	863.08
606.57	861.01
606.92	859.33
607.27	857.57
607.62	856.15
607.96	854.70
608.31	853.19
608.66	851.07
609.01	848.90
609.36	846.84
609.70	844.44
610.05	842.20
610.40	839.91
610.75	837.27
611.10	835.04
611.44	832.35
611.79	829.97
612.14	827.12
612.49	824.03
612.83	821.32
613.18	818.67
613.53	815.99
613.88	813.22
614.22	810.31
614.57	807.13
614.92	804.05
615.27	801.30
615.61	798.16
615.96	795.51
616.31	793.01
616.65	790.61
617.00	788.37
617.35	785.99
617.70	783.35
618.04	780.73
618.39	778.16
618.74	775.90
619.08	773.13
619.43	770.85
619.78	768.52
620.12	765.99
620.47	763.67
620.82	760.80
621.16	758.32
621.51	755.84
621.85	753.42
622.20	750.73
622.55	748.01
622.89	745.66
623.24	743.11
623.59	740.48
623.93	737.78
624.28	734.87
624.62	732.27
624.97	729.72
625.32	727.30
625.66	724.37
626.01	721.55
626.35	718.92
626.70	716.20
627.04	713.53
627.39	711.00
627.73	708.12
628.08	705.67
628.43	702.91
628.77	700.23
629.12	697.55
629.46	694.97
629.81	692.10
630.15	689.27
630.50	686.36
630.84	683.22
631.19	680.10
631.53	677.40
631.88	674.06
632.22	670.74
632.57	667.95
632.91	665.39
633.26	662.81
633.60	659.96
633.95	657.16
634.29	654.66
634.64	652.02
634.98	649.28
635.32	646.65
635.67	644.07
636.01	641.59
636.36	638.78
636.70	636.09
637.05	633.54
637.39	630.94
637.73	628.64
638.08	626.53
638.42	624.45
638.77	622.15
639.11	619.77
639.45	617.78
639.80	615.27
640.14	612.65
640.49	610.02
640.83	607.53
641.17	605.16
641.52	602.59
641.86	599.76
642.20	597.44
642.55	594.72
642.89	592.18
643.23	589.56
643.58	587.35
643.92	584.87
644.26	582.46
644.61	579.92
644.95	577.44
645.29	574.48
645.64	571.68
645.98	569.01
646.32	566.74
646.66	563.83
647.01	561.19
647.35	558.80
647.69	556.26
648.04	554.14
648.38	551.50
648.72	548.90
649.06	546.51
649.41	544.07
649.75	541.49
650.09	538.99
650.43	536.50
650.78	533.78
651.12	531.30
651.46	528.90
651.80	526.50
652.14	523.81
652.49	521.72
652.83	519.25
653.17	516.57
653.51	513.88
653.85	511.81
654.20	509.41
654.54	506.72
654.88	504.11
655.22	501.33
655.56	498.87
655.90	496.47
656.25	494.16
656.59	491.60
656.93	489.33
657.27	487.02
657.61	484.37
657.95	482.20
658.29	480.00
658.64	477.77
658.98	475.30
659.32	473.00
659.66	470.74
660.00	468.55
660.34	466.48
660.68	464.23
661.02	461.67
661.36	459.57
661.70	457.50
662.05	455.65
662.39	453.68
662.73	451.74
663.07	449.74
663.41	447.72
663.75	445.67
664.09	443.74
664.43	441.58
664.77	439.89
665.11	437.99
665.45	435.96
665.79	433.83
666.13	431.93
666.47	430.00
666.81	427.88
667.15	426.00
667.49	424.00
667.83	422.19
668.17	420.60
668.51	418.66
668.85	416.88
669.19	414.97
669.53	413.21
669.87	411.14
670.21	409.38
670.55	407.61
670.89	406.18
671.23	404.67
671.57	403.09
671.91	401.40
672.25	399.73
672.58	398.17
672.92	396.55
673.26	395.12
673.60	393.69
673.94	392.31
674.28	390.80
674.62	389.49
674.96	388.08
675.30	386.61
675.64	385.08
675.97	383.70
676.31	382.38
676.65	380.91
676.99	379.81
677.33	378.45
677.67	377.18
678.01	375.65
678.34	374.07
678.68	372.67
679.02	371.16
679.36	369.79
679.70	368.51
680.04	367.26
680.37	365.83
680.71	364.49
681.05	363.18
681.39	362.00
681.73	360.83
682.06	359.77
682.40	358.57
682.74	357.42
683.08	356.22
683.42	355.07
683.75	353.90
684.09	352.64
684.43	351.50
684.77	350.20
685.10	348.98
685.44	347.90
685.78	346.93
686.12	345.93
686.45	344.72
686.79	343.50
687.13	342.39
687.46	341.33
687.80	340.21
688.14	339.08
688.48	337.85
688.81	336.62
689.15	335.42
689.49	334.32
689.82	333.24
690.16	332.09
690.50	330.83
690.83	329.74
691.17	328.66
691.51	327.49
691.84	326.56
692.18	325.54
692.52	324.44
692.85	323.46
693.19	322.54
693.52	321.65
693.86	320.58
694.20	319.61
694.53	318.54
694.87	317.63
695.21	316.59
695.54	315.53
695.88	314.58
696.21	313.53
696.55	312.65
696.88	311.85
697.22	310.91
697.56	310.11
697.89	309.17
698.23	308.25
698.56	307.40
698.90	306.47
699.23	305.58
699.57	304.76
699.90	303.82
700.24	302.83
700.58	302.06
700.91	301.28
701.25	300.65
701.58	300.02
701.92	299.17
702.25	298.45
702.59	297.88
702.92	296.98
703.26	296.24
703.59	295.36
703.93	294.67
704.26	293.93
704.60	293.25
704.93	292.65
705.26	291.97
705.60	291.29
705.93	290.66
706.27	290.04
706.60	289.36
706.94	288.72
707.27	287.99
707.61	287.25
707.94	286.65
708.27	285.75
708.61	285.01
708.94	284.33
709.28	283.69
709.61	283.01
709.94	282.61
710.28	282.07
710.61	281.50
710.95	280.72
711.28	280.33
711.61	279.68
711.95	279.10
712.28	278.51
712.61	277.93
712.95	277.34
713.28	276.76
713.61	276.08
713.95	275.50
714.28	275.11
714.61	274.50
714.95	273.98
715.28	273.51
715.61	272.98
715.95	272.64
716.28	272.22
716.61	271.74
716.95	271.12
717.28	270.71
717.61	270.35
717.94	270.07
718.28	269.45
718.61	269.10
718.94	268.70
719.27	268.30
719.61	267.91
719.94	267.41
720.27	266.90
720.60	266.52
720.94	266.14
721.27	265.83
721.60	265.53
721.93	265.09
722.27	264.79
722.60	264.47
722.93	264.09
723.26	263.68
723.59	263.28
723.93	263.00
724.26	262.70
724.59	262.26
724.92	261.71
725.25	261.42
725.59	261.06
725.92	260.60
726.25	260.31
726.58	259.96
726.91	259.69
727.24	259.43
727.57	259.20
727.91	258.83
728.24	258.45
728.57	258.10
728.90	257.87
729.23	257.53
729.56	257.36
729.89	257.01
730.22	256.68
730.55	256.37
730.89	256.11
731.22	255.65
731.55	255.39
731.88	255.13
732.21	254.86
732.54	254.61
732.87	254.34
733.20	253.96
733.53	253.71
733.86	253.44
734.19	253.16
734.52	252.80
734.85	252.61
735.18	252.24
735.51	252.06
735.84	251.79
736.17	251.47
736.50	251.13
736.83	251.04
737.16	250.86
737.49	250.63
737.82	250.42
738.15	250.33
738.48	250.22
738.81	250.07
739.14	249.73
739.47	249.42
739.80	249.39
740.13	249.15
740.46	249.00
740.79	248.79
741.12	248.64
741.45	248.56
741.78	248.31
742.11	248.20
742.44	247.96
742.77	247.79
743.10	247.54
743.43	247.29
743.75	246.93
744.08	246.94
744.41	246.69
744.74	246.32
745.07	246.15
745.40	245.87
745.73	245.74
746.06	245.59
746.39	245.47
746.71	245.09
747.04	244.97
747.37	244.69
747.70	244.55
748.03	244.29
748.36	244.10
748.68	243.82
749.01	243.62
749.34	243.50
749.67	243.34
750.00	243.23
750.33	243.23
750.65	243.08
750.98	242.68
751.31	242.65
751.64	242.61
751.97	242.50
752.29	242.40
752.62	242.19
752.95	242.09
753.28	241.89
753.60	241.77
753.93	241.67
754.26	241.56
754.59	241.26
754.91	241.12
755.24	241.01
755.57	240.97
755.90	240.82
756.22	240.54
756.55	240.37
756.88	240.23
757.20	239.97
757.53	239.80
757.86	239.61
758.19	239.49
758.51	239.34
758.84	239.17
759.17	238.95
759.49	238.80
759.82	238.68
760.15	238.58
760.47	238.43
760.80	238.32
761.13	238.13
761.45	238.11
761.78	237.99
762.11	237.83
762.43	237.65
762.76	237.63
763.08	237.63
763.41	237.56
763.74	237.50
764.06	237.37
764.39	237.14
764.71	237.11
765.04	236.92
765.37	236.78
765.69	236.70
766.02	236.61
766.34	236.53
766.67	236.43
767.00	236.32
767.32	236.39
767.65	236.30
767.97	236.34
768.30	236.26
768.62	236.19
768.95	236.03
769.27	236.01
769.60	235.91
769.92	235.87
770.25	235.64
770.57	235.53
770.90	235.41
771.22	235.49
771.55	235.32
771.87	235.29
772.20	235.22
772.52	235.20
772.85	235.37
773.17	235.40
773.50	235.32
773.82	235.25
774.15	235.01
774.47	234.91
774.80	234.83
775.12	234.75
775.45	234.69
775.77	234.72
776.09	234.66
776.42	234.53
776.74	234.38
777.07	234.39
777.39	234.25
777.72	234.26
778.04	234.21
778.36	234.20
778.69	234.11
779.01	234.11
779.33	233.88
779.66	233.53
779.98	233.32
780.31	233.26
780.63	233.27
780.95	233.28
781.28	233.20
781.60	233.09
781.92	233.17
782.25	233.13
782.57	233.10
782.89	233.02
783.22	232.97
783.54	232.93
783.86	232.95
784.19	232.87
784.51	232.85
784.83	232.70
785.16	232.74
785.48	232.78
785.80	232.71
786.12	232.78
786.45	232.78
786.77	232.71
787.09	232.67
787.42	232.61
787.74	232.63
788.06	232.62
788.38	232.61
788.71	232.39
789.03	232.46
789.35	232.45
789.67	232.37
789.99	232.33
790.32	232.38
790.64	232.32
790.96	232.47
791.28	232.41
791.61	232.36
791.93	232.23
792.25	232.08
792.57	232.22
792.89	232.15
793.21	232.11
793.54	232.11
793.86	232.09
794.18	232.09
