SpectraSuite Data File
++++++++++++++++++++++++++++++++++++
Date: Fri Feb 01 14:34:21 EST 2013
User: group
Dark Spectrum Present: No
Reference Spectrum Present: No
Number of Sampled Component Spectra: 1
Spectrometers: USB2E7196
Integration Time (usec): 70000 (USB2E7196)
Spectra Averaged: 10 (USB2E7196)
Boxcar Smoothing: 10 (USB2E7196)
Correct for Electrical Dark: No (USB2E7196)
Strobe/Lamp Enabled: No (USB2E7196)
Correct for Detector Non-linearity: No (USB2E7196)
Correct for Stray Light: No (USB2E7196)
Number of Pixels in Processed Spectrum: 2048
>>>>>Begin Processed Spectral Data<<<<<
339.09	0.00
339.48	214.90
339.86	217.50
340.24	220.20
340.63	220.20
341.01	224.20
341.39	220.60
341.78	222.50
342.16	226.90
342.54	225.90
342.93	214.41
343.31	225.24
343.69	225.89
344.07	226.41
344.46	226.78
344.84	227.16
345.22	227.34
345.60	227.73
345.99	228.00
346.37	228.13
346.75	228.27
347.13	228.38
347.52	228.59
347.90	228.65
348.28	228.63
348.66	228.71
349.05	228.76
349.43	228.88
349.81	228.93
350.19	229.00
350.57	229.05
350.96	229.14
351.34	229.20
351.72	229.22
352.10	229.26
352.48	229.36
352.87	229.49
353.25	229.53
353.63	229.65
354.01	229.72
354.39	229.77
354.77	229.85
355.15	230.03
355.54	229.98
355.92	230.01
356.30	230.04
356.68	230.20
357.06	230.31
357.44	230.37
357.82	230.48
358.20	230.59
358.58	230.55
358.97	230.59
359.35	230.76
359.73	230.88
360.11	230.96
360.49	231.02
360.87	231.05
361.25	231.20
361.63	231.28
362.01	231.42
362.39	231.37
362.77	231.38
363.15	231.36
363.53	231.35
363.91	231.34
364.29	231.43
364.67	231.33
365.05	231.24
365.43	231.25
365.81	231.13
366.19	231.25
366.57	231.50
366.95	231.50
367.33	231.54
367.71	231.46
368.09	231.49
368.47	231.40
368.85	231.29
369.23	231.23
369.61	231.10
369.99	231.01
370.37	231.07
370.75	231.08
371.13	231.08
371.51	230.99
371.89	230.99
372.27	230.94
372.65	230.88
373.03	230.93
373.41	230.87
373.78	230.90
374.16	230.67
374.54	230.32
374.92	230.12
375.30	229.87
375.68	229.81
376.06	229.77
376.44	229.76
376.82	229.82
377.19	229.71
377.57	229.63
377.95	229.46
378.33	229.33
378.71	229.16
379.09	228.95
379.47	228.99
379.84	228.81
380.22	228.70
380.60	228.54
380.98	228.37
381.36	228.24
381.73	228.13
382.11	228.03
382.49	228.10
382.87	228.12
383.25	228.05
383.62	228.13
384.00	227.99
384.38	227.92
384.76	227.79
385.13	227.83
385.51	227.75
385.89	227.85
386.27	227.88
386.64	227.90
387.02	227.96
387.40	227.91
387.78	227.97
388.15	227.91
388.53	227.85
388.91	227.76
389.29	227.69
389.66	227.60
390.04	227.55
390.42	227.47
390.79	227.43
391.17	227.45
391.55	227.43
391.92	227.35
392.30	227.22
392.68	227.23
393.05	227.21
393.43	227.30
393.81	227.20
394.18	227.14
394.56	227.20
394.94	227.15
395.31	227.17
395.69	227.16
396.06	227.25
396.44	227.44
396.82	227.64
397.19	227.87
397.57	227.99
397.95	228.24
398.32	228.34
398.70	228.46
399.07	228.67
399.45	228.68
399.82	228.84
400.20	229.15
400.58	229.30
400.95	229.39
401.33	229.53
401.70	229.85
402.08	230.02
402.45	230.24
402.83	230.56
403.20	230.78
403.58	231.06
403.95	231.39
404.33	231.61
404.71	231.87
405.08	232.34
405.46	232.75
405.83	232.99
406.21	233.34
406.58	233.85
406.96	234.25
407.33	234.71
407.70	235.35
408.08	235.96
408.45	236.51
408.83	237.30
409.20	237.93
409.58	238.44
409.95	239.24
410.33	239.90
410.70	240.64
411.08	241.49
411.45	242.43
411.82	243.37
412.20	244.33
412.57	245.55
412.95	246.33
413.32	247.40
413.69	248.66
414.07	250.13
414.44	251.61
414.82	253.05
415.19	254.67
415.56	256.30
415.94	258.12
416.31	260.25
416.68	262.00
417.06	264.28
417.43	266.51
417.81	268.97
418.18	271.56
418.55	274.31
418.93	277.22
419.30	280.17
419.67	283.07
420.04	286.34
420.42	289.73
420.79	293.84
421.16	297.79
421.54	301.87
421.91	305.83
422.28	310.07
422.66	314.71
423.03	319.33
423.40	324.02
423.77	328.98
424.15	334.15
424.52	339.45
424.89	345.11
425.26	350.68
425.64	355.83
426.01	361.46
426.38	367.37
426.75	373.26
427.13	379.52
427.50	386.34
427.87	393.28
428.24	400.12
428.61	406.63
428.99	413.86
429.36	421.70
429.73	429.52
430.10	437.12
430.47	444.78
430.85	452.95
431.22	461.26
431.59	470.30
431.96	478.79
432.33	488.47
432.70	497.65
433.08	508.53
433.45	518.70
433.82	529.16
434.19	540.48
434.56	551.63
434.93	562.21
435.30	572.58
435.68	584.29
436.05	595.64
436.42	607.00
436.79	617.15
437.16	628.28
437.53	639.98
437.90	651.63
438.27	663.22
438.64	674.84
439.01	685.95
439.38	695.56
439.75	704.89
440.13	715.84
440.50	726.08
440.87	734.71
441.24	743.79
441.61	753.78
441.98	761.14
442.35	769.55
442.72	778.40
443.09	787.08
443.46	792.48
443.83	796.22
444.20	799.90
444.57	805.07
444.94	807.97
445.31	811.08
445.68	813.75
446.05	815.93
446.42	816.32
446.79	816.20
447.16	816.12
447.53	816.63
447.90	813.68
448.27	810.96
448.64	805.94
449.01	803.13
449.37	796.37
449.74	790.25
450.11	782.53
450.48	773.95
450.85	765.29
451.22	758.05
451.59	751.13
451.96	744.46
452.33	735.11
452.70	726.63
453.07	716.19
453.43	705.97
453.80	695.47
454.17	685.49
454.54	676.43
454.91	666.24
455.28	656.20
455.65	646.66
456.02	636.97
456.38	629.16
456.75	618.80
457.12	610.56
457.49	601.99
457.86	593.96
458.23	587.10
458.59	579.35
458.96	571.32
459.33	564.47
459.70	557.27
460.07	551.59
460.43	544.94
460.80	538.60
461.17	532.99
461.54	527.29
461.91	521.67
462.27	516.05
462.64	511.23
463.01	505.99
463.38	500.97
463.74	495.94
464.11	491.33
464.48	487.21
464.85	482.70
465.21	479.40
465.58	475.93
465.95	471.42
466.32	467.74
466.68	463.99
467.05	460.47
467.42	456.83
467.78	453.06
468.15	449.58
468.52	446.90
468.88	443.56
469.25	440.55
469.62	438.11
469.98	435.21
470.35	432.76
470.72	430.34
471.08	427.77
471.45	425.66
471.82	423.39
472.18	420.91
472.55	419.13
472.92	416.91
473.28	415.08
473.65	413.20
474.02	411.27
474.38	409.80
474.75	408.50
475.11	407.11
475.48	406.06
475.85	405.02
476.21	404.00
476.58	403.13
476.94	402.34
477.31	401.43
477.67	400.68
478.04	400.10
478.41	399.60
478.77	399.29
479.14	398.73
479.50	398.41
479.87	398.48
480.23	398.46
480.60	398.41
480.96	398.18
481.33	398.56
481.69	398.79
482.06	398.89
482.42	398.79
482.79	398.98
483.15	399.57
483.52	400.24
483.88	400.90
484.25	401.37
484.61	402.25
484.98	403.09
485.34	404.10
485.71	405.14
486.07	406.23
486.44	407.41
486.80	408.82
487.17	410.12
487.53	411.78
487.90	413.35
488.26	415.11
488.62	417.07
488.99	418.79
489.35	420.72
489.72	422.93
490.08	425.40
490.44	427.64
490.81	429.78
491.17	432.35
491.54	434.89
491.90	437.54
492.26	440.28
492.63	443.30
492.99	446.39
493.36	449.45
493.72	452.85
494.08	456.00
494.45	459.37
494.81	463.09
495.17	466.57
495.54	470.21
495.90	474.07
496.26	477.96
496.63	481.91
496.99	486.10
497.35	490.18
497.72	494.25
498.08	498.54
498.44	502.90
498.80	507.49
499.17	512.05
499.53	516.67
499.89	521.39
500.26	525.82
500.62	530.40
500.98	535.19
501.34	539.79
501.71	544.68
502.07	549.44
502.43	554.21
502.79	559.05
503.16	563.86
503.52	568.74
503.88	573.40
504.24	578.21
504.60	582.88
504.97	587.92
505.33	592.83
505.69	598.24
506.05	603.36
506.41	607.94
506.78	612.62
507.14	617.47
507.50	622.25
507.86	627.20
508.22	632.04
508.59	636.77
508.95	641.70
509.31	646.50
509.67	651.25
510.03	655.82
510.39	660.30
510.75	665.09
511.12	669.38
511.48	673.90
511.84	678.50
512.20	682.87
512.56	687.22
512.92	691.75
513.28	695.60
513.64	699.32
514.00	703.27
514.37	707.19
514.73	710.94
515.09	714.52
515.45	718.03
515.81	721.46
516.17	724.97
516.53	728.20
516.89	731.43
517.25	734.50
517.61	737.64
517.97	740.80
518.33	743.56
518.69	746.38
519.05	749.45
519.41	752.43
519.77	755.66
520.13	758.34
520.49	760.81
520.85	763.35
521.21	766.02
521.57	768.87
521.93	771.33
522.29	773.96
522.65	776.47
523.01	778.89
523.37	781.03
523.73	783.46
524.09	785.74
524.45	787.99
524.81	790.39
525.17	792.88
525.53	795.34
525.89	797.69
526.25	800.20
526.61	802.16
526.97	804.08
527.33	806.22
527.68	808.43
528.04	810.43
528.40	812.72
528.76	815.08
529.12	817.34
529.48	819.77
529.84	821.75
530.20	824.05
530.56	826.55
530.91	829.38
531.27	831.69
531.63	833.87
531.99	836.38
532.35	838.55
532.71	840.61
533.07	843.00
533.42	845.30
533.78	847.73
534.14	850.13
534.50	852.64
534.86	854.81
535.21	857.09
535.57	859.86
535.93	862.21
536.29	864.55
536.65	866.66
537.00	869.02
537.36	871.74
537.72	873.98
538.08	876.32
538.44	878.75
538.79	880.97
539.15	883.31
539.51	885.55
539.87	888.22
540.22	890.91
540.58	893.30
540.94	895.69
541.29	898.15
541.65	900.61
542.01	903.30
542.37	905.81
542.72	908.27
543.08	910.49
543.44	913.33
543.79	915.53
544.15	918.26
544.51	920.87
544.87	923.43
545.22	926.08
545.58	928.33
545.94	930.19
546.29	932.69
546.65	935.25
547.01	937.63
547.36	939.54
547.72	941.83
548.07	944.25
548.43	946.50
548.79	948.43
549.14	950.59
549.50	952.63
549.86	954.67
550.21	956.63
550.57	959.21
550.92	961.42
551.28	963.70
551.64	965.77
551.99	968.18
552.35	970.32
552.70	972.54
553.06	975.10
553.41	977.82
553.77	980.22
554.13	982.54
554.48	984.79
554.84	987.59
555.19	989.90
555.55	991.73
555.90	994.00
556.26	996.62
556.61	999.17
556.97	1001.25
557.32	1003.61
557.68	1006.29
558.03	1008.31
558.39	1009.99
558.74	1012.46
559.10	1014.56
559.45	1016.47
559.81	1018.65
560.16	1020.51
560.52	1022.37
560.87	1024.50
561.23	1026.05
561.58	1028.35
561.94	1030.52
562.29	1032.20
562.64	1033.93
563.00	1036.11
563.35	1038.28
563.71	1040.30
564.06	1042.18
564.42	1044.25
564.77	1046.33
565.12	1048.03
565.48	1050.23
565.83	1052.30
566.19	1053.87
566.54	1055.57
566.89	1057.16
567.25	1058.74
567.60	1060.77
567.96	1062.18
568.31	1063.37
568.66	1064.76
569.02	1065.67
569.37	1066.71
569.72	1067.95
570.08	1068.97
570.43	1070.23
570.78	1070.88
571.14	1071.40
571.49	1071.80
571.84	1072.75
572.20	1073.05
572.55	1073.54
572.90	1073.26
573.26	1073.44
573.61	1074.01
573.96	1074.16
574.31	1074.07
574.67	1073.46
575.02	1072.87
575.37	1072.93
575.72	1072.33
576.08	1072.68
576.43	1072.46
576.78	1072.17
577.13	1071.92
577.49	1071.64
577.84	1071.02
578.19	1070.61
578.54	1070.01
578.90	1069.47
579.25	1067.90
579.60	1067.08
579.95	1065.98
580.30	1065.16
580.66	1064.20
581.01	1062.74
581.36	1061.60
581.71	1060.60
582.06	1060.11
582.42	1059.03
582.77	1057.69
583.12	1056.50
583.47	1055.04
583.82	1053.79
584.17	1052.10
584.53	1050.59
584.88	1048.81
585.23	1047.10
585.58	1045.49
585.93	1044.30
586.28	1042.88
586.63	1041.78
586.98	1040.39
587.34	1039.16
587.69	1037.53
588.04	1035.91
588.39	1034.24
588.74	1031.95
589.09	1030.05
589.44	1027.67
589.79	1025.87
590.14	1024.27
590.49	1022.50
590.84	1020.16
591.19	1018.08
591.54	1015.90
591.89	1013.42
592.25	1011.64
592.60	1009.11
592.95	1006.53
593.30	1003.59
593.65	1001.18
594.00	998.44
594.35	996.23
594.70	993.24
595.05	990.60
595.40	987.86
595.75	985.39
596.10	983.37
596.45	980.96
596.80	978.86
597.15	976.27
597.50	973.24
597.85	970.92
598.19	968.50
598.54	966.00
598.89	963.81
599.24	961.58
599.59	959.02
599.94	956.71
600.29	954.27
600.64	951.79
600.99	948.78
601.34	946.19
601.69	942.96
602.04	940.20
602.39	937.49
602.74	934.96
603.08	932.50
603.43	930.12
603.78	927.46
604.13	924.47
604.48	921.78
604.83	919.34
605.18	916.62
605.53	913.50
605.87	910.42
606.22	907.17
606.57	904.08
606.92	901.04
607.27	898.27
607.62	895.49
607.96	892.69
608.31	890.17
608.66	887.21
609.01	884.02
609.36	880.85
609.70	877.48
610.05	874.00
610.40	870.63
610.75	866.89
611.10	863.40
611.44	859.91
611.79	856.44
612.14	852.88
612.49	848.79
612.83	845.45
613.18	841.92
613.53	838.84
613.88	835.39
614.22	831.51
614.57	827.62
614.92	824.18
615.27	820.58
615.61	816.75
615.96	813.36
616.31	810.22
616.65	807.44
617.00	804.35
617.35	801.37
617.70	797.78
618.04	794.26
618.39	790.80
618.74	787.60
619.08	784.18
619.43	780.77
619.78	777.63
620.12	774.28
620.47	771.00
620.82	767.40
621.16	763.97
621.51	761.06
621.85	757.92
622.20	754.30
622.55	751.11
622.89	748.08
623.24	744.94
623.59	741.65
623.93	738.34
624.28	735.20
624.62	731.73
624.97	728.81
625.32	725.85
625.66	723.23
626.01	719.97
626.35	716.59
626.70	713.57
627.04	710.60
627.39	707.54
627.73	704.33
628.08	701.47
628.43	698.37
628.77	695.33
629.12	692.19
629.46	689.27
629.81	685.98
630.15	682.83
630.50	679.43
630.84	676.08
631.19	672.55
631.53	669.26
631.88	666.03
632.22	662.54
632.57	659.34
632.91	655.72
633.26	652.68
633.60	649.59
633.95	646.38
634.29	643.43
634.64	640.63
634.98	637.63
635.32	634.85
635.67	632.10
636.01	629.16
636.36	626.32
636.70	623.34
637.05	620.64
637.39	617.85
637.73	615.40
638.08	613.10
638.42	610.67
638.77	608.03
639.11	605.34
639.45	602.84
639.80	600.29
640.14	597.88
640.49	595.50
640.83	593.01
641.17	590.52
641.52	587.89
641.86	585.11
642.20	582.72
642.55	579.82
642.89	577.18
643.23	574.34
643.58	571.99
643.92	569.32
644.26	566.77
644.61	564.32
644.95	561.68
645.29	558.72
645.64	555.90
645.98	553.60
646.32	551.08
646.66	548.33
647.01	545.82
647.35	543.21
647.69	540.48
648.04	538.11
648.38	535.58
648.72	532.87
649.06	530.20
649.41	527.54
649.75	524.82
650.09	522.28
650.43	519.85
650.78	517.04
651.12	514.74
651.46	512.21
651.80	509.68
652.14	507.28
652.49	505.07
652.83	502.81
653.17	500.13
653.51	497.70
653.85	495.50
654.20	492.93
654.54	490.52
654.88	488.04
655.22	485.44
655.56	482.93
655.90	480.63
656.25	478.41
656.59	476.11
656.93	473.93
657.27	471.87
657.61	469.42
657.95	467.33
658.29	465.23
658.64	463.15
658.98	460.79
659.32	458.56
659.66	456.32
660.00	454.11
660.34	451.87
660.68	449.80
661.02	447.49
661.36	445.54
661.70	443.42
662.05	441.47
662.39	439.67
662.73	437.91
663.07	436.18
663.41	434.36
663.75	432.55
664.09	430.71
664.43	428.74
664.77	427.13
665.11	425.30
665.45	423.25
665.79	421.28
666.13	419.50
666.47	417.51
666.81	415.53
667.15	413.79
667.49	412.18
667.83	410.57
668.17	408.77
668.51	407.15
668.85	405.38
669.19	403.78
669.53	402.02
669.87	400.15
670.21	398.41
670.55	396.64
670.89	395.13
671.23	393.58
671.57	392.04
671.91	390.51
672.25	388.90
672.58	387.39
672.92	385.96
673.26	384.52
673.60	383.21
673.94	381.93
674.28	380.52
674.62	379.26
674.96	377.90
675.30	376.70
675.64	375.16
675.97	373.91
676.31	372.50
676.65	371.27
676.99	370.14
677.33	368.76
677.67	367.55
678.01	366.02
678.34	364.66
678.68	363.30
679.02	361.97
679.36	360.93
679.70	359.80
680.04	358.51
680.37	357.40
680.71	356.13
681.05	355.04
681.39	353.97
681.73	352.67
682.06	351.53
682.40	350.54
682.74	349.51
683.08	348.39
683.42	347.27
683.75	346.14
684.09	344.86
684.43	343.85
684.77	342.70
685.10	341.79
685.44	340.72
685.78	339.69
686.12	338.76
686.45	337.65
686.79	336.56
687.13	335.70
687.46	334.53
687.80	333.45
688.14	332.33
688.48	331.25
688.81	330.31
689.15	329.26
689.49	328.04
689.82	327.04
690.16	326.01
690.50	325.06
690.83	323.92
691.17	323.10
691.51	322.10
691.84	321.23
692.18	320.13
692.52	319.22
692.85	318.29
693.19	317.35
693.52	316.24
693.86	315.35
694.20	314.29
694.53	313.35
694.87	312.40
695.21	311.61
695.54	310.70
695.88	309.60
696.21	308.53
696.55	307.71
696.88	306.76
697.22	305.95
697.56	305.10
697.89	304.33
698.23	303.48
698.56	302.63
698.90	301.80
699.23	300.90
699.57	300.04
699.90	299.24
700.24	298.29
700.58	297.57
700.91	296.73
701.25	296.06
701.58	295.51
701.92	294.81
702.25	294.00
702.59	293.32
702.92	292.74
703.26	292.24
703.59	291.60
703.93	291.25
704.26	290.50
704.60	289.84
704.93	289.26
705.26	288.52
705.60	287.85
705.93	287.28
706.27	286.93
706.60	286.44
706.94	285.83
707.27	285.23
707.61	284.60
707.94	284.08
708.27	283.42
708.61	282.71
708.94	282.27
709.28	281.67
709.61	281.13
709.94	280.59
710.28	279.97
710.61	279.32
710.95	278.60
711.28	278.32
711.61	277.90
711.95	277.35
712.28	276.89
712.61	276.42
712.95	275.93
713.28	275.35
713.61	274.74
713.95	274.23
714.28	273.74
714.61	273.29
714.95	272.86
715.28	272.38
715.61	271.81
715.95	271.43
716.28	270.96
716.61	270.46
716.95	269.96
717.28	269.49
717.61	269.11
717.94	268.69
718.28	268.05
718.61	267.59
718.94	267.16
719.27	266.71
719.61	266.30
719.94	265.76
720.27	265.38
720.60	265.05
720.94	264.70
721.27	264.38
721.60	264.05
721.93	263.69
722.27	263.43
722.60	263.14
722.93	262.65
723.26	262.27
723.59	261.89
723.93	261.61
724.26	261.36
724.59	260.96
724.92	260.64
725.25	260.21
725.59	259.89
725.92	259.57
726.25	259.23
726.58	258.90
726.91	258.69
727.24	258.40
727.57	258.10
727.91	257.73
728.24	257.45
728.57	257.14
728.90	256.84
729.23	256.46
729.56	256.19
729.89	255.97
730.22	255.78
730.55	255.40
730.89	255.16
731.22	254.76
731.55	254.54
731.88	254.17
732.21	254.03
732.54	253.70
732.87	253.47
733.20	253.25
733.53	253.01
733.86	252.72
734.19	252.36
734.52	252.08
734.85	251.89
735.18	251.57
735.51	251.42
735.84	251.07
736.17	250.90
736.50	250.70
736.83	250.57
737.16	250.40
737.49	250.20
737.82	249.88
738.15	249.71
738.48	249.42
738.81	249.21
739.14	248.90
739.47	248.64
739.80	248.39
740.13	248.19
740.46	248.02
740.79	247.80
741.12	247.64
741.45	247.52
741.78	247.38
742.11	247.20
742.44	246.88
742.77	246.85
743.10	246.61
743.43	246.30
743.75	245.91
744.08	245.80
744.41	245.64
744.74	245.46
745.07	245.24
745.40	245.06
745.73	244.89
746.06	244.68
746.39	244.60
746.71	244.47
747.04	244.22
747.37	244.05
747.70	243.85
748.03	243.74
748.36	243.52
748.68	243.24
749.01	243.10
749.34	242.96
749.67	242.74
750.00	242.62
750.33	242.60
750.65	242.53
750.98	242.23
751.31	242.22
751.64	242.09
751.97	242.04
752.29	241.96
752.62	241.87
752.95	241.84
753.28	241.60
753.60	241.50
753.93	241.40
754.26	241.23
754.59	241.10
754.91	240.94
755.24	240.77
755.57	240.59
755.90	240.41
756.22	240.38
756.55	240.16
756.88	240.02
757.20	239.83
757.53	239.66
757.86	239.51
758.19	239.39
758.51	239.20
758.84	239.10
759.17	238.97
759.49	238.88
759.82	238.85
760.15	238.84
760.47	238.76
760.80	238.71
761.13	238.70
761.45	238.61
761.78	238.43
762.11	238.41
762.43	238.40
762.76	238.36
763.08	238.13
763.41	238.08
763.74	237.97
764.06	237.94
764.39	237.79
764.71	237.71
765.04	237.53
765.37	237.52
765.69	237.35
766.02	237.29
766.34	237.13
766.67	237.02
767.00	236.90
767.32	236.87
767.65	236.87
767.97	236.68
768.30	236.58
768.62	236.50
768.95	236.32
769.27	236.20
769.60	236.17
769.92	236.04
770.25	235.89
770.57	235.72
770.90	235.59
771.22	235.46
771.55	235.40
771.87	235.29
772.20	235.19
772.52	235.40
772.85	235.50
773.17	235.45
773.50	235.32
773.82	235.27
774.15	235.01
774.47	234.79
774.80	234.71
775.12	234.59
775.45	234.43
775.77	234.37
776.09	234.30
776.42	234.07
776.74	234.10
777.07	234.01
777.39	234.07
777.72	233.86
778.04	233.83
778.36	233.61
778.69	233.57
779.01	233.54
779.33	233.20
779.66	232.87
779.98	232.80
780.31	232.77
780.63	232.77
780.95	232.76
781.28	232.59
781.60	232.49
781.92	232.44
782.25	232.52
782.57	232.55
782.89	232.53
783.22	232.61
783.54	232.41
783.86	232.47
784.19	232.31
784.51	232.50
784.83	232.49
785.16	232.54
785.48	232.54
785.80	232.50
786.12	232.50
786.45	232.52
786.77	232.42
787.09	232.41
787.42	232.34
787.74	232.30
788.06	232.34
788.38	232.43
788.71	232.49
789.03	232.36
789.35	232.32
789.67	232.27
789.99	232.28
790.32	232.38
790.64	232.29
790.96	232.45
791.28	232.40
791.61	232.42
791.93	232.50
