SpectraSuite Data File
++++++++++++++++++++++++++++++++++++
Date: Fri Feb 01 14:33:32 EST 2013
User: group
Dark Spectrum Present: No
Reference Spectrum Present: No
Number of Sampled Component Spectra: 1
Spectrometers: USB2E7196
Integration Time (usec): 70000 (USB2E7196)
Spectra Averaged: 10 (USB2E7196)
Boxcar Smoothing: 10 (USB2E7196)
Correct for Electrical Dark: No (USB2E7196)
Strobe/Lamp Enabled: No (USB2E7196)
Correct for Detector Non-linearity: No (USB2E7196)
Correct for Stray Light: No (USB2E7196)
Number of Pixels in Processed Spectrum: 2048
>>>>>Begin Processed Spectral Data<<<<<
339.09	0.00
339.48	217.60
339.86	216.80
340.24	220.60
340.63	221.20
341.01	224.00
341.39	222.70
341.78	225.80
342.16	225.90
342.54	227.40
342.93	214.66
343.31	225.58
343.69	226.02
344.07	226.63
344.46	227.00
344.84	227.41
345.22	227.62
345.60	227.82
345.99	227.87
346.37	227.91
346.75	227.95
347.13	228.07
347.52	228.21
347.90	228.31
348.28	228.35
348.66	228.28
349.05	228.24
349.43	228.36
349.81	228.40
350.19	228.48
350.57	228.58
350.96	228.74
351.34	228.70
351.72	228.88
352.10	228.84
352.48	228.81
352.87	228.77
353.25	228.89
353.63	229.06
354.01	229.19
354.39	229.29
354.77	229.37
355.15	229.44
355.54	229.46
355.92	229.52
356.30	229.62
356.68	229.81
357.06	229.92
357.44	230.01
357.82	230.04
358.20	230.14
358.58	230.23
358.97	230.27
359.35	230.43
359.73	230.50
360.11	230.61
360.49	230.75
360.87	230.87
361.25	230.99
361.63	231.00
362.01	231.08
362.39	231.24
362.77	231.27
363.15	231.24
363.53	231.29
363.91	231.25
364.29	231.25
364.67	231.09
365.05	231.07
365.43	231.06
365.81	231.11
366.19	231.10
366.57	231.16
366.95	231.14
367.33	231.21
367.71	231.22
368.09	231.29
368.47	231.26
368.85	231.23
369.23	231.14
369.61	231.11
369.99	231.11
370.37	231.05
370.75	231.07
371.13	231.12
371.51	231.00
371.89	231.15
372.27	231.15
372.65	231.14
373.03	231.14
373.41	231.07
373.78	230.97
374.16	230.87
374.54	230.75
374.92	230.70
375.30	230.56
375.68	230.38
376.06	230.26
376.44	230.16
376.82	230.07
377.19	229.91
377.57	229.87
377.95	229.67
378.33	229.54
378.71	229.39
379.09	229.30
379.47	229.23
379.84	229.07
380.22	228.94
380.60	228.89
380.98	228.83
381.36	228.85
381.73	228.71
382.11	228.71
382.49	228.70
382.87	228.64
383.25	228.43
383.62	228.59
384.00	228.44
384.38	228.46
384.76	228.45
385.13	228.55
385.51	228.53
385.89	228.55
386.27	228.44
386.64	228.51
387.02	228.48
387.40	228.53
387.78	228.44
388.15	228.49
388.53	228.43
388.91	228.32
389.29	228.25
389.66	228.38
390.04	228.30
390.42	228.24
390.79	228.24
391.17	228.41
391.55	228.21
391.92	228.28
392.30	228.28
392.68	228.15
393.05	228.23
393.43	228.17
393.81	228.21
394.18	228.29
394.56	228.21
394.94	228.29
395.31	228.21
395.69	228.34
396.06	228.37
396.44	228.49
396.82	228.61
397.19	228.73
397.57	228.79
397.95	228.80
398.32	228.91
398.70	229.00
399.07	229.15
399.45	229.23
399.82	229.36
400.20	229.52
400.58	229.81
400.95	229.75
401.33	229.96
401.70	230.22
402.08	230.44
402.45	230.75
402.83	231.07
403.20	231.28
403.58	231.46
403.95	231.75
404.33	232.02
404.71	232.30
405.08	232.79
405.46	233.10
405.83	233.67
406.21	234.17
406.58	234.58
406.96	234.96
407.33	235.63
407.70	236.29
408.08	236.99
408.45	237.67
408.83	238.45
409.20	239.18
409.58	239.93
409.95	240.86
410.33	241.71
410.70	242.62
411.08	243.74
411.45	244.94
411.82	246.01
412.20	247.30
412.57	248.89
412.95	250.02
413.32	251.57
413.69	253.02
414.07	254.58
414.44	256.40
414.82	258.25
415.19	260.16
415.56	262.22
415.94	264.41
416.31	266.82
416.68	269.40
417.06	272.23
417.43	274.87
417.81	277.80
418.18	280.81
418.55	284.13
418.93	287.77
419.30	291.37
419.67	295.13
420.04	299.03
420.42	302.99
420.79	307.74
421.16	312.58
421.54	317.35
421.91	322.38
422.28	327.55
422.66	333.20
423.03	338.73
423.40	344.27
423.77	350.32
424.15	356.63
424.52	363.00
424.89	369.87
425.26	376.71
425.64	383.07
426.01	390.04
426.38	397.27
426.75	404.34
427.13	411.91
427.50	419.92
427.87	428.38
428.24	436.77
428.61	444.72
428.99	453.09
429.36	462.74
429.73	472.15
430.10	481.37
430.47	490.95
430.85	500.83
431.22	511.33
431.59	522.02
431.96	532.33
432.33	543.74
432.70	554.89
433.08	568.06
433.45	580.51
433.82	593.12
434.19	606.84
434.56	620.25
434.93	632.94
435.30	645.74
435.68	659.74
436.05	673.54
436.42	687.35
436.79	700.05
437.16	713.61
437.53	727.55
437.90	741.81
438.27	755.61
438.64	770.23
439.01	783.64
439.38	795.84
439.75	807.33
440.13	820.76
440.50	833.53
440.87	843.88
441.24	854.86
441.61	866.76
441.98	875.63
442.35	885.99
442.72	896.75
443.09	907.05
443.46	914.01
443.83	918.79
444.20	923.19
444.57	929.62
444.94	932.80
445.31	936.80
445.68	940.48
446.05	943.00
446.42	943.06
446.79	942.87
447.16	942.73
447.53	943.30
447.90	939.69
448.27	936.08
448.64	930.15
449.01	926.51
449.37	918.64
449.74	911.23
450.11	902.14
450.48	891.86
450.85	881.26
451.22	872.04
451.59	863.62
451.96	855.80
452.33	844.16
452.70	834.20
453.07	821.54
453.43	808.40
453.80	795.71
454.17	783.40
454.54	772.10
454.91	759.70
455.28	747.42
455.65	736.03
456.02	724.13
456.38	714.38
456.75	702.00
457.12	691.79
457.49	681.35
457.86	671.39
458.23	662.75
458.59	653.29
458.96	643.49
459.33	635.00
459.70	626.35
460.07	619.53
460.43	611.51
460.80	603.76
461.17	597.21
461.54	590.32
461.91	583.87
462.27	576.94
462.64	571.22
463.01	564.95
463.38	558.71
463.74	552.63
464.11	547.14
464.48	542.01
464.85	536.71
465.21	532.75
465.58	528.35
465.95	523.35
466.32	519.18
466.68	515.14
467.05	510.77
467.42	506.39
467.78	501.78
468.15	497.55
468.52	494.64
468.88	490.69
469.25	487.10
469.62	484.08
469.98	480.99
470.35	477.74
470.72	474.76
471.08	471.58
471.45	469.13
471.82	466.45
472.18	463.80
472.55	461.59
472.92	459.18
473.28	457.25
473.65	454.93
474.02	452.80
474.38	450.78
474.75	449.41
475.11	447.57
475.48	446.32
475.85	445.20
476.21	444.10
476.58	443.09
476.94	442.26
477.31	441.25
477.67	440.48
478.04	439.90
478.41	439.58
478.77	439.36
479.14	438.87
479.50	438.81
479.87	438.88
480.23	438.98
480.60	438.80
480.96	438.69
481.33	439.23
481.69	439.70
482.06	440.09
482.42	440.08
482.79	440.61
483.15	441.30
483.52	442.43
483.88	443.09
484.25	444.11
484.61	445.16
484.98	446.38
485.34	447.83
485.71	449.60
486.07	451.36
486.44	453.06
486.80	455.10
487.17	456.92
487.53	459.24
487.90	461.70
488.26	464.37
488.62	467.07
488.99	469.56
489.35	472.10
489.72	475.33
490.08	478.74
490.44	481.95
490.81	485.41
491.17	488.53
491.54	492.28
491.90	496.07
492.26	500.00
492.63	504.23
492.99	508.68
493.36	512.84
493.72	517.07
494.08	521.63
494.45	526.43
494.81	531.51
495.17	536.40
495.54	541.43
495.90	546.65
496.26	551.98
496.63	557.72
496.99	563.81
497.35	569.50
497.72	575.47
498.08	581.55
498.44	587.82
498.80	594.64
499.17	601.18
499.53	607.54
499.89	614.35
500.26	620.99
500.62	627.41
500.98	634.45
501.34	641.75
501.71	649.19
502.07	656.33
502.43	663.59
502.79	670.81
503.16	678.32
503.52	685.85
503.88	693.21
504.24	700.59
504.60	708.02
504.97	715.80
505.33	723.61
505.69	731.91
506.05	739.66
506.41	746.94
506.78	754.57
507.14	762.33
507.50	770.04
507.86	778.22
508.22	786.19
508.59	793.81
508.95	801.68
509.31	809.34
509.67	817.12
510.03	824.70
510.39	832.36
510.75	839.93
511.12	847.29
511.48	855.00
511.84	862.81
512.20	870.23
512.56	877.63
512.92	884.96
513.28	892.10
513.64	899.24
514.00	906.44
514.37	913.26
514.73	920.18
515.09	926.94
515.45	933.30
515.81	939.80
516.17	946.67
516.53	953.22
516.89	959.43
517.25	965.78
517.61	972.00
517.97	978.18
518.33	983.65
518.69	989.35
519.05	995.14
519.41	1000.90
519.77	1006.77
520.13	1012.19
520.49	1017.44
520.85	1022.34
521.21	1027.30
521.57	1032.90
521.93	1037.88
522.29	1043.19
522.65	1048.00
523.01	1052.56
523.37	1056.94
523.73	1061.33
524.09	1065.13
524.45	1069.50
524.81	1073.75
525.17	1078.28
525.53	1082.54
525.89	1087.21
526.25	1091.81
526.61	1095.37
526.97	1099.11
527.33	1103.10
527.68	1107.39
528.04	1111.28
528.40	1115.33
528.76	1119.59
529.12	1122.95
529.48	1127.11
529.84	1130.35
530.20	1134.21
530.56	1138.28
530.91	1142.82
531.27	1146.46
531.63	1150.29
531.99	1153.73
532.35	1157.11
532.71	1160.01
533.07	1163.51
533.42	1166.59
533.78	1169.75
534.14	1173.41
534.50	1176.35
534.86	1179.01
535.21	1181.25
535.57	1184.56
535.93	1187.22
536.29	1189.65
536.65	1192.70
537.00	1194.94
537.36	1197.81
537.72	1200.26
538.08	1202.71
538.44	1204.45
538.79	1206.54
539.15	1208.61
539.51	1210.72
539.87	1213.29
540.22	1215.91
540.58	1218.37
540.94	1220.65
541.29	1222.63
541.65	1224.69
542.01	1227.29
542.37	1229.58
542.72	1231.80
543.08	1233.47
543.44	1236.12
543.79	1237.78
544.15	1239.39
544.51	1242.00
544.87	1244.09
545.22	1246.15
545.58	1247.71
545.94	1249.15
546.29	1250.70
546.65	1252.13
547.01	1253.90
547.36	1254.88
547.72	1255.71
548.07	1256.75
548.43	1257.76
548.79	1258.80
549.14	1259.89
549.50	1260.24
549.86	1260.80
550.21	1261.87
550.57	1262.80
550.92	1263.00
551.28	1263.76
551.64	1264.61
551.99	1265.36
552.35	1265.76
552.70	1266.48
553.06	1267.60
553.41	1268.61
553.77	1269.48
554.13	1270.44
554.48	1271.44
554.84	1272.04
555.19	1272.99
555.55	1273.41
555.90	1273.84
556.26	1274.56
556.61	1274.76
556.97	1275.45
557.32	1276.22
557.68	1276.68
558.03	1277.06
558.39	1277.24
558.74	1278.24
559.10	1278.30
559.45	1278.50
559.81	1279.30
560.16	1279.00
560.52	1278.84
560.87	1279.35
561.23	1279.66
561.58	1280.31
561.94	1280.50
562.29	1280.77
562.64	1281.03
563.00	1281.10
563.35	1282.05
563.71	1282.65
564.06	1283.30
564.42	1283.40
564.77	1283.68
565.12	1284.06
565.48	1284.35
565.83	1284.46
566.19	1284.52
566.54	1284.95
566.89	1284.48
567.25	1284.18
567.60	1284.71
567.96	1284.77
568.31	1284.57
568.66	1284.05
569.02	1283.51
569.37	1282.85
569.72	1282.68
570.08	1282.25
570.43	1281.96
570.78	1280.94
571.14	1279.70
571.49	1278.70
571.84	1278.29
572.20	1277.25
572.55	1276.18
572.90	1274.51
573.26	1273.70
573.61	1272.17
573.96	1270.53
574.31	1268.89
574.67	1266.74
575.02	1264.60
575.37	1262.57
575.72	1260.15
576.08	1258.42
576.43	1256.28
576.78	1254.26
577.13	1252.30
577.49	1250.36
577.84	1248.24
578.19	1246.16
578.54	1244.36
578.90	1241.96
579.25	1239.00
579.60	1236.42
579.95	1233.38
580.30	1231.06
580.66	1228.07
581.01	1225.46
581.36	1222.95
581.71	1220.35
582.06	1218.05
582.42	1215.60
582.77	1212.93
583.12	1210.54
583.47	1207.91
583.82	1205.40
584.17	1202.70
584.53	1199.67
584.88	1196.34
585.23	1193.28
585.58	1190.16
585.93	1187.09
586.28	1184.61
586.63	1182.19
586.98	1179.49
587.34	1177.17
587.69	1174.17
588.04	1171.17
588.39	1168.46
588.74	1165.05
589.09	1162.13
589.44	1158.91
589.79	1155.68
590.14	1152.54
590.49	1149.30
590.84	1145.90
591.19	1142.55
591.54	1138.70
591.89	1134.54
592.25	1131.42
592.60	1127.60
592.95	1123.70
593.30	1119.81
593.65	1115.74
594.00	1111.83
594.35	1108.60
594.70	1104.55
595.05	1101.01
595.40	1097.20
595.75	1092.99
596.10	1089.48
596.45	1085.97
596.80	1082.36
597.15	1078.70
597.50	1075.00
597.85	1071.54
598.19	1068.27
598.54	1064.80
598.89	1061.60
599.24	1058.89
599.59	1055.28
599.94	1051.60
600.29	1048.01
600.64	1044.31
600.99	1040.54
601.34	1036.99
601.69	1032.52
602.04	1028.66
602.39	1024.96
602.74	1021.76
603.08	1018.30
603.43	1014.90
603.78	1011.13
604.13	1007.52
604.48	1003.80
604.83	1000.20
605.18	996.57
605.53	992.41
605.87	988.04
606.22	984.07
606.57	979.92
606.92	976.28
607.27	973.02
607.62	969.88
607.96	966.43
608.31	962.90
608.66	959.10
609.01	955.17
609.36	951.05
609.70	946.73
610.05	942.48
610.40	938.35
610.75	934.01
611.10	929.84
611.44	925.30
611.79	921.06
612.14	916.90
612.49	912.20
612.83	908.16
613.18	903.84
613.53	899.79
613.88	895.46
614.22	890.94
614.57	886.40
614.92	882.00
615.27	877.50
615.61	873.13
615.96	868.76
616.31	864.73
616.65	861.12
617.00	857.31
617.35	853.50
617.70	849.40
618.04	845.20
618.39	841.05
618.74	837.61
619.08	833.55
619.43	829.48
619.78	825.66
620.12	821.44
620.47	817.77
620.82	813.39
621.16	809.78
621.51	806.11
621.85	802.40
622.20	798.34
622.55	794.74
622.89	791.17
623.24	787.71
623.59	784.25
623.93	780.60
624.28	776.92
624.62	773.33
624.97	769.96
625.32	766.44
625.66	763.05
626.01	759.23
626.35	755.75
626.70	752.08
627.04	748.67
627.39	745.20
627.73	741.76
628.08	738.63
628.43	734.83
628.77	731.11
629.12	727.32
629.46	723.87
629.81	720.11
630.15	716.20
630.50	712.28
630.84	708.32
631.19	704.51
631.53	700.84
631.88	697.02
632.22	692.96
632.57	689.61
632.91	685.88
633.26	682.53
633.60	678.89
633.95	675.54
634.29	672.24
634.64	669.07
634.98	665.58
635.32	662.31
635.67	659.25
636.01	656.07
636.36	652.90
636.70	649.98
637.05	646.90
637.39	644.18
637.73	641.18
638.08	638.72
638.42	635.90
638.77	633.20
639.11	630.19
639.45	627.34
639.80	624.09
640.14	621.45
640.49	618.32
640.83	615.47
641.17	612.63
641.52	609.48
641.86	606.38
642.20	603.60
642.55	600.69
642.89	597.79
643.23	594.88
643.58	592.46
643.92	589.30
644.26	586.55
644.61	583.72
644.95	581.02
645.29	577.65
645.64	574.68
645.98	571.73
646.32	568.95
646.66	566.20
647.01	563.60
647.35	560.86
647.69	558.21
648.04	555.68
648.38	552.80
648.72	550.02
649.06	547.33
649.41	544.63
649.75	541.78
650.09	538.90
650.43	536.33
650.78	533.14
651.12	530.34
651.46	527.59
651.80	524.79
652.14	522.15
652.49	519.70
652.83	517.08
653.17	514.40
653.51	511.80
653.85	509.52
654.20	506.85
654.54	504.06
654.88	501.32
655.22	498.46
655.56	495.72
655.90	493.24
656.25	490.74
656.59	488.06
656.93	485.57
657.27	483.30
657.61	480.53
657.95	478.44
658.29	476.33
658.64	473.90
658.98	471.34
659.32	468.71
659.66	466.30
660.00	464.01
660.34	461.57
660.68	459.26
661.02	456.75
661.36	454.65
661.70	452.46
662.05	450.43
662.39	448.50
662.73	446.58
663.07	444.59
663.41	442.57
663.75	440.78
664.09	438.72
664.43	436.60
664.77	434.72
665.11	432.52
665.45	430.47
665.79	428.46
666.13	426.52
666.47	424.71
666.81	422.82
667.15	420.86
667.49	419.04
667.83	417.30
668.17	415.41
668.51	413.52
668.85	411.82
669.19	410.13
669.53	408.16
669.87	406.45
670.21	404.67
670.55	402.93
670.89	401.37
671.23	399.82
671.57	398.21
671.91	396.82
672.25	395.27
672.58	393.81
672.92	392.30
673.26	391.07
673.60	389.64
673.94	388.24
674.28	386.97
674.62	385.68
674.96	384.21
675.30	382.85
675.64	381.59
675.97	380.16
676.31	378.58
676.65	377.34
676.99	376.09
677.33	374.70
677.67	373.22
678.01	371.74
678.34	370.33
678.68	369.05
679.02	367.56
679.36	366.19
679.70	364.74
680.04	363.45
680.37	362.10
680.71	360.80
681.05	359.58
681.39	358.32
681.73	357.10
682.06	355.93
682.40	354.83
682.74	353.50
683.08	352.30
683.42	351.24
683.75	350.04
684.09	348.78
684.43	347.70
684.77	346.77
685.10	345.59
685.44	344.50
685.78	343.34
686.12	342.21
686.45	341.21
686.79	340.05
687.13	339.06
687.46	337.91
687.80	336.97
688.14	335.85
688.48	334.70
688.81	333.69
689.15	332.58
689.49	331.50
689.82	330.54
690.16	329.42
690.50	328.30
690.83	327.41
691.17	326.35
691.51	325.30
691.84	324.17
692.18	323.13
692.52	322.18
692.85	321.27
693.19	320.36
693.52	319.40
693.86	318.44
694.20	317.40
694.53	316.53
694.87	315.45
695.21	314.50
695.54	313.56
695.88	312.50
696.21	311.58
696.55	310.62
696.88	309.66
697.22	308.81
697.56	308.03
697.89	306.96
698.23	306.08
698.56	305.18
698.90	304.37
699.23	303.50
699.57	302.65
699.90	301.66
700.24	300.73
700.58	299.90
700.91	299.15
701.25	298.46
701.58	297.69
701.92	296.90
702.25	296.06
702.59	295.41
702.92	294.59
703.26	293.79
703.59	293.00
703.93	292.48
704.26	291.79
704.60	290.96
704.93	290.33
705.26	289.70
705.60	289.08
705.93	288.45
706.27	287.99
706.60	287.43
706.94	286.96
707.27	286.41
707.61	285.85
707.94	285.22
708.27	284.54
708.61	283.82
708.94	283.31
709.28	282.80
709.61	282.10
709.94	281.64
710.28	281.22
710.61	280.71
710.95	279.91
711.28	279.38
711.61	278.94
711.95	278.51
712.28	277.89
712.61	277.21
712.95	276.60
713.28	276.08
713.61	275.44
713.95	274.74
714.28	274.23
714.61	273.69
714.95	273.17
715.28	272.71
715.61	272.15
715.95	271.66
716.28	271.12
716.61	270.75
716.95	270.21
717.28	269.74
717.61	269.43
717.94	268.94
718.28	268.43
718.61	268.04
718.94	267.54
719.27	267.25
719.61	267.04
719.94	266.76
720.27	266.26
720.60	265.94
720.94	265.64
721.27	265.37
721.60	265.01
721.93	264.73
722.27	264.46
722.60	264.31
722.93	263.88
723.26	263.62
723.59	263.17
723.93	262.89
724.26	262.50
724.59	262.08
724.92	261.85
725.25	261.64
725.59	261.32
725.92	261.11
726.25	260.82
726.58	260.54
726.91	260.14
727.24	259.98
727.57	259.71
727.91	259.58
728.24	259.23
728.57	258.96
728.90	258.62
729.23	258.23
729.56	257.90
729.89	257.66
730.22	257.37
730.55	257.13
730.89	256.84
731.22	256.53
731.55	256.30
731.88	256.04
732.21	255.70
732.54	255.23
732.87	254.90
733.20	254.59
733.53	254.30
733.86	254.26
734.19	253.85
734.52	253.61
734.85	253.40
735.18	253.17
735.51	252.99
735.84	252.78
736.17	252.59
736.50	252.21
736.83	252.19
737.16	251.99
737.49	251.78
737.82	251.54
738.15	251.29
738.48	250.94
738.81	250.69
739.14	250.48
739.47	250.31
739.80	250.04
740.13	249.77
740.46	249.47
740.79	249.01
741.12	248.84
741.45	248.67
741.78	248.38
742.11	248.06
742.44	247.82
742.77	247.63
743.10	247.38
743.43	247.20
743.75	246.80
744.08	246.87
744.41	246.60
744.74	246.45
745.07	246.28
745.40	246.17
745.73	246.03
746.06	245.83
746.39	245.58
746.71	245.43
747.04	245.21
747.37	245.04
747.70	244.90
748.03	244.64
748.36	244.40
748.68	244.06
749.01	243.85
749.34	243.59
749.67	243.41
750.00	243.23
750.33	243.20
750.65	242.96
750.98	242.39
751.31	242.15
751.64	241.95
751.97	241.93
752.29	241.74
752.62	241.50
752.95	241.28
753.28	241.18
753.60	240.94
753.93	240.89
754.26	240.67
754.59	240.50
754.91	240.34
755.24	240.21
755.57	240.18
755.90	240.00
756.22	239.80
756.55	239.66
756.88	239.42
757.20	239.18
757.53	239.10
757.86	239.01
758.19	239.11
758.51	239.00
758.84	238.76
759.17	238.65
759.49	238.58
759.82	238.58
760.15	238.50
760.47	238.50
760.80	238.30
761.13	238.37
761.45	238.23
761.78	238.28
762.11	238.14
762.43	238.06
762.76	238.08
763.08	238.20
763.41	238.11
763.74	238.15
764.06	238.04
764.39	237.88
764.71	237.90
765.04	237.78
765.37	237.74
765.69	237.73
766.02	237.64
766.34	237.51
766.67	237.43
767.00	237.46
767.32	237.52
767.65	237.68
767.97	237.54
768.30	237.47
768.62	237.33
768.95	237.35
769.27	237.25
769.60	237.17
769.92	237.00
770.25	236.90
770.57	236.81
770.90	236.92
771.22	236.95
771.55	236.84
771.87	236.73
772.20	236.50
772.52	236.55
772.85	236.76
773.17	236.78
773.50	236.68
773.82	236.54
774.15	236.28
774.47	236.05
774.80	235.98
775.12	235.99
775.45	235.95
775.77	235.82
776.09	235.88
776.42	235.81
776.74	235.66
777.07	235.55
777.39	235.43
777.72	235.15
778.04	235.09
778.36	235.06
778.69	234.94
779.01	234.93
779.33	234.65
779.66	234.33
779.98	234.21
780.31	234.20
780.63	234.15
780.95	234.15
781.28	233.98
781.60	233.95
781.92	233.78
782.25	233.64
782.57	233.61
782.89	233.47
783.22	233.41
783.54	233.35
783.86	233.29
784.19	233.31
784.51	233.41
784.83	233.25
785.16	233.16
785.48	233.05
785.80	233.04
786.12	232.96
786.45	232.87
786.77	232.89
787.09	232.72
787.42	232.61
787.74	232.59
788.06	232.62
788.38	232.47
788.71	232.43
789.03	232.30
