SpectraSuite Data File
++++++++++++++++++++++++++++++++++++
Date: Fri Feb 01 14:40:23 EST 2013
User: group
Dark Spectrum Present: No
Reference Spectrum Present: No
Number of Sampled Component Spectra: 1
Spectrometers: USB2E7196
Integration Time (usec): 70000 (USB2E7196)
Spectra Averaged: 10 (USB2E7196)
Boxcar Smoothing: 10 (USB2E7196)
Correct for Electrical Dark: No (USB2E7196)
Strobe/Lamp Enabled: No (USB2E7196)
Correct for Detector Non-linearity: No (USB2E7196)
Correct for Stray Light: No (USB2E7196)
Number of Pixels in Processed Spectrum: 2048
>>>>>Begin Processed Spectral Data<<<<<
339.09	0.00
339.48	215.60
339.86	217.70
340.24	219.70
340.63	219.40
341.01	223.60
341.39	220.70
341.78	222.20
342.16	225.40
342.54	227.00
342.93	214.01
343.31	224.84
343.69	225.40
344.07	225.97
344.46	226.39
344.84	226.79
345.22	226.95
345.60	227.32
345.99	227.60
346.37	227.71
346.75	227.77
347.13	227.98
347.52	228.09
347.90	228.13
348.28	228.19
348.66	228.32
349.05	228.20
349.43	228.17
349.81	228.15
350.19	228.14
350.57	228.19
350.96	228.32
351.34	228.29
351.72	228.30
352.10	228.30
352.48	228.25
352.87	228.27
353.25	228.35
353.63	228.36
354.01	228.34
354.39	228.42
354.77	228.49
355.15	228.54
355.54	228.57
355.92	228.62
356.30	228.72
356.68	228.92
357.06	228.99
357.44	229.02
357.82	229.12
358.20	229.21
358.58	229.27
358.97	229.30
359.35	229.44
359.73	229.58
360.11	229.60
360.49	229.71
360.87	229.74
361.25	229.81
361.63	230.01
362.01	230.16
362.39	230.18
362.77	230.24
363.15	230.31
363.53	230.28
363.91	230.36
364.29	230.27
364.67	230.06
365.05	230.10
365.43	230.16
365.81	230.20
366.19	230.26
366.57	230.26
366.95	230.10
367.33	230.10
367.71	230.12
368.09	230.14
368.47	230.08
368.85	230.01
369.23	230.06
369.61	229.88
369.99	229.91
370.37	229.90
370.75	229.91
371.13	229.79
371.51	229.70
371.89	229.65
372.27	229.64
372.65	229.57
373.03	229.59
373.41	229.55
373.78	229.42
374.16	229.25
374.54	229.17
374.92	229.16
375.30	229.09
375.68	228.97
376.06	228.89
376.44	228.85
376.82	228.81
377.19	228.64
377.57	228.55
377.95	228.32
378.33	228.22
378.71	228.06
379.09	227.98
379.47	227.95
379.84	227.88
380.22	227.73
380.60	227.67
380.98	227.50
381.36	227.26
381.73	227.13
382.11	227.19
382.49	227.23
382.87	227.20
383.25	227.13
383.62	227.19
384.00	227.10
384.38	227.07
384.76	227.03
385.13	227.10
385.51	227.09
385.89	227.08
386.27	227.02
386.64	226.99
387.02	226.95
387.40	226.84
387.78	226.78
388.15	226.76
388.53	226.63
388.91	226.65
389.29	226.72
389.66	226.77
390.04	226.73
390.42	226.72
390.79	226.62
391.17	226.57
391.55	226.44
391.92	226.34
392.30	226.35
392.68	226.38
393.05	226.38
393.43	226.36
393.81	226.42
394.18	226.36
394.56	226.39
394.94	226.45
395.31	226.46
395.69	226.54
396.06	226.53
396.44	226.71
396.82	226.69
397.19	226.87
397.57	226.80
397.95	226.93
398.32	226.80
398.70	226.94
399.07	226.92
399.45	227.01
399.82	227.20
400.20	227.25
400.58	227.30
400.95	227.31
401.33	227.47
401.70	227.61
402.08	227.76
402.45	227.80
402.83	227.90
403.20	228.15
403.58	228.23
403.95	228.58
404.33	228.79
404.71	228.95
405.08	229.14
405.46	229.39
405.83	229.45
406.21	229.70
406.58	229.88
406.96	230.22
407.33	230.47
407.70	230.67
408.08	231.00
408.45	231.16
408.83	231.48
409.20	231.63
409.58	231.84
409.95	232.23
410.33	232.60
410.70	233.03
411.08	233.31
411.45	233.70
411.82	233.88
412.20	234.10
412.57	234.63
412.95	234.97
413.32	235.40
413.69	235.77
414.07	236.22
414.44	236.64
414.82	237.02
415.19	237.39
415.56	237.82
415.94	238.18
416.31	238.85
416.68	239.34
417.06	240.09
417.43	240.68
417.81	241.30
418.18	242.06
418.55	242.67
418.93	243.46
419.30	244.29
419.67	245.22
420.04	246.21
420.42	247.01
420.79	248.20
421.16	249.40
421.54	250.71
421.91	251.90
422.28	253.22
422.66	254.57
423.03	255.93
423.40	257.31
423.77	258.82
424.15	260.25
424.52	261.71
424.89	263.22
425.26	264.84
425.64	266.31
426.01	267.92
426.38	269.61
426.75	271.28
427.13	272.96
427.50	274.67
427.87	276.57
428.24	278.48
428.61	280.05
428.99	281.91
429.36	283.78
429.73	285.81
430.10	287.81
430.47	289.95
430.85	292.05
431.22	294.26
431.59	296.80
431.96	299.10
432.33	301.68
432.70	304.15
433.08	306.90
433.45	309.64
433.82	312.14
434.19	315.00
434.56	317.93
434.93	320.60
435.30	323.37
435.68	326.31
436.05	329.13
436.42	331.95
436.79	334.51
437.16	337.33
437.53	340.09
437.90	342.94
438.27	345.59
438.64	348.40
439.01	351.17
439.38	353.32
439.75	355.46
440.13	357.90
440.50	360.20
440.87	362.15
441.24	364.09
441.61	366.30
441.98	367.83
442.35	369.61
442.72	371.50
443.09	373.26
443.46	374.21
443.83	374.89
444.20	375.40
444.57	376.25
444.94	376.60
445.31	377.03
445.68	377.55
446.05	377.78
446.42	377.49
446.79	377.01
447.16	376.56
447.53	376.24
447.90	375.03
448.27	373.83
448.64	372.30
449.01	371.14
449.37	369.25
449.74	367.31
450.11	365.29
450.48	362.79
450.85	360.20
451.22	357.98
451.59	356.08
451.96	354.16
452.33	351.52
452.70	349.11
453.07	346.22
453.43	343.10
453.80	340.21
454.17	337.49
454.54	334.95
454.91	332.24
455.28	329.50
455.65	327.01
456.02	324.79
456.38	322.37
456.75	319.62
457.12	317.24
457.49	314.99
457.86	312.54
458.23	310.73
458.59	308.76
458.96	306.72
459.33	304.64
459.70	302.74
460.07	301.16
460.43	299.49
460.80	297.95
461.17	296.59
461.54	295.17
461.91	293.78
462.27	292.11
462.64	290.73
463.01	289.36
463.38	288.15
463.74	286.51
464.11	285.48
464.48	284.42
464.85	283.32
465.21	282.51
465.58	281.59
465.95	280.42
466.32	279.56
466.68	278.55
467.05	277.69
467.42	276.77
467.78	275.91
468.15	274.95
468.52	274.15
468.88	273.07
469.25	272.00
469.62	271.35
469.98	270.66
470.35	269.99
470.72	269.31
471.08	268.48
471.45	268.07
471.82	267.49
472.18	266.73
472.55	266.14
472.92	265.45
473.28	264.84
473.65	264.25
474.02	263.62
474.38	263.16
474.75	262.62
475.11	262.16
475.48	261.67
475.85	261.28
476.21	260.77
476.58	260.50
476.94	260.29
477.31	259.75
477.67	259.45
478.04	259.13
478.41	258.90
478.77	258.79
479.14	258.30
479.50	258.01
479.87	257.99
480.23	257.85
480.60	257.58
480.96	257.37
481.33	257.42
481.69	257.18
482.06	257.00
482.42	256.95
482.79	256.78
483.15	256.70
483.52	256.87
483.88	256.96
484.25	256.90
484.61	257.00
484.98	257.10
485.34	257.17
485.71	257.30
486.07	257.41
486.44	257.31
486.80	257.40
487.17	257.45
487.53	257.59
487.90	257.74
488.26	258.09
488.62	258.40
488.99	258.43
489.35	258.79
489.72	259.13
490.08	259.40
490.44	259.79
490.81	260.18
491.17	260.38
491.54	260.77
491.90	261.36
492.26	261.68
492.63	262.18
492.99	262.69
493.36	263.25
493.72	263.82
494.08	264.45
494.45	265.27
494.81	266.17
495.17	266.88
495.54	267.82
495.90	268.70
496.26	269.60
496.63	270.65
496.99	271.66
497.35	272.72
497.72	273.86
498.08	275.08
498.44	276.33
498.80	277.70
499.17	279.18
499.53	280.50
499.89	282.21
500.26	283.77
500.62	285.57
500.98	287.47
501.34	289.45
501.71	291.54
502.07	293.50
502.43	295.56
502.79	297.96
503.16	300.23
503.52	302.72
503.88	305.17
504.24	307.84
504.60	310.69
504.97	313.70
505.33	316.80
505.69	320.03
506.05	323.40
506.41	326.77
506.78	330.31
507.14	333.98
507.50	337.76
507.86	341.87
508.22	345.85
508.59	349.89
508.95	354.30
509.31	358.78
509.67	363.59
510.03	368.27
510.39	372.96
510.75	378.06
511.12	383.09
511.48	388.48
511.84	393.99
512.20	399.60
512.56	405.35
512.92	411.05
513.28	417.27
513.64	423.46
514.00	429.81
514.37	436.28
514.73	442.97
515.09	449.70
515.45	456.49
515.81	463.57
516.17	471.03
516.53	478.27
516.89	485.73
517.25	493.38
517.61	501.11
517.97	509.08
518.33	516.97
518.69	524.98
519.05	533.40
519.41	542.06
519.77	550.86
520.13	559.83
520.49	568.81
520.85	577.56
521.21	586.50
521.57	595.99
521.93	605.20
522.29	615.05
522.65	624.66
523.01	634.30
523.37	644.06
523.73	653.83
524.09	663.93
524.45	674.14
524.81	684.39
525.17	695.01
525.53	705.72
525.89	716.62
526.25	727.72
526.61	738.37
526.97	749.14
527.33	759.90
527.68	770.80
528.04	781.97
528.40	793.23
528.76	804.92
529.12	816.25
529.48	827.91
529.84	838.79
530.20	850.80
530.56	862.97
530.91	874.85
531.27	887.00
531.63	898.64
531.99	910.49
532.35	922.12
532.71	933.53
533.07	945.42
533.42	957.43
533.78	969.60
534.14	981.90
534.50	993.61
534.86	1005.43
535.21	1017.39
535.57	1029.70
535.93	1041.52
536.29	1053.50
536.65	1065.30
537.00	1077.10
537.36	1089.58
537.72	1100.92
538.08	1112.45
538.44	1124.01
538.79	1135.34
539.15	1146.86
539.51	1158.50
539.87	1170.49
540.22	1182.42
540.58	1194.36
540.94	1205.78
541.29	1216.61
541.65	1227.53
542.01	1239.35
542.37	1250.98
542.72	1261.97
543.08	1272.76
543.44	1283.81
543.79	1294.39
544.15	1305.21
544.51	1316.61
544.87	1326.93
545.22	1337.60
545.58	1348.10
545.94	1358.01
546.29	1368.24
546.65	1378.21
547.01	1387.94
547.36	1397.28
547.72	1406.85
548.07	1415.94
548.43	1425.03
548.79	1434.82
549.14	1443.88
549.50	1452.00
549.86	1460.15
550.21	1469.00
550.57	1477.78
550.92	1486.60
551.28	1494.73
551.64	1502.69
551.99	1510.03
552.35	1517.95
552.70	1525.66
553.06	1533.36
553.41	1541.72
553.77	1549.38
554.13	1557.25
554.48	1564.73
554.84	1572.00
555.19	1579.07
555.55	1586.13
555.90	1592.77
556.26	1599.15
556.61	1606.00
556.97	1612.90
557.32	1620.00
557.68	1626.19
558.03	1632.28
558.39	1638.31
558.74	1645.20
559.10	1651.81
559.45	1658.16
559.81	1664.61
560.16	1670.06
560.52	1675.68
560.87	1681.23
561.23	1686.17
561.58	1691.66
561.94	1696.63
562.29	1701.67
562.64	1706.17
563.00	1710.60
563.35	1716.00
563.71	1721.37
564.06	1726.24
564.42	1730.93
564.77	1735.21
565.12	1740.24
565.48	1744.57
565.83	1748.34
566.19	1751.74
566.54	1754.83
566.89	1758.30
567.25	1761.64
567.60	1765.69
567.96	1769.04
568.31	1772.11
568.66	1775.38
569.02	1778.11
569.37	1780.87
569.72	1783.57
570.08	1786.35
570.43	1789.28
570.78	1790.88
571.14	1792.20
571.49	1793.62
571.84	1795.74
572.20	1796.70
572.55	1797.52
572.90	1798.30
573.26	1799.54
573.61	1800.44
573.96	1801.29
574.31	1801.14
574.67	1800.80
575.02	1800.36
575.37	1800.50
575.72	1799.52
576.08	1799.36
576.43	1798.76
576.78	1798.21
577.13	1797.91
577.49	1797.59
577.84	1796.46
578.19	1795.72
578.54	1794.40
578.90	1793.15
579.25	1791.05
579.60	1789.86
579.95	1787.46
580.30	1785.39
580.66	1782.95
581.01	1780.88
581.36	1778.76
581.71	1777.44
582.06	1775.25
582.42	1772.86
582.77	1769.93
583.12	1767.70
583.47	1765.10
583.82	1762.81
584.17	1760.39
584.53	1757.46
584.88	1754.63
585.23	1751.59
585.58	1748.68
585.93	1745.99
586.28	1743.54
586.63	1740.79
586.98	1738.05
587.34	1735.82
587.69	1733.09
588.04	1730.65
588.39	1727.73
588.74	1724.16
589.09	1720.15
589.44	1716.53
589.79	1713.55
590.14	1710.80
590.49	1707.69
590.84	1703.99
591.19	1700.24
591.54	1695.51
591.89	1690.79
592.25	1686.80
592.60	1682.36
592.95	1677.75
593.30	1673.11
593.65	1668.14
594.00	1663.34
594.35	1659.28
594.70	1653.84
595.05	1649.62
595.40	1644.53
595.75	1639.26
596.10	1635.10
596.45	1631.20
596.80	1627.66
597.15	1623.23
597.50	1618.01
597.85	1613.21
598.19	1608.82
598.54	1604.63
598.89	1600.98
599.24	1597.32
599.59	1592.65
599.94	1588.87
600.29	1584.54
600.64	1580.02
600.99	1575.07
601.34	1570.69
601.69	1565.20
602.04	1561.28
602.39	1556.68
602.74	1552.84
603.08	1548.76
603.43	1544.28
603.78	1539.39
604.13	1533.98
604.48	1528.67
604.83	1523.89
605.18	1519.13
605.53	1513.65
605.87	1507.44
606.22	1502.27
606.57	1496.99
606.92	1491.81
607.27	1486.14
607.62	1481.37
607.96	1476.37
608.31	1471.68
608.66	1465.99
609.01	1460.34
609.36	1454.12
609.70	1447.55
610.05	1440.99
610.40	1434.83
610.75	1428.57
611.10	1422.38
611.44	1415.88
611.79	1410.22
612.14	1404.04
612.49	1397.20
612.83	1391.01
613.18	1385.01
613.53	1378.86
613.88	1372.32
614.22	1366.13
614.57	1359.52
614.92	1352.70
615.27	1346.66
615.61	1340.34
615.96	1334.34
616.31	1328.60
616.65	1323.12
617.00	1317.36
617.35	1311.28
617.70	1305.00
618.04	1298.45
618.39	1292.32
618.74	1286.53
619.08	1280.13
619.43	1273.98
619.78	1268.63
620.12	1262.54
620.47	1256.76
620.82	1250.06
621.16	1244.09
621.51	1238.11
621.85	1232.34
622.20	1226.06
622.55	1219.80
622.89	1213.51
623.24	1207.41
623.59	1201.29
623.93	1195.40
624.28	1189.28
624.62	1183.36
624.97	1177.85
625.32	1172.54
625.66	1166.87
626.01	1160.89
626.35	1155.01
626.70	1149.28
627.04	1143.31
627.39	1137.39
627.73	1131.25
628.08	1125.88
628.43	1119.55
628.77	1113.51
629.12	1107.28
629.46	1101.43
629.81	1094.92
630.15	1088.80
630.50	1082.82
630.84	1076.40
631.19	1069.66
631.53	1063.60
631.88	1056.95
632.22	1050.37
632.57	1044.55
632.91	1038.09
633.26	1032.26
633.60	1025.96
633.95	1019.71
634.29	1013.96
634.64	1008.36
634.98	1002.52
635.32	996.76
635.67	991.67
636.01	985.70
636.36	980.37
636.70	975.35
637.05	970.15
637.39	965.20
637.73	959.84
638.08	955.00
638.42	950.31
638.77	945.48
639.11	940.57
639.45	935.37
639.80	929.44
640.14	924.37
640.49	919.16
640.83	913.98
641.17	908.90
641.52	903.35
641.86	898.14
642.20	893.11
642.55	887.76
642.89	882.68
643.23	877.49
643.58	872.41
643.92	866.84
644.26	861.76
644.61	856.81
644.95	851.74
645.29	846.07
645.64	840.52
645.98	835.35
646.32	830.51
646.66	825.52
647.01	820.80
647.35	815.80
647.69	810.68
648.04	806.09
648.38	801.07
648.72	795.72
649.06	790.47
649.41	785.51
649.75	780.48
650.09	775.29
650.43	770.39
650.78	765.23
651.12	760.28
651.46	755.63
651.80	750.53
652.14	745.94
652.49	741.43
652.83	736.82
653.17	731.82
653.51	727.18
653.85	722.56
654.20	717.60
654.54	712.67
654.88	707.70
655.22	702.57
655.56	697.71
655.90	693.46
656.25	689.10
656.59	684.74
656.93	680.52
657.27	676.11
657.61	671.77
657.95	667.63
658.29	663.31
658.64	658.86
658.98	654.40
659.32	649.66
659.66	645.39
660.00	641.10
660.34	637.00
660.68	632.53
661.02	628.18
661.36	624.21
661.70	620.30
662.05	616.72
662.39	613.18
662.73	609.56
663.07	605.89
663.41	602.30
663.75	598.40
664.09	594.56
664.43	590.77
664.77	587.12
665.11	583.49
665.45	580.00
665.79	576.25
666.13	572.50
666.47	569.06
666.81	565.44
667.15	561.68
667.49	558.27
667.83	555.02
668.17	551.65
668.51	548.15
668.85	544.81
669.19	541.55
669.53	538.16
669.87	534.80
670.21	531.48
670.55	528.13
670.89	525.19
671.23	522.03
671.57	519.04
671.91	515.94
672.25	512.91
672.58	509.92
672.92	507.06
673.26	504.46
673.60	501.66
673.94	498.95
674.28	496.53
674.62	493.93
674.96	491.30
675.30	488.80
675.64	486.42
675.97	483.74
676.31	481.09
676.65	478.42
676.99	476.01
677.33	473.57
677.67	471.08
678.01	468.35
678.34	465.90
678.68	463.44
679.02	461.05
679.36	458.55
679.70	456.34
680.04	453.87
680.37	451.37
680.71	449.04
681.05	446.89
681.39	444.60
681.73	442.24
682.06	440.00
682.40	437.85
682.74	435.67
683.08	433.65
683.42	431.45
683.75	429.43
684.09	427.20
684.43	425.07
684.77	422.82
685.10	420.82
685.44	418.70
685.78	416.80
686.12	414.80
686.45	412.80
686.79	410.65
687.13	408.90
687.46	407.02
687.80	405.12
688.14	403.18
688.48	401.40
688.81	399.38
689.15	397.47
689.49	395.60
689.82	393.73
690.16	391.89
690.50	390.11
690.83	388.34
691.17	386.61
691.51	385.02
691.84	383.50
692.18	381.78
692.52	380.03
692.85	378.20
693.19	376.69
693.52	375.03
693.86	373.31
694.20	371.61
694.53	369.99
694.87	368.36
695.21	366.71
695.54	365.01
695.88	363.51
696.21	361.82
696.55	360.22
696.88	358.64
697.22	357.07
697.56	355.73
697.89	354.20
698.23	352.83
698.56	351.15
698.90	349.70
699.23	348.17
699.57	346.90
699.90	345.47
700.24	343.93
700.58	342.51
700.91	341.26
701.25	339.93
701.58	338.77
701.92	337.43
702.25	336.17
702.59	334.92
702.92	333.70
703.26	332.53
703.59	331.31
703.93	330.30
704.26	329.13
704.60	327.78
704.93	326.61
705.26	325.33
705.60	324.21
705.93	323.15
706.27	322.17
706.60	321.06
706.94	320.00
707.27	318.82
707.61	317.89
707.94	316.83
708.27	315.72
708.61	314.53
708.94	313.54
709.28	312.53
709.61	311.51
709.94	310.57
710.28	309.57
710.61	308.62
710.95	307.46
711.28	306.55
711.61	305.52
711.95	304.71
712.28	303.73
712.61	302.82
712.95	301.91
713.28	301.20
713.61	300.28
713.95	299.36
714.28	298.61
714.61	297.74
714.95	296.96
715.28	296.16
715.61	295.37
715.95	294.59
716.28	293.76
716.61	293.03
716.95	292.08
717.28	291.29
717.61	290.58
717.94	289.99
718.28	289.30
718.61	288.71
718.94	287.93
719.27	287.34
719.61	286.64
719.94	285.77
720.27	284.81
720.60	284.24
720.94	283.72
721.27	283.17
721.60	282.50
721.93	281.80
722.27	281.22
722.60	280.58
722.93	280.09
723.26	279.54
723.59	278.81
723.93	278.35
724.26	278.08
724.59	277.50
724.92	276.71
725.25	276.14
725.59	275.57
725.92	275.10
726.25	274.59
726.58	274.20
726.91	273.78
727.24	273.42
727.57	272.91
727.91	272.36
728.24	271.83
728.57	271.30
728.90	270.86
729.23	270.52
729.56	270.22
729.89	269.70
730.22	269.20
730.55	268.82
730.89	268.39
731.22	267.81
731.55	267.37
731.88	267.14
732.21	266.65
732.54	266.19
732.87	265.78
733.20	265.37
733.53	264.99
733.86	264.60
734.19	264.23
734.52	263.77
734.85	263.41
735.18	263.10
735.51	262.88
735.84	262.53
736.17	262.17
736.50	261.66
736.83	261.54
737.16	261.32
737.49	261.02
737.82	260.57
738.15	260.26
738.48	259.90
738.81	259.56
739.14	259.38
739.47	259.13
739.80	258.84
740.13	258.50
740.46	258.07
740.79	257.76
741.12	257.42
741.45	257.14
741.78	256.88
742.11	256.45
742.44	255.99
742.77	255.68
743.10	255.31
743.43	255.01
743.75	254.46
744.08	254.31
744.41	254.04
744.74	253.80
745.07	253.40
745.40	253.11
745.73	252.87
746.06	252.51
746.39	252.18
746.71	251.80
747.04	251.55
747.37	251.40
747.70	251.17
748.03	250.90
748.36	250.55
748.68	250.30
749.01	250.11
749.34	249.93
749.67	249.60
750.00	249.33
750.33	249.24
750.65	249.01
750.98	248.61
751.31	248.29
751.64	248.12
751.97	247.98
752.29	247.82
752.62	247.58
752.95	247.33
753.28	247.17
753.60	247.05
753.93	246.84
754.26	246.51
754.59	246.17
754.91	246.03
755.24	245.96
755.57	245.72
755.90	245.53
756.22	245.28
756.55	245.14
756.88	244.87
757.20	244.53
757.53	244.29
757.86	244.12
758.19	244.09
758.51	243.89
758.84	243.67
759.17	243.43
759.49	243.21
759.82	243.08
760.15	242.85
760.47	242.61
760.80	242.36
761.13	242.27
761.45	242.15
761.78	241.88
762.11	241.63
762.43	241.48
762.76	241.22
763.08	241.15
763.41	240.89
763.74	240.80
764.06	240.61
764.39	240.40
764.71	240.14
765.04	239.80
765.37	239.63
765.69	239.56
766.02	239.43
766.34	239.22
766.67	239.00
767.00	238.84
767.32	238.87
767.65	238.90
767.97	238.78
768.30	238.60
768.62	238.44
768.95	238.35
769.27	238.14
769.60	238.12
769.92	237.86
770.25	237.73
770.57	237.55
770.90	237.50
771.22	237.41
771.55	237.38
771.87	237.26
772.20	237.19
772.52	237.12
772.85	237.21
773.17	237.10
773.50	237.02
773.82	237.00
774.15	236.76
774.47	236.52
774.80	236.34
775.12	236.28
775.45	236.20
775.77	236.17
776.09	236.18
776.42	236.09
776.74	236.12
777.07	236.11
777.39	236.13
777.72	236.04
778.04	236.07
778.36	235.97
778.69	236.02
779.01	235.93
779.33	235.77
779.66	235.51
779.98	235.48
780.31	235.40
780.63	235.44
780.95	235.48
781.28	235.44
781.60	235.44
781.92	235.41
782.25	235.34
782.57	235.22
782.89	235.19
783.22	235.10
783.54	235.00
783.86	235.08
784.19	234.94
784.51	234.90
784.83	234.77
785.16	234.70
785.48	234.67
785.80	234.61
786.12	234.60
786.45	234.54
786.77	234.52
787.09	234.56
787.42	234.44
787.74	234.29
788.06	234.23
