SpectraSuite Data File
++++++++++++++++++++++++++++++++++++
Date: Fri Feb 01 14:40:58 EST 2013
User: group
Dark Spectrum Present: No
Reference Spectrum Present: No
Number of Sampled Component Spectra: 1
Spectrometers: USB2E7196
Integration Time (usec): 70000 (USB2E7196)
Spectra Averaged: 10 (USB2E7196)
Boxcar Smoothing: 10 (USB2E7196)
Correct for Electrical Dark: No (USB2E7196)
Strobe/Lamp Enabled: No (USB2E7196)
Correct for Detector Non-linearity: No (USB2E7196)
Correct for Stray Light: No (USB2E7196)
Number of Pixels in Processed Spectrum: 2048
>>>>>Begin Processed Spectral Data<<<<<
339.09	0.00
339.48	216.70
339.86	218.70
340.24	218.30
340.63	220.10
341.01	225.90
341.39	223.50
341.78	223.30
342.16	225.50
342.54	226.30
342.93	214.95
343.31	225.73
343.69	226.30
344.07	226.69
344.46	227.19
344.84	227.59
345.22	227.66
345.60	227.90
345.99	228.11
346.37	228.31
346.75	228.42
347.13	228.60
347.52	228.59
347.90	228.56
348.28	228.69
348.66	228.70
349.05	228.82
349.43	228.84
349.81	228.88
350.19	228.95
350.57	228.90
350.96	228.95
351.34	229.20
351.72	229.26
352.10	229.34
352.48	229.42
352.87	229.52
353.25	229.67
353.63	229.72
354.01	229.90
354.39	229.97
354.77	229.98
355.15	230.11
355.54	230.18
355.92	230.31
356.30	230.25
356.68	230.36
357.06	230.29
357.44	230.37
357.82	230.37
358.20	230.47
358.58	230.48
358.97	230.57
359.35	230.58
359.73	230.69
360.11	230.78
360.49	230.78
360.87	230.81
361.25	230.80
361.63	230.95
362.01	230.80
362.39	230.81
362.77	230.84
363.15	230.81
363.53	230.88
363.91	230.83
364.29	230.84
364.67	230.65
365.05	230.67
365.43	230.65
365.81	230.70
366.19	230.68
366.57	230.71
366.95	230.70
367.33	230.64
367.71	230.56
368.09	230.50
368.47	230.50
368.85	230.45
369.23	230.46
369.61	230.25
369.99	230.36
370.37	230.32
370.75	230.44
371.13	230.26
371.51	230.14
371.89	230.06
372.27	230.12
372.65	230.13
373.03	230.10
373.41	230.04
373.78	229.89
374.16	229.78
374.54	229.68
374.92	229.54
375.30	229.42
375.68	229.25
376.06	229.17
376.44	229.10
376.82	228.97
377.19	228.85
377.57	228.82
377.95	228.76
378.33	228.59
378.71	228.37
379.09	228.39
379.47	228.26
379.84	228.26
380.22	228.01
380.60	227.88
380.98	227.70
381.36	227.59
381.73	227.56
382.11	227.52
382.49	227.53
382.87	227.45
383.25	227.38
383.62	227.59
384.00	227.53
384.38	227.37
384.76	227.40
385.13	227.48
385.51	227.39
385.89	227.28
386.27	227.28
386.64	227.30
387.02	227.22
387.40	227.18
387.78	227.08
388.15	227.16
388.53	227.09
388.91	227.14
389.29	227.22
389.66	227.18
390.04	227.10
390.42	227.04
390.79	227.00
391.17	227.06
391.55	226.87
391.92	226.96
392.30	227.11
392.68	227.16
393.05	227.09
393.43	227.16
393.81	227.11
394.18	227.13
394.56	227.07
394.94	227.16
395.31	227.36
395.69	227.43
396.06	227.49
396.44	227.69
396.82	227.78
397.19	227.89
397.57	227.96
397.95	228.15
398.32	228.26
398.70	228.41
399.07	228.49
399.45	228.57
399.82	228.58
400.20	228.63
400.58	228.59
400.95	228.65
401.33	228.73
401.70	229.02
402.08	229.13
402.45	229.27
402.83	229.43
403.20	229.53
403.58	229.62
403.95	229.76
404.33	229.85
404.71	229.97
405.08	230.12
405.46	230.36
405.83	230.47
406.21	230.57
406.58	230.78
406.96	230.99
407.33	231.14
407.70	231.48
408.08	231.92
408.45	232.23
408.83	232.56
409.20	232.79
409.58	232.96
409.95	233.28
410.33	233.64
410.70	233.87
411.08	234.14
411.45	234.64
411.82	234.99
412.20	235.38
412.57	235.90
412.95	236.17
413.32	236.63
413.69	237.05
414.07	237.60
414.44	238.11
414.82	238.69
415.19	239.30
415.56	239.80
415.94	240.23
416.31	240.85
416.68	241.54
417.06	242.36
417.43	243.16
417.81	243.92
418.18	244.66
418.55	245.61
418.93	246.56
419.30	247.41
419.67	248.49
420.04	249.48
420.42	250.49
420.79	251.83
421.16	253.05
421.54	254.36
421.91	255.61
422.28	256.94
422.66	258.24
423.03	259.70
423.40	261.19
423.77	262.72
424.15	264.30
424.52	265.90
424.89	267.51
425.26	269.18
425.64	270.65
426.01	272.45
426.38	274.18
426.75	275.99
427.13	277.80
427.50	279.75
427.87	281.81
428.24	283.73
428.61	285.64
428.99	287.80
429.36	289.97
429.73	292.22
430.10	294.38
430.47	296.69
430.85	298.86
431.22	301.30
431.59	303.85
431.96	306.32
432.33	308.85
432.70	311.53
433.08	314.48
433.45	317.43
433.82	320.20
434.19	323.40
434.56	326.42
434.93	329.35
435.30	332.10
435.68	335.14
436.05	338.22
436.42	341.17
436.79	343.76
437.16	346.84
437.53	349.96
437.90	352.88
438.27	355.73
438.64	358.80
439.01	361.50
439.38	363.90
439.75	366.04
440.13	368.95
440.50	371.46
440.87	373.31
441.24	375.20
441.61	377.60
441.98	379.12
442.35	381.10
442.72	383.20
443.09	385.14
443.46	386.32
443.83	386.95
444.20	387.57
444.57	388.44
444.94	388.60
445.31	388.82
445.68	389.48
446.05	389.52
446.42	389.15
446.79	388.68
447.16	388.19
447.53	387.96
447.90	386.65
448.27	385.41
448.64	383.70
449.01	382.58
449.37	380.34
449.74	378.18
450.11	375.80
450.48	372.87
450.85	370.02
451.22	367.56
451.59	365.42
451.96	363.20
452.33	360.31
452.70	357.74
453.07	354.75
453.43	351.30
453.80	348.29
454.17	345.39
454.54	342.47
454.91	339.41
455.28	336.50
455.65	333.67
456.02	331.09
456.38	328.85
456.75	325.99
457.12	323.63
457.49	321.20
457.86	318.67
458.23	316.80
458.59	314.64
458.96	312.41
459.33	310.27
459.70	308.20
460.07	306.61
460.43	304.61
460.80	302.75
461.17	301.38
461.54	299.77
461.91	298.10
462.27	296.64
462.64	295.29
463.01	293.72
463.38	292.21
463.74	290.53
464.11	289.20
464.48	288.12
464.85	286.82
465.21	285.91
465.58	284.96
465.95	283.66
466.32	282.57
466.68	281.52
467.05	280.60
467.42	279.59
467.78	278.47
468.15	277.55
468.52	276.83
468.88	275.63
469.25	274.80
469.62	274.04
469.98	273.32
470.35	272.54
470.72	271.93
471.08	271.24
471.45	270.63
471.82	269.98
472.18	269.19
472.55	268.64
472.92	268.07
473.28	267.25
473.65	266.62
474.02	266.00
474.38	265.57
474.75	265.05
475.11	264.55
475.48	264.12
475.85	263.73
476.21	263.32
476.58	263.07
476.94	262.62
477.31	262.31
477.67	261.93
478.04	261.59
478.41	261.31
478.77	261.33
479.14	261.03
479.50	260.84
479.87	260.68
480.23	260.49
480.60	260.23
480.96	260.22
481.33	260.21
481.69	260.19
482.06	260.09
482.42	260.06
482.79	260.00
483.15	260.10
483.52	260.24
483.88	260.26
484.25	260.30
484.61	260.52
484.98	260.60
485.34	260.66
485.71	260.90
486.07	261.14
486.44	261.13
486.80	261.44
487.17	261.75
487.53	262.16
487.90	262.54
488.26	263.00
488.62	263.63
488.99	264.07
489.35	264.70
489.72	265.29
490.08	265.88
490.44	266.59
490.81	267.40
491.17	268.06
491.54	269.06
491.90	270.10
492.26	271.06
492.63	272.24
492.99	273.56
493.36	274.78
493.72	276.00
494.08	277.17
494.45	278.61
494.81	280.13
495.17	281.74
495.54	283.48
495.90	285.25
496.26	286.81
496.63	288.86
496.99	290.85
497.35	292.93
497.72	295.18
498.08	297.51
498.44	299.88
498.80	302.54
499.17	305.17
499.53	307.81
499.89	310.70
500.26	313.70
500.62	316.69
500.98	320.09
501.34	323.54
501.71	327.13
502.07	330.80
502.43	334.62
502.79	338.59
503.16	342.81
503.52	347.13
503.88	351.76
504.24	356.40
504.60	361.40
504.97	366.45
505.33	371.58
505.69	377.07
506.05	382.70
506.41	388.26
506.78	394.18
507.14	400.26
507.50	406.73
507.86	413.30
508.22	420.11
508.59	426.99
508.95	434.15
509.31	441.81
509.67	449.51
510.03	457.52
510.39	465.51
510.75	473.50
511.12	481.85
511.48	490.44
511.84	499.19
512.20	508.11
512.56	517.44
512.92	527.05
513.28	536.79
513.64	546.84
514.00	557.16
514.37	567.61
514.73	578.34
515.09	588.66
515.45	599.60
515.81	610.84
516.17	622.38
516.53	633.94
516.89	645.45
517.25	657.34
517.61	669.51
517.97	681.84
518.33	694.25
518.69	706.67
519.05	719.42
519.41	732.66
519.77	746.20
520.13	759.73
520.49	773.26
520.85	787.02
521.21	800.85
521.57	815.00
521.93	828.66
522.29	842.93
522.65	857.45
523.01	871.59
523.37	885.42
523.73	899.96
524.09	914.70
524.45	929.48
524.81	944.60
525.17	959.84
525.53	975.30
525.89	990.83
526.25	1006.69
526.61	1022.02
526.97	1037.43
527.33	1052.83
527.68	1068.86
528.04	1084.77
528.40	1100.37
528.76	1116.72
529.12	1132.84
529.48	1149.38
529.84	1165.23
530.20	1181.88
530.56	1199.01
530.91	1216.72
531.27	1233.41
531.63	1250.05
531.99	1267.01
532.35	1283.14
532.71	1298.96
533.07	1315.36
533.42	1331.47
533.78	1347.47
534.14	1364.20
534.50	1380.38
534.86	1396.50
535.21	1411.92
535.57	1428.06
535.93	1444.21
536.29	1459.77
536.65	1475.55
537.00	1491.13
537.36	1507.41
537.72	1522.54
538.08	1537.62
538.44	1552.23
538.79	1567.32
539.15	1581.66
539.51	1596.83
539.87	1612.16
540.22	1627.07
540.58	1642.29
540.94	1656.95
541.29	1671.55
541.65	1685.66
542.01	1700.37
542.37	1714.66
542.72	1728.29
543.08	1741.88
543.44	1755.81
543.79	1768.62
544.15	1781.69
544.51	1795.43
544.87	1808.30
545.22	1821.61
545.58	1833.94
545.94	1845.73
546.29	1858.01
546.65	1870.28
547.01	1882.12
547.36	1893.23
547.72	1904.53
548.07	1915.02
548.43	1926.05
548.79	1936.58
549.14	1946.61
549.50	1956.18
549.86	1965.93
550.21	1976.11
550.57	1985.81
550.92	1995.18
551.28	2004.64
551.64	2013.63
551.99	2021.98
552.35	2030.30
552.70	2038.68
553.06	2047.63
553.41	2056.79
553.77	2064.62
554.13	2073.00
554.48	2080.39
554.84	2087.92
555.19	2095.61
555.55	2102.90
555.90	2110.00
556.26	2117.37
556.61	2124.67
556.97	2131.43
557.32	2138.68
557.68	2145.39
558.03	2152.16
558.39	2158.75
558.74	2165.87
559.10	2172.26
559.45	2178.61
559.81	2185.66
560.16	2191.22
560.52	2196.72
560.87	2202.60
561.23	2207.79
561.58	2213.40
561.94	2218.33
562.29	2223.47
562.64	2227.95
563.00	2232.37
563.35	2237.99
563.71	2243.53
564.06	2248.70
564.42	2253.49
564.77	2257.69
565.12	2262.18
565.48	2266.41
565.83	2269.65
566.19	2272.88
566.54	2276.14
566.89	2279.48
567.25	2282.19
567.60	2285.55
567.96	2288.55
568.31	2290.56
568.66	2293.39
569.02	2295.24
569.37	2297.60
569.72	2299.77
570.08	2301.49
570.43	2303.44
570.78	2303.92
571.14	2303.41
571.49	2304.24
571.84	2305.53
572.20	2305.17
572.55	2305.09
572.90	2304.43
573.26	2304.70
573.61	2304.45
573.96	2303.85
574.31	2302.58
574.67	2300.28
575.02	2298.55
575.37	2297.05
575.72	2294.73
576.08	2292.62
576.43	2290.27
576.78	2288.66
577.13	2286.70
577.49	2285.41
577.84	2283.33
578.19	2280.97
578.54	2278.34
578.90	2274.75
579.25	2270.45
579.60	2267.31
579.95	2263.98
580.30	2260.11
580.66	2255.71
581.01	2251.47
581.36	2247.90
581.71	2244.56
582.06	2241.37
582.42	2237.45
582.77	2232.98
583.12	2228.95
583.47	2225.31
583.82	2221.66
584.17	2216.66
584.53	2212.20
584.88	2207.46
585.23	2202.58
585.58	2198.17
585.93	2194.10
586.28	2190.29
586.63	2186.57
586.98	2182.19
587.34	2177.58
587.69	2173.40
588.04	2169.79
588.39	2164.97
588.74	2159.23
589.09	2153.62
589.44	2148.03
589.79	2142.76
590.14	2137.81
590.49	2132.84
590.84	2126.67
591.19	2121.48
591.54	2115.22
591.89	2108.25
592.25	2102.04
592.60	2095.26
592.95	2088.37
593.30	2081.60
593.65	2074.32
594.00	2067.17
594.35	2061.21
594.70	2054.10
595.05	2047.53
595.40	2039.53
595.75	2032.44
596.10	2026.54
596.45	2020.67
596.80	2014.87
597.15	2008.85
597.50	2002.12
597.85	1996.24
598.19	1990.90
598.54	1984.18
598.89	1978.20
599.24	1973.48
599.59	1967.23
599.94	1961.64
600.29	1955.33
600.64	1949.17
600.99	1942.30
601.34	1936.35
601.69	1929.35
602.04	1923.00
602.39	1916.00
602.74	1910.65
603.08	1905.28
603.43	1898.98
603.78	1892.10
604.13	1885.24
604.48	1878.20
604.83	1871.59
605.18	1864.38
605.53	1856.27
605.87	1848.41
606.22	1841.60
606.57	1833.45
606.92	1826.19
607.27	1819.16
607.62	1812.59
607.96	1805.68
608.31	1799.40
608.66	1791.64
609.01	1784.07
609.36	1775.94
609.70	1768.04
610.05	1759.48
610.40	1751.21
610.75	1742.68
611.10	1734.50
611.44	1725.78
611.79	1718.07
612.14	1709.74
612.49	1701.05
612.83	1692.58
613.18	1684.56
613.53	1676.11
613.88	1667.50
614.22	1658.89
614.57	1649.89
614.92	1641.20
615.27	1633.04
615.61	1624.16
615.96	1616.08
616.31	1608.19
616.65	1601.61
617.00	1594.43
617.35	1586.80
617.70	1578.77
618.04	1570.60
618.39	1562.29
618.74	1554.56
619.08	1546.17
619.43	1538.13
619.78	1530.69
620.12	1523.28
620.47	1515.63
620.82	1507.62
621.16	1500.31
621.51	1493.02
621.85	1485.38
622.20	1477.19
622.55	1469.20
622.89	1461.77
623.24	1454.27
623.59	1446.79
623.93	1438.77
624.28	1431.11
624.62	1423.20
624.97	1415.52
625.32	1408.05
625.66	1400.65
626.01	1393.54
626.35	1385.95
626.70	1378.52
627.04	1371.20
627.39	1363.51
627.73	1355.82
628.08	1348.33
628.43	1340.50
628.77	1332.78
629.12	1324.98
629.46	1317.73
629.81	1309.80
630.15	1301.76
630.50	1293.48
630.84	1284.71
631.19	1276.43
631.53	1268.40
631.88	1260.33
632.22	1252.08
632.57	1244.77
632.91	1236.76
633.26	1228.63
633.60	1220.50
633.95	1212.56
634.29	1204.81
634.64	1197.67
634.98	1190.20
635.32	1182.99
635.67	1176.14
636.01	1168.94
636.36	1161.81
636.70	1154.86
637.05	1147.90
637.39	1141.38
637.73	1134.88
638.08	1129.09
638.42	1122.64
638.77	1115.98
639.11	1109.46
639.45	1102.90
639.80	1096.07
640.14	1089.60
640.49	1082.90
640.83	1076.51
641.17	1070.14
641.52	1063.33
641.86	1056.70
642.20	1050.36
642.55	1043.82
642.89	1037.11
643.23	1030.43
643.58	1024.39
643.92	1017.53
644.26	1011.15
644.61	1004.86
644.95	998.38
645.29	991.09
645.64	984.20
645.98	977.53
646.32	971.28
646.66	965.05
647.01	958.55
647.35	952.14
647.69	945.87
648.04	939.82
648.38	933.45
648.72	926.93
649.06	920.11
649.41	913.79
649.75	906.94
650.09	900.39
650.43	893.88
650.78	887.07
651.12	880.97
651.46	874.61
651.80	868.30
652.14	862.38
652.49	856.59
652.83	850.80
653.17	844.56
653.51	838.33
653.85	832.20
654.20	826.23
654.54	820.22
654.88	814.00
655.22	807.63
655.56	801.50
655.90	796.08
656.25	790.50
656.59	784.77
656.93	779.50
657.27	773.97
657.61	768.29
657.95	763.24
658.29	757.80
658.64	752.27
658.98	746.63
659.32	740.91
659.66	735.64
660.00	729.99
660.34	724.74
660.68	719.66
661.02	714.42
661.36	709.40
661.70	704.69
662.05	699.99
662.39	695.44
662.73	690.80
663.07	685.85
663.41	681.32
663.75	676.69
664.09	672.05
664.43	667.60
664.77	663.27
665.11	658.77
665.45	654.17
665.79	649.89
666.13	645.43
666.47	641.08
666.81	636.53
667.15	632.14
667.49	628.00
667.83	623.57
668.17	619.30
668.51	614.91
668.85	610.40
669.19	606.42
669.53	602.28
669.87	598.18
670.21	594.44
670.55	590.53
670.89	586.72
671.23	583.11
671.57	579.31
671.91	575.64
672.25	571.76
672.58	568.23
672.92	564.64
673.26	561.36
673.60	558.00
673.94	554.65
674.28	551.78
674.62	548.66
674.96	545.38
675.30	542.40
675.64	539.38
675.97	536.41
676.31	533.36
676.65	530.40
676.99	527.58
677.33	524.28
677.67	521.07
678.01	517.81
678.34	514.51
678.68	511.59
679.02	508.59
679.36	505.75
679.70	502.92
680.04	499.93
680.37	496.68
680.71	493.71
681.05	491.08
681.39	488.20
681.73	485.32
682.06	482.93
682.40	480.50
682.74	477.88
683.08	475.39
683.42	472.50
683.75	469.66
684.09	466.73
684.43	464.07
684.77	461.46
685.10	458.91
685.44	456.42
685.78	453.74
686.12	451.24
686.45	448.68
686.79	446.17
687.13	443.85
687.46	441.58
687.80	439.25
688.14	436.71
688.48	434.40
688.81	431.97
689.15	429.50
689.49	426.80
689.82	424.45
690.16	421.93
690.50	419.90
690.83	417.67
691.17	415.59
691.51	413.59
691.84	411.75
692.18	409.73
692.52	407.63
692.85	405.66
693.19	403.64
693.52	401.50
693.86	399.35
694.20	397.34
694.53	395.39
694.87	393.36
695.21	391.38
695.54	389.36
695.88	387.37
696.21	385.38
696.55	383.60
696.88	381.71
697.22	379.99
697.56	378.04
697.89	376.26
698.23	374.34
698.56	372.39
698.90	370.39
699.23	368.53
699.57	366.70
699.90	364.91
700.24	363.02
700.58	361.43
700.91	359.83
701.25	358.27
701.58	356.66
701.92	355.21
702.25	353.80
702.59	352.14
702.92	350.70
703.26	349.33
703.59	347.91
703.93	346.58
704.26	345.06
704.60	343.70
704.93	342.38
705.26	341.04
705.60	339.91
705.93	338.65
706.27	337.37
706.60	336.22
706.94	334.98
707.27	333.69
707.61	332.47
707.94	331.32
708.27	329.94
708.61	328.66
708.94	327.24
709.28	326.09
709.61	324.94
709.94	323.80
710.28	322.68
710.61	321.53
710.95	320.28
711.28	319.27
711.61	318.21
711.95	317.21
712.28	316.14
712.61	314.95
712.95	313.94
713.28	312.98
713.61	311.84
713.95	310.75
714.28	309.80
714.61	308.76
714.95	307.79
715.28	306.92
715.61	305.96
715.95	305.19
716.28	304.15
716.61	303.35
716.95	302.40
717.28	301.46
717.61	300.63
717.94	299.83
718.28	298.95
718.61	298.10
718.94	297.29
719.27	296.55
719.61	295.73
719.94	294.95
720.27	294.15
720.60	293.50
720.94	292.92
721.27	292.22
721.60	291.55
721.93	290.78
722.27	290.22
722.60	289.70
722.93	288.97
723.26	288.29
723.59	287.52
723.93	286.91
724.26	286.26
724.59	285.54
724.92	284.91
725.25	284.25
725.59	283.67
725.92	283.09
726.25	282.44
726.58	281.87
726.91	281.24
727.24	280.59
727.57	279.93
727.91	279.20
728.24	278.68
728.57	278.14
728.90	277.60
729.23	276.95
729.56	276.41
729.89	275.91
730.22	275.47
730.55	275.04
730.89	274.51
731.22	274.06
731.55	273.55
731.88	273.00
732.21	272.51
732.54	272.02
732.87	271.51
733.20	271.14
733.53	270.68
733.86	270.24
734.19	269.72
734.52	269.29
734.85	268.95
735.18	268.44
735.51	268.10
735.84	267.59
736.17	267.23
736.50	266.69
736.83	266.45
737.16	266.02
737.49	265.48
737.82	265.02
738.15	264.64
738.48	264.23
738.81	263.90
739.14	263.43
739.47	262.96
739.80	262.53
740.13	262.06
740.46	261.65
740.79	261.32
741.12	261.04
741.45	260.74
741.78	260.32
742.11	260.02
742.44	259.55
742.77	259.24
743.10	258.83
743.43	258.52
743.75	258.05
744.08	258.05
744.41	257.75
744.74	257.48
745.07	257.16
745.40	256.92
745.73	256.67
746.06	256.43
746.39	256.22
746.71	255.92
747.04	255.70
747.37	255.38
747.70	255.04
748.03	254.72
748.36	254.44
748.68	254.05
749.01	253.75
749.34	253.44
749.67	253.20
750.00	252.87
750.33	252.77
750.65	252.46
750.98	251.81
751.31	251.58
751.64	251.31
751.97	251.04
752.29	250.63
752.62	250.28
752.95	250.00
753.28	249.68
753.60	249.44
753.93	249.09
754.26	248.82
754.59	248.58
754.91	248.38
755.24	248.14
755.57	248.00
755.90	247.84
756.22	247.59
756.55	247.39
756.88	247.13
757.20	246.80
757.53	246.53
757.86	246.35
758.19	246.15
758.51	245.93
758.84	245.70
759.17	245.59
759.49	245.41
759.82	245.21
760.15	245.12
760.47	244.95
760.80	244.86
761.13	244.71
761.45	244.41
761.78	244.23
762.11	244.10
762.43	243.84
762.76	243.54
763.08	243.36
763.41	243.16
763.74	243.08
764.06	242.89
764.39	242.70
764.71	242.54
765.04	242.39
765.37	242.18
765.69	242.00
766.02	241.88
766.34	241.66
766.67	241.54
767.00	241.39
767.32	241.32
767.65	241.19
767.97	241.07
768.30	241.07
768.62	240.84
768.95	240.64
769.27	240.64
769.60	240.62
769.92	240.44
770.25	240.35
770.57	240.10
770.90	240.02
771.22	239.93
771.55	239.73
771.87	239.66
772.20	239.61
772.52	239.65
772.85	239.68
773.17	239.62
773.50	239.48
773.82	239.22
774.15	239.00
774.47	238.88
774.80	238.84
775.12	238.72
775.45	238.65
775.77	238.63
776.09	238.48
776.42	238.37
776.74	238.40
777.07	238.22
777.39	238.22
777.72	238.00
778.04	237.87
778.36	237.79
778.69	237.63
779.01	237.58
779.33	237.40
779.66	237.16
779.98	237.10
780.31	237.05
780.63	237.07
780.95	236.96
781.28	236.77
781.60	236.55
781.92	236.41
782.25	236.41
782.57	236.21
782.89	236.12
783.22	235.93
783.54	235.76
783.86	235.66
784.19	235.48
784.51	235.47
784.83	235.40
785.16	235.27
785.48	235.18
785.80	235.10
786.12	235.04
786.45	234.93
786.77	234.82
787.09	234.69
