SpectraSuite Data File
++++++++++++++++++++++++++++++++++++
Date: Fri Feb 01 14:36:06 EST 2013
User: group
Dark Spectrum Present: No
Reference Spectrum Present: No
Number of Sampled Component Spectra: 1
Spectrometers: USB2E7196
Integration Time (usec): 70000 (USB2E7196)
Spectra Averaged: 10 (USB2E7196)
Boxcar Smoothing: 10 (USB2E7196)
Correct for Electrical Dark: No (USB2E7196)
Strobe/Lamp Enabled: No (USB2E7196)
Correct for Detector Non-linearity: No (USB2E7196)
Correct for Stray Light: No (USB2E7196)
Number of Pixels in Processed Spectrum: 2048
>>>>>Begin Processed Spectral Data<<<<<
339.09	0.00
339.48	217.00
339.86	219.30
340.24	219.70
340.63	219.70
341.01	225.40
341.39	224.50
341.78	225.50
342.16	226.50
342.54	225.70
342.93	214.94
343.31	225.86
343.69	226.29
344.07	226.77
344.46	227.15
344.84	227.59
345.22	227.81
345.60	228.01
345.99	228.16
346.37	228.24
346.75	228.32
347.13	228.45
347.52	228.47
347.90	228.56
348.28	228.59
348.66	228.47
349.05	228.54
349.43	228.59
349.81	228.71
350.19	228.64
350.57	228.71
350.96	228.67
351.34	228.60
351.72	228.76
352.10	228.77
352.48	228.82
352.87	228.81
353.25	228.84
353.63	228.95
354.01	228.96
354.39	229.06
354.77	229.18
355.15	229.29
355.54	229.24
355.92	229.28
356.30	229.36
356.68	229.70
357.06	229.71
357.44	229.74
357.82	229.77
358.20	229.90
358.58	229.97
358.97	230.03
359.35	230.14
359.73	230.20
360.11	230.13
360.49	230.22
360.87	230.27
361.25	230.25
361.63	230.26
362.01	230.23
362.39	230.23
362.77	230.26
363.15	230.17
363.53	230.30
363.91	230.26
364.29	230.30
364.67	230.03
365.05	229.97
365.43	229.93
365.81	229.96
366.19	229.92
366.57	229.85
366.95	229.94
367.33	229.95
367.71	229.85
368.09	229.98
368.47	229.91
368.85	229.90
369.23	229.93
369.61	229.75
369.99	229.89
370.37	229.81
370.75	229.86
371.13	229.75
371.51	229.60
371.89	229.59
372.27	229.45
372.65	229.58
373.03	229.69
373.41	229.68
373.78	229.54
374.16	229.44
374.54	229.44
374.92	229.35
375.30	229.27
375.68	229.29
376.06	229.13
376.44	229.10
376.82	229.10
377.19	229.04
377.57	229.10
377.95	228.83
378.33	228.80
378.71	228.62
379.09	228.61
379.47	228.65
379.84	228.56
380.22	228.43
380.60	228.22
380.98	228.03
381.36	228.02
381.73	227.91
382.11	227.86
382.49	227.79
382.87	227.68
383.25	227.53
383.62	227.67
384.00	227.65
384.38	227.55
384.76	227.42
385.13	227.40
385.51	227.24
385.89	227.27
386.27	227.19
386.64	227.16
387.02	227.01
387.40	226.86
387.78	226.81
388.15	226.81
388.53	226.76
388.91	226.64
389.29	226.49
389.66	226.69
390.04	226.66
390.42	226.70
390.79	226.67
391.17	226.83
391.55	226.58
391.92	226.48
392.30	226.51
392.68	226.45
393.05	226.43
393.43	226.50
393.81	226.47
394.18	226.56
394.56	226.53
394.94	226.78
395.31	226.79
395.69	226.89
396.06	227.02
396.44	227.13
396.82	227.18
397.19	227.34
397.57	227.30
397.95	227.36
398.32	227.38
398.70	227.48
399.07	227.47
399.45	227.54
399.82	227.64
400.20	227.72
400.58	227.87
400.95	227.92
401.33	228.09
401.70	228.35
402.08	228.46
402.45	228.61
402.83	228.80
403.20	229.04
403.58	229.17
403.95	229.38
404.33	229.61
404.71	229.78
405.08	230.15
405.46	230.30
405.83	230.54
406.21	230.75
406.58	231.03
406.96	231.32
407.33	231.75
407.70	232.25
408.08	232.75
408.45	233.20
408.83	233.67
409.20	234.04
409.58	234.51
409.95	234.96
410.33	235.58
410.70	236.08
411.08	236.69
411.45	237.35
411.82	237.95
412.20	238.79
412.57	239.79
412.95	240.42
413.32	241.31
413.69	242.22
414.07	243.17
414.44	244.28
414.82	245.25
415.19	246.39
415.56	247.48
415.94	248.71
416.31	250.08
416.68	251.54
417.06	253.18
417.43	254.68
417.81	256.42
418.18	258.09
418.55	259.85
418.93	261.80
419.30	263.94
419.67	266.04
420.04	268.12
420.42	270.39
420.79	273.01
421.16	275.66
421.54	278.38
421.91	281.20
422.28	283.95
422.66	287.12
423.03	290.13
423.40	293.33
423.77	296.63
424.15	300.02
424.52	303.52
424.89	307.29
425.26	311.05
425.64	314.57
426.01	318.44
426.38	322.50
426.75	326.61
427.13	330.66
427.50	335.06
427.87	339.68
428.24	344.20
428.61	348.60
428.99	353.70
429.36	359.04
429.73	364.34
430.10	369.56
430.47	374.76
430.85	380.38
431.22	385.82
431.59	391.84
431.96	397.61
432.33	403.97
432.70	410.20
433.08	417.36
433.45	424.28
433.82	431.07
434.19	438.77
434.56	446.24
434.93	453.40
435.30	460.50
435.68	468.30
436.05	476.16
436.42	483.78
436.79	490.55
437.16	498.12
437.53	505.78
437.90	513.81
438.27	521.60
438.64	529.37
439.01	537.17
439.38	543.78
439.75	550.16
440.13	557.41
440.50	564.43
440.87	570.22
441.24	576.13
441.61	582.86
441.98	587.72
442.35	593.26
442.72	599.01
443.09	604.72
443.46	608.44
443.83	610.88
444.20	613.27
444.57	616.64
444.94	618.26
445.31	620.31
445.68	622.21
446.05	623.54
446.42	623.71
446.79	623.63
447.16	623.66
447.53	624.23
447.90	622.40
448.27	620.28
448.64	617.10
449.01	615.10
449.37	610.78
449.74	606.59
450.11	601.53
450.48	595.88
450.85	590.18
451.22	585.30
451.59	580.80
451.96	576.43
452.33	569.91
452.70	564.34
453.07	557.46
453.43	550.16
453.80	543.36
454.17	536.66
454.54	530.26
454.91	523.35
455.28	516.22
455.65	510.03
456.02	503.67
456.38	498.13
456.75	491.18
457.12	485.39
457.49	479.61
457.86	474.11
458.23	469.46
458.59	464.05
458.96	458.59
459.33	453.72
459.70	448.87
460.07	445.15
460.43	440.75
460.80	436.45
461.17	432.72
461.54	428.66
461.91	424.78
462.27	420.86
462.64	417.44
463.01	414.02
463.38	410.38
463.74	406.87
464.11	403.83
464.48	401.16
464.85	398.15
465.21	395.90
465.58	393.32
465.95	390.30
466.32	387.77
466.68	385.23
467.05	382.60
467.42	380.08
467.78	377.43
468.15	374.83
468.52	372.94
468.88	370.54
469.25	368.31
469.62	366.61
469.98	364.77
470.35	362.97
470.72	361.10
471.08	359.09
471.45	357.41
471.82	355.76
472.18	354.12
472.55	352.91
472.92	351.48
473.28	350.21
473.65	348.79
474.02	347.54
474.38	346.39
474.75	345.52
475.11	344.37
475.48	343.42
475.85	342.75
476.21	341.94
476.58	341.24
476.94	340.70
477.31	340.17
477.67	339.44
478.04	338.88
478.41	338.48
478.77	338.37
479.14	337.99
479.50	337.72
479.87	337.38
480.23	337.19
480.60	336.70
480.96	336.36
481.33	336.43
481.69	336.34
482.06	336.33
482.42	336.03
482.79	336.14
483.15	336.32
483.52	336.52
483.88	336.72
484.25	336.92
484.61	337.10
484.98	337.37
485.34	338.07
485.71	338.65
486.07	339.15
486.44	339.52
486.80	340.13
487.17	340.73
487.53	341.60
487.90	342.28
488.26	343.36
488.62	344.41
488.99	345.29
489.35	346.20
489.72	347.15
490.08	348.46
490.44	349.63
490.81	350.84
491.17	351.93
491.54	353.18
491.90	354.51
492.26	355.85
492.63	357.10
492.99	358.31
493.36	359.66
493.72	361.28
494.08	362.72
494.45	364.31
494.81	365.86
495.17	367.35
495.54	368.86
495.90	370.46
496.26	372.03
496.63	373.73
496.99	375.48
497.35	377.29
497.72	379.10
498.08	380.66
498.44	382.57
498.80	384.53
499.17	386.50
499.53	388.37
499.89	390.34
500.26	392.21
500.62	393.95
500.98	395.98
501.34	397.85
501.71	399.86
502.07	401.54
502.43	403.31
502.79	405.12
503.16	407.12
503.52	408.76
503.88	410.48
504.24	412.26
504.60	414.05
504.97	415.86
505.33	417.31
505.69	419.11
506.05	420.61
506.41	421.95
506.78	423.33
507.14	424.78
507.50	426.10
507.86	427.62
508.22	429.07
508.59	430.06
508.95	431.13
509.31	432.36
509.67	433.69
510.03	434.93
510.39	435.89
510.75	436.78
511.12	437.66
511.48	438.45
511.84	439.27
512.20	440.08
512.56	440.84
512.92	441.80
513.28	442.47
513.64	443.10
514.00	443.80
514.37	444.33
514.73	444.94
515.09	445.70
515.45	446.03
515.81	446.61
516.17	447.25
516.53	447.75
516.89	447.84
517.25	448.20
517.61	448.69
517.97	449.16
518.33	449.39
518.69	450.00
519.05	450.56
519.41	450.94
519.77	451.43
520.13	451.84
520.49	452.12
520.85	452.55
521.21	452.86
521.57	453.37
521.93	453.72
522.29	454.12
522.65	454.25
523.01	454.75
523.37	455.02
523.73	455.57
524.09	456.00
524.45	456.61
524.81	457.27
525.17	457.78
525.53	458.53
525.89	459.43
526.25	460.15
526.61	461.00
526.97	461.72
527.33	462.55
527.68	463.65
528.04	464.69
528.40	465.70
528.76	466.95
529.12	468.24
529.48	469.53
529.84	470.68
530.20	472.35
530.56	473.98
530.91	475.81
531.27	477.48
531.63	479.03
531.99	480.93
532.35	482.55
532.71	484.26
533.07	486.23
533.42	488.15
533.78	490.20
534.14	492.25
534.50	494.40
534.86	496.64
535.21	498.55
535.57	500.96
535.93	503.17
536.29	505.69
536.65	508.08
537.00	510.62
537.36	513.29
537.72	515.82
538.08	518.38
538.44	520.94
538.79	523.63
539.15	526.59
539.51	529.47
539.87	532.70
540.22	535.83
540.58	538.86
540.94	541.96
541.29	545.15
541.65	548.18
542.01	551.75
542.37	555.04
542.72	558.58
543.08	561.69
543.44	565.27
543.79	568.27
544.15	571.60
544.51	575.29
544.87	579.00
545.22	582.45
545.58	586.03
545.94	589.50
546.29	593.21
546.65	596.91
547.01	600.64
547.36	603.97
547.72	607.68
548.07	611.36
548.43	615.00
548.79	618.47
549.14	622.30
549.50	625.86
549.86	629.45
550.21	633.01
550.57	637.13
550.92	640.95
551.28	645.01
551.64	649.09
551.99	652.81
552.35	656.54
552.70	660.35
553.06	664.35
553.41	668.36
553.77	672.20
554.13	676.10
554.48	679.99
554.84	684.18
555.19	688.13
555.55	692.14
555.90	696.02
556.26	699.83
556.61	703.73
556.97	707.54
557.32	711.36
557.68	715.30
558.03	719.12
558.39	722.80
558.74	726.78
559.10	730.73
559.45	734.72
559.81	738.79
560.16	742.54
560.52	746.34
560.87	750.20
561.23	753.63
561.58	757.45
561.94	761.14
562.29	764.49
562.64	767.93
563.00	770.98
563.35	774.61
563.71	778.55
564.06	782.14
564.42	785.53
564.77	789.27
565.12	792.75
565.48	795.99
565.83	799.39
566.19	802.58
566.54	805.59
566.89	808.81
567.25	811.82
567.60	815.55
567.96	818.86
568.31	821.52
568.66	824.79
569.02	827.64
569.37	830.19
569.72	833.27
570.08	836.22
570.43	839.37
570.78	841.71
571.14	844.14
571.49	846.51
571.84	849.35
572.20	851.54
572.55	853.59
572.90	855.63
573.26	857.89
573.61	859.90
573.96	861.77
574.31	863.38
574.67	864.75
575.02	866.01
575.37	867.31
575.72	868.82
576.08	870.42
576.43	871.69
576.78	873.43
577.13	874.78
577.49	876.08
577.84	877.06
578.19	878.46
578.54	879.37
578.90	880.29
579.25	880.83
579.60	881.64
579.95	882.40
580.30	883.17
580.66	883.58
581.01	883.96
581.36	884.59
581.71	885.18
582.06	886.04
582.42	886.30
582.77	886.51
583.12	886.87
583.47	887.20
583.82	887.60
584.17	887.49
584.53	887.74
584.88	887.76
585.23	887.75
585.58	887.86
585.93	887.63
586.28	887.86
586.63	887.90
586.98	887.89
587.34	887.90
587.69	887.80
588.04	887.82
588.39	888.08
588.74	887.32
589.09	886.60
589.44	885.68
589.79	885.20
590.14	884.74
590.49	884.50
590.84	883.56
591.19	882.79
591.54	881.78
591.89	880.50
592.25	879.73
592.60	878.76
592.95	877.50
593.30	876.45
593.65	875.17
594.00	873.80
594.35	872.79
594.70	871.45
595.05	870.18
595.40	868.84
595.75	867.04
596.10	866.06
596.45	865.25
596.80	864.55
597.15	863.44
597.50	862.18
597.85	860.80
598.19	859.67
598.54	858.44
598.89	857.39
599.24	856.48
599.59	855.07
599.94	853.81
600.29	852.46
600.64	851.07
600.99	849.40
601.34	848.17
601.69	846.33
602.04	844.72
602.39	843.03
602.74	841.69
603.08	840.38
603.43	839.12
603.78	837.37
604.13	835.40
604.48	833.68
604.83	832.07
605.18	830.32
605.53	827.97
605.87	825.79
606.22	823.87
606.57	821.51
606.92	819.59
607.27	817.90
607.62	816.10
607.96	814.51
608.31	812.59
608.66	810.51
609.01	808.46
609.36	806.29
609.70	803.98
610.05	801.35
610.40	799.12
610.75	796.65
611.10	794.07
611.44	791.56
611.79	789.03
612.14	786.45
612.49	783.62
612.83	781.48
613.18	779.06
613.53	776.49
613.88	773.91
614.22	771.14
614.57	768.16
614.92	765.53
615.27	762.95
615.61	760.40
615.96	757.69
616.31	755.11
616.65	752.95
617.00	750.67
617.35	748.41
617.70	745.58
618.04	742.73
618.39	740.22
618.74	737.73
619.08	734.91
619.43	732.25
619.78	729.64
620.12	726.93
620.47	724.28
620.82	721.61
621.16	719.02
621.51	716.57
621.85	713.99
622.20	711.43
622.55	708.70
622.89	706.22
623.24	703.82
623.59	701.43
623.93	698.74
624.28	696.20
624.62	693.66
624.97	691.39
625.32	689.01
625.66	686.57
626.01	684.23
626.35	681.93
626.70	679.31
627.04	677.03
627.39	674.50
627.73	672.18
628.08	669.77
628.43	667.23
628.77	664.77
629.12	662.26
629.46	659.69
629.81	656.78
630.15	653.97
630.50	650.98
630.84	648.15
631.19	645.40
631.53	642.82
631.88	639.80
632.22	636.70
632.57	634.22
632.91	631.50
633.26	628.61
633.60	626.00
633.95	623.67
634.29	621.11
634.64	618.87
634.98	616.23
635.32	613.91
635.67	611.67
636.01	609.05
636.36	606.54
636.70	604.14
637.05	601.94
637.39	599.72
637.73	597.57
638.08	595.50
638.42	593.30
638.77	590.84
639.11	588.60
639.45	586.44
639.80	583.94
640.14	581.69
640.49	579.50
640.83	577.13
641.17	574.62
641.52	572.29
641.86	569.68
642.20	567.21
642.55	564.77
642.89	562.47
643.23	559.89
643.58	557.80
643.92	555.41
644.26	553.16
644.61	550.84
644.95	548.58
645.29	545.84
645.64	543.32
645.98	540.88
646.32	538.60
646.66	536.31
647.01	533.85
647.35	531.50
647.69	529.14
648.04	527.08
648.38	524.79
648.72	522.39
649.06	519.94
649.41	517.60
649.75	515.00
650.09	512.48
650.43	510.38
650.78	507.89
651.12	505.33
651.46	502.91
651.80	500.47
652.14	498.09
652.49	495.89
652.83	493.57
653.17	491.17
653.51	488.75
653.85	486.63
654.20	484.42
654.54	482.02
654.88	479.60
655.22	477.01
655.56	474.62
655.90	472.46
656.25	470.39
656.59	468.37
656.93	466.39
657.27	464.35
657.61	462.05
657.95	460.01
658.29	457.97
658.64	455.87
658.98	453.70
659.32	451.67
659.66	449.64
660.00	447.79
660.34	445.81
660.68	443.86
661.02	441.75
661.36	439.82
661.70	437.97
662.05	436.28
662.39	434.60
662.73	432.99
663.07	431.12
663.41	429.32
663.75	427.51
664.09	425.70
664.43	423.82
664.77	422.18
665.11	420.55
665.45	418.85
665.79	417.32
666.13	415.78
666.47	414.07
666.81	412.30
667.15	410.45
667.49	408.81
667.83	407.34
668.17	405.67
668.51	404.13
668.85	402.65
669.19	400.92
669.53	399.14
669.87	397.30
670.21	395.74
670.55	394.20
670.89	392.80
671.23	391.36
671.57	389.94
671.91	388.52
672.25	386.80
672.58	385.49
672.92	383.83
673.26	382.37
673.60	380.96
673.94	379.63
674.28	378.36
674.62	377.09
674.96	375.70
675.30	374.51
675.64	373.21
675.97	371.88
676.31	370.66
676.65	369.49
676.99	368.32
677.33	366.95
677.67	365.63
678.01	364.28
678.34	363.02
678.68	361.74
679.02	360.33
679.36	359.29
679.70	357.92
680.04	356.86
680.37	355.67
680.71	354.42
681.05	353.35
681.39	352.28
681.73	351.21
682.06	350.04
682.40	348.89
682.74	347.70
683.08	346.49
683.42	345.31
683.75	344.34
684.09	343.20
684.43	342.17
684.77	341.12
685.10	339.93
685.44	338.80
685.78	337.66
686.12	336.62
686.45	335.39
686.79	334.41
687.13	333.39
687.46	332.37
687.80	331.29
688.14	330.10
688.48	328.90
688.81	327.86
689.15	326.88
689.49	325.71
689.82	324.79
690.16	323.73
690.50	322.73
690.83	321.62
691.17	320.59
691.51	319.64
691.84	318.69
692.18	317.68
692.52	316.65
692.85	315.76
693.19	314.89
693.52	314.03
693.86	313.08
694.20	312.13
694.53	311.23
694.87	310.30
695.21	309.51
695.54	308.64
695.88	307.59
696.21	306.66
696.55	305.99
696.88	305.09
697.22	304.28
697.56	303.50
697.89	302.70
698.23	301.97
698.56	301.25
698.90	300.45
699.23	299.76
699.57	299.00
699.90	298.25
700.24	297.63
700.58	296.94
700.91	296.25
701.25	295.61
701.58	295.01
701.92	294.48
702.25	293.82
702.59	293.18
702.92	292.58
703.26	292.03
703.59	291.29
703.93	290.68
704.26	290.10
704.60	289.53
704.93	288.97
705.26	288.26
705.60	287.66
705.93	287.06
706.27	286.59
706.60	286.10
706.94	285.67
707.27	285.03
707.61	284.46
707.94	283.96
708.27	283.28
708.61	282.66
708.94	282.13
709.28	281.61
709.61	281.13
709.94	280.70
710.28	280.15
710.61	279.78
710.95	279.22
711.28	278.81
711.61	278.31
711.95	277.77
712.28	277.40
712.61	276.71
712.95	276.41
713.28	275.84
713.61	275.36
713.95	274.74
714.28	274.17
714.61	273.61
714.95	273.10
715.28	272.55
715.61	272.00
715.95	271.50
716.28	270.95
716.61	270.44
716.95	269.95
717.28	269.44
717.61	268.86
717.94	268.31
718.28	267.69
718.61	267.11
718.94	266.62
719.27	266.05
719.61	265.75
719.94	265.20
720.27	264.76
720.60	264.28
720.94	263.89
721.27	263.53
721.60	263.23
721.93	262.75
722.27	262.56
722.60	262.23
722.93	261.86
723.26	261.50
723.59	261.09
723.93	260.82
724.26	260.57
724.59	260.16
724.92	259.90
725.25	259.66
725.59	259.48
725.92	259.23
726.25	259.02
726.58	258.77
726.91	258.46
727.24	258.15
727.57	257.85
727.91	257.59
728.24	257.26
728.57	256.84
728.90	256.69
729.23	256.32
729.56	256.06
729.89	255.64
730.22	255.30
730.55	255.10
730.89	254.80
731.22	254.50
731.55	254.31
731.88	253.97
732.21	253.64
732.54	253.23
732.87	253.00
733.20	252.69
733.53	252.33
733.86	252.03
734.19	251.85
734.52	251.61
734.85	251.34
735.18	251.02
735.51	250.92
735.84	250.61
736.17	250.46
736.50	250.18
736.83	250.27
737.16	250.11
737.49	249.94
737.82	249.71
738.15	249.43
738.48	249.15
738.81	249.03
739.14	248.86
739.47	248.70
739.80	248.47
740.13	248.29
740.46	248.16
740.79	247.90
741.12	247.62
741.45	247.44
741.78	247.29
742.11	247.16
742.44	246.98
742.77	246.79
743.10	246.60
743.43	246.46
743.75	246.10
744.08	246.17
744.41	245.95
744.74	245.69
745.07	245.54
745.40	245.40
745.73	245.27
746.06	245.12
746.39	245.01
746.71	244.91
747.04	244.81
747.37	244.72
747.70	244.69
748.03	244.57
748.36	244.55
748.68	244.36
749.01	244.24
749.34	244.09
749.67	243.99
750.00	243.76
750.33	243.64
750.65	243.51
750.98	243.11
751.31	242.91
751.64	242.77
751.97	242.64
752.29	242.52
752.62	242.34
752.95	242.13
753.28	241.94
753.60	241.70
753.93	241.56
754.26	241.36
754.59	241.08
754.91	240.94
755.24	240.80
755.57	240.65
755.90	240.54
756.22	240.29
756.55	240.05
756.88	239.87
757.20	239.76
757.53	239.47
757.86	239.43
758.19	239.27
758.51	239.10
758.84	238.88
759.17	238.77
759.49	238.57
759.82	238.51
760.15	238.35
760.47	238.25
760.80	238.05
761.13	237.84
761.45	237.84
761.78	237.74
762.11	237.51
762.43	237.42
762.76	237.10
763.08	236.95
763.41	236.88
763.74	236.81
764.06	236.55
764.39	236.56
764.71	236.42
765.04	236.27
765.37	236.21
765.69	236.07
766.02	235.90
766.34	235.74
766.67	235.51
767.00	235.54
767.32	235.42
767.65	235.41
767.97	235.36
768.30	235.25
768.62	235.10
768.95	234.93
769.27	234.68
769.60	234.72
769.92	234.63
770.25	234.56
770.57	234.35
770.90	234.29
771.22	234.12
771.55	233.95
771.87	233.90
772.20	233.77
772.52	233.93
772.85	234.13
773.17	234.13
773.50	234.15
773.82	233.99
774.15	233.92
774.47	233.74
774.80	233.53
775.12	233.39
775.45	233.34
775.77	233.31
776.09	233.34
776.42	233.29
776.74	233.43
777.07	233.35
777.39	233.35
777.72	233.25
778.04	233.34
778.36	233.29
778.69	233.37
779.01	233.46
779.33	233.26
779.66	232.95
779.98	233.06
780.31	233.00
780.63	233.10
780.95	233.19
781.28	233.18
781.60	233.25
781.92	233.29
782.25	233.27
782.57	233.21
782.89	233.34
783.22	233.33
783.54	233.21
783.86	233.23
784.19	233.25
784.51	233.35
784.83	233.33
785.16	233.40
785.48	233.33
785.80	233.39
786.12	233.40
786.45	233.49
786.77	233.35
787.09	233.34
787.42	233.22
787.74	233.10
788.06	233.08
788.38	233.10
788.71	233.09
789.03	233.07
789.35	233.10
789.67	233.05
789.99	233.17
790.32	233.16
790.64	233.15
790.96	233.35
791.28	233.29
791.61	233.19
791.93	233.12
792.25	233.08
792.57	233.15
792.89	233.09
793.21	232.92
793.54	232.90
793.86	232.84
794.18	232.86
