SpectraSuite Data File
++++++++++++++++++++++++++++++++++++
Date: Fri Feb 01 14:38:30 EST 2013
User: group
Dark Spectrum Present: No
Reference Spectrum Present: No
Number of Sampled Component Spectra: 1
Spectrometers: USB2E7196
Integration Time (usec): 70000 (USB2E7196)
Spectra Averaged: 10 (USB2E7196)
Boxcar Smoothing: 10 (USB2E7196)
Correct for Electrical Dark: No (USB2E7196)
Strobe/Lamp Enabled: No (USB2E7196)
Correct for Detector Non-linearity: No (USB2E7196)
Correct for Stray Light: No (USB2E7196)
Number of Pixels in Processed Spectrum: 2048
>>>>>Begin Processed Spectral Data<<<<<
339.09	0.00
339.48	215.40
339.86	219.10
340.24	219.30
340.63	220.70
341.01	224.20
341.39	225.20
341.78	225.20
342.16	226.70
342.54	227.10
342.93	214.89
343.31	225.72
343.69	226.33
344.07	226.74
344.46	227.15
344.84	227.54
345.22	227.78
345.60	227.95
345.99	228.05
346.37	228.11
346.75	228.17
347.13	228.18
347.52	228.27
347.90	228.42
348.28	228.37
348.66	228.40
349.05	228.26
349.43	228.26
349.81	228.19
350.19	228.19
350.57	228.17
350.96	228.20
351.34	228.22
351.72	228.26
352.10	228.31
352.48	228.35
352.87	228.37
353.25	228.45
353.63	228.50
354.01	228.55
354.39	228.60
354.77	228.64
355.15	228.81
355.54	228.82
355.92	228.90
356.30	228.94
356.68	229.12
357.06	229.20
357.44	229.22
357.82	229.34
358.20	229.45
358.58	229.47
358.97	229.54
359.35	229.69
359.73	229.72
360.11	229.75
360.49	229.84
360.87	229.86
361.25	229.81
361.63	229.84
362.01	229.98
362.39	230.03
362.77	230.09
363.15	230.03
363.53	230.05
363.91	230.01
364.29	230.06
364.67	229.89
365.05	229.99
365.43	229.94
365.81	230.03
366.19	230.00
366.57	230.10
366.95	230.15
367.33	230.06
367.71	230.02
368.09	229.94
368.47	229.87
368.85	229.84
369.23	229.90
369.61	229.91
369.99	229.90
370.37	229.92
370.75	229.96
371.13	229.94
371.51	229.87
371.89	229.77
372.27	229.70
372.65	229.64
373.03	229.48
373.41	229.47
373.78	229.32
374.16	229.24
374.54	229.09
374.92	229.01
375.30	228.90
375.68	228.74
376.06	228.77
376.44	228.73
376.82	228.65
377.19	228.52
377.57	228.33
377.95	228.14
378.33	227.97
378.71	227.68
379.09	227.58
379.47	227.53
379.84	227.56
380.22	227.47
380.60	227.43
380.98	227.37
381.36	227.36
381.73	227.30
382.11	227.24
382.49	227.15
382.87	227.00
383.25	226.92
383.62	227.24
384.00	227.10
384.38	227.02
384.76	227.01
385.13	227.00
385.51	226.99
385.89	226.96
386.27	226.94
386.64	227.03
387.02	227.04
387.40	226.95
387.78	226.76
388.15	226.73
388.53	226.68
388.91	226.65
389.29	226.57
389.66	226.51
390.04	226.46
390.42	226.48
390.79	226.48
391.17	226.55
391.55	226.34
391.92	226.39
392.30	226.37
392.68	226.39
393.05	226.34
393.43	226.41
393.81	226.38
394.18	226.31
394.56	226.30
394.94	226.32
395.31	226.36
395.69	226.53
396.06	226.60
396.44	226.64
396.82	226.66
397.19	226.77
397.57	226.82
397.95	226.91
398.32	226.93
398.70	227.01
399.07	227.14
399.45	227.20
399.82	227.35
400.20	227.43
400.58	227.51
400.95	227.60
401.33	227.65
401.70	227.87
402.08	228.10
402.45	228.32
402.83	228.49
403.20	228.69
403.58	228.74
403.95	228.89
404.33	229.06
404.71	229.30
405.08	229.62
405.46	229.89
405.83	230.11
406.21	230.21
406.58	230.53
406.96	230.76
407.33	230.94
407.70	231.14
408.08	231.47
408.45	231.72
408.83	231.93
409.20	232.17
409.58	232.42
409.95	232.77
410.33	233.10
410.70	233.33
411.08	233.59
411.45	234.03
411.82	234.41
412.20	234.74
412.57	235.23
412.95	235.39
413.32	235.85
413.69	236.29
414.07	236.91
414.44	237.36
414.82	237.80
415.19	238.60
415.56	239.19
415.94	239.74
416.31	240.60
416.68	241.43
417.06	242.29
417.43	243.11
417.81	244.04
418.18	244.90
418.55	245.96
418.93	247.10
419.30	248.11
419.67	249.18
420.04	250.50
420.42	251.73
420.79	253.27
421.16	254.74
421.54	256.35
421.91	257.96
422.28	259.47
422.66	261.22
423.03	262.80
423.40	264.65
423.77	266.59
424.15	268.32
424.52	270.15
424.89	272.17
425.26	274.10
425.64	275.97
426.01	278.14
426.38	280.32
426.75	282.53
427.13	284.83
427.50	287.35
427.87	289.79
428.24	292.26
428.61	294.64
428.99	297.29
429.36	299.99
429.73	302.72
430.10	305.56
430.47	308.49
430.85	311.39
431.22	314.36
431.59	317.67
431.96	320.74
432.33	324.20
432.70	327.64
433.08	331.58
433.45	335.14
433.82	338.60
434.19	342.63
434.56	346.60
434.93	350.41
435.30	354.26
435.68	358.36
436.05	362.33
436.42	366.27
436.79	369.79
437.16	373.88
437.53	377.99
437.90	382.10
438.27	386.06
438.64	390.19
439.01	394.02
439.38	397.37
439.75	400.65
440.13	404.50
440.50	407.88
440.87	410.84
441.24	413.96
441.61	417.41
441.98	419.70
442.35	422.61
442.72	425.52
443.09	428.19
443.46	429.98
443.83	431.22
444.20	432.36
444.57	434.07
444.94	434.73
445.31	435.72
445.68	436.71
446.05	437.27
446.42	437.00
446.79	436.77
447.16	436.57
447.53	436.68
447.90	435.38
448.27	434.38
448.64	432.49
449.01	431.39
449.37	428.99
449.74	426.80
450.11	423.97
450.48	420.92
450.85	417.82
451.22	415.11
451.59	412.48
451.96	410.10
452.33	406.75
452.70	403.64
453.07	399.79
453.43	395.86
453.80	392.15
454.17	388.73
454.54	385.45
454.91	381.71
455.28	377.99
455.65	374.80
456.02	371.44
456.38	368.47
456.75	364.72
457.12	361.64
457.49	358.46
457.86	355.45
458.23	352.90
458.59	349.95
458.96	347.07
459.33	344.58
459.70	341.91
460.07	339.60
460.43	337.22
460.80	334.87
461.17	332.80
461.54	330.68
461.91	328.61
462.27	326.39
462.64	324.60
463.01	322.68
463.38	320.62
463.74	318.60
464.11	317.04
464.48	315.60
464.85	314.05
465.21	312.91
465.58	311.60
465.95	309.82
466.32	308.54
466.68	307.16
467.05	305.67
467.42	304.36
467.78	303.02
468.15	301.69
468.52	300.77
468.88	299.54
469.25	298.21
469.62	297.13
469.98	296.15
470.35	295.09
470.72	294.07
471.08	293.03
471.45	292.06
471.82	291.13
472.18	290.02
472.55	289.19
472.92	288.22
473.28	287.31
473.65	286.61
474.02	285.81
474.38	285.06
474.75	284.56
475.11	283.75
475.48	283.20
475.85	282.61
476.21	282.02
476.58	281.41
476.94	280.96
477.31	280.52
477.67	280.00
478.04	279.58
478.41	279.01
478.77	278.69
479.14	278.32
479.50	277.88
479.87	277.70
480.23	277.33
480.60	276.92
480.96	276.68
481.33	276.44
481.69	276.26
482.06	276.08
482.42	275.86
482.79	275.84
483.15	275.68
483.52	275.63
483.88	275.44
484.25	275.39
484.61	275.37
484.98	275.40
485.34	275.51
485.71	275.50
486.07	275.71
486.44	275.69
486.80	275.63
487.17	275.76
487.53	275.75
487.90	275.91
488.26	276.35
488.62	276.47
488.99	276.56
489.35	276.60
489.72	276.73
490.08	276.92
490.44	277.06
490.81	277.25
491.17	277.45
491.54	277.74
491.90	277.82
492.26	278.01
492.63	278.20
492.99	278.32
493.36	278.59
493.72	278.94
494.08	279.25
494.45	279.69
494.81	279.97
495.17	280.29
495.54	280.54
495.90	280.70
496.26	281.09
496.63	281.50
496.99	281.97
497.35	282.41
497.72	282.88
498.08	283.29
498.44	283.70
498.80	284.20
499.17	284.66
499.53	285.16
499.89	285.55
500.26	285.80
500.62	286.24
500.98	286.66
501.34	286.88
501.71	287.22
502.07	287.58
502.43	287.95
502.79	288.34
503.16	288.76
503.52	289.18
503.88	289.50
504.24	289.92
504.60	290.27
504.97	290.69
505.33	290.93
505.69	291.42
506.05	291.81
506.41	292.11
506.78	292.43
507.14	292.79
507.50	293.20
507.86	293.76
508.22	294.19
508.59	294.52
508.95	294.94
509.31	295.56
509.67	295.98
510.03	296.60
510.39	297.12
510.75	297.69
511.12	298.20
511.48	298.71
511.84	299.26
512.20	299.82
512.56	300.41
512.92	301.24
513.28	301.86
513.64	302.57
514.00	303.43
514.37	304.27
514.73	305.20
515.09	306.04
515.45	306.94
515.81	307.94
516.17	309.11
516.53	310.34
516.89	311.44
517.25	312.67
517.61	313.89
517.97	315.24
518.33	316.56
518.69	318.08
519.05	319.64
519.41	321.25
519.77	323.02
520.13	324.77
520.49	326.51
520.85	328.25
521.21	330.37
521.57	332.29
521.93	334.25
522.29	336.37
522.65	338.57
523.01	340.84
523.37	343.35
523.73	345.82
524.09	348.49
524.45	351.05
524.81	353.71
525.17	356.54
525.53	359.50
525.89	362.67
526.25	365.78
526.61	368.89
526.97	372.14
527.33	375.40
527.68	378.98
528.04	382.45
528.40	386.04
528.76	389.48
529.12	393.20
529.48	397.13
529.84	401.13
530.20	405.26
530.56	409.61
530.91	413.70
531.27	418.09
531.63	422.29
531.99	426.77
532.35	431.48
532.71	436.04
533.07	440.59
533.42	445.22
533.78	449.81
534.14	454.76
534.50	459.62
534.86	464.50
535.21	469.34
535.57	474.42
535.93	479.60
536.29	485.01
536.65	490.28
537.00	495.52
537.36	500.89
537.72	506.36
538.08	511.74
538.44	517.38
538.79	522.70
539.15	528.07
539.51	533.75
539.87	539.44
540.22	545.20
540.58	550.99
540.94	556.75
541.29	562.85
541.65	568.70
542.01	574.70
542.37	580.88
542.72	586.74
543.08	592.80
543.44	598.71
543.79	604.60
544.15	610.75
544.51	617.02
544.87	622.93
545.22	628.98
545.58	634.83
545.94	640.72
546.29	646.84
546.65	653.09
547.01	659.00
547.36	664.89
547.72	670.71
548.07	676.63
548.43	682.47
548.79	688.19
549.14	693.96
549.50	699.64
549.86	705.41
550.21	711.24
550.57	717.05
550.92	723.00
551.28	728.63
551.64	734.38
551.99	740.08
552.35	745.85
552.70	751.60
553.06	757.54
553.41	763.18
553.77	768.97
554.13	774.60
554.48	780.35
554.84	785.88
555.19	791.20
555.55	796.83
555.90	802.51
556.26	807.76
556.61	813.16
556.97	818.35
557.32	823.59
557.68	828.93
558.03	834.27
558.39	839.28
558.74	844.81
559.10	849.97
559.45	854.85
559.81	860.23
560.16	865.20
560.52	869.66
560.87	874.56
561.23	879.36
561.58	884.35
561.94	888.90
562.29	893.31
562.64	898.05
563.00	902.55
563.35	907.44
563.71	912.40
564.06	917.05
564.42	921.65
564.77	926.06
565.12	930.56
565.48	934.82
565.83	938.80
566.19	942.81
566.54	946.59
566.89	950.60
567.25	954.31
567.60	958.34
567.96	962.57
568.31	966.31
568.66	969.97
569.02	973.24
569.37	976.50
569.72	980.22
570.08	983.77
570.43	987.11
570.78	989.48
571.14	992.28
571.49	995.15
571.84	998.57
572.20	1001.17
572.55	1003.48
572.90	1005.92
573.26	1008.86
573.61	1011.01
573.96	1013.15
574.31	1015.12
574.67	1016.60
575.02	1018.40
575.37	1019.88
575.72	1021.55
576.08	1023.10
576.43	1024.61
576.78	1026.13
577.13	1027.56
577.49	1029.01
577.84	1030.07
578.19	1031.43
578.54	1032.47
578.90	1033.31
579.25	1033.42
579.60	1034.40
579.95	1035.20
580.30	1035.37
580.66	1035.51
581.01	1035.83
581.36	1036.61
581.71	1037.48
582.06	1038.12
582.42	1037.98
582.77	1038.40
583.12	1038.46
583.47	1038.64
583.82	1038.73
584.17	1038.89
584.53	1039.09
584.88	1038.78
585.23	1038.80
585.58	1038.80
585.93	1038.59
586.28	1038.57
586.63	1039.01
586.98	1038.98
587.34	1038.69
587.69	1038.70
588.04	1038.93
588.39	1038.90
588.74	1038.15
589.09	1037.26
589.44	1036.64
589.79	1036.22
590.14	1035.77
590.49	1035.21
590.84	1034.38
591.19	1034.02
591.54	1032.85
591.89	1031.29
592.25	1030.50
592.60	1028.89
592.95	1027.48
593.30	1026.35
593.65	1024.86
594.00	1022.99
594.35	1021.42
594.70	1019.93
595.05	1018.41
595.40	1016.47
595.75	1014.67
596.10	1013.32
596.45	1012.07
596.80	1010.93
597.15	1009.44
597.50	1007.50
597.85	1005.99
598.19	1004.33
598.54	1002.52
598.89	1001.34
599.24	1000.38
599.59	998.43
599.94	997.07
600.29	995.47
600.64	993.67
600.99	991.58
601.34	989.75
601.69	987.66
602.04	986.00
602.39	984.20
602.74	982.64
603.08	981.11
603.43	979.69
603.78	977.61
604.13	975.48
604.48	973.35
604.83	971.67
605.18	969.85
605.53	967.53
605.87	965.02
606.22	962.60
606.57	960.00
606.92	957.98
607.27	956.08
607.62	954.15
607.96	952.20
608.31	950.32
608.66	947.96
609.01	945.55
609.36	942.64
609.70	939.74
610.05	937.04
610.40	934.17
610.75	931.01
611.10	928.13
611.44	925.03
611.79	922.58
612.14	919.67
612.49	915.86
612.83	912.91
613.18	909.95
613.53	906.93
613.88	903.58
614.22	900.17
614.57	896.63
614.92	893.03
615.27	889.67
615.61	886.35
615.96	883.13
616.31	880.13
616.65	877.70
617.00	875.07
617.35	871.78
617.70	868.32
618.04	864.78
618.39	861.77
618.74	858.70
619.08	855.10
619.43	851.66
619.78	848.91
620.12	845.54
620.47	842.46
620.82	839.29
621.16	836.28
621.51	833.37
621.85	830.23
622.20	827.00
622.55	823.75
622.89	820.86
623.24	818.01
623.59	814.98
623.93	811.44
624.28	808.30
624.62	805.17
624.97	802.31
625.32	799.54
625.66	796.50
626.01	793.48
626.35	790.45
626.70	787.34
627.04	784.30
627.39	781.37
627.73	778.15
628.08	775.16
628.43	771.89
628.77	768.50
629.12	765.06
629.46	761.96
629.81	758.26
630.15	754.59
630.50	751.10
630.84	747.50
631.19	744.11
631.53	740.52
631.88	737.00
632.22	733.47
632.57	730.13
632.91	726.45
633.26	722.99
633.60	719.57
633.95	716.47
634.29	713.13
634.64	709.95
634.98	706.51
635.32	703.07
635.67	700.26
636.01	697.13
636.36	694.25
636.70	691.15
637.05	688.50
637.39	685.87
637.73	682.85
638.08	680.09
638.42	677.47
638.77	674.62
639.11	671.67
639.45	669.02
639.80	665.96
640.14	663.12
640.49	660.26
640.83	657.43
641.17	654.36
641.52	651.48
641.86	648.53
642.20	645.84
642.55	642.98
642.89	639.90
643.23	637.17
643.58	634.38
643.92	631.48
644.26	628.57
644.61	625.72
644.95	622.87
645.29	619.60
645.64	616.36
645.98	613.36
646.32	610.74
646.66	607.52
647.01	604.71
647.35	601.95
647.69	599.10
648.04	596.33
648.38	593.44
648.72	590.45
649.06	587.34
649.41	584.56
649.75	581.58
650.09	578.58
650.43	575.42
650.78	572.30
651.12	569.36
651.46	566.52
651.80	563.39
652.14	560.60
652.49	557.99
652.83	555.29
653.17	552.41
653.51	549.34
653.85	546.64
654.20	543.81
654.54	540.90
654.88	537.91
655.22	534.86
655.56	531.89
655.90	529.03
656.25	526.50
656.59	523.75
656.93	521.20
657.27	518.68
657.61	515.95
657.95	513.42
658.29	510.74
658.64	508.13
658.98	505.50
659.32	502.70
659.66	500.06
660.00	497.31
660.34	494.77
660.68	492.34
661.02	490.01
661.36	487.51
661.70	485.04
662.05	482.69
662.39	480.39
662.73	478.12
663.07	476.08
663.41	473.94
663.75	471.58
664.09	469.30
664.43	466.91
664.77	464.86
665.11	462.71
665.45	460.53
665.79	458.27
666.13	456.19
666.47	454.17
666.81	451.90
667.15	449.78
667.49	447.83
667.83	445.85
668.17	443.49
668.51	441.37
668.85	439.49
669.19	437.64
669.53	435.68
669.87	433.63
670.21	431.66
670.55	429.48
670.89	427.74
671.23	425.90
671.57	424.04
671.91	422.17
672.25	420.21
672.58	418.62
672.92	416.78
673.26	415.01
673.60	413.22
673.94	411.63
674.28	410.09
674.62	408.40
674.96	406.65
675.30	405.10
675.64	403.67
675.97	402.01
676.31	400.27
676.65	398.74
676.99	397.33
677.33	395.58
677.67	393.99
678.01	392.28
678.34	390.67
678.68	389.15
679.02	387.70
679.36	386.16
679.70	384.58
680.04	383.10
680.37	381.58
680.71	380.14
681.05	378.90
681.39	377.47
681.73	376.10
682.06	374.87
682.40	373.51
682.74	372.02
683.08	370.62
683.42	369.20
683.75	367.87
684.09	366.49
684.43	365.19
684.77	363.93
685.10	362.57
685.44	361.21
685.78	359.91
686.12	358.50
686.45	357.23
686.79	355.93
687.13	354.67
687.46	353.47
687.80	352.18
688.14	350.64
688.48	349.30
688.81	347.79
689.15	346.52
689.49	345.24
689.82	344.02
690.16	342.64
690.50	341.52
690.83	340.26
691.17	339.00
691.51	337.92
691.84	336.92
692.18	335.95
692.52	334.64
692.85	333.57
693.19	332.50
693.52	331.35
693.86	330.14
694.20	329.00
694.53	327.83
694.87	326.71
695.21	325.64
695.54	324.61
695.88	323.53
696.21	322.36
696.55	321.34
696.88	320.35
697.22	319.37
697.56	318.23
697.89	317.22
698.23	316.21
698.56	315.11
698.90	313.92
699.23	312.64
699.57	311.78
699.90	310.71
700.24	309.70
700.58	308.88
700.91	307.98
701.25	307.13
701.58	306.39
701.92	305.61
702.25	304.83
702.59	303.87
702.92	303.12
703.26	302.18
703.59	301.29
703.93	300.54
704.26	299.85
704.60	299.21
704.93	298.50
705.26	297.57
705.60	296.93
705.93	296.36
706.27	295.71
706.60	295.07
706.94	294.41
707.27	293.64
707.61	293.00
707.94	292.28
708.27	291.47
708.61	290.65
708.94	289.91
709.28	289.21
709.61	288.61
709.94	288.00
710.28	287.33
710.61	286.67
710.95	285.80
711.28	285.22
711.61	284.45
711.95	283.79
712.28	283.39
712.61	282.65
712.95	281.97
713.28	281.50
713.61	280.80
713.95	280.12
714.28	279.56
714.61	278.80
714.95	278.31
715.28	277.85
715.61	277.18
715.95	276.63
716.28	276.07
716.61	275.53
716.95	274.95
717.28	274.59
717.61	274.17
717.94	273.81
718.28	273.11
718.61	272.67
718.94	272.11
719.27	271.65
719.61	271.20
719.94	270.79
720.27	270.29
720.60	269.87
720.94	269.48
721.27	269.03
721.60	268.75
721.93	268.27
722.27	268.00
722.60	267.79
722.93	267.39
723.26	267.11
723.59	266.76
723.93	266.44
724.26	265.88
724.59	265.55
724.92	265.03
725.25	264.74
725.59	264.44
725.92	264.14
726.25	263.72
726.58	263.42
726.91	263.00
727.24	262.66
727.57	262.34
727.91	262.10
728.24	261.79
728.57	261.39
728.90	261.10
729.23	260.58
729.56	260.22
729.89	259.99
730.22	259.57
730.55	259.20
730.89	258.86
731.22	258.58
731.55	258.30
731.88	258.11
732.21	257.75
732.54	257.32
732.87	257.02
733.20	256.67
733.53	256.36
733.86	256.09
734.19	255.82
734.52	255.48
734.85	255.23
735.18	254.95
735.51	254.80
735.84	254.48
736.17	254.21
736.50	253.83
736.83	253.71
737.16	253.35
737.49	253.15
737.82	252.77
738.15	252.53
738.48	252.20
738.81	251.94
739.14	251.74
739.47	251.55
739.80	251.24
740.13	251.06
740.46	250.75
740.79	250.50
741.12	250.20
741.45	249.98
741.78	249.60
742.11	249.42
742.44	249.16
742.77	248.93
743.10	248.72
743.43	248.48
743.75	247.99
744.08	248.11
744.41	247.90
744.74	247.74
745.07	247.49
745.40	247.25
745.73	246.98
746.06	246.71
746.39	246.45
746.71	246.29
747.04	246.01
747.37	245.80
747.70	245.45
748.03	245.15
748.36	244.98
748.68	244.80
749.01	244.45
749.34	244.23
749.67	244.13
750.00	243.95
750.33	243.93
750.65	243.76
750.98	243.26
751.31	242.96
751.64	242.81
751.97	242.73
752.29	242.60
752.62	242.46
752.95	242.12
753.28	242.04
753.60	241.77
753.93	241.68
754.26	241.46
754.59	241.34
754.91	241.20
755.24	241.05
755.57	240.97
755.90	240.99
756.22	240.72
756.55	240.50
756.88	240.22
757.20	239.91
757.53	239.91
757.86	239.84
758.19	239.73
758.51	239.63
758.84	239.48
759.17	239.30
759.49	239.11
759.82	239.24
760.15	239.14
760.47	239.12
760.80	238.91
761.13	238.90
761.45	238.83
761.78	238.76
762.11	238.68
762.43	238.60
762.76	238.47
763.08	238.46
763.41	238.38
763.74	238.47
764.06	238.46
764.39	238.25
764.71	238.12
765.04	238.04
765.37	237.91
765.69	237.83
766.02	237.73
766.34	237.73
766.67	237.58
767.00	237.61
767.32	237.57
767.65	237.74
767.97	237.51
768.30	237.40
768.62	237.30
768.95	237.13
769.27	236.90
769.60	236.80
769.92	236.64
770.25	236.42
770.57	236.30
770.90	236.15
771.22	236.07
771.55	236.01
771.87	235.98
772.20	235.86
772.52	235.97
772.85	236.26
773.17	236.18
773.50	236.12
773.82	235.85
774.15	235.75
774.47	235.48
774.80	235.41
775.12	235.28
775.45	235.34
775.77	235.35
776.09	235.30
776.42	235.26
776.74	235.24
777.07	235.32
777.39	235.27
777.72	235.22
778.04	235.15
778.36	234.95
778.69	234.89
779.01	234.90
779.33	234.64
779.66	234.30
779.98	234.10
780.31	233.99
780.63	234.04
780.95	233.97
781.28	233.87
781.60	233.99
781.92	233.95
782.25	233.78
782.57	233.67
782.89	233.50
783.22	233.39
783.54	233.20
783.86	233.07
784.19	232.94
784.51	232.95
784.83	232.89
785.16	232.84
785.48	232.79
785.80	232.72
786.12	232.67
786.45	232.49
786.77	232.55
787.09	232.56
787.42	232.40
787.74	232.28
788.06	232.26
788.38	232.05
788.71	232.01
789.03	232.04
789.35	232.01
789.67	232.02
789.99	231.96
790.32	231.99
790.64	232.03
790.96	232.12
791.28	231.98
791.61	231.84
791.93	231.87
792.25	231.78
792.57	231.84
