SpectraSuite Data File
++++++++++++++++++++++++++++++++++++
Date: Fri Feb 01 14:35:11 EST 2013
User: group
Dark Spectrum Present: No
Reference Spectrum Present: No
Number of Sampled Component Spectra: 1
Spectrometers: USB2E7196
Integration Time (usec): 70000 (USB2E7196)
Spectra Averaged: 10 (USB2E7196)
Boxcar Smoothing: 10 (USB2E7196)
Correct for Electrical Dark: No (USB2E7196)
Strobe/Lamp Enabled: No (USB2E7196)
Correct for Detector Non-linearity: No (USB2E7196)
Correct for Stray Light: No (USB2E7196)
Number of Pixels in Processed Spectrum: 2048
>>>>>Begin Processed Spectral Data<<<<<
339.09	0.00
339.48	215.30
339.86	217.90
340.24	218.20
340.63	221.40
341.01	224.30
341.39	222.10
341.78	225.60
342.16	225.60
342.54	227.40
342.93	214.31
343.31	225.13
343.69	225.65
344.07	226.00
344.46	226.44
344.84	226.68
345.22	226.80
345.60	227.10
345.99	227.15
346.37	227.26
346.75	227.34
347.13	227.44
347.52	227.56
347.90	227.72
348.28	227.72
348.66	227.77
349.05	227.59
349.43	227.68
349.81	227.60
350.19	227.56
350.57	227.61
350.96	227.77
351.34	227.93
351.72	228.06
352.10	228.21
352.48	228.28
352.87	228.34
353.25	228.43
353.63	228.42
354.01	228.56
354.39	228.64
354.77	228.69
355.15	228.77
355.54	228.83
355.92	228.85
356.30	229.00
356.68	229.20
357.06	229.27
357.44	229.29
357.82	229.43
358.20	229.63
358.58	229.81
358.97	229.84
359.35	229.86
359.73	229.91
360.11	229.99
360.49	230.06
360.87	230.18
361.25	230.26
361.63	230.45
362.01	230.57
362.39	230.65
362.77	230.59
363.15	230.61
363.53	230.65
363.91	230.66
364.29	230.53
364.67	230.40
365.05	230.49
365.43	230.47
365.81	230.48
366.19	230.45
366.57	230.40
366.95	230.34
367.33	230.30
367.71	230.27
368.09	230.26
368.47	230.21
368.85	230.11
369.23	230.02
369.61	229.85
369.99	229.80
370.37	229.78
370.75	229.93
371.13	229.91
371.51	229.95
371.89	229.93
372.27	229.96
372.65	229.88
373.03	229.89
373.41	229.90
373.78	229.79
374.16	229.67
374.54	229.62
374.92	229.59
375.30	229.52
375.68	229.46
376.06	229.42
376.44	229.40
376.82	229.36
377.19	229.41
377.57	229.30
377.95	229.20
378.33	228.99
378.71	228.84
379.09	228.78
379.47	228.70
379.84	228.53
380.22	228.52
380.60	228.47
380.98	228.33
381.36	228.19
381.73	228.10
382.11	228.03
382.49	227.97
382.87	227.93
383.25	227.85
383.62	227.98
384.00	227.81
384.38	227.65
384.76	227.72
385.13	227.72
385.51	227.73
385.89	227.73
386.27	227.75
386.64	227.67
387.02	227.61
387.40	227.47
387.78	227.48
388.15	227.39
388.53	227.39
388.91	227.47
389.29	227.48
389.66	227.51
390.04	227.48
390.42	227.59
390.79	227.64
391.17	227.63
391.55	227.48
391.92	227.61
392.30	227.72
392.68	227.67
393.05	227.65
393.43	227.70
393.81	227.67
394.18	227.62
394.56	227.71
394.94	227.79
395.31	227.81
395.69	228.01
396.06	228.10
396.44	228.16
396.82	228.16
397.19	228.39
397.57	228.48
397.95	228.62
398.32	228.55
398.70	228.67
399.07	228.91
399.45	229.09
399.82	229.29
400.20	229.40
400.58	229.53
400.95	229.55
401.33	229.71
401.70	230.09
402.08	230.30
402.45	230.44
402.83	230.81
403.20	231.15
403.58	231.22
403.95	231.50
404.33	231.84
404.71	232.04
405.08	232.40
405.46	232.59
405.83	232.93
406.21	233.31
406.58	233.59
406.96	233.92
407.33	234.28
407.70	234.56
408.08	235.10
408.45	235.54
408.83	236.10
409.20	236.56
409.58	236.83
409.95	237.51
410.33	238.12
410.70	238.58
411.08	239.24
411.45	240.04
411.82	240.84
412.20	241.54
412.57	242.58
412.95	243.25
413.32	244.35
413.69	245.40
414.07	246.44
414.44	247.64
414.82	248.71
415.19	250.08
415.56	251.55
415.94	253.11
416.31	254.89
416.68	256.53
417.06	258.57
417.43	260.48
417.81	262.50
418.18	264.71
418.55	267.03
418.93	269.42
419.30	271.86
419.67	274.60
420.04	277.43
420.42	280.21
420.79	283.63
421.16	286.97
421.54	290.32
421.91	293.85
422.28	297.54
422.66	301.55
423.03	305.43
423.40	309.45
423.77	313.52
424.15	317.66
424.52	322.13
424.89	326.96
425.26	331.60
425.64	336.12
426.01	340.99
426.38	346.07
426.75	351.29
427.13	356.61
427.50	361.98
427.87	367.69
428.24	373.45
428.61	378.83
428.99	384.80
429.36	391.49
429.73	398.07
430.10	404.51
430.47	411.09
430.85	417.84
431.22	424.96
431.59	432.37
431.96	439.55
432.33	447.55
432.70	455.27
433.08	464.43
433.45	472.89
433.82	481.46
434.19	490.88
434.56	500.02
434.93	508.77
435.30	517.80
435.68	527.57
436.05	537.26
436.42	546.85
436.79	555.75
437.16	565.14
437.53	574.70
437.90	584.31
438.27	593.96
438.64	604.01
439.01	613.11
439.38	621.47
439.75	629.67
440.13	639.09
440.50	647.84
440.87	655.03
441.24	662.79
441.61	671.22
441.98	677.45
442.35	685.02
442.72	692.68
443.09	699.94
443.46	704.52
443.83	707.92
444.20	711.02
444.57	715.16
444.94	717.70
445.31	720.32
445.68	723.10
446.05	724.86
446.42	725.02
446.79	725.20
447.16	725.29
447.53	725.52
447.90	723.00
448.27	720.49
448.64	716.31
449.01	713.63
449.37	708.05
449.74	703.00
450.11	696.30
450.48	689.00
450.85	681.29
451.22	675.21
451.59	669.26
451.96	663.62
452.33	655.60
452.70	648.27
453.07	639.69
453.43	630.63
453.80	622.03
454.17	613.64
454.54	605.71
454.91	597.11
455.28	588.67
455.65	580.73
456.02	572.52
456.38	565.88
456.75	557.27
457.12	550.13
457.49	542.82
457.86	535.80
458.23	529.87
458.59	523.40
458.96	516.51
459.33	510.49
459.70	504.45
460.07	499.58
460.43	493.95
460.80	488.62
461.17	484.01
461.54	479.08
461.91	474.39
462.27	469.56
462.64	465.37
463.01	460.89
463.38	456.47
463.74	452.39
464.11	448.66
464.48	445.36
464.85	441.65
465.21	438.82
465.58	435.83
465.95	432.29
466.32	429.35
466.68	426.40
467.05	423.39
467.42	420.30
467.78	417.26
468.15	414.20
468.52	412.00
468.88	408.91
469.25	406.07
469.62	403.93
469.98	401.77
470.35	399.65
470.72	397.68
471.08	395.43
471.45	393.45
471.82	391.43
472.18	389.14
472.55	387.64
472.92	385.73
473.28	384.17
473.65	382.51
474.02	380.88
474.38	379.50
474.75	378.41
475.11	377.35
475.48	376.28
475.85	375.44
476.21	374.53
476.58	373.69
476.94	373.04
477.31	372.35
477.67	371.49
478.04	370.99
478.41	370.54
478.77	370.32
479.14	369.86
479.50	369.64
479.87	369.61
480.23	369.38
480.60	369.10
480.96	368.91
481.33	368.99
481.69	369.01
482.06	369.27
482.42	369.25
482.79	369.26
483.15	369.57
483.52	370.16
483.88	370.33
484.25	370.88
484.61	371.67
484.98	371.97
485.34	372.82
485.71	373.57
486.07	374.17
486.44	374.98
486.80	375.95
487.17	376.96
487.53	378.26
487.90	379.50
488.26	380.91
488.62	382.28
488.99	383.61
489.35	385.14
489.72	386.72
490.08	388.40
490.44	390.10
490.81	391.99
491.17	393.72
491.54	395.96
491.90	397.91
492.26	399.70
492.63	402.03
492.99	404.15
493.36	406.32
493.72	408.83
494.08	411.16
494.45	413.63
494.81	416.06
495.17	418.49
495.54	420.94
495.90	423.63
496.26	426.40
496.63	429.50
496.99	432.38
497.35	435.14
497.72	438.25
498.08	441.41
498.44	444.36
498.80	447.72
499.17	450.84
499.53	454.22
499.89	457.59
500.26	460.78
500.62	463.78
500.98	467.17
501.34	470.44
501.71	473.81
502.07	476.93
502.43	480.15
502.79	483.49
503.16	487.01
503.52	490.48
503.88	493.69
504.24	496.76
504.60	500.05
504.97	503.12
505.33	506.40
505.69	509.68
506.05	512.89
506.41	515.48
506.78	518.41
507.14	521.19
507.50	524.16
507.86	527.10
508.22	530.17
508.59	533.07
508.95	535.85
509.31	538.58
509.67	541.58
510.03	544.39
510.39	547.03
510.75	549.57
511.12	552.00
511.48	554.67
511.84	557.10
512.20	559.30
512.56	561.80
512.92	564.02
513.28	566.30
513.64	568.33
514.00	570.61
514.37	572.69
514.73	574.59
515.09	576.46
515.45	578.35
515.81	580.09
516.17	581.73
516.53	583.57
516.89	585.22
517.25	586.74
517.61	588.16
517.97	589.51
518.33	590.81
518.69	592.20
519.05	593.49
519.41	594.84
519.77	596.37
520.13	597.89
520.49	599.00
520.85	600.06
521.21	601.34
521.57	602.54
521.93	603.63
522.29	605.24
522.65	606.41
523.01	607.55
523.37	608.56
523.73	609.78
524.09	610.74
524.45	611.86
524.81	612.77
525.17	614.29
525.53	615.87
525.89	617.13
526.25	618.44
526.61	619.49
526.97	620.81
527.33	622.09
527.68	623.18
528.04	624.45
528.40	625.96
528.76	627.52
529.12	629.23
529.48	630.85
529.84	632.07
530.20	633.69
530.56	635.31
530.91	637.53
531.27	639.26
531.63	641.08
531.99	643.06
532.35	645.32
532.71	647.01
533.07	648.87
533.42	651.17
533.78	653.05
534.14	655.34
534.50	657.18
534.86	659.32
535.21	661.35
535.57	663.77
535.93	665.88
536.29	667.94
536.65	670.03
537.00	672.08
537.36	674.63
537.72	676.98
538.08	679.44
538.44	681.69
538.79	684.01
539.15	686.40
539.51	689.05
539.87	691.36
540.22	694.04
540.58	696.80
540.94	699.17
541.29	701.88
541.65	704.47
542.01	707.55
542.37	710.33
542.72	713.14
543.08	715.97
543.44	719.09
543.79	721.78
544.15	724.88
544.51	728.35
544.87	731.37
545.22	734.57
545.58	737.62
545.94	740.31
546.29	743.31
546.65	746.30
547.01	749.03
547.36	752.22
547.72	755.31
548.07	758.07
548.43	760.95
548.79	764.04
549.14	767.04
549.50	769.81
549.86	772.71
550.21	775.96
550.57	778.91
550.92	781.60
551.28	784.85
551.64	787.85
551.99	790.67
552.35	793.61
552.70	796.50
553.06	799.54
553.41	802.85
553.77	806.44
554.13	809.79
554.48	813.09
554.84	816.32
555.19	819.30
555.55	822.62
555.90	825.76
556.26	828.81
556.61	831.85
556.97	834.99
557.32	838.22
557.68	841.18
558.03	844.22
558.39	847.17
558.74	850.33
559.10	853.59
559.45	856.55
559.81	859.90
560.16	862.94
560.52	865.88
560.87	869.12
561.23	871.92
561.58	874.98
561.94	877.79
562.29	880.31
562.64	883.00
563.00	885.39
563.35	888.55
563.71	891.51
564.06	894.48
564.42	897.28
564.77	899.91
565.12	902.90
565.48	905.63
565.83	908.45
566.19	911.16
566.54	913.24
566.89	915.79
567.25	918.11
567.60	920.69
567.96	923.22
568.31	925.37
568.66	927.38
569.02	929.33
569.37	931.27
569.72	933.31
570.08	935.38
570.43	937.40
570.78	939.08
571.14	940.55
571.49	942.10
571.84	943.80
572.20	945.35
572.55	946.69
572.90	948.15
573.26	950.00
573.61	951.10
573.96	952.36
574.31	953.10
574.67	953.80
575.02	954.41
575.37	955.13
575.72	955.31
576.08	955.94
576.43	956.62
576.78	956.97
577.13	957.90
577.49	958.52
577.84	959.12
578.19	959.47
578.54	959.98
578.90	960.11
579.25	959.93
579.60	959.97
579.95	959.72
580.30	959.40
580.66	958.80
581.01	958.51
581.36	958.21
581.71	958.42
582.06	958.21
582.42	957.79
582.77	957.39
583.12	957.36
583.47	957.19
583.82	956.70
584.17	956.11
584.53	955.44
584.88	955.02
585.23	954.27
585.58	953.85
585.93	953.16
586.28	952.65
586.63	952.30
586.98	951.76
587.34	951.23
587.69	950.45
588.04	949.44
588.39	948.70
588.74	947.58
589.09	946.27
589.44	945.01
589.79	943.93
590.14	942.85
590.49	941.68
590.84	940.40
591.19	939.35
591.54	937.96
591.89	936.22
592.25	934.48
592.60	932.93
592.95	930.88
593.30	928.95
593.65	927.18
594.00	925.16
594.35	923.53
594.70	921.36
595.05	919.80
595.40	917.83
595.75	915.86
596.10	914.17
596.45	912.68
596.80	911.27
597.15	909.76
597.50	907.71
597.85	906.00
598.19	903.88
598.54	902.04
598.89	900.40
599.24	899.02
599.59	897.17
599.94	895.37
600.29	893.49
600.64	891.51
600.99	889.34
601.34	887.72
601.69	885.42
602.04	883.35
602.39	881.13
602.74	879.29
603.08	877.25
603.43	875.66
603.78	873.55
604.13	871.20
604.48	869.08
604.83	867.04
605.18	864.70
605.53	862.29
605.87	859.37
606.22	857.37
606.57	854.61
606.92	852.24
607.27	849.72
607.62	847.65
607.96	845.48
608.31	843.68
608.66	840.80
609.01	838.18
609.36	835.70
609.70	832.74
610.05	829.89
610.40	827.19
610.75	824.20
611.10	821.11
611.44	817.93
611.79	814.97
612.14	811.95
612.49	808.82
612.83	805.88
613.18	802.93
613.53	799.90
613.88	796.75
614.22	793.56
614.57	790.30
614.92	786.93
615.27	783.96
615.61	780.32
615.96	777.60
616.31	774.61
616.65	771.95
617.00	769.31
617.35	766.39
617.70	763.41
618.04	760.07
618.39	757.15
618.74	754.55
619.08	751.40
619.43	748.48
619.78	745.82
620.12	743.15
620.47	740.28
620.82	737.05
621.16	734.34
621.51	731.61
621.85	729.01
622.20	726.27
622.55	723.54
622.89	721.10
623.24	718.25
623.59	715.47
623.93	712.68
624.28	709.80
624.62	707.27
624.97	704.60
625.32	702.03
625.66	699.31
626.01	696.36
626.35	693.75
626.70	691.21
627.04	688.37
627.39	685.38
627.73	682.74
628.08	680.20
628.43	677.55
628.77	674.85
629.12	672.04
629.46	669.10
629.81	665.87
630.15	662.60
630.50	659.63
630.84	656.61
631.19	653.36
631.53	650.62
631.88	647.46
632.22	644.16
632.57	641.39
632.91	638.37
633.26	635.53
633.60	632.46
633.95	629.56
634.29	626.84
634.64	624.33
634.98	621.59
635.32	618.86
635.67	616.26
636.01	613.55
636.36	610.77
636.70	608.37
637.05	605.92
637.39	603.73
637.73	601.22
638.08	598.99
638.42	596.73
638.77	594.16
639.11	591.60
639.45	589.27
639.80	586.65
640.14	584.20
640.49	581.84
640.83	579.47
641.17	576.71
641.52	574.09
641.86	571.37
642.20	568.98
642.55	566.51
642.89	563.84
643.23	561.31
643.58	559.10
643.92	556.57
644.26	554.17
644.61	551.73
644.95	549.48
645.29	546.80
645.64	544.26
645.98	541.79
646.32	539.51
646.66	537.18
647.01	534.77
647.35	532.49
647.69	530.08
648.04	527.75
648.38	525.36
648.72	522.79
649.06	520.53
649.41	518.12
649.75	515.58
650.09	513.23
650.43	510.65
650.78	508.10
651.12	505.67
651.46	503.19
651.80	500.80
652.14	498.34
652.49	496.08
652.83	493.86
653.17	491.51
653.51	489.10
653.85	486.84
654.20	484.46
654.54	481.95
654.88	479.50
655.22	477.07
655.56	474.80
655.90	472.63
656.25	470.24
656.59	467.94
656.93	465.78
657.27	463.55
657.61	461.40
657.95	459.34
658.29	457.21
658.64	455.22
658.98	452.89
659.32	450.50
659.66	448.45
660.00	446.33
660.34	444.20
660.68	442.27
661.02	440.02
661.36	438.07
661.70	436.25
662.05	434.45
662.39	432.76
662.73	431.06
663.07	429.38
663.41	427.69
663.75	426.08
664.09	424.33
664.43	422.50
664.77	420.85
665.11	419.00
665.45	417.45
665.79	415.82
666.13	414.10
666.47	412.59
666.81	410.80
667.15	409.04
667.49	407.50
667.83	405.90
668.17	404.41
668.51	402.87
668.85	401.23
669.19	399.73
669.53	398.02
669.87	396.36
670.21	394.88
670.55	393.27
670.89	391.87
671.23	390.46
671.57	389.06
671.91	387.49
672.25	386.13
672.58	384.61
672.92	383.10
673.26	381.79
673.60	380.33
673.94	379.06
674.28	377.82
674.62	376.53
674.96	375.10
675.30	373.79
675.64	372.45
675.97	371.30
676.31	370.00
676.65	368.87
676.99	367.87
677.33	366.45
677.67	365.41
678.01	363.98
678.34	362.73
678.68	361.50
679.02	360.44
679.36	359.17
679.70	357.91
680.04	356.70
680.37	355.55
680.71	354.35
681.05	353.34
681.39	352.26
681.73	351.02
682.06	349.88
682.40	348.76
682.74	347.72
683.08	346.62
683.42	345.53
683.75	344.27
684.09	343.06
684.43	342.04
684.77	340.84
685.10	339.78
685.44	338.59
685.78	337.42
686.12	336.24
686.45	335.27
686.79	334.17
687.13	333.30
687.46	332.21
687.80	331.21
688.14	329.98
688.48	329.00
688.81	328.04
689.15	327.14
689.49	326.22
689.82	325.22
690.16	324.20
690.50	323.21
690.83	322.29
691.17	321.36
691.51	320.44
691.84	319.57
692.18	318.63
692.52	317.77
692.85	317.02
693.19	316.31
693.52	315.32
693.86	314.43
694.20	313.34
694.53	312.44
694.87	311.61
695.21	310.80
695.54	309.92
695.88	309.01
696.21	308.09
696.55	307.26
696.88	306.45
697.22	305.59
697.56	304.82
697.89	304.00
698.23	303.15
698.56	302.29
698.90	301.45
699.23	300.62
699.57	299.79
699.90	298.81
700.24	297.84
700.58	297.11
700.91	296.35
701.25	295.73
701.58	295.15
701.92	294.52
702.25	293.85
702.59	293.14
702.92	292.45
703.26	291.83
703.59	291.14
703.93	290.59
704.26	289.96
704.60	289.26
704.93	288.60
705.26	287.90
705.60	287.26
705.93	286.63
706.27	286.04
706.60	285.56
706.94	285.10
707.27	284.55
707.61	283.87
707.94	283.46
708.27	282.78
708.61	282.04
708.94	281.36
709.28	280.86
709.61	280.23
709.94	279.88
710.28	279.31
710.61	278.76
710.95	277.90
711.28	277.41
711.61	276.87
711.95	276.50
712.28	275.88
712.61	275.46
712.95	274.97
713.28	274.56
713.61	273.95
713.95	273.43
714.28	273.06
714.61	272.61
714.95	271.96
715.28	271.40
715.61	270.98
715.95	270.51
716.28	269.92
716.61	269.59
716.95	269.02
717.28	268.58
717.61	268.16
717.94	267.90
718.28	267.43
718.61	267.02
718.94	266.49
719.27	266.24
719.61	265.93
719.94	265.54
720.27	265.06
720.60	264.77
720.94	264.40
721.27	263.97
721.60	263.74
721.93	263.42
722.27	263.26
722.60	262.82
722.93	262.50
723.26	262.23
723.59	261.78
723.93	261.50
724.26	261.16
724.59	260.84
724.92	260.51
725.25	260.14
725.59	259.78
725.92	259.51
726.25	259.15
726.58	258.80
726.91	258.50
727.24	258.26
727.57	257.92
727.91	257.55
728.24	257.33
728.57	256.90
728.90	256.59
729.23	256.18
729.56	256.12
729.89	255.83
730.22	255.50
730.55	255.24
730.89	254.97
731.22	254.70
731.55	254.44
731.88	254.18
732.21	253.85
732.54	253.67
732.87	253.42
733.20	253.26
733.53	252.87
733.86	252.63
734.19	252.18
734.52	251.91
734.85	251.90
735.18	251.57
735.51	251.47
735.84	251.25
736.17	251.17
736.50	250.80
736.83	250.72
737.16	250.50
737.49	250.20
737.82	249.79
738.15	249.63
738.48	249.40
738.81	249.20
739.14	249.08
739.47	248.80
739.80	248.59
740.13	248.19
740.46	248.00
740.79	247.72
741.12	247.65
741.45	247.43
741.78	247.04
742.11	246.87
742.44	246.59
742.77	246.50
743.10	246.23
743.43	245.96
743.75	245.60
744.08	245.60
744.41	245.45
744.74	245.49
745.07	245.24
745.40	245.09
745.73	245.02
746.06	244.80
746.39	244.59
746.71	244.40
747.04	244.32
747.37	244.16
747.70	243.95
748.03	243.82
748.36	243.76
748.68	243.60
749.01	243.37
749.34	243.31
749.67	243.15
750.00	243.01
750.33	243.00
750.65	242.85
750.98	242.54
751.31	242.43
751.64	242.17
751.97	242.09
752.29	241.85
752.62	241.48
752.95	241.39
753.28	241.28
753.60	241.03
753.93	240.89
754.26	240.70
754.59	240.58
754.91	240.32
755.24	240.17
755.57	239.99
755.90	239.90
756.22	239.61
756.55	239.42
756.88	239.23
757.20	239.00
757.53	238.85
757.86	238.75
758.19	238.64
758.51	238.53
758.84	238.36
759.17	238.28
759.49	238.29
759.82	238.24
760.15	238.11
760.47	238.07
760.80	237.90
761.13	237.77
761.45	237.64
761.78	237.54
762.11	237.47
762.43	237.43
762.76	237.50
763.08	237.42
763.41	237.26
763.74	237.18
764.06	237.07
764.39	237.02
764.71	236.85
765.04	236.65
765.37	236.58
765.69	236.49
766.02	236.38
766.34	236.26
766.67	236.09
767.00	236.04
767.32	236.06
767.65	236.09
767.97	236.04
768.30	236.04
768.62	235.98
768.95	235.85
769.27	235.69
769.60	235.47
769.92	235.41
770.25	235.23
770.57	235.11
770.90	235.11
771.22	235.04
771.55	235.06
771.87	235.04
772.20	234.91
772.52	234.95
772.85	235.03
773.17	234.87
773.50	234.80
773.82	234.77
774.15	234.53
774.47	234.35
774.80	234.28
775.12	234.13
775.45	234.10
775.77	233.93
776.09	233.96
776.42	233.87
776.74	233.86
777.07	233.89
777.39	233.89
777.72	233.91
778.04	233.81
778.36	233.70
778.69	233.63
779.01	233.67
779.33	233.47
779.66	233.33
779.98	233.34
780.31	233.25
780.63	233.20
780.95	233.34
781.28	233.42
781.60	233.49
781.92	233.56
782.25	233.48
782.57	233.60
782.89	233.57
783.22	233.51
783.54	233.48
783.86	233.50
784.19	233.45
784.51	233.36
784.83	233.31
785.16	233.30
785.48	233.37
785.80	233.29
786.12	233.27
786.45	233.22
786.77	233.24
787.09	233.26
787.42	233.18
787.74	233.18
788.06	233.11
788.38	233.05
788.71	232.95
789.03	233.10
789.35	233.01
789.67	232.83
789.99	232.87
790.32	232.79
790.64	232.75
790.96	232.81
791.28	232.71
791.61	232.70
791.93	232.62
792.25	232.52
792.57	232.60
792.89	232.66
793.21	232.55
793.54	232.49
793.86	232.46
794.18	232.43
