SpectraSuite Data File
++++++++++++++++++++++++++++++++++++
Date: Fri Feb 01 14:41:57 EST 2013
User: group
Dark Spectrum Present: No
Reference Spectrum Present: No
Number of Sampled Component Spectra: 1
Spectrometers: USB2E7196
Integration Time (usec): 70000 (USB2E7196)
Spectra Averaged: 10 (USB2E7196)
Boxcar Smoothing: 10 (USB2E7196)
Correct for Electrical Dark: No (USB2E7196)
Strobe/Lamp Enabled: No (USB2E7196)
Correct for Detector Non-linearity: No (USB2E7196)
Correct for Stray Light: No (USB2E7196)
Number of Pixels in Processed Spectrum: 2048
>>>>>Begin Processed Spectral Data<<<<<
339.09	0.00
339.48	216.80
339.86	220.20
340.24	219.20
340.63	221.20
341.01	223.50
341.39	222.00
341.78	225.60
342.16	226.70
342.54	225.10
342.93	214.65
343.31	225.51
343.69	226.02
344.07	226.37
344.46	226.80
344.84	227.13
345.22	227.39
345.60	227.76
345.99	227.98
346.37	228.12
346.75	228.35
347.13	228.47
347.52	228.50
347.90	228.56
348.28	228.51
348.66	228.54
349.05	228.46
349.43	228.74
349.81	228.72
350.19	228.85
350.57	228.89
350.96	229.09
351.34	229.19
351.72	229.27
352.10	229.48
352.48	229.64
352.87	229.74
353.25	229.76
353.63	229.80
354.01	229.72
354.39	229.82
354.77	229.78
355.15	229.94
355.54	229.95
355.92	230.04
356.30	230.17
356.68	230.31
357.06	230.41
357.44	230.46
357.82	230.52
358.20	230.56
358.58	230.62
358.97	230.65
359.35	230.78
359.73	230.91
360.11	230.95
360.49	230.96
360.87	230.92
361.25	231.03
361.63	231.19
362.01	231.36
362.39	231.29
362.77	231.46
363.15	231.38
363.53	231.45
363.91	231.48
364.29	231.57
364.67	231.41
365.05	231.37
365.43	231.30
365.81	231.35
366.19	231.40
366.57	231.44
366.95	231.45
367.33	231.31
367.71	231.28
368.09	231.28
368.47	231.19
368.85	231.22
369.23	231.20
369.61	231.09
369.99	231.12
370.37	231.19
370.75	231.20
371.13	231.18
371.51	231.16
371.89	231.01
372.27	231.05
372.65	230.97
373.03	230.97
373.41	230.88
373.78	230.77
374.16	230.76
374.54	230.80
374.92	230.67
375.30	230.69
375.68	230.56
376.06	230.50
376.44	230.51
376.82	230.40
377.19	230.26
377.57	230.10
377.95	229.89
378.33	229.69
378.71	229.50
379.09	229.47
379.47	229.34
379.84	229.39
380.22	229.28
380.60	229.28
380.98	229.25
381.36	229.11
381.73	229.08
382.11	228.99
382.49	228.78
382.87	228.70
383.25	228.67
383.62	228.83
384.00	228.66
384.38	228.50
384.76	228.52
385.13	228.57
385.51	228.56
385.89	228.45
386.27	228.45
386.64	228.41
387.02	228.35
387.40	228.26
387.78	228.15
388.15	228.10
388.53	228.00
388.91	227.93
389.29	228.00
389.66	227.99
390.04	227.89
390.42	228.00
390.79	227.98
391.17	227.84
391.55	227.66
391.92	227.64
392.30	227.70
392.68	227.68
393.05	227.71
393.43	227.71
393.81	227.78
394.18	227.82
394.56	227.83
394.94	227.92
395.31	228.04
395.69	228.10
396.06	228.11
396.44	228.22
396.82	228.25
397.19	228.31
397.57	228.35
397.95	228.46
398.32	228.39
398.70	228.51
399.07	228.69
399.45	228.79
399.82	228.98
400.20	229.14
400.58	229.24
400.95	229.30
401.33	229.39
401.70	229.64
402.08	229.70
402.45	229.82
402.83	230.01
403.20	230.20
403.58	230.36
403.95	230.58
404.33	230.86
404.71	231.08
405.08	231.42
405.46	231.62
405.83	231.89
406.21	232.17
406.58	232.39
406.96	232.71
407.33	232.86
407.70	233.18
408.08	233.60
408.45	233.88
408.83	234.21
409.20	234.60
409.58	234.79
409.95	235.22
410.33	235.64
410.70	236.00
411.08	236.43
411.45	236.99
411.82	237.37
412.20	237.87
412.57	238.48
412.95	238.89
413.32	239.55
413.69	240.09
414.07	240.71
414.44	241.29
414.82	241.86
415.19	242.80
415.56	243.52
415.94	244.11
416.31	245.17
416.68	246.15
417.06	247.20
417.43	248.37
417.81	249.53
418.18	250.71
418.55	251.96
418.93	253.18
419.30	254.40
419.67	255.84
420.04	257.25
420.42	258.66
420.79	260.50
421.16	262.20
421.54	264.04
421.91	265.94
422.28	267.96
422.66	269.97
423.03	271.93
423.40	273.90
423.77	276.07
424.15	278.10
424.52	280.28
424.89	282.69
425.26	284.83
425.64	286.97
426.01	289.36
426.38	291.68
426.75	294.26
427.13	296.81
427.50	299.50
427.87	302.22
428.24	305.02
428.61	307.51
428.99	310.35
429.36	313.37
429.73	316.42
430.10	319.42
430.47	322.35
430.85	325.47
431.22	328.65
431.59	332.20
431.96	335.48
432.33	339.03
432.70	342.51
433.08	346.70
433.45	350.52
433.82	354.32
434.19	358.74
434.56	362.86
434.93	366.95
435.30	370.92
435.68	375.37
436.05	379.60
436.42	383.86
436.79	387.51
437.16	391.49
437.53	395.75
437.90	399.95
438.27	404.09
438.64	408.26
439.01	412.21
439.38	415.55
439.75	418.74
440.13	422.61
440.50	426.03
440.87	428.71
441.24	431.70
441.61	434.86
441.98	437.13
442.35	439.70
442.72	442.32
443.09	444.96
443.46	446.18
443.83	447.03
444.20	447.77
444.57	449.11
444.94	449.75
445.31	450.18
445.68	450.72
446.05	450.92
446.42	450.24
446.79	449.61
447.16	448.95
447.53	448.57
447.90	446.90
448.27	445.30
448.64	442.89
449.01	441.01
449.37	438.08
449.74	435.14
450.11	431.91
450.48	428.29
450.85	424.36
451.22	421.31
451.59	418.27
451.96	415.24
452.33	411.31
452.70	407.60
453.07	403.36
453.43	399.00
453.80	394.77
454.17	390.90
454.54	387.11
454.91	383.04
455.28	379.08
455.65	375.21
456.02	371.51
456.38	368.38
456.75	364.53
457.12	361.27
457.49	357.82
457.86	354.41
458.23	351.45
458.59	348.47
458.96	345.30
459.33	342.52
459.70	339.75
460.07	337.55
460.43	335.11
460.80	332.66
461.17	330.55
461.54	328.30
461.91	326.16
462.27	324.02
462.64	322.18
463.01	320.16
463.38	318.13
463.74	316.04
464.11	314.45
464.48	312.94
464.85	311.26
465.21	309.95
465.58	308.67
465.95	307.06
466.32	305.64
466.68	304.18
467.05	302.78
467.42	301.37
467.78	299.95
468.15	298.52
468.52	297.45
468.88	296.00
469.25	294.86
469.62	293.79
469.98	292.68
470.35	291.61
470.72	290.67
471.08	289.70
471.45	288.86
471.82	287.90
472.18	286.92
472.55	286.15
472.92	285.35
473.28	284.56
473.65	283.82
474.02	283.14
474.38	282.64
474.75	282.02
475.11	281.47
475.48	281.01
475.85	280.54
476.21	280.09
476.58	279.77
476.94	279.37
477.31	279.08
477.67	278.76
478.04	278.56
478.41	278.25
478.77	278.25
479.14	278.04
479.50	277.87
479.87	277.93
480.23	277.97
480.60	277.98
480.96	278.05
481.33	278.13
481.69	278.44
482.06	278.56
482.42	278.77
482.79	279.01
483.15	279.25
483.52	279.62
483.88	280.00
484.25	280.27
484.61	280.70
484.98	281.12
485.34	281.73
485.71	282.24
486.07	282.93
486.44	283.46
486.80	284.20
487.17	284.98
487.53	285.96
487.90	286.96
488.26	288.17
488.62	289.38
488.99	290.71
489.35	291.87
489.72	293.25
490.08	294.79
490.44	296.28
490.81	297.94
491.17	299.67
491.54	301.59
491.90	303.54
492.26	305.65
492.63	307.89
492.99	310.14
493.36	312.58
493.72	315.15
494.08	317.82
494.45	320.86
494.81	324.00
495.17	326.86
495.54	330.15
495.90	333.58
496.26	337.02
496.63	340.84
496.99	344.82
497.35	349.05
497.72	353.54
498.08	358.10
498.44	362.95
498.80	368.15
499.17	373.35
499.53	378.90
499.89	384.69
500.26	390.60
500.62	396.71
500.98	403.29
501.34	410.11
501.71	417.24
502.07	424.14
502.43	431.60
502.79	439.68
503.16	447.71
503.52	456.16
503.88	465.09
504.24	474.03
504.60	483.46
504.97	493.07
505.33	502.87
505.69	513.20
506.05	523.61
506.41	534.30
506.78	545.33
507.14	556.72
507.50	568.50
507.86	580.80
508.22	593.52
508.59	606.13
508.95	619.26
509.31	632.69
509.67	646.99
510.03	661.47
510.39	675.99
510.75	691.06
511.12	706.05
511.48	721.39
511.84	737.46
512.20	753.40
512.56	770.11
512.92	787.30
513.28	804.69
513.64	822.31
514.00	840.54
514.37	859.23
514.73	877.68
515.09	896.30
515.45	915.43
515.81	934.49
516.17	954.54
516.53	974.62
516.89	994.98
517.25	1015.35
517.61	1035.95
517.97	1056.75
518.33	1077.70
518.69	1099.25
519.05	1120.98
519.41	1142.86
519.77	1165.18
520.13	1187.57
520.49	1209.65
520.85	1232.51
521.21	1255.05
521.57	1278.17
521.93	1300.65
522.29	1324.61
522.65	1348.18
523.01	1371.25
523.37	1394.57
523.73	1417.94
524.09	1441.56
524.45	1465.25
524.81	1489.10
525.17	1513.41
525.53	1537.79
525.89	1562.32
526.25	1586.82
526.61	1610.87
526.97	1635.58
527.33	1659.90
527.68	1684.47
528.04	1708.80
528.40	1732.96
528.76	1758.49
529.12	1783.22
529.48	1808.06
529.84	1831.99
530.20	1856.81
530.56	1882.32
530.91	1908.32
531.27	1933.46
531.63	1958.24
531.99	1982.98
532.35	2006.94
532.71	2030.40
533.07	2054.54
533.42	2077.80
533.78	2101.72
534.14	2125.79
534.50	2148.14
534.86	2171.67
535.21	2194.36
535.57	2218.03
535.93	2241.23
536.29	2263.27
536.65	2285.64
537.00	2307.88
537.36	2330.06
537.72	2351.70
538.08	2372.80
538.44	2393.10
538.79	2414.09
539.15	2434.25
539.51	2455.16
539.87	2476.60
540.22	2497.48
540.58	2518.24
540.94	2538.84
541.29	2557.97
541.65	2577.27
542.01	2598.24
542.37	2617.77
542.72	2636.78
543.08	2655.19
543.44	2673.13
543.79	2690.06
544.15	2707.15
544.51	2725.30
544.87	2742.64
545.22	2759.25
545.58	2775.75
545.94	2791.39
546.29	2806.89
546.65	2822.42
547.01	2837.11
547.36	2850.86
547.72	2864.65
548.07	2878.04
548.43	2891.25
548.79	2904.53
549.14	2917.16
549.50	2928.16
549.86	2938.97
550.21	2950.46
550.57	2961.52
550.92	2973.37
551.28	2984.34
551.64	2995.13
551.99	3005.58
552.35	3016.17
552.70	3026.49
553.06	3037.07
553.41	3047.17
553.77	3056.44
554.13	3066.22
554.48	3075.89
554.84	3085.35
555.19	3094.21
555.55	3102.57
555.90	3110.02
556.26	3118.28
556.61	3125.91
556.97	3133.41
557.32	3141.58
557.68	3148.54
558.03	3155.61
558.39	3162.05
558.74	3170.36
559.10	3176.99
559.45	3183.19
559.81	3190.05
560.16	3195.58
560.52	3200.60
560.87	3207.00
561.23	3212.14
561.58	3217.22
561.94	3221.52
562.29	3224.90
562.64	3228.89
563.00	3232.80
563.35	3238.21
563.71	3242.66
564.06	3247.86
564.42	3252.21
564.77	3256.24
565.12	3260.93
565.48	3264.54
565.83	3267.08
566.19	3269.20
566.54	3271.22
566.89	3273.16
567.25	3274.12
567.60	3276.69
567.96	3278.39
568.31	3279.33
568.66	3280.51
569.02	3281.36
569.37	3281.58
569.72	3282.39
570.08	3282.87
570.43	3282.82
570.78	3281.82
571.14	3280.03
571.49	3278.18
571.84	3277.76
572.20	3275.14
572.55	3272.57
572.90	3269.77
573.26	3267.88
573.61	3265.04
573.96	3262.51
574.31	3257.50
574.67	3253.01
575.02	3248.13
575.37	3244.12
575.72	3238.51
576.08	3233.90
576.43	3228.66
576.78	3224.02
577.13	3220.23
577.49	3215.22
577.84	3209.97
578.19	3204.32
578.54	3199.10
578.90	3192.51
579.25	3184.61
579.60	3178.09
579.95	3171.09
580.30	3164.04
580.66	3156.17
581.01	3148.74
581.36	3141.81
581.71	3136.82
582.06	3129.84
582.42	3122.58
582.77	3114.66
583.12	3106.90
583.47	3099.53
583.82	3092.93
584.17	3084.74
584.53	3076.65
584.88	3069.53
585.23	3061.17
585.58	3053.78
585.93	3045.69
586.28	3038.76
586.63	3032.20
586.98	3024.72
587.34	3016.71
587.69	3009.33
588.04	3002.14
588.39	2994.21
588.74	2984.63
589.09	2974.73
589.44	2965.38
589.79	2957.01
590.14	2948.61
590.49	2940.77
590.84	2931.66
591.19	2922.10
591.54	2912.33
591.89	2901.17
592.25	2890.23
592.60	2879.97
592.95	2869.11
593.30	2858.48
593.65	2847.61
594.00	2836.87
594.35	2827.04
594.70	2816.36
595.05	2806.44
595.40	2795.18
595.75	2784.37
596.10	2775.13
596.45	2766.20
596.80	2757.20
597.15	2747.30
597.50	2736.63
597.85	2726.49
598.19	2717.16
598.54	2707.14
598.89	2697.89
599.24	2689.68
599.59	2680.41
599.94	2671.49
600.29	2662.50
600.64	2653.01
600.99	2642.09
601.34	2632.02
601.69	2621.79
602.04	2612.20
602.39	2601.88
602.74	2592.95
603.08	2583.68
603.43	2573.98
603.78	2563.20
604.13	2553.13
604.48	2542.68
604.83	2532.93
605.18	2522.87
605.53	2511.00
605.87	2499.53
606.22	2488.72
606.57	2477.54
606.92	2466.98
607.27	2456.03
607.62	2445.89
607.96	2435.87
608.31	2426.86
608.66	2415.36
609.01	2403.60
609.36	2391.78
609.70	2379.18
610.05	2366.74
610.40	2355.44
610.75	2343.24
611.10	2330.96
611.44	2318.05
611.79	2306.65
612.14	2294.16
612.49	2281.29
612.83	2269.66
613.18	2258.08
613.53	2246.50
613.88	2233.56
614.22	2221.18
614.57	2208.72
614.92	2196.13
615.27	2184.13
615.61	2171.30
615.96	2159.52
616.31	2148.60
616.65	2138.32
617.00	2127.60
617.35	2116.71
617.70	2104.43
618.04	2092.58
618.39	2081.62
618.74	2071.00
619.08	2058.92
619.43	2048.16
619.78	2037.83
620.12	2027.04
620.47	2016.02
620.82	2004.30
621.16	1994.07
621.51	1983.41
621.85	1972.72
622.20	1960.61
622.55	1949.34
622.89	1938.66
623.24	1928.50
623.59	1917.93
623.93	1906.78
624.28	1896.19
624.62	1884.84
624.97	1874.61
625.32	1864.57
625.66	1854.53
626.01	1844.16
626.35	1833.47
626.70	1822.65
627.04	1811.92
627.39	1800.55
627.73	1789.42
628.08	1779.24
628.43	1768.55
628.77	1757.83
629.12	1746.59
629.46	1736.24
629.81	1724.63
630.15	1713.05
630.50	1701.51
630.84	1689.72
631.19	1677.81
631.53	1666.59
631.88	1655.23
632.22	1643.57
632.57	1632.91
632.91	1621.05
633.26	1609.53
633.60	1598.81
633.95	1588.21
634.29	1577.57
634.64	1567.63
634.98	1557.39
635.32	1547.26
635.67	1537.49
636.01	1527.18
636.36	1517.80
636.70	1508.57
637.05	1499.10
637.39	1490.26
637.73	1480.94
638.08	1472.23
638.42	1463.45
638.77	1454.45
639.11	1445.51
639.45	1436.67
639.80	1426.34
640.14	1417.20
640.49	1407.97
640.83	1398.59
641.17	1389.14
641.52	1379.74
641.86	1370.29
642.20	1361.19
642.55	1351.68
642.89	1342.07
643.23	1332.65
643.58	1323.60
643.92	1313.68
644.26	1304.58
644.61	1295.64
644.95	1286.34
645.29	1276.08
645.64	1266.42
645.98	1256.81
646.32	1247.95
646.66	1238.60
647.01	1229.85
647.35	1221.12
647.69	1212.17
648.04	1203.56
648.38	1194.59
648.72	1185.30
649.06	1176.18
649.41	1167.27
649.75	1158.02
650.09	1148.98
650.43	1139.93
650.78	1130.58
651.12	1121.73
651.46	1113.23
651.80	1104.11
652.14	1095.80
652.49	1087.68
652.83	1079.51
653.17	1071.04
653.51	1062.30
653.85	1054.05
654.20	1045.46
654.54	1036.70
654.88	1028.43
655.22	1019.63
655.56	1010.81
655.90	1002.73
656.25	994.84
656.59	986.45
656.93	978.81
657.27	970.96
657.61	962.75
657.95	955.21
658.29	947.93
658.64	939.95
658.98	932.12
659.32	924.04
659.66	916.39
660.00	908.46
660.34	901.05
660.68	893.70
661.02	886.17
661.36	879.40
661.70	872.66
662.05	865.99
662.39	859.40
662.73	852.98
663.07	846.38
663.41	840.00
663.75	833.71
664.09	827.11
664.43	820.56
664.77	814.76
665.11	808.92
665.45	802.68
665.79	796.67
666.13	790.67
666.47	784.69
666.81	778.57
667.15	772.80
667.49	767.14
667.83	761.45
668.17	755.62
668.51	749.56
668.85	743.76
669.19	738.09
669.53	732.56
669.87	726.81
670.21	721.31
670.55	715.60
670.89	710.57
671.23	705.46
671.57	700.37
671.91	695.19
672.25	689.66
672.58	684.41
672.92	679.30
673.26	674.50
673.60	669.82
673.94	665.19
674.28	660.80
674.62	656.24
674.96	651.60
675.30	647.47
675.64	643.02
675.97	638.53
676.31	634.07
676.65	629.88
676.99	625.95
677.33	621.64
677.67	617.46
678.01	612.90
678.34	608.51
678.68	604.44
679.02	600.31
679.36	596.20
679.70	592.22
680.04	588.14
680.37	584.04
680.71	580.11
681.05	576.36
681.39	572.49
681.73	568.59
682.06	565.03
682.40	561.31
682.74	557.84
683.08	554.15
683.42	550.61
683.75	546.92
684.09	543.21
684.43	539.77
684.77	536.27
685.10	533.00
685.44	529.58
685.78	526.04
686.12	522.66
686.45	519.36
686.79	516.06
687.13	513.04
687.46	509.79
687.80	506.54
688.14	503.29
688.48	500.14
688.81	496.85
689.15	493.73
689.49	490.58
689.82	487.44
690.16	484.53
690.50	481.60
690.83	478.65
691.17	475.60
691.51	472.71
691.84	469.95
692.18	467.05
692.52	464.20
692.85	461.27
693.19	458.52
693.52	455.74
693.86	452.92
694.20	450.11
694.53	447.36
694.87	444.54
695.21	441.65
695.54	438.82
695.88	435.97
696.21	433.39
696.55	430.76
696.88	428.30
697.22	425.80
697.56	423.34
697.89	420.80
698.23	418.42
698.56	415.97
698.90	413.56
699.23	410.90
699.57	408.48
699.90	406.25
700.24	403.79
700.58	401.47
700.91	399.22
701.25	397.12
701.58	395.02
701.92	392.74
702.25	390.90
702.59	388.84
702.92	387.14
703.26	385.12
703.59	383.16
703.93	381.21
704.26	379.23
704.60	377.00
704.93	375.12
705.26	373.21
705.60	371.38
705.93	369.72
706.27	368.39
706.60	367.00
706.94	365.41
707.27	363.81
707.61	362.19
707.94	360.61
708.27	358.83
708.61	357.21
708.94	355.77
709.28	354.17
709.61	352.80
709.94	351.27
710.28	349.69
710.61	348.04
710.95	346.52
711.28	345.13
711.61	343.92
711.95	342.58
712.28	341.15
712.61	339.83
712.95	338.35
713.28	336.99
713.61	335.50
713.95	334.14
714.28	332.86
714.61	331.59
714.95	330.45
715.28	329.28
715.61	327.99
715.95	326.96
716.28	325.77
716.61	324.47
716.95	323.29
717.28	322.12
717.61	321.19
717.94	320.05
718.28	318.76
718.61	317.61
718.94	316.57
719.27	315.61
719.61	314.56
719.94	313.61
720.27	312.50
720.60	311.47
720.94	310.52
721.27	309.64
721.60	308.73
721.93	307.72
722.27	306.80
722.60	306.01
722.93	305.09
723.26	304.18
723.59	303.36
723.93	302.51
724.26	301.84
724.59	300.87
724.92	300.09
725.25	299.41
725.59	298.60
725.92	297.70
726.25	296.83
726.58	296.03
726.91	295.29
727.24	294.44
727.57	293.78
727.91	293.06
728.24	292.35
728.57	291.62
728.90	290.96
729.23	290.08
729.56	289.41
729.89	288.70
730.22	288.00
730.55	287.39
730.89	286.67
731.22	285.90
731.55	285.24
731.88	284.61
732.21	283.91
732.54	283.39
732.87	282.80
733.20	282.26
733.53	281.69
733.86	281.19
734.19	280.57
734.52	279.96
734.85	279.43
735.18	278.77
735.51	278.27
735.84	277.64
736.17	277.25
736.50	276.57
736.83	276.14
737.16	275.63
737.49	275.01
737.82	274.48
738.15	274.03
738.48	273.57
738.81	273.00
739.14	272.53
739.47	271.94
739.80	271.49
740.13	270.99
740.46	270.44
740.79	269.81
741.12	269.30
741.45	268.75
741.78	268.19
742.11	267.70
742.44	267.14
742.77	266.77
743.10	266.28
743.43	265.79
743.75	265.18
744.08	264.98
744.41	264.57
744.74	264.25
745.07	263.72
745.40	263.32
745.73	262.94
746.06	262.51
746.39	262.12
746.71	261.69
747.04	261.29
747.37	260.89
747.70	260.50
748.03	260.15
748.36	259.82
748.68	259.48
749.01	259.04
749.34	258.73
749.67	258.27
750.00	257.96
750.33	257.75
750.65	257.45
750.98	256.85
751.31	256.41
751.64	255.94
751.97	255.64
752.29	255.26
752.62	254.87
752.95	254.50
753.28	254.15
753.60	253.81
753.93	253.54
754.26	253.35
754.59	252.93
754.91	252.58
755.24	252.30
755.57	251.99
755.90	251.80
756.22	251.46
756.55	251.23
756.88	250.85
757.20	250.56
757.53	250.24
757.86	250.05
758.19	249.83
758.51	249.58
758.84	249.25
759.17	249.06
759.49	248.89
759.82	248.84
760.15	248.67
760.47	248.43
760.80	248.15
761.13	247.90
761.45	247.75
761.78	247.62
762.11	247.39
762.43	247.15
762.76	246.85
763.08	246.70
763.41	246.46
763.74	246.44
764.06	246.30
764.39	245.97
764.71	245.69
765.04	245.45
765.37	245.43
765.69	245.36
766.02	245.16
766.34	244.91
766.67	244.59
767.00	244.40
767.32	244.32
767.65	244.28
767.97	244.15
768.30	244.07
768.62	243.89
768.95	243.62
769.27	243.50
769.60	243.40
769.92	243.14
770.25	242.98
770.57	242.71
770.90	242.59
771.22	242.46
771.55	242.26
771.87	242.17
772.20	241.83
772.52	241.78
772.85	241.92
773.17	241.79
773.50	241.65
773.82	241.57
774.15	241.31
774.47	241.05
774.80	240.83
775.12	240.70
775.45	240.61
775.77	240.57
776.09	240.47
776.42	240.31
776.74	240.33
777.07	240.16
777.39	240.06
777.72	239.86
778.04	239.80
778.36	239.67
778.69	239.61
779.01	239.54
779.33	239.21
779.66	238.81
779.98	238.69
780.31	238.62
780.63	238.58
780.95	238.55
781.28	238.44
781.60	238.27
781.92	238.12
782.25	237.94
782.57	237.83
782.89	237.57
783.22	237.46
783.54	237.27
783.86	237.24
784.19	237.09
784.51	236.94
784.83	236.81
785.16	236.76
785.48	236.67
785.80	236.59
