SpectraSuite Data File
++++++++++++++++++++++++++++++++++++
Date: Fri Feb 01 14:40:10 EST 2013
User: group
Dark Spectrum Present: No
Reference Spectrum Present: No
Number of Sampled Component Spectra: 1
Spectrometers: USB2E7196
Integration Time (usec): 70000 (USB2E7196)
Spectra Averaged: 10 (USB2E7196)
Boxcar Smoothing: 10 (USB2E7196)
Correct for Electrical Dark: No (USB2E7196)
Strobe/Lamp Enabled: No (USB2E7196)
Correct for Detector Non-linearity: No (USB2E7196)
Correct for Stray Light: No (USB2E7196)
Number of Pixels in Processed Spectrum: 2048
>>>>>Begin Processed Spectral Data<<<<<
339.09	0.00
339.48	214.20
339.86	218.60
340.24	219.10
340.63	219.30
341.01	224.30
341.39	223.70
341.78	224.90
342.16	226.70
342.54	227.30
342.93	214.99
343.31	225.83
343.69	226.52
344.07	226.93
344.46	227.35
344.84	227.72
345.22	227.92
345.60	228.21
345.99	228.37
346.37	228.38
346.75	228.40
347.13	228.38
347.52	228.40
347.90	228.54
348.28	228.47
348.66	228.47
349.05	228.43
349.43	228.50
349.81	228.56
350.19	228.58
350.57	228.62
350.96	228.71
351.34	228.75
351.72	228.68
352.10	228.80
352.48	228.89
352.87	229.02
353.25	229.04
353.63	229.03
354.01	229.13
354.39	229.32
354.77	229.39
355.15	229.40
355.54	229.49
355.92	229.34
356.30	229.42
356.68	229.53
357.06	229.46
357.44	229.39
357.82	229.35
358.20	229.43
358.58	229.54
358.97	229.47
359.35	229.51
359.73	229.66
360.11	229.75
360.49	229.67
360.87	229.69
361.25	229.85
361.63	229.95
362.01	229.97
362.39	229.88
362.77	229.90
363.15	229.97
363.53	229.95
363.91	230.01
364.29	230.10
364.67	229.95
365.05	229.93
365.43	229.91
365.81	229.93
366.19	229.91
366.57	229.93
366.95	229.95
367.33	229.99
367.71	229.96
368.09	229.88
368.47	229.90
368.85	229.80
369.23	229.71
369.61	229.66
369.99	229.64
370.37	229.65
370.75	229.73
371.13	229.64
371.51	229.47
371.89	229.41
372.27	229.41
372.65	229.30
373.03	229.34
373.41	229.35
373.78	229.29
374.16	229.21
374.54	229.08
374.92	229.06
375.30	228.98
375.68	228.93
376.06	228.82
376.44	228.70
376.82	228.62
377.19	228.49
377.57	228.36
377.95	228.19
378.33	228.08
378.71	227.84
379.09	227.81
379.47	227.78
379.84	227.73
380.22	227.58
380.60	227.56
380.98	227.45
381.36	227.44
381.73	227.28
382.11	227.22
382.49	227.15
382.87	227.01
383.25	226.92
383.62	226.94
384.00	226.89
384.38	226.85
384.76	226.82
385.13	226.81
385.51	226.73
385.89	226.66
386.27	226.62
386.64	226.58
387.02	226.54
387.40	226.60
387.78	226.57
388.15	226.57
388.53	226.54
388.91	226.59
389.29	226.50
389.66	226.73
390.04	226.69
390.42	226.63
390.79	226.61
391.17	226.58
391.55	226.54
391.92	226.57
392.30	226.57
392.68	226.59
393.05	226.64
393.43	226.66
393.81	226.71
394.18	226.63
394.56	226.75
394.94	226.75
395.31	226.68
395.69	226.79
396.06	226.77
396.44	226.88
396.82	226.92
397.19	227.08
397.57	226.98
397.95	227.03
398.32	227.11
398.70	227.19
399.07	227.25
399.45	227.24
399.82	227.25
400.20	227.35
400.58	227.39
400.95	227.35
401.33	227.58
401.70	227.79
402.08	228.02
402.45	228.10
402.83	228.28
403.20	228.31
403.58	228.28
403.95	228.43
404.33	228.57
404.71	228.68
405.08	228.92
405.46	229.08
405.83	229.27
406.21	229.44
406.58	229.57
406.96	229.74
407.33	229.83
407.70	229.98
408.08	230.31
408.45	230.67
408.83	230.90
409.20	231.02
409.58	231.12
409.95	231.40
410.33	231.67
410.70	231.89
411.08	232.28
411.45	232.63
411.82	233.00
412.20	233.32
412.57	233.62
412.95	233.86
413.32	234.12
413.69	234.46
414.07	234.82
414.44	235.28
414.82	235.77
415.19	236.30
415.56	236.90
415.94	237.35
416.31	237.81
416.68	238.42
417.06	239.02
417.43	239.68
417.81	240.44
418.18	241.17
418.55	241.87
418.93	242.73
419.30	243.50
419.67	244.30
420.04	245.20
420.42	246.21
420.79	247.38
421.16	248.53
421.54	249.77
421.91	251.03
422.28	252.24
422.66	253.48
423.03	254.85
423.40	256.08
423.77	257.54
424.15	258.95
424.52	260.45
424.89	262.04
425.26	263.54
425.64	264.89
426.01	266.30
426.38	268.10
426.75	269.70
427.13	271.60
427.50	273.38
427.87	275.31
428.24	277.24
428.61	278.78
428.99	280.80
429.36	282.95
429.73	284.93
430.10	287.01
430.47	289.16
430.85	291.23
431.22	293.45
431.59	295.85
431.96	298.01
432.33	300.52
432.70	302.95
433.08	305.82
433.45	308.46
433.82	311.21
434.19	314.01
434.56	316.90
434.93	319.54
435.30	322.25
435.68	325.10
436.05	328.03
436.42	330.92
436.79	333.50
437.16	336.17
437.53	339.04
437.90	341.90
438.27	344.66
438.64	347.55
439.01	350.28
439.38	352.53
439.75	354.84
440.13	357.40
440.50	359.81
440.87	361.79
441.24	363.89
441.61	366.10
441.98	367.73
442.35	369.52
442.72	371.25
443.09	373.21
443.46	374.31
443.83	374.78
444.20	375.42
444.57	376.18
444.94	376.54
445.31	377.00
445.68	377.54
446.05	377.69
446.42	377.31
446.79	377.00
447.16	376.48
447.53	376.26
447.90	375.08
448.27	373.95
448.64	372.38
449.01	371.30
449.37	369.39
449.74	367.50
450.11	365.49
450.48	363.18
450.85	360.51
451.22	358.31
451.59	356.34
451.96	354.44
452.33	352.00
452.70	349.65
453.07	346.78
453.43	343.76
453.80	340.98
454.17	338.28
454.54	335.76
454.91	333.15
455.28	330.55
455.65	328.01
456.02	325.66
456.38	323.41
456.75	320.66
457.12	318.40
457.49	316.06
457.86	313.62
458.23	311.82
458.59	309.78
458.96	307.70
459.33	305.76
459.70	303.91
460.07	302.40
460.43	300.68
460.80	299.01
461.17	297.62
461.54	296.15
461.91	294.79
462.27	293.36
462.64	291.99
463.01	290.58
463.38	289.23
463.74	287.61
464.11	286.45
464.48	285.35
464.85	284.20
465.21	283.40
465.58	282.52
465.95	281.29
466.32	280.42
466.68	279.46
467.05	278.61
467.42	277.60
467.78	276.54
468.15	275.47
468.52	274.82
468.88	273.78
469.25	272.93
469.62	272.16
469.98	271.25
470.35	270.55
470.72	269.74
471.08	268.99
471.45	268.44
471.82	267.80
472.18	267.11
472.55	266.49
472.92	265.79
473.28	265.20
473.65	264.61
474.02	263.92
474.38	263.38
474.75	263.00
475.11	262.43
475.48	261.97
475.85	261.74
476.21	261.24
476.58	260.90
476.94	260.43
477.31	260.00
477.67	259.69
478.04	259.38
478.41	259.16
478.77	259.08
479.14	258.71
479.50	258.51
479.87	258.31
480.23	258.15
480.60	258.02
480.96	257.85
481.33	257.74
481.69	257.60
482.06	257.45
482.42	257.25
482.79	257.20
483.15	257.06
483.52	256.90
483.88	256.95
484.25	256.80
484.61	256.84
484.98	256.95
485.34	256.97
485.71	257.12
486.07	257.12
486.44	257.18
486.80	257.32
487.17	257.34
487.53	257.45
487.90	257.54
488.26	257.69
488.62	257.81
488.99	258.00
489.35	258.21
489.72	258.48
490.08	258.67
490.44	258.90
490.81	259.23
491.17	259.55
491.54	259.78
491.90	260.40
492.26	260.68
492.63	261.01
492.99	261.45
493.36	261.83
493.72	262.29
494.08	262.73
494.45	263.30
494.81	263.88
495.17	264.49
495.54	265.27
495.90	265.98
496.26	266.80
496.63	267.68
496.99	268.55
497.35	269.48
497.72	270.40
498.08	271.55
498.44	272.60
498.80	273.77
499.17	275.10
499.53	276.17
499.89	277.50
500.26	278.97
500.62	280.30
500.98	281.86
501.34	283.62
501.71	285.37
502.07	287.07
502.43	288.88
502.79	290.66
503.16	292.53
503.52	294.44
503.88	296.53
504.24	298.72
504.60	301.04
504.97	303.51
505.33	306.05
505.69	308.65
506.05	311.43
506.41	314.14
506.78	316.95
507.14	319.86
507.50	323.10
507.86	326.24
508.22	329.52
508.59	332.89
508.95	336.32
509.31	339.97
509.67	343.78
510.03	347.66
510.39	351.84
510.75	355.99
511.12	360.33
511.48	364.70
511.84	369.24
512.20	373.93
512.56	378.76
512.92	383.61
513.28	388.53
513.64	393.68
514.00	399.09
514.37	404.71
514.73	410.31
515.09	416.10
515.45	421.90
515.81	428.13
516.17	434.38
516.53	440.67
516.89	446.99
517.25	453.52
517.61	460.30
517.97	466.98
518.33	473.82
518.69	480.98
519.05	488.19
519.41	495.30
519.77	503.08
520.13	510.72
520.49	518.44
520.85	526.36
521.21	534.17
521.57	542.40
521.93	550.27
522.29	558.72
522.65	566.96
523.01	575.44
523.37	583.75
523.73	592.21
524.09	600.73
524.45	609.50
524.81	618.46
525.17	627.69
525.53	636.85
525.89	646.21
526.25	655.68
526.61	665.08
526.97	674.94
527.33	684.21
527.68	693.99
528.04	703.79
528.40	713.76
528.76	724.06
529.12	734.25
529.48	744.53
529.84	754.50
530.20	765.08
530.56	775.97
530.91	787.03
531.27	798.12
531.63	808.95
531.99	820.00
532.35	830.69
532.71	841.11
533.07	852.19
533.42	863.09
533.78	873.85
534.14	884.74
534.50	895.22
534.86	906.12
535.21	916.70
535.57	927.92
535.93	938.62
536.29	949.39
536.65	960.17
537.00	970.82
537.36	981.94
537.72	992.76
538.08	1003.07
538.44	1013.21
538.79	1023.44
539.15	1034.25
539.51	1044.81
539.87	1055.60
540.22	1066.48
540.58	1077.33
540.94	1088.02
541.29	1098.61
541.65	1109.31
542.01	1120.25
542.37	1131.06
542.72	1141.37
543.08	1151.23
543.44	1161.66
543.79	1171.40
544.15	1181.36
544.51	1191.70
544.87	1201.96
545.22	1211.57
545.58	1221.38
545.94	1230.82
546.29	1240.82
546.65	1250.01
547.01	1258.93
547.36	1268.11
547.72	1276.83
548.07	1285.64
548.43	1294.19
548.79	1302.93
549.14	1310.90
549.50	1318.99
549.86	1326.73
550.21	1334.93
550.57	1343.33
550.92	1351.34
551.28	1359.45
551.64	1367.13
551.99	1374.86
552.35	1381.87
552.70	1389.34
553.06	1397.45
553.41	1405.02
553.77	1411.93
554.13	1419.23
554.48	1427.11
554.84	1433.76
555.19	1440.96
555.55	1447.73
555.90	1454.25
556.26	1460.71
556.61	1467.81
556.97	1474.27
557.32	1481.11
557.68	1487.07
558.03	1493.13
558.39	1499.17
558.74	1505.65
559.10	1511.75
559.45	1517.98
559.81	1524.37
560.16	1530.12
560.52	1534.85
560.87	1540.98
561.23	1546.28
561.58	1551.76
561.94	1556.54
562.29	1561.61
562.64	1566.16
563.00	1570.62
563.35	1575.90
563.71	1581.07
564.06	1585.73
564.42	1590.34
564.77	1594.61
565.12	1599.71
565.48	1604.49
565.83	1608.32
566.19	1612.33
566.54	1615.94
566.89	1619.08
567.25	1622.34
567.60	1626.18
567.96	1630.09
568.31	1633.19
568.66	1636.43
569.02	1639.38
569.37	1642.19
569.72	1645.16
570.08	1647.80
570.43	1650.76
570.78	1653.22
571.14	1654.62
571.49	1656.30
571.84	1658.85
572.20	1660.33
572.55	1661.82
572.90	1662.87
573.26	1664.54
573.61	1665.57
573.96	1666.91
574.31	1667.19
574.67	1667.38
575.02	1667.10
575.37	1667.01
575.72	1666.45
576.08	1666.80
576.43	1666.49
576.78	1666.49
577.13	1666.47
577.49	1666.69
577.84	1665.88
578.19	1665.05
578.54	1665.00
578.90	1664.25
579.25	1662.44
579.60	1661.28
579.95	1659.79
580.30	1658.02
580.66	1656.01
581.01	1654.01
581.36	1652.08
581.71	1651.08
582.06	1649.90
582.42	1648.30
582.77	1646.61
583.12	1644.82
583.47	1642.75
583.82	1641.28
584.17	1638.60
584.53	1636.21
584.88	1633.80
585.23	1631.59
585.58	1629.14
585.93	1626.48
586.28	1624.29
586.63	1622.68
586.98	1620.42
587.34	1618.26
587.69	1615.92
588.04	1613.87
588.39	1611.88
588.74	1608.77
589.09	1605.48
589.44	1601.99
589.79	1599.34
590.14	1596.30
590.49	1593.41
590.84	1590.16
591.19	1586.75
591.54	1583.24
591.89	1579.10
592.25	1575.69
592.60	1571.83
592.95	1567.63
593.30	1563.38
593.65	1559.28
594.00	1554.43
594.35	1550.81
594.70	1545.83
595.05	1541.87
595.40	1537.46
595.75	1532.79
596.10	1529.20
596.45	1525.47
596.80	1522.18
597.15	1518.43
597.50	1514.23
597.85	1510.47
598.19	1506.37
598.54	1502.36
598.89	1498.68
599.24	1495.72
599.59	1491.46
599.94	1487.96
600.29	1484.49
600.64	1480.72
600.99	1476.40
601.34	1472.50
601.69	1467.97
602.04	1464.53
602.39	1460.23
602.74	1456.34
603.08	1452.47
603.43	1448.59
603.78	1444.61
604.13	1440.10
604.48	1435.40
604.83	1431.15
605.18	1426.49
605.53	1421.63
605.87	1416.50
606.22	1412.18
606.57	1407.25
606.92	1402.45
607.27	1397.23
607.62	1392.91
607.96	1388.15
608.31	1383.89
608.66	1378.78
609.01	1373.36
609.36	1367.73
609.70	1362.00
610.05	1356.30
610.40	1350.79
610.75	1345.13
611.10	1339.04
611.44	1332.72
611.79	1327.14
612.14	1321.44
612.49	1315.00
612.83	1309.16
613.18	1303.59
613.53	1297.74
613.88	1291.69
614.22	1285.98
614.57	1280.09
614.92	1273.59
615.27	1267.69
615.61	1261.31
615.96	1255.64
616.31	1250.55
616.65	1245.68
617.00	1240.60
617.35	1235.23
617.70	1229.13
618.04	1223.16
618.39	1217.98
618.74	1212.88
619.08	1207.08
619.43	1201.41
619.78	1196.49
620.12	1190.89
620.47	1185.10
620.82	1179.13
621.16	1173.58
621.51	1168.00
621.85	1162.33
622.20	1156.69
622.55	1151.44
622.89	1146.02
623.24	1140.78
623.59	1135.36
623.93	1129.49
624.28	1124.12
624.62	1118.48
624.97	1113.64
625.32	1108.57
625.66	1103.20
626.01	1097.64
626.35	1092.51
626.70	1087.23
627.04	1082.08
627.39	1076.73
627.73	1071.58
628.08	1066.51
628.43	1061.14
628.77	1055.53
629.12	1050.38
629.46	1045.06
629.81	1039.11
630.15	1033.45
630.50	1027.84
630.84	1021.66
631.19	1016.07
631.53	1010.39
631.88	1004.70
632.22	998.73
632.57	993.00
632.91	987.19
633.26	981.99
633.60	976.20
633.95	970.70
634.29	965.10
634.64	960.13
634.98	954.63
635.32	949.33
635.67	944.18
636.01	939.36
636.36	934.09
636.70	929.07
637.05	924.40
637.39	919.71
637.73	914.82
638.08	910.57
638.42	905.94
638.77	901.26
639.11	896.63
639.45	891.83
639.80	887.06
640.14	882.21
640.49	877.18
640.83	872.06
641.17	867.40
641.52	862.63
641.86	857.64
642.20	853.01
642.55	848.09
642.89	843.50
643.23	838.41
643.58	833.88
643.92	828.94
644.26	823.95
644.61	819.30
644.95	814.32
645.29	808.58
645.64	803.48
645.98	798.60
646.32	793.90
646.66	789.27
647.01	784.38
647.35	779.82
647.69	775.26
648.04	771.14
648.38	766.17
648.72	761.17
649.06	756.36
649.41	751.82
649.75	746.92
650.09	741.90
650.43	737.28
650.78	732.26
651.12	727.66
651.46	723.04
651.80	718.41
652.14	713.90
652.49	710.00
652.83	705.69
653.17	700.87
653.51	696.24
653.85	691.89
654.20	687.50
654.54	682.95
654.88	678.28
655.22	673.51
655.56	669.09
655.90	665.10
656.25	660.80
656.59	656.42
656.93	652.38
657.27	648.39
657.61	643.90
657.95	640.05
658.29	635.97
658.64	632.10
658.98	627.84
659.32	623.73
659.66	619.49
660.00	615.21
660.34	611.33
660.68	607.50
661.02	603.29
661.36	599.52
661.70	595.72
662.05	592.25
662.39	588.82
662.73	585.26
663.07	581.59
663.41	578.19
663.75	574.72
664.09	571.27
664.43	567.66
664.77	564.53
665.11	561.26
665.45	558.00
665.79	554.53
666.13	551.30
666.47	548.21
666.81	544.86
667.15	541.72
667.49	538.80
667.83	535.81
668.17	532.71
668.51	529.49
668.85	526.50
669.19	523.35
669.53	520.22
669.87	517.19
670.21	514.36
670.55	511.29
670.89	508.35
671.23	505.62
671.57	502.82
671.91	500.24
672.25	497.38
672.58	494.73
672.92	492.18
673.26	489.71
673.60	487.13
673.94	484.86
674.28	482.55
674.62	480.16
674.96	477.66
675.30	475.33
675.64	473.00
675.97	470.54
676.31	468.26
676.65	465.88
676.99	463.70
677.33	461.20
677.67	459.16
678.01	456.78
678.34	454.45
678.68	452.28
679.02	450.02
679.36	447.81
679.70	445.53
680.04	443.33
680.37	440.98
680.71	438.67
681.05	436.57
681.39	434.52
681.73	432.46
682.06	430.27
682.40	428.46
682.74	426.44
683.08	424.52
683.42	422.43
683.75	420.59
684.09	418.56
684.43	416.52
684.77	414.47
685.10	412.62
685.44	410.71
685.78	408.80
686.12	407.00
686.45	404.90
686.79	402.97
687.13	401.31
687.46	399.54
687.80	397.69
688.14	395.73
688.48	393.72
688.81	391.63
689.15	389.94
689.49	387.95
689.82	386.05
690.16	384.18
690.50	382.41
690.83	380.58
691.17	378.81
691.51	377.30
691.84	375.62
692.18	373.88
692.52	372.21
692.85	370.52
693.19	368.64
693.52	367.09
693.86	365.57
694.20	363.77
694.53	362.17
694.87	360.72
695.21	359.20
695.54	357.65
695.88	355.99
696.21	354.33
696.55	352.83
696.88	351.36
697.22	349.87
697.56	348.45
697.89	347.08
698.23	345.71
698.56	344.20
698.90	342.80
699.23	341.23
699.57	339.65
699.90	338.32
700.24	336.93
700.58	335.55
700.91	334.23
701.25	332.82
701.58	331.59
701.92	330.30
702.25	329.00
702.59	327.83
702.92	326.80
703.26	325.68
703.59	324.38
703.93	323.38
704.26	322.33
704.60	321.26
704.93	320.00
705.26	318.86
705.60	317.73
705.93	316.68
706.27	315.89
706.60	315.07
706.94	314.12
707.27	313.08
707.61	312.13
707.94	311.19
708.27	310.19
708.61	309.12
708.94	308.08
709.28	307.24
709.61	306.32
709.94	305.37
710.28	304.49
710.61	303.80
710.95	302.84
711.28	302.14
711.61	301.19
711.95	300.45
712.28	299.57
712.61	298.80
712.95	298.00
713.28	297.18
713.61	296.31
713.95	295.50
714.28	294.82
714.61	294.09
714.95	293.25
715.28	292.54
715.61	291.89
715.95	291.30
716.28	290.61
716.61	289.84
716.95	289.20
717.28	288.49
717.61	287.81
717.94	287.12
718.28	286.25
718.61	285.60
718.94	284.94
719.27	284.33
719.61	283.70
719.94	283.09
720.27	282.46
720.60	281.78
720.94	281.21
721.27	280.75
721.60	280.26
721.93	279.76
722.27	279.26
722.60	278.80
722.93	278.11
723.26	277.41
723.59	277.02
723.93	276.56
724.26	276.13
724.59	275.64
724.92	275.12
725.25	274.67
725.59	274.23
725.92	273.89
726.25	273.33
726.58	272.95
726.91	272.56
727.24	271.99
727.57	271.66
727.91	271.06
728.24	270.55
728.57	270.00
728.90	269.56
729.23	269.06
729.56	268.61
729.89	268.14
730.22	267.85
730.55	267.34
730.89	266.90
731.22	266.40
731.55	265.96
731.88	265.52
732.21	265.04
732.54	264.64
732.87	264.14
733.20	263.89
733.53	263.43
733.86	262.92
734.19	262.59
734.52	262.16
734.85	261.93
735.18	261.48
735.51	261.11
735.84	260.64
736.17	260.35
736.50	259.79
736.83	259.77
737.16	259.37
737.49	259.05
737.82	258.61
738.15	258.23
738.48	257.90
738.81	257.65
739.14	257.27
739.47	256.89
739.80	256.53
740.13	256.13
740.46	255.74
740.79	255.38
741.12	255.09
741.45	254.70
741.78	254.31
742.11	254.02
742.44	253.81
742.77	253.58
743.10	253.22
743.43	253.03
743.75	252.42
744.08	252.37
744.41	252.04
744.74	251.80
745.07	251.61
745.40	251.23
745.73	250.98
746.06	250.70
746.39	250.45
746.71	250.19
747.04	249.90
747.37	249.64
747.70	249.41
748.03	249.15
748.36	248.99
748.68	248.69
749.01	248.52
749.34	248.26
749.67	248.02
750.00	247.87
750.33	247.75
750.65	247.68
750.98	247.30
751.31	247.07
751.64	246.88
751.97	246.66
752.29	246.50
752.62	246.27
752.95	246.25
753.28	246.13
753.60	245.94
753.93	245.92
754.26	245.81
754.59	245.61
754.91	245.40
755.24	245.34
755.57	245.23
755.90	244.98
756.22	244.74
756.55	244.64
756.88	244.43
757.20	244.17
757.53	243.89
757.86	243.75
758.19	243.60
758.51	243.44
758.84	243.20
759.17	243.13
759.49	242.94
759.82	242.79
760.15	242.60
760.47	242.55
760.80	242.26
761.13	242.15
761.45	242.03
761.78	241.95
762.11	241.76
762.43	241.58
762.76	241.48
763.08	241.35
763.41	241.17
763.74	240.92
764.06	240.79
764.39	240.66
764.71	240.51
765.04	240.41
765.37	240.30
765.69	240.20
766.02	240.10
766.34	240.02
766.67	239.86
767.00	239.79
767.32	239.64
767.65	239.70
767.97	239.69
768.30	239.58
768.62	239.39
768.95	239.23
769.27	239.17
769.60	239.09
769.92	238.98
770.25	238.77
770.57	238.78
770.90	238.61
771.22	238.47
771.55	238.36
771.87	238.18
772.20	238.10
772.52	238.19
772.85	238.21
773.17	238.06
773.50	237.91
773.82	237.87
774.15	237.62
774.47	237.30
774.80	237.04
775.12	236.91
775.45	236.81
775.77	236.74
776.09	236.68
776.42	236.56
776.74	236.52
777.07	236.47
777.39	236.31
777.72	236.22
778.04	236.13
778.36	236.04
778.69	235.98
779.01	235.75
779.33	235.49
779.66	235.23
779.98	235.10
780.31	234.97
780.63	234.86
780.95	234.85
781.28	234.80
781.60	234.61
781.92	234.50
782.25	234.40
782.57	234.21
782.89	234.11
783.22	234.07
783.54	233.86
783.86	233.75
784.19	233.58
784.51	233.56
784.83	233.51
785.16	233.33
785.48	233.30
785.80	233.22
786.12	233.06
786.45	232.92
786.77	232.82
787.09	232.78
787.42	232.58
787.74	232.54
788.06	232.46
788.38	232.50
