SpectraSuite Data File
++++++++++++++++++++++++++++++++++++
Date: Fri Feb 01 14:36:34 EST 2013
User: group
Dark Spectrum Present: No
Reference Spectrum Present: No
Number of Sampled Component Spectra: 1
Spectrometers: USB2E7196
Integration Time (usec): 70000 (USB2E7196)
Spectra Averaged: 10 (USB2E7196)
Boxcar Smoothing: 10 (USB2E7196)
Correct for Electrical Dark: No (USB2E7196)
Strobe/Lamp Enabled: No (USB2E7196)
Correct for Detector Non-linearity: No (USB2E7196)
Correct for Stray Light: No (USB2E7196)
Number of Pixels in Processed Spectrum: 2048
>>>>>Begin Processed Spectral Data<<<<<
339.09	0.00
339.48	215.30
339.86	217.00
340.24	219.60
340.63	220.50
341.01	223.50
341.39	222.00
341.78	224.40
342.16	226.00
342.54	226.70
342.93	214.14
343.31	224.87
343.69	225.40
344.07	225.89
344.46	226.23
344.84	226.57
345.22	226.74
345.60	227.02
345.99	227.18
346.37	227.30
346.75	227.33
347.13	227.30
347.52	227.51
347.90	227.63
348.28	227.67
348.66	227.70
349.05	227.73
349.43	227.85
349.81	227.92
350.19	227.91
350.57	227.90
350.96	227.92
351.34	228.13
351.72	228.30
352.10	228.45
352.48	228.54
352.87	228.67
353.25	228.81
353.63	228.91
354.01	229.06
354.39	229.18
354.77	229.29
355.15	229.56
355.54	229.51
355.92	229.57
356.30	229.69
356.68	229.97
357.06	229.99
357.44	230.02
357.82	230.15
358.20	230.25
358.58	230.37
358.97	230.55
359.35	230.65
359.73	230.75
360.11	230.76
360.49	230.86
360.87	230.85
361.25	230.90
361.63	231.01
362.01	231.03
362.39	231.01
362.77	231.06
363.15	230.97
363.53	231.03
363.91	231.02
364.29	231.07
364.67	230.83
365.05	230.79
365.43	230.81
365.81	230.84
366.19	230.91
366.57	230.95
366.95	230.93
367.33	230.89
367.71	230.83
368.09	230.79
368.47	230.73
368.85	230.74
369.23	230.77
369.61	230.65
369.99	230.57
370.37	230.53
370.75	230.58
371.13	230.59
371.51	230.42
371.89	230.36
372.27	230.27
372.65	230.15
373.03	230.28
373.41	230.16
373.78	229.90
374.16	229.70
374.54	229.61
374.92	229.42
375.30	229.30
375.68	229.13
376.06	229.04
376.44	228.91
376.82	228.74
377.19	228.55
377.57	228.50
377.95	228.40
378.33	228.25
378.71	228.01
379.09	227.84
379.47	227.74
379.84	227.75
380.22	227.66
380.60	227.66
380.98	227.47
381.36	227.37
381.73	227.23
382.11	227.33
382.49	227.24
382.87	227.25
383.25	227.20
383.62	227.42
384.00	227.36
384.38	227.36
384.76	227.39
385.13	227.42
385.51	227.23
385.89	227.18
386.27	227.22
386.64	227.24
387.02	227.13
387.40	227.20
387.78	227.10
388.15	227.03
388.53	226.90
388.91	226.84
389.29	226.81
389.66	226.97
390.04	226.82
390.42	226.75
390.79	226.71
391.17	226.67
391.55	226.39
391.92	226.43
392.30	226.40
392.68	226.31
393.05	226.31
393.43	226.40
393.81	226.42
394.18	226.40
394.56	226.35
394.94	226.45
395.31	226.40
395.69	226.36
396.06	226.49
396.44	226.54
396.82	226.62
397.19	226.87
397.57	226.78
397.95	226.80
398.32	226.88
398.70	226.99
399.07	227.16
399.45	227.30
399.82	227.36
400.20	227.44
400.58	227.64
400.95	227.66
401.33	227.73
401.70	228.01
402.08	228.18
402.45	228.43
402.83	228.70
403.20	228.91
403.58	229.18
403.95	229.34
404.33	229.61
404.71	229.86
405.08	230.13
405.46	230.45
405.83	230.74
406.21	231.04
406.58	231.18
406.96	231.39
407.33	231.64
407.70	232.05
408.08	232.49
408.45	232.83
408.83	233.31
409.20	233.78
409.58	234.14
409.95	234.56
410.33	235.08
410.70	235.43
411.08	235.91
411.45	236.50
411.82	237.17
412.20	237.80
412.57	238.58
412.95	239.10
413.32	239.81
413.69	240.67
414.07	241.51
414.44	242.52
414.82	243.44
415.19	244.59
415.56	245.70
415.94	246.88
416.31	248.13
416.68	249.25
417.06	250.59
417.43	251.87
417.81	253.45
418.18	255.05
418.55	256.77
418.93	258.59
419.30	260.52
419.67	262.37
420.04	264.33
420.42	266.41
420.79	268.90
421.16	271.33
421.54	273.70
421.91	276.23
422.28	278.89
422.66	281.76
423.03	284.32
423.40	287.00
423.77	289.94
424.15	293.00
424.52	296.21
424.89	299.68
425.26	303.09
425.64	306.19
426.01	309.49
426.38	313.07
426.75	316.79
427.13	320.45
427.50	324.35
427.87	328.41
428.24	332.49
428.61	336.49
428.99	340.94
429.36	345.79
429.73	350.41
430.10	354.88
430.47	359.51
430.85	364.40
431.22	369.48
431.59	374.92
431.96	380.16
432.33	386.10
432.70	391.70
433.08	398.13
433.45	404.21
433.82	410.33
434.19	417.23
434.56	423.87
434.93	430.11
435.30	436.55
435.68	443.67
436.05	450.52
436.42	457.14
436.79	463.28
437.16	469.93
437.53	476.89
437.90	484.02
438.27	491.07
438.64	498.31
439.01	505.03
439.38	510.84
439.75	516.37
440.13	522.70
440.50	528.78
440.87	534.01
441.24	539.40
441.61	545.48
441.98	549.86
442.35	555.02
442.72	560.37
443.09	565.49
443.46	568.73
443.83	571.14
444.20	573.31
444.57	576.20
444.94	577.83
445.31	579.63
445.68	581.40
446.05	582.51
446.42	582.53
446.79	582.45
447.16	582.47
447.53	582.85
447.90	581.17
448.27	579.41
448.64	576.38
449.01	574.63
449.37	570.63
449.74	566.90
450.11	562.26
450.48	557.22
450.85	551.92
451.22	547.65
451.59	543.51
451.96	539.68
452.33	534.10
452.70	529.09
453.07	522.98
453.43	516.60
453.80	510.44
454.17	504.61
454.54	499.00
454.91	492.70
455.28	486.57
455.65	481.01
456.02	475.40
456.38	470.44
456.75	464.21
457.12	458.97
457.49	453.64
457.86	448.69
458.23	444.35
458.59	439.68
458.96	434.60
459.33	430.25
459.70	425.81
460.07	422.20
460.43	418.11
460.80	414.23
461.17	410.86
461.54	407.29
461.91	403.83
462.27	400.29
462.64	397.47
463.01	394.21
463.38	391.00
463.74	387.76
464.11	385.25
464.48	382.82
464.85	380.14
465.21	378.15
465.58	375.87
465.95	373.28
466.32	370.94
466.68	368.81
467.05	366.57
467.42	364.37
467.78	362.13
468.15	359.84
468.52	358.15
468.88	356.14
469.25	354.03
469.62	352.47
469.98	350.92
470.35	349.38
470.72	347.91
471.08	346.27
471.45	344.81
471.82	343.27
472.18	341.74
472.55	340.60
472.92	339.29
473.28	338.06
473.65	336.67
474.02	335.40
474.38	334.35
474.75	333.37
475.11	332.32
475.48	331.50
475.85	330.84
476.21	330.00
476.58	329.15
476.94	328.57
477.31	327.78
477.67	327.18
478.04	326.55
478.41	326.22
478.77	325.79
479.14	325.37
479.50	325.01
479.87	324.75
480.23	324.46
480.60	324.08
480.96	323.77
481.33	323.83
481.69	323.79
482.06	323.54
482.42	323.30
482.79	323.12
483.15	323.23
483.52	323.29
483.88	323.47
484.25	323.55
484.61	323.82
484.98	324.13
485.34	324.37
485.71	324.77
486.07	325.01
486.44	325.35
486.80	325.93
487.17	326.37
487.53	327.04
487.90	327.75
488.26	328.49
488.62	329.26
488.99	329.80
489.35	330.47
489.72	331.31
490.08	332.30
490.44	333.25
490.81	334.08
491.17	334.99
491.54	336.02
491.90	336.99
492.26	338.10
492.63	339.06
492.99	340.19
493.36	341.07
493.72	342.20
494.08	343.33
494.45	344.50
494.81	345.72
495.17	346.80
495.54	348.16
495.90	349.47
496.26	350.82
496.63	352.40
496.99	353.84
497.35	355.32
497.72	356.59
498.08	357.98
498.44	359.40
498.80	361.00
499.17	362.28
499.53	363.75
499.89	365.08
500.26	366.42
500.62	367.66
500.98	369.29
501.34	370.67
501.71	372.04
502.07	373.31
502.43	374.58
502.79	376.02
503.16	377.13
503.52	378.28
503.88	379.26
504.24	380.24
504.60	381.36
504.97	382.43
505.33	383.61
505.69	384.71
506.05	385.82
506.41	386.57
506.78	387.57
507.14	388.43
507.50	389.31
507.86	390.17
508.22	391.06
508.59	391.77
508.95	392.45
509.31	393.15
509.67	393.96
510.03	394.82
510.39	395.36
510.75	395.83
511.12	396.40
511.48	396.97
511.84	397.40
512.20	397.90
512.56	398.33
512.92	398.67
513.28	399.04
513.64	399.18
514.00	399.50
514.37	399.64
514.73	399.85
515.09	400.00
515.45	400.20
515.81	400.33
516.17	400.41
516.53	400.50
516.89	400.74
517.25	400.81
517.61	400.80
517.97	400.74
518.33	400.92
518.69	400.98
519.05	401.07
519.41	401.21
519.77	401.48
520.13	401.66
520.49	401.84
520.85	402.03
521.21	402.24
521.57	402.59
521.93	402.89
522.29	403.36
522.65	403.74
523.01	404.00
523.37	404.36
523.73	404.76
524.09	405.18
524.45	405.59
524.81	406.04
525.17	406.77
525.53	407.62
525.89	408.43
526.25	409.34
526.61	410.11
526.97	411.08
527.33	411.96
527.68	413.10
528.04	414.13
528.40	415.20
528.76	416.57
529.12	417.76
529.48	419.11
529.84	420.37
530.20	421.80
530.56	423.62
530.91	425.49
531.27	427.35
531.63	429.20
531.99	431.18
532.35	433.19
532.71	434.83
533.07	436.94
533.42	439.23
533.78	441.29
534.14	443.83
534.50	446.06
534.86	448.52
535.21	450.82
535.57	453.49
535.93	456.03
536.29	458.69
536.65	461.49
537.00	464.21
537.36	467.02
537.72	469.89
538.08	472.78
538.44	475.68
538.79	478.69
539.15	481.80
539.51	484.90
539.87	488.00
540.22	491.59
540.58	494.90
540.94	498.21
541.29	501.59
541.65	504.93
542.01	508.67
542.37	512.19
542.72	515.83
543.08	519.40
543.44	523.43
543.79	526.94
544.15	530.76
544.51	535.06
544.87	539.26
545.22	543.30
545.58	547.16
545.94	551.03
546.29	554.90
546.65	558.89
547.01	562.89
547.36	566.94
547.72	570.84
548.07	574.99
548.43	578.93
548.79	583.17
549.14	587.38
549.50	591.40
549.86	595.51
550.21	599.62
550.57	603.71
550.92	607.70
551.28	611.99
551.64	616.18
551.99	620.02
552.35	623.95
552.70	628.19
553.06	632.41
553.41	636.51
553.77	640.83
554.13	645.00
554.48	649.35
554.84	653.50
555.19	657.72
555.55	661.92
555.90	666.02
556.26	669.97
556.61	673.79
556.97	677.91
557.32	682.11
557.68	686.41
558.03	690.49
558.39	694.46
558.74	698.65
559.10	702.76
559.45	706.94
559.81	711.19
560.16	715.16
560.52	719.09
560.87	723.12
561.23	727.02
561.58	731.40
561.94	735.37
562.29	739.26
562.64	742.83
563.00	746.49
563.35	750.58
563.71	754.80
564.06	759.07
564.42	762.83
564.77	766.35
565.12	770.09
565.48	774.04
565.83	777.73
566.19	781.49
566.54	784.86
566.89	788.26
567.25	791.82
567.60	795.48
567.96	799.00
568.31	802.30
568.66	805.58
569.02	808.50
569.37	811.47
569.72	814.64
570.08	817.67
570.43	820.60
570.78	823.08
571.14	825.73
571.49	828.23
571.84	831.18
572.20	833.81
572.55	836.25
572.90	838.30
573.26	840.53
573.61	842.48
573.96	844.63
574.31	846.46
574.67	848.05
575.02	849.36
575.37	851.05
575.72	852.70
576.08	854.45
576.43	855.92
576.78	857.49
577.13	859.14
577.49	860.82
577.84	862.24
578.19	863.88
578.54	864.94
578.90	865.94
579.25	866.57
579.60	867.48
579.95	868.06
580.30	869.06
580.66	869.92
581.01	870.66
581.36	871.37
581.71	872.22
582.06	873.15
582.42	873.72
582.77	874.48
583.12	875.10
583.47	875.57
583.82	876.21
584.17	876.22
584.53	876.56
584.88	876.77
585.23	876.95
585.58	877.03
585.93	877.07
586.28	877.59
586.63	878.05
586.98	878.49
587.34	878.81
587.69	879.15
588.04	879.28
588.39	879.46
588.74	879.18
589.09	878.67
589.44	878.15
589.79	878.15
590.14	877.68
590.49	877.22
590.84	877.00
591.19	876.47
591.54	875.85
591.89	874.57
592.25	874.09
592.60	873.26
592.95	872.24
593.30	871.53
593.65	870.43
594.00	869.22
594.35	868.32
594.70	867.14
595.05	865.88
595.40	864.53
595.75	863.20
596.10	862.20
596.45	861.28
596.80	860.17
597.15	858.92
597.50	857.59
597.85	856.74
598.19	855.39
598.54	854.28
598.89	853.46
599.24	853.03
599.59	851.80
599.94	850.55
600.29	849.17
600.64	847.87
600.99	846.26
601.34	845.05
601.69	843.21
602.04	841.99
602.39	840.36
602.74	839.02
603.08	837.88
603.43	836.90
603.78	835.52
604.13	833.91
604.48	832.65
604.83	831.47
605.18	829.34
605.53	827.66
605.87	825.52
606.22	823.62
606.57	821.28
606.92	819.41
607.27	818.06
607.62	816.66
607.96	815.00
608.31	813.40
608.66	811.25
609.01	809.22
609.36	806.92
609.70	804.73
610.05	802.56
610.40	800.20
610.75	797.39
611.10	794.90
611.44	792.40
611.79	789.87
612.14	787.18
612.49	784.70
612.83	781.73
613.18	779.36
613.53	776.91
613.88	774.48
614.22	772.00
614.57	769.30
614.92	766.52
615.27	764.10
615.61	761.14
615.96	758.70
616.31	756.30
616.65	754.20
617.00	751.87
617.35	749.48
617.70	746.68
618.04	744.32
618.39	742.20
618.74	739.78
619.08	737.06
619.43	734.77
619.78	732.57
620.12	730.36
620.47	727.82
620.82	725.09
621.16	722.58
621.51	720.14
621.85	717.43
622.20	714.93
622.55	712.31
622.89	710.11
623.24	707.66
623.59	705.67
623.93	703.30
624.28	700.74
624.62	698.27
624.97	696.31
625.32	693.86
625.66	691.45
626.01	689.06
626.35	686.81
626.70	684.13
627.04	681.88
627.39	679.20
627.73	676.81
628.08	674.47
628.43	672.17
628.77	669.60
629.12	666.97
629.46	664.55
629.81	661.80
630.15	659.15
630.50	656.35
630.84	653.16
631.19	650.04
631.53	647.43
631.88	644.58
632.22	641.50
632.57	638.94
632.91	635.91
633.26	633.32
633.60	630.45
633.95	627.84
634.29	624.99
634.64	622.69
634.98	619.89
635.32	617.56
635.67	615.07
636.01	612.70
636.36	610.19
636.70	607.60
637.05	605.21
637.39	603.10
637.73	600.97
638.08	598.95
638.42	596.94
638.77	594.75
639.11	592.38
639.45	590.14
639.80	587.89
640.14	585.70
640.49	583.14
640.83	580.89
641.17	578.49
641.52	576.22
641.86	573.70
642.20	571.52
642.55	569.13
642.89	566.76
643.23	564.33
643.58	562.41
643.92	560.01
644.26	557.75
644.61	555.16
644.95	552.85
645.29	549.87
645.64	547.19
645.98	544.80
646.32	542.65
646.66	540.11
647.01	537.65
647.35	535.40
647.69	533.19
648.04	531.04
648.38	528.60
648.72	525.99
649.06	523.59
649.41	521.28
649.75	518.68
650.09	516.17
650.43	513.70
650.78	510.91
651.12	508.66
651.46	505.94
651.80	503.67
652.14	501.17
652.49	499.23
652.83	497.14
653.17	494.56
653.51	492.05
653.85	489.88
654.20	487.36
654.54	484.90
654.88	482.54
655.22	479.94
655.56	477.62
655.90	475.59
656.25	473.43
656.59	471.54
656.93	469.66
657.27	467.51
657.61	465.29
657.95	463.39
658.29	461.32
658.64	459.42
658.98	457.28
659.32	455.13
659.66	453.05
660.00	450.87
660.34	448.81
660.68	446.81
661.02	444.78
661.36	442.93
661.70	441.00
662.05	439.27
662.39	437.50
662.73	435.81
663.07	434.04
663.41	432.26
663.75	430.25
664.09	428.24
664.43	426.49
664.77	424.63
665.11	422.82
665.45	421.00
665.79	419.41
666.13	417.81
666.47	416.13
666.81	414.41
667.15	412.71
667.49	411.20
667.83	409.66
668.17	408.09
668.51	406.30
668.85	404.81
669.19	403.30
669.53	401.71
669.87	400.16
670.21	398.46
670.55	396.93
670.89	395.46
671.23	393.89
671.57	392.45
671.91	391.10
672.25	389.64
672.58	388.30
672.92	386.70
673.26	385.09
673.60	383.70
673.94	382.31
674.28	380.97
674.62	379.80
674.96	378.64
675.30	377.36
675.64	376.20
675.97	374.69
676.31	373.42
676.65	372.19
676.99	370.94
677.33	369.72
677.67	368.23
678.01	366.85
678.34	365.76
678.68	364.53
679.02	363.29
679.36	361.87
679.70	360.42
680.04	359.31
680.37	358.22
680.71	357.07
681.05	355.93
681.39	354.89
681.73	353.68
682.06	352.37
682.40	351.19
682.74	350.11
683.08	349.14
683.42	347.83
683.75	346.68
684.09	345.33
684.43	344.20
684.77	343.17
685.10	342.04
685.44	340.80
685.78	339.58
686.12	338.39
686.45	337.31
686.79	336.24
687.13	335.14
687.46	333.80
687.80	332.68
688.14	331.47
688.48	330.33
688.81	329.06
689.15	327.96
689.49	326.83
689.82	325.70
690.16	324.50
690.50	323.46
690.83	322.51
691.17	321.53
691.51	320.40
691.84	319.55
692.18	318.63
692.52	317.67
692.85	316.71
693.19	315.74
693.52	314.79
693.86	313.89
694.20	312.87
694.53	312.12
694.87	311.19
695.21	310.38
695.54	309.39
695.88	308.46
696.21	307.54
696.55	306.64
696.88	305.73
697.22	304.92
697.56	304.13
697.89	303.20
698.23	302.45
698.56	301.80
698.90	300.97
699.23	300.03
699.57	299.16
699.90	298.40
700.24	297.66
700.58	296.89
700.91	296.17
701.25	295.57
701.58	294.87
701.92	294.09
702.25	293.31
702.59	292.57
702.92	292.09
703.26	291.47
703.59	290.78
703.93	290.33
704.26	289.79
704.60	289.31
704.93	288.71
705.26	288.02
705.60	287.40
705.93	286.77
706.27	286.25
706.60	285.82
706.94	285.38
707.27	284.90
707.61	284.44
707.94	283.88
708.27	283.20
708.61	282.65
708.94	282.40
709.28	281.88
709.61	281.39
709.94	280.86
710.28	280.37
710.61	279.85
710.95	279.14
711.28	278.61
711.61	277.98
711.95	277.49
712.28	277.01
712.61	276.46
712.95	276.02
713.28	275.57
713.61	274.92
713.95	274.21
714.28	273.74
714.61	273.15
714.95	272.73
715.28	272.30
715.61	271.79
715.95	271.13
716.28	270.68
716.61	270.33
716.95	269.79
717.28	269.39
717.61	268.89
717.94	268.42
718.28	267.94
718.61	267.45
718.94	267.08
719.27	266.71
719.61	266.35
719.94	265.95
720.27	265.48
720.60	265.20
720.94	265.03
721.27	264.52
721.60	264.22
721.93	263.88
722.27	263.41
722.60	262.99
722.93	262.60
723.26	262.17
723.59	261.71
723.93	261.19
724.26	260.79
724.59	260.47
724.92	260.22
725.25	259.92
725.59	259.64
725.92	259.19
726.25	258.90
726.58	258.51
726.91	258.19
727.24	257.92
727.57	257.58
727.91	257.08
728.24	256.85
728.57	256.59
728.90	256.26
729.23	256.04
729.56	255.83
729.89	255.48
730.22	255.20
730.55	254.83
730.89	254.64
731.22	254.30
731.55	254.12
731.88	253.80
732.21	253.51
732.54	253.16
732.87	253.05
733.20	252.66
733.53	252.44
733.86	252.20
734.19	251.90
734.52	251.68
734.85	251.60
735.18	251.33
735.51	251.08
735.84	250.83
736.17	250.69
736.50	250.40
736.83	250.41
737.16	250.20
737.49	250.01
737.82	249.75
738.15	249.69
738.48	249.40
738.81	249.19
739.14	248.93
739.47	248.68
739.80	248.30
740.13	248.13
740.46	247.85
740.79	247.54
741.12	247.27
741.45	247.12
741.78	246.68
742.11	246.50
742.44	246.21
742.77	246.10
743.10	245.87
743.43	245.69
743.75	245.33
744.08	245.39
744.41	245.20
744.74	245.20
745.07	244.93
745.40	244.80
745.73	244.64
746.06	244.40
746.39	244.30
746.71	244.17
747.04	244.15
747.37	243.96
747.70	243.92
748.03	243.81
748.36	243.73
748.68	243.85
749.01	243.64
749.34	243.50
749.67	243.29
750.00	243.09
750.33	243.12
750.65	243.01
750.98	242.69
751.31	242.65
751.64	242.36
751.97	242.34
752.29	242.23
752.62	241.98
752.95	241.95
753.28	241.84
753.60	241.74
753.93	241.57
754.26	241.49
754.59	241.29
754.91	241.13
755.24	240.94
755.57	240.76
755.90	240.68
756.22	240.58
756.55	240.40
756.88	240.21
757.20	239.92
757.53	239.61
757.86	239.58
758.19	239.46
758.51	239.40
758.84	239.23
759.17	239.05
759.49	239.10
759.82	239.10
760.15	238.94
760.47	238.82
760.80	238.76
761.13	238.70
761.45	238.63
761.78	238.56
762.11	238.40
762.43	238.30
762.76	238.12
763.08	238.01
763.41	237.97
763.74	237.85
764.06	237.73
764.39	237.76
764.71	237.57
765.04	237.42
765.37	237.29
765.69	237.08
766.02	236.98
766.34	236.82
766.67	236.59
767.00	236.57
767.32	236.57
767.65	236.34
767.97	236.24
768.30	236.12
768.62	236.13
768.95	236.01
769.27	235.84
769.60	235.96
769.92	235.81
770.25	235.65
770.57	235.61
770.90	235.49
771.22	235.40
771.55	235.24
771.87	235.19
772.20	235.07
772.52	235.16
772.85	235.39
773.17	235.23
773.50	235.20
773.82	235.10
774.15	234.99
774.47	234.90
774.80	234.83
775.12	234.71
775.45	234.58
775.77	234.54
776.09	234.47
776.42	234.30
776.74	234.32
777.07	234.21
777.39	234.16
777.72	234.19
778.04	234.13
778.36	234.07
778.69	233.94
779.01	233.92
779.33	233.71
779.66	233.23
779.98	233.20
780.31	233.08
780.63	233.14
780.95	233.10
781.28	233.10
781.60	233.05
781.92	232.94
782.25	232.74
782.57	232.69
782.89	232.72
783.22	232.65
783.54	232.60
783.86	232.64
784.19	232.54
784.51	232.41
784.83	232.26
785.16	232.30
785.48	232.28
785.80	232.30
786.12	232.31
786.45	232.38
786.77	232.39
787.09	232.34
787.42	232.11
787.74	231.91
788.06	231.75
788.38	231.76
788.71	231.75
789.03	231.77
789.35	231.70
789.67	231.49
789.99	231.37
790.32	231.27
790.64	231.24
790.96	231.37
791.28	231.38
791.61	231.43
791.93	231.30
792.25	231.28
792.57	231.31
792.89	231.22
793.21	231.28
793.54	231.20
793.86	231.10
794.18	231.12
