SpectraSuite Data File
++++++++++++++++++++++++++++++++++++
Date: Fri Feb 01 14:37:02 EST 2013
User: group
Dark Spectrum Present: No
Reference Spectrum Present: No
Number of Sampled Component Spectra: 1
Spectrometers: USB2E7196
Integration Time (usec): 70000 (USB2E7196)
Spectra Averaged: 10 (USB2E7196)
Boxcar Smoothing: 10 (USB2E7196)
Correct for Electrical Dark: No (USB2E7196)
Strobe/Lamp Enabled: No (USB2E7196)
Correct for Detector Non-linearity: No (USB2E7196)
Correct for Stray Light: No (USB2E7196)
Number of Pixels in Processed Spectrum: 2048
>>>>>Begin Processed Spectral Data<<<<<
339.09	0.00
339.48	213.80
339.86	217.60
340.24	218.90
340.63	220.30
341.01	224.30
341.39	223.30
341.78	224.50
342.16	225.70
342.54	226.10
342.93	214.70
343.31	225.61
343.69	226.22
344.07	226.64
344.46	227.00
344.84	227.33
345.22	227.44
345.60	227.71
345.99	227.89
346.37	227.97
346.75	228.05
347.13	228.01
347.52	228.06
347.90	228.05
348.28	228.10
348.66	228.10
349.05	228.01
349.43	227.90
349.81	227.90
350.19	227.89
350.57	227.89
350.96	227.96
351.34	227.92
351.72	227.98
352.10	228.06
352.48	228.18
352.87	228.28
353.25	228.30
353.63	228.25
354.01	228.27
354.39	228.39
354.77	228.37
355.15	228.42
355.54	228.32
355.92	228.33
356.30	228.35
356.68	228.57
357.06	228.70
357.44	228.73
357.82	228.69
358.20	228.81
358.58	228.93
358.97	229.04
359.35	229.15
359.73	229.27
360.11	229.21
360.49	229.28
360.87	229.36
361.25	229.47
361.63	229.56
362.01	229.60
362.39	229.52
362.77	229.61
363.15	229.73
363.53	229.82
363.91	229.84
364.29	229.82
364.67	229.69
365.05	229.63
365.43	229.74
365.81	229.82
366.19	229.87
366.57	229.88
366.95	229.78
367.33	229.67
367.71	229.56
368.09	229.73
368.47	229.80
368.85	229.74
369.23	229.76
369.61	229.70
369.99	229.66
370.37	229.67
370.75	229.72
371.13	229.55
371.51	229.51
371.89	229.46
372.27	229.52
372.65	229.56
373.03	229.51
373.41	229.36
373.78	229.24
374.16	229.13
374.54	228.89
374.92	228.93
375.30	228.85
375.68	228.89
376.06	228.82
376.44	228.57
376.82	228.50
377.19	228.48
377.57	228.41
377.95	228.39
378.33	228.42
378.71	228.35
379.09	228.33
379.47	228.31
379.84	228.25
380.22	228.10
380.60	227.88
380.98	227.88
381.36	227.81
381.73	227.77
382.11	227.64
382.49	227.72
382.87	227.62
383.25	227.62
383.62	227.75
384.00	227.70
384.38	227.70
384.76	227.69
385.13	227.65
385.51	227.62
385.89	227.58
386.27	227.53
386.64	227.49
387.02	227.53
387.40	227.40
387.78	227.44
388.15	227.41
388.53	227.41
388.91	227.29
389.29	227.31
389.66	227.28
390.04	227.32
390.42	227.37
390.79	227.40
391.17	227.40
391.55	227.23
391.92	227.20
392.30	227.21
392.68	227.15
393.05	227.20
393.43	227.24
393.81	227.25
394.18	227.13
394.56	227.12
394.94	227.10
395.31	227.20
395.69	227.24
396.06	227.35
396.44	227.39
396.82	227.51
397.19	227.66
397.57	227.78
397.95	227.78
398.32	227.78
398.70	227.82
399.07	227.91
399.45	227.91
399.82	228.01
400.20	228.13
400.58	228.29
400.95	228.30
401.33	228.42
401.70	228.70
402.08	228.88
402.45	229.03
402.83	229.18
403.20	229.32
403.58	229.39
403.95	229.52
404.33	229.68
404.71	229.84
405.08	229.98
405.46	230.21
405.83	230.51
406.21	230.77
406.58	231.03
406.96	231.30
407.33	231.65
407.70	231.94
408.08	232.36
408.45	232.70
408.83	233.07
409.20	233.37
409.58	233.50
409.95	233.88
410.33	234.28
410.70	234.71
411.08	235.15
411.45	235.66
411.82	236.28
412.20	236.87
412.57	237.60
412.95	238.23
413.32	238.90
413.69	239.59
414.07	240.34
414.44	241.12
414.82	241.93
415.19	242.88
415.56	243.81
415.94	244.72
416.31	245.79
416.68	246.87
417.06	248.22
417.43	249.48
417.81	250.85
418.18	252.27
418.55	253.77
418.93	255.49
419.30	257.19
419.67	258.75
420.04	260.58
420.42	262.39
420.79	264.55
421.16	266.65
421.54	268.86
421.91	271.12
422.28	273.46
422.66	276.01
423.03	278.54
423.40	281.17
423.77	283.93
424.15	286.60
424.52	289.51
424.89	292.63
425.26	295.80
425.64	298.81
426.01	302.11
426.38	305.48
426.75	308.77
427.13	312.26
427.50	316.09
427.87	319.85
428.24	323.69
428.61	327.31
428.99	331.26
429.36	335.55
429.73	339.70
430.10	343.98
430.47	348.25
430.85	352.54
431.22	357.12
431.59	362.04
431.96	366.80
432.33	371.93
432.70	376.90
433.08	382.71
433.45	388.20
433.82	393.66
434.19	399.66
434.56	405.60
434.93	411.28
435.30	416.80
435.68	423.08
436.05	429.13
436.42	435.34
436.79	440.97
437.16	447.05
437.53	453.58
437.90	459.84
438.27	466.17
438.64	472.58
439.01	478.59
439.38	483.90
439.75	489.04
440.13	494.88
440.50	500.52
440.87	505.15
441.24	509.86
441.61	515.00
441.98	519.10
442.35	523.83
442.72	528.42
443.09	533.03
443.46	535.92
443.83	538.10
444.20	539.73
444.57	542.28
444.94	543.68
445.31	545.18
445.68	546.70
446.05	547.62
446.42	547.77
446.79	547.60
447.16	547.47
447.53	547.75
447.90	546.36
448.27	544.63
448.64	541.91
449.01	540.36
449.37	537.00
449.74	533.54
450.11	529.15
450.48	524.69
450.85	519.81
451.22	516.03
451.59	512.22
451.96	508.69
452.33	503.77
452.70	499.20
453.07	493.43
453.43	487.71
453.80	482.10
454.17	476.47
454.54	471.49
454.91	465.91
455.28	460.52
455.65	455.21
456.02	450.03
456.38	445.71
456.75	439.99
457.12	435.28
457.49	430.61
457.86	426.28
458.23	422.31
458.59	418.07
458.96	413.38
459.33	409.59
459.70	405.74
460.07	402.62
460.43	398.94
460.80	395.51
461.17	392.43
461.54	389.21
461.91	386.24
462.27	383.10
462.64	380.38
463.01	377.27
463.38	374.57
463.74	371.74
464.11	369.16
464.48	367.10
464.85	364.67
465.21	362.89
465.58	360.86
465.95	358.41
466.32	356.43
466.68	354.59
467.05	352.46
467.42	350.36
467.78	348.21
468.15	346.25
468.52	344.75
468.88	342.80
469.25	341.01
469.62	339.69
469.98	338.03
470.35	336.50
470.72	335.01
471.08	333.34
471.45	332.09
471.82	330.78
472.18	329.22
472.55	328.03
472.92	326.70
473.28	325.50
473.65	324.38
474.02	323.30
474.38	322.31
474.75	321.46
475.11	320.57
475.48	319.70
475.85	319.02
476.21	318.40
476.58	317.68
476.94	317.21
477.31	316.46
477.67	315.93
478.04	315.46
478.41	315.13
478.77	314.98
479.14	314.41
479.50	313.94
479.87	313.75
480.23	313.44
480.60	313.05
480.96	312.77
481.33	312.74
481.69	312.62
482.06	312.47
482.42	312.27
482.79	312.25
483.15	312.34
483.52	312.36
483.88	312.21
484.25	312.29
484.61	312.35
484.98	312.45
485.34	312.71
485.71	312.87
486.07	313.17
486.44	313.14
486.80	313.50
487.17	313.97
487.53	314.33
487.90	314.93
488.26	315.53
488.62	316.07
488.99	316.58
489.35	317.04
489.72	317.58
490.08	318.33
490.44	318.95
490.81	319.68
491.17	320.37
491.54	321.21
491.90	321.77
492.26	322.66
492.63	323.60
492.99	324.26
493.36	325.20
493.72	326.09
494.08	327.07
494.45	328.05
494.81	329.04
495.17	330.12
495.54	331.08
495.90	332.05
496.26	333.08
496.63	334.12
496.99	335.21
497.35	336.19
497.72	337.21
498.08	338.25
498.44	339.30
498.80	340.37
499.17	341.45
499.53	342.69
499.89	343.70
500.26	344.60
500.62	345.75
500.98	346.78
501.34	347.68
501.71	348.64
502.07	349.54
502.43	350.55
502.79	351.54
503.16	352.31
503.52	353.12
503.88	353.84
504.24	354.71
504.60	355.42
504.97	356.28
505.33	356.94
505.69	357.78
506.05	358.38
506.41	359.03
506.78	359.53
507.14	360.10
507.50	360.63
507.86	361.18
508.22	361.59
508.59	362.03
508.95	362.50
509.31	363.12
509.67	363.60
510.03	363.89
510.39	364.05
510.75	364.55
511.12	364.80
511.48	364.98
511.84	365.02
512.20	365.40
512.56	365.63
512.92	365.86
513.28	366.04
513.64	366.10
514.00	366.13
514.37	366.20
514.73	366.18
515.09	366.23
515.45	366.17
515.81	366.28
516.17	366.41
516.53	366.49
516.89	366.47
517.25	366.57
517.61	366.72
517.97	366.75
518.33	366.68
518.69	366.65
519.05	366.83
519.41	367.01
519.77	367.34
520.13	367.63
520.49	367.85
520.85	367.87
521.21	368.21
521.57	368.62
521.93	369.07
522.29	369.64
522.65	370.05
523.01	370.62
523.37	371.02
523.73	371.47
524.09	372.01
524.45	372.62
524.81	373.20
525.17	373.92
525.53	374.86
525.89	375.80
526.25	376.78
526.61	377.81
526.97	378.93
527.33	379.87
527.68	381.24
528.04	382.48
528.40	383.89
528.76	385.32
529.12	386.75
529.48	388.40
529.84	389.80
530.20	391.52
530.56	393.15
530.91	395.06
531.27	397.02
531.63	399.20
531.99	401.35
532.35	403.70
532.71	405.74
533.07	407.92
533.42	410.44
533.78	412.93
534.14	415.50
534.50	418.00
534.86	420.76
535.21	423.29
535.57	426.15
535.93	429.01
536.29	432.14
536.65	435.20
537.00	438.17
537.36	441.67
537.72	444.76
538.08	448.17
538.44	451.51
538.79	455.01
539.15	458.35
539.51	461.78
539.87	465.32
540.22	468.94
540.58	472.95
540.94	476.48
541.29	480.36
541.65	484.02
542.01	488.00
542.37	491.79
542.72	495.71
543.08	499.53
543.44	503.69
543.79	507.51
544.15	511.69
544.51	515.97
544.87	520.16
545.22	524.44
545.58	528.81
545.94	533.24
546.29	537.51
546.65	541.72
547.01	546.12
547.36	550.48
547.72	554.99
548.07	559.24
548.43	563.84
548.79	568.20
549.14	572.61
549.50	576.93
549.86	581.33
550.21	585.67
550.57	590.40
550.92	594.74
551.28	599.15
551.64	603.47
551.99	608.03
552.35	612.47
552.70	617.03
553.06	621.50
553.41	625.81
553.77	630.07
554.13	634.59
554.48	638.96
554.84	643.26
555.19	647.62
555.55	651.94
555.90	656.13
556.26	660.64
556.61	665.07
556.97	669.45
557.32	673.79
557.68	678.09
558.03	682.26
558.39	686.60
558.74	691.39
559.10	695.85
559.45	700.05
559.81	704.48
560.16	708.69
560.52	712.96
560.87	717.27
561.23	721.53
561.58	726.00
561.94	730.21
562.29	734.34
562.64	738.25
563.00	742.30
563.35	746.48
563.71	750.59
564.06	754.63
564.42	758.80
564.77	762.96
565.12	767.10
565.48	771.27
565.83	775.08
566.19	778.56
566.54	782.30
566.89	785.88
567.25	789.46
567.60	793.02
567.96	796.70
568.31	800.33
568.66	803.98
569.02	807.25
569.37	810.40
569.72	813.78
570.08	817.22
570.43	820.28
570.78	823.47
571.14	826.11
571.49	829.38
571.84	832.60
572.20	835.19
572.55	837.71
572.90	839.90
573.26	842.51
573.61	844.92
573.96	847.18
574.31	849.14
574.67	850.77
575.02	852.65
575.37	854.52
575.72	855.80
576.08	857.42
576.43	858.79
576.78	860.63
577.13	862.15
577.49	863.64
577.84	865.16
578.19	866.46
578.54	867.86
578.90	868.57
579.25	869.17
579.60	870.12
579.95	871.01
580.30	871.99
580.66	872.84
581.01	873.53
581.36	874.36
581.71	875.40
582.06	876.23
582.42	876.83
582.77	877.37
583.12	878.35
583.47	878.91
583.82	879.91
584.17	880.09
584.53	880.50
584.88	880.92
585.23	881.20
585.58	881.22
585.93	881.61
586.28	882.24
586.63	882.56
586.98	883.00
587.34	883.47
587.69	883.77
588.04	883.98
588.39	884.40
588.74	884.02
589.09	883.76
589.44	883.56
589.79	883.58
590.14	883.47
590.49	882.93
590.84	882.52
591.19	881.82
591.54	881.12
591.89	880.19
592.25	879.50
592.60	878.60
592.95	877.85
593.30	876.79
593.65	875.83
594.00	874.80
594.35	874.22
594.70	872.76
595.05	871.77
595.40	870.27
595.75	868.61
596.10	867.91
596.45	867.20
596.80	866.67
597.15	865.55
597.50	864.25
597.85	863.30
598.19	862.36
598.54	861.58
598.89	860.76
599.24	859.88
599.59	858.83
599.94	857.84
600.29	856.64
600.64	855.46
600.99	854.11
601.34	852.73
601.69	850.70
602.04	849.70
602.39	848.02
602.74	847.16
603.08	846.10
603.43	844.95
603.78	843.30
604.13	841.51
604.48	839.89
604.83	838.54
605.18	837.12
605.53	835.11
605.87	832.74
606.22	831.48
606.57	829.86
606.92	828.22
607.27	826.56
607.62	824.98
607.96	823.33
608.31	821.52
608.66	819.82
609.01	818.00
609.36	815.73
609.70	813.75
610.05	811.16
610.40	809.06
610.75	806.49
611.10	804.27
611.44	801.82
611.79	799.73
612.14	797.24
612.49	794.56
612.83	792.28
613.18	790.19
613.53	787.27
613.88	784.66
614.22	781.96
614.57	779.25
614.92	776.65
615.27	774.06
615.61	771.45
615.96	768.91
616.31	766.27
616.65	764.21
617.00	761.80
617.35	759.43
617.70	756.72
618.04	753.96
618.39	751.23
618.74	748.88
619.08	746.23
619.43	743.89
619.78	741.43
620.12	738.93
620.47	736.14
620.82	733.39
621.16	730.70
621.51	728.42
621.85	725.92
622.20	723.13
622.55	720.61
622.89	718.11
623.24	715.57
623.59	713.29
623.93	710.58
624.28	707.80
624.62	705.16
624.97	703.00
625.32	700.71
625.66	698.53
626.01	696.04
626.35	693.61
626.70	690.76
627.04	688.18
627.39	685.56
627.73	683.24
628.08	680.93
628.43	678.55
628.77	675.96
629.12	673.41
629.46	671.07
629.81	668.30
630.15	665.66
630.50	662.81
630.84	659.97
631.19	657.34
631.53	654.85
631.88	652.08
632.22	648.87
632.57	646.11
632.91	643.26
633.26	640.39
633.60	637.58
633.95	634.93
634.29	632.50
634.64	630.07
634.98	627.30
635.32	624.91
635.67	622.37
636.01	619.67
636.36	617.21
636.70	614.89
637.05	612.44
637.39	610.12
637.73	607.68
638.08	605.44
638.42	602.95
638.77	600.62
639.11	598.37
639.45	596.08
639.80	593.77
640.14	591.51
640.49	589.26
640.83	586.95
641.17	584.90
641.52	582.38
641.86	579.84
642.20	577.83
642.55	575.21
642.89	572.97
643.23	570.66
643.58	568.51
643.92	566.02
644.26	563.86
644.61	561.50
644.95	559.26
645.29	556.77
645.64	554.30
645.98	552.11
646.32	549.75
646.66	547.47
647.01	545.08
647.35	542.89
647.69	540.54
648.04	538.32
648.38	535.89
648.72	533.46
649.06	531.20
649.41	528.77
649.75	526.41
650.09	523.85
650.43	521.47
650.78	518.73
651.12	516.40
651.46	514.07
651.80	511.73
652.14	509.60
652.49	507.39
652.83	505.20
653.17	502.70
653.51	500.35
653.85	498.06
654.20	495.84
654.54	493.28
654.88	490.81
655.22	488.28
655.56	485.79
655.90	483.60
656.25	481.45
656.59	479.18
656.93	477.11
657.27	475.00
657.61	472.56
657.95	470.59
658.29	468.41
658.64	466.18
658.98	463.70
659.32	461.24
659.66	458.96
660.00	456.78
660.34	454.65
660.68	452.70
661.02	450.50
661.36	448.29
661.70	446.17
662.05	444.21
662.39	442.29
662.73	440.47
663.07	438.72
663.41	436.70
663.75	434.69
664.09	432.64
664.43	430.74
664.77	429.04
665.11	427.13
665.45	425.03
665.79	423.11
666.13	421.51
666.47	419.72
666.81	417.88
667.15	415.96
667.49	414.17
667.83	412.45
668.17	410.74
668.51	409.16
668.85	407.55
669.19	406.03
669.53	404.38
669.87	402.56
670.21	400.76
670.55	399.16
670.89	397.71
671.23	396.29
671.57	394.71
671.91	393.07
672.25	391.47
672.58	390.13
672.92	388.63
673.26	387.07
673.60	385.64
673.94	384.32
674.28	383.02
674.62	381.71
674.96	380.21
675.30	378.90
675.64	377.36
675.97	376.10
676.31	374.64
676.65	373.40
676.99	372.09
677.33	370.72
677.67	369.42
678.01	367.92
678.34	366.63
678.68	365.34
679.02	364.12
679.36	362.87
679.70	361.62
680.04	360.47
680.37	359.27
680.71	358.08
681.05	356.92
681.39	355.77
681.73	354.59
682.06	353.53
682.40	352.50
682.74	351.53
683.08	350.27
683.42	349.14
683.75	347.95
684.09	346.90
684.43	345.81
684.77	344.77
685.10	343.70
685.44	342.58
685.78	341.54
686.12	340.47
686.45	339.47
686.79	338.37
687.13	337.48
687.46	336.53
687.80	335.51
688.14	334.45
688.48	333.44
688.81	332.49
689.15	331.54
689.49	330.37
689.82	329.30
690.16	328.32
690.50	327.41
690.83	326.54
691.17	325.59
691.51	324.65
691.84	323.65
692.18	322.73
692.52	321.68
692.85	320.73
693.19	319.95
693.52	318.96
693.86	318.18
694.20	317.13
694.53	316.24
694.87	315.41
695.21	314.51
695.54	313.55
695.88	312.47
696.21	311.49
696.55	310.68
696.88	309.77
697.22	308.77
697.56	307.90
697.89	306.92
698.23	305.97
698.56	305.05
698.90	304.24
699.23	303.23
699.57	302.38
699.90	301.55
700.24	300.55
700.58	299.75
700.91	298.72
701.25	298.03
701.58	297.32
701.92	296.57
702.25	295.90
702.59	295.15
702.92	294.41
703.26	293.67
703.59	292.98
703.93	292.38
704.26	291.75
704.60	291.00
704.93	290.29
705.26	289.62
705.60	289.00
705.93	288.40
706.27	287.94
706.60	287.39
706.94	286.70
707.27	286.02
707.61	285.29
707.94	284.80
708.27	284.05
708.61	283.23
708.94	282.63
709.28	281.99
709.61	281.55
709.94	281.07
710.28	280.43
710.61	279.79
710.95	279.07
711.28	278.67
711.61	278.01
711.95	277.44
712.28	276.88
712.61	276.32
712.95	275.70
713.28	275.21
713.61	274.66
713.95	274.10
714.28	273.59
714.61	273.17
714.95	272.72
715.28	272.14
715.61	271.70
715.95	271.20
716.28	270.70
716.61	270.13
716.95	269.61
717.28	269.17
717.61	268.77
717.94	268.34
718.28	267.79
718.61	267.48
718.94	267.18
719.27	266.76
719.61	266.46
719.94	266.04
720.27	265.56
720.60	265.16
720.94	264.99
721.27	264.72
721.60	264.37
721.93	264.01
722.27	263.87
722.60	263.49
722.93	263.13
723.26	262.80
723.59	262.35
723.93	262.03
724.26	261.85
724.59	261.51
724.92	261.28
725.25	261.05
725.59	260.69
725.92	260.43
726.25	260.26
726.58	260.01
726.91	259.81
727.24	259.53
727.57	259.23
727.91	258.90
728.24	258.58
728.57	258.32
728.90	258.00
729.23	257.58
729.56	257.56
729.89	257.24
730.22	256.97
730.55	256.77
730.89	256.48
731.22	256.06
731.55	255.86
731.88	255.63
732.21	255.30
732.54	255.06
732.87	254.68
733.20	254.38
733.53	254.18
733.86	253.91
734.19	253.67
734.52	253.63
734.85	253.44
735.18	253.22
735.51	253.02
735.84	252.79
736.17	252.66
736.50	252.29
736.83	252.35
737.16	252.08
737.49	251.83
737.82	251.63
738.15	251.58
738.48	251.17
738.81	250.86
739.14	250.60
739.47	250.36
739.80	250.18
740.13	249.96
740.46	249.59
740.79	249.25
741.12	248.92
741.45	248.48
741.78	248.20
742.11	247.90
742.44	247.63
742.77	247.38
743.10	247.08
743.43	246.86
743.75	246.33
744.08	246.35
744.41	246.11
744.74	245.82
745.07	245.44
745.40	245.35
745.73	245.12
746.06	244.87
746.39	244.60
746.71	244.36
747.04	244.08
747.37	243.81
747.70	243.74
748.03	243.60
748.36	243.41
748.68	243.11
749.01	242.92
749.34	242.73
749.67	242.64
750.00	242.41
750.33	242.31
750.65	242.16
750.98	241.72
751.31	241.60
751.64	241.52
751.97	241.58
752.29	241.40
752.62	241.30
752.95	241.21
753.28	241.08
753.60	240.87
753.93	240.79
754.26	240.68
754.59	240.45
754.91	240.30
755.24	240.30
755.57	240.16
755.90	240.03
756.22	239.95
756.55	239.80
756.88	239.74
757.20	239.50
757.53	239.30
757.86	239.16
758.19	239.08
758.51	238.93
758.84	238.63
759.17	238.60
759.49	238.55
759.82	238.53
760.15	238.47
760.47	238.44
760.80	238.42
761.13	238.42
761.45	238.30
761.78	238.25
762.11	238.03
762.43	237.95
762.76	237.87
763.08	237.79
763.41	237.70
763.74	237.57
764.06	237.44
764.39	237.38
764.71	237.42
765.04	237.27
765.37	237.23
765.69	237.15
766.02	237.08
766.34	236.96
766.67	236.86
767.00	236.88
767.32	236.91
767.65	236.94
767.97	236.80
768.30	236.71
768.62	236.61
768.95	236.60
769.27	236.60
769.60	236.62
769.92	236.51
770.25	236.38
770.57	236.33
770.90	236.33
771.22	236.34
771.55	236.23
771.87	236.32
772.20	236.20
772.52	236.36
772.85	236.51
773.17	236.41
773.50	236.27
773.82	236.06
774.15	235.90
774.47	235.63
774.80	235.57
775.12	235.51
775.45	235.48
775.77	235.45
776.09	235.34
776.42	235.20
776.74	235.17
777.07	235.11
777.39	235.12
777.72	234.92
778.04	234.84
778.36	234.75
778.69	234.56
779.01	234.59
779.33	234.33
779.66	233.98
779.98	233.96
780.31	233.88
780.63	233.90
780.95	233.86
781.28	233.75
781.60	233.70
781.92	233.64
782.25	233.61
782.57	233.46
782.89	233.39
783.22	233.27
783.54	233.17
783.86	233.06
784.19	232.91
784.51	232.99
784.83	232.96
785.16	232.84
785.48	232.79
785.80	232.70
786.12	232.62
786.45	232.55
786.77	232.38
787.09	232.31
787.42	232.19
787.74	232.07
788.06	231.99
788.38	231.94
788.71	231.83
789.03	231.71
789.35	231.68
789.67	231.57
789.99	231.58
790.32	231.53
790.64	231.47
790.96	231.62
791.28	231.52
791.61	231.33
791.93	231.33
792.25	231.27
792.57	231.35
792.89	231.30
793.21	231.27
793.54	231.29
793.86	231.32
794.18	231.25
