SpectraSuite Data File
++++++++++++++++++++++++++++++++++++
Date: Fri Feb 01 14:37:54 EST 2013
User: group
Dark Spectrum Present: No
Reference Spectrum Present: No
Number of Sampled Component Spectra: 1
Spectrometers: USB2E7196
Integration Time (usec): 70000 (USB2E7196)
Spectra Averaged: 10 (USB2E7196)
Boxcar Smoothing: 10 (USB2E7196)
Correct for Electrical Dark: No (USB2E7196)
Strobe/Lamp Enabled: No (USB2E7196)
Correct for Detector Non-linearity: No (USB2E7196)
Correct for Stray Light: No (USB2E7196)
Number of Pixels in Processed Spectrum: 2048
>>>>>Begin Processed Spectral Data<<<<<
339.09	0.00
339.48	215.20
339.86	216.70
340.24	220.30
340.63	220.40
341.01	224.50
341.39	223.40
341.78	223.80
342.16	226.60
342.54	227.40
342.93	214.47
343.31	225.40
343.69	225.90
344.07	226.43
344.46	226.78
344.84	227.10
345.22	227.17
345.60	227.40
345.99	227.54
346.37	227.57
346.75	227.52
347.13	227.45
347.52	227.52
347.90	227.60
348.28	227.63
348.66	227.65
349.05	227.60
349.43	227.70
349.81	227.77
350.19	227.70
350.57	227.74
350.96	227.75
351.34	227.77
351.72	227.87
352.10	227.94
352.48	227.97
352.87	228.13
353.25	228.24
353.63	228.23
354.01	228.37
354.39	228.50
354.77	228.63
355.15	228.79
355.54	228.86
355.92	228.86
356.30	228.97
356.68	229.18
357.06	229.29
357.44	229.22
357.82	229.27
358.20	229.35
358.58	229.35
358.97	229.42
359.35	229.45
359.73	229.48
360.11	229.42
360.49	229.51
360.87	229.45
361.25	229.52
361.63	229.60
362.01	229.66
362.39	229.73
362.77	229.81
363.15	229.92
363.53	229.95
363.91	230.03
364.29	230.09
364.67	229.98
365.05	229.96
365.43	230.19
365.81	230.18
366.19	230.36
366.57	230.43
366.95	230.50
367.33	230.48
367.71	230.60
368.09	230.72
368.47	230.73
368.85	230.77
369.23	230.80
369.61	230.69
369.99	230.71
370.37	230.53
370.75	230.51
371.13	230.35
371.51	230.24
371.89	230.23
372.27	230.10
372.65	230.02
373.03	229.93
373.41	229.67
373.78	229.63
374.16	229.40
374.54	229.29
374.92	229.11
375.30	229.02
375.68	228.92
376.06	228.77
376.44	228.65
376.82	228.50
377.19	228.40
377.57	228.37
377.95	228.14
378.33	228.13
378.71	227.93
379.09	227.97
379.47	227.99
379.84	227.85
380.22	227.79
380.60	227.76
380.98	227.84
381.36	227.76
381.73	227.58
382.11	227.57
382.49	227.46
382.87	227.36
383.25	227.28
383.62	227.34
384.00	227.30
384.38	227.19
384.76	227.11
385.13	227.05
385.51	226.96
385.89	226.90
386.27	226.77
386.64	226.70
387.02	226.47
387.40	226.30
387.78	226.20
388.15	226.12
388.53	225.98
388.91	225.81
389.29	225.79
389.66	225.80
390.04	225.69
390.42	225.72
390.79	225.80
391.17	225.81
391.55	225.63
391.92	225.57
392.30	225.57
392.68	225.66
393.05	225.64
393.43	225.69
393.81	225.75
394.18	225.83
394.56	225.91
394.94	226.09
395.31	226.13
395.69	226.26
396.06	226.28
396.44	226.40
396.82	226.44
397.19	226.60
397.57	226.67
397.95	226.78
398.32	226.87
398.70	226.93
399.07	227.04
399.45	227.14
399.82	227.33
400.20	227.40
400.58	227.51
400.95	227.64
401.33	227.86
401.70	228.12
402.08	228.22
402.45	228.37
402.83	228.50
403.20	228.66
403.58	228.80
403.95	229.14
404.33	229.35
404.71	229.59
405.08	229.86
405.46	230.08
405.83	230.34
406.21	230.46
406.58	230.66
406.96	230.78
407.33	231.06
407.70	231.30
408.08	231.76
408.45	231.99
408.83	232.32
409.20	232.57
409.58	232.74
409.95	233.11
410.33	233.52
410.70	233.90
411.08	234.35
411.45	234.72
411.82	235.10
412.20	235.58
412.57	236.09
412.95	236.46
413.32	237.04
413.69	237.63
414.07	238.30
414.44	238.97
414.82	239.71
415.19	240.39
415.56	241.15
415.94	241.88
416.31	242.80
416.68	243.63
417.06	244.61
417.43	245.65
417.81	246.76
418.18	247.74
418.55	248.85
418.93	250.07
419.30	251.27
419.67	252.62
420.04	254.12
420.42	255.60
420.79	257.37
421.16	258.98
421.54	260.72
421.91	262.41
422.28	264.28
422.66	266.28
423.03	268.40
423.40	270.38
423.77	272.53
424.15	274.58
424.52	276.94
424.89	279.29
425.26	281.60
425.64	283.79
426.01	286.23
426.38	288.85
426.75	291.40
427.13	294.27
427.50	297.05
427.87	299.76
428.24	302.71
428.61	305.47
428.99	308.57
429.36	311.83
429.73	315.30
430.10	318.60
430.47	321.90
430.85	325.11
431.22	328.68
431.59	332.61
431.96	336.44
432.33	340.35
432.70	344.40
433.08	349.02
433.45	353.45
433.82	357.80
434.19	362.64
434.56	367.49
434.93	371.84
435.30	376.32
435.68	381.23
436.05	385.96
436.42	390.80
436.79	395.03
437.16	399.85
437.53	404.66
437.90	409.58
438.27	414.29
438.64	419.48
439.01	424.12
439.38	428.01
439.75	431.70
440.13	436.30
440.50	440.56
440.87	444.20
441.24	447.76
441.61	451.87
441.98	454.82
442.35	458.22
442.72	461.85
443.09	465.41
443.46	467.68
443.83	469.29
444.20	470.56
444.57	472.80
444.94	473.62
445.31	474.83
445.68	475.87
446.05	476.64
446.42	476.29
446.79	476.37
447.16	476.14
447.53	476.33
447.90	475.07
448.27	473.78
448.64	471.52
449.01	470.13
449.37	467.33
449.74	464.55
450.11	461.12
450.48	457.53
450.85	453.74
451.22	450.64
451.59	447.48
451.96	444.55
452.33	440.37
452.70	436.89
453.07	432.43
453.43	427.93
453.80	423.47
454.17	419.29
454.54	415.02
454.91	410.75
455.28	406.49
455.65	402.36
456.02	398.35
456.38	395.00
456.75	390.77
457.12	387.26
457.49	383.66
457.86	380.25
458.23	377.19
458.59	373.69
458.96	370.22
459.33	367.30
459.70	364.42
460.07	361.95
460.43	359.11
460.80	356.33
461.17	353.87
461.54	351.53
461.91	349.14
462.27	346.73
462.64	344.66
463.01	342.30
463.38	340.11
463.74	337.70
464.11	335.66
464.48	333.87
464.85	331.86
465.21	330.41
465.58	328.85
465.95	326.77
466.32	325.26
466.68	323.62
467.05	321.97
467.42	320.33
467.78	318.71
468.15	317.13
468.52	316.01
468.88	314.48
469.25	312.94
469.62	311.81
469.98	310.63
470.35	309.43
470.72	308.36
471.08	307.11
471.45	306.14
471.82	304.95
472.18	303.75
472.55	302.85
472.92	301.81
473.28	300.73
473.65	299.93
474.02	299.00
474.38	298.20
474.75	297.47
475.11	296.70
475.48	295.99
475.85	295.30
476.21	294.72
476.58	294.24
476.94	293.82
477.31	293.39
477.67	292.88
478.04	292.43
478.41	292.08
478.77	291.87
479.14	291.43
479.50	291.16
479.87	290.96
480.23	290.69
480.60	290.42
480.96	290.20
481.33	290.11
481.69	289.90
482.06	289.70
482.42	289.62
482.79	289.50
483.15	289.41
483.52	289.45
483.88	289.26
484.25	289.11
484.61	289.06
484.98	288.96
485.34	288.92
485.71	289.02
486.07	289.04
486.44	289.01
486.80	289.10
487.17	289.25
487.53	289.57
487.90	289.84
488.26	290.11
488.62	290.44
488.99	290.59
489.35	290.86
489.72	291.20
490.08	291.41
490.44	291.74
490.81	292.17
491.17	292.47
491.54	292.87
491.90	293.32
492.26	293.81
492.63	294.25
492.99	294.82
493.36	295.32
493.72	295.84
494.08	296.33
494.45	296.90
494.81	297.40
495.17	297.56
495.54	298.04
495.90	298.58
496.26	299.03
496.63	299.54
496.99	300.13
497.35	300.54
497.72	301.18
498.08	301.71
498.44	302.28
498.80	302.88
499.17	303.51
499.53	303.95
499.89	304.50
500.26	304.89
500.62	305.08
500.98	305.46
501.34	305.86
501.71	306.40
502.07	306.80
502.43	307.21
502.79	307.71
503.16	307.95
503.52	308.25
503.88	308.50
504.24	308.92
504.60	309.27
504.97	309.74
505.33	309.95
505.69	310.19
506.05	310.38
506.41	310.64
506.78	310.74
507.14	311.00
507.50	311.18
507.86	311.46
508.22	311.82
508.59	311.99
508.95	312.12
509.31	312.22
509.67	312.49
510.03	312.69
510.39	312.86
510.75	313.05
511.12	313.30
511.48	313.49
511.84	313.50
512.20	313.67
512.56	313.85
512.92	314.01
513.28	314.18
513.64	314.29
514.00	314.43
514.37	314.68
514.73	314.98
515.09	315.20
515.45	315.43
515.81	315.75
516.17	316.12
516.53	316.58
516.89	316.90
517.25	317.24
517.61	317.81
517.97	318.41
518.33	318.99
518.69	319.57
519.05	320.38
519.41	321.24
519.77	322.02
520.13	322.80
520.49	323.73
520.85	324.53
521.21	325.75
521.57	326.78
521.93	327.77
522.29	328.97
522.65	330.16
523.01	331.51
523.37	332.79
523.73	334.18
524.09	335.68
524.45	337.23
524.81	338.90
525.17	340.56
525.53	342.40
525.89	344.29
526.25	346.28
526.61	348.15
526.97	350.12
527.33	352.26
527.68	354.66
528.04	356.95
528.40	359.45
528.76	361.97
529.12	364.63
529.48	367.51
529.84	370.06
530.20	372.89
530.56	375.80
530.91	378.79
531.27	381.97
531.63	384.86
531.99	388.02
532.35	391.21
532.71	394.56
533.07	397.93
533.42	401.65
533.78	405.18
534.14	408.98
534.50	412.90
534.86	416.74
535.21	420.56
535.57	424.54
535.93	428.57
536.29	432.61
536.65	436.77
537.00	440.86
537.36	445.35
537.72	449.52
538.08	454.00
538.44	458.51
538.79	462.97
539.15	467.70
539.51	472.55
539.87	477.30
540.22	482.03
540.58	486.92
540.94	491.60
541.29	496.20
541.65	500.93
542.01	505.89
542.37	510.92
542.72	515.89
543.08	520.81
543.44	525.94
543.79	530.96
544.15	536.23
544.51	541.50
544.87	546.65
545.22	552.12
545.58	557.29
545.94	562.49
546.29	567.64
546.65	572.82
547.01	577.92
547.36	583.07
547.72	588.13
548.07	593.21
548.43	598.36
548.79	603.79
549.14	608.96
549.50	613.96
549.86	619.19
550.21	624.16
550.57	629.57
550.92	634.74
551.28	639.81
551.64	644.82
551.99	649.88
552.35	654.85
552.70	659.64
553.06	665.00
553.41	669.87
553.77	675.06
554.13	680.14
554.48	685.11
554.84	690.45
555.19	695.65
555.55	700.75
555.90	705.49
556.26	710.55
556.61	715.41
556.97	720.30
557.32	725.10
557.68	730.08
558.03	735.04
558.39	739.71
558.74	744.57
559.10	749.39
559.45	754.09
559.81	759.13
560.16	764.03
560.52	768.52
560.87	773.43
561.23	777.86
561.58	782.68
561.94	787.33
562.29	791.44
562.64	795.76
563.00	800.09
563.35	804.91
563.71	809.44
564.06	813.98
564.42	818.20
564.77	822.58
565.12	826.90
565.48	830.91
565.83	835.20
566.19	839.27
566.54	843.20
566.89	846.99
567.25	850.71
567.60	855.02
567.96	858.65
568.31	862.48
568.66	866.34
569.02	869.56
569.37	873.02
569.72	876.67
570.08	879.91
570.43	883.08
570.78	886.09
571.14	888.80
571.49	891.76
571.84	895.11
572.20	897.74
572.55	900.25
572.90	902.70
573.26	905.40
573.61	908.07
573.96	910.38
574.31	912.87
574.67	914.52
575.02	915.97
575.37	918.16
575.72	919.49
576.08	921.07
576.43	922.98
576.78	924.69
577.13	926.39
577.49	928.16
577.84	929.78
578.19	931.06
578.54	932.49
578.90	933.73
579.25	934.52
579.60	935.68
579.95	936.86
580.30	937.70
580.66	938.36
581.01	938.84
581.36	939.60
581.71	940.22
582.06	941.47
582.42	942.16
582.77	942.62
583.12	943.40
583.47	944.07
583.82	944.47
584.17	944.61
584.53	945.10
584.88	945.50
585.23	945.69
585.58	945.90
585.93	946.17
586.28	946.77
586.63	947.14
586.98	947.19
587.34	947.50
587.69	947.96
588.04	948.12
588.39	948.34
588.74	947.93
589.09	947.65
589.44	946.79
589.79	946.46
590.14	946.33
590.49	946.15
590.84	945.51
591.19	945.28
591.54	944.61
591.89	943.27
592.25	942.34
592.60	941.20
592.95	940.30
593.30	939.21
593.65	937.93
594.00	936.75
594.35	936.35
594.70	934.75
595.05	933.34
595.40	931.69
595.75	930.13
596.10	929.18
596.45	928.20
596.80	927.69
597.15	926.53
597.50	925.16
597.85	923.89
598.19	922.81
598.54	921.39
598.89	920.34
599.24	919.68
599.59	918.40
599.94	917.36
600.29	916.04
600.64	914.41
600.99	912.62
601.34	911.38
601.69	909.18
602.04	907.91
602.39	906.38
602.74	905.47
603.08	904.33
603.43	903.00
603.78	901.72
604.13	900.06
604.48	898.53
604.83	896.80
605.18	895.05
605.53	893.00
605.87	890.99
606.22	889.21
606.57	886.92
606.92	884.98
607.27	883.28
607.62	881.71
607.96	880.22
608.31	878.42
608.66	876.03
609.01	873.71
609.36	871.14
609.70	868.55
610.05	865.72
610.40	863.39
610.75	860.68
611.10	857.79
611.44	854.77
611.79	852.17
612.14	849.58
612.49	846.55
612.83	843.70
613.18	840.90
613.53	838.15
613.88	835.27
614.22	832.46
614.57	829.45
614.92	826.57
615.27	823.84
615.61	820.94
615.96	818.33
616.31	816.14
616.65	814.06
617.00	811.64
617.35	809.08
617.70	806.01
618.04	803.01
618.39	800.40
618.74	797.98
619.08	795.10
619.43	792.30
619.78	789.76
620.12	787.33
620.47	784.75
620.82	781.73
621.16	779.02
621.51	776.51
621.85	773.84
622.20	770.51
622.55	767.47
622.89	765.00
623.24	762.33
623.59	759.47
623.93	756.60
624.28	753.94
624.62	751.45
624.97	749.01
625.32	746.70
625.66	743.91
626.01	741.05
626.35	738.48
626.70	735.85
627.04	733.46
627.39	730.72
627.73	727.83
628.08	725.34
628.43	722.50
628.77	719.57
629.12	716.80
629.46	714.22
629.81	711.30
630.15	708.07
630.50	705.10
630.84	701.88
631.19	698.77
631.53	695.65
631.88	692.35
632.22	688.96
632.57	685.97
632.91	682.78
633.26	679.80
633.60	676.70
633.95	673.59
634.29	670.70
634.64	667.77
634.98	664.96
635.32	662.15
635.67	659.67
636.01	657.10
636.36	654.19
636.70	651.57
637.05	649.02
637.39	646.70
637.73	643.93
638.08	641.65
638.42	639.35
638.77	637.00
639.11	634.29
639.45	631.87
639.80	629.23
640.14	626.71
640.49	624.08
640.83	621.49
641.17	619.00
641.52	616.25
641.86	613.69
642.20	611.27
642.55	608.33
642.89	605.63
643.23	602.72
643.58	600.38
643.92	597.60
644.26	594.93
644.61	592.47
644.95	590.01
645.29	587.15
645.64	584.11
645.98	581.23
646.32	578.80
646.66	576.07
647.01	573.25
647.35	570.67
647.69	568.07
648.04	565.67
648.38	563.01
648.72	560.17
649.06	557.19
649.41	554.41
649.75	551.88
650.09	549.22
650.43	546.57
650.78	543.53
651.12	540.85
651.46	538.18
651.80	535.40
652.14	532.63
652.49	530.01
652.83	527.61
653.17	525.03
653.51	522.25
653.85	519.73
654.20	517.36
654.54	514.76
654.88	512.06
655.22	509.21
655.56	506.57
655.90	504.22
656.25	501.96
656.59	499.75
656.93	497.57
657.27	495.24
657.61	492.76
657.95	490.68
658.29	488.39
658.64	485.99
658.98	483.27
659.32	480.71
659.66	478.20
660.00	475.65
660.34	473.36
660.68	471.20
661.02	468.77
661.36	466.41
661.70	464.35
662.05	462.45
662.39	460.47
662.73	458.30
663.07	456.23
663.41	454.25
663.75	452.00
664.09	449.73
664.43	447.66
664.77	445.69
665.11	443.57
665.45	441.77
665.79	439.85
666.13	438.10
666.47	436.40
666.81	434.50
667.15	432.55
667.49	430.75
667.83	428.98
668.17	427.28
668.51	425.42
668.85	423.49
669.19	421.68
669.53	419.90
669.87	418.17
670.21	416.34
670.55	414.70
670.89	413.18
671.23	411.43
671.57	409.69
671.91	408.20
672.25	406.50
672.58	404.98
672.92	403.39
673.26	401.94
673.60	400.43
673.94	399.03
674.28	397.74
674.62	396.24
674.96	394.66
675.30	393.15
675.64	391.80
675.97	390.30
676.31	388.83
676.65	387.36
676.99	385.90
677.33	384.34
677.67	382.75
678.01	380.94
678.34	379.56
678.68	378.26
679.02	376.61
679.36	375.45
679.70	373.92
680.04	372.56
680.37	371.00
680.71	369.59
681.05	368.24
681.39	366.88
681.73	365.51
682.06	364.27
682.40	363.00
682.74	361.70
683.08	360.70
683.42	359.32
683.75	358.01
684.09	356.83
684.43	355.73
684.77	354.52
685.10	353.38
685.44	352.07
685.78	350.75
686.12	349.70
686.45	348.21
686.79	346.88
687.13	345.79
687.46	344.60
687.80	343.42
688.14	342.29
688.48	341.11
688.81	339.90
689.15	338.76
689.49	337.54
689.82	336.46
690.16	335.05
690.50	334.04
690.83	332.93
691.17	331.70
691.51	330.60
691.84	329.52
692.18	328.52
692.52	327.52
692.85	326.53
693.19	325.41
693.52	324.43
693.86	323.39
694.20	322.19
694.53	321.18
694.87	320.12
695.21	318.81
695.54	317.71
695.88	316.77
696.21	315.65
696.55	314.60
696.88	313.60
697.22	312.64
697.56	311.66
697.89	310.70
698.23	309.72
698.56	308.78
698.90	307.79
699.23	306.68
699.57	305.83
699.90	304.90
700.24	303.98
700.58	303.09
700.91	302.35
701.25	301.72
701.58	300.98
701.92	300.24
702.25	299.58
702.59	298.81
702.92	298.00
703.26	297.34
703.59	296.75
703.93	296.07
704.26	295.41
704.60	294.70
704.93	294.13
705.26	293.48
705.60	292.72
705.93	292.11
706.27	291.60
706.60	290.92
706.94	290.30
707.27	289.70
707.61	289.04
707.94	288.34
708.27	287.53
708.61	286.80
708.94	286.14
709.28	285.54
709.61	285.01
709.94	284.53
710.28	283.99
710.61	283.42
710.95	282.71
711.28	282.22
711.61	281.50
711.95	280.79
712.28	280.26
712.61	279.63
712.95	279.21
713.28	278.80
713.61	278.18
713.95	277.56
714.28	277.04
714.61	276.52
714.95	276.00
715.28	275.44
715.61	274.85
715.95	274.39
716.28	273.80
716.61	273.34
716.95	272.78
717.28	272.22
717.61	271.76
717.94	271.45
718.28	270.83
718.61	270.48
718.94	270.07
719.27	269.72
719.61	269.40
719.94	268.99
720.27	268.42
720.60	268.04
720.94	267.75
721.27	267.28
721.60	266.91
721.93	266.62
722.27	266.36
722.60	266.07
722.93	265.70
723.26	265.41
723.59	264.85
723.93	264.39
724.26	264.02
724.59	263.64
724.92	263.14
725.25	262.95
725.59	262.57
725.92	262.21
726.25	261.78
726.58	261.44
726.91	260.98
727.24	260.73
727.57	260.37
727.91	259.95
728.24	259.69
728.57	259.28
728.90	258.85
729.23	258.45
729.56	258.22
729.89	257.81
730.22	257.49
730.55	257.15
730.89	256.91
731.22	256.60
731.55	256.28
731.88	255.95
732.21	255.49
732.54	255.26
732.87	254.90
733.20	254.63
733.53	254.38
733.86	254.03
734.19	253.74
734.52	253.53
734.85	253.36
735.18	253.04
735.51	252.95
735.84	252.70
736.17	252.44
736.50	252.00
736.83	252.01
737.16	251.72
737.49	251.60
737.82	251.32
738.15	251.11
738.48	250.87
738.81	250.67
739.14	250.55
739.47	250.33
739.80	250.22
740.13	249.97
740.46	249.71
740.79	249.54
741.12	249.31
741.45	249.11
741.78	248.85
742.11	248.78
742.44	248.49
742.77	248.37
743.10	248.12
743.43	248.00
743.75	247.55
744.08	247.60
744.41	247.37
744.74	247.22
745.07	246.98
745.40	246.82
745.73	246.80
746.06	246.51
746.39	246.31
746.71	246.04
747.04	245.92
747.37	245.76
747.70	245.62
748.03	245.40
748.36	245.23
748.68	245.01
749.01	244.80
749.34	244.62
749.67	244.40
750.00	244.31
750.33	244.30
750.65	244.28
750.98	244.01
751.31	243.86
751.64	243.74
751.97	243.75
752.29	243.50
752.62	243.26
752.95	243.15
753.28	243.04
753.60	242.98
753.93	242.81
754.26	242.61
754.59	242.46
754.91	242.25
755.24	242.03
755.57	241.89
755.90	241.71
756.22	241.48
756.55	241.39
756.88	241.20
757.20	240.82
757.53	240.59
757.86	240.46
758.19	240.39
758.51	240.22
758.84	239.97
759.17	239.95
759.49	239.79
759.82	239.72
760.15	239.59
760.47	239.39
760.80	239.17
761.13	239.05
761.45	238.95
761.78	238.97
762.11	238.94
762.43	238.80
762.76	238.65
763.08	238.67
763.41	238.50
763.74	238.46
764.06	238.31
764.39	238.21
764.71	238.06
765.04	237.87
765.37	237.77
765.69	237.69
766.02	237.41
766.34	237.21
766.67	237.00
767.00	236.90
767.32	236.96
767.65	237.10
767.97	236.99
768.30	236.84
768.62	236.65
768.95	236.52
769.27	236.40
769.60	236.34
769.92	236.13
770.25	235.98
770.57	235.77
770.90	235.77
771.22	235.53
771.55	235.37
771.87	235.32
772.20	235.20
772.52	235.05
772.85	235.23
773.17	235.15
773.50	235.06
773.82	234.88
774.15	234.63
774.47	234.30
774.80	234.25
775.12	234.00
775.45	233.84
775.77	233.73
776.09	233.75
776.42	233.66
776.74	233.63
777.07	233.57
777.39	233.51
777.72	233.48
778.04	233.50
778.36	233.51
778.69	233.37
779.01	233.30
779.33	233.21
779.66	233.04
779.98	232.93
780.31	232.92
780.63	233.01
780.95	232.99
781.28	232.98
781.60	232.94
781.92	233.01
782.25	233.00
782.57	232.94
782.89	232.86
783.22	232.73
783.54	232.68
783.86	232.70
784.19	232.68
784.51	232.65
784.83	232.61
785.16	232.49
785.48	232.48
785.80	232.49
786.12	232.52
786.45	232.38
786.77	232.49
787.09	232.42
787.42	232.30
787.74	232.26
788.06	232.31
788.38	232.30
788.71	232.20
789.03	232.24
789.35	232.30
789.67	232.22
789.99	232.28
790.32	232.24
790.64	232.23
790.96	232.37
791.28	232.29
791.61	232.26
791.93	232.30
792.25	232.39
792.57	232.50
792.89	232.52
793.21	232.55
793.54	232.49
793.86	232.44
794.18	232.47
