SpectraSuite Data File
++++++++++++++++++++++++++++++++++++
Date: Fri Feb 01 14:41:00 EST 2013
User: group
Dark Spectrum Present: No
Reference Spectrum Present: No
Number of Sampled Component Spectra: 1
Spectrometers: USB2E7196
Integration Time (usec): 70000 (USB2E7196)
Spectra Averaged: 10 (USB2E7196)
Boxcar Smoothing: 10 (USB2E7196)
Correct for Electrical Dark: No (USB2E7196)
Strobe/Lamp Enabled: No (USB2E7196)
Correct for Detector Non-linearity: No (USB2E7196)
Correct for Stray Light: No (USB2E7196)
Number of Pixels in Processed Spectrum: 2048
>>>>>Begin Processed Spectral Data<<<<<
339.09	0.00
339.48	214.90
339.86	215.20
340.24	219.60
340.63	218.40
341.01	224.60
341.39	223.60
341.78	223.60
342.16	224.10
342.54	226.00
342.93	214.01
343.31	224.82
343.69	225.45
344.07	225.91
344.46	226.36
344.84	226.94
345.22	227.05
345.60	227.31
345.99	227.60
346.37	227.77
346.75	227.85
347.13	227.90
347.52	228.08
347.90	228.14
348.28	228.21
348.66	228.28
349.05	228.21
349.43	228.28
349.81	228.38
350.19	228.47
350.57	228.59
350.96	228.71
351.34	228.91
351.72	229.01
352.10	229.13
352.48	229.06
352.87	229.01
353.25	229.23
353.63	229.28
354.01	229.32
354.39	229.36
354.77	229.57
355.15	229.71
355.54	229.71
355.92	229.69
356.30	229.79
356.68	229.95
357.06	230.10
357.44	230.18
357.82	230.32
358.20	230.48
358.58	230.43
358.97	230.43
359.35	230.46
359.73	230.50
360.11	230.64
360.49	230.81
360.87	230.83
361.25	230.81
361.63	230.88
362.01	230.90
362.39	231.06
362.77	230.99
363.15	230.96
363.53	231.10
363.91	231.10
364.29	231.13
364.67	230.99
365.05	231.13
365.43	231.04
365.81	230.96
366.19	231.00
366.57	231.10
366.95	231.10
367.33	231.02
367.71	231.04
368.09	231.06
368.47	231.03
368.85	231.10
369.23	231.19
369.61	231.20
369.99	231.21
370.37	231.20
370.75	231.31
371.13	231.22
371.51	231.09
371.89	231.08
372.27	231.04
372.65	231.05
373.03	230.88
373.41	230.83
373.78	230.82
374.16	230.66
374.54	230.55
374.92	230.46
375.30	230.40
375.68	230.27
376.06	230.15
376.44	230.07
376.82	229.97
377.19	229.75
377.57	229.57
377.95	229.42
378.33	229.32
378.71	229.08
379.09	229.00
379.47	228.94
379.84	228.81
380.22	228.73
380.60	228.65
380.98	228.59
381.36	228.60
381.73	228.48
382.11	228.42
382.49	228.36
382.87	228.31
383.25	228.18
383.62	228.31
384.00	228.26
384.38	228.03
384.76	227.96
385.13	228.00
385.51	227.96
385.89	227.91
386.27	227.73
386.64	227.73
387.02	227.65
387.40	227.67
387.78	227.65
388.15	227.57
388.53	227.60
388.91	227.52
389.29	227.49
389.66	227.50
390.04	227.55
390.42	227.63
390.79	227.62
391.17	227.77
391.55	227.63
391.92	227.70
392.30	227.87
392.68	227.82
393.05	227.96
393.43	227.85
393.81	227.89
394.18	227.99
394.56	227.93
394.94	228.04
395.31	228.03
395.69	228.19
396.06	228.22
396.44	228.29
396.82	228.35
397.19	228.48
397.57	228.51
397.95	228.53
398.32	228.40
398.70	228.53
399.07	228.62
399.45	228.63
399.82	228.63
400.20	228.69
400.58	228.88
400.95	228.77
401.33	229.03
401.70	229.25
402.08	229.33
402.45	229.53
402.83	229.71
403.20	229.87
403.58	229.91
403.95	230.13
404.33	230.20
404.71	230.35
405.08	230.54
405.46	230.63
405.83	230.85
406.21	231.05
406.58	231.14
406.96	231.33
407.33	231.61
407.70	231.91
408.08	232.26
408.45	232.44
408.83	232.80
409.20	233.10
409.58	233.26
409.95	233.52
410.33	233.84
410.70	234.03
411.08	234.32
411.45	234.62
411.82	234.83
412.20	235.17
412.57	235.70
412.95	236.04
413.32	236.68
413.69	237.04
414.07	237.57
414.44	238.17
414.82	238.54
415.19	239.08
415.56	239.59
415.94	240.09
416.31	240.82
416.68	241.44
417.06	242.15
417.43	242.81
417.81	243.77
418.18	244.59
418.55	245.57
418.93	246.35
419.30	247.31
419.67	248.49
420.04	249.57
420.42	250.53
420.79	251.94
421.16	253.11
421.54	254.47
421.91	255.75
422.28	256.98
422.66	258.44
423.03	259.99
423.40	261.47
423.77	262.97
424.15	264.48
424.52	266.04
424.89	267.81
425.26	269.65
425.64	271.18
426.01	272.94
426.38	274.81
426.75	276.91
427.13	278.76
427.50	280.62
427.87	282.62
428.24	284.64
428.61	286.43
428.99	288.62
429.36	290.87
429.73	293.16
430.10	295.41
430.47	297.74
430.85	299.92
431.22	302.40
431.59	305.12
431.96	307.48
432.33	310.26
432.70	312.84
433.08	315.79
433.45	318.66
433.82	321.51
434.19	324.57
434.56	327.52
434.93	330.52
435.30	333.43
435.68	336.62
436.05	339.80
436.42	342.77
436.79	345.30
437.16	348.30
437.53	351.30
437.90	354.44
438.27	357.37
438.64	360.63
439.01	363.37
439.38	365.77
439.75	368.26
440.13	370.86
440.50	373.46
440.87	375.50
441.24	377.55
441.61	379.97
441.98	381.62
442.35	383.65
442.72	385.58
443.09	387.59
443.46	388.78
443.83	389.46
444.20	390.04
444.57	391.11
444.94	391.35
445.31	391.79
445.68	392.22
446.05	392.29
446.42	391.62
446.79	391.28
447.16	390.66
447.53	390.28
447.90	389.11
448.27	387.74
448.64	386.01
449.01	384.79
449.37	382.55
449.74	380.40
450.11	378.05
450.48	375.35
450.85	372.48
451.22	370.12
451.59	367.92
451.96	365.81
452.33	362.89
452.70	360.30
453.07	357.13
453.43	353.74
453.80	350.80
454.17	348.01
454.54	345.03
454.91	342.13
455.28	339.01
455.65	336.19
456.02	333.59
456.38	331.19
456.75	328.36
457.12	325.84
457.49	323.43
457.86	320.97
458.23	318.91
458.59	316.64
458.96	314.18
459.33	312.01
459.70	310.03
460.07	308.40
460.43	306.57
460.80	304.79
461.17	303.24
461.54	301.47
461.91	299.76
462.27	298.21
462.64	296.79
463.01	295.40
463.38	293.96
463.74	292.38
464.11	291.11
464.48	289.92
464.85	288.54
465.21	287.61
465.58	286.44
465.95	285.03
466.32	283.96
466.68	282.93
467.05	281.90
467.42	280.74
467.78	279.53
468.15	278.42
468.52	277.67
468.88	276.77
469.25	275.79
469.62	275.00
469.98	274.17
470.35	273.51
470.72	272.84
471.08	272.02
471.45	271.41
471.82	270.69
472.18	269.81
472.55	269.29
472.92	268.53
473.28	267.84
473.65	267.40
474.02	266.85
474.38	266.26
474.75	265.79
475.11	265.30
475.48	265.00
475.85	264.53
476.21	264.02
476.58	263.62
476.94	263.34
477.31	263.00
477.67	262.70
478.04	262.30
478.41	261.94
478.77	261.84
479.14	261.38
479.50	261.10
479.87	260.92
480.23	260.69
480.60	260.46
480.96	260.41
481.33	260.38
481.69	260.29
482.06	260.28
482.42	260.21
482.79	260.24
483.15	260.20
483.52	260.45
483.88	260.54
484.25	260.58
484.61	260.68
484.98	260.77
485.34	261.05
485.71	261.29
486.07	261.65
486.44	261.72
486.80	262.11
487.17	262.52
487.53	263.15
487.90	263.72
488.26	264.30
488.62	264.79
488.99	265.21
489.35	265.78
489.72	266.37
490.08	266.97
490.44	267.50
490.81	268.40
491.17	269.05
491.54	270.10
491.90	271.17
492.26	272.27
492.63	273.39
492.99	274.46
493.36	275.72
493.72	276.92
494.08	278.35
494.45	279.76
494.81	281.35
495.17	282.83
495.54	284.60
495.90	286.33
496.26	288.23
496.63	290.20
496.99	292.37
497.35	294.72
497.72	297.09
498.08	299.59
498.44	302.06
498.80	304.89
499.17	307.50
499.53	310.25
499.89	313.28
500.26	316.30
500.62	319.67
500.98	323.05
501.34	326.68
501.71	330.44
502.07	334.31
502.43	338.33
502.79	342.47
503.16	346.73
503.52	351.24
503.88	355.94
504.24	360.89
504.60	365.91
504.97	371.02
505.33	376.48
505.69	382.23
506.05	387.94
506.41	393.85
506.78	400.09
507.14	406.41
507.50	413.14
507.86	420.18
508.22	427.03
508.59	434.11
508.95	441.51
509.31	449.20
509.67	457.25
510.03	465.10
510.39	473.39
510.75	481.97
511.12	490.74
511.48	499.65
511.84	508.95
512.20	518.37
512.56	528.16
512.92	537.82
513.28	547.68
513.64	558.14
514.00	568.52
514.37	579.40
514.73	590.39
515.09	601.50
515.45	612.83
515.81	624.50
516.17	636.15
516.53	648.19
516.89	660.24
517.25	672.24
517.61	684.73
517.97	697.31
518.33	709.74
518.69	722.60
519.05	735.62
519.41	748.84
519.77	762.68
520.13	776.36
520.49	790.23
520.85	804.33
521.21	818.02
521.57	832.50
521.93	846.46
522.29	861.12
522.65	875.33
523.01	889.82
523.37	904.27
523.73	919.26
524.09	934.15
524.45	949.22
524.81	964.62
525.17	980.36
525.53	996.06
525.89	1012.12
526.25	1028.10
526.61	1043.91
526.97	1059.99
527.33	1075.78
527.68	1091.90
528.04	1108.30
528.40	1124.54
528.76	1141.04
529.12	1157.40
529.48	1174.03
529.84	1190.15
530.20	1206.94
530.56	1224.11
530.91	1241.44
531.27	1258.85
531.63	1275.56
531.99	1292.32
532.35	1308.90
532.71	1324.71
533.07	1341.51
533.42	1358.06
533.78	1374.29
534.14	1391.24
534.50	1407.07
534.86	1423.43
535.21	1439.24
535.57	1455.59
535.93	1471.71
536.29	1488.03
536.65	1504.37
537.00	1520.20
537.36	1536.25
537.72	1551.85
538.08	1567.19
538.44	1582.51
538.79	1597.56
539.15	1612.72
539.51	1628.03
539.87	1643.67
540.22	1659.45
540.58	1674.62
540.94	1689.45
541.29	1704.57
541.65	1718.54
542.01	1733.60
542.37	1747.73
542.72	1762.16
543.08	1776.01
543.44	1790.40
543.79	1803.42
544.15	1816.51
544.51	1830.56
544.87	1844.27
545.22	1857.35
545.58	1870.00
545.94	1882.10
546.29	1893.88
546.65	1905.70
547.01	1917.11
547.36	1928.18
547.72	1939.16
548.07	1950.03
548.43	1960.97
548.79	1971.37
549.14	1981.80
549.50	1991.80
549.86	2001.56
550.21	2011.00
550.57	2020.71
550.92	2029.78
551.28	2039.42
551.64	2048.37
551.99	2057.18
552.35	2065.31
552.70	2074.29
553.06	2083.10
553.41	2092.22
553.77	2101.23
554.13	2109.61
554.48	2118.18
554.84	2126.25
555.19	2134.40
555.55	2141.93
555.90	2149.09
556.26	2156.30
556.61	2163.76
556.97	2171.00
557.32	2178.40
557.68	2185.43
558.03	2191.89
558.39	2198.41
558.74	2205.21
559.10	2211.79
559.45	2217.94
559.81	2225.25
560.16	2231.00
560.52	2236.99
560.87	2242.71
561.23	2247.46
561.58	2253.18
561.94	2258.56
562.29	2262.74
562.64	2267.30
563.00	2271.76
563.35	2277.16
563.71	2282.62
564.06	2287.79
564.42	2292.31
564.77	2296.65
565.12	2301.33
565.48	2305.83
565.83	2309.29
566.19	2312.92
566.54	2315.91
566.89	2318.78
567.25	2321.18
567.60	2324.60
567.96	2327.09
568.31	2329.47
568.66	2332.08
569.02	2334.79
569.37	2336.47
569.72	2339.29
570.08	2340.83
570.43	2342.48
570.78	2342.83
571.14	2342.59
571.49	2343.03
571.84	2344.17
572.20	2344.40
572.55	2344.07
572.90	2343.40
573.26	2343.58
573.61	2342.86
573.96	2342.24
574.31	2341.01
574.67	2339.01
575.02	2337.26
575.37	2335.79
575.72	2333.21
576.08	2331.13
576.43	2328.46
576.78	2326.67
577.13	2324.61
577.49	2322.77
577.84	2320.66
578.19	2318.55
578.54	2315.97
578.90	2312.24
579.25	2308.33
579.60	2304.10
579.95	2300.13
580.30	2296.42
580.66	2292.36
581.01	2288.29
581.36	2284.80
581.71	2281.03
582.06	2277.44
582.42	2272.63
582.77	2267.67
583.12	2262.94
583.47	2259.05
583.82	2254.57
584.17	2249.12
584.53	2244.19
584.88	2239.65
585.23	2234.55
585.58	2229.78
585.93	2225.61
586.28	2221.39
586.63	2217.06
586.98	2213.26
587.34	2208.84
587.69	2204.14
588.04	2199.25
588.39	2194.67
588.74	2188.50
589.09	2182.84
589.44	2176.79
589.79	2172.12
590.14	2167.39
590.49	2162.48
590.84	2156.74
591.19	2151.34
591.54	2145.41
591.89	2138.50
592.25	2131.98
592.60	2125.06
592.95	2117.82
593.30	2110.66
593.65	2103.83
594.00	2096.74
594.35	2090.20
594.70	2083.16
595.05	2076.65
595.40	2069.46
595.75	2062.26
596.10	2056.32
596.45	2050.19
596.80	2044.47
597.15	2038.27
597.50	2031.37
597.85	2025.18
598.19	2019.06
598.54	2012.51
598.89	2006.60
599.24	2001.27
599.59	1995.03
599.94	1989.34
600.29	1983.65
600.64	1977.36
600.99	1970.42
601.34	1963.93
601.69	1956.72
602.04	1950.52
602.39	1943.79
602.74	1937.99
603.08	1932.11
603.43	1926.00
603.78	1919.33
604.13	1912.56
604.48	1905.45
604.83	1898.47
605.18	1891.50
605.53	1883.47
605.87	1875.73
606.22	1868.54
606.57	1861.04
606.92	1853.70
607.27	1846.49
607.62	1839.38
607.96	1832.21
608.31	1825.54
608.66	1818.05
609.01	1810.26
609.36	1801.70
609.70	1792.94
610.05	1784.22
610.40	1776.05
610.75	1767.04
611.10	1758.76
611.44	1749.72
611.79	1741.28
612.14	1733.41
612.49	1724.27
612.83	1715.87
613.18	1707.42
613.53	1699.01
613.88	1690.23
614.22	1681.72
614.57	1672.94
614.92	1664.13
615.27	1656.09
615.61	1647.16
615.96	1638.70
616.31	1631.09
616.65	1624.02
617.00	1616.49
617.35	1608.72
617.70	1600.03
618.04	1591.63
618.39	1583.32
618.74	1575.53
619.08	1567.28
619.43	1559.20
619.78	1551.73
620.12	1544.10
620.47	1536.12
620.82	1527.73
621.16	1519.78
621.51	1511.74
621.85	1503.58
622.20	1495.11
622.55	1486.82
622.89	1479.17
623.24	1471.47
623.59	1463.24
623.93	1455.29
624.28	1447.78
624.62	1439.69
624.97	1432.24
625.32	1425.47
625.66	1418.35
626.01	1410.78
626.35	1402.99
626.70	1394.90
627.04	1387.74
627.39	1379.63
627.73	1372.25
628.08	1364.95
628.43	1357.32
628.77	1349.80
629.12	1342.18
629.46	1334.93
629.81	1326.75
630.15	1318.59
630.50	1310.47
630.84	1302.33
631.19	1293.87
631.53	1285.68
631.88	1277.70
632.22	1269.02
632.57	1261.02
632.91	1252.82
633.26	1244.88
633.60	1236.72
633.95	1228.88
634.29	1221.07
634.64	1213.96
634.98	1205.82
635.32	1198.60
635.67	1191.50
636.01	1184.22
636.36	1176.61
636.70	1169.45
637.05	1162.79
637.39	1156.21
637.73	1149.19
638.08	1143.00
638.42	1136.85
638.77	1130.25
639.11	1123.34
639.45	1117.19
639.80	1110.05
640.14	1103.31
640.49	1096.66
640.83	1090.13
641.17	1083.61
641.52	1076.56
641.86	1069.89
642.20	1063.58
642.55	1056.66
642.89	1049.99
643.23	1042.90
643.58	1036.93
643.92	1030.00
644.26	1023.13
644.61	1016.70
644.95	1010.20
645.29	1002.76
645.64	995.41
645.98	988.86
646.32	982.75
646.66	975.98
647.01	969.25
647.35	962.41
647.69	955.65
648.04	949.60
648.38	942.97
648.72	936.37
649.06	929.54
649.41	923.10
649.75	916.46
650.09	909.84
650.43	903.59
650.78	896.86
651.12	890.54
651.46	884.34
651.80	878.17
652.14	871.97
652.49	866.15
652.83	860.33
653.17	853.74
653.51	847.49
653.85	841.50
654.20	835.51
654.54	829.29
654.88	823.32
655.22	816.61
655.56	810.43
655.90	804.50
656.25	798.64
656.59	792.96
656.93	787.34
657.27	781.87
657.61	776.15
657.95	770.92
658.29	765.49
658.64	759.67
658.98	753.72
659.32	747.91
659.66	742.37
660.00	736.77
660.34	731.67
660.68	726.07
661.02	720.50
661.36	715.48
661.70	710.66
662.05	705.88
662.39	701.46
662.73	696.88
663.07	692.05
663.41	687.62
663.75	683.03
664.09	678.01
664.43	673.14
664.77	668.65
665.11	663.88
665.45	659.38
665.79	655.04
666.13	650.60
666.47	646.37
666.81	641.89
667.15	637.41
667.49	633.05
667.83	629.15
668.17	625.10
668.51	620.89
668.85	616.65
669.19	612.56
669.53	608.10
669.87	603.66
670.21	599.73
670.55	595.50
670.89	591.54
671.23	587.94
671.57	583.93
671.91	580.14
672.25	576.37
672.58	572.54
672.92	568.75
673.26	565.17
673.60	561.57
673.94	558.26
674.28	555.02
674.62	551.80
674.96	548.31
675.30	545.32
675.64	542.04
675.97	538.96
676.31	535.79
676.65	532.85
676.99	530.19
677.33	527.00
677.67	523.86
678.01	520.60
678.34	517.69
678.68	514.92
679.02	511.81
679.36	508.80
679.70	505.98
680.04	503.29
680.37	500.46
680.71	497.68
681.05	495.03
681.39	492.40
681.73	489.56
682.06	487.10
682.40	484.22
682.74	481.50
683.08	478.80
683.42	476.06
683.75	473.32
684.09	470.35
684.43	467.82
684.77	465.18
685.10	462.60
685.44	459.67
685.78	457.04
686.12	454.60
686.45	451.98
686.79	449.44
687.13	447.02
687.46	444.45
687.80	441.96
688.14	439.35
688.48	436.89
688.81	434.38
689.15	431.84
689.49	429.57
689.82	427.30
690.16	424.94
690.50	422.50
690.83	420.36
691.17	418.20
691.51	416.01
691.84	413.93
692.18	411.76
692.52	409.67
692.85	407.63
693.19	405.50
693.52	403.45
693.86	401.25
694.20	399.16
694.53	397.03
694.87	395.03
695.21	392.84
695.54	390.76
695.88	388.79
696.21	386.67
696.55	384.64
696.88	382.59
697.22	380.80
697.56	379.11
697.89	376.99
698.23	375.20
698.56	373.32
698.90	371.48
699.23	369.65
699.57	367.82
699.90	365.90
700.24	364.23
700.58	362.53
700.91	360.99
701.25	359.49
701.58	357.96
701.92	356.21
702.25	354.70
702.59	353.19
702.92	351.60
703.26	350.25
703.59	348.87
703.93	347.59
704.26	346.01
704.60	344.65
704.93	343.33
705.26	341.88
705.60	340.58
705.93	339.31
706.27	338.20
706.60	337.10
706.94	335.92
707.27	334.49
707.61	333.14
707.94	331.86
708.27	330.38
708.61	329.09
708.94	328.03
709.28	326.91
709.61	325.84
709.94	324.79
710.28	323.62
710.61	322.35
710.95	321.20
711.28	320.24
711.61	319.05
711.95	317.98
712.28	316.87
712.61	315.84
712.95	314.88
713.28	313.78
713.61	312.75
713.95	311.67
714.28	310.76
714.61	309.86
714.95	308.93
715.28	308.08
715.61	307.11
715.95	306.10
716.28	305.16
716.61	304.25
716.95	303.39
717.28	302.53
717.61	301.58
717.94	300.68
718.28	299.76
718.61	298.95
718.94	298.17
719.27	297.43
719.61	296.63
719.94	295.85
720.27	295.00
720.60	294.24
720.94	293.67
721.27	292.93
721.60	292.29
721.93	291.70
722.27	291.05
722.60	290.56
722.93	289.94
723.26	289.37
723.59	288.60
723.93	287.98
724.26	287.45
724.59	286.90
724.92	286.29
725.25	285.66
725.59	284.92
725.92	284.37
726.25	283.68
726.58	283.06
726.91	282.42
727.24	281.88
727.57	281.23
727.91	280.61
728.24	280.10
728.57	279.59
728.90	278.97
729.23	278.35
729.56	277.74
729.89	277.14
730.22	276.54
730.55	276.03
730.89	275.41
731.22	274.84
731.55	274.23
731.88	273.66
732.21	273.04
732.54	272.60
732.87	272.11
733.20	271.74
733.53	271.22
733.86	270.77
734.19	270.34
734.52	270.00
734.85	269.61
735.18	269.08
735.51	268.58
735.84	268.03
736.17	267.55
736.50	267.07
736.83	266.88
737.16	266.41
737.49	265.92
737.82	265.46
738.15	264.98
738.48	264.54
738.81	264.10
739.14	263.84
739.47	263.28
739.80	262.89
740.13	262.50
740.46	262.00
740.79	261.54
741.12	261.15
741.45	260.76
741.78	260.23
742.11	259.77
742.44	259.36
742.77	259.00
743.10	258.62
743.43	258.08
743.75	257.47
744.08	257.42
744.41	257.13
744.74	256.81
745.07	256.32
745.40	256.09
745.73	255.79
746.06	255.40
746.39	255.25
746.71	254.84
747.04	254.44
747.37	254.22
747.70	253.99
748.03	253.65
748.36	253.27
748.68	253.03
749.01	252.88
749.34	252.60
749.67	252.32
750.00	252.03
750.33	251.92
750.65	251.60
750.98	251.08
751.31	250.73
751.64	250.50
751.97	250.51
752.29	250.32
752.62	250.05
752.95	249.69
753.28	249.41
753.60	249.27
753.93	249.05
754.26	248.82
754.59	248.55
754.91	248.19
755.24	247.91
755.57	247.64
755.90	247.29
756.22	246.98
756.55	246.77
756.88	246.53
757.20	246.33
757.53	246.18
757.86	246.06
758.19	245.90
758.51	245.76
758.84	245.59
759.17	245.37
759.49	245.26
759.82	245.21
760.15	245.05
760.47	244.85
760.80	244.70
761.13	244.54
761.45	244.31
761.78	244.29
762.11	244.20
762.43	243.98
762.76	243.89
763.08	243.80
763.41	243.63
763.74	243.53
764.06	243.40
764.39	243.26
764.71	243.03
765.04	242.89
765.37	242.65
765.69	242.34
766.02	242.12
766.34	242.00
766.67	241.86
767.00	241.74
767.32	241.72
767.65	241.74
767.97	241.58
768.30	241.50
768.62	241.35
768.95	241.20
769.27	241.14
769.60	240.98
769.92	240.80
770.25	240.76
770.57	240.62
770.90	240.53
771.22	240.37
771.55	240.23
771.87	240.08
772.20	240.02
772.52	240.06
772.85	240.16
773.17	239.92
773.50	239.72
773.82	239.51
774.15	239.22
774.47	238.92
774.80	238.79
775.12	238.72
775.45	238.61
775.77	238.56
776.09	238.40
776.42	238.33
776.74	238.30
777.07	238.07
777.39	237.92
777.72	237.67
778.04	237.62
778.36	237.51
778.69	237.50
779.01	237.34
779.33	237.05
779.66	236.80
779.98	236.80
780.31	236.68
780.63	236.65
780.95	236.58
781.28	236.52
781.60	236.38
781.92	236.19
782.25	236.02
782.57	235.79
782.89	235.78
783.22	235.70
783.54	235.53
783.86	235.48
784.19	235.41
784.51	235.34
784.83	235.14
785.16	235.08
785.48	234.93
785.80	234.71
786.12	234.67
786.45	234.58
786.77	234.41
787.09	234.37
