SpectraSuite Data File
++++++++++++++++++++++++++++++++++++
Date: Fri Feb 01 14:38:48 EST 2013
User: group
Dark Spectrum Present: No
Reference Spectrum Present: No
Number of Sampled Component Spectra: 1
Spectrometers: USB2E7196
Integration Time (usec): 70000 (USB2E7196)
Spectra Averaged: 10 (USB2E7196)
Boxcar Smoothing: 10 (USB2E7196)
Correct for Electrical Dark: No (USB2E7196)
Strobe/Lamp Enabled: No (USB2E7196)
Correct for Detector Non-linearity: No (USB2E7196)
Correct for Stray Light: No (USB2E7196)
Number of Pixels in Processed Spectrum: 2048
>>>>>Begin Processed Spectral Data<<<<<
339.09	0.00
339.48	217.60
339.86	218.50
340.24	219.80
340.63	220.60
341.01	224.80
341.39	224.00
341.78	224.90
342.16	226.00
342.54	228.30
342.93	215.71
343.31	226.63
343.69	227.19
344.07	227.61
344.46	228.00
344.84	228.35
345.22	228.53
345.60	228.71
345.99	228.90
346.37	229.01
346.75	229.08
347.13	229.08
347.52	229.13
347.90	229.20
348.28	229.12
348.66	229.05
349.05	228.96
349.43	228.90
349.81	228.83
350.19	228.86
350.57	228.83
350.96	228.82
351.34	228.77
351.72	228.83
352.10	228.94
352.48	229.00
352.87	229.10
353.25	229.13
353.63	229.19
354.01	229.27
354.39	229.37
354.77	229.35
355.15	229.39
355.54	229.32
355.92	229.37
356.30	229.52
356.68	229.80
357.06	229.82
357.44	229.90
357.82	229.89
358.20	229.96
358.58	230.06
358.97	230.11
359.35	230.25
359.73	230.30
360.11	230.26
360.49	230.33
360.87	230.32
361.25	230.34
361.63	230.33
362.01	230.38
362.39	230.37
362.77	230.42
363.15	230.47
363.53	230.52
363.91	230.50
364.29	230.38
364.67	230.08
365.05	230.05
365.43	230.02
365.81	230.07
366.19	230.13
366.57	230.22
366.95	230.12
367.33	230.05
367.71	229.88
368.09	229.89
368.47	229.80
368.85	229.76
369.23	229.80
369.61	229.78
369.99	229.72
370.37	229.64
370.75	229.56
371.13	229.48
371.51	229.35
371.89	229.27
372.27	229.29
372.65	229.29
373.03	229.18
373.41	229.10
373.78	228.99
374.16	228.71
374.54	228.49
374.92	228.43
375.30	228.32
375.68	228.27
376.06	228.13
376.44	228.09
376.82	228.07
377.19	227.88
377.57	227.78
377.95	227.59
378.33	227.56
378.71	227.40
379.09	227.25
379.47	227.22
379.84	227.20
380.22	227.08
380.60	227.00
380.98	226.96
381.36	226.88
381.73	226.83
382.11	226.86
382.49	226.83
382.87	226.76
383.25	226.68
383.62	226.90
384.00	226.87
384.38	226.65
384.76	226.55
385.13	226.63
385.51	226.65
385.89	226.59
386.27	226.54
386.64	226.56
387.02	226.61
387.40	226.56
387.78	226.38
388.15	226.39
388.53	226.38
388.91	226.34
389.29	226.24
389.66	226.23
390.04	226.11
390.42	226.16
390.79	226.15
391.17	226.19
391.55	225.88
391.92	225.92
392.30	226.08
392.68	226.12
393.05	226.07
393.43	226.08
393.81	226.19
394.18	226.18
394.56	226.23
394.94	226.30
395.31	226.42
395.69	226.59
396.06	226.67
396.44	226.67
396.82	226.66
397.19	227.00
397.57	227.04
397.95	227.26
398.32	227.30
398.70	227.43
399.07	227.54
399.45	227.75
399.82	227.92
400.20	228.05
400.58	228.13
400.95	228.18
401.33	228.23
401.70	228.47
402.08	228.58
402.45	228.66
402.83	228.74
403.20	228.81
403.58	228.96
403.95	229.08
404.33	229.20
404.71	229.47
405.08	229.68
405.46	229.79
405.83	229.96
406.21	230.15
406.58	230.33
406.96	230.52
407.33	230.63
407.70	230.79
408.08	231.01
408.45	231.16
408.83	231.50
409.20	231.80
409.58	231.91
409.95	232.23
410.33	232.51
410.70	232.75
411.08	233.12
411.45	233.37
411.82	233.70
412.20	234.20
412.57	234.63
412.95	234.96
413.32	235.51
413.69	235.95
414.07	236.34
414.44	236.88
414.82	237.48
415.19	238.04
415.56	238.56
415.94	239.24
416.31	240.03
416.68	240.70
417.06	241.51
417.43	242.23
417.81	243.04
418.18	244.01
418.55	244.96
418.93	245.95
419.30	246.94
419.67	247.93
420.04	249.03
420.42	250.14
420.79	251.45
421.16	252.81
421.54	254.24
421.91	255.67
422.28	257.06
422.66	258.56
423.03	260.16
423.40	261.76
423.77	263.36
424.15	265.17
424.52	266.94
424.89	268.88
425.26	270.74
425.64	272.42
426.01	274.26
426.38	276.35
426.75	278.42
427.13	280.53
427.50	282.75
427.87	285.01
428.24	287.39
428.61	289.52
428.99	291.88
429.36	294.44
429.73	297.14
430.10	299.76
430.47	302.38
430.85	305.01
431.22	307.92
431.59	311.03
431.96	313.68
432.33	316.83
432.70	319.90
433.08	323.43
433.45	326.94
433.82	330.32
434.19	334.20
434.56	337.87
434.93	341.36
435.30	344.94
435.68	348.69
436.05	352.33
436.42	356.04
436.79	359.44
437.16	363.17
437.53	366.75
437.90	370.45
438.27	374.10
438.64	377.88
439.01	381.32
439.38	384.36
439.75	387.29
440.13	390.82
440.50	393.98
440.87	396.73
441.24	399.48
441.61	402.69
441.98	404.85
442.35	407.41
442.72	410.20
443.09	412.71
443.46	414.25
443.83	415.44
444.20	416.42
444.57	417.91
444.94	418.51
445.31	419.40
445.68	420.22
446.05	420.54
446.42	420.30
446.79	420.34
447.16	420.15
447.53	420.26
447.90	419.10
448.27	418.10
448.64	416.26
449.01	415.26
449.37	412.96
449.74	410.74
450.11	408.11
450.48	405.17
450.85	402.21
451.22	399.80
451.59	397.48
451.96	395.14
452.33	391.81
452.70	388.96
453.07	385.45
453.43	381.91
453.80	378.73
454.17	375.60
454.54	372.33
454.91	369.02
455.28	365.68
455.65	362.47
456.02	359.39
456.38	356.74
456.75	353.16
457.12	350.20
457.49	347.28
457.86	344.45
458.23	342.11
458.59	339.49
458.96	336.83
459.33	334.27
459.70	332.00
460.07	330.01
460.43	327.82
460.80	325.77
461.17	323.87
461.54	321.78
461.91	319.94
462.27	317.86
462.64	316.09
463.01	314.30
463.38	312.54
463.74	310.64
464.11	309.08
464.48	307.72
464.85	306.32
465.21	305.03
465.58	303.70
465.95	302.10
466.32	300.90
466.68	299.59
467.05	298.43
467.42	297.00
467.78	295.79
468.15	294.40
468.52	293.38
468.88	292.20
469.25	291.15
469.62	290.20
469.98	289.29
470.35	288.25
470.72	287.24
471.08	286.37
471.45	285.42
471.82	284.60
472.18	283.56
472.55	282.83
472.92	282.11
473.28	281.42
473.65	280.67
474.02	279.90
474.38	279.30
474.75	278.61
475.11	277.97
475.48	277.34
475.85	276.92
476.21	276.40
476.58	275.92
476.94	275.39
477.31	274.83
477.67	274.31
478.04	273.90
478.41	273.60
478.77	273.38
479.14	273.02
479.50	272.70
479.87	272.56
480.23	272.24
480.60	271.92
480.96	271.64
481.33	271.60
481.69	271.37
482.06	271.12
482.42	270.93
482.79	270.79
483.15	270.67
483.52	270.53
483.88	270.31
484.25	270.02
484.61	269.95
484.98	269.84
485.34	269.91
485.71	269.97
486.07	269.90
486.44	269.69
486.80	269.71
487.17	269.63
487.53	269.77
487.90	269.80
488.26	270.03
488.62	270.25
488.99	270.16
489.35	270.28
489.72	270.38
490.08	270.56
490.44	270.67
490.81	270.87
491.17	271.07
491.54	271.42
491.90	271.75
492.26	272.11
492.63	272.41
492.99	272.55
493.36	272.77
493.72	273.10
494.08	273.41
494.45	273.76
494.81	274.21
495.17	274.40
495.54	274.78
495.90	275.02
496.26	275.28
496.63	275.55
496.99	275.91
497.35	276.22
497.72	276.56
498.08	276.99
498.44	277.32
498.80	277.71
499.17	278.02
499.53	278.41
499.89	278.72
500.26	279.10
500.62	279.58
500.98	280.06
501.34	280.49
501.71	280.93
502.07	281.31
502.43	281.72
502.79	282.22
503.16	282.65
503.52	283.22
503.88	283.62
504.24	284.30
504.60	284.80
504.97	285.38
505.33	285.80
505.69	286.37
506.05	286.95
506.41	287.59
506.78	288.12
507.14	288.59
507.50	289.27
507.86	289.96
508.22	290.56
508.59	291.07
508.95	291.76
509.31	292.52
509.67	293.34
510.03	294.14
510.39	294.95
510.75	295.90
511.12	296.57
511.48	297.64
511.84	298.45
512.20	299.43
512.56	300.41
512.92	301.74
513.28	302.97
513.64	304.08
514.00	305.28
514.37	306.61
514.73	308.08
515.09	309.47
515.45	310.92
515.81	312.41
516.17	314.16
516.53	315.91
516.89	317.57
517.25	319.43
517.61	321.37
517.97	323.29
518.33	325.22
518.69	327.49
519.05	329.72
519.41	332.13
519.77	334.64
520.13	337.21
520.49	339.59
520.85	342.04
521.21	344.91
521.57	347.54
521.93	350.44
522.29	353.40
522.65	356.21
523.01	359.19
523.37	362.42
523.73	365.62
524.09	368.78
524.45	372.13
524.81	375.59
525.17	379.25
525.53	382.99
525.89	386.79
526.25	390.50
526.61	394.20
526.97	397.99
527.33	401.96
527.68	406.17
528.04	410.31
528.40	414.71
528.76	419.12
529.12	423.77
529.48	428.37
529.84	432.91
530.20	437.93
530.56	442.95
530.91	447.94
531.27	453.04
531.63	458.22
531.99	463.62
532.35	468.74
532.71	473.85
533.07	479.10
533.42	484.58
533.78	489.99
534.14	495.84
534.50	501.42
534.86	507.19
535.21	512.86
535.57	518.90
535.93	524.88
536.29	530.63
536.65	536.60
537.00	542.50
537.36	548.62
537.72	554.47
538.08	560.54
538.44	566.50
538.79	572.56
539.15	578.83
539.51	585.08
539.87	591.49
540.22	598.03
540.58	604.62
540.94	610.93
541.29	617.61
541.65	623.78
542.01	630.69
542.37	637.03
542.72	643.58
543.08	650.03
543.44	656.41
543.79	662.92
544.15	669.38
544.51	675.81
544.87	682.45
545.22	689.08
545.58	695.39
545.94	702.05
546.29	708.68
546.65	715.13
547.01	721.24
547.36	727.48
547.72	733.59
548.07	739.74
548.43	745.98
548.79	752.26
549.14	758.40
549.50	764.17
549.86	770.42
550.21	776.42
550.57	782.53
550.92	788.56
551.28	794.79
551.64	800.77
551.99	806.98
552.35	812.88
552.70	818.72
553.06	824.70
553.41	830.64
553.77	836.22
554.13	842.07
554.48	847.95
554.84	853.71
555.19	859.49
555.55	865.34
555.90	870.77
556.26	876.22
556.61	881.79
556.97	887.35
557.32	892.58
557.68	897.99
558.03	903.24
558.39	908.50
558.74	913.86
559.10	919.14
559.45	924.22
559.81	929.51
560.16	934.65
560.52	939.83
560.87	944.74
561.23	949.74
561.58	954.60
561.94	959.40
562.29	964.09
562.64	968.70
563.00	973.05
563.35	978.20
563.71	982.77
564.06	987.50
564.42	992.08
564.77	996.71
565.12	1001.18
565.48	1005.71
565.83	1010.01
566.19	1014.22
566.54	1018.17
566.89	1022.23
567.25	1026.20
567.60	1030.18
567.96	1034.18
568.31	1038.10
568.66	1041.80
569.02	1045.19
569.37	1048.58
569.72	1052.22
570.08	1055.03
570.43	1058.15
570.78	1061.14
571.14	1063.73
571.49	1066.38
571.84	1069.53
572.20	1071.81
572.55	1074.36
572.90	1076.80
573.26	1079.26
573.61	1081.09
573.96	1083.09
574.31	1085.15
574.67	1086.72
575.02	1088.31
575.37	1089.69
575.72	1090.82
576.08	1092.44
576.43	1093.60
576.78	1095.00
577.13	1096.23
577.49	1098.10
577.84	1099.35
578.19	1100.13
578.54	1101.38
578.90	1102.19
579.25	1102.28
579.60	1103.41
579.95	1103.74
580.30	1103.84
580.66	1103.99
581.01	1104.31
581.36	1105.18
581.71	1105.50
582.06	1105.67
582.42	1105.53
582.77	1105.70
583.12	1105.84
583.47	1105.83
583.82	1106.18
584.17	1106.10
584.53	1106.08
584.88	1105.72
585.23	1105.75
585.58	1105.80
585.93	1105.58
586.28	1105.54
586.63	1105.88
586.98	1105.24
587.34	1104.96
587.69	1104.80
588.04	1104.50
588.39	1104.39
588.74	1103.16
589.09	1102.17
589.44	1101.17
589.79	1100.92
590.14	1100.29
590.49	1099.21
590.84	1098.00
591.19	1097.07
591.54	1095.89
591.89	1093.98
592.25	1092.90
592.60	1091.05
592.95	1089.07
593.30	1087.14
593.65	1085.50
594.00	1083.56
594.35	1082.31
594.70	1080.30
595.05	1078.41
595.40	1076.40
595.75	1074.05
596.10	1072.44
596.45	1070.90
596.80	1069.54
597.15	1067.66
597.50	1065.58
597.85	1063.97
598.19	1062.39
598.54	1060.60
598.89	1058.61
599.24	1057.37
599.59	1055.11
599.94	1053.37
600.29	1051.60
600.64	1049.66
600.99	1047.07
601.34	1045.11
601.69	1042.50
602.04	1040.65
602.39	1038.44
602.74	1036.23
603.08	1034.35
603.43	1032.56
603.78	1030.03
604.13	1027.85
604.48	1025.31
604.83	1022.78
605.18	1020.51
605.53	1017.49
605.87	1014.27
606.22	1011.77
606.57	1009.16
606.92	1006.63
607.27	1004.33
607.62	1001.74
607.96	999.26
608.31	997.03
608.66	994.04
609.01	991.15
609.36	988.20
609.70	984.89
610.05	981.76
610.40	978.94
610.75	975.46
611.10	972.20
611.44	968.24
611.79	965.15
612.14	961.96
612.49	958.01
612.83	954.92
613.18	951.77
613.53	948.70
613.88	944.80
614.22	941.45
614.57	937.65
614.92	934.19
615.27	930.92
615.61	927.44
615.96	924.03
616.31	921.00
616.65	918.01
617.00	914.83
617.35	911.60
617.70	908.02
618.04	904.32
618.39	901.20
618.74	898.38
619.08	894.76
619.43	891.41
619.78	888.43
620.12	885.15
620.47	881.77
620.82	877.93
621.16	874.59
621.51	871.30
621.85	867.82
622.20	864.43
622.55	861.00
622.89	857.77
623.24	854.30
623.59	850.83
623.93	847.30
624.28	844.11
624.62	840.95
624.97	837.62
625.32	834.67
625.66	831.42
626.01	828.17
626.35	824.98
626.70	821.66
627.04	818.30
627.39	814.88
627.73	811.70
628.08	808.58
628.43	805.50
628.77	802.08
629.12	798.60
629.46	795.01
629.81	791.32
630.15	787.46
630.50	783.70
630.84	780.06
631.19	776.20
631.53	772.63
631.88	768.80
632.22	764.95
632.57	761.35
632.91	757.44
633.26	753.60
633.60	749.96
633.95	746.40
634.29	743.26
634.64	739.96
634.98	736.24
635.32	732.94
635.67	729.71
636.01	726.22
636.36	723.07
636.70	719.97
637.05	716.87
637.39	713.90
637.73	711.14
638.08	708.25
638.42	705.32
638.77	702.30
639.11	699.21
639.45	696.19
639.80	692.93
640.14	690.19
640.49	687.11
640.83	683.87
641.17	681.00
641.52	677.59
641.86	674.31
642.20	671.43
642.55	668.03
642.89	664.71
643.23	661.60
643.58	658.85
643.92	655.61
644.26	652.38
644.61	649.50
644.95	646.43
645.29	642.95
645.64	639.60
645.98	636.40
646.32	633.46
646.66	630.11
647.01	627.10
647.35	623.68
647.69	620.60
648.04	617.71
648.38	614.42
648.72	611.18
649.06	608.06
649.41	604.78
649.75	601.67
650.09	598.39
650.43	595.27
650.78	591.66
651.12	588.36
651.46	585.26
651.80	582.05
652.14	578.66
652.49	575.69
652.83	572.77
653.17	569.33
653.51	566.18
653.85	563.40
654.20	560.28
654.54	557.22
654.88	554.08
655.22	550.78
655.56	547.51
655.90	544.56
656.25	541.60
656.59	538.60
656.93	535.93
657.27	533.30
657.61	530.47
657.95	527.89
658.29	525.22
658.64	522.62
658.98	519.50
659.32	516.62
659.66	513.76
660.00	511.01
660.34	508.63
660.68	505.86
661.02	503.05
661.36	500.58
661.70	498.07
662.05	495.68
662.39	493.54
662.73	491.38
663.07	489.15
663.41	486.70
663.75	484.33
664.09	481.77
664.43	479.22
664.77	476.70
665.11	474.21
665.45	471.90
665.79	469.50
666.13	467.41
666.47	465.26
666.81	463.00
667.15	460.59
667.49	458.32
667.83	456.37
668.17	454.20
668.51	451.96
668.85	449.90
669.19	447.81
669.53	445.50
669.87	442.97
670.21	440.69
670.55	438.65
670.89	436.98
671.23	435.03
671.57	433.21
671.91	431.43
672.25	429.41
672.58	427.50
672.92	425.60
673.26	423.87
673.60	422.19
673.94	420.47
674.28	419.01
674.62	417.35
674.96	415.42
675.30	413.66
675.64	411.78
675.97	409.99
676.31	408.34
676.65	406.69
676.99	405.45
677.33	403.87
677.67	402.25
678.01	400.40
678.34	398.70
678.68	397.04
679.02	395.33
679.36	393.82
679.70	392.35
680.04	390.83
680.37	389.06
680.71	387.53
681.05	385.93
681.39	384.23
681.73	382.83
682.06	381.42
682.40	380.07
682.74	378.89
683.08	377.56
683.42	375.95
683.75	374.49
684.09	372.83
684.43	371.24
684.77	369.77
685.10	368.31
685.44	367.05
685.78	365.51
686.12	364.15
686.45	362.78
686.79	361.32
687.13	359.95
687.46	358.67
687.80	357.38
688.14	356.01
688.48	354.79
688.81	353.26
689.15	351.99
689.49	350.58
689.82	349.12
690.16	347.78
690.50	346.62
690.83	345.42
691.17	344.14
691.51	342.91
691.84	341.80
692.18	340.49
692.52	339.08
692.85	338.00
693.19	336.88
693.52	335.60
693.86	334.39
694.20	333.21
694.53	332.04
694.87	330.65
695.21	329.48
695.54	328.23
695.88	326.94
696.21	325.65
696.55	324.56
696.88	323.33
697.22	322.16
697.56	321.09
697.89	319.83
698.23	318.85
698.56	317.90
698.90	316.80
699.23	315.74
699.57	314.74
699.90	313.67
700.24	312.59
700.58	311.60
700.91	310.58
701.25	309.62
701.58	308.69
701.92	307.90
702.25	307.03
702.59	306.06
702.92	305.39
703.26	304.58
703.59	303.77
703.93	303.20
704.26	302.37
704.60	301.46
704.93	300.89
705.26	300.02
705.60	299.27
705.93	298.58
706.27	297.92
706.60	297.25
706.94	296.40
707.27	295.63
707.61	295.00
707.94	294.18
708.27	293.41
708.61	292.64
708.94	291.92
709.28	291.31
709.61	290.78
709.94	290.17
710.28	289.65
710.61	289.03
710.95	288.25
711.28	287.67
711.61	287.08
711.95	286.39
712.28	285.78
712.61	285.03
712.95	284.44
713.28	283.84
713.61	283.08
713.95	282.65
714.28	282.07
714.61	281.41
714.95	281.07
715.28	280.36
715.61	279.70
715.95	279.16
716.28	278.47
716.61	277.81
716.95	277.20
717.28	276.60
717.61	275.95
717.94	275.41
718.28	274.93
718.61	274.46
718.94	274.04
719.27	273.65
719.61	273.14
719.94	272.48
720.27	272.06
720.60	271.65
720.94	271.20
721.27	270.76
721.60	270.40
721.93	269.90
722.27	269.64
722.60	269.34
722.93	268.81
723.26	268.42
723.59	267.95
723.93	267.55
724.26	267.15
724.59	266.87
724.92	266.43
725.25	265.98
725.59	265.48
725.92	264.91
726.25	264.54
726.58	264.21
726.91	263.86
727.24	263.33
727.57	262.91
727.91	262.45
728.24	262.06
728.57	261.47
728.90	261.17
729.23	260.67
729.56	260.29
729.89	259.94
730.22	259.56
730.55	259.23
730.89	258.88
731.22	258.47
731.55	258.03
731.88	257.65
732.21	257.30
732.54	256.93
732.87	256.68
733.20	256.30
733.53	255.97
733.86	255.76
734.19	255.49
734.52	255.26
734.85	255.00
735.18	254.78
735.51	254.72
735.84	254.29
736.17	254.10
736.50	253.76
736.83	253.66
737.16	253.27
737.49	253.02
737.82	252.62
738.15	252.33
738.48	252.06
738.81	251.85
739.14	251.57
739.47	251.41
739.80	251.23
740.13	250.97
740.46	250.71
740.79	250.43
741.12	250.22
741.45	250.01
741.78	249.76
742.11	249.50
742.44	249.16
742.77	249.09
743.10	248.84
743.43	248.61
743.75	248.25
744.08	248.40
744.41	248.19
744.74	248.12
745.07	247.92
745.40	247.83
745.73	247.70
746.06	247.50
746.39	247.26
746.71	246.95
747.04	246.69
747.37	246.58
747.70	246.37
748.03	246.12
748.36	245.88
748.68	245.68
749.01	245.57
749.34	245.36
749.67	245.26
750.00	245.06
750.33	245.12
750.65	245.04
750.98	244.73
751.31	244.64
751.64	244.45
751.97	244.44
752.29	244.21
752.62	244.04
752.95	243.92
753.28	243.65
753.60	243.60
753.93	243.62
754.26	243.45
754.59	243.30
754.91	243.18
755.24	243.01
755.57	242.86
755.90	242.57
756.22	242.51
756.55	242.16
756.88	241.97
757.20	241.64
757.53	241.38
757.86	241.24
758.19	241.13
758.51	240.93
758.84	240.68
759.17	240.55
759.49	240.38
759.82	240.31
760.15	240.29
760.47	240.07
760.80	239.85
761.13	239.79
761.45	239.70
761.78	239.63
762.11	239.69
762.43	239.63
762.76	239.52
763.08	239.45
763.41	239.49
763.74	239.29
764.06	239.20
764.39	239.15
764.71	238.91
765.04	238.76
765.37	238.66
765.69	238.49
766.02	238.40
766.34	238.29
766.67	238.21
767.00	238.14
767.32	238.21
767.65	238.24
767.97	238.05
768.30	237.87
768.62	237.74
768.95	237.50
769.27	237.33
769.60	237.24
769.92	237.00
770.25	236.84
770.57	236.80
770.90	236.64
771.22	236.48
771.55	236.40
771.87	236.25
772.20	236.15
772.52	236.32
772.85	236.39
773.17	236.23
773.50	236.01
773.82	235.88
774.15	235.65
774.47	235.32
774.80	235.28
775.12	235.21
775.45	235.12
775.77	235.04
776.09	235.02
776.42	234.93
776.74	234.91
777.07	234.82
777.39	234.78
777.72	234.73
778.04	234.64
778.36	234.64
778.69	234.49
779.01	234.42
779.33	234.18
779.66	233.94
779.98	233.89
780.31	233.79
780.63	233.73
780.95	233.63
781.28	233.54
781.60	233.36
781.92	233.30
782.25	233.18
782.57	233.03
782.89	232.84
783.22	232.80
783.54	232.69
783.86	232.50
784.19	232.50
784.51	232.53
784.83	232.48
785.16	232.39
785.48	232.47
785.80	232.40
786.12	232.30
786.45	232.10
786.77	232.07
787.09	232.08
787.42	232.00
787.74	232.04
788.06	232.05
788.38	232.05
788.71	232.01
789.03	232.04
789.35	232.02
789.67	232.03
789.99	232.01
790.32	231.97
790.64	232.07
790.96	232.05
791.28	231.90
791.61	231.92
