SpectraSuite Data File
++++++++++++++++++++++++++++++++++++
Date: Fri Feb 01 14:40:41 EST 2013
User: group
Dark Spectrum Present: No
Reference Spectrum Present: No
Number of Sampled Component Spectra: 1
Spectrometers: USB2E7196
Integration Time (usec): 70000 (USB2E7196)
Spectra Averaged: 10 (USB2E7196)
Boxcar Smoothing: 10 (USB2E7196)
Correct for Electrical Dark: No (USB2E7196)
Strobe/Lamp Enabled: No (USB2E7196)
Correct for Detector Non-linearity: No (USB2E7196)
Correct for Stray Light: No (USB2E7196)
Number of Pixels in Processed Spectrum: 2048
>>>>>Begin Processed Spectral Data<<<<<
339.09	0.00
339.48	217.00
339.86	218.40
340.24	218.70
340.63	220.20
341.01	223.80
341.39	223.30
341.78	225.60
342.16	225.40
342.54	226.80
342.93	214.85
343.31	225.65
343.69	226.18
344.07	226.57
344.46	227.07
344.84	227.59
345.22	227.71
345.60	228.00
345.99	228.23
346.37	228.40
346.75	228.48
347.13	228.48
347.52	228.60
347.90	228.76
348.28	228.80
348.66	228.87
349.05	228.81
349.43	228.91
349.81	228.99
350.19	228.95
350.57	228.99
350.96	229.03
351.34	229.19
351.72	229.27
352.10	229.43
352.48	229.50
352.87	229.35
353.25	229.56
353.63	229.50
354.01	229.50
354.39	229.50
354.77	229.59
355.15	229.78
355.54	229.87
355.92	229.92
356.30	229.97
356.68	230.19
357.06	230.24
357.44	230.42
357.82	230.47
358.20	230.60
358.58	230.71
358.97	230.80
359.35	230.90
359.73	230.98
360.11	230.99
360.49	231.05
360.87	231.15
361.25	231.15
361.63	231.28
362.01	231.32
362.39	231.33
362.77	231.30
363.15	231.28
363.53	231.25
363.91	231.24
364.29	231.27
364.67	231.04
365.05	231.10
365.43	230.97
365.81	231.02
366.19	231.00
366.57	230.97
366.95	231.00
367.33	230.90
367.71	230.80
368.09	230.93
368.47	230.90
368.85	230.84
369.23	230.82
369.61	230.77
369.99	230.75
370.37	230.80
370.75	230.84
371.13	230.74
371.51	230.68
371.89	230.70
372.27	230.61
372.65	230.47
373.03	230.38
373.41	230.30
373.78	230.12
374.16	230.05
374.54	229.90
374.92	229.79
375.30	229.64
375.68	229.60
376.06	229.40
376.44	229.21
376.82	229.19
377.19	229.06
377.57	228.90
377.95	228.73
378.33	228.62
378.71	228.49
379.09	228.44
379.47	228.26
379.84	228.14
380.22	228.05
380.60	228.01
380.98	227.95
381.36	227.84
381.73	227.81
382.11	227.68
382.49	227.66
382.87	227.47
383.25	227.42
383.62	227.58
384.00	227.50
384.38	227.52
384.76	227.50
385.13	227.50
385.51	227.53
385.89	227.44
386.27	227.44
386.64	227.37
387.02	227.30
387.40	227.23
387.78	227.16
388.15	227.10
388.53	227.17
388.91	227.10
389.29	227.10
389.66	227.14
390.04	227.13
390.42	227.15
390.79	227.14
391.17	227.15
391.55	226.93
391.92	226.96
392.30	226.94
392.68	227.01
393.05	227.04
393.43	227.07
393.81	227.08
394.18	227.12
394.56	227.25
394.94	227.27
395.31	227.37
395.69	227.45
396.06	227.50
396.44	227.58
396.82	227.55
397.19	227.62
397.57	227.53
397.95	227.61
398.32	227.61
398.70	227.74
399.07	227.91
399.45	227.93
399.82	227.99
400.20	228.03
400.58	227.93
400.95	227.92
401.33	228.14
401.70	228.39
402.08	228.42
402.45	228.48
402.83	228.66
403.20	228.77
403.58	228.89
403.95	229.19
404.33	229.26
404.71	229.44
405.08	229.70
405.46	229.87
405.83	229.93
406.21	230.06
406.58	230.30
406.96	230.36
407.33	230.67
407.70	230.84
408.08	231.20
408.45	231.57
408.83	231.81
409.20	232.02
409.58	232.20
409.95	232.45
410.33	232.69
410.70	232.91
411.08	233.21
411.45	233.50
411.82	233.70
412.20	234.09
412.57	234.67
412.95	234.96
413.32	235.41
413.69	235.87
414.07	236.39
414.44	236.70
414.82	237.29
415.19	237.80
415.56	238.38
415.94	238.82
416.31	239.24
416.68	239.92
417.06	240.48
417.43	241.16
417.81	242.04
418.18	242.80
418.55	243.64
418.93	244.51
419.30	245.39
419.67	246.32
420.04	247.29
420.42	248.18
420.79	249.35
421.16	250.41
421.54	251.60
421.91	252.83
422.28	254.17
422.66	255.48
423.03	256.83
423.40	258.14
423.77	259.57
424.15	261.15
424.52	262.66
424.89	264.28
425.26	265.88
425.64	267.25
426.01	268.96
426.38	270.60
426.75	272.44
427.13	274.26
427.50	276.17
427.87	278.01
428.24	279.85
428.61	281.59
428.99	283.60
429.36	285.80
429.73	287.70
430.10	289.80
430.47	291.86
430.85	294.02
431.22	296.36
431.59	298.84
431.96	301.06
432.33	303.55
432.70	305.97
433.08	308.84
433.45	311.52
433.82	314.08
434.19	317.06
434.56	319.80
434.93	322.49
435.30	325.11
435.68	328.14
436.05	331.06
436.42	333.91
436.79	336.67
437.16	339.51
437.53	342.52
437.90	345.30
438.27	348.23
438.64	350.90
439.01	353.68
439.38	356.03
439.75	358.29
440.13	360.99
440.50	363.47
440.87	365.42
441.24	367.48
441.61	369.73
441.98	371.43
442.35	373.28
442.72	375.00
443.09	376.93
443.46	377.86
443.83	378.47
444.20	379.09
444.57	379.84
444.94	380.12
445.31	380.78
445.68	381.40
446.05	381.44
446.42	381.25
446.79	380.78
447.16	380.24
447.53	380.11
447.90	378.80
448.27	377.61
448.64	376.09
449.01	374.90
449.37	373.02
449.74	370.99
450.11	368.87
450.48	366.50
450.85	363.70
451.22	361.62
451.59	359.61
451.96	357.63
452.33	355.03
452.70	352.50
453.07	349.30
453.43	346.21
453.80	343.33
454.17	340.51
454.54	337.92
454.91	335.16
455.28	332.33
455.65	329.77
456.02	327.49
456.38	325.10
456.75	322.34
457.12	319.86
457.49	317.47
457.86	315.20
458.23	313.34
458.59	311.38
458.96	309.16
459.33	307.13
459.70	305.12
460.07	303.45
460.43	301.73
460.80	300.12
461.17	298.67
461.54	297.10
461.91	295.60
462.27	293.99
462.64	292.65
463.01	291.15
463.38	289.83
463.74	288.18
464.11	287.00
464.48	285.90
464.85	284.77
465.21	283.87
465.58	282.77
465.95	281.45
466.32	280.30
466.68	279.27
467.05	278.39
467.42	277.37
467.78	276.42
468.15	275.40
468.52	274.61
468.88	273.56
469.25	272.67
469.62	271.97
469.98	271.07
470.35	270.31
470.72	269.65
471.08	268.70
471.45	268.02
471.82	267.26
472.18	266.50
472.55	265.97
472.92	265.37
473.28	264.67
473.65	264.07
474.02	263.64
474.38	263.30
474.75	262.76
475.11	262.22
475.48	261.67
475.85	261.27
476.21	260.71
476.58	260.37
476.94	260.06
477.31	259.67
477.67	259.44
478.04	259.13
478.41	258.74
478.77	258.80
479.14	258.42
479.50	258.25
479.87	258.14
480.23	257.98
480.60	257.73
480.96	257.63
481.33	257.66
481.69	257.48
482.06	257.21
482.42	257.11
482.79	257.16
483.15	257.19
483.52	257.30
483.88	257.46
484.25	257.34
484.61	257.36
484.98	257.48
485.34	257.70
485.71	257.78
486.07	257.97
486.44	257.88
486.80	258.23
487.17	258.35
487.53	258.54
487.90	258.83
488.26	259.23
488.62	259.61
488.99	259.91
489.35	260.26
489.72	260.76
490.08	261.26
490.44	261.68
490.81	262.30
491.17	262.95
491.54	263.62
491.90	264.46
492.26	265.22
492.63	265.97
492.99	266.65
493.36	267.66
493.72	268.51
494.08	269.61
494.45	270.57
494.81	271.82
495.17	273.05
495.54	274.15
495.90	275.31
496.26	276.64
496.63	278.14
496.99	279.64
497.35	281.29
497.72	282.96
498.08	284.67
498.44	286.60
498.80	288.37
499.17	290.35
499.53	292.33
499.89	294.53
500.26	296.75
500.62	299.16
500.98	301.56
501.34	304.35
501.71	307.06
502.07	309.87
502.43	312.81
502.79	315.99
503.16	319.26
503.52	322.56
503.88	326.00
504.24	329.59
504.60	333.36
504.97	337.14
505.33	341.12
505.69	345.55
506.05	349.86
506.41	354.30
506.78	358.94
507.14	363.89
507.50	369.02
507.86	374.38
508.22	379.74
508.59	385.10
508.95	390.80
509.31	396.71
509.67	402.90
510.03	409.18
510.39	415.43
510.75	422.12
511.12	428.96
511.48	435.87
511.84	442.90
512.20	450.24
512.56	457.71
512.92	465.39
513.28	472.94
513.64	480.83
514.00	489.09
514.37	497.55
514.73	505.89
515.09	514.38
515.45	523.06
515.81	532.06
516.17	541.54
516.53	550.84
516.89	560.40
517.25	570.18
517.61	579.93
517.97	589.90
518.33	599.78
518.69	610.00
519.05	620.44
519.41	630.94
519.77	641.72
520.13	652.71
520.49	663.70
520.85	675.24
521.21	686.63
521.57	698.18
521.93	709.56
522.29	721.55
522.65	733.12
523.01	744.74
523.37	756.57
523.73	768.67
524.09	780.81
524.45	793.08
524.81	805.34
525.17	818.09
525.53	831.01
525.89	844.07
526.25	857.16
526.61	870.00
526.97	883.41
527.33	896.80
527.68	910.20
528.04	923.62
528.40	936.94
528.76	950.55
529.12	964.35
529.48	978.09
529.84	991.42
530.20	1005.89
530.56	1020.42
530.91	1035.16
531.27	1049.13
531.63	1063.18
531.99	1077.53
532.35	1091.53
532.71	1105.19
533.07	1119.50
533.42	1133.50
533.78	1147.71
534.14	1162.45
534.50	1176.30
534.86	1190.40
535.21	1204.30
535.57	1218.68
535.93	1232.82
536.29	1246.85
536.65	1260.62
537.00	1274.15
537.36	1288.44
537.72	1301.89
538.08	1315.54
538.44	1328.71
538.79	1342.36
539.15	1355.30
539.51	1368.49
539.87	1382.17
540.22	1395.83
540.58	1409.18
540.94	1422.06
541.29	1434.83
541.65	1447.30
542.01	1460.51
542.37	1473.13
542.72	1485.93
543.08	1497.98
543.44	1510.14
543.79	1521.60
544.15	1533.63
544.51	1546.42
544.87	1558.54
545.22	1570.38
545.58	1581.50
545.94	1592.00
546.29	1602.97
546.65	1614.24
547.01	1625.03
547.36	1635.45
547.72	1645.52
548.07	1655.62
548.43	1666.10
548.79	1675.80
549.14	1685.39
549.50	1694.50
549.86	1703.59
550.21	1712.18
550.57	1721.55
550.92	1730.20
551.28	1739.04
551.64	1747.68
551.99	1755.73
552.35	1763.83
552.70	1771.80
553.06	1779.74
553.41	1788.71
553.77	1796.90
554.13	1805.03
554.48	1812.87
554.84	1820.12
555.19	1827.88
555.55	1834.84
555.90	1841.44
556.26	1848.63
556.61	1855.50
556.97	1861.94
557.32	1868.82
557.68	1875.75
558.03	1881.99
558.39	1888.36
558.74	1895.70
559.10	1902.15
559.45	1908.38
559.81	1914.73
560.16	1920.36
560.52	1926.82
560.87	1932.64
561.23	1937.47
561.58	1942.96
561.94	1947.92
562.29	1952.77
562.64	1956.89
563.00	1961.50
563.35	1966.79
563.71	1972.01
564.06	1976.97
564.42	1981.76
564.77	1986.29
565.12	1991.18
565.48	1995.65
565.83	1999.60
566.19	2003.34
566.54	2006.49
566.89	2009.83
567.25	2012.37
567.60	2015.86
567.96	2018.45
568.31	2020.79
568.66	2023.76
569.02	2026.15
569.37	2028.20
569.72	2030.60
570.08	2032.92
570.43	2034.83
570.78	2036.43
571.14	2036.85
571.49	2038.07
571.84	2039.69
572.20	2040.03
572.55	2040.04
572.90	2040.53
573.26	2041.33
573.61	2041.09
573.96	2040.82
574.31	2039.90
574.67	2039.01
575.02	2038.08
575.37	2037.29
575.72	2035.71
576.08	2035.35
576.43	2033.97
576.78	2032.89
577.13	2032.04
577.49	2031.32
577.84	2029.84
578.19	2028.18
578.54	2026.64
578.90	2024.02
579.25	2020.68
579.60	2018.68
579.95	2015.79
580.30	2012.51
580.66	2009.15
581.01	2005.96
581.36	2003.23
581.71	2000.97
582.06	1998.87
582.42	1995.94
582.77	1992.39
583.12	1989.45
583.47	1985.72
583.82	1982.54
584.17	1979.02
584.53	1975.41
584.88	1971.44
585.23	1967.70
585.58	1964.07
585.93	1960.93
586.28	1957.84
586.63	1954.74
586.98	1950.88
587.34	1947.53
587.69	1943.63
588.04	1940.09
588.39	1936.39
588.74	1931.84
589.09	1927.36
589.44	1922.59
589.79	1918.14
590.14	1914.51
590.49	1910.46
590.84	1905.54
591.19	1901.12
591.54	1895.89
591.89	1889.74
592.25	1884.68
592.60	1879.10
592.95	1873.08
593.30	1866.77
593.65	1860.89
594.00	1855.44
594.35	1850.60
594.70	1844.67
595.05	1840.02
595.40	1834.30
595.75	1828.07
596.10	1822.60
596.45	1817.51
596.80	1812.20
597.15	1807.15
597.50	1801.41
597.85	1795.77
598.19	1790.62
598.54	1785.35
598.89	1780.18
599.24	1776.00
599.59	1770.73
599.94	1765.98
600.29	1761.05
600.64	1756.07
600.99	1750.25
601.34	1744.98
601.69	1738.67
602.04	1733.48
602.39	1727.30
602.74	1722.15
603.08	1717.38
603.43	1712.81
603.78	1707.15
604.13	1701.34
604.48	1694.99
604.83	1689.29
605.18	1683.52
605.53	1677.08
605.87	1670.26
606.22	1664.27
606.57	1657.74
606.92	1651.24
607.27	1645.40
607.62	1639.65
607.96	1633.69
608.31	1628.41
608.66	1621.69
609.01	1614.94
609.36	1608.08
609.70	1601.07
610.05	1593.83
610.40	1587.26
610.75	1579.91
611.10	1572.48
611.44	1565.12
611.79	1558.73
612.14	1551.46
612.49	1543.46
612.83	1536.36
613.18	1529.25
613.53	1522.38
613.88	1514.99
614.22	1507.90
614.57	1499.81
614.92	1492.24
615.27	1485.05
615.61	1477.22
615.96	1470.10
616.31	1463.83
616.65	1457.64
617.00	1450.97
617.35	1444.30
617.70	1436.87
618.04	1429.57
618.39	1422.65
618.74	1416.28
619.08	1408.64
619.43	1401.79
619.78	1395.54
620.12	1388.93
620.47	1381.92
620.82	1374.47
621.16	1367.62
621.51	1361.10
621.85	1354.18
622.20	1347.07
622.55	1340.32
622.89	1333.40
623.24	1326.92
623.59	1320.09
623.93	1312.83
624.28	1305.93
624.62	1298.92
624.97	1292.49
625.32	1286.07
625.66	1279.91
626.01	1273.23
626.35	1266.68
626.70	1260.08
627.04	1253.84
627.39	1246.61
627.73	1240.17
628.08	1233.85
628.43	1227.32
628.77	1220.25
629.12	1213.78
629.46	1207.17
629.81	1200.00
630.15	1193.06
630.50	1185.71
630.84	1178.14
631.19	1171.00
631.53	1163.87
631.88	1156.43
632.22	1148.82
632.57	1141.84
632.91	1134.55
633.26	1127.46
633.60	1120.83
633.95	1113.81
634.29	1106.92
634.64	1100.48
634.98	1093.51
635.32	1087.06
635.67	1080.99
636.01	1074.62
636.36	1068.11
636.70	1061.96
637.05	1055.95
637.39	1050.15
637.73	1044.26
638.08	1038.78
638.42	1032.96
638.77	1027.57
639.11	1021.80
639.45	1016.29
639.80	1010.18
640.14	1004.07
640.49	998.02
640.83	991.69
641.17	985.75
641.52	979.51
641.86	973.59
642.20	968.04
642.55	962.37
642.89	956.16
643.23	950.30
643.58	945.04
643.92	938.91
644.26	933.18
644.61	927.73
644.95	922.00
645.29	915.90
645.64	909.70
645.98	903.92
646.32	898.55
646.66	892.55
647.01	887.00
647.35	881.67
647.69	876.07
648.04	871.19
648.38	865.65
648.72	859.98
649.06	854.42
649.41	848.89
649.75	842.70
650.09	836.93
650.43	831.49
650.78	825.40
651.12	819.83
651.46	814.27
651.80	808.50
652.14	803.38
652.49	798.22
652.83	793.39
653.17	787.77
653.51	782.46
653.85	777.44
654.20	772.06
654.54	766.46
654.88	760.93
655.22	755.20
655.56	749.65
655.90	744.48
656.25	739.31
656.59	734.15
656.93	729.45
657.27	724.69
657.61	719.34
657.95	714.60
658.29	709.84
658.64	704.71
658.98	699.80
659.32	694.52
659.66	689.64
660.00	684.62
660.34	679.96
660.68	674.92
661.02	669.89
661.36	665.46
661.70	661.04
662.05	656.99
662.39	652.60
662.73	648.49
663.07	644.31
663.41	640.22
663.75	636.14
664.09	631.98
664.43	627.76
664.77	623.82
665.11	619.88
665.45	615.66
665.79	611.75
666.13	607.80
666.47	603.85
666.81	599.77
667.15	595.64
667.49	591.56
667.83	588.04
668.17	584.30
668.51	580.31
668.85	576.56
669.19	572.74
669.53	569.10
669.87	565.30
670.21	561.83
670.55	558.29
670.89	554.70
671.23	551.21
671.57	547.81
671.91	544.55
672.25	541.13
672.58	538.22
672.92	534.77
673.26	531.69
673.60	528.87
673.94	525.82
674.28	523.11
674.62	520.37
674.96	517.22
675.30	514.37
675.64	511.48
675.97	508.62
676.31	505.76
676.65	502.98
676.99	500.36
677.33	497.47
677.67	494.54
678.01	491.63
678.34	488.85
678.68	486.21
679.02	483.23
679.36	480.58
679.70	477.78
680.04	475.16
680.37	472.37
680.71	469.57
681.05	467.16
681.39	464.53
681.73	461.95
682.06	459.59
682.40	457.32
682.74	454.96
683.08	452.61
683.42	450.20
683.75	447.87
684.09	445.38
684.43	443.07
684.77	440.84
685.10	438.60
685.44	436.31
685.78	433.97
686.12	431.90
686.45	429.53
686.79	427.23
687.13	425.16
687.46	423.02
687.80	420.82
688.14	418.45
688.48	416.32
688.81	414.15
689.15	412.18
689.49	410.03
689.82	407.93
690.16	405.89
690.50	404.04
690.83	402.07
691.17	400.05
691.51	398.26
691.84	396.50
692.18	394.70
692.52	392.77
692.85	390.81
693.19	389.14
693.52	387.52
693.86	385.73
694.20	383.94
694.53	382.12
694.87	380.39
695.21	378.50
695.54	376.63
695.88	374.89
696.21	373.19
696.55	371.44
696.88	369.88
697.22	368.02
697.56	366.32
697.89	364.56
698.23	363.06
698.56	361.31
698.90	359.73
699.23	358.00
699.57	356.63
699.90	355.22
700.24	353.51
700.58	351.96
700.91	350.53
701.25	349.18
701.58	347.90
701.92	346.49
702.25	345.37
702.59	344.08
702.92	342.66
703.26	341.20
703.59	339.95
703.93	338.74
704.26	337.60
704.60	336.27
704.93	335.10
705.26	333.82
705.60	332.63
705.93	331.32
706.27	330.27
706.60	328.95
706.94	327.73
707.27	326.58
707.61	325.34
707.94	324.07
708.27	322.76
708.61	321.50
708.94	320.35
709.28	319.31
709.61	318.30
709.94	317.31
710.28	316.25
710.61	315.12
710.95	313.88
711.28	312.88
711.61	311.72
711.95	310.63
712.28	309.66
712.61	308.55
712.95	307.61
713.28	306.66
713.61	305.71
713.95	304.72
714.28	303.80
714.61	302.86
714.95	302.09
715.28	301.31
715.61	300.38
715.95	299.57
716.28	298.54
716.61	297.75
716.95	296.84
717.28	296.09
717.61	295.21
717.94	294.41
718.28	293.60
718.61	292.94
718.94	292.17
719.27	291.51
719.61	290.88
719.94	290.16
720.27	289.40
720.60	288.76
720.94	288.07
721.27	287.37
721.60	286.72
721.93	286.05
722.27	285.44
722.60	284.84
722.93	284.13
723.26	283.65
723.59	282.96
723.93	282.41
724.26	281.76
724.59	281.22
724.92	280.75
725.25	280.20
725.59	279.59
725.92	279.00
726.25	278.40
726.58	277.93
726.91	277.35
727.24	276.85
727.57	276.42
727.91	275.91
728.24	275.62
728.57	275.11
728.90	274.72
729.23	274.18
729.56	273.83
729.89	273.50
730.22	272.87
730.55	272.41
730.89	272.01
731.22	271.59
731.55	271.07
731.88	270.58
732.21	270.20
732.54	269.86
732.87	269.56
733.20	269.09
733.53	268.63
733.86	268.32
734.19	267.87
734.52	267.32
734.85	267.09
735.18	266.51
735.51	266.27
735.84	265.69
736.17	265.37
736.50	265.03
736.83	264.87
737.16	264.53
737.49	264.23
737.82	263.85
738.15	263.56
738.48	263.34
738.81	263.00
739.14	262.58
739.47	262.20
739.80	261.89
740.13	261.61
740.46	261.20
740.79	260.78
741.12	260.58
741.45	260.21
741.78	259.86
742.11	259.60
742.44	259.18
742.77	258.93
743.10	258.59
743.43	258.04
743.75	257.51
744.08	257.41
744.41	257.06
744.74	256.72
745.07	256.35
745.40	255.95
745.73	255.66
746.06	255.34
746.39	255.02
746.71	254.64
747.04	254.24
747.37	254.03
747.70	253.86
748.03	253.42
748.36	253.13
748.68	252.66
749.01	252.38
749.34	251.97
749.67	251.68
750.00	251.33
750.33	251.16
750.65	250.78
750.98	250.32
751.31	249.95
751.64	249.69
751.97	249.57
752.29	249.30
752.62	248.93
752.95	248.72
753.28	248.37
753.60	248.10
753.93	247.84
754.26	247.46
754.59	247.03
754.91	246.79
755.24	246.60
755.57	246.50
755.90	246.12
756.22	245.86
756.55	245.55
756.88	245.26
757.20	244.93
757.53	244.67
757.86	244.41
758.19	244.24
758.51	243.94
758.84	243.57
759.17	243.31
759.49	243.19
759.82	242.97
760.15	242.82
760.47	242.53
760.80	242.40
761.13	242.35
761.45	242.22
761.78	242.04
762.11	241.85
762.43	241.70
762.76	241.60
763.08	241.53
763.41	241.38
763.74	241.34
764.06	241.22
764.39	241.01
764.71	240.86
765.04	240.71
765.37	240.63
765.69	240.53
766.02	240.45
766.34	240.33
766.67	240.26
767.00	240.19
767.32	240.26
767.65	240.18
767.97	240.07
768.30	239.95
768.62	239.78
768.95	239.73
769.27	239.55
769.60	239.51
769.92	239.39
770.25	239.36
770.57	239.26
770.90	239.21
771.22	239.17
771.55	239.14
771.87	239.17
772.20	239.08
772.52	239.25
772.85	239.45
773.17	239.37
773.50	239.18
773.82	239.04
774.15	238.92
774.47	238.77
774.80	238.65
775.12	238.61
775.45	238.63
775.77	238.49
776.09	238.46
776.42	238.35
776.74	238.28
777.07	238.23
777.39	238.19
777.72	238.14
778.04	237.99
778.36	237.93
778.69	237.68
779.01	237.63
779.33	237.20
779.66	236.79
779.98	236.68
780.31	236.53
780.63	236.56
780.95	236.48
781.28	236.28
781.60	236.25
781.92	236.13
782.25	236.06
782.57	235.93
782.89	235.74
783.22	235.58
783.54	235.43
783.86	235.31
784.19	235.09
784.51	234.91
784.83	234.95
785.16	234.75
785.48	234.74
785.80	234.57
786.12	234.60
786.45	234.55
786.77	234.48
787.09	234.52
787.42	234.32
