SpectraSuite Data File
++++++++++++++++++++++++++++++++++++
Date: Fri Feb 01 14:36:06 EST 2013
User: group
Dark Spectrum Present: No
Reference Spectrum Present: No
Number of Sampled Component Spectra: 1
Spectrometers: USB2E7196
Integration Time (usec): 70000 (USB2E7196)
Spectra Averaged: 10 (USB2E7196)
Boxcar Smoothing: 10 (USB2E7196)
Correct for Electrical Dark: No (USB2E7196)
Strobe/Lamp Enabled: No (USB2E7196)
Correct for Detector Non-linearity: No (USB2E7196)
Correct for Stray Light: No (USB2E7196)
Number of Pixels in Processed Spectrum: 2048
>>>>>Begin Processed Spectral Data<<<<<
339.09	0.00
339.48	216.20
339.86	218.20
340.24	218.70
340.63	221.30
341.01	226.10
341.39	223.40
341.78	223.90
342.16	226.20
342.54	226.20
342.93	214.72
343.31	225.50
343.69	226.07
344.07	226.60
344.46	227.07
344.84	227.40
345.22	227.38
345.60	227.61
345.99	227.75
346.37	227.79
346.75	227.82
347.13	227.87
347.52	227.82
347.90	227.85
348.28	227.82
348.66	227.74
349.05	227.68
349.43	227.72
349.81	227.78
350.19	227.85
350.57	227.93
350.96	228.08
351.34	228.18
351.72	228.25
352.10	228.33
352.48	228.42
352.87	228.44
353.25	228.63
353.63	228.64
354.01	228.75
354.39	228.86
354.77	228.98
355.15	229.12
355.54	229.21
355.92	229.27
356.30	229.42
356.68	229.61
357.06	229.64
357.44	229.60
357.82	229.63
358.20	229.60
358.58	229.70
358.97	229.68
359.35	229.82
359.73	229.82
360.11	229.81
360.49	229.74
360.87	229.80
361.25	229.81
361.63	230.02
362.01	230.03
362.39	230.03
362.77	230.06
363.15	230.09
363.53	230.07
363.91	230.08
364.29	230.13
364.67	229.93
365.05	230.00
365.43	230.09
365.81	230.14
366.19	230.31
366.57	230.36
366.95	230.34
367.33	230.31
367.71	230.36
368.09	230.36
368.47	230.42
368.85	230.36
369.23	230.33
369.61	230.19
369.99	230.33
370.37	230.36
370.75	230.43
371.13	230.30
371.51	230.22
371.89	230.10
372.27	230.09
372.65	230.00
373.03	229.92
373.41	229.81
373.78	229.72
374.16	229.48
374.54	229.33
374.92	229.37
375.30	229.25
375.68	229.15
376.06	229.03
376.44	228.94
376.82	228.92
377.19	228.95
377.57	228.79
377.95	228.53
378.33	228.44
378.71	228.21
379.09	228.23
379.47	228.16
379.84	228.12
380.22	227.95
380.60	228.00
380.98	227.99
381.36	227.87
381.73	227.88
382.11	227.83
382.49	227.79
382.87	227.63
383.25	227.60
383.62	227.70
384.00	227.52
384.38	227.53
384.76	227.52
385.13	227.40
385.51	227.50
385.89	227.41
386.27	227.35
386.64	227.31
387.02	227.18
387.40	227.25
387.78	227.19
388.15	227.13
388.53	227.05
388.91	226.94
389.29	226.96
389.66	226.81
390.04	226.80
390.42	226.84
390.79	226.85
391.17	226.84
391.55	226.70
391.92	226.90
392.30	226.79
392.68	226.70
393.05	226.77
393.43	226.70
393.81	226.78
394.18	226.79
394.56	226.90
394.94	227.04
395.31	227.09
395.69	227.25
396.06	227.36
396.44	227.43
396.82	227.61
397.19	227.80
397.57	227.98
397.95	228.11
398.32	228.09
398.70	228.20
399.07	228.37
399.45	228.53
399.82	228.52
400.20	228.67
400.58	228.84
400.95	228.88
401.33	229.06
401.70	229.31
402.08	229.44
402.45	229.59
402.83	229.75
403.20	229.83
403.58	229.82
403.95	230.01
404.33	230.25
404.71	230.33
405.08	230.61
405.46	230.78
405.83	231.04
406.21	231.32
406.58	231.60
406.96	231.81
407.33	232.07
407.70	232.51
408.08	233.06
408.45	233.54
408.83	234.01
409.20	234.42
409.58	234.74
409.95	235.31
410.33	235.88
410.70	236.28
411.08	236.89
411.45	237.66
411.82	238.34
412.20	239.07
412.57	239.92
412.95	240.53
413.32	241.43
413.69	242.16
414.07	243.08
414.44	244.06
414.82	245.12
415.19	246.24
415.56	247.38
415.94	248.50
416.31	249.77
416.68	251.11
417.06	252.65
417.43	254.32
417.81	256.00
418.18	257.71
418.55	259.67
418.93	261.66
419.30	263.70
419.67	265.94
420.04	268.09
420.42	270.46
420.79	273.24
421.16	275.78
421.54	278.61
421.91	281.34
422.28	284.27
422.66	287.33
423.03	290.50
423.40	293.66
423.77	296.97
424.15	300.38
424.52	304.00
424.89	307.84
425.26	311.48
425.64	315.00
426.01	318.89
426.38	322.98
426.75	327.08
427.13	331.22
427.50	335.68
427.87	340.50
428.24	345.23
428.61	349.55
428.99	354.63
429.36	360.08
429.73	365.34
430.10	370.51
430.47	375.69
430.85	381.07
431.22	386.70
431.59	392.88
431.96	398.84
432.33	405.18
432.70	411.54
433.08	419.02
433.45	425.91
433.82	432.79
434.19	440.32
434.56	447.90
434.93	455.21
435.30	461.98
435.68	469.68
436.05	477.24
436.42	484.89
436.79	491.76
437.16	499.10
437.53	507.00
437.90	514.86
438.27	522.68
438.64	530.61
439.01	538.16
439.38	544.65
439.75	550.91
440.13	558.28
440.50	565.16
440.87	570.73
441.24	576.83
441.61	583.50
441.98	588.43
442.35	594.18
442.72	599.98
443.09	606.05
443.46	609.75
443.83	612.34
444.20	614.91
444.57	618.20
444.94	620.21
445.31	622.25
445.68	624.22
446.05	625.66
446.42	625.85
446.79	625.83
447.16	625.90
447.53	626.13
447.90	624.20
448.27	622.20
448.64	618.86
449.01	616.77
449.37	612.32
449.74	608.15
450.11	602.73
450.48	596.93
450.85	590.86
451.22	585.91
451.59	581.19
451.96	576.58
452.33	570.31
452.70	564.50
453.07	557.51
453.43	550.43
453.80	543.21
454.17	536.36
454.54	529.99
454.91	522.85
455.28	515.94
455.65	509.65
456.02	503.11
456.38	497.69
456.75	490.67
457.12	484.91
457.49	479.28
457.86	474.04
458.23	469.35
458.59	464.10
458.96	458.38
459.33	453.66
459.70	448.63
460.07	444.65
460.43	440.15
460.80	435.91
461.17	432.28
461.54	428.47
461.91	424.80
462.27	420.96
462.64	417.81
463.01	414.27
463.38	410.69
463.74	407.27
464.11	404.37
464.48	401.75
464.85	398.71
465.21	396.20
465.58	393.50
465.95	390.54
466.32	388.04
466.68	385.66
467.05	383.14
467.42	380.80
467.78	378.15
468.15	375.60
468.52	373.71
468.88	371.12
469.25	369.11
469.62	367.33
469.98	365.48
470.35	363.67
470.72	362.04
471.08	360.18
471.45	358.73
471.82	356.91
472.18	355.18
472.55	354.03
472.92	352.78
473.28	351.40
473.65	349.96
474.02	348.61
474.38	347.56
474.75	346.57
475.11	345.60
475.48	345.00
475.85	344.45
476.21	343.74
476.58	343.07
476.94	342.36
477.31	341.58
477.67	340.81
478.04	340.22
478.41	339.90
478.77	339.62
479.14	339.12
479.50	339.00
479.87	338.90
480.23	338.61
480.60	338.23
480.96	337.92
481.33	337.99
481.69	338.11
482.06	338.10
482.42	337.94
482.79	337.81
483.15	337.76
483.52	337.85
483.88	337.89
484.25	338.07
484.61	338.37
484.98	338.75
485.34	339.35
485.71	339.87
486.07	340.14
486.44	340.57
486.80	341.03
487.17	341.42
487.53	341.94
487.90	342.74
488.26	343.57
488.62	344.52
488.99	345.28
489.35	346.00
489.72	346.99
490.08	348.09
490.44	349.15
490.81	350.30
491.17	351.45
491.54	352.78
491.90	353.95
492.26	355.27
492.63	356.61
492.99	357.91
493.36	359.22
493.72	360.84
494.08	362.36
494.45	364.06
494.81	365.85
495.17	367.59
495.54	369.09
495.90	370.72
496.26	372.44
496.63	374.22
496.99	376.12
497.35	377.98
497.72	379.85
498.08	381.88
498.44	383.80
498.80	385.72
499.17	387.58
499.53	389.55
499.89	391.30
500.26	393.20
500.62	394.91
500.98	396.98
501.34	398.83
501.71	400.73
502.07	402.40
502.43	404.07
502.79	405.75
503.16	407.54
503.52	409.37
503.88	411.11
504.24	412.80
504.60	414.38
504.97	415.99
505.33	417.58
505.69	419.26
506.05	420.79
506.41	422.19
506.78	423.64
507.14	425.01
507.50	426.55
507.86	427.88
508.22	429.21
508.59	430.40
508.95	431.54
509.31	432.80
509.67	434.02
510.03	435.34
510.39	436.49
510.75	437.64
511.12	438.60
511.48	439.64
511.84	440.62
512.20	441.55
512.56	442.48
512.92	443.29
513.28	443.92
513.64	444.54
514.00	445.15
514.37	445.87
514.73	446.54
515.09	447.04
515.45	447.66
515.81	448.34
516.17	448.87
516.53	449.39
516.89	449.51
517.25	449.89
517.61	450.14
517.97	450.50
518.33	450.80
518.69	451.08
519.05	451.44
519.41	451.92
519.77	452.37
520.13	452.69
520.49	452.96
520.85	453.22
521.21	453.63
521.57	454.12
521.93	454.51
522.29	455.00
522.65	455.46
523.01	455.80
523.37	456.13
523.73	456.60
524.09	457.15
524.45	457.97
524.81	458.49
525.17	459.33
525.53	460.08
525.89	461.06
526.25	461.90
526.61	462.54
526.97	463.32
527.33	464.29
527.68	465.43
528.04	466.51
528.40	467.78
528.76	468.93
529.12	470.26
529.48	471.50
529.84	472.71
530.20	474.10
530.56	475.86
530.91	477.54
531.27	479.11
531.63	480.76
531.99	482.57
532.35	484.42
532.71	485.95
533.07	487.89
533.42	489.92
533.78	491.90
534.14	494.08
534.50	496.01
534.86	498.19
535.21	500.25
535.57	502.72
535.93	505.00
536.29	507.44
536.65	509.91
537.00	512.35
537.36	514.87
537.72	517.62
538.08	520.16
538.44	522.64
538.79	525.49
539.15	528.27
539.51	531.09
539.87	534.29
540.22	537.40
540.58	540.53
540.94	543.33
541.29	546.45
541.65	549.61
542.01	553.12
542.37	556.40
542.72	559.84
543.08	563.03
543.44	566.53
543.79	569.81
544.15	573.24
544.51	576.95
544.87	580.61
545.22	584.10
545.58	587.64
545.94	591.62
546.29	595.18
546.65	599.05
547.01	602.72
547.36	606.09
547.72	610.08
548.07	613.75
548.43	617.29
548.79	621.07
549.14	624.65
549.50	628.31
549.86	631.97
550.21	635.44
550.57	639.32
550.92	642.91
551.28	646.77
551.64	650.55
551.99	654.19
552.35	657.84
552.70	661.82
553.06	665.70
553.41	669.44
553.77	673.37
554.13	677.02
554.48	680.70
554.84	684.64
555.19	688.34
555.55	692.33
555.90	696.12
556.26	699.86
556.61	703.80
556.97	707.30
557.32	711.10
557.68	715.10
558.03	718.99
558.39	722.70
558.74	726.98
559.10	730.63
559.45	734.67
559.81	738.86
560.16	742.47
560.52	746.33
560.87	750.20
561.23	753.66
561.58	757.61
561.94	761.29
562.29	764.64
562.64	767.94
563.00	771.18
563.35	775.07
563.71	779.12
564.06	782.84
564.42	786.54
564.77	789.92
565.12	793.32
565.48	796.72
565.83	800.35
566.19	803.30
566.54	806.69
566.89	809.61
567.25	812.62
567.60	815.92
567.96	819.00
568.31	822.05
568.66	825.25
569.02	827.92
569.37	830.86
569.72	833.94
570.08	836.68
570.43	839.50
570.78	842.10
571.14	844.27
571.49	846.84
571.84	849.53
572.20	851.70
572.55	854.05
572.90	856.18
573.26	858.29
573.61	860.23
573.96	862.06
574.31	863.68
574.67	865.07
575.02	866.37
575.37	867.92
575.72	868.83
576.08	870.40
576.43	871.56
576.78	872.86
577.13	874.40
577.49	875.84
577.84	877.05
578.19	878.04
578.54	879.30
578.90	880.09
579.25	880.69
579.60	881.60
579.95	882.17
580.30	882.76
580.66	883.09
581.01	883.53
581.36	884.05
581.71	885.07
582.06	885.91
582.42	886.33
582.77	886.57
583.12	887.01
583.47	887.39
583.82	888.10
584.17	888.22
584.53	888.10
584.88	888.22
585.23	888.16
585.58	888.34
585.93	887.93
586.28	887.83
586.63	888.05
586.98	888.22
587.34	888.28
587.69	888.35
588.04	888.14
588.39	888.25
588.74	887.82
589.09	887.20
589.44	886.64
589.79	886.64
590.14	886.31
590.49	885.78
590.84	885.07
591.19	884.29
591.54	883.32
591.89	882.19
592.25	881.70
592.60	880.66
592.95	879.27
593.30	878.24
593.65	877.13
594.00	875.70
594.35	874.86
594.70	873.26
595.05	871.95
595.40	870.65
595.75	869.02
596.10	867.73
596.45	866.56
596.80	865.35
597.15	863.69
597.50	862.18
597.85	861.16
598.19	859.64
598.54	858.34
598.89	857.55
599.24	856.83
599.59	854.99
599.94	853.71
600.29	852.35
600.64	850.73
600.99	848.94
601.34	847.60
601.69	845.36
602.04	844.03
602.39	842.15
602.74	840.90
603.08	839.60
603.43	838.50
603.78	837.05
604.13	835.45
604.48	833.78
604.83	832.33
605.18	830.60
605.53	828.87
605.87	826.80
606.22	824.80
606.57	822.48
606.92	820.73
607.27	819.15
607.62	817.70
607.96	816.16
608.31	814.58
608.66	812.40
609.01	810.58
609.36	808.13
609.70	805.74
610.05	803.22
610.40	801.07
610.75	798.49
611.10	795.97
611.44	793.27
611.79	790.96
612.14	788.33
612.49	785.62
612.83	783.01
613.18	780.47
613.53	777.75
613.88	775.13
614.22	772.39
614.57	769.41
614.92	766.51
615.27	763.81
615.61	761.00
615.96	758.29
616.31	755.72
616.65	753.73
617.00	751.65
617.35	749.19
617.70	746.17
618.04	743.35
618.39	740.64
618.74	738.09
619.08	735.08
619.43	732.42
619.78	729.92
620.12	727.41
620.47	724.86
620.82	722.10
621.16	719.61
621.51	717.25
621.85	714.49
622.20	711.69
622.55	709.02
622.89	706.61
623.24	704.24
623.59	701.78
623.93	699.12
624.28	696.48
624.62	694.20
624.97	692.10
625.32	689.77
625.66	687.28
626.01	684.80
626.35	682.53
626.70	679.90
627.04	677.30
627.39	674.50
627.73	671.92
628.08	669.57
628.43	666.96
628.77	664.35
629.12	661.88
629.46	659.66
629.81	657.08
630.15	654.17
630.50	651.38
630.84	648.57
631.19	645.60
631.53	642.89
631.88	639.67
632.22	636.69
632.57	634.02
632.91	631.24
633.26	628.78
633.60	626.00
633.95	623.41
634.29	620.86
634.64	618.56
634.98	615.97
635.32	613.52
635.67	611.29
636.01	608.54
636.36	606.04
636.70	603.40
637.05	600.93
637.39	598.79
637.73	596.54
638.08	594.43
638.42	592.36
638.77	590.17
639.11	588.10
639.45	585.77
639.80	583.32
640.14	581.19
640.49	578.66
640.83	576.39
641.17	574.23
641.52	571.93
641.86	569.40
642.20	567.25
642.55	564.64
642.89	562.18
643.23	559.71
643.58	557.71
643.92	555.37
644.26	553.08
644.61	550.72
644.95	548.28
645.29	545.36
645.64	542.73
645.98	540.30
646.32	537.90
646.66	535.52
647.01	533.20
647.35	530.80
647.69	528.53
648.04	526.50
648.38	523.98
648.72	521.40
649.06	519.18
649.41	516.67
649.75	514.35
650.09	512.09
650.43	509.95
650.78	507.22
651.12	504.86
651.46	502.65
651.80	500.21
652.14	498.04
652.49	496.18
652.83	494.12
653.17	491.66
653.51	489.28
653.85	487.06
654.20	484.85
654.54	482.40
654.88	479.98
655.22	477.32
655.56	475.07
655.90	473.05
656.25	470.87
656.59	468.72
656.93	466.80
657.27	464.68
657.61	462.57
657.95	460.70
658.29	458.56
658.64	456.27
658.98	454.23
659.32	452.11
659.66	449.97
660.00	447.87
660.34	445.89
660.68	443.99
661.02	441.87
661.36	439.88
661.70	438.13
662.05	436.36
662.39	434.85
662.73	433.02
663.07	431.29
663.41	429.36
663.75	427.67
664.09	425.83
664.43	423.94
664.77	422.10
665.11	420.30
665.45	418.80
665.79	417.28
666.13	415.59
666.47	413.99
666.81	412.16
667.15	410.21
667.49	408.52
667.83	406.98
668.17	405.38
668.51	403.73
668.85	401.98
669.19	400.40
669.53	398.53
669.87	396.91
670.21	395.28
670.55	394.01
670.89	392.42
671.23	390.90
671.57	389.33
671.91	387.89
672.25	386.43
672.58	384.96
672.92	383.53
673.26	382.20
673.60	380.68
673.94	379.53
674.28	378.42
674.62	377.21
674.96	375.71
675.30	374.54
675.64	373.30
675.97	372.02
676.31	370.71
676.65	369.51
676.99	368.26
677.33	366.95
677.67	365.49
678.01	364.30
678.34	362.99
678.68	361.85
679.02	360.48
679.36	359.20
679.70	358.03
680.04	356.60
680.37	355.36
680.71	354.18
681.05	352.96
681.39	351.81
681.73	350.55
682.06	349.54
682.40	348.35
682.74	347.24
683.08	346.26
683.42	345.15
683.75	344.04
684.09	343.16
684.43	342.07
684.77	340.96
685.10	339.82
685.44	338.72
685.78	337.73
686.12	336.86
686.45	335.80
686.79	334.63
687.13	333.57
687.46	332.50
687.80	331.46
688.14	330.29
688.48	329.20
688.81	328.16
689.15	327.12
689.49	326.13
689.82	325.05
690.16	323.96
690.50	322.96
690.83	321.99
691.17	320.82
691.51	319.86
691.84	318.86
692.18	317.94
692.52	316.98
692.85	315.99
693.19	315.08
693.52	314.16
693.86	313.20
694.20	312.43
694.53	311.62
694.87	310.70
695.21	309.86
695.54	309.00
695.88	308.21
696.21	307.17
696.55	306.34
696.88	305.62
697.22	304.69
697.56	304.00
697.89	303.32
698.23	302.66
698.56	301.86
698.90	301.14
699.23	300.20
699.57	299.49
699.90	298.50
700.24	297.72
700.58	297.01
700.91	296.29
701.25	295.70
701.58	295.02
701.92	294.32
702.25	293.64
702.59	293.05
702.92	292.33
703.26	291.86
703.59	291.30
703.93	290.79
704.26	290.22
704.60	289.56
704.93	288.86
705.26	288.21
705.60	287.70
705.93	287.16
706.27	286.77
706.60	286.22
706.94	285.92
707.27	285.30
707.61	284.72
707.94	284.18
708.27	283.50
708.61	282.80
708.94	282.40
709.28	281.84
709.61	281.26
709.94	280.70
710.28	280.13
710.61	279.51
710.95	278.76
711.28	278.38
711.61	277.76
711.95	277.30
712.28	276.70
712.61	276.03
712.95	275.54
713.28	275.01
713.61	274.50
713.95	273.83
714.28	273.32
714.61	272.83
714.95	272.40
715.28	271.76
715.61	271.33
715.95	270.72
716.28	270.31
716.61	269.94
716.95	269.51
717.28	269.14
717.61	268.67
717.94	268.27
718.28	267.64
718.61	267.18
718.94	266.66
719.27	266.14
719.61	265.80
719.94	265.31
720.27	264.78
720.60	264.39
720.94	264.00
721.27	263.65
721.60	263.35
721.93	262.94
722.27	262.77
722.60	262.42
722.93	262.08
723.26	261.75
723.59	261.23
723.93	260.95
724.26	260.48
724.59	260.05
724.92	259.68
725.25	259.46
725.59	259.18
725.92	258.79
726.25	258.47
726.58	258.16
726.91	257.85
727.24	257.65
727.57	257.17
727.91	256.85
728.24	256.63
728.57	256.12
728.90	255.88
729.23	255.52
729.56	255.21
729.89	254.92
730.22	254.64
730.55	254.32
730.89	253.94
731.22	253.75
731.55	253.51
731.88	253.29
732.21	253.04
732.54	252.70
732.87	252.61
733.20	252.42
733.53	252.16
733.86	252.01
734.19	251.69
734.52	251.60
734.85	251.44
735.18	251.07
735.51	251.06
735.84	250.88
736.17	250.66
736.50	250.40
736.83	250.45
737.16	250.20
737.49	250.06
737.82	249.97
738.15	249.70
738.48	249.48
738.81	249.22
739.14	248.91
739.47	248.77
739.80	248.45
740.13	248.26
740.46	248.07
740.79	247.76
741.12	247.58
741.45	247.39
741.78	247.18
742.11	247.08
742.44	246.71
742.77	246.47
743.10	246.26
743.43	246.06
743.75	245.61
744.08	245.74
744.41	245.60
744.74	245.40
745.07	245.22
745.40	245.15
745.73	245.08
746.06	244.93
746.39	244.77
746.71	244.59
747.04	244.45
747.37	244.28
747.70	244.11
748.03	244.04
748.36	243.91
748.68	243.76
749.01	243.59
749.34	243.53
749.67	243.30
750.00	243.18
750.33	243.15
750.65	243.15
750.98	242.70
751.31	242.52
751.64	242.35
751.97	242.35
752.29	242.09
752.62	241.84
752.95	241.70
753.28	241.56
753.60	241.45
753.93	241.40
754.26	241.24
754.59	241.11
754.91	240.91
755.24	240.70
755.57	240.56
755.90	240.40
756.22	240.14
756.55	240.07
756.88	239.85
757.20	239.63
757.53	239.35
757.86	239.21
758.19	239.09
758.51	239.07
758.84	238.79
759.17	238.74
759.49	238.68
759.82	238.70
760.15	238.68
760.47	238.56
760.80	238.23
761.13	238.28
761.45	238.19
761.78	238.06
762.11	237.96
762.43	237.88
762.76	237.76
763.08	237.81
763.41	237.70
763.74	237.61
764.06	237.46
764.39	237.40
764.71	237.29
765.04	237.21
765.37	237.02
765.69	237.03
766.02	236.94
766.34	236.78
766.67	236.60
767.00	236.46
767.32	236.52
767.65	236.65
767.97	236.40
768.30	236.33
768.62	236.32
768.95	236.31
769.27	236.20
769.60	236.09
769.92	235.99
770.25	235.84
770.57	235.75
770.90	235.74
771.22	235.62
771.55	235.52
771.87	235.37
772.20	235.20
772.52	235.21
772.85	235.42
773.17	235.39
773.50	235.24
773.82	235.23
774.15	235.04
774.47	234.90
774.80	234.99
775.12	234.89
775.45	234.72
775.77	234.58
776.09	234.42
776.42	234.44
776.74	234.40
777.07	234.39
777.39	234.40
777.72	234.34
778.04	234.31
778.36	234.28
778.69	234.29
779.01	234.36
779.33	234.11
779.66	233.73
779.98	233.72
780.31	233.70
780.63	233.70
780.95	233.64
781.28	233.47
781.60	233.32
781.92	233.34
782.25	233.30
782.57	233.35
782.89	233.38
783.22	233.35
783.54	233.31
783.86	233.27
784.19	233.24
784.51	233.13
784.83	233.07
785.16	233.04
785.48	233.01
785.80	232.91
786.12	233.00
786.45	232.96
786.77	232.95
787.09	232.96
787.42	232.85
787.74	232.83
788.06	232.88
788.38	232.86
788.71	232.76
789.03	232.76
789.35	232.69
789.67	232.60
789.99	232.49
790.32	232.43
790.64	232.32
790.96	232.39
791.28	232.39
791.61	232.46
791.93	232.40
792.25	232.40
792.57	232.58
792.89	232.48
793.21	232.58
793.54	232.52
793.86	232.44
794.18	232.31
