SpectraSuite Data File
++++++++++++++++++++++++++++++++++++
Date: Fri Feb 01 14:39:46 EST 2013
User: group
Dark Spectrum Present: No
Reference Spectrum Present: No
Number of Sampled Component Spectra: 1
Spectrometers: USB2E7196
Integration Time (usec): 70000 (USB2E7196)
Spectra Averaged: 10 (USB2E7196)
Boxcar Smoothing: 10 (USB2E7196)
Correct for Electrical Dark: No (USB2E7196)
Strobe/Lamp Enabled: No (USB2E7196)
Correct for Detector Non-linearity: No (USB2E7196)
Correct for Stray Light: No (USB2E7196)
Number of Pixels in Processed Spectrum: 2048
>>>>>Begin Processed Spectral Data<<<<<
339.09	0.00
339.48	216.70
339.86	217.40
340.24	219.50
340.63	220.60
341.01	223.90
341.39	223.40
341.78	222.40
342.16	225.60
342.54	225.60
342.93	214.40
343.31	225.28
343.69	225.76
344.07	226.24
344.46	226.61
344.84	227.03
345.22	227.18
345.60	227.43
345.99	227.65
346.37	227.79
346.75	227.86
347.13	227.86
347.52	227.90
347.90	227.99
348.28	227.91
348.66	227.99
349.05	227.92
349.43	228.00
349.81	228.00
350.19	228.07
350.57	228.18
350.96	228.25
351.34	228.29
351.72	228.42
352.10	228.52
352.48	228.61
352.87	228.59
353.25	228.63
353.63	228.61
354.01	228.78
354.39	228.87
354.77	229.05
355.15	229.14
355.54	229.16
355.92	229.18
356.30	229.29
356.68	229.37
357.06	229.50
357.44	229.49
357.82	229.48
358.20	229.60
358.58	229.62
358.97	229.72
359.35	229.75
359.73	229.78
360.11	229.74
360.49	229.81
360.87	229.85
361.25	229.99
361.63	230.16
362.01	230.10
362.39	230.04
362.77	230.04
363.15	230.00
363.53	229.94
363.91	229.98
364.29	230.01
364.67	229.96
365.05	229.97
365.43	230.00
365.81	230.10
366.19	230.17
366.57	230.27
366.95	230.21
367.33	230.12
367.71	230.10
368.09	230.08
368.47	230.05
368.85	229.99
369.23	229.94
369.61	229.81
369.99	229.90
370.37	229.95
370.75	230.02
371.13	229.94
371.51	230.01
371.89	230.00
372.27	229.86
372.65	229.72
373.03	229.75
373.41	229.64
373.78	229.56
374.16	229.35
374.54	229.20
374.92	229.17
375.30	229.23
375.68	229.12
376.06	229.16
376.44	229.08
376.82	229.15
377.19	229.08
377.57	228.97
377.95	228.77
378.33	228.67
378.71	228.34
379.09	228.37
379.47	228.29
379.84	228.12
380.22	228.11
380.60	228.07
380.98	227.84
381.36	227.84
381.73	227.76
382.11	227.68
382.49	227.66
382.87	227.50
383.25	227.37
383.62	227.48
384.00	227.37
384.38	227.14
384.76	226.90
385.13	226.91
385.51	226.94
385.89	226.90
386.27	226.84
386.64	226.88
387.02	226.75
387.40	226.70
387.78	226.66
388.15	226.50
388.53	226.45
388.91	226.49
389.29	226.35
389.66	226.32
390.04	226.29
390.42	226.22
390.79	226.20
391.17	226.19
391.55	226.00
391.92	225.99
392.30	226.15
392.68	226.23
393.05	226.18
393.43	226.19
393.81	226.19
394.18	226.14
394.56	226.21
394.94	226.27
395.31	226.32
395.69	226.39
396.06	226.53
396.44	226.59
396.82	226.56
397.19	226.83
397.57	226.78
397.95	226.87
398.32	226.93
398.70	227.07
399.07	227.14
399.45	227.30
399.82	227.32
400.20	227.34
400.58	227.42
400.95	227.40
401.33	227.46
401.70	227.70
402.08	227.75
402.45	227.80
402.83	228.04
403.20	228.10
403.58	228.21
403.95	228.41
404.33	228.60
404.71	228.86
405.08	228.97
405.46	229.24
405.83	229.39
406.21	229.51
406.58	229.65
406.96	229.93
407.33	230.02
407.70	230.28
408.08	230.72
408.45	230.96
408.83	231.26
409.20	231.57
409.58	231.74
409.95	232.06
410.33	232.43
410.70	232.52
411.08	232.79
411.45	233.09
411.82	233.32
412.20	233.66
412.57	234.14
412.95	234.46
413.32	234.86
413.69	235.26
414.07	235.70
414.44	236.12
414.82	236.56
415.19	237.16
415.56	237.61
415.94	238.03
416.31	238.68
416.68	239.38
417.06	240.04
417.43	240.66
417.81	241.45
418.18	242.15
418.55	243.08
418.93	244.02
419.30	244.95
419.67	245.95
420.04	246.96
420.42	247.83
420.79	249.03
421.16	250.10
421.54	251.37
421.91	252.68
422.28	253.99
422.66	255.26
423.03	256.64
423.40	258.07
423.77	259.47
424.15	260.98
424.52	262.58
424.89	264.19
425.26	265.69
425.64	267.11
426.01	268.62
426.38	270.27
426.75	271.95
427.13	273.70
427.50	275.37
427.87	277.30
428.24	279.07
428.61	280.82
428.99	283.01
429.36	284.99
429.73	286.97
430.10	288.98
430.47	291.10
430.85	293.25
431.22	295.58
431.59	298.18
431.96	300.33
432.33	302.73
432.70	305.16
433.08	308.15
433.45	311.02
433.82	313.91
434.19	316.87
434.56	319.77
434.93	322.61
435.30	325.42
435.68	328.30
436.05	331.50
436.42	334.42
436.79	336.93
437.16	339.96
437.53	343.06
437.90	346.09
438.27	349.19
438.64	352.13
439.01	355.00
439.38	357.33
439.75	359.84
440.13	362.35
440.50	364.90
440.87	367.08
441.24	369.17
441.61	371.51
441.98	373.26
442.35	375.30
442.72	377.32
443.09	379.35
443.46	380.77
443.83	381.45
444.20	382.07
444.57	383.11
444.94	383.51
445.31	383.91
445.68	384.60
446.05	384.75
446.42	384.50
446.79	384.13
447.16	383.72
447.53	383.50
447.90	382.59
448.27	381.58
448.64	379.95
449.01	378.88
449.37	377.02
449.74	375.23
450.11	373.08
450.48	370.52
450.85	368.05
451.22	365.74
451.59	363.64
451.96	361.86
452.33	359.19
452.70	356.76
453.07	354.04
453.43	350.90
453.80	347.96
454.17	345.25
454.54	342.66
454.91	340.03
455.28	337.19
455.65	334.67
456.02	332.24
456.38	329.95
456.75	327.18
457.12	324.67
457.49	322.37
457.86	320.13
458.23	318.28
458.59	316.10
458.96	314.00
459.33	312.08
459.70	310.18
460.07	308.62
460.43	306.86
460.80	305.08
461.17	303.61
461.54	302.06
461.91	300.37
462.27	298.71
462.64	297.26
463.01	295.81
463.38	294.43
463.74	292.80
464.11	291.55
464.48	290.34
464.85	289.24
465.21	288.30
465.58	287.12
465.95	285.90
466.32	284.75
466.68	283.66
467.05	282.61
467.42	281.41
467.78	280.27
468.15	279.19
468.52	278.39
468.88	277.32
469.25	276.39
469.62	275.78
469.98	274.96
470.35	274.16
470.72	273.46
471.08	272.56
471.45	271.82
471.82	271.19
472.18	270.56
472.55	269.89
472.92	269.08
473.28	268.36
473.65	267.69
474.02	267.14
474.38	266.54
474.75	266.09
475.11	265.39
475.48	265.01
475.85	264.56
476.21	264.04
476.58	263.60
476.94	263.25
477.31	262.76
477.67	262.43
478.04	262.04
478.41	261.65
478.77	261.57
479.14	261.19
479.50	260.89
479.87	260.56
480.23	260.19
480.60	259.90
480.96	259.76
481.33	259.66
481.69	259.53
482.06	259.38
482.42	259.14
482.79	259.20
483.15	259.05
483.52	258.96
483.88	258.71
484.25	258.63
484.61	258.51
484.98	258.40
485.34	258.33
485.71	258.32
486.07	258.30
486.44	258.11
486.80	258.20
487.17	258.22
487.53	258.27
487.90	258.42
488.26	258.70
488.62	258.84
488.99	258.84
489.35	258.94
489.72	259.01
490.08	259.23
490.44	259.24
490.81	259.40
491.17	259.60
491.54	260.01
491.90	260.24
492.26	260.49
492.63	260.86
492.99	261.16
493.36	261.48
493.72	261.85
494.08	262.16
494.45	262.65
494.81	263.10
495.17	263.62
495.54	264.11
495.90	264.41
496.26	264.94
496.63	265.60
496.99	266.28
497.35	267.01
497.72	267.72
498.08	268.50
498.44	269.24
498.80	270.14
499.17	270.95
499.53	271.76
499.89	272.63
500.26	273.47
500.62	274.46
500.98	275.51
501.34	276.55
501.71	277.68
502.07	278.73
502.43	279.90
502.79	281.05
503.16	282.28
503.52	283.71
503.88	284.91
504.24	286.17
504.60	287.53
504.97	288.91
505.33	290.30
505.69	292.00
506.05	293.72
506.41	295.36
506.78	297.10
507.14	298.90
507.50	300.88
507.86	303.00
508.22	305.17
508.59	307.24
508.95	309.45
509.31	311.82
509.67	314.11
510.03	316.47
510.39	319.03
510.75	321.80
511.12	324.37
511.48	327.27
511.84	330.30
512.20	333.41
512.56	336.54
512.92	339.90
513.28	343.33
513.64	346.74
514.00	350.22
514.37	353.86
514.73	357.70
515.09	361.50
515.45	365.26
515.81	369.28
516.17	373.49
516.53	377.84
516.89	382.17
517.25	386.73
517.61	391.42
517.97	396.10
518.33	400.70
518.69	405.78
519.05	410.81
519.41	415.98
519.77	421.42
520.13	426.89
520.49	432.14
520.85	437.55
521.21	443.37
521.57	449.23
521.93	455.08
522.29	461.08
522.65	467.10
523.01	473.41
523.37	479.58
523.73	485.98
524.09	492.35
524.45	498.82
524.81	505.36
525.17	512.48
525.53	519.54
525.89	526.59
526.25	533.76
526.61	540.99
526.97	548.07
527.33	555.20
527.68	562.85
528.04	570.48
528.40	578.03
528.76	585.53
529.12	593.49
529.48	601.45
529.84	609.27
530.20	617.63
530.56	625.90
530.91	634.18
531.27	642.53
531.63	651.05
531.99	659.60
532.35	668.20
532.71	676.21
533.07	684.97
533.42	693.83
533.78	702.30
534.14	711.00
534.50	719.70
534.86	728.53
535.21	737.04
535.57	746.16
535.93	755.08
536.29	764.14
536.65	772.98
537.00	781.73
537.36	790.66
537.72	799.40
538.08	808.21
538.44	816.90
538.79	825.86
539.15	834.61
539.51	843.73
539.87	853.05
540.22	862.20
540.58	871.10
540.94	879.87
541.29	888.75
541.65	897.50
542.01	906.86
542.37	915.62
542.72	924.39
543.08	933.13
543.44	942.15
543.79	950.59
544.15	959.16
544.51	968.32
544.87	977.45
545.22	985.94
545.58	994.41
545.94	1002.81
546.29	1010.99
546.65	1019.29
547.01	1027.20
547.36	1035.03
547.72	1043.02
548.07	1050.56
548.43	1058.21
548.79	1066.00
549.14	1073.63
549.50	1080.63
549.86	1088.00
550.21	1095.38
550.57	1102.93
550.92	1109.99
551.28	1117.23
551.64	1124.35
551.99	1131.37
552.35	1137.71
552.70	1144.81
553.06	1152.06
553.41	1159.18
553.77	1165.95
554.13	1172.97
554.48	1179.61
554.84	1186.12
555.19	1192.61
555.55	1199.48
555.90	1205.78
556.26	1211.86
556.61	1218.17
556.97	1224.20
557.32	1230.32
557.68	1236.38
558.03	1242.10
558.39	1247.70
558.74	1253.89
559.10	1259.70
559.45	1264.83
559.81	1271.21
560.16	1276.55
560.52	1281.63
560.87	1287.32
561.23	1292.53
561.58	1297.56
561.94	1303.07
562.29	1307.83
562.64	1312.27
563.00	1316.68
563.35	1321.84
563.71	1327.20
564.06	1332.22
564.42	1337.35
564.77	1342.28
565.12	1347.10
565.48	1351.42
565.83	1355.86
566.19	1359.71
566.54	1363.80
566.89	1367.97
567.25	1371.13
567.60	1375.11
567.96	1378.70
568.31	1381.96
568.66	1385.45
569.02	1388.73
569.37	1391.33
569.72	1394.70
570.08	1398.00
570.43	1400.80
570.78	1403.34
571.14	1405.39
571.49	1407.38
571.84	1410.01
572.20	1411.87
572.55	1413.56
572.90	1415.67
573.26	1417.46
573.61	1419.19
573.96	1420.39
574.31	1421.19
574.67	1422.18
575.02	1422.82
575.37	1423.56
575.72	1423.98
576.08	1424.71
576.43	1424.89
576.78	1425.53
577.13	1426.10
577.49	1426.83
577.84	1426.93
578.19	1426.89
578.54	1427.10
578.90	1426.88
579.25	1425.88
579.60	1425.23
579.95	1424.67
580.30	1423.49
580.66	1422.75
581.01	1421.70
581.36	1421.30
581.71	1421.35
582.06	1420.78
582.42	1419.71
582.77	1418.46
583.12	1417.41
583.47	1416.47
583.82	1415.52
584.17	1414.23
584.53	1413.09
584.88	1411.34
585.23	1409.98
585.58	1408.97
585.93	1407.44
586.28	1406.43
586.63	1405.46
586.98	1404.11
587.34	1402.68
587.69	1401.21
588.04	1399.78
588.39	1398.53
588.74	1396.20
589.09	1393.77
589.44	1391.24
589.79	1389.32
590.14	1388.03
590.49	1386.06
590.84	1383.59
591.19	1381.66
591.54	1378.76
591.89	1375.27
592.25	1372.84
592.60	1369.84
592.95	1366.44
593.30	1363.09
593.65	1359.76
594.00	1356.57
594.35	1353.91
594.70	1350.30
595.05	1347.56
595.40	1343.87
595.75	1340.30
596.10	1337.25
596.45	1334.27
596.80	1332.33
597.15	1329.42
597.50	1325.92
597.85	1322.93
598.19	1320.03
598.54	1316.90
598.89	1314.29
599.24	1312.21
599.59	1309.07
599.94	1306.24
600.29	1303.24
600.64	1300.33
600.99	1296.75
601.34	1293.45
601.69	1289.86
602.04	1286.96
602.39	1283.30
602.74	1280.68
603.08	1277.88
603.43	1274.95
603.78	1271.50
604.13	1267.32
604.48	1263.89
604.83	1260.59
605.18	1256.88
605.53	1252.90
605.87	1248.40
606.22	1244.60
606.57	1240.21
606.92	1236.25
607.27	1232.84
607.62	1229.26
607.96	1225.76
608.31	1222.36
608.66	1218.41
609.01	1213.96
609.36	1209.48
609.70	1204.95
610.05	1199.74
610.40	1195.05
610.75	1190.12
611.10	1185.68
611.44	1180.96
611.79	1176.59
612.14	1171.77
612.49	1166.63
612.83	1161.74
613.18	1157.06
613.53	1152.23
613.88	1147.13
614.22	1141.99
614.57	1136.50
614.92	1131.58
615.27	1126.63
615.61	1121.71
615.96	1116.50
616.31	1112.19
616.65	1107.98
617.00	1103.75
617.35	1099.71
617.70	1095.05
618.04	1090.30
618.39	1085.33
618.74	1080.90
619.08	1075.64
619.43	1070.98
619.78	1066.22
620.12	1061.77
620.47	1057.37
620.82	1052.56
621.16	1048.01
621.51	1043.84
621.85	1039.71
622.20	1034.81
622.55	1030.28
622.89	1025.67
623.24	1021.64
623.59	1017.15
623.93	1012.81
624.28	1008.18
624.62	1003.65
624.97	998.86
625.32	994.92
625.66	990.52
626.01	985.90
626.35	981.60
626.70	977.00
627.04	973.07
627.39	968.44
627.73	963.97
628.08	959.82
628.43	955.42
628.77	950.80
629.12	946.14
629.46	941.65
629.81	936.52
630.15	931.88
630.50	926.91
630.84	921.80
631.19	916.46
631.53	911.62
631.88	906.53
632.22	901.75
632.57	896.89
632.91	892.14
633.26	887.37
633.60	882.47
633.95	877.88
634.29	873.17
634.64	868.79
634.98	864.22
635.32	859.52
635.67	855.29
636.01	850.96
636.36	846.19
636.70	841.92
637.05	837.90
637.39	833.64
637.73	829.35
638.08	825.72
638.42	821.99
638.77	817.92
639.11	814.02
639.45	809.79
639.80	805.26
640.14	801.25
640.49	797.12
640.83	793.03
641.17	788.90
641.52	784.75
641.86	780.40
642.20	776.30
642.55	772.30
642.89	768.27
643.23	763.97
643.58	760.49
643.92	756.16
644.26	752.08
644.61	748.29
644.95	744.29
645.29	739.66
645.64	735.18
645.98	731.24
646.32	727.05
646.66	723.20
647.01	719.22
647.35	715.34
647.69	711.43
648.04	707.86
648.38	703.82
648.72	699.55
649.06	695.50
649.41	691.53
649.75	687.13
650.09	682.97
650.43	678.83
650.78	674.20
651.12	670.25
651.46	666.28
651.80	662.23
652.14	658.50
652.49	654.96
652.83	651.36
653.17	647.32
653.51	643.40
653.85	639.60
654.20	635.64
654.54	631.55
654.88	627.50
655.22	623.29
655.56	619.46
655.90	615.75
656.25	612.08
656.59	608.25
656.93	605.06
657.27	601.50
657.61	597.93
657.95	594.59
658.29	591.07
658.64	587.60
658.98	583.86
659.32	579.88
659.66	576.08
660.00	572.37
660.34	568.74
660.68	565.16
661.02	561.68
661.36	558.62
661.70	555.47
662.05	552.49
662.39	549.42
662.73	546.30
663.07	543.47
663.41	540.53
663.75	537.36
664.09	534.09
664.43	530.92
664.77	527.95
665.11	525.11
665.45	522.21
665.79	519.04
666.13	516.19
666.47	513.56
666.81	510.67
667.15	507.83
667.49	505.12
667.83	502.63
668.17	499.75
668.51	496.91
668.85	493.98
669.19	491.23
669.53	488.54
669.87	485.84
670.21	483.10
670.55	480.67
670.89	478.59
671.23	476.19
671.57	473.71
671.91	471.42
672.25	468.99
672.58	466.72
672.92	464.63
673.26	462.51
673.60	460.36
673.94	458.33
674.28	456.21
674.62	454.16
674.96	452.01
675.30	450.01
675.64	447.92
675.97	445.89
676.31	443.80
676.65	441.75
676.99	439.73
677.33	437.55
677.67	435.35
678.01	432.97
678.34	430.89
678.68	429.05
679.02	426.80
679.36	424.65
679.70	422.74
680.04	420.59
680.37	418.41
680.71	416.34
681.05	414.59
681.39	412.80
681.73	411.01
682.06	409.20
682.40	407.47
682.74	405.71
683.08	404.14
683.42	402.44
683.75	400.78
684.09	399.08
684.43	397.43
684.77	395.64
685.10	394.10
685.44	392.39
685.78	390.57
686.12	389.05
686.45	387.60
686.79	385.89
687.13	384.23
687.46	382.71
687.80	381.15
688.14	379.14
688.48	377.43
688.81	375.52
689.15	373.95
689.49	372.30
689.82	370.70
690.16	369.18
690.50	367.65
690.83	366.05
691.17	364.40
691.51	362.90
691.84	361.52
692.18	359.95
692.52	358.46
692.85	357.10
693.19	355.75
693.52	354.15
693.86	352.59
694.20	351.31
694.53	349.75
694.87	348.26
695.21	346.87
695.54	345.55
695.88	344.24
696.21	342.70
696.55	341.44
696.88	340.06
697.22	338.53
697.56	337.18
697.89	335.85
698.23	334.65
698.56	333.35
698.90	332.16
699.23	330.81
699.57	329.53
699.90	328.24
700.24	326.95
700.58	325.76
700.91	324.61
701.25	323.43
701.58	322.43
701.92	321.34
702.25	320.28
702.59	319.22
702.92	318.25
703.26	317.24
703.59	316.20
703.93	315.37
704.26	314.56
704.60	313.60
704.93	312.68
705.26	311.59
705.60	310.77
705.93	309.83
706.27	308.96
706.60	308.19
706.94	307.29
707.27	306.33
707.61	305.57
707.94	304.84
708.27	303.85
708.61	302.88
708.94	302.15
709.28	301.50
709.61	300.72
709.94	299.88
710.28	299.07
710.61	298.23
710.95	297.14
711.28	296.36
711.61	295.47
711.95	294.66
712.28	293.96
712.61	293.07
712.95	292.21
713.28	291.70
713.61	290.89
713.95	290.27
714.28	289.69
714.61	288.96
714.95	288.25
715.28	287.64
715.61	287.03
715.95	286.33
716.28	285.62
716.61	284.95
716.95	284.40
717.28	283.88
717.61	283.23
717.94	282.74
718.28	282.04
718.61	281.59
718.94	280.93
719.27	280.40
719.61	280.00
719.94	279.54
720.27	278.81
720.60	278.24
720.94	277.68
721.27	277.11
721.60	276.62
721.93	276.10
722.27	275.68
722.60	275.26
722.93	274.71
723.26	274.32
723.59	273.82
723.93	273.28
724.26	272.84
724.59	272.47
724.92	272.13
725.25	271.65
725.59	271.28
725.92	270.93
726.25	270.48
726.58	269.92
726.91	269.43
727.24	268.98
727.57	268.60
727.91	268.03
728.24	267.72
728.57	267.29
728.90	266.86
729.23	266.32
729.56	265.88
729.89	265.49
730.22	265.01
730.55	264.64
730.89	264.35
731.22	263.90
731.55	263.48
731.88	263.00
732.21	262.70
732.54	262.12
732.87	261.71
733.20	261.35
733.53	261.10
733.86	260.66
734.19	260.23
734.52	260.04
734.85	259.77
735.18	259.32
735.51	259.01
735.84	258.68
736.17	258.39
736.50	257.99
736.83	257.87
737.16	257.51
737.49	257.07
737.82	256.67
738.15	256.45
738.48	256.15
738.81	255.76
739.14	255.30
739.47	254.95
739.80	254.64
740.13	254.30
740.46	253.79
740.79	253.40
741.12	253.15
741.45	252.71
741.78	252.34
742.11	252.03
742.44	251.66
742.77	251.40
743.10	251.02
743.43	250.73
743.75	250.28
744.08	250.24
744.41	250.08
744.74	249.81
745.07	249.45
745.40	249.14
745.73	248.96
746.06	248.74
746.39	248.55
746.71	248.42
747.04	248.18
747.37	248.10
747.70	248.03
748.03	247.75
748.36	247.54
748.68	247.26
749.01	247.07
749.34	246.83
749.67	246.66
750.00	246.61
750.33	246.49
750.65	246.21
750.98	245.72
751.31	245.51
751.64	245.27
751.97	245.18
752.29	245.01
752.62	244.78
752.95	244.57
753.28	244.47
753.60	244.23
753.93	244.09
754.26	243.85
754.59	243.64
754.91	243.60
755.24	243.36
755.57	243.30
755.90	243.08
756.22	242.92
756.55	242.75
756.88	242.53
757.20	242.38
757.53	242.23
757.86	242.12
758.19	241.90
758.51	241.81
758.84	241.66
759.17	241.48
759.49	241.35
759.82	241.31
760.15	241.18
760.47	241.05
760.80	240.97
761.13	240.82
761.45	240.65
761.78	240.49
762.11	240.55
762.43	240.41
762.76	240.35
763.08	240.33
763.41	240.17
763.74	240.09
764.06	239.95
764.39	239.81
764.71	239.80
765.04	239.70
765.37	239.70
765.69	239.50
766.02	239.43
766.34	239.33
766.67	239.17
767.00	238.99
767.32	238.95
767.65	238.83
767.97	238.72
768.30	238.63
768.62	238.52
768.95	238.37
769.27	238.24
769.60	238.23
769.92	238.00
770.25	237.89
770.57	237.71
770.90	237.59
771.22	237.51
771.55	237.37
771.87	237.31
772.20	237.08
772.52	237.21
772.85	237.24
773.17	237.16
773.50	237.10
773.82	237.01
774.15	236.70
774.47	236.61
774.80	236.50
775.12	236.50
775.45	236.49
775.77	236.33
776.09	236.32
776.42	236.20
776.74	236.15
777.07	235.92
777.39	235.78
777.72	235.68
778.04	235.55
778.36	235.38
778.69	235.29
779.01	235.25
779.33	234.89
779.66	234.65
779.98	234.52
780.31	234.40
780.63	234.35
780.95	234.31
781.28	234.11
781.60	234.03
781.92	233.86
782.25	233.64
782.57	233.53
782.89	233.46
783.22	233.27
783.54	233.08
783.86	233.08
784.19	233.06
784.51	233.03
784.83	233.00
785.16	232.90
785.48	232.88
785.80	232.73
786.12	232.79
786.45	232.64
786.77	232.53
787.09	232.49
787.42	232.39
787.74	232.35
788.06	232.29
788.38	232.20
788.71	232.12
789.03	232.11
789.35	232.15
