SpectraSuite Data File
++++++++++++++++++++++++++++++++++++
Date: Fri Feb 01 14:35:43 EST 2013
User: group
Dark Spectrum Present: No
Reference Spectrum Present: No
Number of Sampled Component Spectra: 1
Spectrometers: USB2E7196
Integration Time (usec): 70000 (USB2E7196)
Spectra Averaged: 10 (USB2E7196)
Boxcar Smoothing: 10 (USB2E7196)
Correct for Electrical Dark: No (USB2E7196)
Strobe/Lamp Enabled: No (USB2E7196)
Correct for Detector Non-linearity: No (USB2E7196)
Correct for Stray Light: No (USB2E7196)
Number of Pixels in Processed Spectrum: 2048
>>>>>Begin Processed Spectral Data<<<<<
339.09	0.00
339.48	216.40
339.86	217.90
340.24	219.20
340.63	219.40
341.01	222.90
341.39	223.20
341.78	223.70
342.16	223.20
342.54	227.80
342.93	214.29
343.31	225.10
343.69	225.67
344.07	226.16
344.46	226.54
344.84	226.92
345.22	227.11
345.60	227.38
345.99	227.62
346.37	227.78
346.75	227.74
347.13	227.76
347.52	227.81
347.90	227.94
348.28	228.00
348.66	228.03
349.05	227.97
349.43	227.94
349.81	227.88
350.19	227.83
350.57	227.81
350.96	227.80
351.34	227.87
351.72	227.82
352.10	227.78
352.48	227.83
352.87	227.87
353.25	228.00
353.63	228.06
354.01	228.09
354.39	228.15
354.77	228.20
355.15	228.40
355.54	228.37
355.92	228.30
356.30	228.35
356.68	228.56
357.06	228.63
357.44	228.71
357.82	228.75
358.20	228.90
358.58	229.04
358.97	229.01
359.35	229.13
359.73	229.33
360.11	229.48
360.49	229.59
360.87	229.60
361.25	229.64
361.63	229.72
362.01	229.76
362.39	229.87
362.77	230.01
363.15	229.96
363.53	230.08
363.91	230.17
364.29	230.29
364.67	230.12
365.05	230.19
365.43	230.22
365.81	230.18
366.19	230.26
366.57	230.24
366.95	230.32
367.33	230.26
367.71	230.20
368.09	230.13
368.47	230.09
368.85	230.10
369.23	230.07
369.61	229.90
369.99	229.96
370.37	229.93
370.75	230.02
371.13	230.02
371.51	230.00
371.89	229.97
372.27	229.87
372.65	229.88
373.03	229.73
373.41	229.67
373.78	229.78
374.16	229.66
374.54	229.57
374.92	229.53
375.30	229.42
375.68	229.28
376.06	229.23
376.44	229.19
376.82	229.16
377.19	229.13
377.57	229.07
377.95	228.93
378.33	228.81
378.71	228.53
379.09	228.48
379.47	228.37
379.84	228.25
380.22	228.10
380.60	227.98
380.98	227.97
381.36	227.93
381.73	227.84
382.11	227.79
382.49	227.81
382.87	227.68
383.25	227.62
383.62	227.85
384.00	227.77
384.38	227.68
384.76	227.68
385.13	227.71
385.51	227.63
385.89	227.50
386.27	227.43
386.64	227.44
387.02	227.32
387.40	227.25
387.78	227.24
388.15	227.22
388.53	227.08
388.91	227.08
389.29	227.11
389.66	227.15
390.04	227.17
390.42	227.07
390.79	227.13
391.17	227.14
391.55	226.87
391.92	226.86
392.30	226.84
392.68	226.83
393.05	226.76
393.43	226.80
393.81	226.86
394.18	226.97
394.56	226.91
394.94	227.03
395.31	226.96
395.69	227.06
396.06	227.19
396.44	227.30
396.82	227.28
397.19	227.31
397.57	227.26
397.95	227.33
398.32	227.43
398.70	227.58
399.07	227.69
399.45	227.88
399.82	227.96
400.20	228.13
400.58	228.25
400.95	228.36
401.33	228.59
401.70	229.01
402.08	229.10
402.45	229.41
402.83	229.69
403.20	229.93
403.58	230.16
403.95	230.41
404.33	230.70
404.71	230.92
405.08	231.28
405.46	231.61
405.83	231.95
406.21	232.26
406.58	232.60
406.96	233.08
407.33	233.40
407.70	233.86
408.08	234.43
408.45	234.92
408.83	235.38
409.20	235.89
409.58	236.14
409.95	236.68
410.33	237.22
410.70	237.69
411.08	238.44
411.45	239.11
411.82	239.72
412.20	240.55
412.57	241.54
412.95	242.17
413.32	243.00
413.69	243.81
414.07	244.70
414.44	245.74
414.82	246.65
415.19	247.95
415.56	249.30
415.94	250.52
416.31	252.05
416.68	253.61
417.06	255.24
417.43	256.86
417.81	258.67
418.18	260.56
418.55	262.65
418.93	264.80
419.30	266.99
419.67	269.38
420.04	271.65
420.42	274.10
420.79	277.03
421.16	280.03
421.54	283.09
421.91	286.28
422.28	289.57
422.66	293.12
423.03	296.45
423.40	299.94
423.77	303.54
424.15	307.26
424.52	311.14
424.89	315.31
425.26	319.45
425.64	323.44
426.01	327.58
426.38	331.90
426.75	336.21
427.13	340.90
427.50	345.87
427.87	350.92
428.24	356.07
428.61	360.95
428.99	366.27
429.36	371.88
429.73	377.48
430.10	382.97
430.47	388.61
430.85	394.59
431.22	400.87
431.59	407.59
431.96	413.80
432.33	420.54
432.70	427.47
433.08	435.41
433.45	442.89
433.82	450.52
434.19	458.98
434.56	467.17
434.93	474.98
435.30	482.60
435.68	491.38
436.05	499.80
436.42	508.13
436.79	515.73
437.16	523.99
437.53	532.70
437.90	541.22
438.27	549.66
438.64	558.47
439.01	566.47
439.38	573.70
439.75	580.61
440.13	588.91
440.50	596.56
440.87	602.90
441.24	609.34
441.61	616.49
441.98	621.67
442.35	628.22
442.72	634.63
443.09	640.94
443.46	645.04
443.83	647.86
444.20	650.59
444.57	654.29
444.94	656.48
445.31	658.74
445.68	661.02
446.05	662.71
446.42	662.88
446.79	663.05
447.16	663.11
447.53	663.51
447.90	661.50
448.27	659.20
448.64	655.73
449.01	653.70
449.37	648.76
449.74	644.37
450.11	638.45
450.48	632.17
450.85	625.79
451.22	620.20
451.59	615.01
451.96	610.07
452.33	603.10
452.70	596.83
453.07	589.17
453.43	581.39
453.80	573.63
454.17	565.97
454.54	558.78
454.91	551.01
455.28	543.60
455.65	536.65
456.02	529.71
456.38	523.72
456.75	516.22
457.12	510.11
457.49	503.80
457.86	497.89
458.23	492.80
458.59	486.89
458.96	481.01
459.33	475.87
459.70	470.40
460.07	466.08
460.43	461.33
460.80	456.65
461.17	452.56
461.54	448.31
461.91	444.53
462.27	440.39
462.64	436.94
463.01	433.17
463.38	429.20
463.74	425.41
464.11	422.01
464.48	418.99
464.85	415.86
465.21	413.45
465.58	410.70
465.95	407.31
466.32	404.66
466.68	401.86
467.05	399.23
467.42	396.82
467.78	393.98
468.15	391.25
468.52	389.23
468.88	386.69
469.25	384.38
469.62	382.38
469.98	380.46
470.35	378.52
470.72	376.60
471.08	374.70
471.45	372.90
471.82	371.20
472.18	369.34
472.55	367.96
472.92	366.29
473.28	364.77
473.65	363.30
474.02	361.96
474.38	360.75
474.75	359.60
475.11	358.22
475.48	357.34
475.85	356.46
476.21	355.64
476.58	354.93
476.94	354.20
477.31	353.40
477.67	352.67
478.04	352.03
478.41	351.44
478.77	351.05
479.14	350.52
479.50	350.10
479.87	349.89
480.23	349.66
480.60	349.36
480.96	349.19
481.33	349.34
481.69	349.29
482.06	349.37
482.42	349.16
482.79	349.43
483.15	349.73
483.52	350.16
483.88	350.27
484.25	350.48
484.61	350.79
484.98	351.24
485.34	351.65
485.71	352.31
486.07	352.96
486.44	353.63
486.80	354.28
487.17	355.30
487.53	356.15
487.90	357.00
488.26	358.19
488.62	359.35
488.99	360.19
489.35	361.35
489.72	362.36
490.08	363.85
490.44	365.07
490.81	366.35
491.17	367.55
491.54	369.19
491.90	370.70
492.26	372.46
492.63	374.15
492.99	375.93
493.36	377.71
493.72	379.66
494.08	381.33
494.45	383.39
494.81	385.29
495.17	387.16
495.54	389.30
495.90	391.25
496.26	393.30
496.63	395.72
496.99	397.88
497.35	400.21
497.72	402.31
498.08	404.67
498.44	406.95
498.80	409.54
499.17	411.81
499.53	414.14
499.89	416.64
500.26	418.84
500.62	421.14
500.98	423.49
501.34	425.78
501.71	428.33
502.07	430.70
502.43	432.99
502.79	435.50
503.16	437.85
503.52	440.22
503.88	442.33
504.24	444.39
504.60	446.44
504.97	448.68
505.33	450.98
505.69	453.22
506.05	455.38
506.41	457.23
506.78	459.36
507.14	461.31
507.50	463.13
507.86	465.04
508.22	467.02
508.59	468.75
508.95	470.56
509.31	472.35
509.67	474.10
510.03	475.76
510.39	477.34
510.75	478.99
511.12	480.27
511.48	481.85
511.84	483.39
512.20	484.95
512.56	486.39
512.92	487.68
513.28	488.76
513.64	489.87
514.00	491.13
514.37	492.16
514.73	493.32
515.09	494.22
515.45	495.33
515.81	496.16
516.17	497.21
516.53	498.02
516.89	498.78
517.25	499.43
517.61	500.15
517.97	500.81
518.33	501.31
518.69	502.19
519.05	502.94
519.41	503.63
519.77	504.26
520.13	504.92
520.49	505.48
520.85	506.10
521.21	506.81
521.57	507.63
521.93	508.12
522.29	508.82
522.65	509.44
523.01	509.95
523.37	510.66
523.73	511.06
524.09	511.63
524.45	512.25
524.81	513.14
525.17	513.91
525.53	514.89
525.89	515.71
526.25	516.54
526.61	517.23
526.97	518.04
527.33	519.21
527.68	520.35
528.04	521.37
528.40	522.51
528.76	523.87
529.12	524.90
529.48	526.08
529.84	527.28
530.20	528.68
530.56	530.30
530.91	531.99
531.27	533.60
531.63	535.21
531.99	537.04
532.35	538.53
532.71	540.09
533.07	541.79
533.42	543.70
533.78	545.55
534.14	547.71
534.50	549.72
534.86	551.59
535.21	553.43
535.57	555.70
535.93	557.88
536.29	560.11
536.65	562.37
537.00	564.84
537.36	567.34
537.72	569.95
538.08	572.59
538.44	574.83
538.79	577.37
539.15	580.01
539.51	582.34
539.87	585.17
540.22	588.29
540.58	591.31
540.94	594.37
541.29	597.27
541.65	600.31
542.01	603.55
542.37	606.81
542.72	610.06
543.08	613.31
543.44	616.54
543.79	619.42
544.15	622.89
544.51	626.33
544.87	629.80
545.22	633.18
545.58	636.29
545.94	639.59
546.29	643.19
546.65	646.58
547.01	650.18
547.36	653.88
547.72	657.10
548.07	660.34
548.43	663.79
548.79	667.33
549.14	670.70
549.50	673.99
549.86	677.30
550.21	680.70
550.57	684.30
550.92	687.89
551.28	691.52
551.64	695.12
551.99	698.81
552.35	702.14
552.70	705.56
553.06	709.31
553.41	713.25
553.77	717.04
554.13	720.62
554.48	724.51
554.84	728.11
555.19	731.77
555.55	735.44
555.90	738.81
556.26	742.51
556.61	746.03
556.97	749.67
557.32	753.42
557.68	757.00
558.03	760.26
558.39	763.74
558.74	767.52
559.10	770.88
559.45	774.32
559.81	778.14
560.16	781.78
560.52	785.20
560.87	788.62
561.23	791.79
561.58	795.77
561.94	798.80
562.29	801.97
562.64	805.23
563.00	808.60
563.35	812.14
563.71	815.60
564.06	818.86
564.42	822.00
564.77	825.15
565.12	828.26
565.48	831.75
565.83	834.73
566.19	837.70
566.54	840.47
566.89	843.66
567.25	846.56
567.60	849.54
567.96	852.52
568.31	855.23
568.66	858.01
569.02	860.60
569.37	863.25
569.72	865.80
570.08	868.33
570.43	870.62
570.78	872.73
571.14	874.66
571.49	877.04
571.84	879.57
572.20	881.57
572.55	883.55
572.90	885.18
573.26	887.25
573.61	889.02
573.96	890.84
574.31	891.83
574.67	892.87
575.02	894.05
575.37	895.07
575.72	895.94
576.08	897.00
576.43	897.88
576.78	899.05
577.13	900.28
577.49	901.44
577.84	902.44
578.19	903.54
578.54	904.19
578.90	904.73
579.25	905.10
579.60	905.63
579.95	905.98
580.30	906.19
580.66	905.99
581.01	905.91
581.36	906.13
581.71	907.01
582.06	907.38
582.42	907.37
582.77	907.56
583.12	907.67
583.47	907.82
583.82	908.01
584.17	907.90
584.53	907.70
584.88	907.51
585.23	907.34
585.58	907.00
585.93	906.95
586.28	906.77
586.63	906.71
586.98	906.35
587.34	906.18
587.69	906.15
588.04	906.14
588.39	906.01
588.74	905.05
589.09	903.97
589.44	903.20
589.79	902.50
590.14	902.01
590.49	901.77
590.84	900.79
591.19	899.83
591.54	898.61
591.89	897.12
592.25	896.05
592.60	894.43
592.95	893.10
593.30	891.76
593.65	890.48
594.00	888.86
594.35	888.07
594.70	886.42
595.05	885.19
595.40	883.70
595.75	882.30
596.10	881.26
596.45	880.02
596.80	878.92
597.15	877.75
597.50	876.08
597.85	874.62
598.19	873.27
598.54	871.94
598.89	870.94
599.24	869.81
599.59	868.13
599.94	867.40
600.29	865.96
600.64	864.59
600.99	862.66
601.34	860.90
601.69	858.52
602.04	856.87
602.39	854.91
602.74	853.44
603.08	851.95
603.43	850.39
603.78	848.43
604.13	846.48
604.48	844.64
604.83	842.79
605.18	840.62
605.53	838.52
605.87	835.80
606.22	833.56
606.57	831.51
606.92	829.64
607.27	827.40
607.62	825.49
607.96	823.56
608.31	821.75
608.66	819.40
609.01	817.46
609.36	815.31
609.70	812.61
610.05	809.80
610.40	807.12
610.75	804.56
611.10	802.03
611.44	799.17
611.79	796.61
612.14	793.94
612.49	791.18
612.83	788.73
613.18	786.33
613.53	783.63
613.88	780.83
614.22	777.86
614.57	774.65
614.92	771.67
615.27	768.70
615.61	765.69
615.96	763.05
616.31	760.20
616.65	757.79
617.00	755.36
617.35	752.82
617.70	749.99
618.04	746.95
618.39	744.28
618.74	741.59
619.08	738.50
619.43	735.77
619.78	733.02
620.12	730.37
620.47	727.69
620.82	724.91
621.16	721.91
621.51	719.45
621.85	717.05
622.20	714.15
622.55	711.41
622.89	709.03
623.24	706.33
623.59	703.57
623.93	700.99
624.28	698.45
624.62	695.93
624.97	693.51
625.32	691.20
625.66	688.57
626.01	686.12
626.35	683.74
626.70	681.11
627.04	678.80
627.39	675.81
627.73	673.23
628.08	671.03
628.43	668.57
628.77	665.73
629.12	662.83
629.46	660.50
629.81	657.50
630.15	654.57
630.50	652.06
630.84	649.35
631.19	646.36
631.53	643.38
631.88	640.29
632.22	637.15
632.57	634.58
632.91	631.75
633.26	629.00
633.60	626.15
633.95	623.58
634.29	620.83
634.64	618.59
634.98	616.03
635.32	613.27
635.67	610.89
636.01	608.52
636.36	606.01
636.70	603.55
637.05	601.28
637.39	598.89
637.73	596.46
638.08	594.18
638.42	591.97
638.77	589.94
639.11	587.73
639.45	585.73
639.80	583.10
640.14	580.98
640.49	578.77
640.83	576.56
641.17	574.28
641.52	571.94
641.86	569.40
642.20	567.13
642.55	564.71
642.89	562.41
643.23	559.99
643.58	558.04
643.92	555.40
644.26	553.11
644.61	551.03
644.95	548.91
645.29	546.44
645.64	543.95
645.98	541.29
646.32	539.00
646.66	536.26
647.01	533.98
647.35	531.70
647.69	529.30
648.04	527.04
648.38	524.53
648.72	521.98
649.06	519.65
649.41	517.07
649.75	514.53
650.09	512.24
650.43	509.91
650.78	507.26
651.12	505.01
651.46	502.83
651.80	500.38
652.14	497.95
652.49	495.83
652.83	493.49
653.17	491.31
653.51	489.00
653.85	486.92
654.20	484.69
654.54	482.03
654.88	479.69
655.22	477.16
655.56	475.08
655.90	472.99
656.25	470.70
656.59	468.60
656.93	466.68
657.27	464.47
657.61	462.10
657.95	460.11
658.29	458.15
658.64	455.92
658.98	453.69
659.32	451.54
659.66	449.35
660.00	447.24
660.34	445.11
660.68	443.17
661.02	441.07
661.36	438.99
661.70	437.14
662.05	435.32
662.39	433.72
662.73	431.83
663.07	430.06
663.41	428.18
663.75	426.30
664.09	424.35
664.43	422.50
664.77	420.86
665.11	419.01
665.45	417.17
665.79	415.56
666.13	413.89
666.47	412.29
666.81	410.60
667.15	408.80
667.49	407.11
667.83	405.52
668.17	403.87
668.51	402.17
668.85	400.82
669.19	399.37
669.53	397.69
669.87	396.00
670.21	394.31
670.55	392.89
670.89	391.50
671.23	390.04
671.57	388.62
671.91	387.23
672.25	385.88
672.58	384.44
672.92	382.83
673.26	381.54
673.60	380.00
673.94	378.54
674.28	377.45
674.62	376.19
674.96	374.96
675.30	373.81
675.64	372.68
675.97	371.30
676.31	369.95
676.65	368.64
676.99	367.57
677.33	366.36
677.67	365.18
678.01	363.87
678.34	362.66
678.68	361.55
679.02	360.31
679.36	359.00
679.70	357.75
680.04	356.69
680.37	355.38
680.71	354.25
681.05	353.23
681.39	351.98
681.73	350.88
682.06	349.68
682.40	348.64
682.74	347.53
683.08	346.45
683.42	345.35
683.75	344.36
684.09	343.09
684.43	342.05
684.77	340.79
685.10	339.63
685.44	338.52
685.78	337.37
686.12	336.32
686.45	335.36
686.79	334.32
687.13	333.26
687.46	332.29
687.80	331.41
688.14	330.36
688.48	329.30
688.81	328.27
689.15	327.34
689.49	326.17
689.82	325.22
690.16	324.07
690.50	323.03
690.83	321.95
691.17	321.00
691.51	320.03
691.84	319.20
692.18	318.33
692.52	317.32
692.85	316.33
693.19	315.45
693.52	314.50
693.86	313.59
694.20	312.77
694.53	311.82
694.87	310.65
695.21	309.67
695.54	308.94
695.88	308.12
696.21	307.10
696.55	306.25
696.88	305.36
697.22	304.62
697.56	303.84
697.89	303.04
698.23	302.04
698.56	301.20
698.90	300.53
699.23	299.71
699.57	298.85
699.90	298.14
700.24	297.28
700.58	296.50
700.91	295.73
701.25	295.00
701.58	294.45
701.92	293.86
702.25	293.26
702.59	292.46
702.92	291.70
703.26	291.12
703.59	290.60
703.93	290.08
704.26	289.47
704.60	288.67
704.93	287.92
705.26	287.39
705.60	286.72
705.93	286.01
706.27	285.51
706.60	285.11
706.94	284.47
707.27	283.86
707.61	283.40
707.94	282.84
708.27	282.19
708.61	281.51
708.94	280.92
709.28	280.30
709.61	279.67
709.94	279.18
710.28	278.50
710.61	277.85
710.95	277.11
711.28	276.66
711.61	276.34
711.95	276.03
712.28	275.56
712.61	275.14
712.95	274.70
713.28	274.21
713.61	273.58
713.95	273.08
714.28	272.66
714.61	272.08
714.95	271.79
715.28	271.31
715.61	270.79
715.95	270.42
716.28	270.06
716.61	269.73
716.95	269.32
717.28	268.95
717.61	268.57
717.94	268.05
718.28	267.57
718.61	267.12
718.94	266.59
719.27	266.19
719.61	265.74
719.94	265.34
720.27	264.86
720.60	264.50
720.94	264.23
721.27	263.91
721.60	263.64
721.93	263.14
722.27	262.86
722.60	262.60
722.93	262.26
723.26	261.95
723.59	261.66
723.93	261.30
724.26	260.98
724.59	260.65
724.92	260.41
725.25	260.11
725.59	259.80
725.92	259.60
726.25	259.41
726.58	259.11
726.91	258.73
727.24	258.47
727.57	258.20
727.91	257.85
728.24	257.50
728.57	257.14
728.90	256.84
729.23	256.52
729.56	256.24
729.89	255.79
730.22	255.38
730.55	255.08
730.89	254.86
731.22	254.62
731.55	254.38
731.88	254.10
732.21	253.73
732.54	253.43
732.87	253.15
733.20	252.75
733.53	252.46
733.86	252.17
734.19	251.91
734.52	251.68
734.85	251.51
735.18	251.30
735.51	251.15
735.84	250.91
736.17	250.68
736.50	250.40
736.83	250.50
737.16	250.30
737.49	249.91
737.82	249.63
738.15	249.32
738.48	249.02
738.81	248.86
739.14	248.76
739.47	248.61
739.80	248.32
740.13	248.17
740.46	248.03
740.79	247.89
741.12	247.71
741.45	247.48
741.78	247.18
742.11	246.99
742.44	246.60
742.77	246.49
743.10	246.24
743.43	245.85
743.75	245.44
744.08	245.54
744.41	245.53
744.74	245.40
745.07	245.16
745.40	245.14
745.73	244.97
746.06	244.72
746.39	244.43
746.71	244.17
747.04	243.93
747.37	243.74
747.70	243.62
748.03	243.37
748.36	243.25
748.68	243.17
749.01	243.01
749.34	242.96
749.67	242.72
750.00	242.59
750.33	242.71
750.65	242.57
750.98	242.16
751.31	241.98
751.64	241.76
751.97	241.81
752.29	241.48
752.62	241.23
752.95	241.07
753.28	240.89
753.60	240.80
753.93	240.72
754.26	240.56
754.59	240.35
754.91	240.26
755.24	240.15
755.57	239.93
755.90	239.87
756.22	239.74
756.55	239.62
756.88	239.49
757.20	239.29
757.53	239.10
757.86	238.98
758.19	238.79
758.51	238.72
758.84	238.47
759.17	238.41
759.49	238.38
759.82	238.44
760.15	238.45
760.47	238.37
760.80	238.38
761.13	238.20
761.45	238.16
761.78	238.03
762.11	237.89
762.43	237.81
762.76	237.57
763.08	237.48
763.41	237.41
763.74	237.31
764.06	237.26
764.39	237.18
764.71	237.10
765.04	236.97
765.37	236.85
765.69	236.84
766.02	236.79
766.34	236.72
766.67	236.53
767.00	236.38
767.32	236.39
767.65	236.32
767.97	236.35
768.30	236.23
768.62	236.12
768.95	236.07
769.27	235.92
769.60	235.90
769.92	235.83
770.25	235.70
770.57	235.63
770.90	235.51
771.22	235.47
771.55	235.34
771.87	235.34
772.20	235.33
772.52	235.43
772.85	235.50
773.17	235.37
773.50	235.27
773.82	235.19
774.15	235.11
774.47	234.87
774.80	234.65
775.12	234.49
775.45	234.41
775.77	234.37
776.09	234.30
776.42	234.18
776.74	234.08
777.07	233.97
777.39	233.88
777.72	233.66
778.04	233.57
778.36	233.52
778.69	233.45
779.01	233.37
779.33	233.06
779.66	232.71
779.98	232.64
780.31	232.58
780.63	232.60
780.95	232.43
781.28	232.34
781.60	232.34
781.92	232.29
782.25	232.31
782.57	232.15
782.89	232.13
783.22	232.09
783.54	231.98
783.86	231.96
784.19	231.97
784.51	232.08
784.83	231.95
785.16	232.01
785.48	231.89
785.80	231.83
786.12	231.81
786.45	231.85
786.77	231.91
787.09	231.85
787.42	231.81
787.74	231.87
788.06	231.93
788.38	232.02
788.71	231.98
789.03	231.86
789.35	231.88
789.67	231.82
789.99	231.73
790.32	231.78
790.64	231.81
790.96	231.93
791.28	231.78
791.61	231.81
791.93	231.69
792.25	231.71
792.57	231.75
792.89	231.74
793.21	231.80
793.54	231.63
793.86	231.61
794.18	231.58
