SpectraSuite Data File
++++++++++++++++++++++++++++++++++++
Date: Fri Feb 01 14:39:35 EST 2013
User: group
Dark Spectrum Present: No
Reference Spectrum Present: No
Number of Sampled Component Spectra: 1
Spectrometers: USB2E7196
Integration Time (usec): 70000 (USB2E7196)
Spectra Averaged: 10 (USB2E7196)
Boxcar Smoothing: 10 (USB2E7196)
Correct for Electrical Dark: No (USB2E7196)
Strobe/Lamp Enabled: No (USB2E7196)
Correct for Detector Non-linearity: No (USB2E7196)
Correct for Stray Light: No (USB2E7196)
Number of Pixels in Processed Spectrum: 2048
>>>>>Begin Processed Spectral Data<<<<<
339.09	0.00
339.48	214.90
339.86	217.70
340.24	219.60
340.63	222.90
341.01	223.80
341.39	221.90
341.78	224.00
342.16	225.70
342.54	227.40
342.93	214.81
343.31	225.64
343.69	226.30
344.07	226.75
344.46	227.24
344.84	227.54
345.22	227.74
345.60	228.03
345.99	228.26
346.37	228.39
346.75	228.40
347.13	228.50
347.52	228.51
347.90	228.57
348.28	228.60
348.66	228.65
349.05	228.57
349.43	228.58
349.81	228.60
350.19	228.55
350.57	228.64
350.96	228.83
351.34	228.92
351.72	228.88
352.10	229.07
352.48	229.00
352.87	229.03
353.25	229.10
353.63	229.20
354.01	229.28
354.39	229.35
354.77	229.46
355.15	229.59
355.54	229.59
355.92	229.62
356.30	229.65
356.68	229.81
357.06	229.91
357.44	229.97
357.82	229.96
358.20	230.02
358.58	230.05
358.97	230.05
359.35	230.10
359.73	230.16
360.11	230.02
360.49	230.15
360.87	230.18
361.25	230.16
361.63	230.15
362.01	230.14
362.39	230.04
362.77	230.00
363.15	229.99
363.53	229.98
363.91	230.00
364.29	230.00
364.67	229.85
365.05	229.85
365.43	229.79
365.81	229.82
366.19	229.85
366.57	229.80
366.95	229.79
367.33	229.80
367.71	229.84
368.09	229.88
368.47	229.79
368.85	229.72
369.23	229.71
369.61	229.65
369.99	229.64
370.37	229.73
370.75	229.81
371.13	229.66
371.51	229.63
371.89	229.54
372.27	229.44
372.65	229.35
373.03	229.15
373.41	229.09
373.78	228.96
374.16	228.85
374.54	228.77
374.92	228.60
375.30	228.40
375.68	228.26
376.06	228.18
376.44	228.02
376.82	228.00
377.19	227.97
377.57	227.88
377.95	227.69
378.33	227.59
378.71	227.49
379.09	227.49
379.47	227.46
379.84	227.36
380.22	227.36
380.60	227.26
380.98	227.37
381.36	227.24
381.73	227.20
382.11	227.21
382.49	227.16
382.87	227.12
383.25	227.15
383.62	227.38
384.00	227.42
384.38	227.38
384.76	227.38
385.13	227.47
385.51	227.50
385.89	227.53
386.27	227.57
386.64	227.58
387.02	227.47
387.40	227.46
387.78	227.44
388.15	227.40
388.53	227.41
388.91	227.38
389.29	227.58
389.66	227.65
390.04	227.62
390.42	227.73
390.79	227.85
391.17	227.84
391.55	227.63
391.92	227.61
392.30	227.70
392.68	227.65
393.05	227.60
393.43	227.55
393.81	227.66
394.18	227.61
394.56	227.60
394.94	227.76
395.31	227.82
395.69	227.92
396.06	228.10
396.44	228.08
396.82	228.05
397.19	228.09
397.57	228.08
397.95	228.06
398.32	228.10
398.70	228.12
399.07	228.30
399.45	228.30
399.82	228.39
400.20	228.39
400.58	228.43
400.95	228.50
401.33	228.64
401.70	228.86
402.08	229.04
402.45	229.03
402.83	229.10
403.20	229.20
403.58	229.31
403.95	229.29
404.33	229.51
404.71	229.69
405.08	229.93
405.46	230.12
405.83	230.34
406.21	230.30
406.58	230.55
406.96	230.61
407.33	230.85
407.70	231.03
408.08	231.43
408.45	231.63
408.83	231.84
409.20	232.04
409.58	232.07
409.95	232.11
410.33	232.50
410.70	232.76
411.08	233.03
411.45	233.26
411.82	233.62
412.20	233.95
412.57	234.26
412.95	234.48
413.32	234.77
413.69	235.03
414.07	235.51
414.44	235.89
414.82	236.30
415.19	236.85
415.56	237.31
415.94	237.65
416.31	238.30
416.68	238.85
417.06	239.49
417.43	240.20
417.81	241.10
418.18	241.80
418.55	242.52
418.93	243.28
419.30	244.20
419.67	245.14
420.04	246.13
420.42	247.15
420.79	248.33
421.16	249.55
421.54	250.91
421.91	252.19
422.28	253.42
422.66	254.78
423.03	256.11
423.40	257.45
423.77	258.92
424.15	260.35
424.52	261.82
424.89	263.46
425.26	265.05
425.64	266.48
426.01	268.12
426.38	269.89
426.75	271.60
427.13	273.35
427.50	275.26
427.87	277.11
428.24	279.03
428.61	280.80
428.99	282.90
429.36	285.07
429.73	287.19
430.10	289.43
430.47	291.77
430.85	293.85
431.22	296.23
431.59	299.01
431.96	301.43
432.33	304.22
432.70	306.80
433.08	309.78
433.45	312.77
433.82	315.59
434.19	318.74
434.56	321.83
434.93	324.74
435.30	327.57
435.68	330.80
436.05	333.93
436.42	337.02
436.79	339.87
437.16	342.85
437.53	346.04
437.90	349.04
438.27	352.21
438.64	355.42
439.01	358.35
439.38	360.82
439.75	363.25
440.13	366.09
440.50	369.00
440.87	371.30
441.24	373.43
441.61	375.93
441.98	377.71
442.35	379.91
442.72	382.28
443.09	384.35
443.46	385.50
443.83	386.34
444.20	387.02
444.57	388.04
444.94	388.45
445.31	388.90
445.68	389.62
446.05	389.74
446.42	389.55
446.79	389.44
447.16	389.20
447.53	389.22
447.90	388.03
448.27	386.79
448.64	385.13
449.01	384.19
449.37	382.14
449.74	380.26
450.11	378.12
450.48	375.24
450.85	372.70
451.22	370.60
451.59	368.63
451.96	366.64
452.33	363.85
452.70	361.40
453.07	358.51
453.43	355.36
453.80	352.30
454.17	349.39
454.54	346.67
454.91	343.61
455.28	340.62
455.65	337.94
456.02	335.25
456.38	332.93
456.75	329.94
457.12	327.65
457.49	325.14
457.86	322.61
458.23	320.74
458.59	318.42
458.96	316.10
459.33	313.96
459.70	311.92
460.07	310.21
460.43	308.34
460.80	306.60
461.17	304.97
461.54	303.37
461.91	301.74
462.27	299.98
462.64	298.60
463.01	297.16
463.38	295.80
463.74	294.26
464.11	292.87
464.48	291.70
464.85	290.30
465.21	289.35
465.58	288.31
465.95	287.03
466.32	286.06
466.68	284.93
467.05	283.87
467.42	282.89
467.78	281.80
468.15	280.80
468.52	279.92
468.88	278.82
469.25	277.86
469.62	277.17
469.98	276.32
470.35	275.51
470.72	274.64
471.08	273.63
471.45	273.03
471.82	272.23
472.18	271.44
472.55	270.75
472.92	269.99
473.28	269.26
473.65	268.71
474.02	268.04
474.38	267.61
474.75	267.14
475.11	266.55
475.48	266.13
475.85	265.73
476.21	265.22
476.58	264.87
476.94	264.40
477.31	264.02
477.67	263.65
478.04	263.15
478.41	262.85
478.77	262.84
479.14	262.48
479.50	262.32
479.87	262.10
480.23	262.01
480.60	261.83
480.96	261.64
481.33	261.46
481.69	261.29
482.06	261.09
482.42	260.93
482.79	260.73
483.15	260.61
483.52	260.57
483.88	260.59
484.25	260.60
484.61	260.66
484.98	260.67
485.34	260.75
485.71	260.86
486.07	260.89
486.44	260.64
486.80	260.64
487.17	260.65
487.53	260.81
487.90	260.81
488.26	260.96
488.62	261.09
488.99	261.27
489.35	261.43
489.72	261.66
490.08	261.82
490.44	261.98
490.81	262.19
491.17	262.25
491.54	262.52
491.90	262.60
492.26	262.88
492.63	263.07
492.99	263.24
493.36	263.50
493.72	263.87
494.08	264.29
494.45	264.66
494.81	265.03
495.17	265.31
495.54	265.63
495.90	266.00
496.26	266.42
496.63	266.75
496.99	267.25
497.35	267.73
497.72	268.13
498.08	268.71
498.44	269.34
498.80	269.93
499.17	270.52
499.53	271.14
499.89	271.74
500.26	272.52
500.62	273.38
500.98	274.21
501.34	274.97
501.71	275.89
502.07	276.78
502.43	277.73
502.79	278.70
503.16	279.81
503.52	280.82
503.88	281.95
504.24	283.03
504.60	284.27
504.97	285.48
505.33	286.88
505.69	288.36
506.05	289.76
506.41	291.25
506.78	292.69
507.14	294.43
507.50	296.09
507.86	297.80
508.22	299.42
508.59	301.25
508.95	303.12
509.31	305.14
509.67	307.16
510.03	309.34
510.39	311.67
510.75	313.94
511.12	316.40
511.48	318.89
511.84	321.46
512.20	323.97
512.56	326.58
512.92	329.27
513.28	332.15
513.64	335.08
514.00	338.20
514.37	341.50
514.73	344.58
515.09	347.99
515.45	351.34
515.81	354.99
516.17	358.80
516.53	362.58
516.89	366.31
517.25	370.34
517.61	374.35
517.97	378.30
518.33	382.70
518.69	387.02
519.05	391.43
519.41	396.12
519.77	401.00
520.13	405.87
520.49	410.67
520.85	415.53
521.21	420.71
521.57	425.88
521.93	430.85
522.29	436.44
522.65	441.83
523.01	447.54
523.37	453.02
523.73	458.59
524.09	464.43
524.45	470.43
524.81	476.60
525.17	482.85
525.53	489.20
525.89	495.39
526.25	501.84
526.61	508.34
526.97	514.70
527.33	521.24
527.68	528.24
528.04	535.18
528.40	542.13
528.76	549.20
529.12	556.40
529.48	563.90
529.84	570.92
530.20	578.39
530.56	586.18
530.91	593.95
531.27	601.82
531.63	609.52
531.99	617.26
532.35	625.00
532.71	632.85
533.07	640.98
533.42	649.12
533.78	657.08
534.14	665.05
534.50	673.11
534.86	681.21
535.21	689.20
535.57	697.65
535.93	706.17
536.29	714.55
536.65	723.07
537.00	731.32
537.36	739.95
537.72	748.50
538.08	756.50
538.44	764.77
538.79	772.76
539.15	781.10
539.51	789.62
539.87	798.41
540.22	806.79
540.58	815.38
540.94	823.83
541.29	832.32
541.65	840.70
542.01	849.67
542.37	858.26
542.72	866.66
543.08	874.88
543.44	883.15
543.79	890.80
544.15	898.81
544.51	907.28
544.87	915.70
545.22	923.66
545.58	931.74
545.94	939.67
546.29	947.50
546.65	955.30
547.01	963.00
547.36	970.24
547.72	977.83
548.07	985.21
548.43	992.52
548.79	999.99
549.14	1007.61
549.50	1014.63
549.86	1021.50
550.21	1028.62
550.57	1035.89
550.92	1043.01
551.28	1050.53
551.64	1057.32
551.99	1064.14
552.35	1070.63
552.70	1077.59
553.06	1084.39
553.41	1090.99
553.77	1098.18
554.13	1104.86
554.48	1111.32
554.84	1117.78
555.19	1124.29
555.55	1130.41
555.90	1136.54
556.26	1142.71
556.61	1148.60
556.97	1154.36
557.32	1160.39
557.68	1166.09
558.03	1171.96
558.39	1177.58
558.74	1183.33
559.10	1189.00
559.45	1194.43
559.81	1200.44
560.16	1205.48
560.52	1210.74
560.87	1216.38
561.23	1221.17
561.58	1226.61
561.94	1231.89
562.29	1236.54
562.64	1241.41
563.00	1246.07
563.35	1251.37
563.71	1256.24
564.06	1261.32
564.42	1266.15
564.77	1271.34
565.12	1276.46
565.48	1280.76
565.83	1285.06
566.19	1289.30
566.54	1293.40
566.89	1297.43
567.25	1300.90
567.60	1305.37
567.96	1309.11
568.31	1312.47
568.66	1315.71
569.02	1318.69
569.37	1321.59
569.72	1325.02
570.08	1327.81
570.43	1330.70
570.78	1333.05
571.14	1335.40
571.49	1337.80
571.84	1340.74
572.20	1342.38
572.55	1344.22
572.90	1346.10
573.26	1348.09
573.61	1349.81
573.96	1351.42
574.31	1352.37
574.67	1353.38
575.02	1353.55
575.37	1354.42
575.72	1355.01
576.08	1356.24
576.43	1356.87
576.78	1357.47
577.13	1358.29
577.49	1359.20
577.84	1359.88
578.19	1360.17
578.54	1360.57
578.90	1360.26
579.25	1359.50
579.60	1359.09
579.95	1358.21
580.30	1357.62
580.66	1356.97
581.01	1356.02
581.36	1355.76
581.71	1355.70
582.06	1355.19
582.42	1354.88
582.77	1354.10
583.12	1353.44
583.47	1352.56
583.82	1352.18
584.17	1351.40
584.53	1350.25
584.88	1348.59
585.23	1347.63
585.58	1346.78
585.93	1345.20
586.28	1344.18
586.63	1343.25
586.98	1342.59
587.34	1341.88
587.69	1340.76
588.04	1339.40
588.39	1338.35
588.74	1336.30
589.09	1334.15
589.44	1332.37
589.79	1330.60
590.14	1329.05
590.49	1327.19
590.84	1324.96
591.19	1322.70
591.54	1319.86
591.89	1316.83
592.25	1314.70
592.60	1311.50
592.95	1308.50
593.30	1305.94
593.65	1302.89
594.00	1299.94
594.35	1297.25
594.70	1294.04
595.05	1291.45
595.40	1288.28
595.75	1285.23
596.10	1282.43
596.45	1280.07
596.80	1277.35
597.15	1274.66
597.50	1271.86
597.85	1269.01
598.19	1266.44
598.54	1263.73
598.89	1261.22
599.24	1259.31
599.59	1256.63
599.94	1254.16
600.29	1251.50
600.64	1248.44
600.99	1245.63
601.34	1242.83
601.69	1239.00
602.04	1235.92
602.39	1232.18
602.74	1229.62
603.08	1226.53
603.43	1223.59
603.78	1220.46
604.13	1217.24
604.48	1213.98
604.83	1210.28
605.18	1207.27
605.53	1203.49
605.87	1199.42
606.22	1196.42
606.57	1192.54
606.92	1188.79
607.27	1185.43
607.62	1181.89
607.96	1178.59
608.31	1174.89
608.66	1170.87
609.01	1167.22
609.36	1162.74
609.70	1158.35
610.05	1153.82
610.40	1149.66
610.75	1145.67
611.10	1141.03
611.44	1136.36
611.79	1132.24
612.14	1127.97
612.49	1123.14
612.83	1119.10
613.18	1114.74
613.53	1110.03
613.88	1105.00
614.22	1100.66
614.57	1095.70
614.92	1090.89
615.27	1086.36
615.61	1081.71
615.96	1076.99
616.31	1072.97
616.65	1069.46
617.00	1065.73
617.35	1061.35
617.70	1056.72
618.04	1051.64
618.39	1047.38
618.74	1043.38
619.08	1038.65
619.43	1034.37
619.78	1030.27
620.12	1025.61
620.47	1021.32
620.82	1016.70
621.16	1012.78
621.51	1008.31
621.85	1004.07
622.20	999.76
622.55	995.31
622.89	991.06
623.24	987.27
623.59	982.81
623.93	978.49
624.28	974.04
624.62	969.74
624.97	965.79
625.32	961.92
625.66	957.69
626.01	953.30
626.35	949.00
626.70	944.82
627.04	940.58
627.39	936.10
627.73	931.81
628.08	927.72
628.43	923.33
628.77	918.97
629.12	914.49
629.46	910.02
629.81	905.23
630.15	900.83
630.50	896.05
630.84	891.19
631.19	886.18
631.53	881.76
631.88	877.02
632.22	872.02
632.57	867.41
632.91	862.83
633.26	858.24
633.60	853.63
633.95	849.09
634.29	844.39
634.64	840.32
634.98	835.70
635.32	831.71
635.67	827.59
636.01	823.55
636.36	819.70
636.70	815.77
637.05	812.06
637.39	808.10
637.73	804.13
638.08	800.64
638.42	797.07
638.77	793.30
639.11	789.49
639.45	785.96
639.80	782.04
640.14	778.20
640.49	774.29
640.83	770.30
641.17	766.32
641.52	762.49
641.86	758.50
642.20	754.98
642.55	750.79
642.89	747.01
643.23	742.88
643.58	738.94
643.92	734.88
644.26	730.90
644.61	727.24
644.95	723.48
645.29	719.17
645.64	714.95
645.98	711.05
646.32	707.40
646.66	703.22
647.01	699.30
647.35	695.53
647.69	691.94
648.04	688.30
648.38	684.52
648.72	680.69
649.06	676.64
649.41	672.80
649.75	668.81
650.09	664.70
650.43	660.83
650.78	656.70
651.12	652.78
651.46	649.09
651.80	645.03
652.14	641.19
652.49	637.79
652.83	634.40
653.17	630.43
653.51	626.67
653.85	623.20
654.20	619.55
654.54	615.83
654.88	611.69
655.22	607.92
655.56	604.09
655.90	600.54
656.25	597.30
656.59	593.68
656.93	590.25
657.27	587.00
657.61	583.51
657.95	580.33
658.29	576.97
658.64	573.51
658.98	570.28
659.32	566.90
659.66	563.31
660.00	559.92
660.34	556.63
660.68	553.27
661.02	549.88
661.36	546.81
661.70	543.65
662.05	540.99
662.39	538.43
662.73	535.55
663.07	532.65
663.41	529.76
663.75	526.78
664.09	523.80
664.43	520.79
664.77	518.10
665.11	515.42
665.45	512.83
665.79	510.21
666.13	507.32
666.47	504.51
666.81	501.76
667.15	498.94
667.49	496.30
667.83	493.82
668.17	491.30
668.51	488.58
668.85	485.96
669.19	483.40
669.53	480.59
669.87	477.97
670.21	475.54
670.55	472.97
670.89	470.70
671.23	468.47
671.57	466.05
671.91	463.58
672.25	461.14
672.58	458.80
672.92	456.40
673.26	454.35
673.60	452.29
673.94	450.36
674.28	448.44
674.62	446.62
674.96	444.39
675.30	442.37
675.64	440.31
675.97	438.33
676.31	436.21
676.65	434.19
676.99	432.40
677.33	430.30
677.67	428.41
678.01	426.46
678.34	424.38
678.68	422.51
679.02	420.80
679.36	418.86
679.70	417.05
680.04	415.11
680.37	413.03
680.71	411.09
681.05	409.30
681.39	407.57
681.73	405.68
682.06	404.04
682.40	402.35
682.74	400.76
683.08	398.96
683.42	397.28
683.75	395.45
684.09	393.68
684.43	391.96
684.77	390.23
685.10	388.50
685.44	387.00
685.78	385.36
686.12	383.68
686.45	382.04
686.79	380.37
687.13	378.77
687.46	377.33
687.80	375.91
688.14	374.22
688.48	372.68
688.81	371.02
689.15	369.59
689.49	368.02
689.82	366.47
690.16	365.00
690.50	363.50
690.83	362.18
691.17	360.68
691.51	359.33
691.84	357.83
692.18	356.51
692.52	354.82
692.85	353.51
693.19	352.13
693.52	350.71
693.86	349.32
694.20	348.10
694.53	346.77
694.87	345.26
695.21	343.81
695.54	342.36
695.88	341.06
696.21	339.62
696.55	338.26
696.88	337.09
697.22	335.84
697.56	334.45
697.89	333.08
698.23	331.85
698.56	330.50
698.90	329.39
699.23	328.05
699.57	326.90
699.90	325.58
700.24	324.36
700.58	323.16
700.91	322.10
701.25	321.03
701.58	319.96
701.92	318.95
702.25	317.96
702.59	316.97
702.92	316.01
703.26	315.04
703.59	314.13
703.93	313.15
704.26	312.28
704.60	311.43
704.93	310.50
705.26	309.45
705.60	308.66
705.93	307.81
706.27	307.06
706.60	306.40
706.94	305.76
707.27	304.83
707.61	304.05
707.94	303.11
708.27	302.11
708.61	301.21
708.94	300.20
709.28	299.49
709.61	298.63
709.94	297.88
710.28	297.05
710.61	296.12
710.95	295.18
711.28	294.55
711.61	293.72
711.95	293.00
712.28	292.40
712.61	291.62
712.95	290.88
713.28	290.18
713.61	289.47
713.95	288.71
714.28	288.12
714.61	287.42
714.95	286.86
715.28	286.20
715.61	285.54
715.95	285.15
716.28	284.56
716.61	283.97
716.95	283.29
717.28	282.69
717.61	282.23
717.94	281.68
718.28	280.82
718.61	280.32
718.94	279.77
719.27	279.21
719.61	278.58
719.94	277.83
720.27	277.21
720.60	276.63
720.94	276.04
721.27	275.46
721.60	275.06
721.93	274.66
722.27	274.23
722.60	273.74
722.93	273.13
723.26	272.60
723.59	272.06
723.93	271.61
724.26	271.20
724.59	270.70
724.92	270.25
725.25	269.89
725.59	269.48
725.92	269.00
726.25	268.54
726.58	268.17
726.91	267.90
727.24	267.47
727.57	267.14
727.91	266.83
728.24	266.51
728.57	265.96
728.90	265.39
729.23	265.00
729.56	264.75
729.89	264.35
730.22	263.96
730.55	263.56
730.89	263.13
731.22	262.80
731.55	262.50
731.88	262.12
732.21	261.70
732.54	261.33
732.87	261.04
733.20	260.63
733.53	260.28
733.86	259.92
734.19	259.50
734.52	258.98
734.85	258.64
735.18	258.33
735.51	258.09
735.84	257.77
736.17	257.47
736.50	257.03
736.83	257.01
737.16	256.71
737.49	256.56
737.82	256.29
738.15	255.90
738.48	255.50
738.81	255.17
739.14	254.89
739.47	254.57
739.80	254.21
740.13	254.06
740.46	253.80
740.79	253.51
741.12	253.24
741.45	253.06
741.78	252.70
742.11	252.41
742.44	252.03
742.77	251.79
743.10	251.50
743.43	251.13
743.75	250.56
744.08	250.53
744.41	250.07
744.74	249.76
745.07	249.55
745.40	249.42
745.73	249.23
746.06	249.03
746.39	248.80
746.71	248.57
747.04	248.19
747.37	247.90
747.70	247.70
748.03	247.43
748.36	247.29
748.68	247.10
749.01	246.74
749.34	246.60
749.67	246.34
750.00	246.13
750.33	246.20
750.65	245.99
750.98	245.48
751.31	245.29
751.64	245.16
751.97	245.10
752.29	244.81
752.62	244.55
752.95	244.29
753.28	244.12
753.60	243.98
753.93	243.86
754.26	243.78
754.59	243.58
754.91	243.48
755.24	243.25
755.57	243.01
755.90	242.87
756.22	242.69
756.55	242.60
756.88	242.47
757.20	242.05
757.53	241.82
757.86	241.80
758.19	241.80
758.51	241.61
758.84	241.33
759.17	241.21
759.49	241.05
759.82	241.06
760.15	240.93
760.47	240.80
760.80	240.75
761.13	240.60
761.45	240.47
761.78	240.40
762.11	240.26
762.43	240.14
762.76	240.00
763.08	239.82
763.41	239.72
763.74	239.63
764.06	239.60
764.39	239.62
764.71	239.39
765.04	239.26
765.37	239.18
765.69	239.01
766.02	238.87
766.34	238.86
766.67	238.68
767.00	238.63
767.32	238.59
767.65	238.58
767.97	238.43
768.30	238.38
768.62	238.20
768.95	238.05
769.27	237.88
769.60	237.92
769.92	237.92
770.25	237.79
770.57	237.60
770.90	237.55
771.22	237.37
771.55	237.30
771.87	237.19
772.20	237.04
772.52	237.10
772.85	237.27
773.17	237.21
773.50	237.16
773.82	236.96
774.15	236.80
774.47	236.49
774.80	236.47
775.12	236.31
775.45	236.20
775.77	236.20
776.09	236.26
776.42	236.10
776.74	236.07
777.07	235.95
777.39	235.86
777.72	235.71
778.04	235.72
778.36	235.59
778.69	235.52
779.01	235.44
779.33	235.23
779.66	234.88
779.98	234.65
780.31	234.51
780.63	234.49
780.95	234.46
781.28	234.41
781.60	234.27
781.92	234.13
782.25	234.07
782.57	234.01
782.89	233.88
783.22	233.79
783.54	233.58
783.86	233.54
784.19	233.49
784.51	233.49
784.83	233.43
785.16	233.37
785.48	233.28
785.80	233.27
786.12	233.23
786.45	233.29
786.77	233.31
787.09	233.24
787.42	233.22
787.74	233.17
788.06	233.20
788.38	233.06
788.71	233.08
789.03	233.00
789.35	232.86
789.67	232.84
