SpectraSuite Data File
++++++++++++++++++++++++++++++++++++
Date: Fri Feb 01 14:34:46 EST 2013
User: group
Dark Spectrum Present: No
Reference Spectrum Present: No
Number of Sampled Component Spectra: 1
Spectrometers: USB2E7196
Integration Time (usec): 70000 (USB2E7196)
Spectra Averaged: 10 (USB2E7196)
Boxcar Smoothing: 10 (USB2E7196)
Correct for Electrical Dark: No (USB2E7196)
Strobe/Lamp Enabled: No (USB2E7196)
Correct for Detector Non-linearity: No (USB2E7196)
Correct for Stray Light: No (USB2E7196)
Number of Pixels in Processed Spectrum: 2048
>>>>>Begin Processed Spectral Data<<<<<
339.09	0.00
339.48	214.60
339.86	218.30
340.24	218.00
340.63	220.20
341.01	223.60
341.39	222.10
341.78	223.00
342.16	224.10
342.54	224.10
342.93	214.19
343.31	225.02
343.69	225.59
344.07	226.05
344.46	226.56
344.84	226.96
345.22	227.18
345.60	227.45
345.99	227.72
346.37	227.86
346.75	228.11
347.13	228.17
347.52	228.23
347.90	228.35
348.28	228.40
348.66	228.47
349.05	228.39
349.43	228.45
349.81	228.57
350.19	228.67
350.57	228.79
350.96	228.77
351.34	228.84
351.72	229.04
352.10	229.14
352.48	229.24
352.87	229.35
353.25	229.47
353.63	229.52
354.01	229.54
354.39	229.70
354.77	229.70
355.15	229.77
355.54	229.84
355.92	229.84
356.30	229.97
356.68	230.08
357.06	230.18
357.44	230.16
357.82	230.16
358.20	230.17
358.58	230.24
358.97	230.28
359.35	230.35
359.73	230.33
360.11	230.36
360.49	230.32
360.87	230.32
361.25	230.37
361.63	230.48
362.01	230.49
362.39	230.45
362.77	230.57
363.15	230.69
363.53	230.72
363.91	230.75
364.29	230.70
364.67	230.58
365.05	230.67
365.43	230.73
365.81	230.80
366.19	230.87
366.57	230.87
366.95	230.83
367.33	230.75
367.71	230.81
368.09	230.83
368.47	230.80
368.85	230.68
369.23	230.71
369.61	230.58
369.99	230.68
370.37	230.67
370.75	230.54
371.13	230.41
371.51	230.22
371.89	230.23
372.27	230.12
372.65	230.06
373.03	229.94
373.41	229.90
373.78	229.87
374.16	229.74
374.54	229.60
374.92	229.58
375.30	229.58
375.68	229.36
376.06	229.29
376.44	229.20
376.82	229.21
377.19	229.03
377.57	228.97
377.95	228.75
378.33	228.63
378.71	228.62
379.09	228.56
379.47	228.66
379.84	228.54
380.22	228.48
380.60	228.36
380.98	228.30
381.36	228.28
381.73	228.07
382.11	228.00
382.49	227.92
382.87	227.79
383.25	227.69
383.62	228.00
384.00	227.88
384.38	227.90
384.76	227.80
385.13	227.82
385.51	227.78
385.89	227.73
386.27	227.79
386.64	227.69
387.02	227.60
387.40	227.54
387.78	227.54
388.15	227.58
388.53	227.50
388.91	227.52
389.29	227.43
389.66	227.47
390.04	227.38
390.42	227.48
390.79	227.55
391.17	227.55
391.55	227.29
391.92	227.32
392.30	227.32
392.68	227.35
393.05	227.35
393.43	227.42
393.81	227.51
394.18	227.42
394.56	227.46
394.94	227.60
395.31	227.64
395.69	227.74
396.06	227.80
396.44	228.02
396.82	227.96
397.19	228.12
397.57	228.22
397.95	228.36
398.32	228.29
398.70	228.34
399.07	228.53
399.45	228.63
399.82	228.83
400.20	228.96
400.58	229.13
400.95	229.29
401.33	229.56
401.70	229.92
402.08	230.19
402.45	230.46
402.83	230.73
403.20	230.86
403.58	231.09
403.95	231.38
404.33	231.66
404.71	231.99
405.08	232.39
405.46	232.72
405.83	233.08
406.21	233.46
406.58	233.89
406.96	234.20
407.33	234.65
407.70	235.01
408.08	235.56
408.45	236.09
408.83	236.65
409.20	237.05
409.58	237.50
409.95	238.15
410.33	238.81
410.70	239.45
411.08	240.31
411.45	241.09
411.82	241.82
412.20	242.66
412.57	243.69
412.95	244.57
413.32	245.54
413.69	246.69
414.07	247.91
414.44	249.23
414.82	250.63
415.19	252.18
415.56	253.80
415.94	255.55
416.31	257.40
416.68	259.17
417.06	261.34
417.43	263.26
417.81	265.56
418.18	267.84
418.55	270.43
418.93	273.05
419.30	275.83
419.67	278.72
420.04	281.75
420.42	284.92
420.79	288.41
421.16	292.03
421.54	295.80
421.91	299.60
422.28	303.59
422.66	307.85
423.03	311.83
423.40	316.04
423.77	320.72
424.15	325.38
424.52	330.14
424.89	335.50
425.26	340.67
425.64	345.50
426.01	350.86
426.38	356.30
426.75	361.70
427.13	367.37
427.50	373.54
427.87	380.01
428.24	386.34
428.61	392.46
428.99	399.09
429.36	406.31
429.73	413.59
430.10	420.57
430.47	427.69
430.85	435.31
431.22	443.18
431.59	451.34
431.96	459.22
432.33	468.04
432.70	476.47
433.08	486.33
433.45	495.67
433.82	505.14
434.19	515.44
434.56	525.93
434.93	535.76
435.30	545.45
435.68	556.09
436.05	566.62
436.42	577.11
436.79	586.76
437.16	597.12
437.53	607.87
437.90	618.58
438.27	629.27
438.64	640.27
439.01	650.50
439.38	659.62
439.75	668.45
440.13	678.49
440.50	687.95
440.87	696.17
441.24	704.55
441.61	713.55
441.98	720.44
442.35	728.46
442.72	736.72
443.09	744.58
443.46	749.59
443.83	753.14
444.20	756.58
444.57	761.20
444.94	763.73
445.31	766.67
445.68	769.39
446.05	771.25
446.42	771.52
446.79	771.60
447.16	771.68
447.53	772.21
447.90	769.70
448.27	767.20
448.64	762.67
449.01	759.87
449.37	753.95
449.74	748.20
450.11	741.00
450.48	733.10
450.85	725.19
451.22	718.55
451.59	712.26
451.96	706.06
452.33	697.31
452.70	689.75
453.07	680.07
453.43	670.63
453.80	661.20
454.17	652.06
454.54	643.42
454.91	633.88
455.28	624.70
455.65	616.07
456.02	606.90
456.38	599.60
456.75	590.36
457.12	582.55
457.49	574.73
457.86	567.10
458.23	560.66
458.59	553.34
458.96	545.86
459.33	539.38
459.70	532.73
460.07	527.43
460.43	521.17
460.80	515.34
461.17	509.99
461.54	504.46
461.91	499.20
462.27	494.08
462.64	489.47
463.01	484.28
463.38	479.50
463.74	474.93
464.11	470.58
464.48	466.75
464.85	462.67
465.21	459.55
465.58	456.26
465.95	451.97
466.32	448.53
466.68	445.27
467.05	441.82
467.42	438.46
467.78	434.99
468.15	431.67
468.52	429.22
468.88	426.00
469.25	423.21
469.62	420.95
469.98	418.26
470.35	415.88
470.72	413.67
471.08	411.32
471.45	409.45
471.82	407.46
472.18	405.14
472.55	403.47
472.92	401.63
473.28	399.81
473.65	398.24
474.02	396.58
474.38	395.10
474.75	393.99
475.11	392.76
475.48	391.63
475.85	390.67
476.21	389.78
476.58	388.92
476.94	388.31
477.31	387.63
477.67	386.91
478.04	386.30
478.41	385.93
478.77	385.71
479.14	384.99
479.50	384.49
479.87	384.41
480.23	384.44
480.60	384.26
480.96	384.09
481.33	384.34
481.69	384.59
482.06	384.60
482.42	384.49
482.79	384.63
483.15	385.39
483.52	385.89
483.88	386.25
484.25	386.85
484.61	387.50
484.98	387.91
485.34	388.84
485.71	389.86
486.07	390.65
486.44	391.43
486.80	392.84
487.17	394.03
487.53	395.31
487.90	396.52
488.26	398.01
488.62	399.78
488.99	401.32
489.35	402.90
489.72	404.87
490.08	407.02
490.44	409.10
490.81	410.99
491.17	413.15
491.54	415.47
491.90	417.80
492.26	420.29
492.63	422.86
492.99	425.39
493.36	427.91
493.72	430.76
494.08	433.62
494.45	436.56
494.81	439.77
495.17	442.85
495.54	446.02
495.90	449.30
496.26	452.53
496.63	455.94
496.99	459.50
497.35	462.94
497.72	466.67
498.08	470.17
498.44	473.86
498.80	477.76
499.17	481.62
499.53	485.43
499.89	489.25
500.26	493.08
500.62	496.87
500.98	500.98
501.34	504.96
501.71	509.04
502.07	512.91
502.43	516.96
502.79	520.96
503.16	525.10
503.52	528.95
503.88	532.94
504.24	536.80
504.60	540.78
504.97	544.85
505.33	548.59
505.69	552.99
506.05	557.08
506.41	560.86
506.78	564.53
507.14	568.42
507.50	572.51
507.86	576.53
508.22	580.44
508.59	584.06
508.95	587.95
509.31	591.72
509.67	595.63
510.03	599.26
510.39	603.05
510.75	606.69
511.12	610.33
511.48	613.68
511.84	617.34
512.20	620.60
512.56	624.05
512.92	627.28
513.28	630.32
513.64	633.18
514.00	636.24
514.37	639.47
514.73	642.57
515.09	645.01
515.45	647.63
515.81	650.24
516.17	653.15
516.53	655.50
516.89	657.87
517.25	660.14
517.61	662.52
517.97	664.55
518.33	666.44
518.69	668.41
519.05	670.66
519.41	672.77
519.77	675.03
520.13	676.94
520.49	679.27
520.85	681.21
521.21	683.12
521.57	685.35
521.93	687.07
522.29	688.92
522.65	690.82
523.01	692.49
523.37	694.14
523.73	695.57
524.09	697.50
524.45	699.20
524.81	700.80
525.17	702.51
525.53	704.57
525.89	706.57
526.25	708.54
526.61	710.13
526.97	711.56
527.33	713.26
527.68	715.12
528.04	716.72
528.40	718.13
528.76	720.28
529.12	721.82
529.48	723.65
529.84	725.42
530.20	727.07
530.56	729.46
530.91	731.85
531.27	733.90
531.63	735.64
531.99	737.58
532.35	739.63
532.71	741.28
533.07	743.47
533.42	745.58
533.78	747.58
534.14	750.09
534.50	752.24
534.86	754.47
535.21	756.52
535.57	758.69
535.93	761.18
536.29	763.27
536.65	765.58
537.00	767.80
537.36	770.00
537.72	772.66
538.08	774.55
538.44	776.67
538.79	779.10
539.15	781.58
539.51	783.98
539.87	786.45
540.22	789.33
540.58	791.69
540.94	794.34
541.29	796.79
541.65	799.14
542.01	802.20
542.37	804.94
542.72	807.35
543.08	809.91
543.44	812.59
543.79	815.10
544.15	817.80
544.51	820.74
544.87	823.70
545.22	826.58
545.58	829.40
545.94	832.09
546.29	834.97
546.65	837.60
547.01	840.54
547.36	843.45
547.72	846.11
548.07	848.76
548.43	851.10
548.79	854.11
549.14	856.55
549.50	858.77
549.86	861.22
550.21	864.13
550.57	866.88
550.92	869.46
551.28	872.28
551.64	874.98
551.99	877.67
552.35	880.20
552.70	882.56
553.06	885.20
553.41	887.89
553.77	890.55
554.13	893.36
554.48	895.99
554.84	898.81
555.19	901.67
555.55	904.56
555.90	907.11
556.26	909.51
556.61	912.35
556.97	915.11
557.32	917.80
557.68	920.25
558.03	922.67
558.39	925.46
558.74	928.12
559.10	930.61
559.45	933.03
559.81	935.71
560.16	938.49
560.52	941.21
560.87	943.95
561.23	946.24
561.58	948.62
561.94	950.88
562.29	953.21
562.64	955.39
563.00	957.49
563.35	960.26
563.71	962.95
564.06	965.36
564.42	967.79
564.77	970.04
565.12	972.52
565.48	975.46
565.83	977.35
566.19	979.51
566.54	981.82
566.89	983.68
567.25	985.69
567.60	987.96
567.96	989.93
568.31	991.65
568.66	993.50
569.02	995.38
569.37	997.31
569.72	998.60
570.08	1000.07
570.43	1001.83
570.78	1002.98
571.14	1003.83
571.49	1005.03
571.84	1006.54
572.20	1007.76
572.55	1008.90
572.90	1009.10
573.26	1010.32
573.61	1011.06
573.96	1011.44
574.31	1012.11
574.67	1012.19
575.02	1011.94
575.37	1012.39
575.72	1012.28
576.08	1012.62
576.43	1012.70
576.78	1012.87
577.13	1013.36
577.49	1013.63
577.84	1013.67
578.19	1013.69
578.54	1014.03
578.90	1013.85
579.25	1013.06
579.60	1012.39
579.95	1011.70
580.30	1011.53
580.66	1010.90
581.01	1010.39
581.36	1010.02
581.71	1009.47
582.06	1009.24
582.42	1008.71
582.77	1008.05
583.12	1007.38
583.47	1006.47
583.82	1005.84
584.17	1004.63
584.53	1003.74
584.88	1002.61
585.23	1001.38
585.58	1000.21
585.93	999.10
586.28	998.00
586.63	996.99
586.98	996.03
587.34	995.07
587.69	993.89
588.04	992.74
588.39	991.52
588.74	989.74
589.09	988.33
589.44	986.63
589.79	985.17
590.14	983.72
590.49	982.33
590.84	980.96
591.19	979.11
591.54	977.32
591.89	974.98
592.25	973.28
592.60	971.00
592.95	968.92
593.30	966.79
593.65	964.56
594.00	962.50
594.35	960.76
594.70	958.16
595.05	956.16
595.40	953.44
595.75	950.98
596.10	949.04
596.45	947.14
596.80	945.16
597.15	942.88
597.50	940.10
597.85	937.98
598.19	935.73
598.54	934.01
598.89	932.07
599.24	930.15
599.59	927.91
599.94	926.14
600.29	924.24
600.64	921.88
600.99	919.59
601.34	917.18
601.69	914.44
602.04	912.37
602.39	909.55
602.74	907.66
603.08	905.22
603.43	903.06
603.78	900.48
604.13	897.91
604.48	895.68
604.83	893.71
605.18	891.17
605.53	888.28
605.87	884.88
606.22	882.35
606.57	879.58
606.92	876.85
607.27	873.87
607.62	871.36
607.96	868.97
608.31	866.27
608.66	863.34
609.01	860.35
609.36	857.24
609.70	854.11
610.05	850.71
610.40	847.77
610.75	844.50
611.10	841.20
611.44	837.61
611.79	834.57
612.14	831.05
612.49	827.29
612.83	823.96
613.18	820.99
613.53	817.73
613.88	814.21
614.22	810.71
614.57	807.47
614.92	803.98
615.27	800.56
615.61	797.49
615.96	794.32
616.31	791.44
616.65	788.62
617.00	785.84
617.35	783.01
617.70	779.65
618.04	776.31
618.39	773.26
618.74	770.44
619.08	767.05
619.43	763.90
619.78	761.27
620.12	758.21
620.47	755.17
620.82	751.68
621.16	748.63
621.51	745.93
621.85	742.71
622.20	739.48
622.55	736.30
622.89	732.98
623.24	730.18
623.59	727.02
623.93	724.11
624.28	721.18
624.62	718.18
624.97	715.63
625.32	712.99
625.66	710.24
626.01	707.49
626.35	704.37
626.70	701.66
627.04	698.96
627.39	696.01
627.73	693.01
628.08	690.36
628.43	687.57
628.77	684.58
629.12	681.83
629.46	678.99
629.81	675.75
630.15	672.80
630.50	669.55
630.84	666.27
631.19	662.82
631.53	659.73
631.88	656.46
632.22	652.89
632.57	650.08
632.91	646.83
633.26	643.80
633.60	640.90
633.95	637.89
634.29	634.95
634.64	632.30
634.98	629.57
635.32	626.72
635.67	624.03
636.01	621.16
636.36	618.26
636.70	615.69
637.05	613.38
637.39	610.84
637.73	608.37
638.08	606.16
638.42	603.89
638.77	601.16
639.11	598.71
639.45	596.17
639.80	593.16
640.14	590.63
640.49	587.88
640.83	585.37
641.17	582.79
641.52	580.01
641.86	577.29
642.20	574.67
642.55	572.11
642.89	569.70
643.23	566.98
643.58	564.54
643.92	561.75
644.26	558.93
644.61	556.65
644.95	554.11
645.29	551.36
645.64	548.53
645.98	546.15
646.32	543.74
646.66	541.56
647.01	539.01
647.35	536.55
647.69	534.34
648.04	532.04
648.38	529.47
648.72	526.93
649.06	524.23
649.41	521.74
649.75	519.35
650.09	516.76
650.43	514.31
650.78	511.70
651.12	509.26
651.46	507.16
651.80	504.58
652.14	502.20
652.49	499.90
652.83	497.89
653.17	495.43
653.51	492.97
653.85	490.60
654.20	488.25
654.54	485.77
654.88	483.34
655.22	480.81
655.56	478.45
655.90	476.30
656.25	474.28
656.59	471.90
656.93	469.61
657.27	467.27
657.61	465.02
657.95	463.20
658.29	461.07
658.64	458.79
658.98	456.61
659.32	454.44
659.66	452.36
660.00	450.10
660.34	447.97
660.68	446.05
661.02	444.04
661.36	442.32
661.70	440.49
662.05	438.46
662.39	436.66
662.73	434.80
663.07	433.00
663.41	431.31
663.75	429.60
664.09	427.95
664.43	426.23
664.77	424.70
665.11	422.77
665.45	421.03
665.79	419.19
666.13	417.24
666.47	415.47
666.81	413.70
667.15	411.88
667.49	410.26
667.83	408.55
668.17	406.80
668.51	405.10
668.85	403.43
669.19	401.97
669.53	400.36
669.87	398.77
670.21	397.08
670.55	395.27
670.89	393.94
671.23	392.38
671.57	390.90
671.91	389.25
672.25	387.81
672.58	386.50
672.92	385.14
673.26	383.92
673.60	382.52
673.94	381.11
674.28	379.97
674.62	378.71
674.96	377.37
675.30	376.10
675.64	374.70
675.97	373.34
676.31	372.03
676.65	370.74
676.99	369.53
677.33	368.22
677.67	367.13
678.01	365.56
678.34	364.24
678.68	362.91
679.02	361.83
679.36	360.66
679.70	359.31
680.04	358.13
680.37	356.97
680.71	355.72
681.05	354.66
681.39	353.25
681.73	352.00
682.06	350.95
682.40	349.82
682.74	348.71
683.08	347.74
683.42	346.51
683.75	345.32
684.09	344.23
684.43	343.14
684.77	342.00
685.10	340.93
685.44	339.70
685.78	338.73
686.12	337.54
686.45	336.29
686.79	335.12
687.13	334.06
687.46	332.90
687.80	331.91
688.14	330.78
688.48	329.95
688.81	328.90
689.15	327.80
689.49	326.74
689.82	325.70
690.16	324.50
690.50	323.48
690.83	322.52
691.17	321.37
691.51	320.34
691.84	319.31
692.18	318.41
692.52	317.51
692.85	316.58
693.19	315.65
693.52	314.72
693.86	313.85
694.20	312.94
694.53	311.92
694.87	311.00
695.21	309.97
695.54	309.06
695.88	308.02
696.21	306.98
696.55	306.15
696.88	305.27
697.22	304.55
697.56	303.84
697.89	302.95
698.23	302.12
698.56	301.39
698.90	300.67
699.23	299.90
699.57	299.05
699.90	298.20
700.24	297.30
700.58	296.65
700.91	295.92
701.25	295.25
701.58	294.76
701.92	294.13
702.25	293.51
702.59	292.69
702.92	292.18
703.26	291.64
703.59	290.84
703.93	290.36
704.26	289.75
704.60	289.10
704.93	288.61
705.26	288.05
705.60	287.41
705.93	286.72
706.27	286.11
706.60	285.65
706.94	285.16
707.27	284.61
707.61	284.07
707.94	283.43
708.27	282.67
708.61	281.98
708.94	281.34
709.28	280.75
709.61	280.29
709.94	279.73
710.28	279.12
710.61	278.62
710.95	277.97
711.28	277.46
711.61	276.82
711.95	276.29
712.28	275.74
712.61	275.24
712.95	274.91
713.28	274.50
713.61	273.92
713.95	273.39
714.28	272.96
714.61	272.47
714.95	271.97
715.28	271.56
715.61	271.15
715.95	270.69
716.28	270.27
716.61	269.78
716.95	269.35
717.28	268.94
717.61	268.47
717.94	268.09
718.28	267.68
718.61	267.27
718.94	266.84
719.27	266.41
719.61	266.01
719.94	265.54
720.27	265.07
720.60	264.68
720.94	264.34
721.27	263.92
721.60	263.40
721.93	263.17
722.27	262.91
722.60	262.55
722.93	262.17
723.26	261.97
723.59	261.52
723.93	261.16
724.26	260.76
724.59	260.53
724.92	260.11
725.25	259.87
725.59	259.57
725.92	259.31
726.25	259.02
726.58	258.71
726.91	258.38
727.24	258.01
727.57	257.68
727.91	257.27
728.24	257.01
728.57	256.75
728.90	256.37
729.23	255.97
729.56	255.67
729.89	255.33
730.22	254.88
730.55	254.67
730.89	254.42
731.22	254.20
731.55	253.88
731.88	253.56
732.21	253.12
732.54	252.88
732.87	252.44
733.20	252.17
733.53	251.89
733.86	251.63
734.19	251.41
734.52	251.13
734.85	251.10
735.18	250.74
735.51	250.60
735.84	250.45
736.17	250.19
736.50	249.94
736.83	250.02
737.16	249.82
737.49	249.53
737.82	249.30
738.15	249.15
738.48	248.90
738.81	248.74
739.14	248.55
739.47	248.39
739.80	248.29
740.13	248.05
740.46	247.90
740.79	247.78
741.12	247.51
741.45	247.44
741.78	247.05
742.11	246.89
742.44	246.59
742.77	246.37
743.10	246.18
743.43	245.98
743.75	245.54
744.08	245.55
744.41	245.44
744.74	245.17
745.07	244.96
745.40	244.92
745.73	244.84
746.06	244.77
746.39	244.54
746.71	244.38
747.04	244.44
747.37	244.19
747.70	244.05
748.03	243.98
748.36	243.84
748.68	243.67
749.01	243.52
749.34	243.45
749.67	243.37
750.00	243.22
750.33	243.24
750.65	243.16
750.98	242.86
751.31	242.79
751.64	242.74
751.97	242.65
752.29	242.50
752.62	242.24
752.95	242.03
753.28	241.85
753.60	241.70
753.93	241.46
754.26	241.45
754.59	241.15
754.91	240.99
755.24	240.86
755.57	240.76
755.90	240.70
756.22	240.50
756.55	240.30
756.88	240.20
757.20	240.00
757.53	239.80
757.86	239.73
758.19	239.55
758.51	239.43
758.84	239.21
759.17	239.11
759.49	239.06
759.82	238.93
760.15	238.81
760.47	238.74
760.80	238.57
761.13	238.45
761.45	238.38
761.78	238.28
762.11	238.08
762.43	237.90
762.76	237.83
763.08	237.75
763.41	237.66
763.74	237.46
764.06	237.32
764.39	237.34
764.71	237.15
765.04	237.02
765.37	236.89
765.69	236.77
766.02	236.50
766.34	236.37
766.67	236.23
767.00	236.13
767.32	236.05
767.65	236.02
767.97	235.95
768.30	235.86
768.62	235.77
768.95	235.73
769.27	235.73
769.60	235.62
769.92	235.52
770.25	235.33
770.57	235.26
770.90	235.10
771.22	234.86
771.55	234.82
771.87	234.72
772.20	234.71
772.52	234.87
772.85	235.07
773.17	234.97
773.50	234.82
773.82	234.73
774.15	234.56
774.47	234.41
774.80	234.10
775.12	233.96
775.45	233.87
775.77	233.71
776.09	233.55
776.42	233.39
776.74	233.42
777.07	233.42
777.39	233.40
777.72	233.35
778.04	233.31
778.36	233.15
778.69	233.16
779.01	233.03
779.33	232.89
779.66	232.55
779.98	232.55
780.31	232.60
780.63	232.73
780.95	232.75
781.28	232.66
781.60	232.77
781.92	232.78
782.25	232.72
782.57	232.67
782.89	232.71
783.22	232.74
783.54	232.58
783.86	232.47
784.19	232.49
784.51	232.46
784.83	232.51
785.16	232.56
785.48	232.49
785.80	232.39
786.12	232.30
786.45	232.45
786.77	232.35
787.09	232.31
787.42	232.11
787.74	232.11
788.06	232.18
788.38	232.16
788.71	232.07
789.03	232.08
789.35	232.14
789.67	232.07
789.99	231.96
790.32	231.91
790.64	232.06
790.96	232.08
791.28	231.97
791.61	231.97
791.93	231.96
792.25	231.89
792.57	232.15
792.89	232.07
793.21	232.01
