SpectraSuite Data File
++++++++++++++++++++++++++++++++++++
Date: Fri Feb 01 14:39:08 EST 2013
User: group
Dark Spectrum Present: No
Reference Spectrum Present: No
Number of Sampled Component Spectra: 1
Spectrometers: USB2E7196
Integration Time (usec): 70000 (USB2E7196)
Spectra Averaged: 10 (USB2E7196)
Boxcar Smoothing: 10 (USB2E7196)
Correct for Electrical Dark: No (USB2E7196)
Strobe/Lamp Enabled: No (USB2E7196)
Correct for Detector Non-linearity: No (USB2E7196)
Correct for Stray Light: No (USB2E7196)
Number of Pixels in Processed Spectrum: 2048
>>>>>Begin Processed Spectral Data<<<<<
339.09	0.00
339.48	217.00
339.86	217.90
340.24	220.00
340.63	219.80
341.01	225.00
341.39	222.70
341.78	225.40
342.16	224.20
342.54	226.40
342.93	214.38
343.31	225.25
343.69	225.71
344.07	226.10
344.46	226.51
344.84	226.87
345.22	226.98
345.60	227.27
345.99	227.40
346.37	227.65
346.75	227.66
347.13	227.67
347.52	227.71
347.90	227.71
348.28	227.75
348.66	227.85
349.05	227.80
349.43	227.86
349.81	228.04
350.19	228.07
350.57	228.09
350.96	228.17
351.34	228.22
351.72	228.28
352.10	228.39
352.48	228.41
352.87	228.47
353.25	228.48
353.63	228.63
354.01	228.78
354.39	228.75
354.77	228.85
355.15	229.00
355.54	229.00
355.92	229.04
356.30	229.15
356.68	229.25
357.06	229.36
357.44	229.31
357.82	229.28
358.20	229.30
358.58	229.39
358.97	229.41
359.35	229.52
359.73	229.62
360.11	229.68
360.49	229.72
360.87	229.90
361.25	229.98
361.63	229.92
362.01	229.92
362.39	229.99
362.77	230.06
363.15	230.08
363.53	230.18
363.91	230.29
364.29	230.31
364.67	230.15
365.05	230.19
365.43	230.21
365.81	230.31
366.19	230.40
366.57	230.54
366.95	230.54
367.33	230.44
367.71	230.42
368.09	230.46
368.47	230.48
368.85	230.40
369.23	230.42
369.61	230.38
369.99	230.36
370.37	230.39
370.75	230.45
371.13	230.34
371.51	230.32
371.89	230.20
372.27	230.12
372.65	230.16
373.03	230.01
373.41	229.90
373.78	229.84
374.16	229.67
374.54	229.50
374.92	229.39
375.30	229.31
375.68	229.10
376.06	229.00
376.44	228.92
376.82	228.82
377.19	228.79
377.57	228.67
377.95	228.49
378.33	228.36
378.71	228.07
379.09	227.96
379.47	227.84
379.84	227.71
380.22	227.64
380.60	227.55
380.98	227.53
381.36	227.53
381.73	227.42
382.11	227.34
382.49	227.27
382.87	227.28
383.25	227.19
383.62	227.48
384.00	227.39
384.38	227.37
384.76	227.32
385.13	227.28
385.51	227.26
385.89	227.21
386.27	227.19
386.64	227.26
387.02	227.41
387.40	227.39
387.78	227.45
388.15	227.39
388.53	227.33
388.91	227.30
389.29	227.27
389.66	227.18
390.04	227.14
390.42	227.08
390.79	227.01
391.17	227.04
391.55	226.75
391.92	226.73
392.30	226.64
392.68	226.61
393.05	226.47
393.43	226.42
393.81	226.50
394.18	226.47
394.56	226.46
394.94	226.34
395.31	226.27
395.69	226.36
396.06	226.40
396.44	226.50
396.82	226.44
397.19	226.54
397.57	226.68
397.95	226.84
398.32	226.87
398.70	226.98
399.07	227.06
399.45	227.12
399.82	227.20
400.20	227.23
400.58	227.25
400.95	227.41
401.33	227.43
401.70	227.58
402.08	227.58
402.45	227.75
402.83	227.88
403.20	228.05
403.58	227.90
403.95	228.06
404.33	228.06
404.71	228.31
405.08	228.46
405.46	228.54
405.83	228.68
406.21	228.88
406.58	229.03
406.96	229.11
407.33	229.32
407.70	229.59
408.08	230.00
408.45	230.21
408.83	230.45
409.20	230.71
409.58	230.86
409.95	231.19
410.33	231.33
410.70	231.68
411.08	231.99
411.45	232.47
411.82	232.69
412.20	233.14
412.57	233.54
412.95	233.87
413.32	234.41
413.69	234.79
414.07	235.15
414.44	235.64
414.82	236.28
415.19	236.78
415.56	237.21
415.94	237.69
416.31	238.35
416.68	238.96
417.06	239.77
417.43	240.45
417.81	241.22
418.18	242.16
418.55	242.99
418.93	243.92
419.30	244.82
419.67	245.89
420.04	246.97
420.42	247.99
420.79	249.33
421.16	250.52
421.54	251.86
421.91	253.21
422.28	254.50
422.66	256.03
423.03	257.59
423.40	259.13
423.77	260.70
424.15	262.38
424.52	264.13
424.89	265.97
425.26	267.81
425.64	269.53
426.01	271.30
426.38	273.29
426.75	275.29
427.13	277.34
427.50	279.41
427.87	281.50
428.24	283.80
428.61	285.77
428.99	287.95
429.36	290.43
429.73	292.86
430.10	295.36
430.47	297.61
430.85	300.14
431.22	302.84
431.59	305.63
431.96	308.37
432.33	311.30
432.70	314.25
433.08	317.49
433.45	320.52
433.82	323.54
434.19	327.04
434.56	330.47
434.93	333.77
435.30	337.03
435.68	340.68
436.05	343.93
436.42	347.40
436.79	350.57
437.16	353.83
437.53	357.35
437.90	360.86
438.27	364.24
438.64	367.77
439.01	370.87
439.38	373.81
439.75	376.43
440.13	379.61
440.50	382.51
440.87	385.16
441.24	387.79
441.61	390.60
441.98	392.43
442.35	394.75
442.72	397.29
443.09	399.55
443.46	400.92
443.83	401.81
444.20	402.54
444.57	403.80
444.94	404.33
445.31	405.13
445.68	405.82
446.05	406.12
446.42	405.84
446.79	405.81
447.16	405.50
447.53	405.58
447.90	404.35
448.27	403.21
448.64	401.35
449.01	400.33
449.37	398.23
449.74	396.49
450.11	394.01
450.48	391.06
450.85	388.35
451.22	385.92
451.59	383.83
451.96	381.74
452.33	378.85
452.70	376.27
453.07	372.89
453.43	369.56
453.80	366.50
454.17	363.34
454.54	360.25
454.91	357.09
455.28	353.80
455.65	350.96
456.02	348.28
456.38	345.71
456.75	342.46
457.12	339.91
457.49	337.08
457.86	334.40
458.23	332.31
458.59	329.88
458.96	327.34
459.33	325.13
459.70	322.81
460.07	320.88
460.43	318.80
460.80	316.87
461.17	315.11
461.54	313.26
461.91	311.55
462.27	309.85
462.64	308.20
463.01	306.53
463.38	304.84
463.74	302.95
464.11	301.59
464.48	300.36
464.85	298.95
465.21	297.82
465.58	296.66
465.95	295.22
466.32	294.10
466.68	292.96
467.05	291.82
467.42	290.78
467.78	289.69
468.15	288.46
468.52	287.54
468.88	286.38
469.25	285.33
469.62	284.59
469.98	283.68
470.35	282.87
470.72	282.00
471.08	281.25
471.45	280.51
471.82	279.78
472.18	278.80
472.55	278.06
472.92	277.24
473.28	276.52
473.65	275.75
474.02	274.96
474.38	274.41
474.75	273.87
475.11	273.22
475.48	272.73
475.85	272.39
476.21	272.02
476.58	271.58
476.94	271.28
477.31	270.75
477.67	270.35
478.04	270.00
478.41	269.73
478.77	269.52
479.14	269.16
479.50	268.85
479.87	268.73
480.23	268.55
480.60	268.36
480.96	268.18
481.33	268.10
481.69	267.96
482.06	267.64
482.42	267.37
482.79	267.30
483.15	267.01
483.52	266.91
483.88	266.58
484.25	266.50
484.61	266.31
484.98	266.26
485.34	266.23
485.71	266.11
486.07	266.06
486.44	265.79
486.80	265.76
487.17	265.80
487.53	265.84
487.90	265.90
488.26	266.01
488.62	266.14
488.99	266.14
489.35	266.28
489.72	266.46
490.08	266.64
490.44	266.76
490.81	267.01
491.17	267.16
491.54	267.38
491.90	267.50
492.26	267.72
492.63	267.95
492.99	268.19
493.36	268.44
493.72	268.74
494.08	269.05
494.45	269.33
494.81	269.65
495.17	269.87
495.54	270.08
495.90	270.30
496.26	270.65
496.63	270.96
496.99	271.23
497.35	271.55
497.72	271.80
498.08	272.05
498.44	272.35
498.80	272.77
499.17	273.13
499.53	273.47
499.89	273.84
500.26	274.29
500.62	274.68
500.98	275.16
501.34	275.62
501.71	276.13
502.07	276.58
502.43	277.00
502.79	277.49
503.16	277.99
503.52	278.56
503.88	279.00
504.24	279.74
504.60	280.42
504.97	281.17
505.33	281.93
505.69	282.74
506.05	283.51
506.41	284.30
506.78	285.26
507.14	286.26
507.50	287.26
507.86	288.27
508.22	289.32
508.59	290.40
508.95	291.43
509.31	292.57
509.67	293.83
510.03	295.08
510.39	296.35
510.75	297.83
511.12	299.28
511.48	300.89
511.84	302.30
512.20	303.99
512.56	305.70
512.92	307.44
513.28	309.23
513.64	311.14
514.00	313.01
514.37	314.88
514.73	316.83
515.09	318.89
515.45	320.90
515.81	323.04
516.17	325.24
516.53	327.67
516.89	330.19
517.25	332.82
517.61	335.45
517.97	338.26
518.33	341.15
518.69	344.08
519.05	347.08
519.41	350.26
519.77	353.54
520.13	356.78
520.49	360.07
520.85	363.42
521.21	367.05
521.57	370.79
521.93	374.42
522.29	378.43
522.65	382.32
523.01	386.48
523.37	390.61
523.73	394.85
524.09	399.01
524.45	403.37
524.81	407.69
525.17	412.43
525.53	417.00
525.89	421.66
526.25	426.39
526.61	431.14
526.97	436.02
527.33	440.90
527.68	446.22
528.04	451.57
528.40	456.83
528.76	462.08
529.12	467.60
529.48	473.34
529.84	478.65
530.20	484.40
530.56	490.21
530.91	496.25
531.27	502.39
531.63	508.50
531.99	514.61
532.35	520.82
532.71	526.64
533.07	532.91
533.42	539.54
533.78	545.99
534.14	552.30
534.50	558.80
534.86	565.41
535.21	571.76
535.57	578.36
535.93	585.11
536.29	591.83
536.65	598.56
537.00	605.05
537.36	612.15
537.72	618.98
538.08	625.92
538.44	632.59
538.79	639.49
539.15	646.40
539.51	653.56
539.87	660.65
540.22	667.86
540.58	675.28
540.94	681.99
541.29	689.16
541.65	696.33
542.01	703.61
542.37	710.48
542.72	717.64
543.08	724.81
543.44	732.26
543.79	739.03
544.15	746.15
544.51	753.70
544.87	761.03
545.22	768.20
545.58	775.08
545.94	781.93
546.29	788.82
546.65	795.80
547.01	802.33
547.36	809.08
547.72	815.74
548.07	822.36
548.43	829.00
548.79	835.54
549.14	842.18
549.50	848.78
549.86	855.21
550.21	861.74
550.57	868.19
550.92	874.40
551.28	880.88
551.64	886.97
551.99	892.98
552.35	899.14
552.70	905.56
553.06	911.74
553.41	918.33
553.77	924.44
554.13	930.44
554.48	936.63
554.84	942.80
555.19	948.70
555.55	954.70
555.90	960.55
556.26	966.38
556.61	972.05
556.97	977.48
557.32	983.35
557.68	988.76
558.03	994.18
558.39	999.68
558.74	1005.63
559.10	1011.19
559.45	1016.86
559.81	1022.33
560.16	1027.21
560.52	1032.41
560.87	1037.44
561.23	1042.21
561.58	1047.38
561.94	1052.19
562.29	1056.77
562.64	1061.48
563.00	1065.88
563.35	1071.12
563.71	1075.97
564.06	1080.66
564.42	1085.03
564.77	1089.41
565.12	1094.35
565.48	1099.00
565.83	1102.97
566.19	1107.09
566.54	1111.18
566.89	1114.81
567.25	1118.53
567.60	1122.73
567.96	1126.85
568.31	1130.60
568.66	1134.50
569.02	1137.80
569.37	1140.97
569.72	1144.33
570.08	1147.89
570.43	1151.29
570.78	1153.92
571.14	1156.44
571.49	1159.35
571.84	1163.05
572.20	1165.54
572.55	1167.64
572.90	1169.64
573.26	1172.33
573.61	1174.62
573.96	1176.60
574.31	1178.42
574.67	1179.75
575.02	1181.06
575.37	1182.26
575.72	1183.39
576.08	1184.89
576.43	1186.04
576.78	1187.57
577.13	1188.83
577.49	1189.87
577.84	1190.68
578.19	1191.47
578.54	1192.29
578.90	1192.78
579.25	1192.16
579.60	1192.54
579.95	1192.66
580.30	1192.78
580.66	1192.16
581.01	1191.50
581.36	1191.49
581.71	1191.86
582.06	1192.11
582.42	1192.07
582.77	1191.63
583.12	1191.41
583.47	1191.02
583.82	1190.97
584.17	1190.22
584.53	1189.98
584.88	1189.44
585.23	1189.22
585.58	1188.69
585.93	1187.84
586.28	1187.36
586.63	1187.28
586.98	1187.00
587.34	1186.28
587.69	1185.71
588.04	1185.34
588.39	1185.50
588.74	1184.31
589.09	1182.71
589.44	1181.09
589.79	1179.84
590.14	1179.23
590.49	1177.82
590.84	1176.22
591.19	1174.76
591.54	1172.82
591.89	1170.19
592.25	1168.53
592.60	1166.14
592.95	1163.98
593.30	1162.00
593.65	1159.48
594.00	1157.05
594.35	1155.12
594.70	1153.13
595.05	1151.26
595.40	1148.82
595.75	1145.93
596.10	1143.80
596.45	1142.04
596.80	1140.55
597.15	1138.39
597.50	1135.51
597.85	1133.75
598.19	1131.87
598.54	1129.93
598.89	1128.20
599.24	1126.82
599.59	1124.44
599.94	1122.39
600.29	1120.29
600.64	1118.19
600.99	1115.68
601.34	1113.63
601.69	1110.76
602.04	1108.30
602.39	1105.63
602.74	1103.64
603.08	1101.50
603.43	1099.39
603.78	1096.88
604.13	1093.72
604.48	1091.09
604.83	1088.79
605.18	1085.79
605.53	1082.73
605.87	1079.29
606.22	1076.78
606.57	1073.74
606.92	1070.75
607.27	1067.92
607.62	1065.25
607.96	1062.47
608.31	1060.20
608.66	1056.77
609.01	1053.38
609.36	1049.62
609.70	1045.97
610.05	1042.23
610.40	1038.68
610.75	1034.94
611.10	1031.32
611.44	1027.71
611.79	1024.31
612.14	1020.62
612.49	1016.51
612.83	1012.71
613.18	1009.01
613.53	1005.01
613.88	1001.07
614.22	997.22
614.57	992.94
614.92	988.80
615.27	985.31
615.61	981.08
615.96	977.34
616.31	973.94
616.65	971.21
617.00	967.76
617.35	964.26
617.70	960.31
618.04	956.39
618.39	952.69
618.74	949.27
619.08	945.03
619.43	941.37
619.78	938.30
620.12	934.66
620.47	931.12
620.82	927.53
621.16	923.82
621.51	920.43
621.85	916.98
622.20	913.16
622.55	908.99
622.89	905.39
623.24	901.86
623.59	898.31
623.93	894.23
624.28	890.86
624.62	887.18
624.97	883.60
625.32	879.99
625.66	876.32
626.01	872.60
626.35	869.15
626.70	865.45
627.04	861.65
627.39	857.81
627.73	854.13
628.08	850.38
628.43	846.74
628.77	842.85
629.12	839.17
629.46	835.49
629.81	831.67
630.15	827.80
630.50	823.80
630.84	819.59
631.19	815.39
631.53	811.10
631.88	807.06
632.22	802.91
632.57	799.18
632.91	795.26
633.26	791.15
633.60	787.02
633.95	783.05
634.29	778.95
634.64	775.23
634.98	771.37
635.32	767.78
635.67	764.26
636.01	760.55
636.36	756.69
636.70	753.17
637.05	749.50
637.39	746.16
637.73	742.47
638.08	739.28
638.42	736.15
638.77	732.89
639.11	729.48
639.45	726.15
639.80	722.60
640.14	719.02
640.49	715.73
640.83	712.31
641.17	709.05
641.52	705.64
641.86	702.13
642.20	698.81
642.55	695.31
642.89	691.63
643.23	688.08
643.58	684.88
643.92	681.26
644.26	677.86
644.61	674.45
644.95	671.20
645.29	667.42
645.64	663.69
645.98	660.35
646.32	656.96
646.66	653.54
647.01	650.07
647.35	646.97
647.69	643.78
648.04	640.80
648.38	637.20
648.72	633.88
649.06	630.61
649.41	627.25
649.75	623.70
650.09	620.25
650.43	617.02
650.78	613.64
651.12	610.34
651.46	607.23
651.80	604.01
652.14	600.93
652.49	597.65
652.83	594.56
653.17	590.88
653.51	587.52
653.85	584.21
654.20	581.07
654.54	577.64
654.88	574.12
655.22	570.60
655.56	567.39
655.90	564.12
656.25	560.95
656.59	557.87
656.93	554.97
657.27	552.01
657.61	548.79
657.95	545.78
658.29	542.90
658.64	539.66
658.98	536.46
659.32	533.30
659.66	530.53
660.00	527.52
660.34	524.69
660.68	521.85
661.02	518.99
661.36	516.40
661.70	513.69
662.05	511.10
662.39	508.57
662.73	506.01
663.07	503.66
663.41	501.38
663.75	498.75
664.09	496.13
664.43	493.60
664.77	491.26
665.11	488.73
665.45	486.36
665.79	484.12
666.13	481.63
666.47	479.20
666.81	476.67
667.15	474.20
667.49	471.84
667.83	469.56
668.17	467.20
668.51	464.48
668.85	461.91
669.19	459.66
669.53	457.49
669.87	455.08
670.21	452.80
670.55	450.42
670.89	448.40
671.23	446.40
671.57	444.37
671.91	442.29
672.25	440.22
672.58	438.11
672.92	436.08
673.26	434.17
673.60	432.16
673.94	430.24
674.28	428.55
674.62	426.73
674.96	424.97
675.30	423.28
675.64	421.60
675.97	420.00
676.31	418.20
676.65	416.40
676.99	414.91
677.33	413.07
677.67	411.34
678.01	409.41
678.34	407.45
678.68	405.81
679.02	404.00
679.36	402.31
679.70	400.51
680.04	398.59
680.37	396.83
680.71	395.21
681.05	393.70
681.39	392.02
681.73	390.50
682.06	388.91
682.40	387.37
682.74	385.91
683.08	384.39
683.42	382.99
683.75	381.39
684.09	379.74
684.43	378.23
684.77	376.72
685.10	375.23
685.44	373.63
685.78	372.03
686.12	370.55
686.45	369.07
686.79	367.60
687.13	366.33
687.46	365.04
687.80	363.63
688.14	362.10
688.48	360.60
688.81	359.10
689.15	357.61
689.49	356.33
689.82	354.79
690.16	353.36
690.50	351.88
690.83	350.69
691.17	349.20
691.51	347.86
691.84	346.50
692.18	345.22
692.52	344.05
692.85	342.73
693.19	341.58
693.52	340.38
693.86	339.07
694.20	337.88
694.53	336.63
694.87	335.47
695.21	334.25
695.54	333.08
695.88	331.90
696.21	330.57
696.55	329.27
696.88	328.37
697.22	327.12
697.56	326.07
697.89	324.79
698.23	323.83
698.56	322.80
698.90	321.61
699.23	320.47
699.57	319.25
699.90	318.22
700.24	316.97
700.58	315.90
700.91	314.95
701.25	313.95
701.58	313.08
701.92	312.04
702.25	311.19
702.59	310.27
702.92	309.42
703.26	308.66
703.59	307.80
703.93	306.97
704.26	306.14
704.60	305.18
704.93	304.31
705.26	303.45
705.60	302.54
705.93	301.77
706.27	301.00
706.60	300.39
706.94	299.56
707.27	298.87
707.61	298.10
707.94	297.33
708.27	296.39
708.61	295.49
708.94	294.88
709.28	294.06
709.61	293.37
709.94	292.66
710.28	292.03
710.61	291.20
710.95	290.35
711.28	289.82
711.61	289.22
711.95	288.59
712.28	287.90
712.61	287.31
712.95	286.70
713.28	286.11
713.61	285.30
713.95	284.73
714.28	284.15
714.61	283.50
714.95	282.92
715.28	282.33
715.61	281.73
715.95	281.12
716.28	280.55
716.61	279.96
716.95	279.27
717.28	278.62
717.61	278.12
717.94	277.51
718.28	276.86
718.61	276.26
718.94	275.67
719.27	275.15
719.61	274.72
719.94	274.12
720.27	273.54
720.60	273.17
720.94	272.71
721.27	272.22
721.60	271.84
721.93	271.39
722.27	271.18
722.60	270.67
722.93	270.19
723.26	269.81
723.59	269.31
723.93	268.98
724.26	268.63
724.59	268.15
724.92	267.79
725.25	267.42
725.59	267.08
725.92	266.79
726.25	266.46
726.58	266.00
726.91	265.77
727.24	265.47
727.57	265.17
727.91	264.77
728.24	264.48
728.57	264.02
728.90	263.69
729.23	263.19
729.56	262.97
729.89	262.61
730.22	262.25
730.55	261.95
730.89	261.62
731.22	261.28
731.55	261.01
731.88	260.65
732.21	260.35
732.54	260.01
732.87	259.61
733.20	259.30
733.53	258.97
733.86	258.56
734.19	258.15
734.52	257.83
734.85	257.57
735.18	257.19
735.51	256.92
735.84	256.72
736.17	256.56
736.50	256.11
736.83	256.02
737.16	255.70
737.49	255.41
737.82	255.08
738.15	254.80
738.48	254.57
738.81	254.32
739.14	254.05
739.47	253.74
739.80	253.49
740.13	253.11
740.46	252.83
740.79	252.52
741.12	252.30
741.45	252.01
741.78	251.65
742.11	251.30
742.44	251.04
742.77	250.70
743.10	250.26
743.43	249.95
743.75	249.51
744.08	249.50
744.41	249.24
744.74	248.90
745.07	248.58
745.40	248.38
745.73	248.19
746.06	247.82
746.39	247.55
746.71	247.39
747.04	247.17
747.37	246.84
747.70	246.65
748.03	246.41
748.36	246.18
748.68	246.00
749.01	245.87
749.34	245.61
749.67	245.25
750.00	245.10
750.33	245.05
750.65	244.87
750.98	244.48
751.31	244.24
751.64	244.16
751.97	244.10
752.29	243.79
752.62	243.47
752.95	243.31
753.28	243.14
753.60	242.92
753.93	242.82
754.26	242.79
754.59	242.60
754.91	242.53
755.24	242.34
755.57	242.20
755.90	241.97
756.22	241.77
756.55	241.68
756.88	241.53
757.20	241.27
757.53	241.05
757.86	240.87
758.19	240.77
758.51	240.58
758.84	240.39
759.17	240.23
759.49	240.28
759.82	240.29
760.15	240.13
760.47	239.90
760.80	239.74
761.13	239.55
761.45	239.46
761.78	239.32
762.11	239.14
762.43	238.96
762.76	238.87
763.08	238.97
763.41	238.91
763.74	238.79
764.06	238.73
764.39	238.63
764.71	238.49
765.04	238.40
765.37	238.27
765.69	238.15
766.02	238.06
766.34	237.82
766.67	237.67
767.00	237.61
767.32	237.70
767.65	237.64
767.97	237.60
768.30	237.56
768.62	237.46
768.95	237.47
769.27	237.45
769.60	237.53
769.92	237.24
770.25	237.16
770.57	237.04
770.90	237.00
771.22	236.99
771.55	236.95
771.87	236.91
772.20	236.88
772.52	236.92
772.85	237.04
773.17	236.94
773.50	236.86
773.82	236.75
774.15	236.55
774.47	236.45
774.80	236.31
775.12	236.13
775.45	235.97
775.77	235.88
776.09	235.83
776.42	235.53
776.74	235.50
777.07	235.40
777.39	235.41
777.72	235.23
778.04	235.06
778.36	234.97
778.69	234.85
779.01	234.72
779.33	234.46
779.66	234.23
779.98	234.17
780.31	234.10
780.63	234.17
780.95	234.10
781.28	233.93
781.60	233.85
781.92	233.79
782.25	233.77
782.57	233.72
782.89	233.55
783.22	233.58
783.54	233.46
783.86	233.44
784.19	233.40
784.51	233.44
784.83	233.43
785.16	233.38
785.48	233.26
785.80	233.34
786.12	233.34
786.45	233.20
786.77	233.17
787.09	233.05
787.42	232.80
787.74	232.69
788.06	232.63
788.38	232.57
788.71	232.45
789.03	232.38
789.35	232.32
789.67	232.29
789.99	232.20
790.32	232.17
790.64	232.06
790.96	232.06
