SpectraSuite Data File
++++++++++++++++++++++++++++++++++++
Date: Fri Feb 01 14:35:52 EST 2013
User: group
Dark Spectrum Present: No
Reference Spectrum Present: No
Number of Sampled Component Spectra: 1
Spectrometers: USB2E7196
Integration Time (usec): 70000 (USB2E7196)
Spectra Averaged: 10 (USB2E7196)
Boxcar Smoothing: 10 (USB2E7196)
Correct for Electrical Dark: No (USB2E7196)
Strobe/Lamp Enabled: No (USB2E7196)
Correct for Detector Non-linearity: No (USB2E7196)
Correct for Stray Light: No (USB2E7196)
Number of Pixels in Processed Spectrum: 2048
>>>>>Begin Processed Spectral Data<<<<<
339.09	0.00
339.48	215.50
339.86	217.70
340.24	221.80
340.63	219.50
341.01	224.40
341.39	222.90
341.78	226.10
342.16	227.70
342.54	227.80
342.93	214.98
343.31	225.87
343.69	226.48
344.07	227.01
344.46	227.31
344.84	227.65
345.22	227.89
345.60	228.11
345.99	228.26
346.37	228.24
346.75	228.30
347.13	228.51
347.52	228.49
347.90	228.53
348.28	228.50
348.66	228.57
349.05	228.58
349.43	228.48
349.81	228.47
350.19	228.47
350.57	228.46
350.96	228.51
351.34	228.59
351.72	228.68
352.10	228.64
352.48	228.69
352.87	228.82
353.25	228.71
353.63	228.87
354.01	228.90
354.39	229.08
354.77	229.13
355.15	229.15
355.54	229.35
355.92	229.38
356.30	229.47
356.68	229.61
357.06	229.69
357.44	229.76
357.82	229.91
358.20	230.04
358.58	230.10
358.97	230.11
359.35	230.15
359.73	230.18
360.11	230.32
360.49	230.29
360.87	230.34
361.25	230.52
361.63	230.45
362.01	230.48
362.39	230.44
362.77	230.38
363.15	230.52
363.53	230.54
363.91	230.47
364.29	230.48
364.67	230.40
365.05	230.38
365.43	230.41
365.81	230.36
366.19	230.35
366.57	230.43
366.95	230.38
367.33	230.27
367.71	230.24
368.09	230.16
368.47	230.17
368.85	230.11
369.23	230.08
369.61	230.02
369.99	229.90
370.37	229.81
370.75	229.87
371.13	229.73
371.51	229.57
371.89	229.67
372.27	229.60
372.65	229.50
373.03	229.53
373.41	229.44
373.78	229.34
374.16	229.07
374.54	228.83
374.92	228.91
375.30	228.85
375.68	228.81
376.06	228.79
376.44	228.81
376.82	228.70
377.19	228.58
377.57	228.55
377.95	228.52
378.33	228.47
378.71	228.35
379.09	228.24
379.47	228.22
379.84	228.09
380.22	228.07
380.60	227.95
380.98	227.81
381.36	227.78
381.73	227.72
382.11	227.85
382.49	227.91
382.87	227.70
383.25	227.69
383.62	227.69
384.00	227.54
384.38	227.46
384.76	227.45
385.13	227.50
385.51	227.52
385.89	227.42
386.27	227.31
386.64	227.29
387.02	227.24
387.40	227.17
387.78	227.14
388.15	227.07
388.53	227.00
388.91	226.95
389.29	226.95
389.66	226.91
390.04	226.86
390.42	226.87
390.79	226.82
391.17	226.82
391.55	226.66
391.92	226.68
392.30	226.66
392.68	226.70
393.05	226.70
393.43	226.65
393.81	226.80
394.18	226.90
394.56	226.93
394.94	227.00
395.31	226.96
395.69	227.03
396.06	227.12
396.44	227.20
396.82	227.26
397.19	227.39
397.57	227.42
397.95	227.46
398.32	227.41
398.70	227.66
399.07	227.79
399.45	227.89
399.82	228.00
400.20	228.09
400.58	228.18
400.95	228.26
401.33	228.45
401.70	228.72
402.08	228.77
402.45	228.83
402.83	228.97
403.20	229.22
403.58	229.32
403.95	229.50
404.33	229.81
404.71	230.02
405.08	230.41
405.46	230.84
405.83	231.14
406.21	231.56
406.58	231.82
406.96	232.08
407.33	232.48
407.70	232.89
408.08	233.56
408.45	233.96
408.83	234.46
409.20	234.95
409.58	235.33
409.95	235.94
410.33	236.60
410.70	237.18
411.08	237.84
411.45	238.61
411.82	239.32
412.20	240.08
412.57	241.00
412.95	241.69
413.32	242.49
413.69	243.34
414.07	244.23
414.44	245.20
414.82	246.25
415.19	247.46
415.56	248.73
415.94	249.76
416.31	251.33
416.68	252.85
417.06	254.54
417.43	256.05
417.81	257.87
418.18	259.67
418.55	261.68
418.93	263.75
419.30	265.77
419.67	268.09
420.04	270.38
420.42	272.75
420.79	275.36
421.16	278.25
421.54	281.29
421.91	284.34
422.28	287.52
422.66	290.87
423.03	294.19
423.40	297.51
423.77	301.23
424.15	304.85
424.52	308.51
424.89	312.56
425.26	316.51
425.64	320.26
426.01	324.26
426.38	328.60
426.75	332.90
427.13	337.43
427.50	342.13
427.87	347.11
428.24	352.13
428.61	356.91
428.99	361.96
429.36	367.61
429.73	373.18
430.10	378.63
430.47	384.12
430.85	389.89
431.22	395.91
431.59	402.31
431.96	408.30
432.33	415.10
432.70	421.90
433.08	429.64
433.45	436.94
433.82	444.50
434.19	452.56
434.56	460.49
434.93	468.01
435.30	475.46
435.68	483.64
436.05	491.79
436.42	499.87
436.79	507.29
437.16	515.19
437.53	523.46
437.90	531.70
438.27	539.71
438.64	548.10
439.01	555.90
439.38	562.97
439.75	569.75
440.13	577.40
440.50	584.40
440.87	590.55
441.24	596.73
441.61	603.59
441.98	608.94
442.35	615.20
442.72	621.48
443.09	627.65
443.46	631.47
443.83	633.90
444.20	636.53
444.57	640.17
444.94	642.15
445.31	644.35
445.68	646.71
446.05	648.53
446.42	648.78
446.79	648.71
447.16	648.61
447.53	649.11
447.90	647.18
448.27	645.21
448.64	641.68
449.01	639.80
449.37	635.10
449.74	630.43
450.11	624.59
450.48	618.56
450.85	612.30
451.22	607.29
451.59	602.60
451.96	597.81
452.33	591.07
452.70	585.13
453.07	577.61
453.43	569.98
453.80	562.47
454.17	555.27
454.54	548.79
454.91	541.37
455.28	534.01
455.65	527.20
456.02	520.31
456.38	514.67
456.75	507.28
457.12	501.32
457.49	495.39
457.86	489.85
458.23	484.78
458.59	479.17
458.96	473.30
459.33	468.26
459.70	463.05
460.07	458.86
460.43	453.86
460.80	449.30
461.17	445.24
461.54	441.08
461.91	437.14
462.27	432.90
462.64	429.52
463.01	425.63
463.38	421.87
463.74	418.13
464.11	414.80
464.48	411.98
464.85	408.74
465.21	406.28
465.58	403.51
465.95	400.27
466.32	397.56
466.68	395.01
467.05	392.31
467.42	389.86
467.78	387.14
468.15	384.70
468.52	382.77
468.88	380.30
469.25	378.04
469.62	376.16
469.98	374.32
470.35	372.36
470.72	370.59
471.08	368.80
471.45	367.37
471.82	365.75
472.18	363.91
472.55	362.66
472.92	360.98
473.28	359.65
473.65	358.32
474.02	356.99
474.38	355.72
474.75	354.75
475.11	353.46
475.48	352.54
475.85	351.72
476.21	350.95
476.58	350.19
476.94	349.68
477.31	348.97
477.67	348.28
478.04	347.69
478.41	347.29
478.77	347.05
479.14	346.40
479.50	346.10
479.87	345.93
480.23	345.72
480.60	345.50
480.96	345.25
481.33	345.39
481.69	345.27
482.06	345.26
482.42	345.05
482.79	345.25
483.15	345.42
483.52	345.65
483.88	345.80
484.25	345.84
484.61	346.09
484.98	346.33
485.34	346.87
485.71	347.47
486.07	348.02
486.44	348.46
486.80	349.15
487.17	349.70
487.53	350.42
487.90	351.20
488.26	352.21
488.62	353.21
488.99	354.06
489.35	355.16
489.72	356.33
490.08	357.60
490.44	358.77
490.81	360.00
491.17	361.25
491.54	362.76
491.90	364.28
492.26	365.78
492.63	367.39
492.99	368.88
493.36	370.47
493.72	372.10
494.08	373.72
494.45	375.45
494.81	377.41
495.17	379.23
495.54	381.19
495.90	383.07
496.26	384.94
496.63	386.98
496.99	389.12
497.35	391.24
497.72	393.43
498.08	395.55
498.44	397.73
498.80	400.11
499.17	402.11
499.53	404.45
499.89	406.62
500.26	408.81
500.62	410.94
500.98	413.14
501.34	415.37
501.71	417.64
502.07	419.83
502.43	421.99
502.79	424.10
503.16	426.19
503.52	428.20
503.88	430.13
504.24	432.22
504.60	434.15
504.97	436.19
505.33	438.20
505.69	440.30
506.05	442.39
506.41	444.24
506.78	446.20
507.14	447.86
507.50	449.62
507.86	451.42
508.22	453.20
508.59	454.89
508.95	456.63
509.31	458.24
509.67	459.91
510.03	461.27
510.39	462.70
510.75	464.05
511.12	465.41
511.48	466.87
511.84	467.95
512.20	469.19
512.56	470.25
512.92	471.30
513.28	472.20
513.64	473.07
514.00	473.95
514.37	474.80
514.73	475.84
515.09	476.75
515.45	477.50
515.81	478.17
516.17	478.93
516.53	479.55
516.89	480.24
517.25	480.86
517.61	481.70
517.97	482.40
518.33	483.04
518.69	483.54
519.05	484.14
519.41	484.79
519.77	485.34
520.13	485.84
520.49	486.33
520.85	486.88
521.21	487.48
521.57	487.95
521.93	488.40
522.29	488.87
522.65	489.25
523.01	489.68
523.37	490.13
523.73	490.73
524.09	491.35
524.45	491.88
524.81	492.54
525.17	493.28
525.53	494.08
525.89	494.87
526.25	495.84
526.61	496.49
526.97	497.34
527.33	498.25
527.68	499.34
528.04	500.31
528.40	501.29
528.76	502.58
529.12	503.85
529.48	505.23
529.84	506.27
530.20	507.64
530.56	509.24
530.91	510.98
531.27	512.37
531.63	513.90
531.99	515.68
532.35	517.30
532.71	518.75
533.07	520.72
533.42	522.77
533.78	524.54
534.14	526.75
534.50	528.70
534.86	530.87
535.21	532.71
535.57	535.15
535.93	537.50
536.29	539.76
536.65	541.99
537.00	544.12
537.36	546.68
537.72	549.12
538.08	551.60
538.44	554.08
538.79	556.75
539.15	559.30
539.51	561.84
539.87	564.71
540.22	567.83
540.58	570.68
540.94	573.34
541.29	576.24
541.65	579.03
542.01	582.42
542.37	585.44
542.72	588.74
543.08	591.72
543.44	594.97
543.79	597.87
544.15	601.52
544.51	605.32
544.87	609.00
545.22	612.44
545.58	615.83
545.94	619.33
546.29	622.87
546.65	626.25
547.01	629.68
547.36	633.14
547.72	636.48
548.07	640.02
548.43	643.48
548.79	647.31
549.14	650.98
549.50	654.36
549.86	657.98
550.21	661.73
550.57	665.56
550.92	669.39
551.28	673.02
551.64	676.59
551.99	680.20
552.35	683.71
552.70	687.76
553.06	691.77
553.41	695.35
553.77	699.14
554.13	703.34
554.48	707.37
554.84	711.10
555.19	714.63
555.55	718.16
555.90	722.01
556.26	725.54
556.61	729.29
556.97	732.90
557.32	736.71
557.68	740.31
558.03	743.87
558.39	747.29
558.74	751.19
559.10	754.84
559.45	758.33
559.81	762.21
560.16	765.43
560.52	768.81
560.87	772.61
561.23	776.16
561.58	779.50
561.94	782.75
562.29	786.19
562.64	789.47
563.00	793.12
563.35	796.80
563.71	800.60
564.06	804.07
564.42	807.47
564.77	810.85
565.12	814.50
565.48	818.03
565.83	821.08
566.19	824.32
566.54	827.28
566.89	830.37
567.25	833.50
567.60	836.59
567.96	839.55
568.31	842.35
568.66	845.18
569.02	847.78
569.37	850.40
569.72	853.00
570.08	855.88
570.43	858.11
570.78	860.31
571.14	862.18
571.49	864.37
571.84	866.93
572.20	868.84
572.55	870.42
572.90	872.11
573.26	874.18
573.61	876.04
573.96	878.00
574.31	879.40
574.67	880.38
575.02	881.65
575.37	882.97
575.72	884.19
576.08	885.48
576.43	886.66
576.78	887.81
577.13	889.06
577.49	890.47
577.84	891.63
578.19	892.58
578.54	893.49
578.90	894.17
579.25	894.39
579.60	894.94
579.95	895.59
580.30	895.87
580.66	896.59
581.01	896.90
581.36	896.97
581.71	897.70
582.06	898.39
582.42	898.84
582.77	898.83
583.12	899.04
583.47	899.07
583.82	899.57
584.17	899.57
584.53	899.70
584.88	899.56
585.23	899.49
585.58	899.45
585.93	899.60
586.28	899.69
586.63	899.74
586.98	899.61
587.34	899.66
587.69	899.58
588.04	898.96
588.39	898.52
588.74	897.86
589.09	897.00
589.44	896.10
589.79	895.58
590.14	895.37
590.49	894.63
590.84	894.01
591.19	893.01
591.54	892.22
591.89	890.87
592.25	889.96
592.60	888.50
592.95	887.25
593.30	885.91
593.65	884.31
594.00	882.90
594.35	882.11
594.70	880.33
595.05	879.04
595.40	877.72
595.75	876.01
596.10	874.92
596.45	873.80
596.80	872.55
597.15	871.19
597.50	869.63
597.85	868.40
598.19	867.18
598.54	865.84
598.89	864.26
599.24	863.17
599.59	861.56
599.94	860.62
600.29	858.94
600.64	857.55
600.99	855.80
601.34	854.35
601.69	852.29
602.04	850.75
602.39	849.02
602.74	847.38
603.08	846.23
603.43	844.71
603.78	843.10
604.13	841.33
604.48	839.51
604.83	837.63
605.18	835.91
605.53	833.63
605.87	831.27
606.22	829.69
606.57	827.52
606.92	825.42
607.27	823.21
607.62	821.76
607.96	819.72
608.31	818.24
608.66	816.23
609.01	814.00
609.36	811.72
609.70	809.12
610.05	806.60
610.40	804.27
610.75	801.63
611.10	799.05
611.44	796.28
611.79	793.79
612.14	791.24
612.49	788.18
612.83	785.51
613.18	783.19
613.53	780.51
613.88	777.85
614.22	775.15
614.57	772.18
614.92	769.08
615.27	766.19
615.61	763.03
615.96	760.24
616.31	757.55
616.65	755.11
617.00	752.81
617.35	750.40
617.70	747.35
618.04	744.53
618.39	741.72
618.74	739.27
619.08	736.33
619.43	733.79
619.78	731.29
620.12	728.57
620.47	725.90
620.82	723.10
621.16	720.35
621.51	717.86
621.85	715.52
622.20	712.74
622.55	710.02
622.89	707.85
623.24	705.15
623.59	702.74
623.93	700.15
624.28	697.47
624.62	694.70
624.97	692.40
625.32	690.09
625.66	687.71
626.01	685.04
626.35	682.41
626.70	679.60
627.04	677.16
627.39	674.58
627.73	672.04
628.08	669.51
628.43	666.88
628.77	664.02
629.12	661.03
629.46	658.57
629.81	656.00
630.15	652.99
630.50	650.35
630.84	647.47
631.19	644.57
631.53	641.81
631.88	638.80
632.22	635.66
632.57	633.07
632.91	630.11
633.26	627.59
633.60	624.90
633.95	622.53
634.29	619.70
634.64	617.35
634.98	614.48
635.32	612.02
635.67	609.75
636.01	607.47
636.36	605.27
636.70	602.93
637.05	600.63
637.39	598.36
637.73	595.93
638.08	593.72
638.42	591.53
638.77	589.24
639.11	587.18
639.45	584.90
639.80	582.39
640.14	580.25
640.49	577.99
640.83	575.83
641.17	573.39
641.52	570.94
641.86	568.53
642.20	566.34
642.55	564.02
642.89	561.60
643.23	559.30
643.58	557.05
643.92	554.42
644.26	552.10
644.61	549.94
644.95	547.53
645.29	545.20
645.64	542.71
645.98	540.36
646.32	538.15
646.66	535.85
647.01	533.43
647.35	531.14
647.69	528.68
648.04	526.59
648.38	524.40
648.72	522.09
649.06	519.63
649.41	517.59
649.75	514.91
650.09	512.55
650.43	510.00
650.78	507.57
651.12	505.32
651.46	502.95
651.80	500.52
652.14	498.28
652.49	495.96
652.83	493.90
653.17	491.67
653.51	489.30
653.85	487.11
654.20	484.87
654.54	482.37
654.88	480.14
655.22	477.58
655.56	475.08
655.90	473.02
656.25	470.90
656.59	468.53
656.93	466.59
657.27	464.53
657.61	462.40
657.95	460.25
658.29	458.20
658.64	456.07
658.98	453.86
659.32	451.69
659.66	449.41
660.00	447.19
660.34	445.06
660.68	443.11
661.02	441.02
661.36	439.05
661.70	437.19
662.05	435.27
662.39	433.58
662.73	431.71
663.07	429.99
663.41	428.12
663.75	426.32
664.09	424.47
664.43	422.54
664.77	420.87
665.11	419.12
665.45	417.43
665.79	415.68
666.13	413.93
666.47	412.32
666.81	410.67
667.15	408.90
667.49	407.17
667.83	405.38
668.17	403.67
668.51	402.03
668.85	400.49
669.19	398.96
669.53	397.21
669.87	395.65
670.21	393.95
670.55	392.45
670.89	390.95
671.23	389.56
671.57	388.05
671.91	386.53
672.25	385.04
672.58	383.60
672.92	382.13
673.26	380.84
673.60	379.53
673.94	378.34
674.28	377.14
674.62	376.02
674.96	374.77
675.30	373.71
675.64	372.57
675.97	371.32
676.31	370.07
676.65	368.82
676.99	367.59
677.33	366.45
677.67	365.14
678.01	363.71
678.34	362.47
678.68	361.24
679.02	359.83
679.36	358.62
679.70	357.42
680.04	356.29
680.37	355.06
680.71	353.87
681.05	352.63
681.39	351.49
681.73	350.45
682.06	349.40
682.40	348.24
682.74	347.12
683.08	346.04
683.42	344.94
683.75	343.97
684.09	342.98
684.43	341.98
684.77	340.96
685.10	339.93
685.44	338.86
685.78	337.89
686.12	337.02
686.45	336.06
686.79	334.97
687.13	333.96
687.46	332.98
687.80	332.06
688.14	330.97
688.48	330.00
688.81	328.89
689.15	328.02
689.49	326.99
689.82	325.90
690.16	324.83
690.50	323.82
690.83	322.85
691.17	321.79
691.51	320.66
691.84	319.86
692.18	319.02
692.52	318.08
692.85	317.15
693.19	316.32
693.52	315.40
693.86	314.50
694.20	313.54
694.53	312.65
694.87	311.60
695.21	310.70
695.54	309.72
695.88	308.70
696.21	307.63
696.55	306.82
696.88	305.99
697.22	305.07
697.56	304.30
697.89	303.52
698.23	302.80
698.56	302.12
698.90	301.01
699.23	300.14
699.57	299.37
699.90	298.63
700.24	297.60
700.58	296.69
700.91	295.84
701.25	295.24
701.58	294.50
701.92	293.96
702.25	293.27
702.59	292.60
702.92	292.02
703.26	291.31
703.59	290.67
703.93	290.21
704.26	289.60
704.60	288.95
704.93	288.12
705.26	287.43
705.60	286.79
705.93	286.26
706.27	285.74
706.60	285.19
706.94	284.49
707.27	283.92
707.61	283.40
707.94	282.80
708.27	282.11
708.61	281.54
708.94	280.79
709.28	280.30
709.61	279.78
709.94	279.27
710.28	278.83
710.61	278.23
710.95	277.42
711.28	277.07
711.61	276.50
711.95	276.10
712.28	275.51
712.61	274.86
712.95	274.40
713.28	273.98
713.61	273.30
713.95	272.96
714.28	272.56
714.61	272.04
714.95	271.64
715.28	271.17
715.61	270.61
715.95	270.30
716.28	269.83
716.61	269.37
716.95	268.83
717.28	268.35
717.61	267.98
717.94	267.66
718.28	267.06
718.61	266.64
718.94	266.20
719.27	265.84
719.61	265.53
719.94	265.18
720.27	264.74
720.60	264.47
720.94	264.11
721.27	263.82
721.60	263.57
721.93	263.28
722.27	263.01
722.60	262.81
722.93	262.40
723.26	262.09
723.59	261.75
723.93	261.40
724.26	261.15
724.59	260.79
724.92	260.40
725.25	260.11
725.59	259.87
725.92	259.53
726.25	259.23
726.58	259.04
726.91	258.76
727.24	258.32
727.57	257.96
727.91	257.61
728.24	257.32
728.57	256.95
728.90	256.66
729.23	256.27
729.56	256.02
729.89	255.55
730.22	255.32
730.55	255.13
730.89	255.03
731.22	254.75
731.55	254.44
731.88	254.18
732.21	253.86
732.54	253.50
732.87	253.22
733.20	253.00
733.53	252.69
733.86	252.42
734.19	252.20
734.52	252.05
734.85	251.92
735.18	251.65
735.51	251.46
735.84	251.28
736.17	251.17
736.50	250.88
736.83	251.07
737.16	250.66
737.49	250.38
737.82	249.87
738.15	249.56
738.48	249.35
738.81	249.16
739.14	248.95
739.47	248.75
739.80	248.63
740.13	248.37
740.46	248.07
740.79	247.79
741.12	247.67
741.45	247.36
741.78	246.97
742.11	246.72
742.44	246.42
742.77	246.16
743.10	245.81
743.43	245.57
743.75	245.10
744.08	245.21
744.41	245.00
744.74	244.99
745.07	244.85
745.40	244.73
745.73	244.55
746.06	244.41
746.39	244.26
746.71	244.01
747.04	243.83
747.37	243.62
747.70	243.53
748.03	243.28
748.36	243.26
748.68	243.15
749.01	242.93
749.34	242.84
749.67	242.63
750.00	242.53
750.33	242.43
750.65	242.19
750.98	241.89
751.31	241.73
751.64	241.59
751.97	241.49
752.29	241.33
752.62	241.16
752.95	240.90
753.28	240.74
753.60	240.66
753.93	240.65
754.26	240.51
754.59	240.37
754.91	240.18
755.24	239.97
755.57	239.81
755.90	239.77
756.22	239.75
756.55	239.63
756.88	239.51
757.20	239.22
757.53	239.28
757.86	239.07
758.19	238.96
758.51	238.87
758.84	238.71
759.17	238.56
759.49	238.47
759.82	238.64
760.15	238.51
760.47	238.41
760.80	238.18
761.13	238.24
761.45	238.07
761.78	238.18
762.11	238.12
762.43	238.12
762.76	238.08
763.08	237.87
763.41	237.85
763.74	237.82
764.06	237.68
764.39	237.58
764.71	237.52
765.04	237.50
765.37	237.39
765.69	237.32
766.02	237.27
766.34	237.18
766.67	236.94
767.00	236.96
767.32	236.95
767.65	236.97
767.97	236.85
768.30	236.77
768.62	236.54
768.95	236.39
769.27	236.16
769.60	236.12
769.92	236.07
770.25	235.91
770.57	235.78
770.90	235.89
771.22	235.69
771.55	235.63
771.87	235.36
772.20	235.32
772.52	235.36
772.85	235.43
773.17	235.30
773.50	235.11
773.82	235.03
774.15	234.85
774.47	234.71
774.80	234.58
775.12	234.60
775.45	234.63
775.77	234.48
776.09	234.49
776.42	234.34
776.74	234.21
777.07	234.16
777.39	234.02
777.72	233.90
778.04	233.92
778.36	233.83
778.69	233.81
779.01	233.68
779.33	233.46
779.66	233.22
779.98	233.15
780.31	233.13
780.63	233.04
780.95	233.00
781.28	232.88
781.60	232.75
781.92	232.57
782.25	232.40
782.57	232.46
782.89	232.33
783.22	232.20
783.54	232.16
783.86	232.07
784.19	232.08
784.51	232.05
784.83	231.81
785.16	231.67
785.48	231.59
785.80	231.51
786.12	231.40
786.45	231.31
786.77	231.31
787.09	231.28
787.42	231.15
787.74	231.09
788.06	231.14
788.38	231.08
788.71	231.00
789.03	231.01
789.35	230.91
789.67	230.85
789.99	230.90
790.32	230.87
790.64	230.89
790.96	231.03
791.28	230.98
791.61	231.02
791.93	231.07
792.25	231.11
792.57	231.24
792.89	231.30
793.21	231.39
793.54	231.34
793.86	231.25
794.18	231.27
