SpectraSuite Data File
++++++++++++++++++++++++++++++++++++
Date: Fri Feb 01 14:36:21 EST 2013
User: group
Dark Spectrum Present: No
Reference Spectrum Present: No
Number of Sampled Component Spectra: 1
Spectrometers: USB2E7196
Integration Time (usec): 70000 (USB2E7196)
Spectra Averaged: 10 (USB2E7196)
Boxcar Smoothing: 10 (USB2E7196)
Correct for Electrical Dark: No (USB2E7196)
Strobe/Lamp Enabled: No (USB2E7196)
Correct for Detector Non-linearity: No (USB2E7196)
Correct for Stray Light: No (USB2E7196)
Number of Pixels in Processed Spectrum: 2048
>>>>>Begin Processed Spectral Data<<<<<
339.09	0.00
339.48	215.20
339.86	218.80
340.24	218.80
340.63	219.40
341.01	223.50
341.39	222.30
341.78	222.50
342.16	225.30
342.54	223.40
342.93	213.93
343.31	224.75
343.69	225.40
344.07	225.80
344.46	226.22
344.84	226.59
345.22	226.72
345.60	227.01
345.99	227.27
346.37	227.39
346.75	227.55
347.13	227.61
347.52	227.69
347.90	227.87
348.28	227.92
348.66	227.90
349.05	227.81
349.43	227.89
349.81	227.94
350.19	227.91
350.57	227.97
350.96	228.06
351.34	228.18
351.72	228.21
352.10	228.35
352.48	228.39
352.87	228.54
353.25	228.70
353.63	228.78
354.01	228.89
354.39	229.11
354.77	229.21
355.15	229.40
355.54	229.44
355.92	229.46
356.30	229.49
356.68	229.76
357.06	229.93
357.44	229.96
357.82	230.00
358.20	230.10
358.58	230.20
358.97	230.26
359.35	230.30
359.73	230.39
360.11	230.43
360.49	230.51
360.87	230.57
361.25	230.64
361.63	230.80
362.01	230.87
362.39	230.78
362.77	230.79
363.15	230.76
363.53	230.94
363.91	231.08
364.29	231.23
364.67	231.08
365.05	230.95
365.43	231.02
365.81	231.09
366.19	231.12
366.57	231.17
366.95	231.14
367.33	231.06
367.71	231.00
368.09	230.94
368.47	230.93
368.85	230.80
369.23	230.86
369.61	230.67
369.99	230.65
370.37	230.60
370.75	230.72
371.13	230.54
371.51	230.35
371.89	230.20
372.27	230.15
372.65	230.07
373.03	230.10
373.41	230.06
373.78	230.06
374.16	229.89
374.54	229.85
374.92	229.78
375.30	229.73
375.68	229.59
376.06	229.50
376.44	229.31
376.82	229.38
377.19	229.18
377.57	229.12
377.95	228.89
378.33	228.83
378.71	228.54
379.09	228.52
379.47	228.54
379.84	228.42
380.22	228.24
380.60	228.15
380.98	228.11
381.36	227.98
381.73	227.72
382.11	227.68
382.49	227.59
382.87	227.43
383.25	227.38
383.62	227.53
384.00	227.50
384.38	227.51
384.76	227.37
385.13	227.39
385.51	227.34
385.89	227.29
386.27	227.14
386.64	227.24
387.02	227.17
387.40	226.98
387.78	226.90
388.15	226.90
388.53	226.81
388.91	226.76
389.29	226.66
389.66	226.71
390.04	226.76
390.42	226.70
390.79	226.75
391.17	226.72
391.55	226.56
391.92	226.46
392.30	226.52
392.68	226.48
393.05	226.48
393.43	226.44
393.81	226.56
394.18	226.67
394.56	226.61
394.94	226.83
395.31	226.90
395.69	227.07
396.06	227.14
396.44	227.24
396.82	227.33
397.19	227.52
397.57	227.60
397.95	227.70
398.32	227.68
398.70	227.78
399.07	227.94
399.45	227.99
399.82	228.14
400.20	228.12
400.58	228.38
400.95	228.41
401.33	228.58
401.70	228.87
402.08	229.02
402.45	229.23
402.83	229.34
403.20	229.51
403.58	229.68
403.95	229.90
404.33	230.17
404.71	230.32
405.08	230.67
405.46	230.93
405.83	231.14
406.21	231.50
406.58	231.75
406.96	232.06
407.33	232.39
407.70	232.80
408.08	233.40
408.45	233.73
408.83	234.22
409.20	234.74
409.58	235.06
409.95	235.50
410.33	235.95
410.70	236.44
411.08	237.00
411.45	237.53
411.82	238.14
412.20	238.78
412.57	239.56
412.95	240.10
413.32	240.93
413.69	241.78
414.07	242.72
414.44	243.71
414.82	244.70
415.19	245.79
415.56	246.83
415.94	248.05
416.31	249.33
416.68	250.54
417.06	251.95
417.43	253.31
417.81	255.00
418.18	256.70
418.55	258.43
418.93	260.38
419.30	262.23
419.67	264.11
420.04	266.31
420.42	268.48
420.79	271.13
421.16	273.60
421.54	276.10
421.91	278.70
422.28	281.43
422.66	284.28
423.03	287.19
423.40	290.08
423.77	293.19
424.15	296.42
424.52	299.80
424.89	303.42
425.26	307.00
425.64	310.35
426.01	314.00
426.38	317.82
426.75	321.55
427.13	325.63
427.50	329.87
427.87	334.13
428.24	338.39
428.61	342.35
428.99	346.88
429.36	352.02
429.73	357.07
430.10	361.89
430.47	366.90
430.85	372.09
431.22	377.49
431.59	383.11
431.96	388.56
432.33	394.61
432.70	400.41
433.08	407.39
433.45	413.81
433.82	420.08
434.19	427.15
434.56	434.14
434.93	440.79
435.30	447.50
435.68	454.90
436.05	462.20
436.42	469.43
436.79	475.89
437.16	482.87
437.53	490.20
437.90	497.63
438.27	504.92
438.64	512.30
439.01	519.44
439.38	525.70
439.75	531.79
440.13	538.71
440.50	545.39
440.87	550.77
441.24	556.62
441.61	562.94
441.98	567.70
442.35	573.10
442.72	578.64
443.09	583.98
443.46	587.28
443.83	589.93
444.20	592.17
444.57	595.31
444.94	596.93
445.31	598.75
445.68	600.41
446.05	601.69
446.42	601.82
446.79	601.80
447.16	601.62
447.53	601.85
447.90	599.85
448.27	597.85
448.64	594.74
449.01	592.79
449.37	588.80
449.74	584.82
450.11	580.20
450.48	574.94
450.85	569.37
451.22	564.69
451.59	560.17
451.96	556.12
452.33	550.24
452.70	545.10
453.07	538.60
453.43	532.27
453.80	525.66
454.17	519.41
454.54	513.38
454.91	506.92
455.28	500.42
455.65	494.56
456.02	488.71
456.38	483.66
456.75	477.10
457.12	471.63
457.49	466.36
457.86	461.00
458.23	456.52
458.59	451.53
458.96	446.54
459.33	441.87
459.70	437.20
460.07	433.55
460.43	429.20
460.80	425.13
461.17	421.40
461.54	417.60
461.91	413.95
462.27	410.25
462.64	407.16
463.01	403.84
463.38	400.60
463.74	397.08
464.11	394.07
464.48	391.38
464.85	388.49
465.21	386.10
465.58	383.76
465.95	380.88
466.32	378.65
466.68	376.33
467.05	373.88
467.42	371.53
467.78	369.14
468.15	366.75
468.52	365.01
468.88	362.69
469.25	360.76
469.62	359.12
469.98	357.39
470.35	355.76
470.72	354.07
471.08	352.29
471.45	350.80
471.82	349.20
472.18	347.60
472.55	346.52
472.92	345.05
473.28	343.59
473.65	342.31
474.02	340.94
474.38	339.80
474.75	339.09
475.11	337.98
475.48	337.09
475.85	336.36
476.21	335.53
476.58	334.93
476.94	334.32
477.31	333.80
477.67	333.03
478.04	332.38
478.41	331.94
478.77	331.62
479.14	331.16
479.50	330.79
479.87	330.52
480.23	330.20
480.60	329.96
480.96	329.83
481.33	329.70
481.69	329.71
482.06	329.57
482.42	329.28
482.79	329.32
483.15	329.47
483.52	329.76
483.88	329.89
484.25	329.85
484.61	329.96
484.98	330.08
485.34	330.59
485.71	331.03
486.07	331.44
486.44	331.76
486.80	332.34
487.17	332.99
487.53	333.68
487.90	334.39
488.26	335.25
488.62	336.12
488.99	336.89
489.35	337.63
489.72	338.63
490.08	339.71
490.44	340.59
490.81	341.50
491.17	342.40
491.54	343.47
491.90	344.66
492.26	346.01
492.63	347.23
492.99	348.43
493.36	349.60
493.72	351.06
494.08	352.45
494.45	353.93
494.81	355.37
495.17	356.79
495.54	358.17
495.90	359.70
496.26	361.09
496.63	362.64
496.99	364.30
497.35	365.92
497.72	367.54
498.08	369.23
498.44	370.98
498.80	372.76
499.17	374.42
499.53	376.05
499.89	377.62
500.26	379.23
500.62	380.67
500.98	382.45
501.34	383.81
501.71	385.53
502.07	386.88
502.43	388.18
502.79	389.58
503.16	391.08
503.52	392.40
503.88	393.77
504.24	395.18
504.60	396.53
504.97	397.82
505.33	399.10
505.69	400.47
506.05	401.60
506.41	402.70
506.78	403.73
507.14	404.97
507.50	406.12
507.86	407.23
508.22	408.35
508.59	409.19
508.95	410.13
509.31	410.90
509.67	411.88
510.03	412.81
510.39	413.60
510.75	414.39
511.12	415.21
511.48	416.00
511.84	416.88
512.20	417.38
512.56	418.06
512.92	418.50
513.28	418.89
513.64	419.30
514.00	419.68
514.37	420.29
514.73	420.64
515.09	420.86
515.45	421.15
515.81	421.52
516.17	421.88
516.53	422.19
516.89	422.42
517.25	422.66
517.61	422.99
517.97	423.24
518.33	423.41
518.69	423.49
519.05	423.76
519.41	423.71
519.77	424.16
520.13	424.42
520.49	424.80
520.85	425.19
521.21	425.59
521.57	425.98
521.93	426.17
522.29	426.51
522.65	426.84
523.01	427.15
523.37	427.56
523.73	428.03
524.09	428.59
524.45	429.17
524.81	429.49
525.17	430.13
525.53	430.94
525.89	431.56
526.25	432.44
526.61	433.06
526.97	433.93
527.33	434.71
527.68	435.65
528.04	436.66
528.40	437.45
528.76	438.56
529.12	439.93
529.48	441.31
529.84	442.70
530.20	444.35
530.56	445.83
530.91	447.48
531.27	449.13
531.63	450.63
531.99	452.29
532.35	454.11
532.71	456.00
533.07	457.82
533.42	460.06
533.78	462.03
534.14	464.26
534.50	466.45
534.86	468.87
535.21	471.08
535.57	473.54
535.93	476.30
536.29	478.74
536.65	481.19
537.00	483.78
537.36	486.50
537.72	489.20
538.08	492.06
538.44	494.88
538.79	497.65
539.15	500.71
539.51	503.89
539.87	507.12
540.22	510.15
540.58	513.50
540.94	516.68
541.29	519.90
541.65	523.16
542.01	526.69
542.37	529.91
542.72	533.38
543.08	536.86
543.44	540.36
543.79	544.00
544.15	547.78
544.51	551.50
544.87	555.19
545.22	559.05
545.58	562.91
545.94	566.64
546.29	570.50
546.65	574.33
547.01	577.93
547.36	581.90
547.72	585.78
548.07	589.50
548.43	593.27
548.79	597.25
549.14	601.05
549.50	604.90
549.86	608.96
550.21	612.74
550.57	616.69
550.92	620.61
551.28	624.63
551.64	628.34
551.99	632.36
552.35	636.19
552.70	639.79
553.06	643.96
553.41	648.06
553.77	652.24
554.13	656.38
554.48	660.58
554.84	664.60
555.19	668.60
555.55	672.87
555.90	676.92
556.26	680.89
556.61	684.92
556.97	688.94
557.32	693.08
557.68	697.11
558.03	701.07
558.39	705.04
558.74	709.02
559.10	713.20
559.45	717.02
559.81	721.21
560.16	725.30
560.52	729.00
560.87	732.79
561.23	736.48
561.58	740.49
561.94	744.35
562.29	747.88
562.64	751.52
563.00	754.71
563.35	758.74
563.71	762.74
564.06	766.65
564.42	770.14
564.77	773.28
565.12	777.06
565.48	780.62
565.83	783.92
566.19	787.41
566.54	790.45
566.89	793.95
567.25	797.19
567.60	800.52
567.96	803.90
568.31	807.11
568.66	810.31
569.02	813.18
569.37	815.93
569.72	819.28
570.08	822.40
570.43	825.45
570.78	827.96
571.14	830.41
571.49	832.82
571.84	835.48
572.20	838.28
572.55	840.61
572.90	843.04
573.26	845.74
573.61	848.05
573.96	850.08
574.31	851.85
574.67	853.43
575.02	855.07
575.37	856.63
575.72	858.04
576.08	859.62
576.43	860.95
576.78	862.60
577.13	863.93
577.49	865.17
577.84	866.70
578.19	867.85
578.54	868.85
578.90	869.98
579.25	870.92
579.60	871.62
579.95	872.37
580.30	872.85
580.66	873.20
581.01	873.29
581.36	874.24
581.71	875.20
582.06	876.29
582.42	876.81
582.77	877.26
583.12	877.86
583.47	878.42
583.82	878.96
584.17	879.08
584.53	879.29
584.88	879.29
585.23	879.47
585.58	879.55
585.93	879.60
586.28	879.79
586.63	880.14
586.98	880.43
587.34	880.55
587.69	880.95
588.04	881.06
588.39	881.30
588.74	880.87
589.09	880.16
589.44	879.22
589.79	879.18
590.14	879.09
590.49	878.65
590.84	877.69
591.19	877.23
591.54	876.60
591.89	875.32
592.25	874.95
592.60	873.72
592.95	872.77
593.30	872.07
593.65	871.01
594.00	869.49
594.35	868.51
594.70	867.11
595.05	865.77
595.40	864.54
595.75	863.09
596.10	861.93
596.45	860.82
596.80	859.89
597.15	858.79
597.50	857.40
597.85	856.58
598.19	855.76
598.54	854.55
598.89	853.48
599.24	852.63
599.59	851.35
599.94	850.34
600.29	849.28
600.64	847.73
600.99	846.06
601.34	845.16
601.69	843.30
602.04	841.82
602.39	840.00
602.74	838.64
603.08	837.57
603.43	836.35
603.78	835.18
604.13	833.81
604.48	831.72
604.83	830.09
605.18	828.08
605.53	826.05
605.87	823.82
606.22	822.15
606.57	820.21
606.92	818.24
607.27	816.56
607.62	814.76
607.96	813.30
608.31	811.79
608.66	809.59
609.01	807.71
609.36	805.57
609.70	803.36
610.05	801.01
610.40	798.66
610.75	796.31
611.10	793.65
611.44	790.96
611.79	788.80
612.14	786.21
612.49	783.40
612.83	780.82
613.18	778.67
613.53	776.13
613.88	773.61
614.22	770.95
614.57	768.08
614.92	765.44
615.27	762.84
615.61	759.87
615.96	757.24
616.31	754.87
616.65	752.79
617.00	750.61
617.35	748.25
617.70	745.74
618.04	743.06
618.39	740.60
618.74	738.10
619.08	735.48
619.43	732.97
619.78	730.89
620.12	728.52
620.47	725.91
620.82	723.08
621.16	720.45
621.51	718.13
621.85	715.62
622.20	712.82
622.55	709.94
622.89	707.55
623.24	705.20
623.59	702.78
623.93	700.40
624.28	697.79
624.62	695.29
624.97	692.85
625.32	690.52
625.66	688.07
626.01	685.82
626.35	683.31
626.70	680.84
627.04	678.48
627.39	675.81
627.73	673.25
628.08	670.93
628.43	668.57
628.77	666.03
629.12	663.51
629.46	661.08
629.81	658.65
630.15	656.07
630.50	653.20
630.84	650.45
631.19	647.37
631.53	644.73
631.88	641.89
632.22	638.86
632.57	636.08
632.91	633.49
633.26	630.67
633.60	628.12
633.95	625.44
634.29	622.69
634.64	620.30
634.98	617.74
635.32	615.17
635.67	613.00
636.01	610.45
636.36	607.90
636.70	605.65
637.05	603.14
637.39	600.95
637.73	598.70
638.08	596.42
638.42	594.31
638.77	592.11
639.11	589.75
639.45	587.46
639.80	585.13
640.14	582.76
640.49	580.50
640.83	578.09
641.17	575.84
641.52	573.37
641.86	571.07
642.20	568.88
642.55	566.61
642.89	564.03
643.23	561.52
643.58	559.38
643.92	556.79
644.26	554.38
644.61	551.98
644.95	549.69
645.29	547.12
645.64	544.57
645.98	542.16
646.32	539.86
646.66	537.60
647.01	535.26
647.35	532.84
647.69	530.60
648.04	528.41
648.38	525.97
648.72	523.52
649.06	520.92
649.41	518.58
649.75	515.93
650.09	513.64
650.43	511.48
650.78	508.86
651.12	506.53
651.46	504.21
651.80	501.85
652.14	499.60
652.49	497.52
652.83	495.47
653.17	493.02
653.51	490.79
653.85	488.58
654.20	486.26
654.54	483.95
654.88	481.46
655.22	478.98
655.56	476.55
655.90	474.48
656.25	472.44
656.59	470.20
656.93	468.24
657.27	466.10
657.61	463.89
657.95	461.85
658.29	459.73
658.64	457.72
658.98	455.62
659.32	453.21
659.66	450.90
660.00	448.74
660.34	446.71
660.68	444.54
661.02	442.57
661.36	440.68
661.70	438.80
662.05	437.09
662.39	435.50
662.73	433.85
663.07	431.98
663.41	430.38
663.75	428.44
664.09	426.71
664.43	424.93
664.77	423.14
665.11	421.49
665.45	419.92
665.79	418.20
666.13	416.59
666.47	415.18
666.81	413.58
667.15	411.74
667.49	410.12
667.83	408.57
668.17	406.74
668.51	404.89
668.85	403.36
669.19	401.81
669.53	399.99
669.87	398.44
670.21	396.99
670.55	395.31
670.89	394.10
671.23	392.66
671.57	391.06
671.91	389.56
672.25	388.00
672.58	386.55
672.92	385.11
673.26	383.68
673.60	382.28
673.94	380.93
674.28	379.78
674.62	378.67
674.96	377.38
675.30	376.28
675.64	375.20
675.97	373.93
676.31	372.60
676.65	371.37
676.99	370.08
677.33	368.74
677.67	367.40
678.01	365.93
678.34	364.53
678.68	363.36
679.02	362.26
679.36	361.15
679.70	359.87
680.04	358.63
680.37	357.31
680.71	356.06
681.05	355.02
681.39	353.83
681.73	352.62
682.06	351.56
682.40	350.34
682.74	349.28
683.08	348.13
683.42	346.86
683.75	345.75
684.09	344.61
684.43	343.39
684.77	342.33
685.10	341.19
685.44	340.13
685.78	339.06
686.12	337.83
686.45	336.81
686.79	335.60
687.13	334.59
687.46	333.58
687.80	332.37
688.14	331.26
688.48	330.20
688.81	329.00
689.15	327.89
689.49	326.75
689.82	325.70
690.16	324.54
690.50	323.52
690.83	322.63
691.17	321.70
691.51	320.76
691.84	319.96
692.18	319.01
692.52	317.92
692.85	316.93
693.19	316.06
693.52	315.00
693.86	314.11
694.20	313.18
694.53	312.32
694.87	311.61
695.21	310.56
695.54	309.70
695.88	308.88
696.21	307.95
696.55	307.26
696.88	306.36
697.22	305.47
697.56	304.72
697.89	303.77
698.23	302.90
698.56	302.20
698.90	301.24
699.23	300.45
699.57	299.65
699.90	298.85
700.24	298.06
700.58	297.34
700.91	296.58
701.25	296.03
701.58	295.39
701.92	294.53
702.25	293.85
702.59	293.17
702.92	292.54
703.26	291.86
703.59	291.25
703.93	290.80
704.26	290.27
704.60	289.59
704.93	288.98
705.26	288.36
705.60	287.79
705.93	287.18
706.27	286.62
706.60	286.14
706.94	285.58
707.27	284.95
707.61	284.40
707.94	283.92
708.27	283.17
708.61	282.50
708.94	282.03
709.28	281.59
709.61	280.98
709.94	280.42
710.28	280.00
710.61	279.33
710.95	278.48
711.28	278.05
711.61	277.62
711.95	277.13
712.28	276.56
712.61	275.94
712.95	275.47
713.28	275.08
713.61	274.61
713.95	274.05
714.28	273.55
714.61	272.98
714.95	272.54
715.28	272.04
715.61	271.50
715.95	271.04
716.28	270.56
716.61	270.12
716.95	269.65
717.28	269.06
717.61	268.76
717.94	268.34
718.28	267.83
718.61	267.38
718.94	266.90
719.27	266.54
719.61	266.11
719.94	265.66
720.27	265.25
720.60	264.88
720.94	264.60
721.27	264.26
721.60	264.03
721.93	263.68
722.27	263.43
722.60	263.19
722.93	262.79
723.26	262.33
723.59	262.01
723.93	261.61
724.26	261.26
724.59	260.83
724.92	260.54
725.25	260.23
725.59	259.79
725.92	259.48
726.25	259.07
726.58	258.62
726.91	258.26
727.24	257.90
727.57	257.42
727.91	257.05
728.24	256.82
728.57	256.41
728.90	256.03
729.23	255.58
729.56	255.25
729.89	254.99
730.22	254.70
730.55	254.35
730.89	254.13
731.22	253.91
731.55	253.59
731.88	253.25
732.21	252.84
732.54	252.64
732.87	252.28
733.20	252.03
733.53	251.90
733.86	251.69
734.19	251.33
734.52	251.17
734.85	251.00
735.18	250.61
735.51	250.44
735.84	250.18
736.17	250.06
736.50	249.74
736.83	249.73
737.16	249.52
737.49	249.37
737.82	249.06
738.15	248.90
738.48	248.66
738.81	248.66
739.14	248.45
739.47	248.18
739.80	248.03
740.13	247.83
740.46	247.63
740.79	247.44
741.12	247.36
741.45	247.10
741.78	246.84
742.11	246.79
742.44	246.54
742.77	246.53
743.10	246.34
743.43	246.20
743.75	245.89
744.08	245.98
744.41	245.72
744.74	245.62
745.07	245.47
745.40	245.46
745.73	245.30
746.06	245.31
746.39	245.23
746.71	245.11
747.04	245.05
747.37	244.91
747.70	244.82
748.03	244.60
748.36	244.58
748.68	244.41
749.01	244.11
749.34	244.00
749.67	243.80
750.00	243.66
750.33	243.64
750.65	243.48
750.98	243.09
751.31	242.94
751.64	242.88
751.97	242.89
752.29	242.77
752.62	242.47
752.95	242.25
753.28	242.06
753.60	241.95
753.93	241.83
754.26	241.81
754.59	241.62
754.91	241.44
755.24	241.32
755.57	241.19
755.90	241.12
756.22	241.01
756.55	240.78
756.88	240.63
757.20	240.30
757.53	240.07
757.86	239.95
758.19	239.85
758.51	239.69
758.84	239.35
759.17	239.14
759.49	239.06
759.82	239.03
760.15	238.97
760.47	238.86
760.80	238.73
761.13	238.50
761.45	238.34
761.78	238.25
762.11	238.09
762.43	237.90
762.76	237.79
763.08	237.60
763.41	237.48
763.74	237.36
764.06	237.21
764.39	237.23
764.71	237.15
765.04	237.08
765.37	236.95
765.69	236.83
766.02	236.73
766.34	236.55
766.67	236.34
767.00	236.28
767.32	236.21
767.65	236.22
767.97	236.20
768.30	236.10
768.62	235.91
768.95	235.84
769.27	235.78
769.60	235.77
769.92	235.63
770.25	235.55
770.57	235.37
770.90	235.36
771.22	235.10
771.55	235.00
771.87	234.88
772.20	234.82
772.52	234.94
772.85	235.09
773.17	235.14
773.50	235.03
773.82	234.84
774.15	234.72
774.47	234.42
774.80	234.30
775.12	234.24
775.45	234.21
775.77	234.12
776.09	234.13
776.42	233.92
776.74	233.94
777.07	233.82
777.39	233.80
777.72	233.81
778.04	233.88
778.36	233.76
778.69	233.71
779.01	233.60
779.33	233.37
779.66	233.09
779.98	232.90
780.31	232.88
780.63	232.98
780.95	232.93
781.28	232.98
781.60	232.97
781.92	232.95
782.25	232.94
782.57	232.98
782.89	232.85
783.22	232.87
783.54	232.84
783.86	232.85
784.19	232.83
784.51	232.78
784.83	232.65
785.16	232.69
785.48	232.58
785.80	232.60
786.12	232.55
786.45	232.54
786.77	232.60
787.09	232.62
787.42	232.60
787.74	232.55
788.06	232.57
788.38	232.50
788.71	232.44
789.03	232.51
789.35	232.51
789.67	232.40
789.99	232.50
790.32	232.45
790.64	232.42
790.96	232.53
791.28	232.46
791.61	232.54
791.93	232.57
792.25	232.60
792.57	232.64
792.89	232.67
793.21	232.61
793.54	232.52
793.86	232.47
794.18	232.40
