SpectraSuite Data File
++++++++++++++++++++++++++++++++++++
Date: Fri Feb 01 14:40:37 EST 2013
User: group
Dark Spectrum Present: No
Reference Spectrum Present: No
Number of Sampled Component Spectra: 1
Spectrometers: USB2E7196
Integration Time (usec): 70000 (USB2E7196)
Spectra Averaged: 10 (USB2E7196)
Boxcar Smoothing: 10 (USB2E7196)
Correct for Electrical Dark: No (USB2E7196)
Strobe/Lamp Enabled: No (USB2E7196)
Correct for Detector Non-linearity: No (USB2E7196)
Correct for Stray Light: No (USB2E7196)
Number of Pixels in Processed Spectrum: 2048
>>>>>Begin Processed Spectral Data<<<<<
339.09	0.00
339.48	215.00
339.86	218.60
340.24	219.30
340.63	222.80
341.01	224.80
341.39	223.20
341.78	225.50
342.16	228.10
342.54	226.00
342.93	214.99
343.31	225.75
343.69	226.34
344.07	226.77
344.46	227.10
344.84	227.35
345.22	227.48
345.60	227.79
345.99	227.96
346.37	227.95
346.75	228.02
347.13	228.09
347.52	228.21
347.90	228.24
348.28	228.21
348.66	228.30
349.05	228.10
349.43	228.14
349.81	228.14
350.19	228.10
350.57	228.20
350.96	228.35
351.34	228.44
351.72	228.51
352.10	228.54
352.48	228.62
352.87	228.69
353.25	228.70
353.63	228.69
354.01	228.66
354.39	228.72
354.77	228.86
355.15	229.01
355.54	228.96
355.92	228.97
356.30	228.89
356.68	229.04
357.06	229.21
357.44	229.15
357.82	229.15
358.20	229.27
358.58	229.20
358.97	229.21
359.35	229.35
359.73	229.51
360.11	229.62
360.49	229.73
360.87	229.72
361.25	229.81
361.63	229.87
362.01	229.98
362.39	230.01
362.77	229.95
363.15	229.93
363.53	229.96
363.91	229.97
364.29	230.05
364.67	229.92
365.05	229.92
365.43	230.01
365.81	230.01
366.19	230.02
366.57	230.15
366.95	230.21
367.33	230.20
367.71	230.10
368.09	230.13
368.47	230.11
368.85	230.02
369.23	230.04
369.61	229.90
369.99	229.89
370.37	229.97
370.75	230.08
371.13	229.98
371.51	229.97
371.89	229.96
372.27	229.99
372.65	229.91
373.03	229.86
373.41	229.75
373.78	229.76
374.16	229.72
374.54	229.63
374.92	229.50
375.30	229.40
375.68	229.34
376.06	229.25
376.44	229.17
376.82	229.18
377.19	229.05
377.57	229.10
377.95	228.94
378.33	228.73
378.71	228.54
379.09	228.43
379.47	228.42
379.84	228.34
380.22	228.18
380.60	228.10
380.98	228.11
381.36	228.11
381.73	227.98
382.11	227.83
382.49	227.71
382.87	227.63
383.25	227.59
383.62	227.77
384.00	227.57
384.38	227.56
384.76	227.64
385.13	227.68
385.51	227.49
385.89	227.41
386.27	227.49
386.64	227.44
387.02	227.49
387.40	227.43
387.78	227.39
388.15	227.40
388.53	227.37
388.91	227.26
389.29	227.16
389.66	227.20
390.04	227.20
390.42	227.18
390.79	227.18
391.17	227.13
391.55	226.86
391.92	226.94
392.30	226.85
392.68	226.75
393.05	226.73
393.43	226.86
393.81	226.94
394.18	226.88
394.56	226.92
394.94	226.97
395.31	226.96
395.69	226.97
396.06	227.07
396.44	227.08
396.82	227.13
397.19	227.26
397.57	227.25
397.95	227.31
398.32	227.35
398.70	227.42
399.07	227.52
399.45	227.45
399.82	227.57
400.20	227.71
400.58	227.83
400.95	227.90
401.33	228.05
401.70	228.20
402.08	228.34
402.45	228.53
402.83	228.65
403.20	228.72
403.58	228.90
403.95	229.04
404.33	229.15
404.71	229.24
405.08	229.60
405.46	229.69
405.83	229.88
406.21	230.04
406.58	230.22
406.96	230.42
407.33	230.75
407.70	230.82
408.08	231.20
408.45	231.42
408.83	231.67
409.20	231.87
409.58	232.00
409.95	232.20
410.33	232.47
410.70	232.71
411.08	233.10
411.45	233.45
411.82	233.70
412.20	233.98
412.57	234.55
412.95	234.69
413.32	235.26
413.69	235.68
414.07	236.10
414.44	236.47
414.82	236.89
415.19	237.42
415.56	238.05
415.94	238.41
416.31	239.03
416.68	239.70
417.06	240.40
417.43	241.12
417.81	242.00
418.18	242.79
418.55	243.55
418.93	244.29
419.30	245.12
419.67	246.09
420.04	247.12
420.42	248.03
420.79	249.26
421.16	250.25
421.54	251.45
421.91	252.91
422.28	254.24
422.66	255.65
423.03	257.12
423.40	258.43
423.77	259.90
424.15	261.30
424.52	262.67
424.89	264.36
425.26	265.91
425.64	267.25
426.01	268.73
426.38	270.46
426.75	272.12
427.13	273.84
427.50	275.71
427.87	277.54
428.24	279.49
428.61	281.21
428.99	283.36
429.36	285.41
429.73	287.41
430.10	289.44
430.47	291.41
430.85	293.41
431.22	295.71
431.59	298.06
431.96	300.34
432.33	302.97
432.70	305.22
433.08	308.15
433.45	310.79
433.82	313.48
434.19	316.38
434.56	319.46
434.93	322.22
435.30	324.82
435.68	327.93
436.05	330.70
436.42	333.53
436.79	335.99
437.16	338.72
437.53	341.36
437.90	344.12
438.27	346.94
438.64	349.75
439.01	352.33
439.38	354.60
439.75	356.76
440.13	359.21
440.50	361.56
440.87	363.42
441.24	365.41
441.61	367.65
441.98	369.13
442.35	370.85
442.72	372.69
443.09	374.55
443.46	375.45
443.83	376.04
444.20	376.49
444.57	377.32
444.94	377.54
445.31	377.94
445.68	378.56
446.05	378.65
446.42	378.22
446.79	377.88
447.16	377.35
447.53	376.88
447.90	375.64
448.27	374.62
448.64	372.79
449.01	371.59
449.37	369.46
449.74	367.53
450.11	365.30
450.48	362.70
450.85	360.07
451.22	357.82
451.59	355.80
451.96	353.83
452.33	351.19
452.70	348.85
453.07	345.97
453.43	342.86
453.80	340.02
454.17	337.24
454.54	334.68
454.91	332.12
455.28	329.60
455.65	327.14
456.02	324.74
456.38	322.68
456.75	320.01
457.12	317.82
457.49	315.63
457.86	313.36
458.23	311.64
458.59	309.52
458.96	307.54
459.33	305.62
459.70	303.70
460.07	302.21
460.43	300.61
460.80	299.08
461.17	297.59
461.54	296.14
461.91	294.84
462.27	293.32
462.64	291.97
463.01	290.49
463.38	289.11
463.74	287.55
464.11	286.38
464.48	285.35
464.85	284.09
465.21	283.20
465.58	282.26
465.95	280.97
466.32	280.17
466.68	279.13
467.05	278.23
467.42	277.41
467.78	276.43
468.15	275.40
468.52	274.73
468.88	273.85
469.25	272.97
469.62	272.30
469.98	271.54
470.35	270.86
470.72	270.31
471.08	269.57
471.45	268.93
471.82	268.34
472.18	267.59
472.55	267.12
472.92	266.44
473.28	265.83
473.65	265.36
474.02	264.70
474.38	264.25
474.75	263.85
475.11	263.25
475.48	262.77
475.85	262.32
476.21	261.78
476.58	261.36
476.94	261.10
477.31	260.71
477.67	260.29
478.04	259.87
478.41	259.60
478.77	259.61
479.14	259.37
479.50	259.15
479.87	259.04
480.23	258.88
480.60	258.70
480.96	258.49
481.33	258.30
481.69	258.22
482.06	258.05
482.42	257.80
482.79	257.80
483.15	257.65
483.52	257.67
483.88	257.68
484.25	257.73
484.61	257.60
484.98	257.63
485.34	257.91
485.71	258.00
486.07	258.02
486.44	257.82
486.80	257.94
487.17	258.01
487.53	258.22
487.90	258.37
488.26	258.67
488.62	258.91
488.99	259.21
489.35	259.47
489.72	259.92
490.08	260.26
490.44	260.57
490.81	261.31
491.17	261.79
491.54	262.20
491.90	262.80
492.26	263.51
492.63	264.21
492.99	264.70
493.36	265.40
493.72	266.27
494.08	267.25
494.45	268.18
494.81	269.21
495.17	270.10
495.54	271.28
495.90	272.42
496.26	273.70
496.63	275.03
496.99	276.43
497.35	277.69
497.72	279.35
498.08	281.12
498.44	282.65
498.80	284.42
499.17	286.46
499.53	288.44
499.89	290.45
500.26	292.58
500.62	294.79
500.98	297.25
501.34	299.86
501.71	302.57
502.07	305.31
502.43	308.07
502.79	311.10
503.16	314.24
503.52	317.46
503.88	320.80
504.24	324.30
504.60	327.99
504.97	331.98
505.33	335.83
505.69	339.89
506.05	344.32
506.41	348.64
506.78	353.10
507.14	357.60
507.50	362.71
507.86	367.81
508.22	373.21
508.59	378.67
508.95	384.00
509.31	389.76
509.67	395.55
510.03	401.66
510.39	407.89
510.75	414.20
511.12	420.65
511.48	427.33
511.84	434.11
512.20	440.99
512.56	448.11
512.92	455.61
513.28	463.08
513.64	470.51
514.00	478.33
514.37	486.59
514.73	494.73
515.09	502.92
515.45	511.50
515.81	520.10
516.17	528.83
516.53	537.97
516.89	546.92
517.25	556.19
517.61	565.40
517.97	574.87
518.33	584.42
518.69	594.11
519.05	604.22
519.41	614.53
519.77	625.08
520.13	635.68
520.49	646.37
520.85	657.14
521.21	668.27
521.57	679.48
521.93	690.27
522.29	701.78
522.65	713.01
523.01	724.28
523.37	735.73
523.73	747.53
524.09	759.08
524.45	770.89
524.81	782.69
525.17	795.27
525.53	807.77
525.89	820.28
526.25	833.11
526.61	845.48
526.97	858.12
527.33	870.69
527.68	883.51
528.04	896.28
528.40	909.28
528.76	922.31
529.12	935.31
529.48	948.86
529.84	961.82
530.20	975.48
530.56	989.55
530.91	1003.42
531.27	1017.14
531.63	1030.90
531.99	1044.54
532.35	1058.23
532.71	1071.36
533.07	1085.21
533.42	1098.93
533.78	1112.43
534.14	1126.02
534.50	1139.41
534.86	1152.98
535.21	1166.20
535.57	1179.69
535.93	1193.47
536.29	1206.87
536.65	1220.41
537.00	1233.54
537.36	1247.28
537.72	1260.13
538.08	1272.67
538.44	1285.60
538.79	1298.57
539.15	1311.10
539.51	1324.30
539.87	1337.74
540.22	1350.86
540.58	1363.63
540.94	1376.57
541.29	1389.57
541.65	1402.03
542.01	1414.94
542.37	1427.62
542.72	1440.19
543.08	1452.59
543.44	1464.73
543.79	1476.38
544.15	1488.36
544.51	1500.17
544.87	1511.70
545.22	1523.08
545.58	1534.34
545.94	1544.57
546.29	1555.28
546.65	1566.17
547.01	1576.42
547.36	1586.64
547.72	1596.72
548.07	1606.44
548.43	1615.88
548.79	1625.13
549.14	1634.95
549.50	1643.93
549.86	1653.05
550.21	1661.80
550.57	1670.47
550.92	1678.63
551.28	1687.22
551.64	1695.38
551.99	1703.80
552.35	1711.89
552.70	1720.21
553.06	1728.49
553.41	1736.96
553.77	1744.97
554.13	1753.30
554.48	1761.30
554.84	1768.84
555.19	1776.59
555.55	1784.45
555.90	1791.32
556.26	1798.33
556.61	1805.22
556.97	1811.61
557.32	1818.47
557.68	1824.93
558.03	1831.66
558.39	1838.66
558.74	1845.55
559.10	1851.77
559.45	1857.94
559.81	1864.84
560.16	1870.04
560.52	1875.41
560.87	1881.47
561.23	1886.47
561.58	1891.72
561.94	1896.71
562.29	1901.52
562.64	1905.80
563.00	1909.82
563.35	1915.17
563.71	1920.50
564.06	1925.49
564.42	1930.48
564.77	1934.77
565.12	1939.61
565.48	1943.92
565.83	1947.03
566.19	1950.72
566.54	1954.20
566.89	1957.54
567.25	1960.25
567.60	1964.68
567.96	1967.73
568.31	1970.27
568.66	1973.34
569.02	1975.41
569.37	1977.54
569.72	1979.94
570.08	1982.45
570.43	1984.79
570.78	1986.53
571.14	1987.11
571.49	1988.36
571.84	1990.27
572.20	1990.73
572.55	1991.13
572.90	1991.38
573.26	1992.34
573.61	1992.56
573.96	1993.06
574.31	1992.53
574.67	1991.46
575.02	1989.92
575.37	1989.66
575.72	1988.37
576.08	1987.45
576.43	1986.83
576.78	1985.93
577.13	1985.14
577.49	1983.73
577.84	1982.35
578.19	1980.34
578.54	1978.69
578.90	1976.15
579.25	1972.89
579.60	1971.15
579.95	1968.59
580.30	1965.94
580.66	1963.17
581.01	1960.03
581.36	1957.36
581.71	1955.12
582.06	1952.53
582.42	1949.93
582.77	1946.77
583.12	1944.17
583.47	1941.24
583.82	1938.32
584.17	1934.80
584.53	1931.07
584.88	1927.77
585.23	1924.10
585.58	1921.05
585.93	1917.81
586.28	1915.01
586.63	1912.60
586.98	1909.09
587.34	1905.96
587.69	1902.17
588.04	1898.70
588.39	1895.31
588.74	1890.65
589.09	1886.14
589.44	1881.58
589.79	1877.87
590.14	1874.48
590.49	1870.38
590.84	1865.59
591.19	1861.00
591.54	1856.10
591.89	1850.41
592.25	1845.40
592.60	1839.68
592.95	1833.82
593.30	1828.59
593.65	1822.73
594.00	1816.73
594.35	1811.50
594.70	1805.31
595.05	1800.39
595.40	1794.82
595.75	1789.06
596.10	1784.37
596.45	1779.52
596.80	1775.33
597.15	1769.92
597.50	1764.02
597.85	1758.78
598.19	1754.47
598.54	1749.60
598.89	1744.97
599.24	1741.16
599.59	1736.10
599.94	1731.34
600.29	1726.90
600.64	1721.83
600.99	1716.14
601.34	1710.95
601.69	1705.28
602.04	1700.49
602.39	1695.09
602.74	1690.47
603.08	1685.93
603.43	1680.78
603.78	1675.45
604.13	1669.47
604.48	1663.65
604.83	1657.97
605.18	1652.62
605.53	1646.01
605.87	1639.27
606.22	1633.40
606.57	1626.96
606.92	1621.07
607.27	1615.92
607.62	1610.37
607.96	1604.69
608.31	1599.66
608.66	1592.99
609.01	1586.60
609.36	1579.87
609.70	1572.51
610.05	1564.83
610.40	1558.06
610.75	1551.11
611.10	1544.38
611.44	1537.05
611.79	1530.70
612.14	1523.78
612.49	1515.80
612.83	1508.57
613.18	1501.62
613.53	1494.60
613.88	1487.06
614.22	1479.93
614.57	1472.09
614.92	1464.25
615.27	1457.35
615.61	1449.84
615.96	1443.08
616.31	1436.41
616.65	1430.34
617.00	1423.95
617.35	1417.61
617.70	1410.49
618.04	1403.09
618.39	1396.11
618.74	1389.79
619.08	1382.30
619.43	1375.56
619.78	1369.37
620.12	1362.89
620.47	1356.28
620.82	1349.05
621.16	1342.67
621.51	1336.20
621.85	1329.39
622.20	1322.60
622.55	1315.74
622.89	1309.25
623.24	1302.91
623.59	1296.44
623.93	1289.72
624.28	1283.14
624.62	1276.49
624.97	1269.81
625.32	1263.78
625.66	1257.28
626.01	1250.70
626.35	1244.34
626.70	1237.67
627.04	1231.18
627.39	1224.21
627.73	1217.36
628.08	1211.15
628.43	1204.61
628.77	1198.06
629.12	1191.63
629.46	1185.11
629.81	1177.70
630.15	1170.50
630.50	1163.49
630.84	1156.06
631.19	1148.68
631.53	1142.20
631.88	1134.84
632.22	1127.64
632.57	1121.12
632.91	1114.19
633.26	1107.64
633.60	1100.67
633.95	1093.89
634.29	1087.56
634.64	1081.63
634.98	1075.29
635.32	1069.30
635.67	1063.34
636.01	1057.00
636.36	1050.62
636.70	1044.77
637.05	1038.95
637.39	1033.40
637.73	1027.45
638.08	1022.25
638.42	1017.00
638.77	1011.33
639.11	1005.78
639.45	1000.56
639.80	994.36
640.14	988.35
640.49	982.44
640.83	976.94
641.17	971.60
641.52	965.73
641.86	959.71
642.20	954.11
642.55	948.09
642.89	942.10
643.23	936.29
643.58	931.10
643.92	925.11
644.26	919.48
644.61	914.00
644.95	908.56
645.29	902.46
645.64	896.30
645.98	890.61
646.32	885.50
646.66	879.62
647.01	874.32
647.35	869.11
647.69	863.65
648.04	858.40
648.38	852.62
648.72	846.67
649.06	841.13
649.41	835.74
649.75	829.95
650.09	824.18
650.43	818.62
650.78	812.85
651.12	807.46
651.46	802.20
651.80	796.62
652.14	791.39
652.49	786.20
652.83	781.17
653.17	775.71
653.51	770.09
653.85	765.06
654.20	759.67
654.54	754.34
654.88	748.91
655.22	743.19
655.56	737.71
655.90	732.98
656.25	728.23
656.59	723.25
656.93	718.52
657.27	713.86
657.61	708.79
657.95	704.24
658.29	699.42
658.64	694.57
658.98	689.59
659.32	684.62
659.66	679.77
660.00	675.16
660.34	670.50
660.68	665.93
661.02	661.16
661.36	656.66
661.70	652.21
662.05	648.11
662.39	644.45
662.73	640.53
663.07	636.33
663.41	632.05
663.75	627.76
664.09	623.66
664.43	619.59
664.77	615.77
665.11	611.67
665.45	607.83
665.79	603.89
666.13	600.25
666.47	596.50
666.81	592.70
667.15	588.54
667.49	584.85
667.83	581.14
668.17	577.39
668.51	573.74
668.85	570.07
669.19	566.55
669.53	562.73
669.87	558.95
670.21	555.59
670.55	552.12
670.89	549.03
671.23	545.81
671.57	542.51
671.91	539.18
672.25	535.74
672.58	532.34
672.92	529.20
673.26	526.26
673.60	523.10
673.94	520.23
674.28	517.62
674.62	514.65
674.96	511.89
675.30	509.20
675.64	506.35
675.97	503.68
676.31	500.89
676.65	498.08
676.99	495.57
677.33	492.62
677.67	489.84
678.01	486.97
678.34	484.16
678.68	481.54
679.02	478.93
679.36	476.36
679.70	473.88
680.04	471.38
680.37	468.52
680.71	466.06
681.05	463.63
681.39	461.07
681.73	458.72
682.06	456.51
682.40	454.15
682.74	451.70
683.08	449.27
683.42	446.82
683.75	444.50
684.09	442.19
684.43	439.98
684.77	437.83
685.10	435.60
685.44	433.29
685.78	430.94
686.12	428.81
686.45	426.65
686.79	424.40
687.13	422.14
687.46	420.05
687.80	417.94
688.14	415.64
688.48	413.72
688.81	411.51
689.15	409.43
689.49	407.49
689.82	405.54
690.16	403.68
690.50	401.76
690.83	399.82
691.17	397.76
691.51	395.74
691.84	393.82
692.18	391.96
692.52	390.17
692.85	388.41
693.19	386.55
693.52	384.70
693.86	383.00
694.20	381.21
694.53	379.37
694.87	377.51
695.21	375.82
695.54	374.02
695.88	372.21
696.21	370.15
696.55	368.34
696.88	366.62
697.22	364.90
697.56	363.39
697.89	361.69
698.23	360.25
698.56	358.81
698.90	357.27
699.23	355.65
699.57	354.04
699.90	352.49
700.24	351.00
700.58	349.58
700.91	348.11
701.25	346.79
701.58	345.59
701.92	344.29
702.25	342.95
702.59	341.60
702.92	340.34
703.26	339.06
703.59	337.71
703.93	336.60
704.26	335.27
704.60	333.92
704.93	332.78
705.26	331.43
705.60	330.18
705.93	328.94
706.27	327.78
706.60	326.70
706.94	325.64
707.27	324.39
707.61	323.22
707.94	322.07
708.27	320.91
708.61	319.58
708.94	318.56
709.28	317.52
709.61	316.52
709.94	315.66
710.28	314.81
710.61	313.93
710.95	312.77
711.28	311.86
711.61	310.84
711.95	309.85
712.28	308.82
712.61	307.77
712.95	306.86
713.28	306.01
713.61	304.99
713.95	304.10
714.28	303.26
714.61	302.31
714.95	301.50
715.28	300.55
715.61	299.82
715.95	298.90
716.28	298.04
716.61	297.10
716.95	296.25
717.28	295.35
717.61	294.41
717.94	293.59
718.28	292.73
718.61	292.05
718.94	291.33
719.27	290.67
719.61	289.96
719.94	289.17
720.27	288.36
720.60	287.65
720.94	286.92
721.27	286.28
721.60	285.71
721.93	285.10
722.27	284.62
722.60	283.90
722.93	283.28
723.26	282.68
723.59	282.09
723.93	281.41
724.26	280.84
724.59	280.29
724.92	279.83
725.25	279.28
725.59	278.51
725.92	278.01
726.25	277.40
726.58	276.80
726.91	276.39
727.24	275.89
727.57	275.39
727.91	274.85
728.24	274.35
728.57	273.80
728.90	273.16
729.23	272.44
729.56	272.07
729.89	271.57
730.22	271.07
730.55	270.46
730.89	270.03
731.22	269.65
731.55	269.13
731.88	268.62
732.21	268.11
732.54	267.86
732.87	267.40
733.20	267.10
733.53	266.77
733.86	266.27
734.19	265.85
734.52	265.56
734.85	265.15
735.18	264.74
735.51	264.45
735.84	264.09
736.17	263.79
736.50	263.31
736.83	263.09
737.16	262.70
737.49	262.48
737.82	261.92
738.15	261.40
738.48	261.00
738.81	260.62
739.14	260.28
739.47	259.86
739.80	259.53
740.13	259.12
740.46	258.80
740.79	258.43
741.12	258.15
741.45	257.78
741.78	257.43
742.11	257.16
742.44	256.84
742.77	256.65
743.10	256.33
743.43	255.96
743.75	255.47
744.08	255.41
744.41	255.08
744.74	254.93
745.07	254.67
745.40	254.44
745.73	254.30
746.06	253.95
746.39	253.59
746.71	253.19
747.04	252.99
747.37	252.67
747.70	252.40
748.03	252.01
748.36	251.75
748.68	251.56
749.01	251.27
749.34	250.94
749.67	250.58
750.00	250.38
750.33	250.28
750.65	250.00
750.98	249.42
751.31	249.19
751.64	248.94
751.97	248.84
752.29	248.67
752.62	248.31
752.95	248.06
753.28	247.86
753.60	247.70
753.93	247.36
754.26	247.17
754.59	246.98
754.91	246.74
755.24	246.43
755.57	246.20
755.90	245.90
756.22	245.73
756.55	245.54
756.88	245.29
757.20	245.02
757.53	244.90
757.86	244.82
758.19	244.71
758.51	244.43
758.84	244.17
759.17	243.90
759.49	243.73
759.82	243.73
760.15	243.62
760.47	243.39
760.80	243.22
761.13	243.06
761.45	242.86
761.78	242.79
762.11	242.60
762.43	242.34
762.76	242.15
763.08	242.00
763.41	241.80
763.74	241.63
764.06	241.52
764.39	241.34
764.71	241.12
765.04	240.88
765.37	240.83
765.69	240.67
766.02	240.57
766.34	240.37
766.67	240.12
767.00	239.93
767.32	239.89
767.65	239.82
767.97	239.65
768.30	239.54
768.62	239.41
768.95	239.38
769.27	239.30
769.60	239.27
769.92	239.09
770.25	238.98
770.57	238.81
770.90	238.62
771.22	238.39
771.55	238.36
771.87	238.22
772.20	238.02
772.52	238.06
772.85	238.12
773.17	238.04
773.50	237.92
773.82	237.89
774.15	237.80
774.47	237.70
774.80	237.60
775.12	237.49
775.45	237.30
775.77	237.15
776.09	237.06
776.42	236.93
776.74	236.80
777.07	236.70
777.39	236.69
777.72	236.60
778.04	236.66
778.36	236.49
778.69	236.48
779.01	236.47
779.33	236.31
779.66	236.04
779.98	235.95
780.31	236.03
780.63	236.02
780.95	235.96
781.28	235.90
781.60	235.80
781.92	235.69
782.25	235.69
782.57	235.71
782.89	235.72
783.22	235.73
783.54	235.78
783.86	235.85
784.19	235.78
784.51	235.73
784.83	235.50
785.16	235.46
785.48	235.37
785.80	235.21
786.12	235.08
786.45	235.02
786.77	234.95
787.09	234.74
787.42	234.47
787.74	234.41
