SpectraSuite Data File
++++++++++++++++++++++++++++++++++++
Date: Fri Feb 01 14:41:49 EST 2013
User: group
Dark Spectrum Present: No
Reference Spectrum Present: No
Number of Sampled Component Spectra: 1
Spectrometers: USB2E7196
Integration Time (usec): 70000 (USB2E7196)
Spectra Averaged: 10 (USB2E7196)
Boxcar Smoothing: 10 (USB2E7196)
Correct for Electrical Dark: No (USB2E7196)
Strobe/Lamp Enabled: No (USB2E7196)
Correct for Detector Non-linearity: No (USB2E7196)
Correct for Stray Light: No (USB2E7196)
Number of Pixels in Processed Spectrum: 2048
>>>>>Begin Processed Spectral Data<<<<<
339.09	0.00
339.48	216.90
339.86	218.60
340.24	218.10
340.63	220.50
341.01	224.20
341.39	225.60
341.78	224.20
342.16	227.70
342.54	226.80
342.93	215.03
343.31	225.92
343.69	226.53
344.07	226.95
344.46	227.42
344.84	227.84
345.22	228.00
345.60	228.11
345.99	228.36
346.37	228.46
346.75	228.57
347.13	228.68
347.52	228.65
347.90	228.82
348.28	228.81
348.66	228.91
349.05	228.86
349.43	228.97
349.81	229.04
350.19	229.24
350.57	229.31
350.96	229.36
351.34	229.47
351.72	229.49
352.10	229.63
352.48	229.64
352.87	229.72
353.25	229.82
353.63	229.87
354.01	229.90
354.39	229.88
354.77	229.97
355.15	230.01
355.54	230.07
355.92	230.10
356.30	230.14
356.68	230.37
357.06	230.43
357.44	230.37
357.82	230.46
358.20	230.46
358.58	230.56
358.97	230.70
359.35	230.77
359.73	230.87
360.11	230.93
360.49	231.06
360.87	230.97
361.25	231.04
361.63	231.21
362.01	231.32
362.39	231.46
362.77	231.43
363.15	231.52
363.53	231.56
363.91	231.53
364.29	231.52
364.67	231.23
365.05	231.23
365.43	231.27
365.81	231.35
366.19	231.44
366.57	231.47
366.95	231.28
367.33	231.19
367.71	231.06
368.09	231.00
368.47	230.99
368.85	231.06
369.23	231.08
369.61	230.97
369.99	230.95
370.37	230.90
370.75	230.97
371.13	230.84
371.51	230.69
371.89	230.64
372.27	230.62
372.65	230.72
373.03	230.77
373.41	230.77
373.78	230.55
374.16	230.31
374.54	230.15
374.92	230.18
375.30	230.11
375.68	230.08
376.06	230.00
376.44	229.90
376.82	229.79
377.19	229.69
377.57	229.56
377.95	229.32
378.33	229.17
378.71	229.01
379.09	229.00
379.47	228.98
379.84	228.89
380.22	228.80
380.60	228.60
380.98	228.43
381.36	228.35
381.73	228.29
382.11	228.28
382.49	228.21
382.87	228.10
383.25	227.96
383.62	228.11
384.00	228.05
384.38	227.95
384.76	228.06
385.13	228.04
385.51	227.95
385.89	227.99
386.27	227.94
386.64	227.91
387.02	227.85
387.40	227.78
387.78	227.67
388.15	227.55
388.53	227.57
388.91	227.50
389.29	227.41
389.66	227.41
390.04	227.40
390.42	227.48
390.79	227.46
391.17	227.55
391.55	227.30
391.92	227.28
392.30	227.32
392.68	227.20
393.05	227.23
393.43	227.27
393.81	227.28
394.18	227.38
394.56	227.32
394.94	227.39
395.31	227.43
395.69	227.67
396.06	227.78
396.44	227.78
396.82	227.94
397.19	228.11
397.57	228.20
397.95	228.37
398.32	228.38
398.70	228.46
399.07	228.58
399.45	228.80
399.82	228.92
400.20	229.07
400.58	229.19
400.95	229.25
401.33	229.42
401.70	229.67
402.08	229.73
402.45	229.97
402.83	230.15
403.20	230.44
403.58	230.58
403.95	230.73
404.33	231.02
404.71	231.19
405.08	231.51
405.46	231.76
405.83	231.93
406.21	232.12
406.58	232.36
406.96	232.59
407.33	232.79
407.70	233.05
408.08	233.32
408.45	233.69
408.83	233.99
409.20	234.38
409.58	234.63
409.95	235.01
410.33	235.36
410.70	235.73
411.08	236.08
411.45	236.45
411.82	236.86
412.20	237.35
412.57	238.01
412.95	238.41
413.32	238.89
413.69	239.47
414.07	240.11
414.44	240.86
414.82	241.55
415.19	242.34
415.56	243.16
415.94	244.07
416.31	244.91
416.68	245.82
417.06	246.76
417.43	247.70
417.81	248.78
418.18	250.02
418.55	251.12
418.93	252.45
419.30	253.69
419.67	255.17
420.04	256.44
420.42	257.80
420.79	259.45
421.16	261.18
421.54	262.98
421.91	264.65
422.28	266.43
422.66	268.26
423.03	270.15
423.40	272.09
423.77	274.00
424.15	276.02
424.52	278.09
424.89	280.37
425.26	282.59
425.64	284.59
426.01	286.79
426.38	289.18
426.75	291.48
427.13	294.00
427.50	296.54
427.87	299.28
428.24	302.00
428.61	304.31
428.99	307.05
429.36	309.97
429.73	312.90
430.10	315.80
430.47	318.73
430.85	321.67
431.22	324.81
431.59	328.31
431.96	331.59
432.33	335.29
432.70	338.64
433.08	342.70
433.45	346.53
433.82	350.12
434.19	354.29
434.56	358.20
434.93	361.99
435.30	365.67
435.68	369.88
436.05	373.82
436.42	377.95
436.79	381.56
437.16	385.42
437.53	389.60
437.90	393.68
438.27	397.50
438.64	401.58
439.01	405.39
439.38	408.48
439.75	411.55
440.13	414.93
440.50	418.12
440.87	420.74
441.24	423.60
441.61	426.80
441.98	428.90
442.35	431.81
442.72	434.34
443.09	436.84
443.46	438.06
443.83	438.88
444.20	439.60
444.57	440.73
444.94	441.08
445.31	441.42
445.68	441.94
446.05	442.04
446.42	441.37
446.79	440.53
447.16	439.83
447.53	439.25
447.90	437.57
448.27	436.09
448.64	433.72
449.01	431.85
449.37	428.83
449.74	426.02
450.11	422.73
450.48	419.32
450.85	415.78
451.22	412.64
451.59	409.65
451.96	406.71
452.33	402.97
452.70	399.47
453.07	395.35
453.43	390.96
453.80	387.04
454.17	383.25
454.54	379.69
454.91	375.79
455.28	371.86
455.65	368.28
456.02	364.83
456.38	361.75
456.75	358.00
457.12	354.86
457.49	351.73
457.86	348.43
458.23	345.67
458.59	342.70
458.96	339.75
459.33	337.13
459.70	334.40
460.07	332.22
460.43	329.77
460.80	327.41
461.17	325.31
461.54	323.15
461.91	320.91
462.27	318.74
462.64	316.88
463.01	314.98
463.38	313.16
463.74	311.04
464.11	309.24
464.48	307.70
464.85	306.00
465.21	304.65
465.58	303.23
465.95	301.55
466.32	300.22
466.68	298.80
467.05	297.49
467.42	296.21
467.78	294.88
468.15	293.65
468.52	292.80
468.88	291.55
469.25	290.44
469.62	289.59
469.98	288.60
470.35	287.70
470.72	286.87
471.08	285.86
471.45	285.04
471.82	284.27
472.18	283.37
472.55	282.78
472.92	281.95
473.28	281.21
473.65	280.51
474.02	279.87
474.38	279.35
474.75	278.82
475.11	278.27
475.48	277.71
475.85	277.27
476.21	276.86
476.58	276.46
476.94	276.01
477.31	275.70
477.67	275.41
478.04	275.27
478.41	275.10
478.77	275.00
479.14	274.80
479.50	274.71
479.87	274.63
480.23	274.47
480.60	274.52
480.96	274.47
481.33	274.65
481.69	274.76
482.06	274.90
482.42	274.97
482.79	275.17
483.15	275.46
483.52	275.87
483.88	276.03
484.25	276.50
484.61	277.11
484.98	277.58
485.34	278.24
485.71	278.68
486.07	279.23
486.44	279.81
486.80	280.69
487.17	281.48
487.53	282.48
487.90	283.45
488.26	284.40
488.62	285.45
488.99	286.41
489.35	287.51
489.72	288.85
490.08	290.24
490.44	291.81
490.81	293.39
491.17	294.95
491.54	296.88
491.90	298.61
492.26	300.49
492.63	302.48
492.99	304.55
493.36	306.93
493.72	309.29
494.08	311.84
494.45	314.45
494.81	317.25
495.17	320.21
495.54	323.37
495.90	326.61
496.26	330.01
496.63	333.70
496.99	337.52
497.35	341.47
497.72	345.72
498.08	349.89
498.44	354.40
498.80	359.02
499.17	363.70
499.53	368.86
499.89	374.10
500.26	379.66
500.62	385.28
500.98	391.15
501.34	397.53
501.71	403.99
502.07	410.77
502.43	417.66
502.79	424.79
503.16	432.18
503.52	439.98
503.88	447.86
504.24	456.16
504.60	464.69
504.97	473.65
505.33	482.83
505.69	492.66
506.05	502.61
506.41	512.78
506.78	523.38
507.14	534.07
507.50	545.15
507.86	556.73
508.22	568.49
508.59	580.60
508.95	593.02
509.31	605.85
509.67	619.02
510.03	632.56
510.39	646.29
510.75	660.42
511.12	674.80
511.48	689.76
511.84	704.80
512.20	720.18
512.56	735.97
512.92	751.93
513.28	768.26
513.64	784.65
514.00	801.31
514.37	818.58
514.73	836.19
515.09	854.16
515.45	872.01
515.81	890.47
516.17	909.50
516.53	928.47
516.89	947.45
517.25	966.44
517.61	986.02
517.97	1005.58
518.33	1025.33
518.69	1045.58
519.05	1066.15
519.41	1087.03
519.77	1108.55
520.13	1129.38
520.49	1150.70
520.85	1172.01
521.21	1193.54
521.57	1215.96
521.93	1237.49
522.29	1259.68
522.65	1281.42
523.01	1303.52
523.37	1325.50
523.73	1347.53
524.09	1369.79
524.45	1392.71
524.81	1415.64
525.17	1439.22
525.53	1463.06
525.89	1486.51
526.25	1509.97
526.61	1532.90
526.97	1556.16
527.33	1578.90
527.68	1602.99
528.04	1626.10
528.40	1649.40
528.76	1673.55
529.12	1697.28
529.48	1721.46
529.84	1744.59
530.20	1768.69
530.56	1793.02
530.91	1817.62
531.27	1842.05
531.63	1865.92
531.99	1889.26
532.35	1912.38
532.71	1934.28
533.07	1957.14
533.42	1980.02
533.78	2002.81
534.14	2026.10
534.50	2048.18
534.86	2070.57
535.21	2091.99
535.57	2114.99
535.93	2136.99
536.29	2158.15
536.65	2179.64
537.00	2200.90
537.36	2222.44
537.72	2243.11
538.08	2263.40
538.44	2282.97
538.79	2302.71
539.15	2322.33
539.51	2343.01
539.87	2363.67
540.22	2384.00
540.58	2403.65
540.94	2422.84
541.29	2441.87
541.65	2459.96
542.01	2479.00
542.37	2497.58
542.72	2516.05
543.08	2533.56
543.44	2551.67
543.79	2568.39
544.15	2585.35
544.51	2602.58
544.87	2619.40
545.22	2635.52
545.58	2651.80
545.94	2667.34
546.29	2682.17
546.65	2697.29
547.01	2711.47
547.36	2725.36
547.72	2738.81
548.07	2752.34
548.43	2765.61
548.79	2777.90
549.14	2790.87
549.50	2802.70
549.86	2814.37
550.21	2825.07
550.57	2836.40
550.92	2847.58
551.28	2858.71
551.64	2869.06
551.99	2878.74
552.35	2888.55
552.70	2898.74
553.06	2908.49
553.41	2918.80
553.77	2928.77
554.13	2938.27
554.48	2947.40
554.84	2955.91
555.19	2964.46
555.55	2972.88
555.90	2980.85
556.26	2989.09
556.61	2996.58
556.97	3003.68
557.32	3011.25
557.68	3019.13
558.03	3026.26
558.39	3032.68
558.74	3040.56
559.10	3047.41
559.45	3054.14
559.81	3061.38
560.16	3067.30
560.52	3072.79
560.87	3078.52
561.23	3083.22
561.58	3088.37
561.94	3092.68
562.29	3096.84
562.64	3101.13
563.00	3104.60
563.35	3109.74
563.71	3114.87
564.06	3119.87
564.42	3124.37
564.77	3128.83
565.12	3133.19
565.48	3136.92
565.83	3139.64
566.19	3141.99
566.54	3143.55
566.89	3145.47
567.25	3146.92
567.60	3149.52
567.96	3151.35
568.31	3151.64
568.66	3152.95
569.02	3154.21
569.37	3154.95
569.72	3156.10
570.08	3156.41
570.43	3157.14
570.78	3156.32
571.14	3154.60
571.49	3153.20
571.84	3153.66
572.20	3151.11
572.55	3148.55
572.90	3145.78
573.26	3144.19
573.61	3141.95
573.96	3139.81
574.31	3136.19
574.67	3131.93
575.02	3127.28
575.37	3123.92
575.72	3119.98
576.08	3115.98
576.43	3110.94
576.78	3106.42
577.13	3102.46
577.49	3098.75
577.84	3093.89
578.19	3088.66
578.54	3083.28
578.90	3077.14
579.25	3069.79
579.60	3063.98
579.95	3057.75
580.30	3051.02
580.66	3043.88
581.01	3036.63
581.36	3029.57
581.71	3023.95
582.06	3017.33
582.42	3010.00
582.77	3002.33
583.12	2995.10
583.47	2988.24
583.82	2981.55
584.17	2974.30
584.53	2966.46
584.88	2959.00
585.23	2951.41
585.58	2944.10
585.93	2937.17
586.28	2930.37
586.63	2923.00
586.98	2916.06
587.34	2908.96
587.69	2901.92
588.04	2894.72
588.39	2887.15
588.74	2878.36
589.09	2869.10
589.44	2860.29
589.79	2852.34
590.14	2844.60
590.49	2836.50
590.84	2827.80
591.19	2818.97
591.54	2809.39
591.89	2799.16
592.25	2789.20
592.60	2778.43
592.95	2768.15
593.30	2758.04
593.65	2747.60
594.00	2737.40
594.35	2728.19
594.70	2717.42
595.05	2707.18
595.40	2696.76
595.75	2686.34
596.10	2677.89
596.45	2669.31
596.80	2660.74
597.15	2652.11
597.50	2641.99
597.85	2632.95
598.19	2623.70
598.54	2614.57
598.89	2605.80
599.24	2597.85
599.59	2588.65
599.94	2580.46
600.29	2571.54
600.64	2562.46
600.99	2552.40
601.34	2543.21
601.69	2532.76
602.04	2523.62
602.39	2514.25
602.74	2505.73
603.08	2496.82
603.43	2487.67
603.78	2478.05
604.13	2468.42
604.48	2457.84
604.83	2448.04
605.18	2438.17
605.53	2427.30
605.87	2415.93
606.22	2405.71
606.57	2394.35
606.92	2384.25
607.27	2374.50
607.62	2364.99
607.96	2354.78
608.31	2345.38
608.66	2334.91
609.01	2323.21
609.36	2312.10
609.70	2300.48
610.05	2287.83
610.40	2276.41
610.75	2264.64
611.10	2252.82
611.44	2240.11
611.79	2229.64
612.14	2217.91
612.49	2205.12
612.83	2193.30
613.18	2181.94
613.53	2170.58
613.88	2158.77
614.22	2147.13
614.57	2134.80
614.92	2122.57
615.27	2110.80
615.61	2099.26
615.96	2087.45
616.31	2077.31
616.65	2067.54
617.00	2057.10
617.35	2046.83
617.70	2035.72
618.04	2024.10
618.39	2013.01
618.74	2003.42
619.08	1991.67
619.43	1981.29
619.78	1971.39
620.12	1961.46
620.47	1950.79
620.82	1939.57
621.16	1929.39
621.51	1918.80
621.85	1907.98
622.20	1896.84
622.55	1886.04
622.89	1875.37
623.24	1865.55
623.59	1855.43
623.93	1844.70
624.28	1834.40
624.62	1823.60
624.97	1814.00
625.32	1804.45
625.66	1794.82
626.01	1784.30
626.35	1774.07
626.70	1763.40
627.04	1753.20
627.39	1742.27
627.73	1732.06
628.08	1722.10
628.43	1711.70
628.77	1701.56
629.12	1690.91
629.46	1680.75
629.81	1669.64
630.15	1658.54
630.50	1647.65
630.84	1635.91
631.19	1624.23
631.53	1613.31
631.88	1602.63
632.22	1590.91
632.57	1580.45
632.91	1569.09
633.26	1558.18
633.60	1547.27
633.95	1537.05
634.29	1526.82
634.64	1517.24
634.98	1507.13
635.32	1497.32
635.67	1488.00
636.01	1478.29
636.36	1468.74
636.70	1459.53
637.05	1451.06
637.39	1442.54
637.73	1433.73
638.08	1425.60
638.42	1417.44
638.77	1409.10
639.11	1400.34
639.45	1391.78
639.80	1382.22
640.14	1373.54
640.49	1364.68
640.83	1356.21
641.17	1347.39
641.52	1338.16
641.86	1328.80
642.20	1320.16
642.55	1310.65
642.89	1301.60
643.23	1292.35
643.58	1284.45
643.92	1275.26
644.26	1266.17
644.61	1257.31
644.95	1248.26
645.29	1238.74
645.64	1229.28
645.98	1219.92
646.32	1211.48
646.66	1202.69
647.01	1193.97
647.35	1185.50
647.69	1176.81
648.04	1168.33
648.38	1159.46
648.72	1150.66
649.06	1142.09
649.41	1133.45
649.75	1124.80
650.09	1115.92
650.43	1107.36
650.78	1098.13
651.12	1089.66
651.46	1081.24
651.80	1072.97
652.14	1064.67
652.49	1056.54
652.83	1048.75
653.17	1040.38
653.51	1031.84
653.85	1024.00
654.20	1015.72
654.54	1007.03
654.88	998.92
655.22	990.47
655.56	982.52
655.90	974.95
656.25	967.52
656.59	959.79
656.93	952.60
657.27	945.28
657.61	937.33
657.95	929.97
658.29	922.45
658.64	914.89
658.98	907.37
659.32	899.52
659.66	892.13
660.00	884.60
660.34	877.41
660.68	870.41
661.02	862.97
661.36	856.58
661.70	850.30
662.05	844.09
662.39	838.02
662.73	831.50
663.07	825.10
663.41	818.72
663.75	812.45
664.09	806.15
664.43	799.79
664.77	794.12
665.11	788.16
665.45	782.48
665.79	776.72
666.13	770.58
666.47	764.91
666.81	758.97
667.15	753.07
667.49	747.58
667.83	742.17
668.17	736.71
668.51	730.82
668.85	725.39
669.19	719.94
669.53	714.48
669.87	708.84
670.21	703.57
670.55	698.30
670.89	693.30
671.23	688.53
671.57	683.65
671.91	678.74
672.25	673.79
672.58	668.95
672.92	664.11
673.26	659.79
673.60	655.26
673.94	650.92
674.28	646.66
674.62	642.22
674.96	637.67
675.30	633.56
675.64	629.40
675.97	624.93
676.31	620.55
676.65	616.48
676.99	612.74
677.33	608.78
677.67	604.50
678.01	600.19
678.34	596.00
678.68	592.09
679.02	587.84
679.36	584.10
679.70	580.39
680.04	576.76
680.37	572.74
680.71	569.13
681.05	565.60
681.39	561.77
681.73	558.35
682.06	555.09
682.40	551.56
682.74	548.15
683.08	544.80
683.42	541.26
683.75	537.70
684.09	534.02
684.43	530.50
684.77	527.24
685.10	524.06
685.44	520.71
685.78	517.44
686.12	514.48
686.45	511.17
686.79	507.63
687.13	504.31
687.46	501.22
687.80	497.94
688.14	494.50
688.48	491.56
688.81	488.22
689.15	485.14
689.49	482.13
689.82	478.96
690.16	475.83
690.50	473.02
690.83	470.11
691.17	467.33
691.51	464.45
691.84	461.82
692.18	458.90
692.52	456.09
692.85	453.33
693.19	450.59
693.52	447.56
693.86	444.80
694.20	442.24
694.53	439.62
694.87	437.06
695.21	434.68
695.54	432.09
695.88	429.56
696.21	426.73
696.55	424.11
696.88	421.86
697.22	419.36
697.56	417.09
697.89	414.60
698.23	412.24
698.56	409.94
698.90	407.54
699.23	405.22
699.57	402.80
699.90	400.43
700.24	398.14
700.58	396.13
700.91	394.10
701.25	391.96
701.58	389.89
701.92	387.92
702.25	385.62
702.59	383.64
702.92	381.71
703.26	380.02
703.59	378.15
703.93	376.46
704.26	374.78
704.60	372.80
704.93	371.10
705.26	369.49
705.60	367.88
705.93	366.20
706.27	364.69
706.60	363.28
706.94	361.68
707.27	360.08
707.61	358.40
707.94	356.85
708.27	355.16
708.61	353.53
708.94	351.88
709.28	350.60
709.61	349.13
709.94	347.85
710.28	346.28
710.61	344.89
710.95	343.26
711.28	342.02
711.61	340.70
711.95	339.19
712.28	337.69
712.61	336.23
712.95	334.85
713.28	333.61
713.61	332.21
713.95	330.92
714.28	329.74
714.61	328.65
714.95	327.50
715.28	326.34
715.61	325.00
715.95	323.98
716.28	322.85
716.61	321.77
716.95	320.57
717.28	319.64
717.61	318.52
717.94	317.41
718.28	316.20
718.61	315.13
718.94	314.30
719.27	313.28
719.61	312.26
719.94	311.36
720.27	310.23
720.60	309.38
720.94	308.57
721.27	307.55
721.60	306.67
721.93	305.85
722.27	305.07
722.60	304.46
722.93	303.57
723.26	302.90
723.59	302.07
723.93	301.24
724.26	300.47
724.59	299.63
724.92	298.98
725.25	298.20
725.59	297.39
725.92	296.62
726.25	295.80
726.58	295.20
726.91	294.43
727.24	293.85
727.57	293.13
727.91	292.39
728.24	291.66
728.57	290.89
728.90	290.10
729.23	289.39
729.56	288.70
729.89	287.97
730.22	287.11
730.55	286.42
730.89	285.81
731.22	284.96
731.55	284.27
731.88	283.54
732.21	282.86
732.54	282.24
732.87	281.52
733.20	280.97
733.53	280.37
733.86	279.70
734.19	278.91
734.52	278.37
734.85	277.83
735.18	277.35
735.51	276.81
735.84	276.29
736.17	275.76
736.50	275.03
736.83	274.75
737.16	274.22
737.49	273.58
737.82	273.01
738.15	272.56
738.48	272.10
738.81	271.65
739.14	271.06
739.47	270.52
739.80	270.05
740.13	269.58
740.46	269.04
740.79	268.55
741.12	268.10
741.45	267.60
741.78	267.08
742.11	266.49
742.44	266.01
742.77	265.46
743.10	264.99
743.43	264.52
743.75	263.88
744.08	263.75
744.41	263.40
744.74	262.90
745.07	262.45
745.40	262.07
745.73	261.61
746.06	261.20
746.39	260.93
746.71	260.60
747.04	260.15
747.37	259.71
747.70	259.44
748.03	259.09
748.36	258.69
748.68	258.25
749.01	257.98
749.34	257.64
749.67	257.41
750.00	257.09
750.33	256.90
750.65	256.53
750.98	255.90
751.31	255.60
751.64	255.25
751.97	255.00
752.29	254.65
752.62	254.21
752.95	254.02
753.28	253.69
753.60	253.35
753.93	253.14
754.26	252.89
754.59	252.50
754.91	252.09
755.24	251.83
755.57	251.68
755.90	251.35
756.22	251.00
756.55	250.56
756.88	250.29
757.20	249.88
757.53	249.59
757.86	249.37
758.19	249.19
758.51	249.00
758.84	248.69
759.17	248.49
759.49	248.28
759.82	248.11
760.15	247.98
760.47	247.76
760.80	247.55
761.13	247.39
761.45	247.13
761.78	247.10
762.11	246.80
762.43	246.51
762.76	246.36
763.08	246.24
763.41	246.15
763.74	245.95
764.06	245.91
764.39	245.82
764.71	245.60
765.04	245.21
765.37	245.00
765.69	244.90
766.02	244.61
766.34	244.61
766.67	244.37
767.00	244.14
767.32	244.09
767.65	244.14
767.97	243.92
768.30	243.78
768.62	243.59
768.95	243.46
769.27	243.36
769.60	243.21
769.92	243.05
770.25	242.94
770.57	242.80
770.90	242.59
771.22	242.33
771.55	242.21
771.87	242.22
772.20	242.15
772.52	242.14
772.85	242.28
773.17	242.01
773.50	241.74
773.82	241.54
774.15	241.25
774.47	240.88
774.80	240.68
775.12	240.60
775.45	240.40
775.77	240.33
776.09	240.11
776.42	239.94
776.74	239.75
777.07	239.53
777.39	239.31
777.72	239.19
778.04	239.04
778.36	238.90
778.69	238.70
779.01	238.48
779.33	238.19
779.66	237.90
779.98	237.77
780.31	237.79
780.63	237.67
780.95	237.67
781.28	237.55
781.60	237.47
781.92	237.32
782.25	237.22
782.57	236.97
782.89	236.90
783.22	236.70
783.54	236.58
783.86	236.58
784.19	236.49
784.51	236.45
784.83	236.35
785.16	236.23
785.48	236.18
785.80	236.11
