SpectraSuite Data File
++++++++++++++++++++++++++++++++++++
Date: Fri Feb 01 14:34:52 EST 2013
User: group
Dark Spectrum Present: No
Reference Spectrum Present: No
Number of Sampled Component Spectra: 1
Spectrometers: USB2E7196
Integration Time (usec): 70000 (USB2E7196)
Spectra Averaged: 10 (USB2E7196)
Boxcar Smoothing: 10 (USB2E7196)
Correct for Electrical Dark: No (USB2E7196)
Strobe/Lamp Enabled: No (USB2E7196)
Correct for Detector Non-linearity: No (USB2E7196)
Correct for Stray Light: No (USB2E7196)
Number of Pixels in Processed Spectrum: 2048
>>>>>Begin Processed Spectral Data<<<<<
339.09	0.00
339.48	215.60
339.86	216.90
340.24	218.30
340.63	220.30
341.01	225.10
341.39	222.20
341.78	222.70
342.16	225.70
342.54	225.60
342.93	214.03
343.31	224.82
343.69	225.39
344.07	225.89
344.46	226.40
344.84	226.77
345.22	226.93
345.60	227.22
345.99	227.51
346.37	227.60
346.75	227.63
347.13	227.54
347.52	227.69
347.90	227.87
348.28	227.88
348.66	227.84
349.05	227.86
349.43	227.91
349.81	227.86
350.19	227.78
350.57	227.83
350.96	227.92
351.34	228.01
351.72	228.05
352.10	228.12
352.48	228.12
352.87	228.11
353.25	228.20
353.63	228.29
354.01	228.25
354.39	228.38
354.77	228.59
355.15	228.79
355.54	228.85
355.92	228.93
356.30	228.98
356.68	229.17
357.06	229.33
357.44	229.43
357.82	229.64
358.20	229.88
358.58	230.02
358.97	230.08
359.35	230.27
359.73	230.47
360.11	230.51
360.49	230.57
360.87	230.68
361.25	230.69
361.63	230.80
362.01	230.98
362.39	231.09
362.77	231.16
363.15	231.21
363.53	231.20
363.91	231.29
364.29	231.40
364.67	231.30
365.05	231.32
365.43	231.27
365.81	231.31
366.19	231.33
366.57	231.41
366.95	231.44
367.33	231.33
367.71	231.25
368.09	231.21
368.47	231.17
368.85	231.09
369.23	231.17
369.61	230.96
369.99	230.99
370.37	230.85
370.75	230.71
371.13	230.58
371.51	230.58
371.89	230.49
372.27	230.41
372.65	230.36
373.03	230.30
373.41	230.30
373.78	230.22
374.16	230.08
374.54	229.94
374.92	229.90
375.30	229.80
375.68	229.69
376.06	229.70
376.44	229.65
376.82	229.65
377.19	229.50
377.57	229.53
377.95	229.36
378.33	229.24
378.71	229.22
379.09	229.22
379.47	229.04
379.84	228.95
380.22	228.79
380.60	228.60
380.98	228.50
381.36	228.40
381.73	228.16
382.11	228.06
382.49	227.91
382.87	227.76
383.25	227.67
383.62	227.74
384.00	227.65
384.38	227.59
384.76	227.52
385.13	227.62
385.51	227.56
385.89	227.41
386.27	227.41
386.64	227.36
387.02	227.23
387.40	227.29
387.78	227.24
388.15	227.27
388.53	227.28
388.91	227.20
389.29	227.14
389.66	227.10
390.04	227.09
390.42	227.16
390.79	227.21
391.17	227.23
391.55	227.13
391.92	227.12
392.30	227.14
392.68	227.25
393.05	227.09
393.43	227.08
393.81	227.16
394.18	227.24
394.56	227.22
394.94	227.33
395.31	227.38
395.69	227.40
396.06	227.45
396.44	227.48
396.82	227.51
397.19	227.65
397.57	227.89
397.95	228.03
398.32	228.10
398.70	228.26
399.07	228.40
399.45	228.52
399.82	228.71
400.20	228.86
400.58	228.97
400.95	229.06
401.33	229.31
401.70	229.66
402.08	229.84
402.45	230.07
402.83	230.34
403.20	230.45
403.58	230.66
403.95	230.99
404.33	231.38
404.71	231.76
405.08	232.15
405.46	232.40
405.83	232.77
406.21	233.06
406.58	233.42
406.96	233.84
407.33	234.27
407.70	234.71
408.08	235.42
408.45	235.99
408.83	236.63
409.20	237.21
409.58	237.72
409.95	238.26
410.33	239.00
410.70	239.66
411.08	240.57
411.45	241.45
411.82	242.27
412.20	243.14
412.57	244.20
412.95	245.11
413.32	246.26
413.69	247.44
414.07	248.68
414.44	249.92
414.82	251.30
415.19	252.79
415.56	254.37
415.94	255.84
416.31	257.63
416.68	259.44
417.06	261.40
417.43	263.33
417.81	265.55
418.18	267.82
418.55	270.20
418.93	272.72
419.30	275.44
419.67	278.19
420.04	281.10
420.42	284.19
420.79	287.67
421.16	291.14
421.54	294.70
421.91	298.40
422.28	302.36
422.66	306.43
423.03	310.60
423.40	314.76
423.77	319.24
424.15	323.73
424.52	328.52
424.89	333.66
425.26	338.69
425.64	343.43
426.01	348.75
426.38	354.20
426.75	359.77
427.13	365.45
427.50	371.60
427.87	377.78
428.24	383.87
428.61	389.84
428.99	396.40
429.36	403.62
429.73	410.62
430.10	417.37
430.47	424.38
430.85	431.58
431.22	439.30
431.59	447.50
431.96	455.39
432.33	463.83
432.70	472.16
433.08	481.92
433.45	491.22
433.82	500.51
434.19	510.66
434.56	520.59
434.93	529.90
435.30	539.14
435.68	549.76
436.05	560.26
436.42	570.44
436.79	579.83
437.16	589.73
437.53	600.31
437.90	611.02
438.27	621.58
438.64	632.28
439.01	642.01
439.38	651.01
439.75	659.65
440.13	669.70
440.50	679.19
440.87	686.84
441.24	694.83
441.61	703.65
441.98	710.32
442.35	718.10
442.72	726.40
443.09	734.36
443.46	739.30
443.83	742.93
444.20	746.46
444.57	751.16
444.94	753.79
445.31	756.65
445.68	759.31
446.05	761.09
446.42	761.45
446.79	761.78
447.16	761.42
447.53	761.92
447.90	759.23
448.27	756.62
448.64	752.28
449.01	749.82
449.37	743.96
449.74	738.46
450.11	731.42
450.48	723.46
450.85	715.35
451.22	708.90
451.59	702.63
451.96	696.46
452.33	687.77
452.70	680.17
453.07	670.60
453.43	661.08
453.80	651.77
454.17	642.62
454.54	634.01
454.91	624.91
455.28	615.81
455.65	607.30
456.02	598.72
456.38	591.76
456.75	582.36
457.12	574.60
457.49	566.99
457.86	559.60
458.23	553.57
458.59	546.75
458.96	539.34
459.33	532.96
459.70	526.53
460.07	521.54
460.43	515.55
460.80	510.01
461.17	505.16
461.54	499.95
461.91	494.82
462.27	489.81
462.64	485.43
463.01	480.39
463.38	475.87
463.74	471.08
464.11	466.87
464.48	463.34
464.85	459.49
465.21	456.43
465.58	453.18
465.95	448.91
466.32	445.55
466.68	442.30
467.05	438.87
467.42	435.69
467.78	432.00
468.15	428.80
468.52	426.28
468.88	423.03
469.25	420.20
469.62	418.05
469.98	415.40
470.35	413.13
470.72	411.07
471.08	408.66
471.45	406.76
471.82	404.70
472.18	402.36
472.55	400.69
472.92	398.78
473.28	397.10
473.65	395.54
474.02	393.81
474.38	392.32
474.75	390.97
475.11	389.55
475.48	388.57
475.85	387.60
476.21	386.72
476.58	385.79
476.94	385.11
477.31	384.30
477.67	383.60
478.04	382.82
478.41	382.44
478.77	382.00
479.14	381.32
479.50	381.04
479.87	381.06
480.23	380.80
480.60	380.40
480.96	380.24
481.33	380.39
481.69	380.60
482.06	380.75
482.42	380.82
482.79	380.92
483.15	381.25
483.52	381.75
483.88	382.26
484.25	382.75
484.61	383.38
484.98	384.08
485.34	384.98
485.71	386.00
486.07	386.81
486.44	387.70
486.80	388.92
487.17	390.02
487.53	391.30
487.90	392.72
488.26	394.40
488.62	396.02
488.99	397.58
489.35	399.18
489.72	401.10
490.08	403.18
490.44	405.37
490.81	407.32
491.17	409.29
491.54	411.30
491.90	413.70
492.26	415.93
492.63	418.39
492.99	420.85
493.36	423.50
493.72	426.12
494.08	428.94
494.45	431.87
494.81	434.78
495.17	437.67
495.54	440.93
495.90	443.96
496.26	447.08
496.63	450.19
496.99	453.66
497.35	456.95
497.72	460.50
498.08	463.81
498.44	467.44
498.80	471.37
499.17	475.16
499.53	478.62
499.89	482.48
500.26	486.33
500.62	490.11
500.98	494.00
501.34	498.00
501.71	502.08
502.07	505.79
502.43	509.68
502.79	513.62
503.16	517.34
503.52	521.20
503.88	525.11
504.24	529.20
504.60	532.91
504.97	536.83
505.33	540.69
505.69	544.83
506.05	548.87
506.41	552.38
506.78	556.05
507.14	559.83
507.50	563.56
507.86	567.32
508.22	571.28
508.59	574.59
508.95	577.88
509.31	581.31
509.67	584.91
510.03	588.29
510.39	591.65
510.75	595.10
511.12	598.50
511.48	601.81
511.84	605.04
512.20	608.25
512.56	611.33
512.92	614.37
513.28	617.01
513.64	619.65
514.00	622.40
514.37	625.30
514.73	627.89
515.09	630.51
515.45	632.92
515.81	635.08
516.17	637.61
516.53	640.22
516.89	642.44
517.25	644.54
517.61	646.65
517.97	648.77
518.33	650.50
518.69	652.51
519.05	654.39
519.41	656.29
519.77	658.29
520.13	660.22
520.49	661.75
520.85	663.47
521.21	665.26
521.57	667.25
521.93	668.57
522.29	670.66
522.65	672.26
523.01	673.65
523.37	675.26
523.73	676.60
524.09	677.87
524.45	679.29
524.81	681.01
525.17	682.90
525.53	684.69
525.89	686.54
526.25	687.91
526.61	689.30
526.97	690.72
527.33	692.10
527.68	693.83
528.04	695.62
528.40	697.28
528.76	698.93
529.12	700.61
529.48	702.73
529.84	704.27
530.20	706.11
530.56	708.20
530.91	710.29
531.27	712.50
531.63	714.43
531.99	716.59
532.35	718.39
532.71	720.15
533.07	722.07
533.42	724.15
533.78	726.31
534.14	728.64
534.50	730.83
534.86	733.09
535.21	734.81
535.57	737.08
535.93	739.37
536.29	741.79
536.65	743.93
537.00	746.01
537.36	748.20
537.72	750.49
538.08	752.88
538.44	755.10
538.79	757.35
539.15	759.63
539.51	762.08
539.87	764.79
540.22	767.24
540.58	770.14
540.94	772.54
541.29	775.12
541.65	777.71
542.01	780.65
542.37	783.30
542.72	786.24
543.08	788.57
543.44	791.49
543.79	794.10
544.15	797.10
544.51	800.47
544.87	803.30
545.22	806.32
545.58	809.05
545.94	811.94
546.29	814.88
546.65	817.95
547.01	820.68
547.36	823.12
547.72	826.20
548.07	828.70
548.43	831.46
548.79	834.39
549.14	837.29
549.50	839.69
549.86	842.31
550.21	845.02
550.57	848.12
550.92	850.95
551.28	853.56
551.64	856.24
551.99	858.66
552.35	861.70
552.70	864.31
553.06	867.17
553.41	869.92
553.77	872.85
554.13	875.65
554.48	878.61
554.84	881.77
555.19	884.36
555.55	887.27
555.90	890.00
556.26	892.92
556.61	895.37
556.97	898.30
557.32	901.14
557.68	903.99
558.03	906.37
558.39	908.76
558.74	911.96
559.10	914.41
559.45	917.02
559.81	919.60
560.16	922.25
560.52	924.70
560.87	927.28
561.23	929.40
561.58	932.29
561.94	934.60
562.29	936.80
562.64	939.13
563.00	941.27
563.35	944.13
563.71	946.58
564.06	949.16
564.42	951.55
564.77	954.19
565.12	956.43
565.48	959.10
565.83	961.59
566.19	963.57
566.54	965.86
566.89	967.88
567.25	970.16
567.60	972.56
567.96	974.92
568.31	976.99
568.66	978.95
569.02	980.37
569.37	982.16
569.72	984.12
570.08	985.73
570.43	987.39
570.78	988.57
571.14	989.76
571.49	991.27
571.84	992.74
572.20	993.63
572.55	994.97
572.90	995.94
573.26	997.12
573.61	998.14
573.96	999.02
574.31	999.74
574.67	1000.07
575.02	1000.08
575.37	1000.23
575.72	1000.37
576.08	1000.98
576.43	1001.20
576.78	1001.48
577.13	1001.62
577.49	1002.14
577.84	1002.20
578.19	1002.65
578.54	1002.70
578.90	1002.51
579.25	1002.05
579.60	1001.89
579.95	1001.22
580.30	1000.67
580.66	999.86
581.01	999.19
581.36	998.43
581.71	997.91
582.06	997.37
582.42	996.72
582.77	996.06
583.12	995.35
583.47	994.67
583.82	993.89
584.17	992.96
584.53	992.24
584.88	991.23
585.23	990.32
585.58	988.96
585.93	987.74
586.28	986.91
586.63	985.95
586.98	984.84
587.34	983.79
587.69	982.64
588.04	981.68
588.39	980.54
588.74	979.04
589.09	977.58
589.44	976.16
589.79	974.83
590.14	973.48
590.49	972.01
590.84	970.23
591.19	968.80
591.54	966.68
591.89	964.30
592.25	962.61
592.60	960.44
592.95	958.26
593.30	956.46
593.65	953.99
594.00	951.60
594.35	950.22
594.70	947.74
595.05	945.73
595.40	943.29
595.75	940.99
596.10	939.12
596.45	937.41
596.80	935.41
597.15	933.30
597.50	930.91
597.85	929.09
598.19	927.25
598.54	925.15
598.89	923.59
599.24	922.15
599.59	919.90
599.94	917.99
600.29	915.94
600.64	913.43
600.99	911.22
601.34	909.33
601.69	906.32
602.04	904.32
602.39	902.14
602.74	899.98
603.08	897.85
603.43	895.87
603.78	893.39
604.13	890.94
604.48	888.66
604.83	886.53
605.18	884.03
605.53	881.22
605.87	878.44
606.22	875.92
606.57	873.10
606.92	870.31
607.27	867.86
607.62	865.67
607.96	863.41
608.31	861.08
608.66	858.22
609.01	855.41
609.36	852.47
609.70	849.35
610.05	846.27
610.40	843.07
610.75	839.86
611.10	836.77
611.44	833.45
611.79	830.26
612.14	827.09
612.49	823.39
612.83	820.23
613.18	817.15
613.53	813.72
613.88	810.31
614.22	807.08
614.57	803.65
614.92	800.20
615.27	796.87
615.61	793.18
615.96	790.18
616.31	787.40
616.65	784.66
617.00	781.84
617.35	779.28
617.70	776.33
618.04	773.04
618.39	769.98
618.74	767.01
619.08	763.91
619.43	760.67
619.78	757.85
620.12	754.66
620.47	751.48
620.82	748.40
621.16	745.58
621.51	742.73
621.85	739.55
622.20	736.23
622.55	733.26
622.89	730.56
623.24	727.42
623.59	724.40
623.93	721.48
624.28	718.34
624.62	714.98
624.97	712.12
625.32	709.42
625.66	706.58
626.01	703.86
626.35	700.85
626.70	697.95
627.04	695.10
627.39	692.14
627.73	689.56
628.08	686.92
628.43	683.83
628.77	680.89
629.12	677.99
629.46	675.20
629.81	672.15
630.15	669.05
630.50	666.07
630.84	662.76
631.19	659.53
631.53	656.35
631.88	653.37
632.22	650.11
632.57	647.10
632.91	643.86
633.26	640.77
633.60	637.78
633.95	634.78
634.29	632.11
634.64	629.55
634.98	626.50
635.32	623.65
635.67	621.18
636.01	618.53
636.36	616.07
636.70	613.55
637.05	611.01
637.39	608.55
637.73	606.08
638.08	603.95
638.42	601.65
638.77	599.42
639.11	596.82
639.45	594.37
639.80	591.78
640.14	589.30
640.49	586.76
640.83	584.24
641.17	581.96
641.52	579.37
641.86	577.00
642.20	574.72
642.55	572.26
642.89	569.57
643.23	567.04
643.58	564.69
643.92	561.93
644.26	559.47
644.61	557.23
644.95	554.69
645.29	551.92
645.64	549.23
645.98	546.62
646.32	544.20
646.66	541.79
647.01	539.26
647.35	536.91
647.69	534.59
648.04	532.44
648.38	529.77
648.72	527.21
649.06	524.45
649.41	521.60
649.75	518.82
650.09	516.26
650.43	513.72
650.78	511.00
651.12	508.58
651.46	506.01
651.80	503.50
652.14	501.25
652.49	498.91
652.83	496.70
653.17	494.40
653.51	492.05
653.85	489.55
654.20	487.28
654.54	484.87
654.88	482.46
655.22	479.74
655.56	477.48
655.90	475.13
656.25	472.82
656.59	470.84
656.93	468.89
657.27	466.85
657.61	464.60
657.95	462.59
658.29	460.60
658.64	458.50
658.98	456.24
659.32	453.85
659.66	451.64
660.00	449.34
660.34	447.27
660.68	445.38
661.02	443.31
661.36	441.42
661.70	439.41
662.05	437.46
662.39	435.78
662.73	433.95
663.07	432.09
663.41	430.46
663.75	428.60
664.09	426.68
664.43	424.78
664.77	423.03
665.11	421.18
665.45	419.45
665.79	417.73
666.13	415.86
666.47	414.29
666.81	412.52
667.15	410.90
667.49	409.25
667.83	407.41
668.17	405.75
668.51	403.97
668.85	402.20
669.19	400.50
669.53	398.72
669.87	397.08
670.21	395.61
670.55	394.01
670.89	392.53
671.23	391.10
671.57	389.60
671.91	388.11
672.25	386.60
672.58	385.15
672.92	383.91
673.26	382.71
673.60	381.27
673.94	380.04
674.28	378.72
674.62	377.47
674.96	376.21
675.30	375.10
675.64	373.85
675.97	372.80
676.31	371.60
676.65	370.37
676.99	369.16
677.33	367.75
677.67	366.38
678.01	365.12
678.34	363.92
678.68	362.79
679.02	361.54
679.36	360.38
679.70	359.08
680.04	357.62
680.37	356.27
680.71	355.08
681.05	353.94
681.39	352.82
681.73	351.48
682.06	350.39
682.40	349.25
682.74	348.09
683.08	346.93
683.42	345.72
683.75	344.77
684.09	343.69
684.43	342.77
684.77	341.80
685.10	340.70
685.44	339.48
685.78	338.38
686.12	337.25
686.45	336.07
686.79	335.07
687.13	334.13
687.46	333.03
687.80	331.98
688.14	330.75
688.48	329.60
688.81	328.58
689.15	327.49
689.49	326.44
689.82	325.49
690.16	324.33
690.50	323.43
690.83	322.35
691.17	321.37
691.51	320.20
691.84	319.19
692.18	318.18
692.52	317.18
692.85	316.19
693.19	315.30
693.52	314.44
693.86	313.39
694.20	312.48
694.53	311.72
694.87	310.76
695.21	309.92
695.54	309.00
695.88	308.20
696.21	307.24
696.55	306.36
696.88	305.47
697.22	304.72
697.56	303.92
697.89	303.05
698.23	302.22
698.56	301.54
698.90	300.78
699.23	300.00
699.57	299.33
699.90	298.60
700.24	297.73
700.58	296.99
700.91	296.30
701.25	295.58
701.58	294.99
701.92	294.39
702.25	293.68
702.59	293.18
702.92	292.40
703.26	291.76
703.59	291.10
703.93	290.52
704.26	289.81
704.60	289.16
704.93	288.60
705.26	287.82
705.60	287.23
705.93	286.59
706.27	285.95
706.60	285.38
706.94	284.78
707.27	284.22
707.61	283.57
707.94	283.02
708.27	282.45
708.61	281.76
708.94	281.18
709.28	280.69
709.61	280.03
709.94	279.57
710.28	279.01
710.61	278.53
710.95	277.69
711.28	277.26
711.61	276.67
711.95	276.15
712.28	275.79
712.61	275.00
712.95	274.59
713.28	274.13
713.61	273.55
713.95	273.02
714.28	272.62
714.61	272.14
714.95	271.70
715.28	271.09
715.61	270.49
715.95	269.98
716.28	269.41
716.61	268.94
716.95	268.47
717.28	268.12
717.61	267.69
717.94	267.37
718.28	266.86
718.61	266.41
718.94	266.04
719.27	265.59
719.61	265.38
719.94	264.91
720.27	264.46
720.60	264.12
720.94	263.80
721.27	263.44
721.60	263.17
721.93	262.70
722.27	262.58
722.60	262.25
722.93	261.82
723.26	261.49
723.59	261.25
723.93	260.90
724.26	260.61
724.59	260.26
724.92	260.01
725.25	259.77
725.59	259.54
725.92	259.15
726.25	258.85
726.58	258.54
726.91	258.29
727.24	258.15
727.57	257.81
727.91	257.47
728.24	257.21
728.57	256.86
728.90	256.67
729.23	256.21
729.56	256.12
729.89	256.02
730.22	255.78
730.55	255.40
730.89	255.18
731.22	254.88
731.55	254.61
731.88	254.41
732.21	254.20
732.54	253.97
732.87	253.89
733.20	253.52
733.53	253.33
733.86	253.09
734.19	252.78
734.52	252.71
734.85	252.63
735.18	252.30
735.51	252.12
735.84	251.99
736.17	251.77
736.50	251.43
736.83	251.32
737.16	251.14
737.49	251.02
737.82	250.79
738.15	250.54
738.48	250.37
738.81	250.07
739.14	249.76
739.47	249.52
739.80	249.25
740.13	249.27
740.46	249.03
740.79	248.88
741.12	248.70
741.45	248.39
741.78	248.11
742.11	247.95
742.44	247.74
742.77	247.50
743.10	247.25
743.43	246.98
743.75	246.60
744.08	246.58
744.41	246.25
744.74	246.03
745.07	245.85
745.40	245.62
745.73	245.55
746.06	245.42
746.39	245.20
746.71	245.05
747.04	244.71
747.37	244.56
747.70	244.34
748.03	244.25
748.36	244.02
748.68	243.76
749.01	243.54
749.34	243.40
749.67	243.20
750.00	243.15
750.33	243.18
750.65	242.94
750.98	242.61
751.31	242.50
751.64	242.39
751.97	242.28
752.29	242.17
752.62	241.87
752.95	241.68
753.28	241.50
753.60	241.14
753.93	241.07
754.26	240.87
754.59	240.76
754.91	240.44
755.24	240.25
755.57	240.15
755.90	240.12
756.22	239.93
756.55	239.75
756.88	239.56
757.20	239.19
757.53	239.09
757.86	238.89
758.19	238.71
758.51	238.52
758.84	238.24
759.17	238.04
759.49	238.01
759.82	237.97
760.15	237.84
760.47	237.86
760.80	237.70
761.13	237.53
761.45	237.25
761.78	237.17
762.11	237.08
762.43	237.02
762.76	236.90
763.08	236.74
763.41	236.66
763.74	236.52
764.06	236.50
764.39	236.35
764.71	236.22
765.04	236.23
765.37	236.14
765.69	236.11
766.02	236.02
766.34	235.90
766.67	235.72
767.00	235.74
767.32	235.71
767.65	235.78
767.97	235.77
768.30	235.79
768.62	235.58
768.95	235.56
769.27	235.38
769.60	235.22
769.92	235.12
770.25	235.07
770.57	235.02
770.90	234.99
771.22	234.96
771.55	234.96
771.87	234.87
772.20	234.86
772.52	234.99
772.85	235.12
773.17	235.09
773.50	235.08
773.82	235.05
774.15	235.00
774.47	234.81
774.80	234.77
775.12	234.70
775.45	234.74
775.77	234.68
776.09	234.63
776.42	234.60
776.74	234.68
777.07	234.66
777.39	234.54
777.72	234.36
778.04	234.40
778.36	234.40
778.69	234.35
779.01	234.24
779.33	234.01
779.66	233.87
779.98	233.80
780.31	233.74
780.63	233.72
780.95	233.66
781.28	233.59
781.60	233.46
781.92	233.45
782.25	233.43
782.57	233.31
782.89	233.32
783.22	233.24
783.54	233.16
783.86	233.10
784.19	233.14
784.51	233.30
784.83	233.24
785.16	233.18
785.48	233.18
785.80	233.09
786.12	233.07
786.45	232.92
786.77	232.80
787.09	232.76
787.42	232.76
787.74	232.69
788.06	232.62
788.38	232.64
788.71	232.51
789.03	232.50
789.35	232.66
789.67	232.56
789.99	232.55
790.32	232.47
790.64	232.42
790.96	232.51
791.28	232.20
791.61	232.04
791.93	231.92
792.25	231.75
792.57	231.87
792.89	231.72
793.21	231.72
793.54	231.69
793.86	231.55
