SpectraSuite Data File
++++++++++++++++++++++++++++++++++++
Date: Fri Feb 01 14:37:36 EST 2013
User: group
Dark Spectrum Present: No
Reference Spectrum Present: No
Number of Sampled Component Spectra: 1
Spectrometers: USB2E7196
Integration Time (usec): 70000 (USB2E7196)
Spectra Averaged: 10 (USB2E7196)
Boxcar Smoothing: 10 (USB2E7196)
Correct for Electrical Dark: No (USB2E7196)
Strobe/Lamp Enabled: No (USB2E7196)
Correct for Detector Non-linearity: No (USB2E7196)
Correct for Stray Light: No (USB2E7196)
Number of Pixels in Processed Spectrum: 2048
>>>>>Begin Processed Spectral Data<<<<<
339.09	0.00
339.48	215.80
339.86	216.70
340.24	217.90
340.63	219.10
341.01	223.40
341.39	223.60
341.78	222.90
342.16	226.90
342.54	225.10
342.93	214.50
343.31	225.38
343.69	225.95
344.07	226.40
344.46	226.90
344.84	227.33
345.22	227.63
345.60	227.90
345.99	228.14
346.37	228.18
346.75	228.31
347.13	228.28
347.52	228.34
347.90	228.47
348.28	228.50
348.66	228.60
349.05	228.50
349.43	228.54
349.81	228.72
350.19	228.68
350.57	228.74
350.96	228.82
351.34	228.89
351.72	229.01
352.10	229.18
352.48	229.29
352.87	229.37
353.25	229.36
353.63	229.27
354.01	229.43
354.39	229.53
354.77	229.59
355.15	229.83
355.54	229.78
355.92	229.82
356.30	229.83
356.68	230.04
357.06	230.19
357.44	230.18
357.82	230.04
358.20	230.19
358.58	230.20
358.97	230.30
359.35	230.35
359.73	230.39
360.11	230.37
360.49	230.37
360.87	230.31
361.25	230.35
361.63	230.56
362.01	230.47
362.39	230.46
362.77	230.49
363.15	230.47
363.53	230.58
363.91	230.59
364.29	230.63
364.67	230.47
365.05	230.41
365.43	230.55
365.81	230.66
366.19	230.68
366.57	230.74
366.95	230.56
367.33	230.40
367.71	230.27
368.09	230.28
368.47	230.20
368.85	230.20
369.23	230.20
369.61	230.09
369.99	230.11
370.37	230.08
370.75	230.14
371.13	230.04
371.51	229.88
371.89	229.76
372.27	229.60
372.65	229.42
373.03	229.37
373.41	229.19
373.78	229.06
374.16	228.89
374.54	228.84
374.92	228.75
375.30	228.65
375.68	228.60
376.06	228.50
376.44	228.41
376.82	228.36
377.19	228.15
377.57	228.00
377.95	227.81
378.33	227.78
378.71	227.60
379.09	227.58
379.47	227.51
379.84	227.49
380.22	227.50
380.60	227.44
380.98	227.40
381.36	227.30
381.73	227.19
382.11	227.20
382.49	226.95
382.87	226.81
383.25	226.90
383.62	227.10
384.00	226.94
384.38	226.87
384.76	226.84
385.13	226.96
385.51	227.01
385.89	226.98
386.27	226.93
386.64	226.99
387.02	226.87
387.40	226.80
387.78	226.68
388.15	226.67
388.53	226.52
388.91	226.49
389.29	226.51
389.66	226.55
390.04	226.59
390.42	226.68
390.79	226.76
391.17	226.70
391.55	226.51
391.92	226.66
392.30	226.69
392.68	226.69
393.05	226.80
393.43	226.80
393.81	226.94
394.18	226.92
394.56	226.87
394.94	227.03
395.31	227.07
395.69	227.19
396.06	227.30
396.44	227.51
396.82	227.55
397.19	227.69
397.57	227.77
397.95	227.71
398.32	227.75
398.70	227.86
399.07	228.11
399.45	228.13
399.82	228.19
400.20	228.34
400.58	228.53
400.95	228.52
401.33	228.62
401.70	228.82
402.08	228.88
402.45	228.93
402.83	229.06
403.20	229.32
403.58	229.53
403.95	229.63
404.33	229.83
404.71	230.10
405.08	230.45
405.46	230.69
405.83	231.04
406.21	231.21
406.58	231.55
406.96	231.68
407.33	231.85
407.70	232.06
408.08	232.43
408.45	232.68
408.83	232.99
409.20	233.25
409.58	233.50
409.95	233.95
410.33	234.34
410.70	234.64
411.08	235.03
411.45	235.50
411.82	235.87
412.20	236.25
412.57	236.80
412.95	237.00
413.32	237.59
413.69	238.06
414.07	238.69
414.44	239.27
414.82	239.93
415.19	240.79
415.56	241.65
415.94	242.40
416.31	243.36
416.68	244.26
417.06	245.36
417.43	246.37
417.81	247.49
418.18	248.80
418.55	250.03
418.93	251.44
419.30	252.72
419.67	254.24
420.04	255.70
420.42	257.23
420.79	259.25
421.16	261.02
421.54	262.95
421.91	265.01
422.28	267.05
422.66	269.24
423.03	271.48
423.40	273.72
423.77	276.11
424.15	278.44
424.52	280.90
424.89	283.68
425.26	286.29
425.64	288.76
426.01	291.38
426.38	294.24
426.75	297.05
427.13	300.02
427.50	303.23
427.87	306.51
428.24	309.81
428.61	312.83
428.99	316.32
429.36	319.85
429.73	323.26
430.10	326.74
430.47	330.44
430.85	334.24
431.22	338.20
431.59	342.41
431.96	346.41
432.33	350.98
432.70	355.17
433.08	360.06
433.45	364.76
433.82	369.47
434.19	374.84
434.56	380.11
434.93	384.98
435.30	389.62
435.68	395.06
436.05	400.33
436.42	405.55
436.79	410.24
437.16	415.46
437.53	420.88
437.90	426.27
438.27	431.50
438.64	437.01
439.01	442.08
439.38	446.61
439.75	451.01
440.13	455.91
440.50	460.65
440.87	464.72
441.24	468.97
441.61	473.47
441.98	476.71
442.35	480.55
442.72	484.60
443.09	488.60
443.46	491.03
443.83	492.73
444.20	494.18
444.57	496.26
444.94	497.55
445.31	498.83
445.68	500.26
446.05	501.07
446.42	500.96
446.79	500.95
447.16	500.78
447.53	500.88
447.90	499.51
448.27	498.29
448.64	496.09
449.01	494.43
449.37	491.41
449.74	488.56
450.11	484.80
450.48	480.77
450.85	476.62
451.22	473.03
451.59	469.63
451.96	466.59
452.33	462.20
452.70	458.32
453.07	453.56
453.43	448.49
453.80	443.70
454.17	439.02
454.54	434.50
454.91	429.54
455.28	424.75
455.65	420.23
456.02	415.81
456.38	411.86
456.75	407.07
457.12	403.06
457.49	398.97
457.86	395.22
458.23	392.01
458.59	388.38
458.96	384.71
459.33	381.53
459.70	378.33
460.07	375.73
460.43	372.50
460.80	369.64
461.17	366.96
461.54	364.24
461.91	361.63
462.27	358.97
462.64	356.77
463.01	354.33
463.38	351.92
463.74	349.24
464.11	347.09
464.48	345.24
464.85	343.17
465.21	341.68
465.58	339.85
465.95	337.73
466.32	336.03
466.68	334.22
467.05	332.45
467.42	330.58
467.78	328.68
468.15	326.93
468.52	325.52
468.88	323.85
469.25	322.37
469.62	321.00
469.98	319.65
470.35	318.40
470.72	317.10
471.08	315.88
471.45	314.74
471.82	313.66
472.18	312.37
472.55	311.38
472.92	310.17
473.28	309.14
473.65	308.08
474.02	307.02
474.38	306.19
474.75	305.36
475.11	304.50
475.48	303.94
475.85	303.32
476.21	302.70
476.58	302.21
476.94	301.71
477.31	301.11
477.67	300.60
478.04	300.06
478.41	299.62
478.77	299.31
479.14	298.81
479.50	298.33
479.87	298.08
480.23	297.85
480.60	297.44
480.96	297.13
481.33	296.95
481.69	296.75
482.06	296.56
482.42	296.39
482.79	296.30
483.15	296.15
483.52	296.14
483.88	296.03
484.25	295.97
484.61	295.93
484.98	296.00
485.34	296.15
485.71	296.45
486.07	296.69
486.44	296.60
486.80	296.81
487.17	297.20
487.53	297.60
487.90	297.93
488.26	298.46
488.62	298.94
488.99	299.39
489.35	299.82
489.72	300.29
490.08	300.74
490.44	301.09
490.81	301.48
491.17	301.92
491.54	302.47
491.90	302.98
492.26	303.47
492.63	304.04
492.99	304.53
493.36	304.97
493.72	305.57
494.08	306.22
494.45	306.91
494.81	307.50
495.17	308.01
495.54	308.52
495.90	309.09
496.26	309.66
496.63	310.26
496.99	311.04
497.35	311.72
497.72	312.49
498.08	313.27
498.44	314.09
498.80	314.87
499.17	315.63
499.53	316.27
499.89	316.99
500.26	317.56
500.62	318.19
500.98	318.83
501.34	319.32
501.71	320.02
502.07	320.55
502.43	321.06
502.79	321.55
503.16	322.13
503.52	322.60
503.88	323.15
504.24	323.54
504.60	323.90
504.97	324.37
505.33	324.62
505.69	324.98
506.05	325.34
506.41	325.61
506.78	325.80
507.14	326.06
507.50	326.31
507.86	326.62
508.22	326.93
508.59	327.10
508.95	327.27
509.31	327.47
509.67	327.66
510.03	327.88
510.39	328.10
510.75	328.08
511.12	328.21
511.48	328.13
511.84	328.26
512.20	328.24
512.56	328.22
512.92	328.41
513.28	328.55
513.64	328.57
514.00	328.65
514.37	328.84
514.73	329.02
515.09	329.10
515.45	329.28
515.81	329.37
516.17	329.57
516.53	329.79
516.89	329.85
517.25	329.92
517.61	330.14
517.97	330.36
518.33	330.96
518.69	331.36
519.05	331.80
519.41	332.20
519.77	332.82
520.13	333.46
520.49	333.91
520.85	334.40
521.21	334.91
521.57	335.67
521.93	336.32
522.29	337.10
522.65	337.96
523.01	338.92
523.37	339.75
523.73	340.63
524.09	341.58
524.45	342.85
524.81	344.16
525.17	345.51
525.53	347.00
525.89	348.27
526.25	349.83
526.61	351.36
526.97	353.04
527.33	354.73
527.68	356.47
528.04	358.30
528.40	360.39
528.76	362.70
529.12	364.75
529.48	366.93
529.84	369.05
530.20	371.33
530.56	373.66
530.91	376.38
531.27	379.12
531.63	381.89
531.99	384.68
532.35	387.61
532.71	390.30
533.07	393.15
533.42	396.40
533.78	399.40
534.14	402.72
534.50	405.96
534.86	409.30
535.21	412.67
535.57	416.31
535.93	419.77
536.29	423.30
536.65	426.99
537.00	430.80
537.36	434.79
537.72	438.61
538.08	442.62
538.44	446.38
538.79	450.48
539.15	454.69
539.51	458.73
539.87	462.99
540.22	467.31
540.58	471.64
540.94	475.76
541.29	480.03
541.65	484.35
542.01	488.81
542.37	493.34
542.72	497.94
543.08	502.64
543.44	507.34
543.79	511.76
544.15	516.49
544.51	521.40
544.87	526.21
545.22	531.12
545.58	535.74
545.94	540.56
546.29	545.06
546.65	549.67
547.01	554.45
547.36	559.35
547.72	564.16
548.07	569.25
548.43	574.10
548.79	578.99
549.14	583.56
549.50	588.31
549.86	593.22
550.21	598.05
550.57	602.78
550.92	607.50
551.28	612.70
551.64	617.51
551.99	622.26
552.35	626.83
552.70	631.51
553.06	636.23
553.41	641.33
553.77	646.52
554.13	651.40
554.48	656.30
554.84	660.97
555.19	665.96
555.55	670.65
555.90	675.51
556.26	680.20
556.61	685.08
556.97	689.73
557.32	694.46
557.68	699.23
558.03	703.98
558.39	708.79
558.74	713.47
559.10	718.11
559.45	722.90
559.81	727.86
560.16	732.39
560.52	737.17
560.87	741.74
561.23	745.95
561.58	750.62
561.94	755.13
562.29	759.21
562.64	763.49
563.00	767.64
563.35	772.12
563.71	776.66
564.06	781.06
564.42	785.36
564.77	789.45
565.12	793.46
565.48	797.52
565.83	801.37
566.19	805.23
566.54	809.16
566.89	812.80
567.25	816.48
567.60	820.52
567.96	824.54
568.31	828.14
568.66	831.96
569.02	835.35
569.37	838.57
569.72	842.36
570.08	845.20
570.43	848.44
570.78	851.42
571.14	854.25
571.49	857.46
571.84	860.78
572.20	863.60
572.55	866.53
572.90	869.18
573.26	871.94
573.61	874.42
573.96	876.66
574.31	878.54
574.67	880.56
575.02	882.31
575.37	883.89
575.72	885.43
576.08	887.42
576.43	889.25
576.78	891.21
577.13	893.12
577.49	895.21
577.84	896.74
578.19	898.36
578.54	899.88
578.90	900.55
579.25	901.42
579.60	902.38
579.95	903.14
580.30	903.81
580.66	904.76
581.01	905.16
581.36	905.96
581.71	907.23
582.06	907.97
582.42	908.61
582.77	909.23
583.12	909.99
583.47	910.60
583.82	911.10
584.17	911.48
584.53	911.55
584.88	911.88
585.23	912.31
585.58	912.38
585.93	912.58
586.28	913.35
586.63	913.60
586.98	914.08
587.34	914.34
587.69	914.59
588.04	914.49
588.39	914.96
588.74	914.71
589.09	914.47
589.44	914.39
589.79	914.52
590.14	914.26
590.49	913.90
590.84	913.08
591.19	912.82
591.54	911.90
591.89	911.04
592.25	910.42
592.60	909.45
592.95	908.28
593.30	907.44
593.65	906.55
594.00	905.47
594.35	904.72
594.70	903.53
595.05	902.70
595.40	901.81
595.75	900.42
596.10	899.72
596.45	898.85
596.80	898.06
597.15	897.01
597.50	896.05
597.85	894.90
598.19	894.09
598.54	892.86
598.89	891.82
599.24	891.07
599.59	889.87
599.94	888.79
600.29	887.71
600.64	886.28
600.99	884.53
601.34	883.50
601.69	881.82
602.04	880.31
602.39	878.83
602.74	877.50
603.08	876.40
603.43	875.08
603.78	873.43
604.13	871.76
604.48	869.88
604.83	868.20
605.18	866.73
605.53	864.78
605.87	862.65
606.22	860.90
606.57	858.92
606.92	856.90
607.27	855.30
607.62	853.75
607.96	852.20
608.31	850.80
608.66	848.43
609.01	846.42
609.36	844.26
609.70	841.81
610.05	839.37
610.40	837.03
610.75	834.50
611.10	831.79
611.44	829.00
611.79	827.00
612.14	824.48
612.49	821.65
612.83	819.06
613.18	816.82
613.53	814.33
613.88	811.50
614.22	808.86
614.57	805.90
614.92	803.13
615.27	800.36
615.61	797.47
615.96	795.03
616.31	792.32
616.65	790.31
617.00	787.89
617.35	785.34
617.70	782.65
618.04	779.88
618.39	777.63
618.74	775.26
619.08	772.34
619.43	769.99
619.78	767.69
620.12	764.94
620.47	762.10
620.82	759.29
621.16	756.81
621.51	754.46
621.85	751.82
622.20	749.10
622.55	746.34
622.89	743.68
623.24	741.25
623.59	738.52
623.93	735.87
624.28	733.12
624.62	730.66
624.97	728.17
625.32	725.65
625.66	722.90
626.01	720.33
626.35	717.65
626.70	714.75
627.04	711.91
627.39	709.30
627.73	706.66
628.08	704.31
628.43	701.38
628.77	698.52
629.12	695.97
629.46	693.27
629.81	690.52
630.15	687.66
630.50	684.56
630.84	681.55
631.19	678.42
631.53	675.70
631.88	672.49
632.22	669.34
632.57	666.51
632.91	663.71
633.26	660.72
633.60	657.82
633.95	655.09
634.29	652.55
634.64	650.06
634.98	647.28
635.32	644.51
635.67	642.39
636.01	639.75
636.36	636.99
636.70	634.55
637.05	632.09
637.39	629.74
637.73	627.41
638.08	625.49
638.42	623.06
638.77	620.63
639.11	618.32
639.45	616.19
639.80	613.71
640.14	611.21
640.49	608.71
640.83	606.38
641.17	603.93
641.52	601.28
641.86	598.61
642.20	596.42
642.55	593.79
642.89	591.27
643.23	588.75
643.58	586.44
643.92	583.72
644.26	581.39
644.61	579.05
644.95	576.55
645.29	573.43
645.64	570.90
645.98	568.41
646.32	565.99
646.66	563.07
647.01	560.48
647.35	558.13
647.69	555.60
648.04	553.34
648.38	550.73
648.72	548.09
649.06	545.46
649.41	542.74
649.75	540.25
650.09	537.69
650.43	535.18
650.78	532.31
651.12	529.82
651.46	527.23
651.80	524.54
652.14	522.10
652.49	520.11
652.83	517.77
653.17	515.16
653.51	512.46
653.85	510.29
654.20	508.09
654.54	505.34
654.88	502.72
655.22	500.02
655.56	497.63
655.90	495.45
656.25	493.30
656.59	491.02
656.93	488.67
657.27	486.21
657.61	483.88
657.95	481.83
658.29	479.65
658.64	477.33
658.98	475.10
659.32	472.63
659.66	470.11
660.00	467.81
660.34	465.56
660.68	463.53
661.02	461.09
661.36	458.77
661.70	456.75
662.05	454.89
662.39	452.99
662.73	451.09
663.07	448.95
663.41	447.01
663.75	445.02
664.09	443.11
664.43	441.05
664.77	439.19
665.11	437.14
665.45	435.19
665.79	433.11
666.13	431.10
666.47	429.34
666.81	427.53
667.15	425.64
667.49	423.90
667.83	421.94
668.17	420.20
668.51	418.39
668.85	416.55
669.19	414.85
669.53	412.76
669.87	410.88
670.21	409.22
670.55	407.40
670.89	405.88
671.23	404.32
671.57	402.76
671.91	401.00
672.25	399.55
672.58	398.04
672.92	396.62
673.26	395.16
673.60	393.67
673.94	392.16
674.28	390.80
674.62	389.28
674.96	387.82
675.30	386.50
675.64	385.23
675.97	383.94
676.31	382.62
676.65	381.57
676.99	380.20
677.33	378.84
677.67	377.54
678.01	376.01
678.34	374.58
678.68	373.20
679.02	371.81
679.36	370.42
679.70	369.00
680.04	367.80
680.37	366.37
680.71	365.09
681.05	363.83
681.39	362.52
681.73	361.33
682.06	360.26
682.40	359.08
682.74	357.79
683.08	356.59
683.42	355.35
683.75	353.87
684.09	352.66
684.43	351.43
684.77	350.27
685.10	349.10
685.44	347.98
685.78	346.89
686.12	345.85
686.45	344.70
686.79	343.48
687.13	342.26
687.46	341.25
687.80	339.96
688.14	338.89
688.48	337.78
688.81	336.58
689.15	335.50
689.49	334.39
689.82	333.26
690.16	332.11
690.50	331.11
690.83	330.17
691.17	329.10
691.51	328.24
691.84	327.10
692.18	326.00
692.52	324.90
692.85	323.86
693.19	322.89
693.52	321.95
693.86	321.00
694.20	319.94
694.53	318.85
694.87	317.99
695.21	316.87
695.54	315.77
695.88	314.81
696.21	313.67
696.55	312.75
696.88	311.80
697.22	310.82
697.56	309.90
697.89	308.90
698.23	307.92
698.56	306.80
698.90	306.04
699.23	305.10
699.57	304.34
699.90	303.40
700.24	302.48
700.58	301.61
700.91	300.80
701.25	300.04
701.58	299.41
701.92	298.68
702.25	297.93
702.59	297.20
702.92	296.53
703.26	295.87
703.59	295.15
703.93	294.58
704.26	293.99
704.60	293.12
704.93	292.40
705.26	291.74
705.60	291.16
705.93	290.31
706.27	289.85
706.60	289.15
706.94	288.67
707.27	288.01
707.61	287.40
707.94	286.82
708.27	286.17
708.61	285.52
708.94	284.81
709.28	284.21
709.61	283.80
709.94	283.28
710.28	282.61
710.61	282.01
710.95	281.30
711.28	280.82
711.61	280.34
711.95	279.82
712.28	279.35
712.61	278.74
712.95	278.39
713.28	277.96
713.61	277.31
713.95	276.59
714.28	276.10
714.61	275.60
714.95	275.13
715.28	274.60
715.61	273.99
715.95	273.50
716.28	273.14
716.61	272.66
716.95	272.19
717.28	271.84
717.61	271.41
717.94	270.98
718.28	270.40
718.61	269.89
718.94	269.58
719.27	269.10
719.61	268.78
719.94	268.37
720.27	267.75
720.60	267.36
720.94	267.05
721.27	266.64
721.60	266.27
721.93	265.89
722.27	265.56
722.60	265.20
722.93	264.87
723.26	264.47
723.59	263.95
723.93	263.50
724.26	263.20
724.59	262.80
724.92	262.45
725.25	262.20
725.59	261.95
725.92	261.59
726.25	261.29
726.58	260.93
726.91	260.48
727.24	260.22
727.57	259.99
727.91	259.65
728.24	259.36
728.57	258.91
728.90	258.53
729.23	258.24
729.56	258.12
729.89	257.79
730.22	257.30
730.55	257.04
730.89	256.78
731.22	256.24
731.55	255.92
731.88	255.57
732.21	255.13
732.54	254.76
732.87	254.37
733.20	254.03
733.53	253.71
733.86	253.42
734.19	253.13
734.52	252.87
734.85	252.77
735.18	252.46
735.51	252.34
735.84	252.04
736.17	251.80
736.50	251.31
736.83	251.30
737.16	251.10
737.49	250.90
737.82	250.48
738.15	250.24
738.48	250.01
738.81	249.83
739.14	249.58
739.47	249.40
739.80	249.08
740.13	248.91
740.46	248.65
740.79	248.38
741.12	248.06
741.45	247.80
741.78	247.36
742.11	247.25
742.44	246.98
742.77	246.81
743.10	246.56
743.43	246.42
743.75	245.87
744.08	245.94
744.41	245.72
744.74	245.67
745.07	245.59
745.40	245.31
745.73	245.20
746.06	245.00
746.39	244.85
746.71	244.76
747.04	244.46
747.37	244.30
747.70	244.16
748.03	244.05
748.36	243.89
748.68	243.77
749.01	243.52
749.34	243.31
749.67	243.19
750.00	243.03
750.33	243.00
750.65	242.92
750.98	242.46
751.31	242.35
751.64	242.15
751.97	242.15
752.29	242.07
752.62	241.82
752.95	241.68
753.28	241.42
753.60	241.19
753.93	241.18
754.26	241.07
754.59	240.90
754.91	240.74
755.24	240.70
755.57	240.63
755.90	240.49
756.22	240.36
756.55	240.22
756.88	240.06
757.20	239.87
757.53	239.76
757.86	239.78
758.19	239.71
758.51	239.67
758.84	239.44
759.17	239.42
759.49	239.33
759.82	239.45
760.15	239.43
760.47	239.39
760.80	239.17
761.13	239.14
761.45	239.09
761.78	238.96
762.11	238.69
762.43	238.54
762.76	238.48
763.08	238.45
763.41	238.32
763.74	238.22
764.06	238.17
764.39	238.13
764.71	237.97
765.04	237.77
765.37	237.63
765.69	237.57
766.02	237.42
766.34	237.20
766.67	236.95
767.00	236.89
767.32	236.92
767.65	237.00
767.97	236.86
768.30	236.75
768.62	236.67
768.95	236.68
769.27	236.60
769.60	236.50
769.92	236.34
770.25	236.17
770.57	235.99
770.90	235.76
771.22	235.56
771.55	235.49
771.87	235.34
772.20	235.19
772.52	235.29
772.85	235.36
773.17	235.32
773.50	235.23
773.82	235.04
774.15	234.79
774.47	234.53
774.80	234.39
775.12	234.30
775.45	234.15
775.77	233.98
776.09	233.81
776.42	233.61
776.74	233.58
777.07	233.52
777.39	233.46
777.72	233.26
778.04	233.14
778.36	232.93
778.69	232.93
779.01	232.98
779.33	232.70
779.66	232.44
779.98	232.38
780.31	232.23
780.63	232.30
780.95	232.40
781.28	232.28
781.60	232.16
781.92	232.18
782.25	232.17
782.57	232.13
782.89	232.09
783.22	232.10
783.54	232.01
783.86	232.02
784.19	231.99
784.51	232.12
784.83	232.17
785.16	232.24
785.48	232.11
785.80	231.97
786.12	231.84
786.45	231.84
786.77	231.85
787.09	231.84
787.42	231.74
787.74	231.72
788.06	231.75
788.38	231.80
788.71	231.64
789.03	231.70
789.35	231.77
789.67	231.68
789.99	231.67
790.32	231.58
790.64	231.61
790.96	231.72
791.28	231.70
791.61	231.70
791.93	231.68
792.25	231.76
792.57	231.85
792.89	231.88
793.21	231.84
793.54	231.90
793.86	231.90
794.18	231.94
