SpectraSuite Data File
++++++++++++++++++++++++++++++++++++
Date: Fri Feb 01 14:42:07 EST 2013
User: group
Dark Spectrum Present: No
Reference Spectrum Present: No
Number of Sampled Component Spectra: 1
Spectrometers: USB2E7196
Integration Time (usec): 70000 (USB2E7196)
Spectra Averaged: 10 (USB2E7196)
Boxcar Smoothing: 10 (USB2E7196)
Correct for Electrical Dark: No (USB2E7196)
Strobe/Lamp Enabled: No (USB2E7196)
Correct for Detector Non-linearity: No (USB2E7196)
Correct for Stray Light: No (USB2E7196)
Number of Pixels in Processed Spectrum: 2048
>>>>>Begin Processed Spectral Data<<<<<
339.09	0.00
339.48	215.10
339.86	218.10
340.24	218.90
340.63	223.10
341.01	224.50
341.39	225.60
341.78	224.90
342.16	226.50
342.54	224.40
342.93	215.04
343.31	225.95
343.69	226.54
344.07	226.92
344.46	227.41
344.84	227.64
345.22	227.82
345.60	227.90
345.99	228.07
346.37	228.23
346.75	228.52
347.13	228.57
347.52	228.58
347.90	228.76
348.28	228.86
348.66	228.95
349.05	228.79
349.43	228.80
349.81	228.86
350.19	228.87
350.57	228.91
350.96	228.81
351.34	228.90
351.72	229.03
352.10	229.23
352.48	229.24
352.87	229.35
353.25	229.43
353.63	229.69
354.01	229.74
354.39	229.82
354.77	229.81
355.15	229.91
355.54	230.04
355.92	229.94
356.30	229.91
356.68	230.17
357.06	230.42
357.44	230.52
357.82	230.62
358.20	230.72
358.58	230.86
358.97	230.97
359.35	230.91
359.73	230.98
360.11	231.01
360.49	231.07
360.87	231.11
361.25	231.17
361.63	231.19
362.01	231.29
362.39	231.33
362.77	231.36
363.15	231.37
363.53	231.37
363.91	231.37
364.29	231.49
364.67	231.24
365.05	231.24
365.43	231.26
365.81	231.16
366.19	231.24
366.57	231.20
366.95	231.28
367.33	231.30
367.71	231.31
368.09	231.33
368.47	231.30
368.85	231.26
369.23	231.29
369.61	231.18
369.99	231.23
370.37	231.01
370.75	231.03
371.13	230.89
371.51	230.70
371.89	230.72
372.27	230.69
372.65	230.72
373.03	230.59
373.41	230.48
373.78	230.52
374.16	230.39
374.54	230.25
374.92	230.19
375.30	230.15
375.68	230.02
376.06	229.95
376.44	229.82
376.82	229.80
377.19	229.63
377.57	229.57
377.95	229.40
378.33	229.46
378.71	229.22
379.09	229.23
379.47	229.27
379.84	229.12
380.22	228.94
380.60	228.83
380.98	228.80
381.36	228.78
381.73	228.65
382.11	228.55
382.49	228.57
382.87	228.45
383.25	228.35
383.62	228.47
384.00	228.28
384.38	228.36
384.76	228.32
385.13	228.35
385.51	228.22
385.89	228.15
386.27	228.03
386.64	228.06
387.02	227.98
387.40	227.97
387.78	227.99
388.15	228.03
388.53	228.06
388.91	227.96
389.29	227.91
389.66	227.90
390.04	227.92
390.42	227.99
390.79	227.92
391.17	228.04
391.55	227.88
391.92	228.00
392.30	227.92
392.68	227.90
393.05	227.91
393.43	227.97
393.81	228.05
394.18	228.08
394.56	228.12
394.94	228.20
395.31	228.21
395.69	228.32
396.06	228.38
396.44	228.38
396.82	228.52
397.19	228.67
397.57	228.85
397.95	229.01
398.32	229.01
398.70	229.19
399.07	229.23
399.45	229.31
399.82	229.46
400.20	229.59
400.58	229.69
400.95	229.83
401.33	229.99
401.70	230.15
402.08	230.35
402.45	230.56
402.83	230.76
403.20	230.94
403.58	231.09
403.95	231.30
404.33	231.49
404.71	231.63
405.08	231.90
405.46	231.97
405.83	232.20
406.21	232.40
406.58	232.70
406.96	232.96
407.33	233.26
407.70	233.51
408.08	234.03
408.45	234.36
408.83	234.72
409.20	235.09
409.58	235.40
409.95	235.77
410.33	236.20
410.70	236.61
411.08	237.07
411.45	237.58
411.82	237.97
412.20	238.59
412.57	239.24
412.95	239.69
413.32	240.37
413.69	240.97
414.07	241.73
414.44	242.28
414.82	242.95
415.19	243.88
415.56	244.68
415.94	245.39
416.31	246.50
416.68	247.42
417.06	248.47
417.43	249.53
417.81	250.74
418.18	251.95
418.55	253.13
418.93	254.53
419.30	255.88
419.67	257.41
420.04	258.92
420.42	260.46
420.79	262.34
421.16	264.09
421.54	265.95
421.91	267.80
422.28	269.88
422.66	272.13
423.03	274.13
423.40	276.18
423.77	278.43
424.15	280.57
424.52	282.81
424.89	285.30
425.26	287.79
425.64	290.06
426.01	292.48
426.38	295.19
426.75	297.93
427.13	300.73
427.50	303.63
427.87	306.50
428.24	309.60
428.61	312.39
428.99	315.54
429.36	318.86
429.73	322.09
430.10	325.22
430.47	328.31
430.85	331.61
431.22	335.28
431.59	339.10
431.96	342.62
432.33	346.70
432.70	350.43
433.08	354.84
433.45	358.99
433.82	363.19
434.19	367.80
434.56	372.00
434.93	376.15
435.30	380.17
435.68	384.74
436.05	389.19
436.42	393.55
436.79	397.59
437.16	401.84
437.53	406.17
437.90	410.49
438.27	414.95
438.64	419.53
439.01	423.59
439.38	427.07
439.75	430.48
440.13	434.25
440.50	438.04
440.87	440.79
441.24	443.82
441.61	447.27
441.98	449.46
442.35	452.35
442.72	455.27
443.09	458.30
443.46	459.81
443.83	460.55
444.20	461.23
444.57	462.40
444.94	462.86
445.31	463.63
445.68	464.39
446.05	464.40
446.42	463.58
446.79	462.84
447.16	462.06
447.53	461.64
447.90	459.85
448.27	457.93
448.64	455.51
449.01	453.66
449.37	450.41
449.74	447.50
450.11	443.91
450.48	439.96
450.85	435.76
451.22	432.39
451.59	429.20
451.96	426.06
452.33	422.00
452.70	418.28
453.07	413.50
453.43	408.84
453.80	404.41
454.17	400.16
454.54	396.06
454.91	391.75
455.28	387.37
455.65	383.56
456.02	379.80
456.38	376.46
456.75	372.33
457.12	368.82
457.49	365.20
457.86	361.79
458.23	358.86
458.59	355.68
458.96	352.31
459.33	349.33
459.70	346.42
460.07	343.98
460.43	341.14
460.80	338.65
461.17	336.26
461.54	333.91
461.91	331.71
462.27	329.43
462.64	327.45
463.01	325.32
463.38	323.07
463.74	320.77
464.11	318.91
464.48	317.36
464.85	315.47
465.21	314.16
465.58	312.74
465.95	310.94
466.32	309.49
466.68	308.08
467.05	306.66
467.42	305.31
467.78	303.73
468.15	302.37
468.52	301.25
468.88	299.80
469.25	298.57
469.62	297.63
469.98	296.53
470.35	295.47
470.72	294.50
471.08	293.52
471.45	292.69
471.82	291.81
472.18	290.82
472.55	290.24
472.92	289.38
473.28	288.57
473.65	287.80
474.02	287.01
474.38	286.46
474.75	285.94
475.11	285.39
475.48	284.97
475.85	284.60
476.21	284.35
476.58	284.07
476.94	283.79
477.31	283.41
477.67	283.13
478.04	282.81
478.41	282.72
478.77	282.75
479.14	282.48
479.50	282.28
479.87	282.23
480.23	282.20
480.60	282.15
480.96	282.16
481.33	282.55
481.69	282.74
482.06	282.88
482.42	283.08
482.79	283.23
483.15	283.56
483.52	283.90
483.88	284.22
484.25	284.71
484.61	285.15
484.98	285.62
485.34	286.36
485.71	287.21
486.07	287.92
486.44	288.40
486.80	289.26
487.17	290.15
487.53	291.14
487.90	292.34
488.26	293.59
488.62	294.96
488.99	296.11
489.35	297.52
489.72	299.12
490.08	300.74
490.44	302.40
490.81	304.25
491.17	306.19
491.54	308.16
491.90	310.38
492.26	312.72
492.63	315.16
492.99	317.67
493.36	320.26
493.72	323.00
494.08	325.96
494.45	329.11
494.81	332.58
495.17	336.10
495.54	339.66
495.90	343.45
496.26	347.40
496.63	351.50
496.99	355.82
497.35	360.28
497.72	365.01
498.08	370.12
498.44	375.40
498.80	380.87
499.17	386.57
499.53	392.40
499.89	398.47
500.26	404.74
500.62	411.32
500.98	418.44
501.34	425.80
501.71	433.31
502.07	441.00
502.43	448.93
502.79	457.11
503.16	465.77
503.52	474.77
503.88	484.04
504.24	493.79
504.60	503.81
504.97	514.02
505.33	524.67
505.69	535.93
506.05	547.28
506.41	558.78
506.78	570.83
507.14	583.17
507.50	596.00
507.86	609.62
508.22	623.36
508.59	637.04
508.95	651.34
509.31	666.10
509.67	681.63
510.03	697.13
510.39	713.02
510.75	729.17
511.12	745.84
511.48	762.85
511.84	780.12
512.20	797.56
512.56	815.83
512.92	834.28
513.28	852.89
513.64	872.11
514.00	891.66
514.37	911.67
514.73	931.61
515.09	951.63
515.45	971.95
515.81	992.68
516.17	1014.13
516.53	1035.94
516.89	1057.72
517.25	1079.55
517.61	1101.92
517.97	1124.09
518.33	1146.48
518.69	1169.14
519.05	1192.46
519.41	1215.91
519.77	1240.00
520.13	1264.30
520.49	1288.15
520.85	1312.26
521.21	1336.11
521.57	1360.94
521.93	1385.14
522.29	1410.60
522.65	1435.56
523.01	1460.25
523.37	1485.00
523.73	1509.81
524.09	1534.41
524.45	1559.80
524.81	1585.40
525.17	1611.26
525.53	1637.63
525.89	1663.45
526.25	1689.53
526.61	1714.65
526.97	1740.59
527.33	1766.34
527.68	1792.11
528.04	1817.77
528.40	1843.69
528.76	1870.80
529.12	1897.17
529.48	1923.80
529.84	1948.92
530.20	1975.46
530.56	2002.61
530.91	2029.60
531.27	2056.29
531.63	2082.31
531.99	2108.29
532.35	2133.27
532.71	2157.72
533.07	2183.20
533.42	2208.34
533.78	2233.15
534.14	2258.45
534.50	2282.47
534.86	2306.97
535.21	2330.46
535.57	2355.60
535.93	2379.74
536.29	2402.50
536.65	2425.82
537.00	2448.13
537.36	2471.96
537.72	2494.27
538.08	2515.80
538.44	2537.16
538.79	2558.81
539.15	2580.35
539.51	2601.98
539.87	2624.26
540.22	2645.86
540.58	2667.38
540.94	2688.34
541.29	2708.66
541.65	2728.75
542.01	2750.02
542.37	2770.01
542.72	2789.55
543.08	2807.92
543.44	2827.09
543.79	2844.64
544.15	2862.32
544.51	2881.62
544.87	2899.52
545.22	2916.88
545.58	2934.33
545.94	2950.17
546.29	2966.24
546.65	2982.23
547.01	2997.18
547.36	3011.80
547.72	3026.21
548.07	3039.61
548.43	3052.95
548.79	3066.52
549.14	3079.26
549.50	3090.59
549.86	3102.53
550.21	3114.68
550.57	3127.16
550.92	3138.63
551.28	3150.49
551.64	3161.59
551.99	3171.74
552.35	3181.57
552.70	3191.90
553.06	3202.21
553.41	3213.38
553.77	3223.01
554.13	3232.56
554.48	3242.40
554.84	3251.54
555.19	3260.51
555.55	3269.16
555.90	3277.36
556.26	3285.48
556.61	3293.63
556.97	3301.35
557.32	3309.00
557.68	3316.30
558.03	3323.33
558.39	3329.27
558.74	3337.46
559.10	3344.30
559.45	3351.00
559.81	3358.52
560.16	3364.19
560.52	3369.71
560.87	3375.38
561.23	3379.83
561.58	3385.19
561.94	3389.64
562.29	3393.16
562.64	3397.09
563.00	3400.75
563.35	3406.20
563.71	3411.39
564.06	3416.19
564.42	3420.48
564.77	3424.47
565.12	3429.16
565.48	3432.51
565.83	3435.59
566.19	3437.24
566.54	3439.05
566.89	3440.60
567.25	3441.38
567.60	3443.95
567.96	3444.86
568.31	3445.67
568.66	3447.47
569.02	3447.68
569.37	3447.56
569.72	3448.50
570.08	3449.02
570.43	3449.52
570.78	3448.08
571.14	3445.65
571.49	3443.75
571.84	3443.17
572.20	3440.38
572.55	3436.60
572.90	3433.18
573.26	3431.20
573.61	3428.57
573.96	3425.37
574.31	3420.25
574.67	3414.84
575.02	3409.38
575.37	3405.35
575.72	3399.55
576.08	3394.74
576.43	3389.17
576.78	3384.50
577.13	3379.53
577.49	3374.37
577.84	3368.10
578.19	3362.40
578.54	3356.17
578.90	3349.33
579.25	3340.56
579.60	3333.31
579.95	3325.99
580.30	3318.22
580.66	3309.71
581.01	3301.06
581.36	3293.60
581.71	3287.71
582.06	3280.82
582.42	3272.89
582.77	3264.23
583.12	3256.47
583.47	3247.96
583.82	3240.88
584.17	3231.88
584.53	3223.42
584.88	3215.01
585.23	3206.47
585.58	3197.84
585.93	3189.40
586.28	3181.60
586.63	3173.81
586.98	3166.22
587.34	3158.42
587.69	3150.96
588.04	3143.30
588.39	3135.77
588.74	3125.23
589.09	3114.92
589.44	3104.88
589.79	3096.35
590.14	3087.83
590.49	3079.00
590.84	3069.77
591.19	3060.02
591.54	3049.61
591.89	3037.61
592.25	3026.87
592.60	3015.15
592.95	3003.97
593.30	2992.48
593.65	2980.95
594.00	2970.06
594.35	2959.31
594.70	2947.30
595.05	2936.19
595.40	2923.96
595.75	2911.67
596.10	2902.04
596.45	2892.22
596.80	2883.10
597.15	2872.44
597.50	2861.34
597.85	2850.50
598.19	2840.25
598.54	2830.11
598.89	2820.53
599.24	2811.86
599.59	2802.05
599.94	2793.13
600.29	2782.73
600.64	2772.91
600.99	2761.70
601.34	2751.78
601.69	2740.66
602.04	2730.54
602.39	2719.90
602.74	2710.44
603.08	2701.11
603.43	2691.42
603.78	2680.85
604.13	2669.44
604.48	2658.73
604.83	2648.18
605.18	2637.68
605.53	2625.93
605.87	2612.98
606.22	2602.29
606.57	2590.09
606.92	2578.20
607.27	2567.36
607.62	2557.25
607.96	2546.77
608.31	2536.37
608.66	2524.28
609.01	2512.40
609.36	2500.16
609.70	2486.63
610.05	2473.50
610.40	2461.01
610.75	2447.69
611.10	2434.83
611.44	2421.58
611.79	2409.43
612.14	2396.51
612.49	2382.65
612.83	2369.34
613.18	2356.83
613.53	2343.53
613.88	2330.62
614.22	2318.07
614.57	2304.08
614.92	2290.92
615.27	2278.40
615.61	2265.56
615.96	2252.76
616.31	2241.08
616.65	2230.31
617.00	2219.91
617.35	2208.57
617.70	2196.04
618.04	2183.87
618.39	2171.50
618.74	2160.33
619.08	2147.60
619.43	2135.70
619.78	2124.79
620.12	2113.51
620.47	2102.08
620.82	2090.22
621.16	2079.17
621.51	2067.30
621.85	2056.12
622.20	2043.52
622.55	2031.25
622.89	2019.84
623.24	2009.03
623.59	1997.72
623.93	1985.69
624.28	1973.88
624.62	1961.74
624.97	1950.94
625.32	1940.29
625.66	1930.19
626.01	1918.85
626.35	1907.59
626.70	1896.61
627.04	1885.29
627.39	1873.79
627.73	1862.76
628.08	1851.77
628.43	1840.49
628.77	1829.45
629.12	1817.67
629.46	1806.83
629.81	1794.95
630.15	1783.05
630.50	1771.15
630.84	1758.85
631.19	1746.74
631.53	1734.77
631.88	1723.41
632.22	1710.99
632.57	1699.23
632.91	1687.08
633.26	1675.46
633.60	1663.82
633.95	1652.30
634.29	1641.30
634.64	1630.96
634.98	1619.79
635.32	1609.24
635.67	1598.93
636.01	1588.70
636.36	1578.37
636.70	1568.43
637.05	1558.77
637.39	1549.66
637.73	1539.91
638.08	1530.85
638.42	1521.66
638.77	1512.21
639.11	1502.49
639.45	1493.02
639.80	1483.37
640.14	1473.79
640.49	1464.38
640.83	1454.95
641.17	1445.27
641.52	1434.97
641.86	1424.71
642.20	1415.57
642.55	1405.63
642.89	1395.98
643.23	1385.52
643.58	1376.70
643.92	1366.29
644.26	1356.60
644.61	1346.95
644.95	1337.82
645.29	1327.26
645.64	1317.04
645.98	1307.50
646.32	1298.17
646.66	1288.96
647.01	1279.57
647.35	1270.13
647.69	1260.53
648.04	1251.70
648.38	1242.43
648.72	1233.02
649.06	1223.60
649.41	1214.23
649.75	1204.44
650.09	1194.64
650.43	1185.64
650.78	1175.75
651.12	1166.79
651.46	1157.76
651.80	1148.41
652.14	1139.19
652.49	1130.54
652.83	1122.07
653.17	1112.81
653.51	1103.58
653.85	1094.57
654.20	1085.30
654.54	1076.10
654.88	1067.30
655.22	1057.65
655.56	1048.44
655.90	1040.29
656.25	1031.98
656.59	1023.30
656.93	1015.33
657.27	1007.37
657.61	998.72
657.95	990.72
658.29	982.85
658.64	974.56
658.98	966.22
659.32	957.83
659.66	949.78
660.00	941.75
660.34	934.12
660.68	926.68
661.02	918.88
661.36	911.72
661.70	904.57
662.05	897.60
662.39	890.95
662.73	884.01
663.07	877.22
663.41	870.47
663.75	863.70
664.09	856.66
664.43	849.56
664.77	843.08
665.11	836.44
665.45	829.70
665.79	823.34
666.13	816.81
666.47	810.46
666.81	803.81
667.15	797.22
667.49	790.67
667.83	784.69
668.17	778.45
668.51	772.10
668.85	766.10
669.19	759.98
669.53	753.96
669.87	747.85
670.21	741.74
670.55	735.90
670.89	730.49
671.23	725.42
671.57	720.22
671.91	715.07
672.25	709.50
672.58	704.18
672.92	698.96
673.26	694.11
673.60	689.03
673.94	684.35
674.28	679.81
674.62	675.36
674.96	670.42
675.30	666.04
675.64	661.34
675.97	656.60
676.31	651.94
676.65	647.37
676.99	643.32
677.33	638.68
677.67	634.20
678.01	629.39
678.34	624.74
678.68	620.30
679.02	615.85
679.36	611.76
679.70	607.70
680.04	603.30
680.37	598.83
680.71	594.75
681.05	591.02
681.39	586.99
681.73	583.05
682.06	579.15
682.40	575.29
682.74	571.49
683.08	567.76
683.42	564.00
683.75	560.15
684.09	556.26
684.43	552.68
684.77	549.13
685.10	545.47
685.44	541.82
685.78	538.21
686.12	534.66
686.45	531.00
686.79	527.46
687.13	524.23
687.46	520.87
687.80	517.40
688.14	513.60
688.48	510.31
688.81	506.88
689.15	503.71
689.49	500.38
689.82	497.16
690.16	493.75
690.50	490.74
690.83	487.74
691.17	484.69
691.51	481.73
691.84	478.87
692.18	476.01
692.52	473.04
692.85	470.15
693.19	467.16
693.52	464.45
693.86	461.61
694.20	458.77
694.53	456.05
694.87	453.32
695.21	450.56
695.54	447.56
695.88	444.74
696.21	441.91
696.55	439.20
696.88	436.55
697.22	434.20
697.56	431.48
697.89	428.95
698.23	426.39
698.56	423.98
698.90	421.23
699.23	418.64
699.57	416.15
699.90	413.69
700.24	411.40
700.58	408.86
700.91	406.69
701.25	404.49
701.58	402.30
701.92	400.19
702.25	398.05
702.59	395.98
702.92	393.95
703.26	391.87
703.59	389.72
703.93	387.92
704.26	385.85
704.60	383.94
704.93	381.96
705.26	380.03
705.60	378.08
705.93	376.37
706.27	374.71
706.60	373.08
706.94	371.48
707.27	369.53
707.61	367.99
707.94	366.16
708.27	364.32
708.61	362.59
708.94	360.97
709.28	359.48
709.61	358.12
709.94	356.62
710.28	355.14
710.61	353.73
710.95	351.95
711.28	350.51
711.61	349.04
711.95	347.58
712.28	346.16
712.61	344.64
712.95	343.21
713.28	341.80
713.61	340.20
713.95	338.73
714.28	337.60
714.61	336.19
714.95	334.90
715.28	333.60
715.61	332.26
715.95	330.86
716.28	329.60
716.61	328.37
716.95	327.16
717.28	325.95
717.61	324.80
717.94	323.74
718.28	322.45
718.61	321.20
718.94	320.08
719.27	319.04
719.61	318.02
719.94	316.82
720.27	315.75
720.60	314.88
720.94	313.96
721.27	312.91
721.60	311.93
721.93	311.10
722.27	310.32
722.60	309.35
722.93	308.45
723.26	307.49
723.59	306.45
723.93	305.52
724.26	304.63
724.59	303.70
724.92	302.79
725.25	302.04
725.59	301.33
725.92	300.42
726.25	299.50
726.58	298.71
726.91	297.98
727.24	297.19
727.57	296.41
727.91	295.54
728.24	294.82
728.57	294.18
728.90	293.35
729.23	292.40
729.56	291.74
729.89	291.09
730.22	290.34
730.55	289.70
730.89	289.18
731.22	288.50
731.55	287.99
731.88	287.34
732.21	286.66
732.54	285.98
732.87	285.50
733.20	285.00
733.53	284.36
733.86	283.87
734.19	283.12
734.52	282.59
734.85	282.19
735.18	281.59
735.51	280.97
735.84	280.45
736.17	279.99
736.50	279.41
736.83	279.12
737.16	278.58
737.49	277.90
737.82	277.23
738.15	276.57
738.48	275.87
738.81	275.36
739.14	274.76
739.47	274.25
739.80	273.65
740.13	273.05
740.46	272.55
740.79	272.03
741.12	271.77
741.45	271.14
741.78	270.44
742.11	269.97
742.44	269.37
742.77	268.68
743.10	268.10
743.43	267.56
743.75	266.79
744.08	266.52
744.41	266.14
744.74	265.71
745.07	265.39
745.40	265.05
745.73	264.61
746.06	264.23
746.39	263.70
746.71	263.26
747.04	262.74
747.37	262.33
747.70	261.90
748.03	261.25
748.36	260.93
748.68	260.51
749.01	260.07
749.34	259.67
749.67	259.40
750.00	259.02
750.33	258.82
750.65	258.45
750.98	257.87
751.31	257.46
751.64	257.12
751.97	256.80
752.29	256.42
752.62	256.00
752.95	255.65
753.28	255.36
753.60	255.01
753.93	254.68
754.26	254.29
754.59	253.84
754.91	253.60
755.24	253.41
755.57	253.19
755.90	252.85
756.22	252.59
756.55	252.24
756.88	252.02
757.20	251.59
757.53	251.23
757.86	251.04
758.19	250.77
758.51	250.49
758.84	250.17
759.17	249.96
759.49	249.80
759.82	249.64
760.15	249.45
760.47	249.25
760.80	249.08
761.13	248.93
761.45	248.71
761.78	248.38
762.11	248.07
762.43	247.75
762.76	247.58
763.08	247.43
763.41	247.26
763.74	247.04
764.06	246.80
764.39	246.64
764.71	246.40
765.04	246.20
765.37	245.95
765.69	245.74
766.02	245.50
766.34	245.17
766.67	244.97
767.00	244.87
767.32	244.74
767.65	244.72
767.97	244.49
768.30	244.40
768.62	244.33
768.95	244.11
769.27	244.02
769.60	243.80
769.92	243.57
770.25	243.45
770.57	243.24
770.90	243.12
771.22	242.96
771.55	242.77
771.87	242.65
772.20	242.50
772.52	242.45
772.85	242.52
773.17	242.45
773.50	242.27
773.82	241.99
774.15	241.73
774.47	241.41
774.80	241.34
775.12	241.08
775.45	240.93
775.77	240.77
776.09	240.60
776.42	240.50
776.74	240.45
777.07	240.35
777.39	240.22
777.72	240.02
778.04	239.96
778.36	239.93
778.69	239.90
779.01	239.76
779.33	239.50
779.66	239.16
779.98	239.05
780.31	238.85
780.63	238.88
780.95	238.86
781.28	238.78
781.60	238.60
781.92	238.50
782.25	238.37
782.57	238.28
782.89	238.22
783.22	238.09
783.54	237.94
783.86	237.89
784.19	237.65
784.51	237.63
784.83	237.40
785.16	237.20
785.48	236.95
