SpectraSuite Data File
++++++++++++++++++++++++++++++++++++
Date: Fri Feb 01 14:34:20 EST 2013
User: group
Dark Spectrum Present: No
Reference Spectrum Present: No
Number of Sampled Component Spectra: 1
Spectrometers: USB2E7196
Integration Time (usec): 70000 (USB2E7196)
Spectra Averaged: 10 (USB2E7196)
Boxcar Smoothing: 10 (USB2E7196)
Correct for Electrical Dark: No (USB2E7196)
Strobe/Lamp Enabled: No (USB2E7196)
Correct for Detector Non-linearity: No (USB2E7196)
Correct for Stray Light: No (USB2E7196)
Number of Pixels in Processed Spectrum: 2048
>>>>>Begin Processed Spectral Data<<<<<
339.09	0.00
339.48	217.90
339.86	217.30
340.24	220.40
340.63	219.80
341.01	225.60
341.39	222.70
341.78	223.70
342.16	229.30
342.54	226.40
342.93	215.11
343.31	226.01
343.69	226.40
344.07	226.83
344.46	227.22
344.84	227.58
345.22	227.72
345.60	228.01
345.99	228.18
346.37	228.12
346.75	228.23
347.13	228.20
347.52	228.16
347.90	228.38
348.28	228.45
348.66	228.60
349.05	228.61
349.43	228.61
349.81	228.83
350.19	228.95
350.57	229.06
350.96	229.03
351.34	229.10
351.72	229.22
352.10	229.48
352.48	229.52
352.87	229.55
353.25	229.56
353.63	229.70
354.01	229.78
354.39	229.94
354.77	230.05
355.15	230.20
355.54	230.23
355.92	230.15
356.30	230.18
356.68	230.27
357.06	230.34
357.44	230.39
357.82	230.29
358.20	230.38
358.58	230.37
358.97	230.49
359.35	230.56
359.73	230.73
360.11	230.70
360.49	230.83
360.87	231.00
361.25	231.13
361.63	231.18
362.01	231.30
362.39	231.22
362.77	231.28
363.15	231.24
363.53	231.31
363.91	231.34
364.29	231.35
364.67	231.18
365.05	231.27
365.43	231.35
365.81	231.45
366.19	231.52
366.57	231.62
366.95	231.61
367.33	231.61
367.71	231.50
368.09	231.52
368.47	231.45
368.85	231.44
369.23	231.47
369.61	231.37
369.99	231.46
370.37	231.56
370.75	231.52
371.13	231.48
371.51	231.39
371.89	231.32
372.27	231.28
372.65	231.23
373.03	231.11
373.41	231.03
373.78	231.07
374.16	230.88
374.54	230.80
374.92	230.70
375.30	230.58
375.68	230.52
376.06	230.43
376.44	230.35
376.82	230.23
377.19	230.14
377.57	230.04
377.95	229.81
378.33	229.60
378.71	229.45
379.09	229.40
379.47	229.39
379.84	229.35
380.22	229.25
380.60	229.15
380.98	229.03
381.36	228.87
381.73	228.68
382.11	228.66
382.49	228.55
382.87	228.40
383.25	228.31
383.62	228.39
384.00	228.22
384.38	228.12
384.76	228.09
385.13	227.96
385.51	227.82
385.89	227.75
386.27	227.66
386.64	227.62
387.02	227.55
387.40	227.50
387.78	227.38
388.15	227.35
388.53	227.25
388.91	227.20
389.29	227.19
389.66	227.15
390.04	227.08
390.42	227.06
390.79	227.05
391.17	227.00
391.55	226.78
391.92	226.89
392.30	226.87
392.68	226.92
393.05	226.94
393.43	227.07
393.81	227.03
394.18	227.09
394.56	227.12
394.94	227.14
395.31	227.06
395.69	227.18
396.06	227.26
396.44	227.37
396.82	227.32
397.19	227.59
397.57	227.63
397.95	227.78
398.32	227.81
398.70	227.94
399.07	228.05
399.45	228.24
399.82	228.27
400.20	228.49
400.58	228.48
400.95	228.57
401.33	228.68
401.70	228.96
402.08	229.11
402.45	229.31
402.83	229.59
403.20	229.93
403.58	230.15
403.95	230.41
404.33	230.73
404.71	231.21
405.08	231.53
405.46	231.82
405.83	232.15
406.21	232.46
406.58	232.86
406.96	233.32
407.33	233.90
407.70	234.42
408.08	235.09
408.45	235.80
408.83	236.57
409.20	237.29
409.58	237.90
409.95	238.64
410.33	239.41
410.70	240.22
411.08	241.05
411.45	242.04
411.82	243.02
412.20	244.04
412.57	245.22
412.95	246.19
413.32	247.58
413.69	248.85
414.07	250.34
414.44	251.85
414.82	253.42
415.19	255.08
415.56	256.89
415.94	258.68
416.31	260.67
416.68	262.58
417.06	264.89
417.43	267.09
417.81	269.56
418.18	272.27
418.55	274.94
418.93	277.78
419.30	280.73
419.67	283.76
420.04	287.12
420.42	290.49
420.79	294.33
421.16	298.18
421.54	302.25
421.91	306.42
422.28	310.69
422.66	315.27
423.03	319.62
423.40	324.31
423.77	329.25
424.15	334.36
424.52	339.70
424.89	345.26
425.26	350.77
425.64	356.10
426.01	361.71
426.38	367.90
426.75	373.84
427.13	380.04
427.50	386.73
427.87	393.51
428.24	400.35
428.61	406.99
428.99	414.16
429.36	422.26
429.73	430.00
430.10	437.72
430.47	445.56
430.85	453.91
431.22	462.28
431.59	471.39
431.96	479.91
432.33	489.42
432.70	498.74
433.08	509.65
433.45	520.04
433.82	530.20
434.19	541.25
434.56	552.40
434.93	562.89
435.30	573.58
435.68	585.39
436.05	596.88
436.42	608.22
436.79	618.50
437.16	629.42
437.53	641.38
437.90	653.25
438.27	664.54
438.64	676.41
439.01	687.70
439.38	697.60
439.75	707.52
440.13	718.41
440.50	728.93
440.87	737.47
441.24	746.39
441.61	756.66
441.98	764.36
442.35	772.99
442.72	782.11
443.09	790.53
443.46	795.90
443.83	799.85
444.20	803.79
444.57	809.15
444.94	812.13
445.31	815.17
445.68	817.78
446.05	820.26
446.42	820.33
446.79	820.23
447.16	820.14
447.53	820.33
447.90	817.52
448.27	814.52
448.64	809.70
449.01	806.76
449.37	799.87
449.74	793.40
450.11	785.73
450.48	777.20
450.85	768.42
451.22	761.19
451.59	754.13
451.96	747.23
452.33	737.66
452.70	729.25
453.07	718.59
453.43	708.12
453.80	697.63
454.17	687.64
454.54	678.12
454.91	667.83
455.28	657.72
455.65	648.42
456.02	638.72
456.38	630.72
456.75	620.47
457.12	611.98
457.49	603.51
457.86	595.39
458.23	588.10
458.59	580.23
458.96	571.97
459.33	564.78
459.70	557.53
460.07	551.82
460.43	545.09
460.80	538.69
461.17	533.04
461.54	527.32
461.91	521.90
462.27	516.35
462.64	511.46
463.01	505.98
463.38	500.76
463.74	495.71
464.11	491.20
464.48	486.94
464.85	482.63
465.21	479.33
465.58	475.81
465.95	471.52
466.32	467.92
466.68	464.53
467.05	461.00
467.42	457.55
467.78	453.74
468.15	450.10
468.52	447.63
468.88	444.50
469.25	441.37
469.62	438.76
469.98	436.20
470.35	433.69
470.72	431.42
471.08	428.80
471.45	426.77
471.82	424.56
472.18	422.37
472.55	420.62
472.92	418.50
473.28	416.55
473.65	414.67
474.02	413.02
474.38	411.43
474.75	410.28
475.11	408.87
475.48	407.70
475.85	406.88
476.21	405.79
476.58	404.76
476.94	404.10
477.31	403.31
477.67	402.67
478.04	401.97
478.41	401.40
478.77	401.18
479.14	400.43
479.50	400.09
479.87	399.99
480.23	399.94
480.60	399.79
480.96	399.62
481.33	400.05
481.69	400.30
482.06	400.44
482.42	400.34
482.79	400.49
483.15	401.03
483.52	401.50
483.88	402.22
484.25	402.75
484.61	403.40
484.98	404.14
485.34	405.05
485.71	406.26
486.07	407.36
486.44	408.36
486.80	409.81
487.17	411.41
487.53	412.88
487.90	414.51
488.26	416.31
488.62	418.33
488.99	419.98
489.35	421.83
489.72	424.00
490.08	426.38
490.44	428.69
490.81	431.07
491.17	433.40
491.54	435.83
491.90	438.61
492.26	441.41
492.63	444.34
492.99	446.98
493.36	450.08
493.72	453.44
494.08	456.77
494.45	460.04
494.81	463.43
495.17	467.00
495.54	470.70
495.90	474.48
496.26	478.28
496.63	482.42
496.99	486.70
497.35	490.89
497.72	495.17
498.08	499.53
498.44	504.02
498.80	508.74
499.17	513.43
499.53	518.01
499.89	522.72
500.26	527.31
500.62	532.39
500.98	537.21
501.34	541.92
501.71	547.07
502.07	552.10
502.43	557.05
502.79	562.10
503.16	567.10
503.52	572.05
503.88	576.90
504.24	581.67
504.60	586.37
504.97	591.30
505.33	596.36
505.69	601.67
506.05	606.74
506.41	611.40
506.78	616.23
507.14	621.05
507.50	625.95
507.86	631.04
508.22	635.83
508.59	640.47
508.95	645.37
509.31	649.80
509.67	654.67
510.03	659.38
510.39	663.97
510.75	668.54
511.12	673.24
511.48	678.02
511.84	682.77
512.20	687.17
512.56	691.81
512.92	696.15
513.28	700.41
513.64	704.38
514.00	708.58
514.37	712.54
514.73	716.32
515.09	720.08
515.45	723.79
515.81	727.50
516.17	731.26
516.53	734.78
516.89	738.23
517.25	741.39
517.61	745.02
517.97	748.19
518.33	750.98
518.69	753.81
519.05	756.67
519.41	759.43
519.77	762.77
520.13	765.34
520.49	768.13
520.85	770.79
521.21	773.32
521.57	776.00
521.93	778.54
522.29	781.82
522.65	784.45
523.01	786.70
523.37	788.85
523.73	791.25
524.09	793.70
524.45	796.07
524.81	798.73
525.17	800.67
525.53	803.20
525.89	805.61
526.25	808.09
526.61	810.22
526.97	812.61
527.33	814.41
527.68	816.89
528.04	819.02
528.40	820.89
528.76	823.28
529.12	825.66
529.48	828.26
529.84	829.91
530.20	832.15
530.56	834.82
530.91	837.58
531.27	839.86
531.63	841.88
531.99	844.16
532.35	846.15
532.71	848.37
533.07	850.71
533.42	853.48
533.78	855.97
534.14	858.46
534.50	860.47
534.86	862.77
535.21	864.71
535.57	867.30
535.93	869.88
536.29	872.47
536.65	874.76
537.00	876.63
537.36	879.00
537.72	881.16
538.08	883.40
538.44	885.27
538.79	887.38
539.15	889.91
539.51	892.46
539.87	895.01
540.22	897.55
540.58	900.24
540.94	902.50
541.29	904.77
541.65	907.19
542.01	910.10
542.37	912.81
542.72	915.44
543.08	917.60
543.44	920.09
543.79	921.90
544.15	924.58
544.51	927.34
544.87	929.91
545.22	932.45
545.58	935.13
545.94	937.56
546.29	940.38
546.65	942.78
547.01	945.24
547.36	947.58
547.72	949.80
548.07	951.73
548.43	953.88
548.79	955.78
549.14	957.85
549.50	959.71
549.86	961.92
550.21	964.28
550.57	966.75
550.92	968.95
551.28	971.49
551.64	973.53
551.99	975.94
552.35	978.27
552.70	980.54
553.06	982.81
553.41	985.04
553.77	987.10
554.13	989.34
554.48	991.43
554.84	993.72
555.19	995.77
555.55	998.18
555.90	1000.27
556.26	1002.80
556.61	1005.03
556.97	1007.34
557.32	1009.18
557.68	1011.43
558.03	1013.64
558.39	1015.47
558.74	1017.72
559.10	1019.83
559.45	1021.63
559.81	1023.91
560.16	1025.73
560.52	1027.60
560.87	1030.05
561.23	1031.84
561.58	1033.92
561.94	1036.10
562.29	1037.90
562.64	1040.08
563.00	1041.61
563.35	1043.52
563.71	1045.53
564.06	1047.55
564.42	1049.51
564.77	1051.68
565.12	1053.23
565.48	1055.03
565.83	1056.97
566.19	1058.67
566.54	1060.24
566.89	1062.01
567.25	1063.60
567.60	1065.52
567.96	1067.00
568.31	1068.49
568.66	1069.90
569.02	1070.97
569.37	1071.90
569.72	1073.05
570.08	1074.17
570.43	1075.40
570.78	1076.52
571.14	1077.16
571.49	1077.72
571.84	1078.47
572.20	1078.64
572.55	1079.21
572.90	1079.05
573.26	1079.52
573.61	1080.01
573.96	1080.25
574.31	1079.94
574.67	1079.01
575.02	1078.58
575.37	1078.24
575.72	1077.37
576.08	1076.97
576.43	1076.43
576.78	1076.32
577.13	1075.90
577.49	1075.26
577.84	1074.24
578.19	1073.79
578.54	1073.31
578.90	1072.49
579.25	1071.28
579.60	1070.70
579.95	1069.44
580.30	1068.43
580.66	1066.94
581.01	1065.68
581.36	1064.65
581.71	1063.82
582.06	1063.13
582.42	1061.61
582.77	1060.04
583.12	1058.77
583.47	1057.60
583.82	1056.31
584.17	1054.45
584.53	1053.20
584.88	1051.79
585.23	1050.52
585.58	1048.61
585.93	1046.84
586.28	1045.39
586.63	1044.17
586.98	1042.59
587.34	1041.18
587.69	1039.68
588.04	1038.60
588.39	1036.48
588.74	1034.15
589.09	1032.06
589.44	1029.87
589.79	1028.37
590.14	1026.77
590.49	1025.07
590.84	1022.98
591.19	1021.39
591.54	1019.23
591.89	1016.54
592.25	1014.18
592.60	1011.42
592.95	1008.65
593.30	1006.12
593.65	1003.73
594.00	1001.25
594.35	999.04
594.70	996.04
595.05	993.89
595.40	990.89
595.75	988.16
596.10	986.01
596.45	983.79
596.80	981.79
597.15	979.21
597.50	976.54
597.85	973.90
598.19	971.41
598.54	968.61
598.89	966.07
599.24	963.87
599.59	961.62
599.94	959.71
600.29	957.64
600.64	955.02
600.99	952.04
601.34	949.33
601.69	946.20
602.04	943.83
602.39	940.67
602.74	938.02
603.08	935.77
603.43	933.36
603.78	930.36
604.13	927.36
604.48	924.52
604.83	922.04
605.18	919.28
605.53	916.08
605.87	912.88
606.22	909.90
606.57	906.77
606.92	903.80
607.27	900.90
607.62	898.17
607.96	895.71
608.31	893.21
608.66	890.03
609.01	887.06
609.36	883.61
609.70	880.27
610.05	876.96
610.40	873.81
610.75	869.99
611.10	866.55
611.44	862.91
611.79	859.59
612.14	855.71
612.49	851.81
612.83	848.34
613.18	844.81
613.53	841.47
613.88	837.77
614.22	833.93
614.57	830.11
614.92	826.32
615.27	822.40
615.61	818.40
615.96	814.86
616.31	811.41
616.65	808.49
617.00	805.31
617.35	802.11
617.70	798.40
618.04	794.82
618.39	791.61
618.74	788.28
619.08	784.66
619.43	781.33
619.78	778.15
620.12	774.98
620.47	771.70
620.82	768.45
621.16	765.24
621.51	761.74
621.85	758.35
622.20	754.70
622.55	751.35
622.89	748.12
623.24	745.10
623.59	741.90
623.93	738.70
624.28	735.59
624.62	732.20
624.97	729.17
625.32	726.50
625.66	723.36
626.01	720.32
626.35	717.41
626.70	714.51
627.04	711.61
627.39	708.30
627.73	705.20
628.08	701.95
628.43	698.65
628.77	695.64
629.12	692.37
629.46	689.36
629.81	686.24
630.15	683.00
630.50	679.62
630.84	676.28
631.19	672.81
631.53	669.56
631.88	666.15
632.22	662.70
632.57	659.24
632.91	656.01
633.26	652.94
633.60	649.63
633.95	646.39
634.29	643.22
634.64	640.47
634.98	637.37
635.32	634.63
635.67	632.07
636.01	629.44
636.36	626.82
636.70	624.27
637.05	621.56
637.39	619.16
637.73	616.49
638.08	614.14
638.42	611.76
638.77	609.27
639.11	606.74
639.45	604.17
639.80	601.54
640.14	598.99
640.49	596.33
640.83	593.77
641.17	591.27
641.52	588.74
641.86	586.11
642.20	583.71
642.55	580.90
642.89	578.23
643.23	575.60
643.58	573.24
643.92	570.49
644.26	567.90
644.61	565.42
644.95	562.87
645.29	559.92
645.64	557.13
645.98	554.38
646.32	552.01
646.66	549.41
647.01	546.94
647.35	544.50
647.69	541.92
648.04	539.64
648.38	536.90
648.72	534.30
649.06	531.67
649.41	529.13
649.75	526.54
650.09	524.07
650.43	521.43
650.78	518.70
651.12	516.21
651.46	513.77
651.80	511.11
652.14	508.67
652.49	506.43
652.83	504.15
653.17	501.58
653.51	499.16
653.85	496.78
654.20	494.30
654.54	491.73
654.88	489.21
655.22	486.51
655.56	484.11
655.90	481.62
656.25	479.38
656.59	477.17
656.93	474.97
657.27	472.53
657.61	470.10
657.95	467.82
658.29	465.68
658.64	463.26
658.98	461.00
659.32	458.62
659.66	456.19
660.00	453.95
660.34	451.90
660.68	449.68
661.02	447.48
661.36	445.45
661.70	443.37
662.05	441.47
662.39	439.61
662.73	437.78
663.07	436.20
663.41	434.23
663.75	432.06
664.09	430.28
664.43	428.32
664.77	426.59
665.11	424.79
665.45	422.87
665.79	421.13
666.13	419.34
666.47	417.54
666.81	415.79
667.15	413.74
667.49	411.97
667.83	410.23
668.17	408.60
668.51	406.77
668.85	404.93
669.19	403.35
669.53	401.80
669.87	399.92
670.21	397.97
670.55	396.17
670.89	394.74
671.23	392.97
671.57	391.39
671.91	389.70
672.25	388.09
672.58	386.47
672.92	385.20
673.26	383.83
673.60	382.39
673.94	381.01
674.28	379.81
674.62	378.48
674.96	377.07
675.30	375.76
675.64	374.46
675.97	373.23
676.31	371.87
676.65	370.32
676.99	369.14
677.33	367.89
677.67	366.71
678.01	365.30
678.34	363.93
678.68	362.81
679.02	361.60
679.36	360.52
679.70	359.42
680.04	357.97
680.37	356.69
680.71	355.52
681.05	354.53
681.39	353.40
681.73	352.16
682.06	351.07
682.40	349.94
682.74	348.86
683.08	347.79
683.42	346.64
683.75	345.80
684.09	344.78
684.43	343.75
684.77	342.70
685.10	341.70
685.44	340.76
685.78	339.68
686.12	338.67
686.45	337.57
686.79	336.57
687.13	335.56
687.46	334.46
687.80	333.54
688.14	332.33
688.48	331.40
688.81	330.55
689.15	329.54
689.49	328.50
689.82	327.53
690.16	326.47
690.50	325.59
690.83	324.40
691.17	323.33
691.51	322.29
691.84	321.44
692.18	320.50
692.52	319.48
692.85	318.56
693.19	317.75
693.52	316.69
693.86	315.72
694.20	314.80
694.53	313.91
694.87	312.94
695.21	311.96
695.54	310.93
695.88	309.97
696.21	309.10
696.55	308.25
696.88	307.32
697.22	306.53
697.56	305.71
697.89	304.84
698.23	304.01
698.56	303.39
698.90	302.53
699.23	301.80
699.57	301.12
699.90	300.33
700.24	299.50
700.58	298.94
700.91	298.17
701.25	297.53
701.58	297.08
701.92	296.39
702.25	295.76
702.59	295.10
702.92	294.36
703.26	293.66
703.59	292.90
703.93	292.43
704.26	291.73
704.60	291.02
704.93	290.38
705.26	289.71
705.60	288.92
705.93	288.27
706.27	287.60
706.60	287.06
706.94	286.53
707.27	285.93
707.61	285.20
707.94	284.55
708.27	283.78
708.61	282.98
708.94	282.32
709.28	281.69
709.61	281.09
709.94	280.59
710.28	279.91
710.61	279.41
710.95	278.64
711.28	278.05
711.61	277.47
711.95	276.88
712.28	276.29
712.61	275.79
712.95	275.29
713.28	274.78
713.61	274.15
713.95	273.41
714.28	272.81
714.61	272.26
714.95	271.74
715.28	271.25
715.61	270.74
715.95	270.23
716.28	269.80
716.61	269.40
716.95	268.83
717.28	268.41
717.61	267.89
717.94	267.46
718.28	267.01
718.61	266.50
718.94	266.15
719.27	265.90
719.61	265.50
719.94	265.05
720.27	264.50
720.60	264.06
720.94	263.71
721.27	263.32
721.60	262.93
721.93	262.58
722.27	262.26
722.60	261.79
722.93	261.43
723.26	261.14
723.59	260.71
723.93	260.39
724.26	260.13
724.59	259.82
724.92	259.55
725.25	259.31
725.59	259.08
725.92	258.82
726.25	258.50
726.58	258.10
726.91	257.88
727.24	257.81
727.57	257.60
727.91	257.29
728.24	257.08
728.57	256.80
728.90	256.65
729.23	256.38
729.56	256.46
729.89	256.28
730.22	255.90
730.55	255.69
730.89	255.47
731.22	255.09
731.55	254.86
731.88	254.55
732.21	254.29
732.54	254.07
732.87	253.73
733.20	253.46
733.53	253.34
733.86	253.10
734.19	252.79
734.52	252.59
734.85	252.51
735.18	252.23
735.51	252.12
735.84	251.90
736.17	251.72
736.50	251.28
736.83	251.25
737.16	251.05
737.49	250.84
737.82	250.73
738.15	250.65
738.48	250.61
738.81	250.43
739.14	250.26
739.47	250.06
739.80	249.98
740.13	249.84
740.46	249.54
740.79	249.32
741.12	249.14
741.45	248.83
741.78	248.69
742.11	248.58
742.44	248.30
742.77	248.01
743.10	247.72
743.43	247.50
743.75	247.09
744.08	247.21
744.41	247.07
744.74	246.80
745.07	246.55
745.40	246.26
745.73	246.10
746.06	245.91
746.39	245.71
746.71	245.51
747.04	245.22
747.37	245.06
747.70	244.87
748.03	244.62
748.36	244.43
748.68	244.12
749.01	243.83
749.34	243.67
749.67	243.60
750.00	243.41
750.33	243.37
750.65	243.19
750.98	242.73
751.31	242.46
751.64	242.22
751.97	242.15
752.29	241.91
752.62	241.70
752.95	241.45
753.28	241.18
753.60	240.92
753.93	240.78
754.26	240.65
754.59	240.43
754.91	240.29
755.24	240.15
755.57	240.03
755.90	239.88
756.22	239.65
756.55	239.46
756.88	239.27
757.20	239.04
757.53	238.95
757.86	238.82
758.19	238.85
758.51	238.78
758.84	238.57
759.17	238.48
759.49	238.27
759.82	238.30
760.15	238.22
760.47	238.12
760.80	237.92
761.13	237.77
761.45	237.68
761.78	237.52
762.11	237.44
762.43	237.29
762.76	237.17
763.08	237.16
763.41	237.08
763.74	237.09
764.06	236.98
764.39	236.83
764.71	236.71
765.04	236.48
765.37	236.32
765.69	236.20
766.02	236.13
766.34	236.09
766.67	235.93
767.00	235.85
767.32	235.95
767.65	236.10
767.97	236.10
768.30	236.06
768.62	235.96
768.95	235.88
769.27	235.84
769.60	235.86
769.92	235.77
770.25	235.68
770.57	235.52
770.90	235.50
771.22	235.42
771.55	235.43
771.87	235.40
772.20	235.35
772.52	235.51
772.85	235.63
773.17	235.58
773.50	235.50
773.82	235.43
774.15	235.25
774.47	235.02
774.80	234.91
775.12	234.81
775.45	234.82
775.77	234.85
776.09	234.90
776.42	234.85
776.74	234.93
777.07	234.92
777.39	234.93
777.72	234.80
778.04	234.83
778.36	234.77
778.69	234.70
779.01	234.66
779.33	234.36
779.66	234.28
779.98	234.30
780.31	234.27
780.63	234.46
780.95	234.47
781.28	234.42
781.60	234.24
781.92	234.36
782.25	234.37
782.57	234.29
782.89	234.28
783.22	234.17
783.54	233.96
783.86	233.80
784.19	233.74
784.51	233.75
784.83	233.74
785.16	233.70
785.48	233.67
785.80	233.74
786.12	233.83
786.45	233.63
786.77	233.51
787.09	233.48
787.42	233.20
787.74	233.12
788.06	233.13
788.38	233.24
788.71	233.04
789.03	232.88
789.35	232.81
789.67	232.50
789.99	232.48
790.32	232.52
790.64	232.51
790.96	232.56
791.28	232.45
791.61	232.40
791.93	232.25
