SpectraSuite Data File
++++++++++++++++++++++++++++++++++++
Date: Fri Feb 01 14:40:50 EST 2013
User: group
Dark Spectrum Present: No
Reference Spectrum Present: No
Number of Sampled Component Spectra: 1
Spectrometers: USB2E7196
Integration Time (usec): 70000 (USB2E7196)
Spectra Averaged: 10 (USB2E7196)
Boxcar Smoothing: 10 (USB2E7196)
Correct for Electrical Dark: No (USB2E7196)
Strobe/Lamp Enabled: No (USB2E7196)
Correct for Detector Non-linearity: No (USB2E7196)
Correct for Stray Light: No (USB2E7196)
Number of Pixels in Processed Spectrum: 2048
>>>>>Begin Processed Spectral Data<<<<<
339.09	0.00
339.48	214.60
339.86	217.30
340.24	217.50
340.63	219.80
341.01	223.50
341.39	221.40
341.78	224.40
342.16	224.10
342.54	227.00
342.93	213.97
343.31	224.80
343.69	225.44
344.07	225.88
344.46	226.39
344.84	226.85
345.22	227.03
345.60	227.35
345.99	227.48
346.37	227.72
346.75	227.80
347.13	227.84
347.52	227.85
347.90	228.00
348.28	228.06
348.66	228.16
349.05	228.12
349.43	228.22
349.81	228.31
350.19	228.46
350.57	228.56
350.96	228.72
351.34	228.73
351.72	228.78
352.10	228.90
352.48	228.95
352.87	228.90
353.25	229.04
353.63	229.07
354.01	229.19
354.39	229.29
354.77	229.43
355.15	229.61
355.54	229.73
355.92	229.72
356.30	229.74
356.68	229.84
357.06	229.90
357.44	229.89
357.82	229.98
358.20	230.05
358.58	230.10
358.97	230.22
359.35	230.47
359.73	230.54
360.11	230.67
360.49	230.73
360.87	230.81
361.25	230.86
361.63	230.99
362.01	231.08
362.39	231.06
362.77	231.07
363.15	231.10
363.53	231.09
363.91	231.24
364.29	231.33
364.67	231.26
365.05	231.35
365.43	231.40
365.81	231.31
366.19	231.32
366.57	231.37
366.95	231.36
367.33	231.22
367.71	231.31
368.09	231.19
368.47	231.27
368.85	231.21
369.23	231.24
369.61	231.10
369.99	231.10
370.37	231.08
370.75	231.13
371.13	230.92
371.51	230.87
371.89	230.79
372.27	230.72
372.65	230.68
373.03	230.49
373.41	230.43
373.78	230.37
374.16	230.21
374.54	230.08
374.92	229.89
375.30	229.83
375.68	229.75
376.06	229.82
376.44	229.67
376.82	229.76
377.19	229.60
377.57	229.63
377.95	229.44
378.33	229.38
378.71	229.07
379.09	229.18
379.47	229.11
379.84	229.04
380.22	228.88
380.60	228.75
380.98	228.75
381.36	228.58
381.73	228.53
382.11	228.50
382.49	228.46
382.87	228.38
383.25	228.31
383.62	228.40
384.00	228.20
384.38	228.10
384.76	227.98
385.13	227.98
385.51	227.91
385.89	227.92
386.27	227.83
386.64	227.91
387.02	227.82
387.40	227.76
387.78	227.66
388.15	227.74
388.53	227.69
388.91	227.57
389.29	227.50
389.66	227.50
390.04	227.40
390.42	227.42
390.79	227.46
391.17	227.40
391.55	227.08
391.92	227.00
392.30	226.99
392.68	226.93
393.05	226.90
393.43	226.87
393.81	226.87
394.18	226.89
394.56	226.95
394.94	226.96
395.31	226.98
395.69	227.09
396.06	227.16
396.44	227.11
396.82	227.25
397.19	227.50
397.57	227.57
397.95	227.67
398.32	227.60
398.70	227.73
399.07	227.87
399.45	227.99
399.82	228.19
400.20	228.20
400.58	228.33
400.95	228.30
401.33	228.38
401.70	228.51
402.08	228.63
402.45	228.67
402.83	228.77
403.20	228.92
403.58	228.93
403.95	229.06
404.33	229.28
404.71	229.35
405.08	229.64
405.46	229.80
405.83	229.97
406.21	230.28
406.58	230.45
406.96	230.58
407.33	230.81
407.70	231.09
408.08	231.53
408.45	231.80
408.83	232.13
409.20	232.47
409.58	232.71
409.95	232.97
410.33	233.19
410.70	233.42
411.08	233.67
411.45	234.02
411.82	234.25
412.20	234.56
412.57	235.10
412.95	235.34
413.32	235.75
413.69	236.23
414.07	236.60
414.44	237.14
414.82	237.77
415.19	238.38
415.56	238.83
415.94	239.34
416.31	240.01
416.68	240.72
417.06	241.35
417.43	242.05
417.81	242.94
418.18	243.87
418.55	244.75
418.93	245.77
419.30	246.80
419.67	247.79
420.04	248.88
420.42	249.96
420.79	251.12
421.16	252.29
421.54	253.57
421.91	254.92
422.28	256.20
422.66	257.59
423.03	258.96
423.40	260.37
423.77	261.88
424.15	263.30
424.52	264.83
424.89	266.56
425.26	268.19
425.64	269.57
426.01	271.20
426.38	273.01
426.75	274.78
427.13	276.52
427.50	278.41
427.87	280.28
428.24	282.11
428.61	283.98
428.99	285.96
429.36	288.11
429.73	290.22
430.10	292.19
430.47	294.21
430.85	296.25
431.22	298.64
431.59	301.25
431.96	303.55
432.33	306.11
432.70	308.61
433.08	311.47
433.45	314.31
433.82	317.01
434.19	320.03
434.56	323.08
434.93	325.78
435.30	328.58
435.68	331.69
436.05	334.64
436.42	337.46
436.79	340.07
437.16	342.80
437.53	345.69
437.90	348.79
438.27	351.73
438.64	354.84
439.01	357.52
439.38	359.59
439.75	361.84
440.13	364.40
440.50	366.74
440.87	368.76
441.24	370.61
441.61	372.79
441.98	374.16
442.35	375.79
442.72	377.72
443.09	379.56
443.46	380.55
443.83	381.14
444.20	381.62
444.57	382.62
444.94	382.94
445.31	383.29
445.68	383.69
446.05	383.72
446.42	383.13
446.79	382.70
447.16	382.22
447.53	381.95
447.90	380.73
448.27	379.55
448.64	377.87
449.01	376.79
449.37	374.80
449.74	372.97
450.11	370.74
450.48	368.14
450.85	365.50
451.22	363.27
451.59	361.29
451.96	359.22
452.33	356.50
452.70	354.11
453.07	351.17
453.43	348.06
453.80	345.13
454.17	342.40
454.54	339.62
454.91	336.87
455.28	334.06
455.65	331.43
456.02	329.10
456.38	326.82
456.75	324.04
457.12	321.64
457.49	319.27
457.86	316.89
458.23	315.04
458.59	312.80
458.96	310.47
459.33	308.37
459.70	306.48
460.07	304.78
460.43	302.95
460.80	301.23
461.17	299.68
461.54	298.10
461.91	296.52
462.27	295.08
462.64	293.72
463.01	292.27
463.38	290.90
463.74	289.17
464.11	287.89
464.48	286.77
464.85	285.50
465.21	284.48
465.58	283.53
465.95	282.36
466.32	281.42
466.68	280.41
467.05	279.46
467.42	278.55
467.78	277.45
468.15	276.52
468.52	275.85
468.88	274.88
469.25	273.90
469.62	273.21
469.98	272.40
470.35	271.72
470.72	270.97
471.08	270.24
471.45	269.67
471.82	269.05
472.18	268.33
472.55	267.87
472.92	267.20
473.28	266.60
473.65	265.92
474.02	265.34
474.38	265.02
474.75	264.56
475.11	263.97
475.48	263.60
475.85	263.04
476.21	262.59
476.58	262.33
476.94	262.06
477.31	261.87
477.67	261.57
478.04	261.21
478.41	260.96
478.77	260.80
479.14	260.48
479.50	260.19
479.87	260.11
480.23	259.88
480.60	259.74
480.96	259.56
481.33	259.60
481.69	259.62
482.06	259.45
482.42	259.35
482.79	259.39
483.15	259.49
483.52	259.72
483.88	259.74
484.25	259.62
484.61	259.70
484.98	259.68
485.34	259.84
485.71	260.00
486.07	260.23
486.44	260.45
486.80	260.66
487.17	260.96
487.53	261.30
487.90	261.75
488.26	262.22
488.62	262.67
488.99	263.12
489.35	263.54
489.72	264.04
490.08	264.58
490.44	265.11
490.81	265.70
491.17	266.26
491.54	266.94
491.90	267.80
492.26	268.62
492.63	269.47
492.99	270.43
493.36	271.48
493.72	272.53
494.08	273.49
494.45	274.75
494.81	276.05
495.17	277.26
495.54	278.68
495.90	280.10
496.26	281.70
496.63	283.16
496.99	284.78
497.35	286.61
497.72	288.72
498.08	290.71
498.44	292.79
498.80	295.01
499.17	297.35
499.53	299.80
499.89	302.49
500.26	305.25
500.62	307.91
500.98	310.72
501.34	313.73
501.71	316.94
502.07	320.09
502.43	323.46
502.79	326.96
503.16	330.58
503.52	334.38
503.88	338.20
504.24	342.33
504.60	346.64
504.97	351.17
505.33	355.70
505.69	360.59
506.05	365.51
506.41	370.65
506.78	375.97
507.14	381.48
507.50	387.10
507.86	392.73
508.22	398.90
508.59	404.99
508.95	411.41
509.31	418.20
509.67	425.24
510.03	432.31
510.39	439.54
510.75	446.88
511.12	454.48
511.48	462.45
511.84	470.54
512.20	478.85
512.56	487.30
512.92	495.84
513.28	504.72
513.64	513.78
514.00	522.77
514.37	532.19
514.73	541.81
515.09	551.39
515.45	561.39
515.81	571.42
516.17	581.87
516.53	592.22
516.89	602.63
517.25	613.29
517.61	624.24
517.97	635.40
518.33	646.84
518.69	658.32
519.05	669.79
519.41	681.61
519.77	693.75
520.13	705.84
520.49	717.97
520.85	730.31
521.21	742.84
521.57	756.01
521.93	768.60
522.29	781.58
522.65	794.60
523.01	807.67
523.37	820.78
523.73	834.15
524.09	847.74
524.45	861.41
524.81	875.42
525.17	889.59
525.53	903.57
525.89	917.60
526.25	931.94
526.61	946.20
526.97	960.78
527.33	975.29
527.68	989.86
528.04	1004.65
528.40	1019.30
528.76	1034.26
529.12	1049.15
529.48	1064.31
529.84	1079.01
530.20	1094.14
530.56	1110.08
530.91	1125.99
531.27	1141.52
531.63	1156.77
531.99	1172.20
532.35	1187.23
532.71	1201.63
533.07	1217.05
533.42	1232.01
533.78	1247.15
534.14	1262.23
534.50	1276.93
534.86	1292.02
535.21	1306.68
535.57	1321.83
535.93	1336.77
536.29	1351.85
536.65	1366.64
537.00	1381.30
537.36	1396.53
537.72	1410.90
538.08	1424.62
538.44	1438.40
538.79	1452.48
539.15	1466.51
539.51	1481.10
539.87	1495.32
540.22	1509.88
540.58	1524.29
540.94	1538.65
541.29	1552.09
541.65	1565.76
542.01	1579.61
542.37	1592.64
542.72	1606.21
543.08	1619.06
543.44	1632.42
543.79	1644.60
544.15	1656.95
544.51	1670.13
544.87	1682.32
545.22	1694.89
545.58	1706.95
545.94	1718.98
546.29	1730.47
546.65	1741.92
547.01	1752.56
547.36	1763.26
547.72	1774.22
548.07	1784.35
548.43	1794.33
548.79	1804.90
549.14	1814.58
549.50	1824.17
549.86	1833.79
550.21	1843.13
550.57	1852.66
550.92	1861.29
551.28	1870.34
551.64	1878.87
551.99	1886.99
552.35	1895.35
552.70	1903.77
553.06	1912.62
553.41	1921.20
553.77	1929.69
554.13	1938.12
554.48	1946.26
554.84	1954.43
555.19	1962.00
555.55	1969.28
555.90	1976.36
556.26	1983.63
556.61	1990.92
556.97	1997.52
557.32	2004.24
557.68	2010.71
558.03	2017.43
558.39	2023.85
558.74	2031.07
559.10	2037.76
559.45	2044.45
559.81	2051.30
560.16	2057.05
560.52	2062.10
560.87	2067.80
561.23	2072.65
561.58	2077.82
561.94	2082.87
562.29	2087.51
562.64	2091.85
563.00	2096.89
563.35	2102.43
563.71	2107.80
564.06	2112.86
564.42	2118.06
564.77	2122.81
565.12	2127.62
565.48	2131.44
565.83	2135.06
566.19	2138.14
566.54	2141.53
566.89	2144.24
567.25	2146.61
567.60	2150.28
567.96	2153.81
568.31	2156.01
568.66	2158.90
569.02	2161.46
569.37	2163.29
569.72	2165.27
570.08	2167.05
570.43	2168.63
570.78	2169.91
571.14	2169.90
571.49	2170.80
571.84	2171.89
572.20	2172.39
572.55	2172.65
572.90	2172.70
573.26	2173.45
573.61	2173.17
573.96	2173.01
574.31	2172.19
574.67	2170.90
575.02	2169.09
575.37	2167.97
575.72	2166.43
576.08	2164.95
576.43	2163.19
576.78	2162.10
577.13	2161.03
577.49	2159.86
577.84	2158.00
578.19	2155.74
578.54	2153.72
578.90	2150.73
579.25	2147.26
579.60	2144.09
579.95	2140.84
580.30	2137.83
580.66	2134.13
581.01	2131.01
581.36	2127.72
581.71	2125.00
582.06	2121.90
582.42	2118.34
582.77	2113.91
583.12	2110.28
583.47	2107.01
583.82	2103.38
584.17	2099.08
584.53	2095.03
584.88	2090.79
585.23	2086.55
585.58	2082.65
585.93	2078.35
586.28	2074.76
586.63	2071.06
586.98	2067.70
587.34	2063.67
587.69	2059.63
588.04	2055.81
588.39	2051.72
588.74	2046.38
589.09	2040.83
589.44	2035.56
589.79	2031.11
590.14	2027.15
590.49	2022.19
590.84	2016.88
591.19	2012.24
591.54	2006.01
591.89	1999.69
592.25	1994.04
592.60	1987.53
592.95	1981.26
593.30	1975.33
593.65	1969.21
594.00	1962.83
594.35	1956.73
594.70	1950.40
595.05	1944.64
595.40	1937.78
595.75	1931.12
596.10	1925.44
596.45	1920.19
596.80	1915.32
597.15	1909.45
597.50	1903.00
597.85	1897.34
598.19	1891.86
598.54	1885.65
598.89	1881.25
599.24	1876.20
599.59	1870.28
599.94	1865.45
600.29	1859.72
600.64	1854.04
600.99	1847.35
601.34	1841.73
601.69	1835.09
602.04	1829.34
602.39	1823.06
602.74	1818.23
603.08	1813.19
603.43	1807.89
603.78	1801.74
604.13	1795.42
604.48	1789.00
604.83	1782.79
605.18	1776.62
605.53	1769.14
605.87	1761.56
606.22	1754.51
606.57	1747.57
606.92	1741.44
607.27	1735.07
607.62	1728.74
607.96	1722.18
608.31	1716.27
608.66	1708.95
609.01	1701.93
609.36	1694.26
609.70	1686.06
610.05	1677.83
610.40	1669.79
610.75	1661.74
611.10	1654.32
611.44	1645.88
611.79	1638.69
612.14	1631.16
612.49	1622.53
612.83	1614.79
613.18	1607.56
613.53	1600.10
613.88	1591.89
614.22	1583.84
614.57	1575.41
614.92	1567.47
615.27	1559.94
615.61	1552.02
615.96	1544.40
616.31	1536.90
616.65	1530.21
617.00	1523.44
617.35	1516.45
617.70	1508.81
618.04	1500.89
618.39	1493.19
618.74	1486.23
619.08	1478.33
619.43	1470.80
619.78	1464.03
620.12	1457.10
620.47	1449.60
620.82	1441.58
621.16	1434.45
621.51	1427.13
621.85	1419.82
622.20	1412.06
622.55	1404.40
622.89	1397.36
623.24	1390.71
623.59	1384.01
623.93	1376.52
624.28	1369.40
624.62	1361.58
624.97	1354.42
625.32	1348.13
625.66	1341.19
626.01	1334.20
626.35	1327.54
626.70	1320.45
627.04	1313.50
627.39	1306.39
627.73	1299.30
628.08	1292.56
628.43	1285.61
628.77	1278.55
629.12	1270.89
629.46	1263.76
629.81	1256.04
630.15	1248.28
630.50	1240.66
630.84	1232.31
631.19	1224.40
631.53	1216.96
631.88	1209.43
632.22	1201.65
632.57	1194.22
632.91	1186.44
633.26	1178.90
633.60	1171.03
633.95	1163.78
634.29	1156.50
634.64	1149.75
634.98	1142.68
635.32	1135.88
635.67	1129.20
636.01	1122.31
636.36	1115.91
636.70	1109.52
637.05	1103.34
637.39	1097.29
637.73	1090.51
638.08	1084.96
638.42	1079.51
638.77	1073.48
639.11	1067.46
639.45	1061.66
639.80	1054.90
640.14	1048.95
640.49	1042.80
640.83	1036.53
641.17	1030.17
641.52	1023.86
641.86	1017.13
642.20	1011.26
642.55	1004.80
642.89	998.51
643.23	992.06
643.58	986.04
643.92	979.61
644.26	973.35
644.61	967.14
644.95	961.26
645.29	954.69
645.64	947.98
645.98	941.66
646.32	935.78
646.66	929.59
647.01	923.60
647.35	917.70
647.69	911.54
648.04	905.85
648.38	900.04
648.72	893.80
649.06	887.54
649.41	881.44
649.75	875.31
650.09	869.02
650.43	863.26
650.78	856.94
651.12	850.89
651.46	845.13
651.80	839.33
652.14	833.59
652.49	827.80
652.83	822.26
653.17	816.45
653.51	810.73
653.85	805.00
654.20	799.47
654.54	793.62
654.88	788.03
655.22	782.17
655.56	776.21
655.90	770.87
656.25	765.54
656.59	759.96
656.93	754.68
657.27	749.52
657.61	744.13
657.95	739.38
658.29	734.30
658.64	728.94
658.98	723.74
659.32	718.23
659.66	713.14
660.00	707.87
660.34	702.66
660.68	697.80
661.02	692.73
661.36	687.84
661.70	683.10
662.05	678.47
662.39	674.07
662.73	669.54
663.07	664.93
663.41	660.68
663.75	656.50
664.09	652.10
664.43	647.47
664.77	642.95
665.11	638.51
665.45	634.24
665.79	630.13
666.13	625.69
666.47	621.68
666.81	617.59
667.15	613.33
667.49	609.26
667.83	605.01
668.17	601.04
668.51	597.08
668.85	593.01
669.19	589.13
669.53	585.11
669.87	581.33
670.21	577.71
670.55	573.82
670.89	570.21
671.23	566.60
671.57	563.30
671.91	559.90
672.25	556.29
672.58	552.83
672.92	549.36
673.26	546.00
673.60	542.54
673.94	539.25
674.28	536.19
674.62	533.21
674.96	530.13
675.30	527.31
675.64	524.17
675.97	521.22
676.31	518.36
676.65	515.49
676.99	512.84
677.33	509.62
677.67	506.84
678.01	503.52
678.34	500.60
678.68	497.67
679.02	494.82
679.36	492.13
679.70	489.41
680.04	486.65
680.37	483.78
680.71	481.13
681.05	478.72
681.39	476.12
681.73	473.47
682.06	470.96
682.40	468.34
682.74	465.70
683.08	463.08
683.42	460.39
683.75	457.80
684.09	455.07
684.43	452.67
684.77	450.20
685.10	448.04
685.44	445.69
685.78	443.46
686.12	441.25
686.45	438.96
686.79	436.40
687.13	434.15
687.46	431.94
687.80	429.66
688.14	427.14
688.48	424.94
688.81	422.71
689.15	420.62
689.49	418.20
689.82	416.14
690.16	414.01
690.50	411.98
690.83	409.96
691.17	407.84
691.51	405.84
691.84	403.97
692.18	401.83
692.52	399.75
692.85	397.65
693.19	395.64
693.52	393.55
693.86	391.80
694.20	389.96
694.53	388.33
694.87	386.71
695.21	384.86
695.54	382.93
695.88	381.03
696.21	379.00
696.55	377.28
696.88	375.53
697.22	373.87
697.56	372.16
697.89	370.40
698.23	368.81
698.56	367.23
698.90	365.57
699.23	363.99
699.57	362.32
699.90	360.78
700.24	359.06
700.58	357.46
700.91	355.94
701.25	354.40
701.58	352.75
701.92	351.17
702.25	349.73
702.59	348.33
702.92	346.95
703.26	345.54
703.59	344.22
703.93	342.98
704.26	341.63
704.60	340.25
704.93	338.93
705.26	337.64
705.60	336.33
705.93	335.02
706.27	333.75
706.60	332.59
706.94	331.31
707.27	330.03
707.61	328.80
707.94	327.59
708.27	326.44
708.61	325.12
708.94	323.93
709.28	322.81
709.61	321.78
709.94	320.68
710.28	319.59
710.61	318.56
710.95	317.34
711.28	316.32
711.61	315.20
711.95	314.25
712.28	313.00
712.61	311.88
712.95	310.74
713.28	309.72
713.61	308.76
713.95	307.76
714.28	307.04
714.61	306.20
714.95	305.30
715.28	304.33
715.61	303.45
715.95	302.62
716.28	301.73
716.61	300.81
716.95	299.88
717.28	299.10
717.61	298.16
717.94	297.31
718.28	296.37
718.61	295.60
718.94	294.67
719.27	294.10
719.61	293.34
719.94	292.69
720.27	291.98
720.60	291.19
720.94	290.51
721.27	289.70
721.60	288.93
721.93	288.23
722.27	287.59
722.60	286.97
722.93	286.30
723.26	285.65
723.59	284.95
723.93	284.42
724.26	283.85
724.59	283.26
724.92	282.72
725.25	282.31
725.59	281.74
725.92	281.27
726.25	280.65
726.58	280.19
726.91	279.67
727.24	279.13
727.57	278.70
727.91	278.10
728.24	277.59
728.57	277.08
728.90	276.60
729.23	275.91
729.56	275.43
729.89	274.95
730.22	274.40
730.55	273.93
730.89	273.39
731.22	272.75
731.55	272.28
731.88	271.78
732.21	271.08
732.54	270.51
732.87	270.00
733.20	269.54
733.53	269.00
733.86	268.52
734.19	267.92
734.52	267.46
734.85	267.15
735.18	266.63
735.51	266.31
735.84	265.84
736.17	265.55
736.50	264.98
736.83	264.70
737.16	264.27
737.49	263.77
737.82	263.41
738.15	263.05
738.48	262.65
738.81	262.22
739.14	261.87
739.47	261.59
739.80	261.26
740.13	260.90
740.46	260.56
740.79	260.18
741.12	259.90
741.45	259.44
741.78	259.00
742.11	258.71
742.44	258.25
742.77	257.93
743.10	257.60
743.43	257.40
743.75	256.83
744.08	256.81
744.41	256.63
744.74	256.29
745.07	256.06
745.40	255.78
745.73	255.54
746.06	255.25
746.39	254.84
746.71	254.49
747.04	254.11
747.37	253.73
747.70	253.41
748.03	253.10
748.36	252.92
748.68	252.61
749.01	252.29
749.34	252.03
749.67	251.81
750.00	251.60
750.33	251.42
750.65	251.14
750.98	250.60
751.31	250.28
751.64	250.04
751.97	249.77
752.29	249.48
752.62	249.05
752.95	248.83
753.28	248.68
753.60	248.49
753.93	248.31
754.26	248.16
754.59	247.77
754.91	247.49
755.24	247.23
755.57	246.94
755.90	246.76
756.22	246.51
756.55	246.21
756.88	245.87
757.20	245.55
757.53	245.41
757.86	245.29
758.19	245.17
758.51	244.95
758.84	244.69
759.17	244.49
759.49	244.43
759.82	244.33
760.15	244.12
760.47	243.85
760.80	243.69
761.13	243.59
761.45	243.50
761.78	243.42
762.11	243.16
762.43	243.09
762.76	242.96
763.08	242.89
763.41	242.82
763.74	242.66
764.06	242.54
764.39	242.34
764.71	242.20
765.04	241.98
765.37	241.80
765.69	241.61
766.02	241.59
766.34	241.28
766.67	241.05
767.00	240.95
767.32	241.00
767.65	240.97
767.97	240.85
768.30	240.70
768.62	240.53
768.95	240.50
769.27	240.37
769.60	240.20
769.92	240.07
770.25	239.87
770.57	239.76
770.90	239.55
771.22	239.40
771.55	239.19
771.87	239.10
772.20	238.98
772.52	239.10
772.85	239.07
773.17	239.08
773.50	238.90
773.82	238.70
774.15	238.35
774.47	238.04
774.80	237.79
775.12	237.77
775.45	237.62
775.77	237.46
776.09	237.38
776.42	237.38
776.74	237.21
777.07	237.03
777.39	236.95
777.72	236.91
778.04	236.82
778.36	236.74
778.69	236.70
779.01	236.58
779.33	236.30
779.66	236.01
779.98	235.84
780.31	235.72
780.63	235.79
780.95	235.90
781.28	235.77
781.60	235.79
781.92	235.65
782.25	235.66
782.57	235.52
782.89	235.37
783.22	235.11
783.54	234.98
783.86	234.88
784.19	234.70
784.51	234.63
784.83	234.49
785.16	234.40
785.48	234.20
785.80	234.21
786.12	234.14
786.45	234.08
786.77	234.05
787.09	234.04
787.42	233.91
