SpectraSuite Data File
++++++++++++++++++++++++++++++++++++
Date: Fri Feb 01 14:37:26 EST 2013
User: group
Dark Spectrum Present: No
Reference Spectrum Present: No
Number of Sampled Component Spectra: 1
Spectrometers: USB2E7196
Integration Time (usec): 70000 (USB2E7196)
Spectra Averaged: 10 (USB2E7196)
Boxcar Smoothing: 10 (USB2E7196)
Correct for Electrical Dark: No (USB2E7196)
Strobe/Lamp Enabled: No (USB2E7196)
Correct for Detector Non-linearity: No (USB2E7196)
Correct for Stray Light: No (USB2E7196)
Number of Pixels in Processed Spectrum: 2048
>>>>>Begin Processed Spectral Data<<<<<
339.09	0.00
339.48	215.80
339.86	217.20
340.24	219.80
340.63	219.40
341.01	223.40
341.39	222.00
341.78	223.70
342.16	225.20
342.54	223.50
342.93	214.18
343.31	224.98
343.69	225.53
344.07	226.07
344.46	226.42
344.84	226.80
345.22	226.96
345.60	227.28
345.99	227.49
346.37	227.60
346.75	227.81
347.13	227.85
347.52	227.78
347.90	227.87
348.28	227.77
348.66	227.77
349.05	227.69
349.43	227.66
349.81	227.68
350.19	227.75
350.57	227.83
350.96	227.94
351.34	228.04
351.72	228.20
352.10	228.26
352.48	228.32
352.87	228.42
353.25	228.61
353.63	228.70
354.01	228.76
354.39	228.82
354.77	228.92
355.15	229.10
355.54	229.25
355.92	229.19
356.30	229.32
356.68	229.56
357.06	229.67
357.44	229.80
357.82	229.90
358.20	229.98
358.58	229.93
358.97	230.00
359.35	230.19
359.73	230.13
360.11	230.11
360.49	230.22
360.87	230.25
361.25	230.30
361.63	230.33
362.01	230.35
362.39	230.37
362.77	230.40
363.15	230.34
363.53	230.22
363.91	230.35
364.29	230.34
364.67	230.20
365.05	230.29
365.43	230.32
365.81	230.48
366.19	230.60
366.57	230.73
366.95	230.69
367.33	230.49
367.71	230.38
368.09	230.40
368.47	230.37
368.85	230.30
369.23	230.20
369.61	230.15
369.99	230.19
370.37	230.21
370.75	230.22
371.13	230.20
371.51	230.19
371.89	230.12
372.27	230.16
372.65	230.07
373.03	229.92
373.41	229.86
373.78	229.70
374.16	229.48
374.54	229.25
374.92	229.19
375.30	229.13
375.68	229.15
376.06	229.12
376.44	228.95
376.82	228.90
377.19	228.85
377.57	228.70
377.95	228.52
378.33	228.39
378.71	228.20
379.09	228.08
379.47	228.08
379.84	227.92
380.22	227.76
380.60	227.70
380.98	227.63
381.36	227.53
381.73	227.50
382.11	227.49
382.49	227.52
382.87	227.45
383.25	227.34
383.62	227.50
384.00	227.35
384.38	227.29
384.76	227.29
385.13	227.31
385.51	227.33
385.89	227.25
386.27	227.16
386.64	227.14
387.02	227.07
387.40	226.87
387.78	226.84
388.15	226.76
388.53	226.69
388.91	226.68
389.29	226.64
389.66	226.46
390.04	226.38
390.42	226.31
390.79	226.22
391.17	226.31
391.55	226.15
391.92	226.14
392.30	226.18
392.68	226.03
393.05	225.98
393.43	225.89
393.81	225.88
394.18	225.93
394.56	225.86
394.94	225.97
395.31	226.06
395.69	226.22
396.06	226.33
396.44	226.40
396.82	226.39
397.19	226.53
397.57	226.66
397.95	226.72
398.32	226.71
398.70	226.91
399.07	227.02
399.45	227.08
399.82	227.20
400.20	227.32
400.58	227.48
400.95	227.45
401.33	227.61
401.70	227.92
402.08	228.12
402.45	228.31
402.83	228.47
403.20	228.66
403.58	228.74
403.95	228.87
404.33	229.06
404.71	229.18
405.08	229.44
405.46	229.72
405.83	229.97
406.21	230.24
406.58	230.37
406.96	230.51
407.33	230.66
407.70	230.96
408.08	231.36
408.45	231.74
408.83	232.18
409.20	232.61
409.58	232.86
409.95	233.26
410.33	233.70
410.70	234.01
411.08	234.38
411.45	234.84
411.82	235.32
412.20	235.84
412.57	236.56
412.95	236.89
413.32	237.36
413.69	237.95
414.07	238.59
414.44	239.34
414.82	240.16
415.19	241.13
415.56	241.96
415.94	242.76
416.31	243.74
416.68	244.70
417.06	245.82
417.43	246.90
417.81	248.04
418.18	249.28
418.55	250.70
418.93	252.17
419.30	253.64
419.67	255.25
420.04	256.85
420.42	258.48
420.79	260.58
421.16	262.61
421.54	264.72
421.91	266.78
422.28	268.90
422.66	271.03
423.03	273.28
423.40	275.46
423.77	277.91
424.15	280.35
424.52	283.02
424.89	285.70
425.26	288.51
425.64	291.04
426.01	293.92
426.38	296.82
426.75	299.87
427.13	302.94
427.50	306.13
427.87	309.48
428.24	312.84
428.61	315.93
428.99	319.44
429.36	323.15
429.73	326.80
430.10	330.53
430.47	334.45
430.85	338.48
431.22	342.59
431.59	347.18
431.96	351.31
432.33	355.88
432.70	360.47
433.08	365.65
433.45	370.75
433.82	375.62
434.19	381.19
434.56	386.50
434.93	391.61
435.30	396.81
435.68	402.52
436.05	408.04
436.42	413.67
436.79	418.75
437.16	424.02
437.53	429.74
437.90	435.44
438.27	441.01
438.64	446.62
439.01	452.06
439.38	456.56
439.75	461.24
440.13	466.57
440.50	471.42
440.87	475.53
441.24	479.85
441.61	484.58
441.98	488.03
442.35	492.21
442.72	496.36
443.09	500.60
443.46	503.15
443.83	505.02
444.20	506.60
444.57	508.95
444.94	510.30
445.31	511.79
445.68	513.28
446.05	514.35
446.42	514.46
446.79	514.60
447.16	514.78
447.53	515.02
447.90	513.59
448.27	512.19
448.64	509.62
449.01	508.12
449.37	505.08
449.74	502.10
450.11	498.33
450.48	494.17
450.85	489.70
451.22	486.15
451.59	482.65
451.96	479.45
452.33	474.88
452.70	470.90
453.07	465.87
453.43	460.49
453.80	455.27
454.17	450.32
454.54	445.55
454.91	440.11
455.28	435.08
455.65	430.38
456.02	425.84
456.38	422.10
456.75	417.00
457.12	412.73
457.49	408.47
457.86	404.44
458.23	401.02
458.59	397.25
458.96	393.16
459.33	389.62
459.70	386.03
460.07	383.10
460.43	379.67
460.80	376.65
461.17	374.03
461.54	371.23
461.91	368.48
462.27	365.62
462.64	363.42
463.01	360.77
463.38	358.23
463.74	355.55
464.11	353.28
464.48	351.28
464.85	349.12
465.21	347.49
465.58	345.52
465.95	343.31
466.32	341.29
466.68	339.54
467.05	337.81
467.42	335.84
467.78	333.93
468.15	332.18
468.52	330.75
468.88	328.98
469.25	327.31
469.62	326.03
469.98	324.66
470.35	323.24
470.72	321.94
471.08	320.49
471.45	319.24
471.82	317.93
472.18	316.52
472.55	315.54
472.92	314.41
473.28	313.46
473.65	312.40
474.02	311.50
474.38	310.44
474.75	309.59
475.11	308.89
475.48	308.15
475.85	307.57
476.21	306.84
476.58	306.12
476.94	305.64
477.31	304.98
477.67	304.39
478.04	304.05
478.41	303.61
478.77	303.33
479.14	302.88
479.50	302.60
479.87	302.56
480.23	302.28
480.60	301.91
480.96	301.50
481.33	301.39
481.69	301.21
482.06	301.21
482.42	301.12
482.79	300.98
483.15	301.00
483.52	301.08
483.88	301.00
484.25	301.00
484.61	301.04
484.98	301.14
485.34	301.51
485.71	301.60
486.07	301.78
486.44	301.98
486.80	302.36
487.17	302.53
487.53	302.81
487.90	303.14
488.26	303.64
488.62	304.11
488.99	304.63
489.35	305.08
489.72	305.53
490.08	305.98
490.44	306.41
490.81	306.84
491.17	307.24
491.54	307.88
491.90	308.46
492.26	309.11
492.63	309.71
492.99	310.16
493.36	310.74
493.72	311.40
494.08	312.05
494.45	312.63
494.81	313.50
495.17	314.09
495.54	314.80
495.90	315.41
496.26	316.15
496.63	316.85
496.99	317.55
497.35	318.27
497.72	319.10
498.08	319.95
498.44	320.80
498.80	321.71
499.17	322.54
499.53	323.30
499.89	324.06
500.26	324.67
500.62	325.37
500.98	326.16
501.34	326.85
501.71	327.52
502.07	328.13
502.43	328.70
502.79	329.26
503.16	329.88
503.52	330.46
503.88	331.00
504.24	331.48
504.60	332.15
504.97	332.66
505.33	333.05
505.69	333.52
506.05	333.84
506.41	334.07
506.78	334.34
507.14	334.69
507.50	334.95
507.86	335.31
508.22	335.55
508.59	335.62
508.95	335.84
509.31	336.17
509.67	336.37
510.03	336.48
510.39	336.76
510.75	336.83
511.12	336.89
511.48	337.12
511.84	337.22
512.20	337.28
512.56	337.38
512.92	337.48
513.28	337.55
513.64	337.68
514.00	337.76
514.37	337.66
514.73	337.60
515.09	337.56
515.45	337.64
515.81	337.73
516.17	337.98
516.53	338.07
516.89	338.00
517.25	338.21
517.61	338.41
517.97	338.51
518.33	338.73
518.69	339.05
519.05	339.18
519.41	339.40
519.77	339.71
520.13	339.99
520.49	340.43
520.85	340.80
521.21	341.25
521.57	341.89
521.93	342.61
522.29	343.33
522.65	344.09
523.01	344.76
523.37	345.45
523.73	346.37
524.09	347.24
524.45	348.24
524.81	349.18
525.17	350.33
525.53	351.64
525.89	352.75
526.25	354.04
526.61	355.37
526.97	356.89
527.33	358.32
527.68	360.15
528.04	361.71
528.40	363.44
528.76	365.28
529.12	367.04
529.48	369.01
529.84	371.07
530.20	373.37
530.56	375.71
530.91	378.32
531.27	380.66
531.63	383.17
531.99	385.80
532.35	388.50
532.71	391.14
533.07	393.90
533.42	396.98
533.78	399.86
534.14	402.95
534.50	405.86
534.86	409.20
535.21	412.18
535.57	415.70
535.93	419.22
536.29	422.78
536.65	426.39
537.00	429.82
537.36	433.55
537.72	437.05
538.08	440.76
538.44	444.45
538.79	448.21
539.15	451.98
539.51	455.90
539.87	460.06
540.22	464.16
540.58	468.32
540.94	472.48
541.29	476.56
541.65	480.78
542.01	485.27
542.37	489.48
542.72	493.99
543.08	498.20
543.44	502.53
543.79	506.86
544.15	511.36
544.51	516.08
544.87	520.58
545.22	525.31
545.58	529.94
545.94	534.45
546.29	539.22
546.65	543.90
547.01	548.49
547.36	553.08
547.72	557.68
548.07	562.41
548.43	567.09
548.79	572.01
549.14	576.56
549.50	581.34
549.86	585.83
550.21	590.61
550.57	595.33
550.92	600.06
551.28	604.93
551.64	609.65
551.99	614.45
552.35	619.14
552.70	623.70
553.06	628.68
553.41	633.33
553.77	637.99
554.13	643.04
554.48	647.91
554.84	652.37
555.19	657.19
555.55	661.82
555.90	666.18
556.26	670.90
556.61	675.76
556.97	680.21
557.32	684.98
557.68	689.56
558.03	694.19
558.39	698.82
558.74	703.50
559.10	707.82
559.45	712.18
559.81	716.89
560.16	721.40
560.52	725.57
560.87	730.23
561.23	734.69
561.58	739.05
561.94	743.29
562.29	747.89
562.64	751.91
563.00	756.00
563.35	760.55
563.71	764.62
564.06	768.81
564.42	772.97
564.77	776.97
565.12	780.94
565.48	785.27
565.83	789.13
566.19	793.07
566.54	797.11
566.89	800.91
567.25	804.50
567.60	808.37
567.96	812.37
568.31	815.97
568.66	819.50
569.02	822.97
569.37	826.24
569.72	829.56
570.08	833.07
570.43	836.23
570.78	839.06
571.14	841.86
571.49	844.78
571.84	848.10
572.20	850.89
572.55	853.70
572.90	856.15
573.26	858.86
573.61	861.02
573.96	863.44
574.31	865.69
574.67	867.46
575.02	869.53
575.37	871.17
575.72	872.87
576.08	874.89
576.43	876.57
576.78	878.43
577.13	880.22
577.49	881.97
577.84	883.41
578.19	885.38
578.54	886.77
578.90	888.03
579.25	888.68
579.60	889.76
579.95	890.65
580.30	891.45
580.66	892.02
581.01	892.73
581.36	893.63
581.71	894.68
582.06	895.74
582.42	896.25
582.77	896.94
583.12	897.43
583.47	898.13
583.82	898.52
584.17	899.11
584.53	899.65
584.88	899.95
585.23	900.37
585.58	900.70
585.93	901.29
586.28	901.87
586.63	902.29
586.98	902.88
587.34	903.26
587.69	903.74
588.04	904.28
588.39	904.70
588.74	904.35
589.09	904.16
589.44	903.97
589.79	903.64
590.14	903.66
590.49	903.63
590.84	902.74
591.19	902.52
591.54	901.85
591.89	900.80
592.25	900.34
592.60	899.63
592.95	898.35
593.30	897.23
593.65	895.95
594.00	895.01
594.35	894.34
594.70	892.91
595.05	891.87
595.40	890.60
595.75	889.40
596.10	888.61
596.45	887.61
596.80	886.91
597.15	886.32
597.50	885.07
597.85	884.10
598.19	883.30
598.54	882.24
598.89	881.25
599.24	880.68
599.59	879.26
599.94	878.19
600.29	877.16
600.64	876.09
600.99	874.63
601.34	873.63
601.69	871.79
602.04	870.57
602.39	869.05
602.74	867.97
603.08	866.99
603.43	865.44
603.78	863.89
604.13	862.11
604.48	860.31
604.83	858.93
605.18	857.57
605.53	855.78
605.87	853.80
606.22	851.79
606.57	849.53
606.92	847.72
607.27	846.08
607.62	844.46
607.96	843.02
608.31	841.65
608.66	839.29
609.01	837.11
609.36	835.05
609.70	832.63
610.05	830.01
610.40	827.29
610.75	825.31
611.10	822.68
611.44	820.14
611.79	817.89
612.14	815.28
612.49	812.26
612.83	809.58
613.18	807.00
613.53	804.58
613.88	801.83
614.22	799.22
614.57	796.19
614.92	793.60
615.27	790.75
615.61	787.88
615.96	785.60
616.31	783.24
616.65	781.00
617.00	778.59
617.35	776.23
617.70	773.49
618.04	770.51
618.39	768.35
618.74	766.10
619.08	763.38
619.43	760.79
619.78	758.41
620.12	755.95
620.47	753.59
620.82	750.90
621.16	748.58
621.51	746.23
621.85	744.03
622.20	741.04
622.55	738.27
622.89	735.83
623.24	733.22
623.59	730.73
623.93	728.22
624.28	725.73
624.62	723.32
624.97	720.86
625.32	718.32
625.66	715.79
626.01	713.08
626.35	710.37
626.70	707.82
627.04	705.09
627.39	702.70
627.73	700.14
628.08	697.77
628.43	694.90
628.77	692.15
629.12	689.31
629.46	686.86
629.81	684.28
630.15	681.43
630.50	678.31
630.84	675.35
631.19	672.23
631.53	669.44
631.88	666.23
632.22	663.57
632.57	660.95
632.91	658.02
633.26	655.40
633.60	652.66
633.95	649.76
634.29	647.13
634.64	644.41
634.98	641.46
635.32	638.96
635.67	636.65
636.01	634.08
636.36	631.50
636.70	629.07
637.05	626.56
637.39	624.23
637.73	622.09
638.08	619.83
638.42	617.67
638.77	615.36
639.11	612.98
639.45	610.33
639.80	607.83
640.14	605.35
640.49	602.60
640.83	600.14
641.17	597.64
641.52	595.20
641.86	592.58
642.20	590.10
642.55	587.40
642.89	584.78
643.23	582.26
643.58	580.10
643.92	577.35
644.26	574.81
644.61	572.24
644.95	569.75
645.29	567.06
645.64	564.33
645.98	561.87
646.32	559.64
646.66	557.20
647.01	554.71
647.35	552.25
647.69	549.78
648.04	547.56
648.38	545.30
648.72	542.55
649.06	539.87
649.41	537.64
649.75	534.87
650.09	532.40
650.43	529.70
650.78	526.84
651.12	524.31
651.46	521.86
651.80	519.34
652.14	516.88
652.49	514.58
652.83	512.44
653.17	509.85
653.51	507.30
653.85	504.89
654.20	502.50
654.54	500.06
654.88	497.67
655.22	494.99
655.56	492.48
655.90	490.33
656.25	488.15
656.59	485.92
656.93	483.86
657.27	481.52
657.61	479.23
657.95	477.23
658.29	475.24
658.64	472.92
658.98	470.61
659.32	468.25
659.66	465.94
660.00	463.50
660.34	461.04
660.68	458.78
661.02	456.60
661.36	454.45
661.70	452.56
662.05	450.67
662.39	448.82
662.73	446.78
663.07	444.86
663.41	442.92
663.75	440.72
664.09	438.93
664.43	437.23
664.77	435.60
665.11	433.50
665.45	431.54
665.79	429.89
666.13	428.05
666.47	426.20
666.81	424.36
667.15	422.36
667.49	420.75
667.83	419.00
668.17	417.27
668.51	415.60
668.85	413.63
669.19	411.94
669.53	410.16
669.87	408.46
670.21	406.81
670.55	405.21
670.89	403.79
671.23	402.09
671.57	400.41
671.91	398.75
672.25	397.26
672.58	395.78
672.92	394.05
673.26	392.63
673.60	391.26
673.94	389.88
674.28	388.60
674.62	387.27
674.96	385.90
675.30	384.57
675.64	383.17
675.97	381.87
676.31	380.58
676.65	379.25
676.99	378.02
677.33	376.47
677.67	375.17
678.01	373.69
678.34	372.29
678.68	370.90
679.02	369.45
679.36	368.23
679.70	366.87
680.04	365.45
680.37	364.17
680.71	362.97
681.05	361.71
681.39	360.55
681.73	359.39
682.06	358.19
682.40	357.05
682.74	355.79
683.08	354.62
683.42	353.25
683.75	352.08
684.09	350.83
684.43	349.72
684.77	348.36
685.10	347.11
685.44	345.96
685.78	344.82
686.12	343.79
686.45	342.49
686.79	341.34
687.13	340.38
687.46	339.20
687.80	337.91
688.14	336.80
688.48	335.65
688.81	334.35
689.15	333.31
689.49	332.20
689.82	331.00
690.16	329.84
690.50	328.83
690.83	327.65
691.17	326.55
691.51	325.51
691.84	324.59
692.18	323.63
692.52	322.71
692.85	321.74
693.19	320.81
693.52	319.86
693.86	318.77
694.20	317.81
694.53	316.89
694.87	315.95
695.21	314.98
695.54	313.97
695.88	313.12
696.21	312.22
696.55	311.28
696.88	310.47
697.22	309.64
697.56	308.74
697.89	307.90
698.23	307.16
698.56	306.37
698.90	305.61
699.23	304.76
699.57	303.85
699.90	303.00
700.24	302.18
700.58	301.47
700.91	300.74
701.25	300.12
701.58	299.48
701.92	298.78
702.25	297.94
702.59	297.32
702.92	296.70
703.26	295.87
703.59	295.11
703.93	294.54
704.26	293.77
704.60	293.04
704.93	292.45
705.26	291.58
705.60	290.98
705.93	290.19
706.27	289.66
706.60	289.00
706.94	288.42
707.27	287.69
707.61	286.91
707.94	286.27
708.27	285.51
708.61	284.82
708.94	284.16
709.28	283.63
709.61	282.89
709.94	282.30
710.28	281.78
710.61	281.27
710.95	280.54
711.28	280.04
711.61	279.57
711.95	278.95
712.28	278.49
712.61	277.78
712.95	277.32
713.28	276.73
713.61	276.24
713.95	275.61
714.28	275.12
714.61	274.72
714.95	274.24
715.28	273.64
715.61	272.99
715.95	272.57
716.28	272.07
716.61	271.70
716.95	271.10
717.28	270.63
717.61	270.15
717.94	269.74
718.28	269.19
718.61	268.71
718.94	268.26
719.27	267.80
719.61	267.49
719.94	267.02
720.27	266.50
720.60	266.01
720.94	265.64
721.27	265.21
721.60	264.80
721.93	264.42
722.27	264.16
722.60	263.85
722.93	263.33
723.26	263.06
723.59	262.59
723.93	262.27
724.26	261.94
724.59	261.58
724.92	261.29
725.25	261.10
725.59	260.75
725.92	260.48
726.25	260.11
726.58	259.77
726.91	259.41
727.24	259.14
727.57	258.82
727.91	258.49
728.24	258.23
728.57	257.93
728.90	257.74
729.23	257.36
729.56	257.14
729.89	256.96
730.22	256.62
730.55	256.34
730.89	256.03
731.22	255.75
731.55	255.54
731.88	255.23
732.21	254.88
732.54	254.69
732.87	254.40
733.20	254.28
733.53	254.03
733.86	253.94
734.19	253.70
734.52	253.50
734.85	253.38
735.18	253.07
735.51	252.91
735.84	252.56
736.17	252.42
736.50	252.09
736.83	252.07
737.16	251.79
737.49	251.59
737.82	251.44
738.15	251.22
738.48	250.94
738.81	250.78
739.14	250.59
739.47	250.40
739.80	250.18
740.13	249.92
740.46	249.62
740.79	249.31
741.12	249.10
741.45	248.80
741.78	248.60
742.11	248.55
742.44	248.26
742.77	248.09
743.10	247.77
743.43	247.56
743.75	247.16
744.08	247.23
744.41	247.01
744.74	246.77
745.07	246.44
745.40	246.37
745.73	246.19
746.06	245.89
746.39	245.70
746.71	245.44
747.04	245.25
747.37	245.07
747.70	244.92
748.03	244.70
748.36	244.66
748.68	244.44
749.01	244.14
749.34	243.93
749.67	243.87
750.00	243.64
750.33	243.68
750.65	243.52
750.98	243.23
751.31	243.12
751.64	243.02
751.97	243.04
752.29	242.84
752.62	242.55
752.95	242.52
753.28	242.37
753.60	242.19
753.93	242.00
754.26	241.87
754.59	241.66
754.91	241.41
755.24	241.14
755.57	241.00
755.90	240.88
756.22	240.80
756.55	240.50
756.88	240.40
757.20	240.16
757.53	239.92
757.86	239.71
758.19	239.57
758.51	239.40
758.84	239.20
759.17	238.97
759.49	238.97
759.82	238.82
760.15	238.60
760.47	238.57
760.80	238.44
761.13	238.28
761.45	238.17
761.78	238.11
762.11	238.11
762.43	237.80
762.76	237.60
763.08	237.46
763.41	237.45
763.74	237.44
764.06	237.25
764.39	237.27
764.71	237.19
765.04	236.97
765.37	236.85
765.69	236.71
766.02	236.64
766.34	236.41
766.67	236.23
767.00	236.25
767.32	236.14
767.65	236.21
767.97	236.09
768.30	236.01
768.62	235.89
768.95	235.70
769.27	235.71
769.60	235.67
769.92	235.51
770.25	235.28
770.57	235.10
770.90	234.95
771.22	234.94
771.55	234.84
771.87	234.90
772.20	234.79
772.52	234.96
772.85	235.16
773.17	235.18
773.50	235.10
773.82	234.95
774.15	234.85
774.47	234.62
774.80	234.58
775.12	234.38
775.45	234.42
775.77	234.33
776.09	234.28
776.42	234.29
776.74	234.38
777.07	234.32
777.39	234.34
777.72	234.30
778.04	234.14
778.36	234.06
778.69	234.03
779.01	234.08
779.33	233.80
779.66	233.48
779.98	233.30
780.31	233.26
780.63	233.29
780.95	233.37
781.28	233.40
781.60	233.53
781.92	233.66
782.25	233.61
782.57	233.59
782.89	233.64
783.22	233.51
783.54	233.47
783.86	233.55
784.19	233.46
784.51	233.49
784.83	233.46
785.16	233.35
785.48	233.30
785.80	233.22
786.12	233.22
786.45	233.18
786.77	233.21
787.09	233.28
787.42	233.16
787.74	233.11
788.06	233.04
788.38	232.94
788.71	232.81
789.03	232.71
789.35	232.79
789.67	232.60
789.99	232.58
790.32	232.51
790.64	232.53
790.96	232.70
791.28	232.68
791.61	232.67
791.93	232.68
792.25	232.58
792.57	232.63
792.89	232.47
793.21	232.38
793.54	232.37
793.86	232.19
794.18	232.26
