SpectraSuite Data File
++++++++++++++++++++++++++++++++++++
Date: Fri Feb 01 14:39:24 EST 2013
User: group
Dark Spectrum Present: No
Reference Spectrum Present: No
Number of Sampled Component Spectra: 1
Spectrometers: USB2E7196
Integration Time (usec): 70000 (USB2E7196)
Spectra Averaged: 10 (USB2E7196)
Boxcar Smoothing: 10 (USB2E7196)
Correct for Electrical Dark: No (USB2E7196)
Strobe/Lamp Enabled: No (USB2E7196)
Correct for Detector Non-linearity: No (USB2E7196)
Correct for Stray Light: No (USB2E7196)
Number of Pixels in Processed Spectrum: 2048
>>>>>Begin Processed Spectral Data<<<<<
339.09	0.00
339.48	218.00
339.86	218.70
340.24	219.40
340.63	220.80
341.01	223.30
341.39	222.50
341.78	223.20
342.16	224.50
342.54	226.00
342.93	214.43
343.31	225.25
343.69	225.68
344.07	226.07
344.46	226.45
344.84	226.89
345.22	227.10
345.60	227.32
345.99	227.60
346.37	227.77
346.75	227.83
347.13	227.88
347.52	227.94
347.90	227.98
348.28	228.08
348.66	228.08
349.05	228.03
349.43	228.10
349.81	228.10
350.19	228.10
350.57	228.04
350.96	228.09
351.34	228.20
351.72	228.33
352.10	228.33
352.48	228.44
352.87	228.47
353.25	228.63
353.63	228.75
354.01	228.82
354.39	228.92
354.77	229.06
355.15	229.22
355.54	229.33
355.92	229.33
356.30	229.36
356.68	229.60
357.06	229.80
357.44	229.76
357.82	229.95
358.20	230.05
358.58	230.16
358.97	230.15
359.35	230.21
359.73	230.38
360.11	230.44
360.49	230.46
360.87	230.50
361.25	230.45
361.63	230.62
362.01	230.54
362.39	230.62
362.77	230.71
363.15	230.73
363.53	230.74
363.91	230.74
364.29	230.79
364.67	230.60
365.05	230.65
365.43	230.80
365.81	230.71
366.19	230.78
366.57	230.83
366.95	230.96
367.33	230.93
367.71	230.82
368.09	230.96
368.47	230.91
368.85	230.81
369.23	230.88
369.61	230.70
369.99	230.80
370.37	230.73
370.75	230.60
371.13	230.49
371.51	230.24
371.89	230.21
372.27	230.10
372.65	230.03
373.03	229.89
373.41	229.66
373.78	229.67
374.16	229.44
374.54	229.32
374.92	229.10
375.30	228.91
375.68	228.84
376.06	228.75
376.44	228.75
376.82	228.67
377.19	228.54
377.57	228.46
377.95	228.32
378.33	228.16
378.71	228.06
379.09	227.95
379.47	228.07
379.84	228.04
380.22	227.99
380.60	227.83
380.98	227.77
381.36	227.79
381.73	227.64
382.11	227.69
382.49	227.73
382.87	227.64
383.25	227.69
383.62	227.71
384.00	227.63
384.38	227.51
384.76	227.43
385.13	227.39
385.51	227.26
385.89	227.14
386.27	227.15
386.64	227.09
387.02	226.96
387.40	226.83
387.78	226.77
388.15	226.76
388.53	226.80
388.91	226.82
389.29	226.70
389.66	226.80
390.04	226.77
390.42	226.74
390.79	226.88
391.17	226.94
391.55	226.70
391.92	226.61
392.30	226.62
392.68	226.68
393.05	226.60
393.43	226.70
393.81	226.80
394.18	226.80
394.56	226.80
394.94	227.03
395.31	227.06
395.69	227.15
396.06	227.22
396.44	227.30
396.82	227.33
397.19	227.43
397.57	227.39
397.95	227.52
398.32	227.50
398.70	227.57
399.07	227.61
399.45	227.81
399.82	227.93
400.20	227.95
400.58	228.09
400.95	228.25
401.33	228.30
401.70	228.58
402.08	228.73
402.45	228.83
402.83	228.92
403.20	229.11
403.58	229.23
403.95	229.39
404.33	229.45
404.71	229.51
405.08	229.84
405.46	230.00
405.83	230.17
406.21	230.29
406.58	230.48
406.96	230.61
407.33	230.72
407.70	231.00
408.08	231.44
408.45	231.66
408.83	231.93
409.20	232.24
409.58	232.26
409.95	232.49
410.33	232.75
410.70	232.99
411.08	233.24
411.45	233.58
411.82	233.81
412.20	234.20
412.57	234.79
412.95	234.94
413.32	235.43
413.69	235.70
414.07	236.07
414.44	236.43
414.82	236.86
415.19	237.34
415.56	237.86
415.94	238.29
416.31	238.79
416.68	239.39
417.06	240.08
417.43	240.79
417.81	241.60
418.18	242.49
418.55	243.36
418.93	244.31
419.30	245.14
419.67	246.07
420.04	247.10
420.42	248.03
420.79	249.33
421.16	250.44
421.54	251.68
421.91	252.91
422.28	254.20
422.66	255.65
423.03	257.18
423.40	258.57
423.77	260.15
424.15	261.72
424.52	263.30
424.89	264.95
425.26	266.55
425.64	268.05
426.01	269.73
426.38	271.40
426.75	273.11
427.13	274.93
427.50	276.91
427.87	278.77
428.24	280.84
428.61	282.72
428.99	284.80
429.36	287.17
429.73	289.56
430.10	291.84
430.47	294.04
430.85	296.31
431.22	298.65
431.59	301.43
431.96	303.87
432.33	306.45
432.70	309.10
433.08	312.19
433.45	315.10
433.82	318.06
434.19	321.36
434.56	324.58
434.93	327.58
435.30	330.66
435.68	334.00
436.05	337.15
436.42	340.25
436.79	343.23
437.16	346.24
437.53	349.36
437.90	352.48
438.27	355.57
438.64	358.88
439.01	362.07
439.38	364.47
439.75	367.01
440.13	370.11
440.50	372.93
440.87	375.26
441.24	377.66
441.61	380.25
441.98	382.16
442.35	384.40
442.72	386.79
443.09	389.07
443.46	390.36
443.83	391.26
444.20	392.05
444.57	393.21
444.94	393.80
445.31	394.57
445.68	395.47
446.05	395.99
446.42	395.80
446.79	395.60
447.16	395.33
447.53	395.48
447.90	394.35
448.27	393.31
448.64	391.76
449.01	390.76
449.37	388.72
449.74	386.73
450.11	384.54
450.48	382.00
450.85	379.27
451.22	377.10
451.59	374.96
451.96	372.88
452.33	369.93
452.70	367.33
453.07	364.35
453.43	360.99
453.80	357.96
454.17	355.08
454.54	352.30
454.91	349.29
455.28	346.20
455.65	343.41
456.02	340.81
456.38	338.35
456.75	335.29
457.12	332.74
457.49	330.35
457.86	327.72
458.23	325.45
458.59	322.99
458.96	320.65
459.33	318.54
459.70	316.54
460.07	314.93
460.43	313.13
460.80	311.16
461.17	309.54
461.54	307.83
461.91	306.07
462.27	304.24
462.64	302.79
463.01	301.07
463.38	299.60
463.74	297.85
464.11	296.60
464.48	295.37
464.85	294.08
465.21	292.87
465.58	291.84
465.95	290.58
466.32	289.46
466.68	288.28
467.05	287.17
467.42	286.00
467.78	284.88
468.15	283.68
468.52	282.80
468.88	281.68
469.25	280.60
469.62	279.77
469.98	279.00
470.35	278.25
470.72	277.53
471.08	276.51
471.45	275.77
471.82	274.94
472.18	274.07
472.55	273.40
472.92	272.70
473.28	271.90
473.65	271.19
474.02	270.67
474.38	270.04
474.75	269.45
475.11	268.90
475.48	268.34
475.85	267.86
476.21	267.49
476.58	267.05
476.94	266.62
477.31	266.19
477.67	265.66
478.04	265.20
478.41	264.86
478.77	264.79
479.14	264.39
479.50	264.09
479.87	263.94
480.23	263.62
480.60	263.40
480.96	263.17
481.33	263.08
481.69	262.75
482.06	262.64
482.42	262.46
482.79	262.30
483.15	262.18
483.52	262.20
483.88	261.90
484.25	261.84
484.61	261.79
484.98	261.71
485.34	261.77
485.71	261.72
486.07	261.69
486.44	261.47
486.80	261.47
487.17	261.36
487.53	261.46
487.90	261.66
488.26	261.71
488.62	261.94
488.99	262.04
489.35	262.20
489.72	262.36
490.08	262.48
490.44	262.61
490.81	262.84
491.17	262.96
491.54	263.20
491.90	263.49
492.26	263.59
492.63	263.84
492.99	263.97
493.36	264.31
493.72	264.57
494.08	264.91
494.45	265.30
494.81	265.81
495.17	266.10
495.54	266.53
495.90	266.88
496.26	267.22
496.63	267.72
496.99	268.17
497.35	268.56
497.72	269.07
498.08	269.55
498.44	270.06
498.80	270.64
499.17	271.18
499.53	271.65
499.89	272.43
500.26	273.08
500.62	273.63
500.98	274.34
501.34	275.04
501.71	275.90
502.07	276.69
502.43	277.31
502.79	277.95
503.16	278.60
503.52	279.50
503.88	280.28
504.24	280.99
504.60	282.03
504.97	283.14
505.33	284.15
505.69	285.38
506.05	286.46
506.41	287.47
506.78	288.72
507.14	289.91
507.50	291.16
507.86	292.43
508.22	293.92
508.59	295.23
508.95	296.72
509.31	298.27
509.67	299.90
510.03	301.70
510.39	303.58
510.75	305.45
511.12	307.36
511.48	309.31
511.84	311.41
512.20	313.37
512.56	315.34
512.92	317.66
513.28	319.97
513.64	322.45
514.00	325.13
514.37	327.66
514.73	330.30
515.09	332.97
515.45	335.83
515.81	338.78
516.17	341.89
516.53	344.96
516.89	348.11
517.25	351.29
517.61	354.81
517.97	358.29
518.33	361.86
518.69	365.56
519.05	369.45
519.41	373.46
519.77	377.65
520.13	381.84
520.49	385.87
520.85	390.09
521.21	394.48
521.57	398.92
521.93	403.58
522.29	408.40
522.65	413.10
523.01	418.03
523.37	422.90
523.73	427.85
524.09	432.98
524.45	438.00
524.81	443.42
525.17	448.80
525.53	454.38
525.89	460.00
526.25	465.62
526.61	471.17
526.97	476.88
527.33	482.55
527.68	488.70
528.04	495.03
528.40	501.09
528.76	507.36
529.12	513.71
529.48	520.14
529.84	526.65
530.20	533.50
530.56	540.24
530.91	547.27
531.27	554.37
531.63	561.35
531.99	568.43
532.35	575.41
532.71	582.15
533.07	589.31
533.42	596.66
533.78	604.00
534.14	611.44
534.50	618.44
534.86	626.03
535.21	633.27
535.57	640.86
535.93	648.33
536.29	656.20
536.65	663.78
537.00	671.34
537.36	679.01
537.72	686.36
538.08	694.17
538.44	701.72
538.79	709.30
539.15	717.00
539.51	725.19
539.87	733.23
540.22	741.44
540.58	749.39
540.94	757.19
541.29	765.00
541.65	772.80
542.01	781.13
542.37	789.00
542.72	797.02
543.08	804.84
543.44	812.78
543.79	819.93
544.15	827.72
544.51	835.94
544.87	843.67
545.22	851.65
545.58	859.12
545.94	866.46
546.29	873.85
546.65	881.35
547.01	888.30
547.36	895.54
547.72	902.63
548.07	909.68
548.43	916.63
548.79	923.69
549.14	930.60
549.50	937.46
549.86	943.98
550.21	951.00
550.57	957.83
550.92	964.70
551.28	971.57
551.64	978.29
551.99	984.63
552.35	991.17
552.70	997.60
553.06	1004.22
553.41	1010.88
553.77	1017.38
554.13	1023.91
554.48	1030.50
554.84	1036.57
555.19	1042.48
555.55	1048.98
555.90	1054.78
556.26	1060.50
556.61	1066.50
556.97	1072.37
557.32	1078.53
557.68	1084.18
558.03	1089.76
558.39	1095.13
558.74	1101.30
559.10	1106.55
559.45	1112.00
559.81	1117.59
560.16	1122.74
560.52	1127.82
560.87	1133.19
561.23	1138.25
561.58	1143.42
561.94	1148.40
562.29	1153.30
562.64	1158.37
563.00	1162.70
563.35	1168.10
563.71	1173.16
564.06	1178.14
564.42	1182.62
564.77	1187.08
565.12	1191.56
565.48	1196.31
565.83	1200.50
566.19	1204.26
566.54	1208.66
566.89	1212.83
567.25	1216.80
567.60	1221.08
567.96	1224.90
568.31	1228.45
568.66	1232.01
569.02	1235.37
569.37	1238.27
569.72	1241.44
570.08	1244.67
570.43	1247.62
570.78	1250.05
571.14	1252.62
571.49	1254.86
571.84	1258.07
572.20	1260.56
572.55	1262.64
572.90	1264.01
573.26	1266.32
573.61	1268.57
573.96	1270.32
574.31	1271.50
574.67	1272.56
575.02	1273.29
575.37	1274.60
575.72	1275.50
576.08	1276.46
576.43	1277.25
576.78	1278.35
577.13	1279.51
577.49	1280.22
577.84	1280.94
578.19	1281.75
578.54	1282.08
578.90	1282.28
579.25	1281.52
579.60	1281.33
579.95	1281.32
580.30	1281.47
580.66	1281.05
581.01	1280.53
581.36	1280.34
581.71	1280.36
582.06	1280.20
582.42	1279.90
582.77	1278.95
583.12	1278.46
583.47	1278.37
583.82	1277.83
584.17	1276.94
584.53	1275.95
584.88	1275.10
585.23	1274.34
585.58	1273.58
585.93	1273.02
586.28	1272.49
586.63	1272.33
586.98	1271.68
587.34	1270.81
587.69	1269.81
588.04	1268.78
588.39	1268.00
588.74	1266.16
589.09	1264.63
589.44	1262.66
589.79	1261.47
590.14	1260.57
590.49	1258.90
590.84	1256.67
591.19	1254.79
591.54	1252.70
591.89	1250.21
592.25	1248.32
592.60	1245.72
592.95	1243.04
593.30	1240.70
593.65	1237.96
594.00	1235.18
594.35	1232.73
594.70	1229.76
595.05	1227.49
595.40	1224.63
595.75	1221.29
596.10	1218.82
596.45	1216.32
596.80	1214.67
597.15	1212.02
597.50	1208.90
597.85	1206.61
598.19	1204.42
598.54	1202.15
598.89	1200.09
599.24	1198.00
599.59	1195.48
599.94	1193.28
600.29	1190.70
600.64	1187.84
600.99	1185.01
601.34	1182.39
601.69	1179.48
602.04	1176.80
602.39	1173.86
602.74	1171.63
603.08	1169.01
603.43	1166.71
603.78	1163.65
604.13	1160.42
604.48	1157.50
604.83	1154.80
605.18	1151.80
605.53	1148.08
605.87	1144.35
606.22	1140.93
606.57	1137.73
606.92	1134.23
607.27	1131.23
607.62	1128.16
607.96	1125.23
608.31	1122.30
608.66	1118.66
609.01	1114.98
609.36	1111.10
609.70	1107.11
610.05	1102.88
610.40	1099.42
610.75	1095.01
611.10	1091.22
611.44	1086.72
611.79	1082.75
612.14	1078.44
612.49	1073.70
612.83	1069.73
613.18	1065.27
613.53	1061.02
613.88	1056.39
614.22	1052.37
614.57	1047.48
614.92	1043.41
615.27	1039.21
615.61	1034.47
615.96	1030.20
616.31	1026.11
616.65	1022.52
617.00	1018.45
617.35	1014.62
617.70	1010.17
618.04	1005.96
618.39	1001.72
618.74	997.53
619.08	993.28
619.43	989.35
619.78	985.56
620.12	981.50
620.47	977.91
620.82	973.80
621.16	970.14
621.51	966.08
621.85	962.29
622.20	957.67
622.55	953.40
622.89	949.80
623.24	945.85
623.59	941.90
623.93	937.99
624.28	934.11
624.62	930.38
624.97	926.40
625.32	922.62
625.66	918.86
626.01	915.13
626.35	911.18
626.70	906.97
627.04	903.19
627.39	899.25
627.73	895.27
628.08	891.62
628.43	887.58
628.77	883.31
629.12	879.16
629.46	875.19
629.81	870.60
630.15	866.31
630.50	862.15
630.84	857.88
631.19	853.37
631.53	849.12
631.88	844.52
632.22	839.95
632.57	835.85
632.91	831.65
633.26	827.53
633.60	823.24
633.95	819.37
634.29	815.18
634.64	811.27
634.98	806.97
635.32	803.04
635.67	799.21
636.01	795.30
636.36	791.36
636.70	787.65
637.05	784.40
637.39	780.67
637.73	777.06
638.08	773.60
638.42	770.32
638.77	766.63
639.11	762.76
639.45	759.30
639.80	755.50
640.14	751.59
640.49	747.91
640.83	744.31
641.17	740.48
641.52	736.93
641.86	733.19
642.20	729.81
642.55	725.84
642.89	722.10
643.23	718.50
643.58	715.09
643.92	711.33
644.26	707.48
644.61	704.16
644.95	700.36
645.29	696.40
645.64	692.29
645.98	688.65
646.32	685.43
646.66	681.90
647.01	678.30
647.35	674.83
647.69	671.20
648.04	667.73
648.38	664.10
648.72	660.21
649.06	656.57
649.41	652.98
649.75	649.27
650.09	645.43
650.43	641.85
650.78	638.08
651.12	634.49
651.46	630.95
651.80	627.20
652.14	623.77
652.49	620.45
652.83	617.15
653.17	613.70
653.51	610.00
653.85	606.49
654.20	602.93
654.54	599.21
654.88	595.75
655.22	591.91
655.56	588.46
655.90	585.20
656.25	581.70
656.59	578.25
656.93	575.09
657.27	571.87
657.61	568.34
657.95	565.43
658.29	562.32
658.64	559.12
658.98	555.86
659.32	552.45
659.66	549.08
660.00	545.73
660.34	542.55
660.68	539.36
661.02	536.06
661.36	533.28
661.70	530.38
662.05	527.48
662.39	524.91
662.73	522.16
663.07	519.28
663.41	516.56
663.75	513.94
664.09	511.18
664.43	508.40
664.77	505.80
665.11	503.00
665.45	500.30
665.79	497.54
666.13	494.77
666.47	492.34
666.81	489.75
667.15	487.15
667.49	484.59
667.83	482.18
668.17	479.89
668.51	477.22
668.85	474.92
669.19	472.60
669.53	470.23
669.87	467.64
670.21	465.38
670.55	463.10
670.89	460.79
671.23	458.44
671.57	456.13
671.91	453.97
672.25	451.59
672.58	449.41
672.92	447.12
673.26	445.21
673.60	443.06
673.94	441.01
674.28	439.13
674.62	437.18
674.96	435.25
675.30	433.24
675.64	431.24
675.97	429.20
676.31	427.26
676.65	425.33
676.99	423.73
677.33	421.79
677.67	419.92
678.01	417.81
678.34	415.95
678.68	414.20
679.02	412.44
679.36	410.77
679.70	409.00
680.04	407.34
680.37	405.36
680.71	403.62
681.05	402.00
681.39	400.25
681.73	398.51
682.06	396.88
682.40	395.38
682.74	393.94
683.08	392.43
683.42	390.79
683.75	389.07
684.09	387.29
684.43	385.66
684.77	384.11
685.10	382.60
685.44	381.12
685.78	379.61
686.12	377.93
686.45	376.19
686.79	374.54
687.13	373.11
687.46	371.61
687.80	370.06
688.14	368.57
688.48	367.18
688.81	365.70
689.15	364.23
689.49	362.67
689.82	361.37
690.16	359.78
690.50	358.31
690.83	356.93
691.17	355.60
691.51	354.25
691.84	352.87
692.18	351.52
692.52	350.05
692.85	348.70
693.19	347.50
693.52	346.30
693.86	344.93
694.20	343.63
694.53	342.42
694.87	341.20
695.21	339.77
695.54	338.35
695.88	336.96
696.21	335.72
696.55	334.49
696.88	332.95
697.22	331.71
697.56	330.52
697.89	329.36
698.23	328.24
698.56	327.11
698.90	325.93
699.23	324.77
699.57	323.70
699.90	322.55
700.24	321.40
700.58	320.15
700.91	319.12
701.25	318.08
701.58	317.00
701.92	315.95
702.25	315.01
702.59	314.16
702.92	313.31
703.26	312.27
703.59	311.29
703.93	310.61
704.26	309.77
704.60	308.88
704.93	307.95
705.26	306.96
705.60	306.06
705.93	305.25
706.27	304.43
706.60	303.65
706.94	302.80
707.27	301.93
707.61	301.13
707.94	300.42
708.27	299.53
708.61	298.71
708.94	298.02
709.28	297.33
709.61	296.58
709.94	295.87
710.28	295.11
710.61	294.50
710.95	293.52
711.28	292.77
711.61	292.06
711.95	291.49
712.28	290.73
712.61	289.95
712.95	289.25
713.28	288.69
713.61	287.94
713.95	287.29
714.28	286.57
714.61	286.03
714.95	285.48
715.28	284.80
715.61	284.19
715.95	283.58
716.28	282.81
716.61	282.11
716.95	281.48
717.28	280.94
717.61	280.34
717.94	279.86
718.28	279.32
718.61	278.76
718.94	278.11
719.27	277.49
719.61	277.04
719.94	276.48
720.27	275.77
720.60	275.34
720.94	274.84
721.27	274.53
721.60	274.00
721.93	273.42
722.27	273.02
722.60	272.65
722.93	272.02
723.26	271.74
723.59	271.28
723.93	270.82
724.26	270.38
724.59	269.95
724.92	269.53
725.25	269.10
725.59	268.65
725.92	268.20
726.25	267.87
726.58	267.48
726.91	267.10
727.24	266.84
727.57	266.39
727.91	265.93
728.24	265.44
728.57	265.11
728.90	264.88
729.23	264.42
729.56	264.02
729.89	263.76
730.22	263.30
730.55	262.98
730.89	262.56
731.22	262.08
731.55	261.77
731.88	261.42
732.21	261.03
732.54	260.68
732.87	260.40
733.20	260.15
733.53	259.86
733.86	259.49
734.19	259.05
734.52	258.74
734.85	258.46
735.18	258.14
735.51	257.80
735.84	257.33
736.17	257.01
736.50	256.64
736.83	256.46
737.16	256.07
737.49	255.75
737.82	255.46
738.15	255.30
738.48	254.96
738.81	254.62
739.14	254.27
739.47	254.00
739.80	253.62
740.13	253.23
740.46	252.82
740.79	252.48
741.12	252.24
741.45	251.92
741.78	251.62
742.11	251.41
742.44	251.10
742.77	250.78
743.10	250.53
743.43	250.23
743.75	249.84
744.08	249.88
744.41	249.61
744.74	249.29
745.07	249.08
745.40	248.77
745.73	248.47
746.06	248.28
746.39	248.00
746.71	247.71
747.04	247.53
747.37	247.37
747.70	247.16
748.03	246.83
748.36	246.62
748.68	246.44
749.01	246.24
749.34	246.09
749.67	246.04
750.00	245.99
750.33	245.98
750.65	245.80
750.98	245.36
751.31	245.16
751.64	245.08
751.97	244.97
752.29	244.75
752.62	244.53
752.95	244.48
753.28	244.35
753.60	244.22
753.93	244.06
754.26	243.85
754.59	243.60
754.91	243.57
755.24	243.35
755.57	243.20
755.90	242.97
756.22	242.67
756.55	242.50
756.88	242.24
757.20	242.00
757.53	241.80
757.86	241.61
758.19	241.48
758.51	241.40
758.84	241.12
759.17	241.05
759.49	241.05
759.82	240.90
760.15	240.78
760.47	240.65
760.80	240.47
761.13	240.50
761.45	240.48
761.78	240.32
762.11	240.39
762.43	240.32
762.76	240.29
763.08	240.26
763.41	240.07
763.74	239.96
764.06	239.80
764.39	239.71
764.71	239.66
765.04	239.58
765.37	239.38
765.69	239.30
766.02	239.10
766.34	238.89
766.67	238.71
767.00	238.57
767.32	238.55
767.65	238.58
767.97	238.37
768.30	238.29
768.62	238.14
768.95	238.04
769.27	237.91
769.60	237.68
769.92	237.49
770.25	237.43
770.57	237.20
770.90	237.18
771.22	237.01
771.55	236.90
771.87	236.83
772.20	236.76
772.52	236.83
772.85	237.04
773.17	237.01
773.50	236.84
773.82	236.75
774.15	236.62
774.47	236.36
774.80	236.22
775.12	236.06
775.45	235.95
775.77	235.75
776.09	235.66
776.42	235.69
776.74	235.71
777.07	235.49
777.39	235.54
777.72	235.31
778.04	235.28
778.36	235.12
778.69	235.00
779.01	234.97
779.33	234.66
779.66	234.29
779.98	234.16
780.31	234.13
780.63	234.07
780.95	234.02
781.28	234.01
781.60	233.89
781.92	233.89
782.25	233.91
782.57	233.82
782.89	233.76
783.22	233.61
783.54	233.51
783.86	233.45
784.19	233.32
784.51	233.42
784.83	233.28
785.16	233.21
785.48	233.26
785.80	233.15
786.12	233.11
786.45	233.14
786.77	233.12
787.09	232.99
787.42	232.85
787.74	232.82
788.06	232.71
788.38	232.67
788.71	232.58
789.03	232.51
789.35	232.51
789.67	232.37
789.99	232.32
790.32	232.33
