SpectraSuite Data File
++++++++++++++++++++++++++++++++++++
Date: Fri Feb 01 14:38:35 EST 2013
User: group
Dark Spectrum Present: No
Reference Spectrum Present: No
Number of Sampled Component Spectra: 1
Spectrometers: USB2E7196
Integration Time (usec): 70000 (USB2E7196)
Spectra Averaged: 10 (USB2E7196)
Boxcar Smoothing: 10 (USB2E7196)
Correct for Electrical Dark: No (USB2E7196)
Strobe/Lamp Enabled: No (USB2E7196)
Correct for Detector Non-linearity: No (USB2E7196)
Correct for Stray Light: No (USB2E7196)
Number of Pixels in Processed Spectrum: 2048
>>>>>Begin Processed Spectral Data<<<<<
339.09	0.00
339.48	215.80
339.86	217.60
340.24	218.90
340.63	221.70
341.01	225.20
341.39	222.20
341.78	226.10
342.16	226.40
342.54	227.60
342.93	214.53
343.31	225.41
343.69	226.01
344.07	226.52
344.46	226.93
344.84	227.28
345.22	227.35
345.60	227.72
345.99	227.73
346.37	227.84
346.75	227.81
347.13	227.90
347.52	227.96
347.90	228.02
348.28	228.11
348.66	228.21
349.05	228.06
349.43	228.17
349.81	228.18
350.19	228.14
350.57	228.24
350.96	228.40
351.34	228.48
351.72	228.55
352.10	228.56
352.48	228.61
352.87	228.52
353.25	228.66
353.63	228.62
354.01	228.85
354.39	228.94
354.77	229.11
355.15	229.21
355.54	229.14
355.92	229.17
356.30	229.20
356.68	229.26
357.06	229.41
357.44	229.48
357.82	229.58
358.20	229.65
358.58	229.62
358.97	229.65
359.35	229.70
359.73	229.68
360.11	229.69
360.49	229.72
360.87	229.84
361.25	229.91
361.63	230.07
362.01	229.96
362.39	229.98
362.77	229.96
363.15	229.95
363.53	230.00
363.91	230.02
364.29	229.98
364.67	229.82
365.05	229.84
365.43	229.78
365.81	229.86
366.19	230.06
366.57	230.07
366.95	230.03
367.33	229.92
367.71	229.85
368.09	230.03
368.47	229.92
368.85	229.90
369.23	229.92
369.61	229.73
369.99	229.83
370.37	229.81
370.75	229.80
371.13	229.80
371.51	229.73
371.89	229.78
372.27	229.73
372.65	229.79
373.03	229.67
373.41	229.61
373.78	229.48
374.16	229.26
374.54	229.28
374.92	229.20
375.30	229.16
375.68	229.18
376.06	228.99
376.44	229.02
376.82	228.95
377.19	228.80
377.57	228.80
377.95	228.64
378.33	228.46
378.71	228.30
379.09	228.11
379.47	228.07
379.84	227.91
380.22	227.77
380.60	227.63
380.98	227.69
381.36	227.60
381.73	227.60
382.11	227.60
382.49	227.45
382.87	227.40
383.25	227.20
383.62	227.32
384.00	227.25
384.38	227.22
384.76	227.22
385.13	227.36
385.51	227.18
385.89	227.10
386.27	227.06
386.64	227.03
387.02	227.11
387.40	227.03
387.78	226.95
388.15	226.96
388.53	226.98
388.91	226.89
389.29	226.90
389.66	226.81
390.04	226.78
390.42	226.77
390.79	226.73
391.17	226.77
391.55	226.51
391.92	226.44
392.30	226.43
392.68	226.33
393.05	226.24
393.43	226.32
393.81	226.35
394.18	226.37
394.56	226.43
394.94	226.44
395.31	226.53
395.69	226.60
396.06	226.70
396.44	226.61
396.82	226.66
397.19	226.79
397.57	226.88
397.95	226.94
398.32	226.99
398.70	227.08
399.07	227.23
399.45	227.30
399.82	227.42
400.20	227.49
400.58	227.68
400.95	227.67
401.33	227.71
401.70	227.96
402.08	228.05
402.45	228.10
402.83	228.21
403.20	228.31
403.58	228.46
403.95	228.62
404.33	228.87
404.71	228.91
405.08	229.15
405.46	229.33
405.83	229.48
406.21	229.64
406.58	229.82
406.96	230.08
407.33	230.31
407.70	230.56
408.08	230.93
408.45	231.12
408.83	231.40
409.20	231.73
409.58	231.83
409.95	232.14
410.33	232.53
410.70	232.75
411.08	233.11
411.45	233.46
411.82	233.85
412.20	234.21
412.57	234.78
412.95	235.05
413.32	235.46
413.69	235.86
414.07	236.28
414.44	236.79
414.82	237.27
415.19	238.05
415.56	238.67
415.94	239.30
416.31	240.04
416.68	240.80
417.06	241.70
417.43	242.61
417.81	243.59
418.18	244.41
418.55	245.31
418.93	246.26
419.30	247.35
419.67	248.45
420.04	249.61
420.42	250.78
420.79	252.21
421.16	253.66
421.54	255.23
421.91	256.80
422.28	258.33
422.66	259.98
423.03	261.52
423.40	263.20
423.77	264.90
424.15	266.71
424.52	268.51
424.89	270.53
425.26	272.43
425.64	274.23
426.01	276.31
426.38	278.62
426.75	280.92
427.13	283.18
427.50	285.40
427.87	287.84
428.24	290.23
428.61	292.46
428.99	295.04
429.36	297.79
429.73	300.67
430.10	303.53
430.47	306.30
430.85	309.15
431.22	312.06
431.59	315.43
431.96	318.38
432.33	321.71
432.70	324.94
433.08	328.82
433.45	332.61
433.82	336.21
434.19	340.22
434.56	344.14
434.93	347.80
435.30	351.66
435.68	355.70
436.05	359.67
436.42	363.81
436.79	367.38
437.16	371.29
437.53	375.13
437.90	378.94
438.27	382.90
438.64	387.01
439.01	390.89
439.38	394.12
439.75	397.34
440.13	401.14
440.50	404.74
440.87	407.50
441.24	410.46
441.61	413.82
441.98	416.20
442.35	418.90
442.72	421.80
443.09	424.62
443.46	426.38
443.83	427.61
444.20	428.48
444.57	430.00
444.94	430.79
445.31	431.80
445.68	432.95
446.05	433.35
446.42	433.22
446.79	433.23
447.16	433.04
447.53	433.12
447.90	432.00
448.27	430.75
448.64	428.93
449.01	427.77
449.37	425.48
449.74	423.30
450.11	420.59
450.48	417.48
450.85	414.18
451.22	411.62
451.59	409.17
451.96	406.69
452.33	403.40
452.70	400.49
453.07	396.78
453.43	392.90
453.80	389.35
454.17	385.74
454.54	382.14
454.91	378.47
455.28	374.86
455.65	371.58
456.02	368.29
456.38	365.42
456.75	361.56
457.12	358.37
457.49	355.27
457.86	352.30
458.23	349.85
458.59	347.14
458.96	344.19
459.33	341.56
459.70	339.16
460.07	336.99
460.43	334.37
460.80	332.06
461.17	330.09
461.54	327.92
461.91	325.97
462.27	324.03
462.64	322.21
463.01	320.20
463.38	318.26
463.74	316.21
464.11	314.67
464.48	313.26
464.85	311.66
465.21	310.38
465.58	309.03
465.95	307.36
466.32	305.88
466.68	304.49
467.05	303.15
467.42	301.78
467.78	300.36
468.15	299.04
468.52	298.00
468.88	296.50
469.25	295.40
469.62	294.36
469.98	293.27
470.35	292.33
470.72	291.40
471.08	290.30
471.45	289.44
471.82	288.41
472.18	287.45
472.55	286.70
472.92	285.75
473.28	284.90
473.65	284.13
474.02	283.48
474.38	282.75
474.75	282.13
475.11	281.59
475.48	281.10
475.85	280.59
476.21	280.04
476.58	279.62
476.94	279.11
477.31	278.74
477.67	278.29
478.04	277.85
478.41	277.52
478.77	277.34
479.14	276.85
479.50	276.60
479.87	276.45
480.23	276.16
480.60	275.91
480.96	275.64
481.33	275.50
481.69	275.30
482.06	275.17
482.42	274.90
482.79	274.64
483.15	274.45
483.52	274.39
483.88	274.26
484.25	274.14
484.61	274.20
484.98	274.00
485.34	274.04
485.71	273.97
486.07	274.04
486.44	273.98
486.80	274.08
487.17	274.16
487.53	274.22
487.90	274.43
488.26	274.64
488.62	274.94
488.99	274.97
489.35	275.14
489.72	275.32
490.08	275.65
490.44	275.90
490.81	276.23
491.17	276.49
491.54	276.80
491.90	277.10
492.26	277.27
492.63	277.58
492.99	277.76
493.36	278.03
493.72	278.28
494.08	278.59
494.45	279.01
494.81	279.29
495.17	279.60
495.54	279.86
495.90	280.13
496.26	280.42
496.63	280.90
496.99	281.31
497.35	281.64
497.72	281.97
498.08	282.30
498.44	282.53
498.80	282.92
499.17	283.33
499.53	283.73
499.89	284.08
500.26	284.40
500.62	284.81
500.98	285.28
501.34	285.69
501.71	285.97
502.07	286.18
502.43	286.60
502.79	286.81
503.16	287.16
503.52	287.49
503.88	287.80
504.24	288.12
504.60	288.40
504.97	288.95
505.33	289.29
505.69	289.77
506.05	290.19
506.41	290.59
506.78	290.80
507.14	291.16
507.50	291.60
507.86	292.12
508.22	292.53
508.59	292.90
508.95	293.42
509.31	293.99
509.67	294.66
510.03	295.14
510.39	295.78
510.75	296.39
511.12	297.04
511.48	297.56
511.84	298.20
512.20	298.87
512.56	299.54
512.92	300.34
513.28	301.12
513.64	301.96
514.00	302.90
514.37	303.84
514.73	304.84
515.09	305.87
515.45	306.94
515.81	308.15
516.17	309.38
516.53	310.61
516.89	311.82
517.25	313.13
517.61	314.69
517.97	316.28
518.33	317.80
518.69	319.43
519.05	321.30
519.41	323.06
519.77	324.96
520.13	326.83
520.49	328.72
520.85	330.76
521.21	333.07
521.57	335.28
521.93	337.58
522.29	339.96
522.65	342.46
523.01	344.95
523.37	347.35
523.73	350.07
524.09	352.80
524.45	355.68
524.81	358.65
525.17	361.50
525.53	364.58
525.89	367.82
526.25	371.07
526.61	374.27
526.97	377.65
527.33	381.22
527.68	384.92
528.04	388.75
528.40	392.38
528.76	396.16
529.12	400.10
529.48	404.35
529.84	408.45
530.20	412.65
530.56	417.20
530.91	421.87
531.27	426.44
531.63	431.08
531.99	435.68
532.35	440.24
532.71	445.01
533.07	449.77
533.42	454.72
533.78	459.79
534.14	464.90
534.50	469.92
534.86	475.14
535.21	480.12
535.57	485.37
535.93	491.00
536.29	496.62
536.65	502.01
537.00	507.31
537.36	512.92
537.72	518.66
538.08	523.99
538.44	529.64
538.79	535.39
539.15	541.04
539.51	546.90
539.87	553.04
540.22	558.91
540.58	564.99
540.94	570.92
541.29	576.90
541.65	582.95
542.01	589.42
542.37	595.41
542.72	601.68
543.08	607.66
543.44	613.74
543.79	619.69
544.15	625.80
544.51	632.28
544.87	638.53
545.22	644.50
545.58	650.70
545.94	656.59
546.29	662.59
546.65	668.70
547.01	674.81
547.36	680.89
547.72	687.00
548.07	692.93
548.43	698.83
548.79	704.48
549.14	710.40
549.50	716.09
549.86	721.97
550.21	727.75
550.57	733.84
550.92	739.60
551.28	745.38
551.64	751.18
551.99	756.65
552.35	762.22
552.70	767.95
553.06	773.69
553.41	779.39
553.77	785.12
554.13	790.65
554.48	796.41
554.84	801.81
555.19	807.37
555.55	812.99
555.90	818.62
556.26	824.47
556.61	829.86
556.97	835.02
557.32	840.34
557.68	845.53
558.03	850.89
558.39	856.14
558.74	861.61
559.10	866.84
559.45	872.28
559.81	877.68
560.16	882.82
560.52	887.66
560.87	892.80
561.23	897.48
561.58	902.58
561.94	906.97
562.29	911.37
562.64	915.57
563.00	919.89
563.35	924.37
563.71	928.91
564.06	933.74
564.42	938.36
564.77	942.78
565.12	947.37
565.48	951.62
565.83	955.66
566.19	959.33
566.54	963.17
566.89	967.02
567.25	971.12
567.60	975.18
567.96	979.02
568.31	982.80
568.66	986.39
569.02	989.83
569.37	993.41
569.72	997.17
570.08	1000.80
570.43	1004.04
570.78	1007.13
571.14	1009.69
571.49	1012.31
571.84	1015.53
572.20	1018.30
572.55	1020.81
572.90	1023.16
573.26	1025.79
573.61	1028.53
573.96	1031.14
574.31	1032.84
574.67	1034.29
575.02	1035.59
575.37	1037.36
575.72	1038.48
576.08	1040.21
576.43	1041.57
576.78	1043.09
577.13	1044.52
577.49	1045.74
577.84	1047.03
578.19	1048.18
578.54	1049.40
578.90	1050.28
579.25	1050.53
579.60	1051.11
579.95	1051.87
580.30	1052.50
580.66	1052.83
581.01	1052.87
581.36	1053.30
581.71	1054.15
582.06	1054.56
582.42	1055.06
582.77	1055.40
583.12	1055.92
583.47	1056.32
583.82	1056.94
584.17	1056.80
584.53	1056.72
584.88	1056.97
585.23	1056.97
585.58	1056.98
585.93	1056.75
586.28	1056.96
586.63	1056.99
586.98	1057.20
587.34	1056.92
587.69	1056.70
588.04	1056.50
588.39	1056.39
588.74	1055.41
589.09	1054.68
589.44	1054.02
589.79	1053.53
590.14	1053.09
590.49	1052.38
590.84	1051.40
591.19	1050.24
591.54	1049.33
591.89	1047.86
592.25	1046.80
592.60	1045.20
592.95	1043.64
593.30	1042.15
593.65	1040.18
594.00	1038.74
594.35	1037.39
594.70	1035.43
595.05	1033.78
595.40	1032.07
595.75	1029.92
596.10	1028.70
596.45	1027.43
596.80	1026.05
597.15	1024.54
597.50	1022.52
597.85	1021.15
598.19	1019.52
598.54	1017.74
598.89	1016.19
599.24	1015.00
599.59	1013.37
599.94	1012.00
600.29	1010.27
600.64	1009.22
600.99	1007.41
601.34	1005.67
601.69	1003.15
602.04	1001.60
602.39	999.68
602.74	998.08
603.08	996.70
603.43	994.72
603.78	992.46
604.13	990.43
604.48	988.08
604.83	986.37
605.18	984.01
605.53	981.28
605.87	978.62
606.22	976.45
606.57	973.75
606.92	971.37
607.27	969.26
607.62	967.39
607.96	964.64
608.31	962.44
608.66	959.82
609.01	957.31
609.36	954.40
609.70	951.23
610.05	948.05
610.40	945.07
610.75	941.95
611.10	938.74
611.44	935.19
611.79	932.15
612.14	928.86
612.49	925.44
612.83	922.43
613.18	919.31
613.53	916.10
613.88	913.00
614.22	909.51
614.57	905.64
614.92	902.12
615.27	898.91
615.61	895.61
615.96	892.45
616.31	889.26
616.65	886.65
617.00	883.93
617.35	881.05
617.70	877.64
618.04	874.36
618.39	871.21
618.74	868.28
619.08	865.04
619.43	861.78
619.78	858.82
620.12	855.75
620.47	852.82
620.82	849.24
621.16	845.79
621.51	842.72
621.85	839.81
622.20	836.28
622.55	832.99
622.89	829.97
623.24	826.62
623.59	823.57
623.93	820.10
624.28	816.97
624.62	813.66
624.97	810.98
625.32	807.96
625.66	805.28
626.01	802.19
626.35	799.11
626.70	795.72
627.04	792.67
627.39	789.36
627.73	786.33
628.08	783.34
628.43	780.28
628.77	777.08
629.12	773.62
629.46	770.37
629.81	766.94
630.15	763.28
630.50	759.85
630.84	756.38
631.19	752.90
631.53	749.32
631.88	745.73
632.22	741.78
632.57	738.62
632.91	734.96
633.26	731.59
633.60	728.28
633.95	725.12
634.29	721.51
634.64	718.37
634.98	714.80
635.32	711.59
635.67	708.79
636.01	705.43
636.36	702.53
636.70	699.41
637.05	696.38
637.39	693.51
637.73	690.58
638.08	687.87
638.42	685.01
638.77	682.19
639.11	679.28
639.45	676.40
639.80	673.15
640.14	670.14
640.49	667.21
640.83	663.95
641.17	661.05
641.52	658.30
641.86	655.35
642.20	652.66
642.55	649.62
642.89	646.34
643.23	643.37
643.58	640.69
643.92	637.75
644.26	634.59
644.61	631.76
644.95	628.89
645.29	625.59
645.64	622.48
645.98	619.67
646.32	616.97
646.66	614.02
647.01	611.00
647.35	608.11
647.69	605.05
648.04	602.40
648.38	599.28
648.72	595.94
649.06	592.82
649.41	589.89
649.75	586.94
650.09	584.00
650.43	581.02
650.78	577.50
651.12	574.65
651.46	571.88
651.80	568.88
652.14	565.98
652.49	563.17
652.83	560.31
653.17	557.02
653.51	553.87
653.85	551.00
654.20	548.24
654.54	544.94
654.88	541.89
655.22	538.78
655.56	535.76
655.90	533.02
656.25	530.42
656.59	527.52
656.93	524.78
657.27	522.03
657.61	519.10
657.95	516.66
658.29	514.03
658.64	511.42
658.98	508.53
659.32	505.72
659.66	502.92
660.00	500.23
660.34	497.70
660.68	495.10
661.02	492.50
661.36	489.90
661.70	487.80
662.05	485.73
662.39	483.50
662.73	481.37
663.07	479.20
663.41	476.81
663.75	474.40
664.09	472.10
664.43	469.77
664.77	467.76
665.11	465.44
665.45	463.15
665.79	460.91
666.13	458.73
666.47	456.53
666.81	454.45
667.15	452.22
667.49	450.12
667.83	448.09
668.17	446.01
668.51	443.89
668.85	441.73
669.19	439.57
669.53	437.42
669.87	435.30
670.21	433.37
670.55	431.42
670.89	429.60
671.23	427.64
671.57	425.80
671.91	423.90
672.25	422.16
672.58	420.36
672.92	418.54
673.26	416.96
673.60	415.37
673.94	413.70
674.28	412.19
674.62	410.61
674.96	408.96
675.30	407.43
675.64	405.98
675.97	404.40
676.31	402.80
676.65	401.35
676.99	399.94
677.33	398.36
677.67	396.80
678.01	395.08
678.34	393.55
678.68	391.96
679.02	390.38
679.36	388.83
679.70	387.10
680.04	385.48
680.37	383.78
680.71	382.14
681.05	380.71
681.39	379.20
681.73	377.70
682.06	376.24
682.40	374.86
682.74	373.37
683.08	372.06
683.42	370.56
683.75	369.31
684.09	367.82
684.43	366.37
684.77	364.90
685.10	363.55
685.44	362.14
685.78	360.84
686.12	359.60
686.45	358.29
686.79	357.18
687.13	356.10
687.46	354.89
687.80	353.75
688.14	352.30
688.48	351.12
688.81	349.79
689.15	348.54
689.49	347.16
689.82	345.96
690.16	344.53
690.50	343.34
690.83	341.93
691.17	340.60
691.51	339.43
691.84	338.32
692.18	337.20
692.52	336.03
692.85	334.92
693.19	333.81
693.52	332.64
693.86	331.44
694.20	330.14
694.53	329.15
694.87	327.82
695.21	326.61
695.54	325.36
695.88	324.21
696.21	323.00
696.55	321.99
696.88	320.76
697.22	319.80
697.56	318.84
697.89	317.87
698.23	316.85
698.56	315.80
698.90	314.78
699.23	313.70
699.57	312.70
699.90	311.65
700.24	310.48
700.58	309.52
700.91	308.56
701.25	307.79
701.58	306.83
701.92	306.06
702.25	305.20
702.59	304.41
702.92	303.71
703.26	302.99
703.59	302.19
703.93	301.54
704.26	300.67
704.60	299.78
704.93	298.87
705.26	298.08
705.60	297.36
705.93	296.55
706.27	295.93
706.60	295.31
706.94	294.72
707.27	294.05
707.61	293.31
707.94	292.62
708.27	291.80
708.61	291.03
708.94	290.30
709.28	289.78
709.61	289.11
709.94	288.40
710.28	287.79
710.61	287.02
710.95	286.19
711.28	285.69
711.61	285.07
711.95	284.55
712.28	283.91
712.61	283.26
712.95	282.78
713.28	282.29
713.61	281.58
713.95	280.99
714.28	280.48
714.61	279.90
714.95	279.23
715.28	278.60
715.61	278.01
715.95	277.47
716.28	276.95
716.61	276.39
716.95	275.86
717.28	275.31
717.61	274.89
717.94	274.49
718.28	273.71
718.61	273.15
718.94	272.65
719.27	272.16
719.61	271.77
719.94	271.33
720.27	270.72
720.60	270.34
720.94	269.86
721.27	269.39
721.60	268.93
721.93	268.60
722.27	268.23
722.60	267.77
722.93	267.36
723.26	266.90
723.59	266.46
723.93	266.07
724.26	265.67
724.59	265.30
724.92	264.91
725.25	264.67
725.59	264.37
725.92	263.99
726.25	263.71
726.58	263.19
726.91	262.76
727.24	262.53
727.57	262.21
727.91	261.72
728.24	261.40
728.57	261.09
728.90	260.83
729.23	260.53
729.56	260.38
729.89	260.07
730.22	259.75
730.55	259.45
730.89	259.13
731.22	258.80
731.55	258.45
731.88	258.16
732.21	257.88
732.54	257.44
732.87	257.17
733.20	256.86
733.53	256.61
733.86	256.36
734.19	255.97
734.52	255.61
734.85	255.58
735.18	255.28
735.51	255.03
735.84	254.77
736.17	254.45
736.50	254.12
736.83	254.11
737.16	253.77
737.49	253.57
737.82	253.30
738.15	253.14
738.48	252.92
738.81	252.61
739.14	252.33
739.47	252.14
739.80	251.84
740.13	251.57
740.46	251.40
740.79	251.19
741.12	250.97
741.45	250.85
741.78	250.47
742.11	250.24
742.44	249.90
742.77	249.60
743.10	249.47
743.43	249.32
743.75	248.88
744.08	249.00
744.41	248.68
744.74	248.37
745.07	248.10
745.40	247.89
745.73	247.85
746.06	247.70
746.39	247.58
746.71	247.33
747.04	247.11
747.37	246.89
747.70	246.58
748.03	246.35
748.36	246.05
748.68	245.93
749.01	245.65
749.34	245.56
749.67	245.40
750.00	245.20
750.33	245.05
750.65	244.80
750.98	244.35
751.31	244.34
751.64	244.29
751.97	244.21
752.29	244.09
752.62	243.83
752.95	243.67
753.28	243.50
753.60	243.40
753.93	243.37
754.26	243.08
754.59	242.90
754.91	242.69
755.24	242.62
755.57	242.34
755.90	242.21
756.22	242.10
756.55	241.86
756.88	241.65
757.20	241.31
757.53	241.10
757.86	241.05
758.19	240.79
758.51	240.69
758.84	240.40
759.17	240.17
759.49	240.01
759.82	239.91
760.15	239.75
760.47	239.60
760.80	239.36
761.13	239.34
761.45	239.34
761.78	239.16
762.11	238.97
762.43	238.80
762.76	238.71
763.08	238.38
763.41	238.30
763.74	238.04
764.06	237.87
764.39	237.88
764.71	237.63
765.04	237.48
765.37	237.22
765.69	236.99
766.02	236.89
766.34	236.70
766.67	236.45
767.00	236.44
767.32	236.48
767.65	236.52
767.97	236.43
768.30	236.13
768.62	236.06
768.95	235.93
769.27	235.83
769.60	235.79
769.92	235.80
770.25	235.70
770.57	235.65
770.90	235.62
771.22	235.40
771.55	235.36
771.87	235.28
772.20	235.25
772.52	235.35
772.85	235.50
773.17	235.50
773.50	235.34
773.82	235.11
774.15	234.88
774.47	234.61
774.80	234.46
775.12	234.43
775.45	234.40
775.77	234.25
776.09	234.24
776.42	234.08
776.74	234.08
777.07	233.90
777.39	233.90
777.72	233.78
778.04	233.80
778.36	233.70
778.69	233.69
779.01	233.61
779.33	233.42
779.66	233.10
779.98	232.95
780.31	233.13
780.63	233.20
780.95	233.22
781.28	233.15
781.60	233.06
781.92	233.08
782.25	233.01
782.57	233.11
782.89	233.06
783.22	233.00
783.54	232.92
783.86	232.99
784.19	232.95
784.51	232.98
784.83	232.90
785.16	232.94
785.48	232.77
785.80	232.76
786.12	232.80
786.45	232.79
786.77	232.76
787.09	232.58
787.42	232.55
787.74	232.49
788.06	232.46
788.38	232.43
788.71	232.31
789.03	232.27
789.35	232.19
789.67	232.17
789.99	232.19
790.32	232.20
790.64	232.13
790.96	232.16
791.28	232.14
791.61	232.08
791.93	232.00
792.25	232.13
