SpectraSuite Data File
++++++++++++++++++++++++++++++++++++
Date: Fri Feb 01 14:36:50 EST 2013
User: group
Dark Spectrum Present: No
Reference Spectrum Present: No
Number of Sampled Component Spectra: 1
Spectrometers: USB2E7196
Integration Time (usec): 70000 (USB2E7196)
Spectra Averaged: 10 (USB2E7196)
Boxcar Smoothing: 10 (USB2E7196)
Correct for Electrical Dark: No (USB2E7196)
Strobe/Lamp Enabled: No (USB2E7196)
Correct for Detector Non-linearity: No (USB2E7196)
Correct for Stray Light: No (USB2E7196)
Number of Pixels in Processed Spectrum: 2048
>>>>>Begin Processed Spectral Data<<<<<
339.09	0.00
339.48	214.70
339.86	217.00
340.24	219.40
340.63	219.00
341.01	222.70
341.39	221.60
341.78	223.50
342.16	224.40
342.54	226.90
342.93	214.04
343.31	224.84
343.69	225.46
344.07	225.93
344.46	226.34
344.84	226.76
345.22	226.97
345.60	227.25
345.99	227.37
346.37	227.55
346.75	227.55
347.13	227.60
347.52	227.54
347.90	227.69
348.28	227.63
348.66	227.61
349.05	227.57
349.43	227.67
349.81	227.66
350.19	227.82
350.57	227.90
350.96	227.96
351.34	228.12
351.72	228.16
352.10	228.29
352.48	228.23
352.87	228.26
353.25	228.37
353.63	228.47
354.01	228.70
354.39	228.76
354.77	228.90
355.15	229.05
355.54	229.18
355.92	229.18
356.30	229.35
356.68	229.57
357.06	229.65
357.44	229.54
357.82	229.62
358.20	229.66
358.58	229.70
358.97	229.75
359.35	229.73
359.73	229.88
360.11	229.90
360.49	230.03
360.87	230.08
361.25	230.04
361.63	230.04
362.01	230.05
362.39	230.09
362.77	230.18
363.15	230.19
363.53	230.17
363.91	230.15
364.29	230.15
364.67	230.08
365.05	230.04
365.43	230.16
365.81	230.10
366.19	230.24
366.57	230.36
366.95	230.32
367.33	230.44
367.71	230.37
368.09	230.40
368.47	230.44
368.85	230.47
369.23	230.60
369.61	230.57
369.99	230.63
370.37	230.63
370.75	230.56
371.13	230.50
371.51	230.41
371.89	230.35
372.27	230.30
372.65	230.15
373.03	230.14
373.41	230.08
373.78	230.05
374.16	229.74
374.54	229.63
374.92	229.51
375.30	229.36
375.68	229.25
376.06	229.27
376.44	229.25
376.82	229.16
377.19	229.06
377.57	228.99
377.95	228.66
378.33	228.49
378.71	228.41
379.09	228.40
379.47	228.47
379.84	228.39
380.22	228.30
380.60	228.20
380.98	228.16
381.36	228.01
381.73	227.89
382.11	227.86
382.49	227.67
382.87	227.54
383.25	227.44
383.62	227.62
384.00	227.34
384.38	227.23
384.76	227.25
385.13	227.16
385.51	227.12
385.89	227.14
386.27	227.13
386.64	227.00
387.02	226.85
387.40	226.77
387.78	226.70
388.15	226.66
388.53	226.58
388.91	226.46
389.29	226.50
389.66	226.46
390.04	226.51
390.42	226.58
390.79	226.63
391.17	226.68
391.55	226.46
391.92	226.40
392.30	226.41
392.68	226.25
393.05	226.26
393.43	226.19
393.81	226.16
394.18	226.11
394.56	226.20
394.94	226.26
395.31	226.16
395.69	226.26
396.06	226.30
396.44	226.41
396.82	226.40
397.19	226.52
397.57	226.59
397.95	226.64
398.32	226.70
398.70	226.73
399.07	226.72
399.45	226.78
399.82	226.88
400.20	226.85
400.58	227.01
400.95	227.00
401.33	227.15
401.70	227.36
402.08	227.53
402.45	227.62
402.83	227.76
403.20	228.00
403.58	228.15
403.95	228.35
404.33	228.59
404.71	228.82
405.08	228.96
405.46	229.20
405.83	229.35
406.21	229.56
406.58	229.92
406.96	230.17
407.33	230.47
407.70	230.90
408.08	231.48
408.45	231.88
408.83	232.40
409.20	232.79
409.58	233.14
409.95	233.54
410.33	233.98
410.70	234.45
411.08	234.98
411.45	235.51
411.82	235.98
412.20	236.70
412.57	237.48
412.95	238.09
413.32	238.86
413.69	239.66
414.07	240.46
414.44	241.30
414.82	242.30
415.19	243.33
415.56	244.36
415.94	245.32
416.31	246.40
416.68	247.52
417.06	248.84
417.43	250.23
417.81	251.89
418.18	253.44
418.55	254.98
418.93	256.68
419.30	258.42
419.67	260.22
420.04	262.01
420.42	263.84
420.79	266.16
421.16	268.42
421.54	270.75
421.91	273.20
422.28	275.70
422.66	278.20
423.03	280.78
423.40	283.34
423.77	286.15
424.15	289.02
424.52	292.01
424.89	295.37
425.26	298.40
425.64	301.15
426.01	304.39
426.38	307.77
426.75	311.31
427.13	314.76
427.50	318.50
427.87	322.45
428.24	326.31
428.61	330.09
428.99	334.09
429.36	338.60
429.73	342.79
430.10	347.03
430.47	351.44
430.85	356.03
431.22	360.82
431.59	366.13
431.96	370.95
432.33	376.21
432.70	381.41
433.08	387.61
433.45	393.46
433.82	399.18
434.19	405.35
434.56	411.40
434.93	417.41
435.30	423.48
435.68	429.90
436.05	436.48
436.42	442.88
436.79	448.88
437.16	455.07
437.53	461.77
437.90	468.40
438.27	475.02
438.64	481.54
439.01	487.76
439.38	493.03
439.75	498.52
440.13	504.70
440.50	510.50
440.87	515.29
441.24	520.29
441.61	525.74
441.98	530.08
442.35	534.95
442.72	539.95
443.09	544.80
443.46	547.78
443.83	549.96
444.20	551.83
444.57	554.59
444.94	556.25
445.31	557.96
445.68	559.62
446.05	560.70
446.42	560.91
446.79	560.86
447.16	560.81
447.53	560.94
447.90	559.39
448.27	557.71
448.64	554.91
449.01	553.33
449.37	549.75
449.74	546.26
450.11	541.81
450.48	536.95
450.85	531.85
451.22	527.89
451.59	523.92
451.96	520.21
452.33	514.75
452.70	509.92
453.07	503.98
453.43	497.91
453.80	491.91
454.17	486.15
454.54	480.95
454.91	474.93
455.28	469.21
455.65	463.80
456.02	458.43
456.38	453.81
456.75	447.96
457.12	443.20
457.49	438.40
457.86	433.83
458.23	429.92
458.59	425.52
458.96	420.87
459.33	416.80
459.70	412.64
460.07	409.28
460.43	405.47
460.80	401.95
461.17	398.85
461.54	395.65
461.91	392.58
462.27	389.20
462.64	386.58
463.01	383.53
463.38	380.62
463.74	377.61
464.11	375.13
464.48	372.85
464.85	370.22
465.21	368.19
465.58	366.10
465.95	363.58
466.32	361.40
466.68	359.39
467.05	357.40
467.42	355.39
467.78	353.30
468.15	351.23
468.52	349.61
468.88	347.49
469.25	345.60
469.62	344.15
469.98	342.63
470.35	341.19
470.72	339.90
471.08	338.25
471.45	336.86
471.82	335.41
472.18	333.77
472.55	332.70
472.92	331.47
473.28	330.28
473.65	329.02
474.02	327.98
474.38	327.05
474.75	326.12
475.11	325.10
475.48	324.33
475.85	323.47
476.21	322.78
476.58	322.22
476.94	321.73
477.31	321.07
477.67	320.53
478.04	320.06
478.41	319.55
478.77	319.39
479.14	318.93
479.50	318.63
479.87	318.47
480.23	318.24
480.60	317.82
480.96	317.49
481.33	317.50
481.69	317.35
482.06	317.00
482.42	316.84
482.79	316.76
483.15	316.80
483.52	317.16
483.88	317.18
484.25	317.21
484.61	317.33
484.98	317.40
485.34	317.59
485.71	317.84
486.07	317.99
486.44	318.10
486.80	318.56
487.17	318.80
487.53	319.14
487.90	319.62
488.26	320.38
488.62	321.02
488.99	321.53
489.35	322.14
489.72	322.78
490.08	323.48
490.44	324.20
490.81	324.89
491.17	325.44
491.54	326.39
491.90	327.24
492.26	328.17
492.63	329.05
492.99	330.00
493.36	330.93
493.72	331.92
494.08	332.94
494.45	333.95
494.81	335.19
495.17	336.40
495.54	337.57
495.90	338.69
496.26	339.74
496.63	340.80
496.99	341.91
497.35	343.33
497.72	344.46
498.08	345.62
498.44	346.90
498.80	348.19
499.17	349.27
499.53	350.42
499.89	351.55
500.26	352.72
500.62	353.80
500.98	355.03
501.34	356.26
501.71	357.51
502.07	358.57
502.43	359.55
502.79	360.51
503.16	361.44
503.52	362.40
503.88	363.45
504.24	364.45
504.60	365.40
504.97	366.29
505.33	367.24
505.69	368.25
506.05	369.08
506.41	369.87
506.78	370.55
507.14	371.26
507.50	372.00
507.86	372.68
508.22	373.35
508.59	373.79
508.95	374.42
509.31	374.88
509.67	375.40
510.03	375.97
510.39	376.53
510.75	376.84
511.12	377.11
511.48	377.53
511.84	377.84
512.20	378.07
512.56	378.24
512.92	378.45
513.28	378.59
513.64	378.72
514.00	378.90
514.37	379.20
514.73	379.40
515.09	379.46
515.45	379.52
515.81	379.45
516.17	379.51
516.53	379.40
516.89	379.34
517.25	379.41
517.61	379.54
517.97	379.44
518.33	379.53
518.69	379.61
519.05	379.63
519.41	379.74
519.77	380.20
520.13	380.33
520.49	380.55
520.85	380.73
521.21	381.01
521.57	381.19
521.93	381.42
522.29	381.75
522.65	382.07
523.01	382.49
523.37	383.12
523.73	383.63
524.09	384.27
524.45	385.00
524.81	385.57
525.17	386.08
525.53	386.94
525.89	387.85
526.25	388.64
526.61	389.51
526.97	390.43
527.33	391.34
527.68	392.63
528.04	393.81
528.40	395.13
528.76	396.49
529.12	397.91
529.48	399.42
529.84	400.80
530.20	402.27
530.56	403.85
530.91	405.55
531.27	407.48
531.63	409.34
531.99	411.29
532.35	413.26
532.71	415.41
533.07	417.66
533.42	420.01
533.78	422.46
534.14	424.86
534.50	427.37
534.86	429.84
535.21	432.21
535.57	434.85
535.93	437.61
536.29	440.50
536.65	443.29
537.00	446.19
537.36	449.32
537.72	452.60
538.08	455.98
538.44	459.04
538.79	462.46
539.15	465.82
539.51	469.36
539.87	473.01
540.22	476.58
540.58	480.21
540.94	483.71
541.29	487.52
541.65	491.15
542.01	495.11
542.37	499.00
542.72	502.77
543.08	506.71
543.44	510.53
543.79	514.23
544.15	518.45
544.51	522.52
544.87	526.66
545.22	530.99
545.58	535.13
545.94	539.40
546.29	543.32
546.65	547.29
547.01	551.45
547.36	555.53
547.72	559.70
548.07	563.92
548.43	568.19
548.79	572.47
549.14	576.91
549.50	581.03
549.86	585.22
550.21	589.72
550.57	594.05
550.92	598.58
551.28	602.92
551.64	607.30
551.99	611.70
552.35	616.04
552.70	620.25
553.06	624.52
553.41	628.84
553.77	633.18
554.13	637.75
554.48	642.17
554.84	646.75
555.19	651.15
555.55	655.65
555.90	659.84
556.26	664.06
556.61	668.13
556.97	672.31
557.32	676.53
557.68	680.57
558.03	684.66
558.39	688.64
558.74	693.05
559.10	697.30
559.45	701.63
559.81	705.89
560.16	709.76
560.52	713.73
560.87	718.00
561.23	721.90
561.58	726.23
561.94	730.17
562.29	733.77
562.64	737.64
563.00	741.30
563.35	745.53
563.71	749.69
564.06	753.80
564.42	757.95
564.77	761.86
565.12	765.81
565.48	769.90
565.83	773.83
566.19	777.50
566.54	780.83
566.89	784.31
567.25	787.83
567.60	791.50
567.96	795.35
568.31	798.73
568.66	802.48
569.02	805.46
569.37	808.33
569.72	811.73
570.08	814.82
570.43	817.88
570.78	820.55
571.14	823.18
571.49	825.80
571.84	828.51
572.20	831.26
572.55	833.79
572.90	836.10
573.26	838.58
573.61	840.88
573.96	843.29
574.31	844.99
574.67	846.79
575.02	848.43
575.37	849.97
575.72	851.24
576.08	852.64
576.43	854.20
576.78	856.06
577.13	857.91
577.49	859.51
577.84	860.99
578.19	862.57
578.54	863.81
578.90	865.28
579.25	866.21
579.60	867.28
579.95	868.32
580.30	869.09
580.66	869.35
581.01	870.01
581.36	870.76
581.71	872.01
582.06	872.79
582.42	873.52
582.77	874.25
583.12	875.21
583.47	876.09
583.82	876.73
584.17	877.23
584.53	877.36
584.88	877.70
585.23	877.81
585.58	877.94
585.93	878.20
586.28	878.34
586.63	878.70
586.98	878.75
587.34	878.89
587.69	879.26
588.04	879.62
588.39	879.87
588.74	879.37
589.09	878.87
589.44	878.35
589.79	878.49
590.14	878.26
590.49	877.84
590.84	877.27
591.19	876.94
591.54	876.23
591.89	875.33
592.25	874.85
592.60	874.14
592.95	873.43
593.30	872.54
593.65	871.50
594.00	870.48
594.35	870.08
594.70	868.97
595.05	868.10
595.40	867.07
595.75	865.84
596.10	865.20
596.45	864.38
596.80	863.82
597.15	862.59
597.50	861.51
597.85	860.76
598.19	860.04
598.54	858.86
598.89	857.88
599.24	857.20
599.59	856.00
599.94	855.13
600.29	853.64
600.64	852.68
600.99	851.30
601.34	850.00
601.69	847.96
602.04	846.78
602.39	845.07
602.74	843.87
603.08	842.56
603.43	841.19
603.78	839.70
604.13	838.21
604.48	836.83
604.83	835.30
605.18	833.60
605.53	831.46
605.87	829.58
606.22	828.00
606.57	826.08
606.92	824.13
607.27	822.42
607.62	821.20
607.96	819.16
608.31	817.63
608.66	815.64
609.01	813.57
609.36	811.27
609.70	808.91
610.05	806.79
610.40	804.80
610.75	802.32
611.10	800.06
611.44	797.53
611.79	794.92
612.14	792.47
612.49	789.78
612.83	787.35
613.18	785.02
613.53	782.45
613.88	779.90
614.22	777.34
614.57	774.44
614.92	771.54
615.27	769.18
615.61	766.48
615.96	763.93
616.31	761.72
616.65	759.72
617.00	757.64
617.35	755.09
617.70	752.12
618.04	749.70
618.39	747.22
618.74	744.72
619.08	742.22
619.43	739.74
619.78	737.39
620.12	734.80
620.47	732.01
620.82	729.24
621.16	726.79
621.51	724.51
621.85	722.16
622.20	719.51
622.55	716.98
622.89	714.71
623.24	712.23
623.59	710.00
623.93	707.23
624.28	704.63
624.62	702.03
624.97	699.77
625.32	697.57
625.66	695.21
626.01	692.77
626.35	690.36
626.70	687.86
627.04	685.56
627.39	683.00
627.73	680.60
628.08	678.15
628.43	675.42
628.77	672.70
629.12	670.04
629.46	667.58
629.81	664.50
630.15	661.66
630.50	659.13
630.84	655.95
631.19	653.11
631.53	650.45
631.88	647.67
632.22	644.77
632.57	642.16
632.91	639.12
633.26	636.43
633.60	633.63
633.95	630.91
634.29	628.30
634.64	625.85
634.98	623.40
635.32	621.04
635.67	618.69
636.01	616.33
636.36	613.78
636.70	611.41
637.05	609.13
637.39	606.90
637.73	604.37
638.08	602.49
638.42	600.25
638.77	597.97
639.11	595.75
639.45	593.67
639.80	590.96
640.14	588.76
640.49	586.40
640.83	584.27
641.17	582.00
641.52	579.43
641.86	576.99
642.20	574.73
642.55	572.16
642.89	569.83
643.23	567.36
643.58	565.18
643.92	562.75
644.26	560.51
644.61	557.99
644.95	555.91
645.29	553.10
645.64	550.68
645.98	548.21
646.32	545.82
646.66	543.25
647.01	540.96
647.35	538.77
647.69	536.25
648.04	534.03
648.38	531.50
648.72	529.00
649.06	526.74
649.41	524.36
649.75	521.99
650.09	519.51
650.43	517.08
650.78	514.61
651.12	512.30
651.46	509.86
651.80	507.66
652.14	505.37
652.49	503.29
652.83	501.17
653.17	498.72
653.51	496.54
653.85	494.49
654.20	492.11
654.54	489.55
654.88	487.47
655.22	484.85
655.56	482.67
655.90	480.59
656.25	478.40
656.59	476.04
656.93	474.01
657.27	471.83
657.61	469.56
657.95	467.46
658.29	465.35
658.64	463.34
658.98	461.05
659.32	458.54
659.66	456.41
660.00	454.01
660.34	452.07
660.68	449.82
661.02	447.60
661.36	445.64
661.70	443.87
662.05	441.84
662.39	440.17
662.73	438.29
663.07	436.35
663.41	434.49
663.75	432.60
664.09	430.63
664.43	428.92
664.77	427.39
665.11	425.74
665.45	423.82
665.79	422.09
666.13	420.39
666.47	418.81
666.81	416.94
667.15	415.29
667.49	413.43
667.83	411.82
668.17	410.11
668.51	408.30
668.85	406.41
669.19	404.89
669.53	403.17
669.87	401.44
670.21	399.80
670.55	398.29
670.89	396.86
671.23	395.51
671.57	393.96
671.91	392.27
672.25	390.56
672.58	389.18
672.92	387.73
673.26	386.23
673.60	384.79
673.94	383.37
674.28	382.08
674.62	380.97
674.96	379.67
675.30	378.50
675.64	377.33
675.97	376.18
676.31	374.76
676.65	373.45
676.99	372.28
677.33	370.99
677.67	369.56
678.01	368.20
678.34	366.73
678.68	365.41
679.02	364.23
679.36	362.91
679.70	361.69
680.04	360.27
680.37	358.97
680.71	357.72
681.05	356.77
681.39	355.58
681.73	354.45
682.06	353.32
682.40	352.06
682.74	350.84
683.08	349.70
683.42	348.64
683.75	347.52
684.09	346.26
684.43	345.31
684.77	344.10
685.10	343.06
685.44	341.94
685.78	340.78
686.12	339.62
686.45	338.64
686.79	337.48
687.13	336.46
687.46	335.65
687.80	334.62
688.14	333.35
688.48	332.40
688.81	331.11
689.15	330.04
689.49	328.87
689.82	327.82
690.16	326.82
690.50	325.77
690.83	324.75
691.17	323.92
691.51	322.72
691.84	321.88
692.18	320.94
692.52	320.01
692.85	319.11
693.19	318.29
693.52	317.30
693.86	316.32
694.20	315.41
694.53	314.24
694.87	313.38
695.21	312.48
695.54	311.34
695.88	310.43
696.21	309.54
696.55	308.72
696.88	307.89
697.22	306.98
697.56	306.10
697.89	305.14
698.23	304.24
698.56	303.49
698.90	302.79
699.23	301.82
699.57	300.90
699.90	300.04
700.24	299.11
700.58	298.31
700.91	297.63
701.25	296.88
701.58	296.32
701.92	295.57
702.25	294.84
702.59	294.26
702.92	293.54
703.26	292.80
703.59	292.18
703.93	291.66
704.26	290.95
704.60	290.43
704.93	289.66
705.26	289.01
705.60	288.46
705.93	287.82
706.27	287.34
706.60	286.95
706.94	286.39
707.27	285.76
707.61	285.23
707.94	284.59
708.27	283.88
708.61	283.15
708.94	282.51
709.28	282.12
709.61	281.49
709.94	281.02
710.28	280.46
710.61	279.84
710.95	279.06
711.28	278.56
711.61	277.94
711.95	277.60
712.28	276.90
712.61	276.21
712.95	275.69
713.28	275.25
713.61	274.65
713.95	274.03
714.28	273.54
714.61	273.03
714.95	272.49
715.28	271.96
715.61	271.50
715.95	271.08
716.28	270.36
716.61	269.92
716.95	269.44
717.28	268.99
717.61	268.54
717.94	268.16
718.28	267.64
718.61	267.21
718.94	266.81
719.27	266.47
719.61	266.14
719.94	265.70
720.27	265.18
720.60	264.78
720.94	264.48
721.27	264.16
721.60	263.77
721.93	263.55
722.27	263.32
722.60	262.95
722.93	262.50
723.26	262.27
723.59	261.91
723.93	261.54
724.26	261.21
724.59	260.94
724.92	260.57
725.25	260.40
725.59	260.10
725.92	259.73
726.25	259.50
726.58	259.15
726.91	258.84
727.24	258.52
727.57	258.30
727.91	257.92
728.24	257.62
728.57	257.38
728.90	257.03
729.23	256.74
729.56	256.58
729.89	256.32
730.22	256.02
730.55	255.72
730.89	255.60
731.22	255.29
731.55	255.08
731.88	254.79
732.21	254.54
732.54	254.20
732.87	253.94
733.20	253.66
733.53	253.49
733.86	253.22
734.19	253.08
734.52	252.83
734.85	252.83
735.18	252.51
735.51	252.30
735.84	252.10
736.17	251.97
736.50	251.74
736.83	251.81
737.16	251.65
737.49	251.54
737.82	251.27
738.15	251.17
738.48	250.85
738.81	250.62
739.14	250.22
739.47	250.00
739.80	249.71
740.13	249.57
740.46	249.32
740.79	249.13
741.12	248.72
741.45	248.53
741.78	248.22
742.11	248.12
742.44	247.82
742.77	247.70
743.10	247.26
743.43	246.90
743.75	246.40
744.08	246.35
744.41	246.15
744.74	245.95
745.07	245.65
745.40	245.49
745.73	245.52
746.06	245.36
746.39	245.14
746.71	244.99
747.04	244.72
747.37	244.46
747.70	244.23
748.03	244.04
748.36	243.80
748.68	243.60
749.01	243.38
749.34	243.18
749.67	242.84
750.00	242.81
750.33	242.78
750.65	242.58
750.98	242.18
751.31	241.94
751.64	241.74
751.97	241.67
752.29	241.49
752.62	241.20
752.95	241.00
753.28	240.83
753.60	240.65
753.93	240.57
754.26	240.34
754.59	240.14
754.91	240.01
755.24	239.89
755.57	239.68
755.90	239.47
756.22	239.33
756.55	239.20
756.88	238.96
757.20	238.70
757.53	238.56
757.86	238.41
758.19	238.30
758.51	238.20
758.84	238.05
759.17	237.95
759.49	237.85
759.82	237.90
760.15	237.86
760.47	237.83
760.80	237.66
761.13	237.75
761.45	237.67
761.78	237.64
762.11	237.59
762.43	237.51
762.76	237.46
763.08	237.33
763.41	237.35
763.74	237.29
764.06	237.28
764.39	237.30
764.71	237.18
765.04	237.14
765.37	237.07
765.69	236.96
766.02	236.87
766.34	236.80
766.67	236.68
767.00	236.64
767.32	236.67
767.65	236.76
767.97	236.63
768.30	236.61
768.62	236.52
768.95	236.38
769.27	236.24
769.60	236.21
769.92	236.16
770.25	236.01
770.57	235.96
770.90	235.90
771.22	235.68
771.55	235.61
771.87	235.46
772.20	235.40
772.52	235.42
772.85	235.50
773.17	235.45
773.50	235.24
773.82	235.18
774.15	234.97
774.47	234.71
774.80	234.55
775.12	234.49
775.45	234.38
775.77	234.29
776.09	234.28
776.42	234.24
776.74	234.19
777.07	234.15
777.39	234.11
777.72	234.02
778.04	234.04
778.36	234.02
778.69	233.96
779.01	233.90
779.33	233.71
779.66	233.47
779.98	233.29
780.31	233.31
780.63	233.28
780.95	233.28
781.28	233.20
781.60	233.17
781.92	233.13
782.25	233.17
782.57	233.04
782.89	233.04
783.22	232.90
783.54	232.78
783.86	232.70
784.19	232.67
784.51	232.60
784.83	232.51
785.16	232.48
785.48	232.46
785.80	232.39
786.12	232.37
786.45	232.39
786.77	232.38
787.09	232.23
787.42	232.05
787.74	232.04
788.06	232.05
788.38	231.98
788.71	231.79
789.03	231.65
789.35	231.65
789.67	231.49
789.99	231.43
790.32	231.46
790.64	231.51
790.96	231.66
791.28	231.57
791.61	231.57
791.93	231.60
792.25	231.49
792.57	231.54
792.89	231.42
793.21	231.40
793.54	231.39
793.86	231.40
794.18	231.40
