SpectraSuite Data File
++++++++++++++++++++++++++++++++++++
Date: Fri Feb 01 14:36:59 EST 2013
User: group
Dark Spectrum Present: No
Reference Spectrum Present: No
Number of Sampled Component Spectra: 1
Spectrometers: USB2E7196
Integration Time (usec): 70000 (USB2E7196)
Spectra Averaged: 10 (USB2E7196)
Boxcar Smoothing: 10 (USB2E7196)
Correct for Electrical Dark: No (USB2E7196)
Strobe/Lamp Enabled: No (USB2E7196)
Correct for Detector Non-linearity: No (USB2E7196)
Correct for Stray Light: No (USB2E7196)
Number of Pixels in Processed Spectrum: 2048
>>>>>Begin Processed Spectral Data<<<<<
339.09	0.00
339.48	215.10
339.86	217.40
340.24	220.00
340.63	221.30
341.01	228.00
341.39	224.40
341.78	224.50
342.16	226.50
342.54	225.50
342.93	215.12
343.31	226.00
343.69	226.60
344.07	227.06
344.46	227.45
344.84	227.70
345.22	227.69
345.60	227.93
345.99	228.08
346.37	228.09
346.75	228.21
347.13	228.10
347.52	228.03
347.90	228.16
348.28	228.07
348.66	228.12
349.05	228.11
349.43	228.10
349.81	228.10
350.19	228.08
350.57	228.00
350.96	228.12
351.34	228.20
351.72	228.26
352.10	228.29
352.48	228.33
352.87	228.50
353.25	228.54
353.63	228.53
354.01	228.63
354.39	228.85
354.77	228.90
355.15	229.15
355.54	229.26
355.92	229.24
356.30	229.25
356.68	229.45
357.06	229.43
357.44	229.52
357.82	229.58
358.20	229.69
358.58	229.80
358.97	229.91
359.35	229.92
359.73	229.95
360.11	230.05
360.49	230.12
360.87	230.07
361.25	230.12
361.63	230.22
362.01	230.20
362.39	230.16
362.77	230.24
363.15	230.19
363.53	230.17
363.91	230.21
364.29	230.30
364.67	230.20
365.05	230.18
365.43	230.12
365.81	230.20
366.19	230.25
366.57	230.23
366.95	230.16
367.33	230.04
367.71	230.04
368.09	230.07
368.47	230.00
368.85	230.05
369.23	230.09
369.61	229.93
369.99	229.90
370.37	229.85
370.75	229.79
371.13	229.71
371.51	229.73
371.89	229.65
372.27	229.50
372.65	229.40
373.03	229.50
373.41	229.43
373.78	229.29
374.16	229.19
374.54	229.10
374.92	229.00
375.30	229.05
375.68	228.95
376.06	228.90
376.44	228.81
376.82	228.78
377.19	228.67
377.57	228.72
377.95	228.73
378.33	228.60
378.71	228.50
379.09	228.39
379.47	228.31
379.84	228.33
380.22	228.34
380.60	228.31
380.98	228.27
381.36	228.17
381.73	228.17
382.11	228.19
382.49	228.26
382.87	228.25
383.25	228.11
383.62	228.25
384.00	228.15
384.38	228.11
384.76	228.08
385.13	228.01
385.51	228.00
385.89	227.89
386.27	227.96
386.64	227.97
387.02	228.03
387.40	227.88
387.78	227.86
388.15	227.81
388.53	227.74
388.91	227.61
389.29	227.62
389.66	227.64
390.04	227.48
390.42	227.41
390.79	227.28
391.17	227.31
391.55	227.19
391.92	227.20
392.30	227.19
392.68	227.10
393.05	227.20
393.43	227.09
393.81	227.10
394.18	227.01
394.56	227.01
394.94	226.97
395.31	227.08
395.69	227.13
396.06	227.19
396.44	227.18
396.82	227.27
397.19	227.42
397.57	227.39
397.95	227.55
398.32	227.55
398.70	227.63
399.07	227.83
399.45	227.83
399.82	227.82
400.20	227.95
400.58	228.14
400.95	228.05
401.33	228.23
401.70	228.40
402.08	228.58
402.45	228.69
402.83	228.94
403.20	229.01
403.58	229.09
403.95	229.24
404.33	229.47
404.71	229.67
405.08	229.90
405.46	230.09
405.83	230.22
406.21	230.51
406.58	230.90
406.96	231.09
407.33	231.43
407.70	231.85
408.08	232.26
408.45	232.49
408.83	232.95
409.20	233.32
409.58	233.64
409.95	234.08
410.33	234.59
410.70	234.89
411.08	235.45
411.45	235.94
411.82	236.40
412.20	237.06
412.57	237.66
412.95	238.16
413.32	238.89
413.69	239.69
414.07	240.40
414.44	241.15
414.82	241.87
415.19	242.86
415.56	243.89
415.94	244.84
416.31	246.08
416.68	247.25
417.06	248.54
417.43	249.87
417.81	251.20
418.18	252.59
418.55	254.15
418.93	255.72
419.30	257.34
419.67	259.17
420.04	260.98
420.42	262.83
420.79	265.19
421.16	267.30
421.54	269.45
421.91	271.71
422.28	274.16
422.66	276.70
423.03	279.18
423.40	281.63
423.77	284.43
424.15	287.18
424.52	290.02
424.89	293.02
425.26	296.13
425.64	299.17
426.01	302.35
426.38	305.73
426.75	309.14
427.13	312.78
427.50	316.42
427.87	320.19
428.24	323.98
428.61	327.51
428.99	331.47
429.36	335.93
429.73	340.21
430.10	344.34
430.47	348.85
430.85	353.28
431.22	358.01
431.59	362.93
431.96	367.80
432.33	373.20
432.70	378.38
433.08	384.34
433.45	389.90
433.82	395.44
434.19	401.72
434.56	407.77
434.93	413.41
435.30	419.08
435.68	425.37
436.05	431.78
436.42	437.86
436.79	443.51
437.16	449.46
437.53	455.72
437.90	462.10
438.27	468.39
438.64	474.94
439.01	480.90
439.38	486.16
439.75	491.05
440.13	496.77
440.50	502.38
440.87	507.04
441.24	511.72
441.61	517.24
441.98	521.16
442.35	525.81
442.72	530.79
443.09	535.63
443.46	538.63
443.83	540.58
444.20	542.46
444.57	545.22
444.94	546.69
445.31	548.27
445.68	549.96
446.05	550.87
446.42	550.78
446.79	550.78
447.16	550.74
447.53	551.02
447.90	549.52
448.27	547.77
448.64	545.06
449.01	543.70
449.37	540.10
449.74	536.64
450.11	532.36
450.48	527.33
450.85	522.34
451.22	518.21
451.59	514.49
451.96	510.96
452.33	505.86
452.70	501.09
453.07	495.51
453.43	489.63
453.80	483.85
454.17	478.26
454.54	473.05
454.91	467.39
455.28	461.78
455.65	456.56
456.02	451.52
456.38	446.80
456.75	440.80
457.12	436.01
457.49	431.09
457.86	426.52
458.23	422.78
458.59	418.49
458.96	414.06
459.33	410.02
459.70	406.02
460.07	402.91
460.43	399.33
460.80	395.87
461.17	392.83
461.54	389.58
461.91	386.69
462.27	383.52
462.64	380.89
463.01	377.85
463.38	375.00
463.74	372.00
464.11	369.65
464.48	367.47
464.85	365.05
465.21	363.41
465.58	361.47
465.95	358.97
466.32	356.78
466.68	354.74
467.05	352.76
467.42	350.75
467.78	348.36
468.15	346.43
468.52	344.86
468.88	342.77
469.25	341.22
469.62	339.68
469.98	338.19
470.35	336.64
470.72	335.47
471.08	333.77
471.45	332.47
471.82	331.13
472.18	329.87
472.55	328.75
472.92	327.40
473.28	326.25
473.65	325.09
474.02	324.18
474.38	323.21
474.75	322.28
475.11	321.30
475.48	320.61
475.85	319.80
476.21	318.93
476.58	318.16
476.94	317.49
477.31	316.78
477.67	316.14
478.04	315.65
478.41	315.08
478.77	314.86
479.14	314.36
479.50	313.98
479.87	313.64
480.23	313.36
480.60	312.96
480.96	312.62
481.33	312.55
481.69	312.34
482.06	312.07
482.42	311.89
482.79	311.81
483.15	311.83
483.52	312.10
483.88	312.36
484.25	312.50
484.61	312.60
484.98	312.82
485.34	313.09
485.71	313.39
486.07	313.73
486.44	313.96
486.80	314.34
487.17	314.65
487.53	315.00
487.90	315.43
488.26	316.10
488.62	316.74
488.99	317.30
489.35	317.90
489.72	318.73
490.08	319.40
490.44	320.10
490.81	320.77
491.17	321.32
491.54	322.12
491.90	323.11
492.26	324.09
492.63	324.96
492.99	325.79
493.36	326.69
493.72	327.57
494.08	328.59
494.45	329.65
494.81	330.54
495.17	331.59
495.54	332.60
495.90	333.59
496.26	334.55
496.63	335.60
496.99	336.63
497.35	337.73
497.72	338.89
498.08	340.01
498.44	341.12
498.80	342.47
499.17	343.48
499.53	344.43
499.89	345.43
500.26	346.42
500.62	347.52
500.98	348.55
501.34	349.57
501.71	350.67
502.07	351.50
502.43	352.50
502.79	353.51
503.16	354.49
503.52	355.33
503.88	356.22
504.24	357.20
504.60	358.11
504.97	358.96
505.33	359.85
505.69	360.65
506.05	361.33
506.41	361.73
506.78	362.23
507.14	362.90
507.50	363.28
507.86	363.95
508.22	364.45
508.59	364.74
508.95	365.17
509.31	365.48
509.67	365.97
510.03	366.45
510.39	366.68
510.75	366.89
511.12	367.27
511.48	367.47
511.84	367.61
512.20	367.79
512.56	367.85
512.92	367.94
513.28	367.94
513.64	368.08
514.00	368.33
514.37	368.57
514.73	368.60
515.09	368.80
515.45	368.80
515.81	368.72
516.17	368.97
516.53	369.10
516.89	369.11
517.25	369.14
517.61	369.40
517.97	369.44
518.33	369.45
518.69	369.43
519.05	369.56
519.41	369.72
519.77	370.03
520.13	370.28
520.49	370.27
520.85	370.55
521.21	370.90
521.57	371.16
521.93	371.35
522.29	371.67
522.65	372.10
523.01	372.49
523.37	372.98
523.73	373.54
524.09	374.09
524.45	374.70
524.81	375.47
525.17	375.96
525.53	376.75
525.89	377.65
526.25	378.73
526.61	379.67
526.97	380.81
527.33	381.80
527.68	383.10
528.04	384.45
528.40	385.79
528.76	387.09
529.12	388.65
529.48	390.24
529.84	391.95
530.20	393.40
530.56	395.41
530.91	397.36
531.27	399.23
531.63	401.30
531.99	403.40
532.35	405.40
532.71	407.80
533.07	410.26
533.42	412.85
533.78	415.30
534.14	417.86
534.50	420.30
534.86	423.00
535.21	425.49
535.57	428.54
535.93	431.30
536.29	434.47
536.65	437.50
537.00	440.53
537.36	443.53
537.72	447.07
538.08	450.34
538.44	453.72
538.79	457.04
539.15	460.31
539.51	463.93
539.87	467.71
540.22	471.23
540.58	474.92
540.94	478.50
541.29	482.33
541.65	485.96
542.01	489.86
542.37	493.86
542.72	497.88
543.08	501.56
543.44	505.69
543.79	509.46
544.15	513.69
544.51	518.09
544.87	522.46
545.22	526.51
545.58	530.57
545.94	534.70
546.29	539.01
546.65	543.36
547.01	547.54
547.36	551.70
547.72	556.31
548.07	560.64
548.43	565.10
548.79	569.33
549.14	573.80
549.50	578.12
549.86	582.27
550.21	586.71
550.57	591.30
550.92	595.76
551.28	600.33
551.64	604.52
551.99	608.73
552.35	613.10
552.70	617.66
553.06	622.16
553.41	626.64
553.77	631.21
554.13	635.80
554.48	640.44
554.84	645.01
555.19	649.17
555.55	653.64
555.90	657.94
556.26	662.42
556.61	666.97
556.97	671.27
557.32	675.88
557.68	680.20
558.03	684.47
558.39	688.69
558.74	693.03
559.10	697.23
559.45	701.54
559.81	705.95
560.16	709.95
560.52	714.25
560.87	718.50
561.23	722.40
561.58	726.57
561.94	730.54
562.29	734.32
562.64	738.24
563.00	742.10
563.35	746.24
563.71	750.23
564.06	754.21
564.42	758.15
564.77	761.85
565.12	765.88
565.48	770.02
565.83	773.87
566.19	777.49
566.54	781.07
566.89	784.79
567.25	788.31
567.60	792.39
567.96	795.92
568.31	799.30
568.66	802.90
569.02	806.11
569.37	809.28
569.72	812.52
570.08	815.83
570.43	818.87
570.78	821.64
571.14	824.43
571.49	826.94
571.84	830.19
572.20	832.95
572.55	835.67
572.90	837.65
573.26	840.24
573.61	842.82
573.96	845.42
574.31	847.52
574.67	849.33
575.02	851.01
575.37	852.89
575.72	854.62
576.08	856.36
576.43	857.93
576.78	859.65
577.13	861.29
577.49	862.94
577.84	864.44
578.19	866.24
578.54	867.33
578.90	868.80
579.25	869.40
579.60	870.38
579.95	871.13
580.30	872.38
580.66	873.07
581.01	873.68
581.36	874.39
581.71	875.41
582.06	876.35
582.42	876.99
582.77	877.50
583.12	877.99
583.47	878.90
583.82	879.62
584.17	880.10
584.53	880.65
584.88	880.45
585.23	880.92
585.58	880.71
585.93	881.27
586.28	881.80
586.63	882.40
586.98	882.70
587.34	883.06
587.69	883.14
588.04	883.24
588.39	883.44
588.74	883.10
589.09	882.59
589.44	882.13
589.79	882.24
590.14	882.30
590.49	882.07
590.84	881.23
591.19	880.93
591.54	880.21
591.89	879.20
592.25	879.25
592.60	878.07
592.95	877.55
593.30	876.55
593.65	875.36
594.00	874.36
594.35	873.76
594.70	872.48
595.05	871.62
595.40	870.55
595.75	869.06
596.10	868.32
596.45	867.44
596.80	866.53
597.15	865.32
597.50	863.89
597.85	862.90
598.19	861.80
598.54	860.80
598.89	859.79
599.24	859.07
599.59	857.67
599.94	857.02
600.29	855.79
600.64	854.35
600.99	852.98
601.34	851.65
601.69	849.90
602.04	848.52
602.39	846.95
602.74	845.58
603.08	844.67
603.43	843.30
603.78	841.88
604.13	840.62
604.48	839.22
604.83	837.78
605.18	836.27
605.53	834.45
605.87	832.30
606.22	830.52
606.57	828.67
606.92	826.92
607.27	825.18
607.62	823.46
607.96	822.05
608.31	820.60
608.66	818.42
609.01	816.32
609.36	814.20
609.70	811.90
610.05	809.55
610.40	807.26
610.75	805.12
611.10	802.62
611.44	799.95
611.79	797.44
612.14	795.28
612.49	792.43
612.83	790.12
613.18	787.50
613.53	785.24
613.88	782.51
614.22	780.00
614.57	777.12
614.92	774.45
615.27	772.03
615.61	769.11
615.96	766.75
616.31	764.35
616.65	762.24
617.00	760.03
617.35	757.76
617.70	755.40
618.04	752.64
618.39	750.33
618.74	747.81
619.08	745.00
619.43	742.30
619.78	740.00
620.12	737.53
620.47	734.99
620.82	732.42
621.16	730.14
621.51	727.78
621.85	725.22
622.20	722.51
622.55	719.77
622.89	717.45
623.24	715.17
623.59	712.62
623.93	710.13
624.28	707.63
624.62	705.40
624.97	702.80
625.32	700.51
625.66	698.39
626.01	696.10
626.35	693.85
626.70	691.24
627.04	688.90
627.39	686.21
627.73	683.70
628.08	681.19
628.43	678.68
628.77	675.84
629.12	673.20
629.46	670.78
629.81	668.20
630.15	665.16
630.50	662.45
630.84	659.73
631.19	656.83
631.53	654.12
631.88	651.11
632.22	647.98
632.57	645.21
632.91	642.16
633.26	639.39
633.60	636.55
633.95	633.82
634.29	631.29
634.64	629.18
634.98	626.73
635.32	624.18
635.67	621.72
636.01	619.40
636.36	617.17
636.70	614.76
637.05	612.42
637.39	610.44
637.73	608.08
638.08	606.02
638.42	603.75
638.77	601.40
639.11	598.88
639.45	596.86
639.80	594.41
640.14	592.08
640.49	589.78
640.83	587.42
641.17	585.20
641.52	582.69
641.86	580.02
642.20	577.76
642.55	575.53
642.89	573.16
643.23	570.73
643.58	568.58
643.92	565.99
644.26	563.47
644.61	561.16
644.95	558.60
645.29	555.85
645.64	553.38
645.98	550.98
646.32	548.77
646.66	546.36
647.01	544.04
647.35	541.65
647.69	539.37
648.04	537.37
648.38	534.91
648.72	532.47
649.06	529.85
649.41	527.61
649.75	524.88
650.09	522.27
650.43	519.80
650.78	517.06
651.12	514.68
651.46	512.49
651.80	509.81
652.14	507.60
652.49	505.38
652.83	503.10
653.17	500.68
653.51	498.36
653.85	496.01
654.20	493.64
654.54	491.15
654.88	488.64
655.22	485.96
655.56	483.46
655.90	481.17
656.25	478.90
656.59	476.60
656.93	474.55
657.27	472.56
657.61	470.33
657.95	468.37
658.29	466.36
658.64	464.15
658.98	462.10
659.32	459.90
659.66	457.79
660.00	455.56
660.34	453.48
660.68	451.36
661.02	449.25
661.36	447.21
661.70	445.34
662.05	443.37
662.39	441.62
662.73	439.90
663.07	438.11
663.41	436.59
663.75	434.77
664.09	432.92
664.43	430.97
664.77	429.20
665.11	427.31
665.45	425.30
665.79	423.41
666.13	421.51
666.47	419.69
666.81	418.04
667.15	416.29
667.49	414.45
667.83	412.90
668.17	411.20
668.51	409.45
668.85	407.87
669.19	406.49
669.53	404.73
669.87	402.93
670.21	401.24
670.55	399.45
670.89	397.88
671.23	396.34
671.57	394.91
671.91	393.41
672.25	391.88
672.58	390.70
672.92	389.29
673.26	388.03
673.60	386.67
673.94	385.17
674.28	383.84
674.62	382.74
674.96	381.24
675.30	380.00
675.64	378.61
675.97	377.30
676.31	375.78
676.65	374.49
676.99	373.39
677.33	372.10
677.67	370.67
678.01	369.20
678.34	367.88
678.68	366.60
679.02	365.28
679.36	363.93
679.70	362.57
680.04	361.20
680.37	359.87
680.71	358.55
681.05	357.33
681.39	356.27
681.73	354.97
682.06	353.80
682.40	352.70
682.74	351.69
683.08	350.53
683.42	349.34
683.75	348.24
684.09	347.04
684.43	345.87
684.77	344.85
685.10	343.83
685.44	342.71
685.78	341.51
686.12	340.32
686.45	339.35
686.79	338.22
687.13	337.24
687.46	336.20
687.80	335.11
688.14	333.92
688.48	332.73
688.81	331.56
689.15	330.59
689.49	329.32
689.82	328.30
690.16	327.12
690.50	326.23
690.83	325.13
691.17	324.14
691.51	323.17
691.84	322.30
692.18	321.18
692.52	320.07
692.85	319.04
693.19	318.21
693.52	317.22
693.86	316.28
694.20	315.31
694.53	314.43
694.87	313.47
695.21	312.62
695.54	311.69
695.88	310.74
696.21	309.76
696.55	309.01
696.88	308.04
697.22	307.31
697.56	306.34
697.89	305.50
698.23	304.56
698.56	303.72
698.90	302.86
699.23	302.07
699.57	301.29
699.90	300.35
700.24	299.52
700.58	298.71
700.91	298.00
701.25	297.36
701.58	296.63
701.92	296.04
702.25	295.33
702.59	294.70
702.92	294.03
703.26	293.37
703.59	292.50
703.93	291.96
704.26	291.13
704.60	290.57
704.93	289.85
705.26	289.29
705.60	288.65
705.93	288.00
706.27	287.52
706.60	287.05
706.94	286.75
707.27	286.15
707.61	285.57
707.94	284.97
708.27	284.26
708.61	283.54
708.94	282.92
709.28	282.39
709.61	281.78
709.94	281.35
710.28	280.72
710.61	280.25
710.95	279.60
711.28	279.24
711.61	278.60
711.95	278.11
712.28	277.47
712.61	276.86
712.95	276.49
713.28	276.00
713.61	275.40
713.95	274.74
714.28	274.24
714.61	273.70
714.95	273.23
715.28	272.69
715.61	272.26
715.95	271.67
716.28	271.08
716.61	270.63
716.95	270.19
717.28	269.75
717.61	269.32
717.94	268.96
718.28	268.38
718.61	268.13
718.94	267.70
719.27	267.40
719.61	267.09
719.94	266.51
720.27	265.93
720.60	265.58
720.94	265.23
721.27	264.84
721.60	264.56
721.93	264.12
722.27	263.83
722.60	263.36
722.93	263.07
723.26	262.76
723.59	262.38
723.93	261.99
724.26	261.67
724.59	261.34
724.92	260.97
725.25	260.70
725.59	260.23
725.92	259.89
726.25	259.60
726.58	259.23
726.91	259.05
727.24	258.82
727.57	258.50
727.91	258.22
728.24	257.90
728.57	257.58
728.90	257.28
729.23	256.93
729.56	256.84
729.89	256.60
730.22	256.25
730.55	255.91
730.89	255.60
731.22	255.26
731.55	254.89
731.88	254.55
732.21	254.22
732.54	253.92
732.87	253.63
733.20	253.22
733.53	253.14
733.86	252.73
734.19	252.46
734.52	252.14
734.85	252.03
735.18	251.73
735.51	251.45
735.84	251.22
736.17	251.05
736.50	250.76
736.83	250.67
737.16	250.40
737.49	250.24
737.82	250.02
738.15	249.86
738.48	249.66
738.81	249.49
739.14	249.29
739.47	249.08
739.80	248.91
740.13	248.82
740.46	248.37
740.79	248.28
741.12	248.06
741.45	247.90
741.78	247.45
742.11	247.33
742.44	247.16
742.77	247.02
743.10	246.77
743.43	246.58
743.75	246.13
744.08	246.32
744.41	246.05
744.74	245.78
745.07	245.59
745.40	245.46
745.73	245.30
746.06	245.12
746.39	245.01
746.71	244.83
747.04	244.59
747.37	244.63
747.70	244.46
748.03	244.36
748.36	244.11
748.68	244.01
749.01	243.71
749.34	243.58
749.67	243.44
750.00	243.30
750.33	243.24
750.65	243.13
750.98	242.76
751.31	242.71
751.64	242.66
751.97	242.57
752.29	242.34
752.62	242.18
752.95	242.01
753.28	241.81
753.60	241.68
753.93	241.66
754.26	241.44
754.59	241.21
754.91	241.00
755.24	240.82
755.57	240.70
755.90	240.70
756.22	240.53
756.55	240.33
756.88	240.20
757.20	239.93
757.53	239.82
757.86	239.65
758.19	239.52
758.51	239.33
758.84	239.27
759.17	239.33
759.49	239.08
759.82	239.06
760.15	238.95
760.47	238.79
760.80	238.59
761.13	238.42
761.45	238.30
761.78	238.20
762.11	238.23
762.43	238.11
762.76	237.93
763.08	237.87
763.41	237.66
763.74	237.52
764.06	237.40
764.39	237.30
764.71	237.02
765.04	236.84
765.37	236.76
765.69	236.56
766.02	236.39
766.34	236.42
766.67	236.25
767.00	236.16
767.32	236.23
767.65	236.17
767.97	236.20
768.30	236.05
768.62	235.96
768.95	235.83
769.27	235.73
769.60	235.70
769.92	235.56
770.25	235.59
770.57	235.48
770.90	235.42
771.22	235.32
771.55	235.36
771.87	235.40
772.20	235.37
772.52	235.53
772.85	235.62
773.17	235.48
773.50	235.38
773.82	235.27
774.15	235.08
774.47	235.04
774.80	234.86
775.12	234.87
775.45	234.85
775.77	234.74
776.09	234.73
776.42	234.58
776.74	234.52
777.07	234.40
777.39	234.31
777.72	234.16
778.04	234.20
778.36	234.07
778.69	233.99
779.01	233.89
779.33	233.52
779.66	233.25
779.98	233.19
780.31	233.16
780.63	233.11
780.95	233.12
781.28	232.97
781.60	232.84
781.92	232.82
782.25	232.76
782.57	232.78
782.89	232.61
783.22	232.55
783.54	232.52
783.86	232.50
784.19	232.55
784.51	232.61
784.83	232.46
785.16	232.48
785.48	232.48
785.80	232.49
786.12	232.50
786.45	232.57
786.77	232.60
787.09	232.60
787.42	232.55
787.74	232.60
788.06	232.50
788.38	232.49
788.71	232.45
789.03	232.46
789.35	232.36
789.67	232.45
789.99	232.61
790.32	232.49
790.64	232.56
790.96	232.62
791.28	232.59
791.61	232.59
791.93	232.65
792.25	232.68
792.57	232.74
792.89	232.70
793.21	232.61
793.54	232.60
793.86	232.51
794.18	232.49
