SpectraSuite Data File
++++++++++++++++++++++++++++++++++++
Date: Fri Feb 01 14:41:31 EST 2013
User: group
Dark Spectrum Present: No
Reference Spectrum Present: No
Number of Sampled Component Spectra: 1
Spectrometers: USB2E7196
Integration Time (usec): 70000 (USB2E7196)
Spectra Averaged: 10 (USB2E7196)
Boxcar Smoothing: 10 (USB2E7196)
Correct for Electrical Dark: No (USB2E7196)
Strobe/Lamp Enabled: No (USB2E7196)
Correct for Detector Non-linearity: No (USB2E7196)
Correct for Stray Light: No (USB2E7196)
Number of Pixels in Processed Spectrum: 2048
>>>>>Begin Processed Spectral Data<<<<<
339.09	0.00
339.48	215.60
339.86	218.00
340.24	220.40
340.63	222.00
341.01	224.00
341.39	222.90
341.78	224.60
342.16	225.90
342.54	227.50
342.93	214.99
343.31	225.84
343.69	226.37
344.07	226.75
344.46	227.08
344.84	227.46
345.22	227.65
345.60	227.91
345.99	228.10
346.37	228.30
346.75	228.30
347.13	228.29
347.52	228.30
347.90	228.27
348.28	228.28
348.66	228.35
349.05	228.29
349.43	228.32
349.81	228.42
350.19	228.51
350.57	228.56
350.96	228.54
351.34	228.60
351.72	228.65
352.10	228.84
352.48	228.92
352.87	228.80
353.25	228.89
353.63	229.00
354.01	229.06
354.39	229.10
354.77	229.19
355.15	229.28
355.54	229.32
355.92	229.32
356.30	229.39
356.68	229.49
357.06	229.61
357.44	229.66
357.82	229.71
358.20	229.73
358.58	229.80
358.97	229.91
359.35	229.99
359.73	230.18
360.11	230.20
360.49	230.34
360.87	230.49
361.25	230.53
361.63	230.58
362.01	230.52
362.39	230.46
362.77	230.53
363.15	230.41
363.53	230.48
363.91	230.67
364.29	230.63
364.67	230.52
365.05	230.55
365.43	230.49
365.81	230.53
366.19	230.59
366.57	230.75
366.95	230.80
367.33	230.76
367.71	230.70
368.09	230.71
368.47	230.63
368.85	230.56
369.23	230.58
369.61	230.50
369.99	230.70
370.37	230.70
370.75	230.76
371.13	230.73
371.51	230.62
371.89	230.41
372.27	230.37
372.65	230.36
373.03	230.32
373.41	230.36
373.78	230.21
374.16	230.13
374.54	229.86
374.92	229.74
375.30	229.74
375.68	229.55
376.06	229.43
376.44	229.36
376.82	229.27
377.19	229.13
377.57	228.97
377.95	228.79
378.33	228.67
378.71	228.50
379.09	228.57
379.47	228.60
379.84	228.54
380.22	228.44
380.60	228.32
380.98	228.13
381.36	227.98
381.73	227.95
382.11	227.98
382.49	227.92
382.87	227.88
383.25	227.67
383.62	227.90
384.00	227.83
384.38	227.90
384.76	227.98
385.13	228.13
385.51	228.09
385.89	227.96
386.27	227.98
386.64	227.92
387.02	227.87
387.40	227.78
387.78	227.76
388.15	227.84
388.53	227.81
388.91	227.75
389.29	227.81
389.66	227.78
390.04	227.71
390.42	227.86
390.79	227.78
391.17	227.85
391.55	227.61
391.92	227.66
392.30	227.65
392.68	227.61
393.05	227.57
393.43	227.67
393.81	227.65
394.18	227.66
394.56	227.70
394.94	227.72
395.31	227.78
395.69	227.94
396.06	227.99
396.44	228.04
396.82	228.17
397.19	228.27
397.57	228.33
397.95	228.41
398.32	228.37
398.70	228.53
399.07	228.67
399.45	228.87
399.82	229.00
400.20	228.93
400.58	229.05
400.95	229.03
401.33	229.16
401.70	229.47
402.08	229.56
402.45	229.68
402.83	229.87
403.20	230.05
403.58	230.12
403.95	230.29
404.33	230.44
404.71	230.50
405.08	230.81
405.46	230.88
405.83	231.02
406.21	231.23
406.58	231.43
406.96	231.64
407.33	231.80
407.70	231.97
408.08	232.43
408.45	232.70
408.83	232.99
409.20	233.30
409.58	233.48
409.95	233.78
410.33	234.09
410.70	234.30
411.08	234.65
411.45	235.06
411.82	235.39
412.20	235.84
412.57	236.52
412.95	236.83
413.32	237.42
413.69	237.99
414.07	238.50
414.44	239.06
414.82	239.60
415.19	240.23
415.56	240.92
415.94	241.54
416.31	242.30
416.68	243.13
417.06	244.01
417.43	244.81
417.81	245.94
418.18	246.93
418.55	248.12
418.93	249.22
419.30	250.35
419.67	251.57
420.04	252.83
420.42	254.13
420.79	255.65
421.16	257.24
421.54	258.85
421.91	260.54
422.28	262.23
422.66	263.94
423.03	265.73
423.40	267.54
423.77	269.37
424.15	271.17
424.52	273.03
424.89	275.09
425.26	277.22
425.64	278.95
426.01	281.08
426.38	283.19
426.75	285.40
427.13	287.73
427.50	290.09
427.87	292.65
428.24	295.03
428.61	297.37
428.99	299.90
429.36	302.73
429.73	305.33
430.10	307.92
430.47	310.63
430.85	313.25
431.22	316.10
431.59	319.14
431.96	322.05
432.33	325.38
432.70	328.44
433.08	332.03
433.45	335.51
433.82	338.77
434.19	342.42
434.56	346.01
434.93	349.30
435.30	352.76
435.68	356.39
436.05	359.99
436.42	363.55
436.79	366.90
437.16	370.14
437.53	373.92
437.90	377.52
438.27	381.20
438.64	384.83
439.01	388.27
439.38	391.18
439.75	393.97
440.13	397.11
440.50	400.10
440.87	402.36
441.24	404.89
441.61	407.76
441.98	409.74
442.35	412.00
442.72	414.50
443.09	416.92
443.46	418.20
443.83	419.04
444.20	419.68
444.57	420.43
444.94	420.95
445.31	421.12
445.68	421.64
446.05	421.67
446.42	421.30
446.79	420.65
447.16	420.01
447.53	419.68
447.90	418.13
448.27	416.61
448.64	414.62
449.01	413.20
449.37	410.63
449.74	408.00
450.11	405.12
450.48	401.81
450.85	398.31
451.22	395.38
451.59	392.69
451.96	390.01
452.33	386.76
452.70	383.50
453.07	379.91
453.43	376.06
453.80	372.37
454.17	368.82
454.54	365.45
454.91	362.01
455.28	358.42
455.65	355.18
456.02	352.09
456.38	349.26
456.75	345.64
457.12	342.61
457.49	339.82
457.86	336.85
458.23	334.43
458.59	331.67
458.96	328.96
459.33	326.42
459.70	323.95
460.07	321.86
460.43	319.60
460.80	317.44
461.17	315.52
461.54	313.51
461.91	311.70
462.27	309.84
462.64	308.14
463.01	306.37
463.38	304.63
463.74	302.71
464.11	301.15
464.48	299.75
464.85	298.29
465.21	297.06
465.58	295.91
465.95	294.47
466.32	293.38
466.68	292.23
467.05	291.02
467.42	289.84
467.78	288.58
468.15	287.34
468.52	286.53
468.88	285.32
469.25	284.23
469.62	283.30
469.98	282.46
470.35	281.53
470.72	280.70
471.08	279.78
471.45	279.18
471.82	278.42
472.18	277.63
472.55	277.06
472.92	276.35
473.28	275.68
473.65	274.90
474.02	274.20
474.38	273.53
474.75	273.13
475.11	272.69
475.48	272.36
475.85	272.07
476.21	271.66
476.58	271.35
476.94	271.02
477.31	270.60
477.67	270.23
478.04	269.92
478.41	269.77
478.77	269.75
479.14	269.38
479.50	269.26
479.87	269.23
480.23	269.21
480.60	269.03
480.96	269.11
481.33	269.35
481.69	269.47
482.06	269.66
482.42	269.76
482.79	269.86
483.15	269.95
483.52	270.25
483.88	270.32
484.25	270.67
484.61	271.08
484.98	271.42
485.34	271.82
485.71	272.26
486.07	272.75
486.44	273.21
486.80	273.97
487.17	274.64
487.53	275.31
487.90	275.98
488.26	276.93
488.62	277.70
488.99	278.47
489.35	279.41
489.72	280.38
490.08	281.46
490.44	282.54
490.81	283.79
491.17	285.00
491.54	286.53
491.90	288.00
492.26	289.57
492.63	291.19
492.99	292.85
493.36	294.63
493.72	296.58
494.08	298.60
494.45	300.78
494.81	303.07
495.17	305.41
495.54	307.90
495.90	310.50
496.26	313.29
496.63	316.28
496.99	319.20
497.35	322.41
497.72	325.83
498.08	329.44
498.44	333.28
498.80	337.23
499.17	341.34
499.53	345.54
499.89	350.02
500.26	354.68
500.62	359.57
500.98	364.79
501.34	370.01
501.71	375.54
502.07	381.08
502.43	386.94
502.79	393.19
503.16	399.68
503.52	406.13
503.88	412.96
504.24	420.03
504.60	427.46
504.97	435.16
505.33	442.91
505.69	451.15
506.05	459.49
506.41	468.00
506.78	476.70
507.14	485.73
507.50	495.08
507.86	504.89
508.22	515.04
508.59	525.06
508.95	535.77
509.31	546.66
509.67	557.92
510.03	569.31
510.39	580.92
510.75	593.12
511.12	605.64
511.48	618.10
511.84	630.79
512.20	643.80
512.56	657.42
512.92	671.21
513.28	685.30
513.64	699.41
514.00	713.90
514.37	728.82
514.73	744.05
515.09	759.37
515.45	774.92
515.81	790.48
516.17	806.86
516.53	823.09
516.89	839.37
517.25	855.85
517.61	872.84
517.97	889.89
518.33	906.70
518.69	924.18
519.05	942.32
519.41	960.53
519.77	979.19
520.13	997.76
520.49	1016.48
520.85	1035.08
521.21	1053.90
521.57	1073.40
521.93	1092.51
522.29	1112.30
522.65	1131.50
523.01	1150.85
523.37	1170.40
523.73	1190.07
524.09	1210.00
524.45	1230.31
524.81	1250.78
525.17	1271.47
525.53	1292.13
525.89	1312.81
526.25	1333.28
526.61	1353.53
526.97	1373.98
527.33	1394.70
527.68	1415.69
528.04	1436.45
528.40	1457.44
528.76	1479.24
529.12	1500.36
529.48	1521.70
529.84	1541.93
530.20	1563.77
530.56	1585.41
530.91	1607.46
531.27	1629.34
531.63	1650.13
531.99	1671.33
532.35	1692.10
532.71	1712.43
533.07	1733.23
533.42	1754.14
533.78	1775.45
534.14	1795.74
534.50	1815.81
534.86	1836.06
535.21	1855.37
535.57	1875.79
535.93	1895.94
536.29	1915.34
536.65	1934.78
537.00	1953.94
537.36	1973.79
537.72	1992.76
538.08	2011.38
538.44	2029.61
538.79	2047.64
539.15	2065.87
539.51	2084.51
539.87	2103.05
540.22	2121.31
540.58	2139.69
540.94	2157.70
541.29	2174.65
541.65	2192.25
542.01	2210.10
542.37	2227.24
542.72	2244.03
543.08	2260.26
543.44	2276.43
543.79	2291.51
544.15	2307.01
544.51	2323.60
544.87	2339.70
545.22	2354.27
545.58	2369.44
545.94	2383.00
546.29	2397.33
546.65	2411.40
547.01	2424.58
547.36	2437.61
547.72	2450.70
548.07	2462.72
548.43	2474.71
548.79	2486.49
549.14	2498.30
549.50	2509.68
549.86	2519.92
550.21	2530.68
550.57	2541.83
550.92	2552.42
551.28	2563.10
551.64	2572.86
551.99	2582.09
552.35	2590.62
552.70	2600.75
553.06	2609.96
553.41	2619.92
553.77	2628.86
554.13	2638.09
554.48	2646.67
554.84	2655.42
555.19	2663.42
555.55	2671.67
555.90	2679.07
556.26	2687.22
556.61	2694.76
556.97	2701.71
557.32	2709.43
557.68	2716.95
558.03	2723.33
558.39	2730.36
558.74	2738.09
559.10	2745.31
559.45	2751.85
559.81	2759.88
560.16	2765.62
560.52	2771.37
560.87	2777.62
561.23	2782.56
561.58	2787.72
561.94	2792.69
562.29	2796.90
562.64	2801.11
563.00	2805.44
563.35	2810.90
563.71	2815.70
564.06	2820.47
564.42	2825.49
564.77	2829.95
565.12	2834.24
565.48	2838.35
565.83	2840.96
566.19	2843.33
566.54	2845.97
566.89	2848.31
567.25	2849.54
567.60	2852.65
567.96	2854.87
568.31	2856.15
568.66	2858.11
569.02	2859.77
569.37	2860.63
569.72	2862.02
570.08	2862.85
570.43	2863.55
570.78	2863.26
571.14	2862.50
571.49	2861.84
571.84	2861.80
572.20	2860.80
572.55	2859.30
572.90	2857.37
573.26	2856.65
573.61	2855.00
573.96	2853.13
574.31	2850.25
574.67	2846.50
575.02	2842.42
575.37	2839.53
575.72	2835.84
576.08	2832.64
576.43	2828.89
576.78	2825.74
577.13	2822.45
577.49	2819.50
577.84	2815.99
578.19	2812.01
578.54	2807.90
578.90	2802.34
579.25	2796.21
579.60	2790.89
579.95	2785.27
580.30	2779.55
580.66	2773.05
581.01	2767.41
581.36	2761.46
581.71	2756.32
582.06	2751.54
582.42	2745.68
582.77	2738.71
583.12	2732.86
583.47	2727.05
583.82	2721.27
584.17	2714.70
584.53	2708.05
584.88	2701.47
585.23	2694.44
585.58	2687.96
585.93	2681.48
586.28	2676.57
586.63	2670.53
586.98	2664.15
587.34	2658.18
587.69	2652.10
588.04	2645.54
588.39	2639.02
588.74	2630.95
589.09	2623.02
589.44	2614.76
589.79	2608.18
590.14	2602.17
590.49	2595.19
590.84	2586.98
591.19	2579.52
591.54	2570.48
591.89	2561.44
592.25	2553.08
592.60	2543.93
592.95	2534.66
593.30	2525.65
593.65	2516.50
594.00	2507.50
594.35	2498.90
594.70	2489.21
595.05	2480.47
595.40	2471.68
595.75	2461.76
596.10	2454.06
596.45	2446.14
596.80	2438.60
597.15	2429.60
597.50	2420.68
597.85	2412.01
598.19	2404.43
598.54	2396.06
598.89	2389.13
599.24	2382.18
599.59	2373.82
599.94	2366.19
600.29	2358.22
600.64	2350.44
600.99	2341.06
601.34	2333.04
601.69	2324.27
602.04	2316.39
602.39	2307.73
602.74	2299.93
603.08	2292.47
603.43	2284.79
603.78	2276.54
604.13	2267.70
604.48	2259.39
604.83	2250.84
605.18	2242.30
605.53	2232.04
605.87	2221.49
606.22	2211.74
606.57	2201.80
606.92	2193.10
607.27	2184.36
607.62	2175.97
607.96	2166.72
608.31	2158.27
608.66	2148.37
609.01	2138.49
609.36	2128.18
609.70	2117.59
610.05	2106.41
610.40	2096.05
610.75	2085.07
611.10	2074.60
611.44	2063.28
611.79	2052.80
612.14	2042.02
612.49	2030.56
612.83	2020.17
613.18	2010.06
613.53	2000.34
613.88	1989.36
614.22	1978.38
614.57	1967.29
614.92	1956.13
615.27	1945.94
615.61	1935.33
615.96	1925.09
616.31	1915.39
616.65	1906.34
617.00	1896.91
617.35	1887.75
617.70	1877.55
618.04	1867.35
618.39	1857.35
618.74	1848.50
619.08	1838.30
619.43	1828.55
619.78	1819.89
620.12	1810.67
620.47	1801.06
620.82	1790.96
621.16	1781.65
621.51	1772.11
621.85	1762.56
622.20	1752.49
622.55	1742.44
622.89	1733.14
623.24	1723.43
623.59	1714.00
623.93	1704.35
624.28	1694.90
624.62	1685.21
624.97	1676.38
625.32	1667.38
625.66	1658.23
626.01	1649.00
626.35	1639.60
626.70	1630.03
627.04	1620.27
627.39	1610.48
627.73	1601.56
628.08	1592.21
628.43	1582.58
628.77	1573.15
629.12	1563.40
629.46	1554.22
629.81	1544.17
630.15	1534.04
630.50	1524.58
630.84	1514.35
631.19	1504.00
631.53	1494.39
631.88	1484.39
632.22	1474.08
632.57	1464.70
632.91	1455.25
633.26	1445.20
633.60	1435.30
633.95	1425.96
634.29	1416.77
634.64	1408.20
634.98	1398.63
635.32	1389.84
635.67	1381.52
636.01	1372.82
636.36	1364.18
636.70	1355.87
637.05	1347.34
637.39	1339.39
637.73	1331.05
638.08	1323.57
638.42	1315.93
638.77	1308.16
639.11	1300.03
639.45	1291.83
639.80	1283.55
640.14	1274.97
640.49	1266.85
640.83	1258.71
641.17	1250.23
641.52	1241.98
641.86	1233.38
642.20	1225.46
642.55	1217.14
642.89	1209.00
643.23	1200.25
643.58	1193.00
643.92	1184.34
644.26	1176.61
644.61	1168.42
644.95	1160.58
645.29	1151.80
645.64	1143.03
645.98	1134.47
646.32	1126.96
646.66	1119.14
647.01	1111.06
647.35	1103.03
647.69	1095.36
648.04	1088.54
648.38	1080.69
648.72	1072.54
649.06	1064.73
649.41	1057.01
649.75	1048.74
650.09	1040.61
650.43	1032.93
650.78	1024.08
651.12	1016.28
651.46	1008.49
651.80	1001.08
652.14	993.54
652.49	986.27
652.83	979.20
653.17	971.73
653.51	963.95
653.85	956.56
654.20	949.06
654.54	941.50
654.88	934.20
655.22	925.99
655.56	918.60
655.90	911.52
656.25	904.63
656.59	897.27
656.93	890.70
657.27	883.91
657.61	876.87
657.95	870.76
658.29	864.27
658.64	857.78
658.98	850.83
659.32	843.73
659.66	837.06
660.00	830.47
660.34	823.89
660.68	817.59
661.02	811.15
661.36	804.98
661.70	799.26
662.05	793.36
662.39	787.70
662.73	781.99
663.07	776.33
663.41	770.46
663.75	764.97
664.09	759.20
664.43	753.42
664.77	748.33
665.11	742.80
665.45	737.50
665.79	731.91
666.13	726.51
666.47	721.22
666.81	715.75
667.15	710.30
667.49	705.36
667.83	700.36
668.17	695.11
668.51	690.12
668.85	685.03
669.19	680.08
669.53	675.13
669.87	670.32
670.21	665.52
670.55	660.61
670.89	655.97
671.23	651.57
671.57	647.28
671.91	642.70
672.25	638.05
672.58	633.73
672.92	629.43
673.26	625.23
673.60	621.21
673.94	617.37
674.28	613.61
674.62	609.53
674.96	605.43
675.30	601.71
675.64	597.82
675.97	594.00
676.31	590.02
676.65	586.53
676.99	582.96
677.33	579.12
677.67	575.39
678.01	571.61
678.34	567.95
678.68	564.23
679.02	560.53
679.36	557.05
679.70	553.45
680.04	549.96
680.37	546.40
680.71	542.87
681.05	539.41
681.39	536.09
681.73	532.83
682.06	529.84
682.40	526.79
682.74	523.48
683.08	520.16
683.42	516.98
683.75	513.57
684.09	510.16
684.43	507.02
684.77	504.00
685.10	500.97
685.44	497.83
685.78	494.75
686.12	491.93
686.45	488.80
686.79	485.67
687.13	482.83
687.46	479.81
687.80	477.04
688.14	473.93
688.48	471.00
688.81	467.90
689.15	464.84
689.49	461.84
689.82	459.03
690.16	456.22
690.50	453.45
690.83	450.84
691.17	448.20
691.51	445.50
691.84	442.95
692.18	440.20
692.52	437.54
692.85	435.07
693.19	432.46
693.52	430.09
693.86	427.67
694.20	425.07
694.53	422.76
694.87	420.08
695.21	417.85
695.54	415.36
695.88	413.03
696.21	410.78
696.55	408.73
696.88	406.53
697.22	404.41
697.56	402.37
697.89	400.23
698.23	398.22
698.56	396.22
698.90	394.03
699.23	391.95
699.57	389.86
699.90	387.85
700.24	385.88
700.58	383.93
700.91	381.95
701.25	380.27
701.58	378.49
701.92	376.81
702.25	375.10
702.59	373.46
702.92	371.86
703.26	370.07
703.59	368.21
703.93	366.68
704.26	365.00
704.60	363.26
704.93	361.64
705.26	360.04
705.60	358.46
705.93	357.13
706.27	355.90
706.60	354.59
706.94	353.10
707.27	351.45
707.61	349.88
707.94	348.61
708.27	346.98
708.61	345.51
708.94	344.21
709.28	342.81
709.61	341.47
709.94	340.09
710.28	338.89
710.61	337.74
710.95	336.25
711.28	335.07
711.61	333.93
711.95	332.70
712.28	331.34
712.61	330.14
712.95	328.88
713.28	327.67
713.61	326.25
713.95	325.11
714.28	324.19
714.61	323.06
714.95	322.00
715.28	320.97
715.61	319.69
715.95	318.65
716.28	317.56
716.61	316.48
716.95	315.48
717.28	314.41
717.61	313.23
717.94	312.26
718.28	311.20
718.61	310.14
718.94	309.21
719.27	308.40
719.61	307.50
719.94	306.62
720.27	305.54
720.60	304.83
720.94	303.99
721.27	303.04
721.60	302.35
721.93	301.47
722.27	300.71
722.60	300.03
722.93	299.17
723.26	298.42
723.59	297.72
723.93	296.98
724.26	296.14
724.59	295.31
724.92	294.51
725.25	293.74
725.59	293.05
725.92	292.11
726.25	291.27
726.58	290.52
726.91	289.72
727.24	289.09
727.57	288.26
727.91	287.48
728.24	286.81
728.57	286.01
728.90	285.29
729.23	284.48
729.56	283.81
729.89	283.12
730.22	282.37
730.55	281.50
730.89	280.76
731.22	280.11
731.55	279.54
731.88	278.88
732.21	278.23
732.54	277.55
732.87	277.00
733.20	276.45
733.53	275.90
733.86	275.39
734.19	274.76
734.52	274.26
734.85	273.84
735.18	273.25
735.51	272.71
735.84	272.22
736.17	271.79
736.50	271.32
736.83	270.98
737.16	270.46
737.49	270.06
737.82	269.56
738.15	269.18
738.48	268.71
738.81	268.41
739.14	267.91
739.47	267.32
739.80	266.96
740.13	266.52
740.46	266.03
740.79	265.58
741.12	265.20
741.45	264.80
741.78	264.25
742.11	263.94
742.44	263.53
742.77	263.17
743.10	262.70
743.43	262.25
743.75	261.67
744.08	261.58
744.41	261.18
744.74	260.89
745.07	260.46
745.40	260.15
745.73	259.75
746.06	259.42
746.39	259.29
746.71	259.01
747.04	258.75
747.37	258.38
747.70	258.12
748.03	257.85
748.36	257.50
748.68	257.28
749.01	256.92
749.34	256.60
749.67	256.31
750.00	256.02
750.33	255.95
750.65	255.72
750.98	255.16
751.31	254.93
751.64	254.68
751.97	254.54
752.29	254.30
752.62	254.02
752.95	253.74
753.28	253.33
753.60	253.11
753.93	252.87
754.26	252.60
754.59	252.29
754.91	251.93
755.24	251.80
755.57	251.50
755.90	251.23
756.22	251.03
756.55	250.64
756.88	250.42
757.20	250.01
757.53	249.68
757.86	249.49
758.19	249.21
758.51	248.94
758.84	248.60
759.17	248.40
759.49	248.21
759.82	248.17
760.15	248.07
760.47	247.78
760.80	247.43
761.13	247.32
761.45	247.11
761.78	246.92
762.11	246.67
762.43	246.45
762.76	246.18
763.08	246.01
763.41	245.91
763.74	245.69
764.06	245.56
764.39	245.50
764.71	245.32
765.04	245.16
765.37	245.10
765.69	244.89
766.02	244.60
766.34	244.40
766.67	244.12
767.00	243.96
767.32	243.82
767.65	243.76
767.97	243.55
768.30	243.27
768.62	243.11
768.95	242.83
769.27	242.63
769.60	242.49
769.92	242.21
770.25	241.95
770.57	241.60
770.90	241.25
771.22	240.94
771.55	240.82
771.87	240.68
772.20	240.32
772.52	240.30
772.85	240.44
773.17	240.20
773.50	240.00
773.82	239.77
774.15	239.46
774.47	239.17
774.80	239.04
775.12	238.93
775.45	238.60
775.77	238.46
776.09	238.32
776.42	238.11
776.74	238.08
777.07	237.93
777.39	237.94
777.72	237.84
778.04	237.75
778.36	237.59
778.69	237.46
779.01	237.36
779.33	237.09
779.66	236.62
779.98	236.49
780.31	236.39
780.63	236.40
780.95	236.33
781.28	236.27
781.60	236.07
781.92	236.01
782.25	236.01
782.57	235.94
782.89	235.75
783.22	235.76
783.54	235.58
783.86	235.64
784.19	235.47
784.51	235.50
784.83	235.37
785.16	235.26
785.48	235.31
785.80	235.29
786.12	235.23
