SpectraSuite Data File
++++++++++++++++++++++++++++++++++++
Date: Fri Feb 01 14:39:44 EST 2013
User: group
Dark Spectrum Present: No
Reference Spectrum Present: No
Number of Sampled Component Spectra: 1
Spectrometers: USB2E7196
Integration Time (usec): 70000 (USB2E7196)
Spectra Averaged: 10 (USB2E7196)
Boxcar Smoothing: 10 (USB2E7196)
Correct for Electrical Dark: No (USB2E7196)
Strobe/Lamp Enabled: No (USB2E7196)
Correct for Detector Non-linearity: No (USB2E7196)
Correct for Stray Light: No (USB2E7196)
Number of Pixels in Processed Spectrum: 2048
>>>>>Begin Processed Spectral Data<<<<<
339.09	0.00
339.48	215.90
339.86	218.40
340.24	217.20
340.63	219.00
341.01	225.30
341.39	224.50
341.78	223.60
342.16	225.50
342.54	227.20
342.93	214.41
343.31	225.22
343.69	225.78
344.07	226.24
344.46	226.76
344.84	227.20
345.22	227.31
345.60	227.50
345.99	227.70
346.37	227.79
346.75	227.76
347.13	227.80
347.52	227.93
347.90	228.11
348.28	228.17
348.66	228.23
349.05	228.24
349.43	228.16
349.81	228.19
350.19	228.10
350.57	228.16
350.96	228.16
351.34	228.27
351.72	228.33
352.10	228.30
352.48	228.45
352.87	228.51
353.25	228.57
353.63	228.63
354.01	228.71
354.39	228.83
354.77	228.98
355.15	229.15
355.54	229.20
355.92	229.22
356.30	229.29
356.68	229.43
357.06	229.59
357.44	229.77
357.82	229.88
358.20	230.05
358.58	230.12
358.97	230.27
359.35	230.38
359.73	230.52
360.11	230.70
360.49	230.67
360.87	230.68
361.25	230.76
361.63	230.86
362.01	230.94
362.39	230.97
362.77	231.04
363.15	231.05
363.53	230.98
363.91	230.99
364.29	230.97
364.67	230.80
365.05	230.70
365.43	230.75
365.81	230.64
366.19	230.62
366.57	230.70
366.95	230.63
367.33	230.62
367.71	230.62
368.09	230.65
368.47	230.67
368.85	230.66
369.23	230.62
369.61	230.52
369.99	230.49
370.37	230.47
370.75	230.52
371.13	230.34
371.51	230.36
371.89	230.26
372.27	230.29
372.65	230.24
373.03	230.26
373.41	230.11
373.78	230.06
374.16	229.88
374.54	229.75
374.92	229.69
375.30	229.55
375.68	229.27
376.06	229.15
376.44	229.01
376.82	228.97
377.19	228.90
377.57	228.80
377.95	228.68
378.33	228.56
378.71	228.28
379.09	228.26
379.47	228.22
379.84	228.15
380.22	228.10
380.60	228.00
380.98	227.79
381.36	227.76
381.73	227.69
382.11	227.75
382.49	227.65
382.87	227.47
383.25	227.32
383.62	227.50
384.00	227.34
384.38	227.19
384.76	227.16
385.13	227.27
385.51	227.15
385.89	227.02
386.27	226.95
386.64	226.95
387.02	226.89
387.40	226.76
387.78	226.78
388.15	226.74
388.53	226.64
388.91	226.75
389.29	226.64
389.66	226.59
390.04	226.52
390.42	226.53
390.79	226.56
391.17	226.56
391.55	226.46
391.92	226.46
392.30	226.57
392.68	226.39
393.05	226.26
393.43	226.29
393.81	226.28
394.18	226.36
394.56	226.47
394.94	226.59
395.31	226.61
395.69	226.66
396.06	226.67
396.44	226.85
396.82	226.91
397.19	227.08
397.57	227.13
397.95	227.15
398.32	227.15
398.70	227.30
399.07	227.44
399.45	227.42
399.82	227.65
400.20	227.70
400.58	227.91
400.95	227.92
401.33	228.06
401.70	228.36
402.08	228.39
402.45	228.44
402.83	228.56
403.20	228.72
403.58	228.83
403.95	228.95
404.33	229.11
404.71	229.20
405.08	229.43
405.46	229.60
405.83	229.82
406.21	230.08
406.58	230.30
406.96	230.47
407.33	230.77
407.70	230.90
408.08	231.26
408.45	231.56
408.83	231.89
409.20	232.12
409.58	232.30
409.95	232.69
410.33	233.03
410.70	233.27
411.08	233.57
411.45	233.93
411.82	234.22
412.20	234.52
412.57	235.00
412.95	235.32
413.32	235.77
413.69	236.23
414.07	236.62
414.44	237.03
414.82	237.52
415.19	238.00
415.56	238.51
415.94	238.89
416.31	239.52
416.68	240.17
417.06	241.00
417.43	241.64
417.81	242.41
418.18	242.99
418.55	243.85
418.93	244.77
419.30	245.57
419.67	246.55
420.04	247.53
420.42	248.48
420.79	249.67
421.16	250.86
421.54	251.99
421.91	253.17
422.28	254.36
422.66	255.81
423.03	257.20
423.40	258.54
423.77	260.10
424.15	261.50
424.52	262.93
424.89	264.47
425.26	266.07
425.64	267.42
426.01	269.09
426.38	270.75
426.75	272.44
427.13	274.22
427.50	276.07
427.87	277.95
428.24	279.63
428.61	281.22
428.99	283.32
429.36	285.34
429.73	287.46
430.10	289.60
430.47	291.63
430.85	293.84
431.22	296.11
431.59	298.49
431.96	300.81
432.33	303.43
432.70	305.89
433.08	308.77
433.45	311.50
433.82	314.22
434.19	317.30
434.56	320.24
434.93	323.04
435.30	325.82
435.68	328.96
436.05	332.27
436.42	335.39
436.79	338.07
437.16	341.10
437.53	344.23
437.90	347.30
438.27	350.25
438.64	353.10
439.01	356.16
439.38	358.69
439.75	361.00
440.13	363.88
440.50	366.45
440.87	368.59
441.24	370.84
441.61	373.32
441.98	374.98
442.35	377.18
442.72	379.39
443.09	381.49
443.46	382.75
443.83	383.50
444.20	384.22
444.57	385.14
444.94	385.57
445.31	386.04
445.68	386.49
446.05	386.67
446.42	386.51
446.79	386.13
447.16	385.75
447.53	385.69
447.90	384.52
448.27	383.54
448.64	382.14
449.01	381.26
449.37	379.37
449.74	377.57
450.11	375.36
450.48	372.73
450.85	370.09
451.22	367.79
451.59	365.57
451.96	363.65
452.33	361.02
452.70	358.72
453.07	355.83
453.43	352.95
453.80	350.18
454.17	347.51
454.54	344.81
454.91	342.00
455.28	339.18
455.65	336.47
456.02	333.99
456.38	331.48
456.75	328.50
457.12	326.03
457.49	323.61
457.86	321.03
458.23	319.14
458.59	316.94
458.96	314.71
459.33	312.80
459.70	310.72
460.07	309.07
460.43	307.16
460.80	305.36
461.17	303.75
461.54	302.15
461.91	300.46
462.27	298.73
462.64	297.23
463.01	295.66
463.38	294.27
463.74	292.60
464.11	291.34
464.48	290.19
464.85	289.04
465.21	288.08
465.58	286.98
465.95	285.68
466.32	284.67
466.68	283.55
467.05	282.47
467.42	281.39
467.78	280.34
468.15	279.31
468.52	278.56
468.88	277.45
469.25	276.34
469.62	275.62
469.98	274.86
470.35	274.19
470.72	273.44
471.08	272.58
471.45	271.88
471.82	271.19
472.18	270.35
472.55	269.67
472.92	268.85
473.28	268.31
473.65	267.68
474.02	266.98
474.38	266.60
474.75	266.09
475.11	265.50
475.48	265.01
475.85	264.49
476.21	264.00
476.58	263.70
476.94	263.39
477.31	263.01
477.67	262.64
478.04	262.21
478.41	261.83
478.77	261.72
479.14	261.37
479.50	261.12
479.87	260.85
480.23	260.69
480.60	260.51
480.96	260.25
481.33	260.07
481.69	259.84
482.06	259.55
482.42	259.47
482.79	259.37
483.15	259.30
483.52	259.37
483.88	259.24
484.25	259.05
484.61	259.05
484.98	258.90
485.34	259.00
485.71	259.11
486.07	259.13
486.44	258.97
486.80	259.03
487.17	259.06
487.53	259.33
487.90	259.31
488.26	259.37
488.62	259.57
488.99	259.66
489.35	259.91
489.72	260.01
490.08	260.10
490.44	260.29
490.81	260.49
491.17	260.64
491.54	260.84
491.90	261.20
492.26	261.39
492.63	261.62
492.99	261.88
493.36	262.18
493.72	262.54
494.08	262.95
494.45	263.24
494.81	263.62
495.17	263.85
495.54	264.34
495.90	264.78
496.26	265.31
496.63	265.88
496.99	266.42
497.35	267.06
497.72	267.63
498.08	268.27
498.44	268.82
498.80	269.48
499.17	270.11
499.53	270.73
499.89	271.53
500.26	272.47
500.62	273.24
500.98	274.18
501.34	275.20
501.71	276.16
502.07	277.10
502.43	278.12
502.79	279.29
503.16	280.34
503.52	281.68
503.88	282.82
504.24	284.01
504.60	285.30
504.97	286.73
505.33	288.20
505.69	289.85
506.05	291.47
506.41	293.09
506.78	294.85
507.14	296.72
507.50	298.71
507.86	300.57
508.22	302.69
508.59	304.58
508.95	306.77
509.31	309.16
509.67	311.59
510.03	313.98
510.39	316.59
510.75	319.40
511.12	321.95
511.48	324.70
511.84	327.70
512.20	330.61
512.56	333.58
512.92	336.86
513.28	339.99
513.64	343.43
514.00	346.91
514.37	350.57
514.73	354.28
515.09	357.95
515.45	361.96
515.81	365.85
516.17	370.11
516.53	374.31
516.89	378.59
517.25	383.10
517.61	387.82
517.97	392.41
518.33	396.89
518.69	401.81
519.05	406.84
519.41	411.95
519.77	417.35
520.13	422.73
520.49	428.15
520.85	433.69
521.21	439.34
521.57	445.18
521.93	450.71
522.29	456.58
522.65	462.29
523.01	468.23
523.37	474.43
523.73	480.49
524.09	486.71
524.45	492.93
524.81	499.32
525.17	505.93
525.53	512.68
525.89	519.73
526.25	526.88
526.61	533.80
526.97	540.64
527.33	547.76
527.68	555.25
528.04	562.34
528.40	569.82
528.76	577.36
529.12	585.00
529.48	592.98
529.84	600.63
530.20	608.84
530.56	616.87
530.91	625.06
531.27	633.44
531.63	641.75
531.99	650.05
532.35	658.45
532.71	666.71
533.07	675.22
533.42	683.70
533.78	692.03
534.14	700.67
534.50	709.41
534.86	718.35
535.21	726.61
535.57	735.71
535.93	744.44
536.29	753.26
536.65	762.11
537.00	770.87
537.36	779.82
537.72	788.67
538.08	797.40
538.44	805.99
538.79	814.95
539.15	823.55
539.51	832.53
539.87	841.55
540.22	850.43
540.58	859.38
540.94	868.32
541.29	877.16
541.65	885.83
542.01	894.94
542.37	903.52
542.72	912.41
543.08	920.89
543.44	929.73
543.79	937.95
544.15	946.47
544.51	955.30
544.87	963.96
545.22	972.28
545.58	980.75
545.94	988.97
546.29	996.89
546.65	1005.31
547.01	1013.09
547.36	1020.90
547.72	1028.71
548.07	1036.37
548.43	1043.80
548.79	1051.40
549.14	1059.12
549.50	1066.10
549.86	1073.30
550.21	1080.50
550.57	1088.00
550.92	1095.18
551.28	1102.28
551.64	1109.11
551.99	1116.25
552.35	1122.74
552.70	1129.63
553.06	1136.71
553.41	1143.64
553.77	1150.63
554.13	1157.03
554.48	1163.97
554.84	1170.71
555.19	1177.31
555.55	1183.98
555.90	1190.23
556.26	1196.61
556.61	1202.60
556.97	1208.97
557.32	1214.98
557.68	1220.91
558.03	1226.59
558.39	1232.21
558.74	1238.36
559.10	1244.16
559.45	1249.52
559.81	1255.80
560.16	1261.04
560.52	1266.08
560.87	1272.08
561.23	1277.27
561.58	1282.67
561.94	1287.76
562.29	1292.35
562.64	1296.88
563.00	1301.01
563.35	1306.03
563.71	1310.95
564.06	1316.05
564.42	1320.47
564.77	1325.13
565.12	1329.64
565.48	1334.29
565.83	1338.37
566.19	1342.43
566.54	1346.57
566.89	1350.38
567.25	1354.27
567.60	1358.52
567.96	1362.45
568.31	1365.54
568.66	1368.73
569.02	1372.10
569.37	1374.78
569.72	1377.69
570.08	1380.80
570.43	1384.30
570.78	1387.01
571.14	1388.87
571.49	1391.03
571.84	1394.07
572.20	1396.22
572.55	1398.24
572.90	1399.55
573.26	1401.58
573.61	1403.33
573.96	1404.71
574.31	1405.80
574.67	1406.07
575.02	1406.80
575.37	1407.59
575.72	1408.02
576.08	1409.00
576.43	1409.32
576.78	1410.44
577.13	1411.36
577.49	1411.97
577.84	1411.94
578.19	1411.90
578.54	1412.41
578.90	1412.02
579.25	1411.15
579.60	1410.81
579.95	1410.30
580.30	1409.67
580.66	1408.87
581.01	1407.83
581.36	1407.06
581.71	1406.82
582.06	1406.31
582.42	1405.26
582.77	1404.28
583.12	1403.53
583.47	1402.60
583.82	1402.00
584.17	1400.43
584.53	1399.40
584.88	1398.15
585.23	1396.58
585.58	1395.28
585.93	1393.78
586.28	1392.94
586.63	1391.73
586.98	1390.33
587.34	1388.93
587.69	1387.70
588.04	1386.27
588.39	1384.72
588.74	1382.55
589.09	1380.49
589.44	1378.07
589.79	1376.50
590.14	1374.33
590.49	1371.84
590.84	1369.48
591.19	1366.80
591.54	1364.29
591.89	1360.77
592.25	1358.16
592.60	1355.16
592.95	1352.05
593.30	1348.92
593.65	1345.97
594.00	1342.61
594.35	1340.08
594.70	1336.82
595.05	1333.84
595.40	1330.56
595.75	1327.20
596.10	1324.35
596.45	1321.22
596.80	1318.83
597.15	1315.79
597.50	1312.70
597.85	1309.90
598.19	1306.89
598.54	1304.05
598.89	1301.52
599.24	1299.52
599.59	1296.47
599.94	1293.99
600.29	1291.15
600.64	1288.04
600.99	1283.98
601.34	1281.01
601.69	1276.96
602.04	1274.19
602.39	1270.79
602.74	1268.12
603.08	1265.55
603.43	1262.50
603.78	1259.08
604.13	1255.73
604.48	1252.26
604.83	1249.20
605.18	1245.95
605.53	1241.82
605.87	1237.60
606.22	1233.70
606.57	1229.29
606.92	1225.47
607.27	1221.91
607.62	1218.38
607.96	1214.90
608.31	1211.70
608.66	1207.38
609.01	1203.25
609.36	1198.78
609.70	1194.20
610.05	1189.37
610.40	1184.76
610.75	1180.01
611.10	1175.52
611.44	1170.38
611.79	1166.02
612.14	1161.33
612.49	1156.01
612.83	1151.37
613.18	1146.93
613.53	1142.26
613.88	1137.33
614.22	1132.67
614.57	1127.43
614.92	1122.45
615.27	1117.82
615.61	1112.90
615.96	1108.54
616.31	1104.32
616.65	1100.19
617.00	1096.13
617.35	1091.67
617.70	1087.00
618.04	1082.40
618.39	1077.84
618.74	1073.68
619.08	1068.38
619.43	1063.89
619.78	1060.12
620.12	1055.88
620.47	1051.09
620.82	1046.29
621.16	1042.22
621.51	1037.56
621.85	1033.15
622.20	1028.42
622.55	1023.84
622.89	1019.42
623.24	1015.21
623.59	1010.77
623.93	1006.23
624.28	1001.54
624.62	996.74
624.97	992.30
625.32	988.13
625.66	983.73
626.01	979.20
626.35	975.14
626.70	970.40
627.04	965.33
627.39	960.54
627.73	956.48
628.08	951.90
628.43	947.31
628.77	942.89
629.12	938.05
629.46	933.74
629.81	928.66
630.15	923.69
630.50	918.56
630.84	913.49
631.19	908.44
631.53	903.78
631.88	899.06
632.22	894.05
632.57	889.43
632.91	884.61
633.26	879.73
633.60	874.79
633.95	870.15
634.29	865.80
634.64	861.54
634.98	856.90
635.32	852.61
635.67	848.44
636.01	844.19
636.36	840.09
636.70	836.01
637.05	832.03
637.39	828.04
637.73	824.03
638.08	820.43
638.42	816.43
638.77	812.49
639.11	808.30
639.45	804.35
639.80	800.02
640.14	796.16
640.49	792.05
640.83	788.08
641.17	784.03
641.52	779.67
641.86	775.33
642.20	771.24
642.55	767.21
642.89	763.00
643.23	758.67
643.58	754.80
643.92	750.32
644.26	746.31
644.61	742.50
644.95	738.55
645.29	733.80
645.64	729.50
645.98	725.24
646.32	721.47
646.66	717.35
647.01	713.25
647.35	709.11
647.69	705.20
648.04	701.46
648.38	697.36
648.72	693.33
649.06	689.39
649.41	685.38
649.75	681.06
650.09	676.83
650.43	672.96
650.78	668.61
651.12	664.41
651.46	660.45
651.80	656.51
652.14	652.63
652.49	649.30
652.83	645.54
653.17	641.66
653.51	637.64
653.85	633.81
654.20	630.12
654.54	626.17
654.88	622.48
655.22	618.41
655.56	614.52
655.90	611.04
656.25	607.52
656.59	603.74
656.93	600.42
657.27	596.93
657.61	592.82
657.95	589.73
658.29	586.47
658.64	582.93
658.98	579.47
659.32	575.91
659.66	572.30
660.00	568.99
660.34	565.63
660.68	562.43
661.02	559.16
661.36	556.13
661.70	553.03
662.05	549.92
662.39	547.00
662.73	544.06
663.07	541.09
663.41	538.02
663.75	535.28
664.09	532.38
664.43	529.52
664.77	526.91
665.11	523.96
665.45	521.23
665.79	518.34
666.13	515.46
666.47	512.54
666.81	509.60
667.15	506.74
667.49	503.98
667.83	501.14
668.17	498.39
668.51	495.48
668.85	492.95
669.19	490.40
669.53	487.73
669.87	485.19
670.21	482.58
670.55	480.06
670.89	477.78
671.23	475.30
671.57	472.91
671.91	470.58
672.25	467.99
672.58	465.62
672.92	463.40
673.26	461.20
673.60	459.02
673.94	457.00
674.28	454.89
674.62	452.84
674.96	450.81
675.30	448.80
675.64	446.69
675.97	444.41
676.31	442.36
676.65	440.31
676.99	438.34
677.33	436.22
677.67	434.01
678.01	431.66
678.34	429.53
678.68	427.54
679.02	425.48
679.36	423.71
679.70	421.76
680.04	419.79
680.37	417.76
680.71	415.82
681.05	413.92
681.39	411.94
681.73	410.03
682.06	408.25
682.40	406.40
682.74	404.61
683.08	402.86
683.42	401.10
683.75	399.25
684.09	397.33
684.43	395.51
684.77	393.82
685.10	392.14
685.44	390.47
685.78	388.87
686.12	387.24
686.45	385.33
686.79	383.58
687.13	381.89
687.46	380.20
687.80	378.65
688.14	377.00
688.48	375.43
688.81	373.80
689.15	372.13
689.49	370.51
689.82	368.84
690.16	367.35
690.50	365.67
690.83	364.38
691.17	362.88
691.51	361.48
691.84	360.23
692.18	358.77
692.52	357.22
692.85	355.69
693.19	354.46
693.52	353.10
693.86	351.69
694.20	350.29
694.53	348.96
694.87	347.53
695.21	346.06
695.54	344.60
695.88	343.31
696.21	342.00
696.55	340.82
696.88	339.69
697.22	338.34
697.56	337.18
697.89	335.88
698.23	334.58
698.56	333.22
698.90	331.86
699.23	330.50
699.57	329.31
699.90	328.01
700.24	326.62
700.58	325.38
700.91	324.17
701.25	323.18
701.58	322.03
701.92	320.99
702.25	320.11
702.59	319.12
702.92	318.07
703.26	317.05
703.59	316.04
703.93	315.23
704.26	314.23
704.60	313.22
704.93	312.17
705.26	311.32
705.60	310.49
705.93	309.60
706.27	308.97
706.60	308.17
706.94	307.35
707.27	306.50
707.61	305.78
707.94	305.06
708.27	304.03
708.61	303.24
708.94	302.39
709.28	301.42
709.61	300.60
709.94	299.88
710.28	299.06
710.61	298.30
710.95	297.27
711.28	296.56
711.61	295.79
711.95	295.03
712.28	294.19
712.61	293.51
712.95	292.86
713.28	291.99
713.61	291.15
713.95	290.42
714.28	289.71
714.61	288.99
714.95	288.26
715.28	287.56
715.61	286.77
715.95	286.06
716.28	285.42
716.61	284.80
716.95	284.14
717.28	283.53
717.61	282.74
717.94	282.12
718.28	281.50
718.61	280.99
718.94	280.49
719.27	279.96
719.61	279.40
719.94	278.82
720.27	278.23
720.60	277.75
720.94	277.21
721.27	276.63
721.60	276.18
721.93	275.64
722.27	275.30
722.60	274.82
722.93	274.25
723.26	273.74
723.59	273.38
723.93	272.80
724.26	272.31
724.59	271.92
724.92	271.48
725.25	270.90
725.59	270.29
725.92	269.82
726.25	269.38
726.58	268.84
726.91	268.29
727.24	267.85
727.57	267.42
727.91	266.96
728.24	266.60
728.57	266.06
728.90	265.66
729.23	265.23
729.56	264.96
729.89	264.59
730.22	264.20
730.55	263.69
730.89	263.33
731.22	263.00
731.55	262.60
731.88	262.23
732.21	261.93
732.54	261.64
732.87	261.16
733.20	260.70
733.53	260.42
733.86	260.14
734.19	259.73
734.52	259.41
734.85	259.17
735.18	258.79
735.51	258.54
735.84	258.27
736.17	257.83
736.50	257.31
736.83	257.20
737.16	256.85
737.49	256.55
737.82	256.22
738.15	255.79
738.48	255.46
738.81	255.11
739.14	254.84
739.47	254.46
739.80	254.14
740.13	253.90
740.46	253.53
740.79	253.15
741.12	252.92
741.45	252.60
741.78	252.33
742.11	252.09
742.44	251.79
742.77	251.50
743.10	251.29
743.43	251.01
743.75	250.56
744.08	250.53
744.41	250.20
744.74	250.06
745.07	249.88
745.40	249.62
745.73	249.53
746.06	249.26
746.39	249.09
746.71	248.87
747.04	248.70
747.37	248.50
747.70	248.39
748.03	248.27
748.36	248.05
748.68	247.82
749.01	247.58
749.34	247.30
749.67	247.12
750.00	246.90
750.33	247.00
750.65	246.80
750.98	246.44
751.31	246.37
751.64	246.07
751.97	246.08
752.29	245.91
752.62	245.57
752.95	245.42
753.28	245.33
753.60	245.12
753.93	244.99
754.26	244.85
754.59	244.60
754.91	244.30
755.24	244.15
755.57	243.99
755.90	243.86
756.22	243.76
756.55	243.58
756.88	243.42
757.20	243.07
757.53	242.93
757.86	242.79
758.19	242.57
758.51	242.48
758.84	242.23
759.17	242.14
759.49	242.04
759.82	241.97
760.15	241.71
760.47	241.69
760.80	241.50
761.13	241.33
761.45	241.28
761.78	241.10
762.11	240.99
762.43	240.82
762.76	240.72
763.08	240.56
763.41	240.49
763.74	240.37
764.06	240.19
764.39	240.12
764.71	240.03
765.04	239.98
765.37	239.77
765.69	239.60
766.02	239.43
766.34	239.28
766.67	239.09
767.00	239.11
767.32	238.98
767.65	238.88
767.97	238.73
768.30	238.47
768.62	238.40
768.95	238.31
769.27	238.20
769.60	238.00
769.92	237.80
770.25	237.64
770.57	237.41
770.90	237.39
771.22	237.13
771.55	237.04
771.87	236.80
772.20	236.84
772.52	236.90
772.85	237.05
773.17	236.94
773.50	236.83
773.82	236.63
774.15	236.47
774.47	236.21
774.80	236.13
775.12	236.14
775.45	236.04
775.77	235.85
776.09	235.68
776.42	235.72
776.74	235.78
777.07	235.57
777.39	235.55
777.72	235.30
778.04	235.30
778.36	235.07
778.69	235.10
779.01	234.98
779.33	234.65
779.66	234.29
779.98	234.16
780.31	234.07
780.63	234.17
780.95	234.13
781.28	234.13
781.60	234.02
781.92	233.91
782.25	233.83
782.57	233.84
782.89	233.79
783.22	233.64
783.54	233.59
783.86	233.64
784.19	233.54
784.51	233.63
784.83	233.55
785.16	233.47
785.48	233.40
785.80	233.46
786.12	233.52
786.45	233.55
786.77	233.61
787.09	233.62
787.42	233.38
787.74	233.39
788.06	233.38
788.38	233.34
788.71	233.37
789.03	233.43
789.35	233.32
789.67	233.34
