SpectraSuite Data File
++++++++++++++++++++++++++++++++++++
Date: Fri Feb 01 14:42:12 EST 2013
User: group
Dark Spectrum Present: No
Reference Spectrum Present: No
Number of Sampled Component Spectra: 1
Spectrometers: USB2E7196
Integration Time (usec): 70000 (USB2E7196)
Spectra Averaged: 10 (USB2E7196)
Boxcar Smoothing: 10 (USB2E7196)
Correct for Electrical Dark: No (USB2E7196)
Strobe/Lamp Enabled: No (USB2E7196)
Correct for Detector Non-linearity: No (USB2E7196)
Correct for Stray Light: No (USB2E7196)
Number of Pixels in Processed Spectrum: 2048
>>>>>Begin Processed Spectral Data<<<<<
339.09	0.00
339.48	215.60
339.86	216.70
340.24	218.90
340.63	219.50
341.01	223.40
341.39	222.90
341.78	224.90
342.16	225.00
342.54	226.50
342.93	214.71
343.31	225.59
343.69	226.23
344.07	226.73
344.46	227.22
344.84	227.72
345.22	228.01
345.60	228.26
345.99	228.56
346.37	228.74
346.75	228.87
347.13	228.98
347.52	229.11
347.90	229.30
348.28	229.33
348.66	229.40
349.05	229.38
349.43	229.43
349.81	229.60
350.19	229.78
350.57	229.79
350.96	229.83
351.34	229.90
351.72	229.85
352.10	230.00
352.48	229.99
352.87	229.93
353.25	229.96
353.63	230.07
354.01	230.02
354.39	230.22
354.77	230.29
355.15	230.34
355.54	230.30
355.92	230.18
356.30	230.25
356.68	230.46
357.06	230.51
357.44	230.55
357.82	230.59
358.20	230.59
358.58	230.65
358.97	230.83
359.35	230.97
359.73	231.16
360.11	231.16
360.49	231.31
360.87	231.46
361.25	231.59
361.63	231.70
362.01	231.73
362.39	231.61
362.77	231.67
363.15	231.79
363.53	231.88
363.91	231.95
364.29	232.01
364.67	231.80
365.05	231.80
365.43	231.83
365.81	231.80
366.19	231.82
366.57	231.90
366.95	231.84
367.33	231.72
367.71	231.75
368.09	231.80
368.47	231.71
368.85	231.70
369.23	231.63
369.61	231.49
369.99	231.67
370.37	231.75
370.75	231.79
371.13	231.68
371.51	231.55
371.89	231.50
372.27	231.48
372.65	231.49
373.03	231.43
373.41	231.38
373.78	231.35
374.16	231.24
374.54	231.04
374.92	230.98
375.30	230.88
375.68	230.76
376.06	230.74
376.44	230.76
376.82	230.63
377.19	230.51
377.57	230.41
377.95	230.10
378.33	229.91
378.71	229.68
379.09	229.66
379.47	229.61
379.84	229.53
380.22	229.38
380.60	229.20
380.98	229.00
381.36	228.90
381.73	228.87
382.11	228.83
382.49	228.81
382.87	228.67
383.25	228.67
383.62	228.80
384.00	228.63
384.38	228.53
384.76	228.55
385.13	228.51
385.51	228.47
385.89	228.48
386.27	228.44
386.64	228.44
387.02	228.24
387.40	228.16
387.78	228.15
388.15	228.00
388.53	228.03
388.91	228.15
389.29	228.06
389.66	227.93
390.04	227.90
390.42	227.95
390.79	227.96
391.17	227.97
391.55	227.78
391.92	227.83
392.30	227.77
392.68	227.73
393.05	227.87
393.43	227.97
393.81	227.93
394.18	227.91
394.56	227.98
394.94	228.21
395.31	228.22
395.69	228.30
396.06	228.58
396.44	228.67
396.82	228.76
397.19	228.97
397.57	229.05
397.95	229.09
398.32	229.06
398.70	229.14
399.07	229.24
399.45	229.22
399.82	229.22
400.20	229.41
400.58	229.54
400.95	229.53
401.33	229.60
401.70	229.88
402.08	230.12
402.45	230.19
402.83	230.32
403.20	230.55
403.58	230.68
403.95	230.75
404.33	230.90
404.71	231.06
405.08	231.40
405.46	231.60
405.83	231.80
406.21	232.02
406.58	232.38
406.96	232.65
407.33	233.04
407.70	233.44
408.08	233.86
408.45	234.10
408.83	234.58
409.20	234.87
409.58	235.16
409.95	235.51
410.33	236.02
410.70	236.43
411.08	236.91
411.45	237.31
411.82	237.87
412.20	238.48
412.57	239.11
412.95	239.51
413.32	240.17
413.69	240.99
414.07	241.76
414.44	242.53
414.82	243.23
415.19	244.08
415.56	244.95
415.94	245.84
416.31	246.92
416.68	247.93
417.06	249.21
417.43	250.40
417.81	251.68
418.18	252.90
418.55	254.21
418.93	255.69
419.30	257.27
419.67	258.78
420.04	260.34
420.42	262.04
420.79	263.97
421.16	265.86
421.54	267.80
421.91	269.76
422.28	271.80
422.66	274.16
423.03	276.32
423.40	278.54
423.77	280.82
424.15	283.17
424.52	285.58
424.89	288.30
425.26	290.69
425.64	293.11
426.01	295.74
426.38	298.47
426.75	301.17
427.13	304.07
427.50	307.10
427.87	310.08
428.24	313.04
428.61	315.83
428.99	318.94
429.36	322.33
429.73	325.70
430.10	328.94
430.47	332.14
430.85	335.64
431.22	339.34
431.59	343.23
431.96	347.02
432.33	351.04
432.70	354.97
433.08	359.62
433.45	363.87
433.82	368.18
434.19	372.98
434.56	377.64
434.93	381.91
435.30	386.17
435.68	390.79
436.05	395.40
436.42	400.07
436.79	404.28
437.16	408.84
437.53	413.53
437.90	418.20
438.27	422.90
438.64	427.57
439.01	431.74
439.38	435.48
439.75	439.03
440.13	443.12
440.50	446.87
440.87	449.79
441.24	452.93
441.61	456.40
441.98	458.88
442.35	461.72
442.72	464.69
443.09	467.64
443.46	469.36
443.83	470.40
444.20	471.18
444.57	472.64
444.94	472.99
445.31	473.60
445.68	474.12
446.05	473.91
446.42	473.15
446.79	472.43
447.16	471.44
447.53	470.63
447.90	468.77
448.27	466.79
448.64	464.21
449.01	462.38
449.37	459.07
449.74	455.86
450.11	452.15
450.48	448.16
450.85	443.90
451.22	440.25
451.59	436.80
451.96	433.67
452.33	429.17
452.70	425.20
453.07	420.50
453.43	415.73
453.80	411.31
454.17	407.03
454.54	402.85
454.91	398.50
455.28	394.23
455.65	390.02
456.02	385.95
456.38	382.53
456.75	378.08
457.12	374.52
457.49	370.87
457.86	367.43
458.23	364.38
458.59	360.98
458.96	357.70
459.33	354.74
459.70	351.55
460.07	349.10
460.43	346.27
460.80	343.52
461.17	341.11
461.54	338.61
461.91	336.17
462.27	333.74
462.64	331.67
463.01	329.41
463.38	327.29
463.74	325.15
464.11	323.15
464.48	321.49
464.85	319.52
465.21	318.05
465.58	316.35
465.95	314.46
466.32	313.02
466.68	311.49
467.05	309.94
467.42	308.40
467.78	306.95
468.15	305.49
468.52	304.35
468.88	302.90
469.25	301.68
469.62	300.70
469.98	299.68
470.35	298.65
470.72	297.68
471.08	296.63
471.45	295.62
471.82	294.71
472.18	293.75
472.55	292.99
472.92	292.07
473.28	291.42
473.65	290.59
474.02	289.90
474.38	289.22
474.75	288.58
475.11	288.17
475.48	287.63
475.85	287.29
476.21	286.81
476.58	286.55
476.94	286.23
477.31	285.82
477.67	285.39
478.04	285.22
478.41	285.12
478.77	285.04
479.14	284.92
479.50	284.84
479.87	284.75
480.23	284.82
480.60	284.90
480.96	284.80
481.33	285.08
481.69	285.18
482.06	285.41
482.42	285.66
482.79	285.78
483.15	286.20
483.52	286.57
483.88	286.94
484.25	287.38
484.61	287.95
484.98	288.43
485.34	289.27
485.71	289.92
486.07	290.60
486.44	291.40
486.80	292.31
487.17	293.24
487.53	294.42
487.90	295.65
488.26	296.96
488.62	298.32
488.99	299.63
489.35	301.03
489.72	302.62
490.08	304.42
490.44	306.39
490.81	308.23
491.17	310.28
491.54	312.48
491.90	314.56
492.26	316.93
492.63	319.53
492.99	322.11
493.36	324.77
493.72	327.80
494.08	330.80
494.45	333.97
494.81	337.66
495.17	341.20
495.54	344.95
495.90	348.94
496.26	353.21
496.63	357.70
496.99	362.35
497.35	367.42
497.72	372.42
498.08	377.46
498.44	382.99
498.80	388.72
499.17	394.78
499.53	401.11
499.89	407.73
500.26	414.44
500.62	421.45
500.98	428.92
501.34	436.79
501.71	444.83
502.07	453.18
502.43	461.54
502.79	470.70
503.16	479.84
503.52	489.30
503.88	499.23
504.24	509.42
504.60	520.07
504.97	530.89
505.33	542.37
505.69	554.18
506.05	566.07
506.41	578.28
506.78	591.02
507.14	604.08
507.50	617.36
507.86	631.44
508.22	645.73
508.59	660.34
508.95	675.25
509.31	690.86
509.67	706.62
510.03	722.77
510.39	739.24
510.75	756.49
511.12	774.10
511.48	791.57
511.84	809.75
512.20	828.10
512.56	847.20
512.92	866.34
513.28	886.24
513.64	906.51
514.00	926.98
514.37	947.65
514.73	968.82
515.09	989.88
515.45	1011.35
515.81	1033.10
516.17	1055.44
516.53	1078.11
516.89	1100.64
517.25	1123.83
517.61	1147.12
517.97	1170.25
518.33	1193.31
518.69	1216.53
519.05	1241.05
519.41	1265.75
519.77	1290.73
520.13	1315.77
520.49	1340.38
520.85	1365.16
521.21	1390.37
521.57	1416.30
521.93	1441.35
522.29	1467.60
522.65	1493.57
523.01	1519.31
523.37	1545.03
523.73	1570.71
524.09	1596.50
524.45	1622.80
524.81	1648.96
525.17	1675.84
525.53	1703.00
525.89	1730.21
526.25	1757.54
526.61	1783.67
526.97	1810.20
527.33	1836.90
527.68	1863.60
528.04	1890.65
528.40	1917.72
528.76	1944.99
529.12	1972.10
529.48	1999.33
529.84	2025.16
530.20	2052.37
530.56	2080.36
530.91	2108.65
531.27	2136.42
531.63	2163.11
531.99	2189.80
532.35	2216.34
532.71	2241.79
533.07	2268.26
533.42	2294.41
533.78	2320.48
534.14	2346.70
534.50	2371.41
534.86	2396.50
535.21	2420.55
535.57	2446.36
535.93	2471.36
536.29	2495.36
536.65	2519.63
537.00	2543.77
537.36	2568.61
537.72	2591.88
538.08	2614.28
538.44	2635.98
538.79	2658.00
539.15	2680.04
539.51	2702.74
539.87	2725.44
540.22	2748.20
540.58	2770.04
540.94	2791.14
541.29	2811.63
541.65	2832.01
542.01	2853.74
542.37	2875.00
542.72	2895.45
543.08	2914.19
543.44	2933.54
543.79	2952.03
544.15	2969.84
544.51	2989.40
544.87	3007.23
545.22	3024.97
545.58	3043.05
545.94	3059.47
546.29	3076.35
546.65	3092.68
547.01	3108.05
547.36	3123.40
547.72	3138.07
548.07	3152.02
548.43	3166.10
548.79	3179.46
549.14	3192.63
549.50	3204.86
549.86	3215.77
550.21	3228.24
550.57	3240.63
550.92	3252.17
551.28	3263.68
551.64	3274.72
551.99	3284.53
552.35	3294.89
552.70	3305.16
553.06	3315.32
553.41	3326.20
553.77	3336.34
554.13	3347.00
554.48	3356.59
554.84	3365.36
555.19	3374.13
555.55	3382.42
555.90	3390.29
556.26	3399.07
556.61	3407.61
556.97	3414.87
557.32	3423.43
557.68	3430.82
558.03	3438.04
558.39	3444.47
558.74	3452.48
559.10	3459.70
559.45	3466.47
559.81	3473.89
560.16	3479.60
560.52	3484.57
560.87	3490.25
561.23	3494.28
561.58	3498.69
561.94	3503.10
562.29	3506.36
562.64	3509.60
563.00	3513.81
563.35	3518.88
563.71	3523.69
564.06	3528.21
564.42	3532.90
564.77	3536.33
565.12	3539.99
565.48	3543.24
565.83	3545.64
566.19	3547.50
566.54	3548.76
566.89	3550.17
567.25	3550.27
567.60	3552.93
567.96	3554.34
568.31	3555.24
568.66	3555.64
569.02	3556.43
569.37	3556.16
569.72	3557.10
570.08	3557.38
570.43	3556.68
570.78	3555.31
571.14	3552.68
571.49	3550.18
571.84	3549.40
572.20	3546.50
572.55	3543.27
572.90	3540.11
573.26	3537.80
573.61	3534.43
573.96	3531.23
574.31	3526.42
574.67	3521.56
575.02	3515.84
575.37	3511.15
575.72	3504.82
576.08	3500.72
576.43	3494.34
576.78	3489.16
577.13	3484.02
577.49	3478.66
577.84	3472.35
578.19	3465.90
578.54	3459.33
578.90	3452.11
579.25	3442.61
579.60	3435.38
579.95	3427.97
580.30	3419.66
580.66	3411.42
581.01	3402.75
581.36	3394.81
581.71	3387.97
582.06	3380.07
582.42	3371.61
582.77	3362.78
583.12	3354.01
583.47	3345.53
583.82	3338.07
584.17	3328.96
584.53	3319.95
584.88	3311.31
585.23	3302.40
585.58	3293.78
585.93	3285.88
586.28	3277.86
586.63	3270.37
586.98	3262.57
587.34	3254.08
587.69	3245.32
588.04	3236.75
588.39	3228.98
588.74	3218.40
589.09	3208.13
589.44	3197.98
589.79	3188.86
590.14	3179.92
590.49	3171.18
590.84	3160.59
591.19	3150.08
591.54	3139.23
591.89	3126.80
592.25	3115.73
592.60	3104.10
592.95	3092.00
593.30	3079.60
593.65	3067.70
594.00	3055.64
594.35	3043.69
594.70	3031.11
595.05	3020.38
595.40	3007.92
595.75	2994.77
596.10	2984.54
596.45	2973.60
596.80	2964.52
597.15	2953.31
597.50	2941.58
597.85	2930.78
598.19	2920.48
598.54	2909.74
598.89	2899.69
599.24	2891.06
599.59	2880.47
599.94	2870.67
600.29	2860.54
600.64	2850.20
600.99	2838.65
601.34	2827.85
601.69	2816.43
602.04	2806.42
602.39	2795.01
602.74	2785.86
603.08	2775.92
603.43	2765.77
603.78	2755.12
604.13	2743.33
604.48	2732.13
604.83	2721.17
605.18	2710.31
605.53	2697.70
605.87	2684.96
606.22	2673.58
606.57	2660.66
606.92	2648.97
607.27	2637.97
607.62	2627.48
607.96	2616.48
608.31	2605.55
608.66	2593.04
609.01	2580.49
609.36	2567.25
609.70	2553.75
610.05	2539.64
610.40	2526.93
610.75	2513.58
611.10	2500.09
611.44	2485.86
611.79	2473.65
612.14	2460.40
612.49	2446.06
612.83	2433.18
613.18	2420.38
613.53	2407.05
613.88	2394.11
614.22	2380.75
614.57	2366.75
614.92	2353.10
615.27	2339.87
615.61	2326.92
615.96	2314.42
616.31	2302.71
616.65	2291.73
617.00	2280.21
617.35	2268.58
617.70	2255.71
618.04	2243.00
618.39	2231.15
618.74	2219.99
619.08	2206.73
619.43	2194.91
619.78	2183.30
620.12	2171.65
620.47	2159.72
620.82	2147.47
621.16	2135.53
621.51	2123.61
621.85	2111.85
622.20	2099.05
622.55	2086.87
622.89	2074.78
623.24	2063.86
623.59	2052.65
623.93	2040.62
624.28	2028.80
624.62	2016.56
624.97	2005.73
625.32	1994.61
625.66	1983.28
626.01	1971.64
626.35	1960.41
626.70	1948.69
627.04	1937.73
627.39	1926.04
627.73	1914.31
628.08	1902.96
628.43	1891.29
628.77	1880.31
629.12	1868.30
629.46	1857.10
629.81	1845.01
630.15	1833.02
630.50	1820.73
630.84	1807.98
631.19	1795.31
631.53	1783.61
631.88	1771.80
632.22	1759.01
632.57	1747.27
632.91	1735.02
633.26	1722.73
633.60	1710.61
633.95	1698.91
634.29	1687.42
634.64	1676.59
634.98	1665.37
635.32	1654.28
635.67	1643.85
636.01	1632.81
636.36	1622.09
636.70	1611.27
637.05	1601.19
637.39	1591.50
637.73	1581.23
638.08	1571.68
638.42	1562.45
638.77	1552.45
639.11	1542.09
639.45	1532.30
639.80	1521.77
640.14	1511.84
640.49	1502.10
640.83	1492.02
641.17	1481.81
641.52	1471.19
641.86	1460.63
642.20	1451.10
642.55	1441.28
642.89	1431.41
643.23	1420.81
643.58	1411.50
643.92	1401.41
644.26	1391.22
644.61	1381.47
644.95	1371.79
645.29	1360.92
645.64	1350.13
645.98	1340.11
646.32	1330.87
646.66	1320.82
647.01	1311.04
647.35	1301.42
647.69	1291.85
648.04	1282.90
648.38	1273.25
648.72	1263.40
649.06	1253.41
649.41	1243.43
649.75	1233.36
650.09	1223.24
650.43	1213.72
650.78	1203.48
651.12	1193.89
651.46	1184.42
651.80	1174.80
652.14	1165.17
652.49	1156.62
652.83	1147.37
653.17	1137.84
653.51	1128.10
653.85	1119.09
654.20	1110.02
654.54	1100.58
654.88	1091.20
655.22	1081.31
655.56	1072.19
655.90	1063.56
656.25	1054.94
656.59	1046.30
656.93	1038.14
657.27	1029.56
657.61	1020.77
657.95	1012.68
658.29	1004.36
658.64	995.98
658.98	987.32
659.32	978.86
659.66	970.16
660.00	962.23
660.34	954.07
660.68	946.19
661.02	938.42
661.36	930.75
661.70	923.36
662.05	916.02
662.39	909.22
662.73	902.06
663.07	894.80
663.41	888.09
663.75	880.90
664.09	873.46
664.43	866.32
664.77	859.76
665.11	853.12
665.45	846.60
665.79	840.01
666.13	833.59
666.47	826.99
666.81	820.33
667.15	813.52
667.49	807.40
667.83	801.40
668.17	795.05
668.51	788.69
668.85	782.29
669.19	776.29
669.53	770.22
669.87	763.74
670.21	758.28
670.55	752.40
670.89	747.19
671.23	741.97
671.57	736.64
671.91	731.05
672.25	725.10
672.58	719.69
672.92	714.29
673.26	708.92
673.60	703.95
673.94	698.96
674.28	694.31
674.62	689.32
674.96	684.24
675.30	679.25
675.64	674.61
675.97	670.10
676.31	665.42
676.65	660.88
676.99	656.64
677.33	651.63
677.67	646.76
678.01	641.81
678.34	637.00
678.68	632.45
679.02	628.06
679.36	623.91
679.70	619.55
680.04	615.24
680.37	610.84
680.71	606.65
681.05	602.82
681.39	598.77
681.73	594.79
682.06	591.10
682.40	587.46
682.74	583.20
683.08	579.27
683.42	575.14
683.75	570.95
684.09	566.86
684.43	563.22
684.77	559.46
685.10	555.71
685.44	551.88
685.78	548.31
686.12	544.68
686.45	540.94
686.79	537.21
687.13	533.69
687.46	530.09
687.80	526.50
688.14	522.75
688.48	519.30
688.81	515.67
689.15	511.95
689.49	508.53
689.82	505.39
690.16	501.94
690.50	498.89
690.83	495.96
691.17	492.86
691.51	489.42
691.84	486.38
692.18	483.20
692.52	480.08
692.85	476.90
693.19	473.81
693.52	470.72
693.86	467.83
694.20	464.75
694.53	461.93
694.87	458.99
695.21	456.02
695.54	453.07
695.88	450.16
696.21	447.30
696.55	444.40
696.88	441.71
697.22	439.07
697.56	436.25
697.89	433.36
698.23	430.77
698.56	428.34
698.90	425.88
699.23	423.34
699.57	420.89
699.90	418.36
700.24	415.87
700.58	413.62
700.91	411.15
701.25	409.06
701.58	406.80
701.92	404.34
702.25	402.14
702.59	399.97
702.92	397.92
703.26	395.92
703.59	393.86
703.93	391.88
704.26	389.67
704.60	387.79
704.93	385.78
705.26	383.79
705.60	381.96
705.93	379.95
706.27	378.13
706.60	376.44
706.94	374.76
707.27	372.98
707.61	371.16
707.94	369.66
708.27	367.74
708.61	365.94
708.94	364.41
709.28	362.77
709.61	361.21
709.94	359.77
710.28	358.12
710.61	356.51
710.95	354.67
711.28	353.27
711.61	351.66
711.95	350.28
712.28	348.83
712.61	347.18
712.95	345.87
713.28	344.65
713.61	343.13
713.95	341.66
714.28	340.43
714.61	339.13
714.95	337.64
715.28	336.34
715.61	335.14
715.95	333.92
716.28	332.71
716.61	331.50
716.95	330.19
717.28	328.96
717.61	327.95
717.94	326.93
718.28	325.77
718.61	324.70
718.94	323.59
719.27	322.41
719.61	321.51
719.94	320.36
720.27	319.01
720.60	317.94
720.94	316.87
721.27	315.79
721.60	314.82
721.93	313.79
722.27	313.02
722.60	312.12
722.93	311.11
723.26	310.11
723.59	309.04
723.93	308.18
724.26	307.44
724.59	306.38
724.92	305.51
725.25	304.70
725.59	303.77
725.92	302.80
726.25	302.01
726.58	301.00
726.91	300.10
727.24	299.42
727.57	298.67
727.91	297.91
728.24	297.07
728.57	296.24
728.90	295.50
729.23	294.48
729.56	293.71
729.89	292.96
730.22	292.31
730.55	291.62
730.89	290.83
731.22	289.93
731.55	289.25
731.88	288.45
732.21	287.60
732.54	286.81
732.87	286.27
733.20	285.50
733.53	284.90
733.86	284.21
734.19	283.42
734.52	282.74
734.85	282.25
735.18	281.64
735.51	280.96
735.84	280.35
736.17	279.77
736.50	279.11
736.83	278.69
737.16	277.99
737.49	277.24
737.82	276.53
738.15	276.01
738.48	275.44
738.81	274.98
739.14	274.42
739.47	273.88
739.80	273.24
740.13	272.73
740.46	272.24
740.79	271.81
741.12	271.23
741.45	270.71
741.78	270.12
742.11	269.50
742.44	268.95
742.77	268.49
743.10	268.01
743.43	267.43
743.75	266.67
744.08	266.59
744.41	266.19
744.74	265.83
745.07	265.24
745.40	264.90
745.73	264.47
746.06	264.07
746.39	263.68
746.71	263.24
747.04	262.83
747.37	262.24
747.70	261.72
748.03	261.43
748.36	260.96
748.68	260.55
749.01	260.28
749.34	259.91
749.67	259.43
750.00	259.07
750.33	258.88
750.65	258.56
750.98	257.87
751.31	257.60
751.64	257.24
751.97	257.09
752.29	256.68
752.62	256.29
752.95	255.92
753.28	255.61
753.60	255.37
753.93	255.18
754.26	254.93
754.59	254.70
754.91	254.33
755.24	254.12
755.57	253.69
755.90	253.35
756.22	253.20
756.55	252.98
756.88	252.75
757.20	252.36
757.53	252.10
757.86	251.85
758.19	251.56
758.51	251.45
758.84	251.17
759.17	250.98
759.49	250.82
759.82	250.71
760.15	250.56
760.47	250.19
760.80	249.85
761.13	249.70
761.45	249.45
761.78	249.20
762.11	249.07
762.43	248.90
762.76	248.72
763.08	248.45
763.41	248.26
763.74	248.00
764.06	247.76
764.39	247.64
764.71	247.52
765.04	247.31
765.37	247.00
765.69	246.71
766.02	246.50
766.34	246.23
766.67	245.98
767.00	245.83
767.32	245.82
767.65	245.78
767.97	245.66
768.30	245.59
768.62	245.41
768.95	245.08
769.27	244.86
769.60	244.70
769.92	244.50
770.25	244.35
770.57	244.22
770.90	244.11
771.22	243.82
771.55	243.57
771.87	243.40
772.20	243.17
772.52	243.21
772.85	243.25
773.17	243.08
773.50	242.88
773.82	242.61
774.15	242.31
774.47	241.97
774.80	241.72
775.12	241.44
775.45	241.32
775.77	241.22
776.09	241.13
776.42	240.93
776.74	240.80
777.07	240.65
777.39	240.43
777.72	240.28
778.04	240.22
778.36	240.04
778.69	239.85
779.01	239.70
779.33	239.34
779.66	238.86
779.98	238.74
780.31	238.53
780.63	238.49
780.95	238.37
781.28	238.17
781.60	238.07
781.92	237.93
782.25	237.80
782.57	237.56
782.89	237.41
783.22	237.23
783.54	237.12
783.86	236.96
784.19	236.82
784.51	236.76
784.83	236.61
785.16	236.46
785.48	236.30
