SpectraSuite Data File
++++++++++++++++++++++++++++++++++++
Date: Fri Feb 01 14:36:52 EST 2013
User: group
Dark Spectrum Present: No
Reference Spectrum Present: No
Number of Sampled Component Spectra: 1
Spectrometers: USB2E7196
Integration Time (usec): 70000 (USB2E7196)
Spectra Averaged: 10 (USB2E7196)
Boxcar Smoothing: 10 (USB2E7196)
Correct for Electrical Dark: No (USB2E7196)
Strobe/Lamp Enabled: No (USB2E7196)
Correct for Detector Non-linearity: No (USB2E7196)
Correct for Stray Light: No (USB2E7196)
Number of Pixels in Processed Spectrum: 2048
>>>>>Begin Processed Spectral Data<<<<<
339.09	0.00
339.48	215.60
339.86	214.80
340.24	218.50
340.63	219.80
341.01	224.20
341.39	221.80
341.78	227.10
342.16	224.90
342.54	225.00
342.93	214.07
343.31	224.88
343.69	225.46
344.07	226.12
344.46	226.61
344.84	227.00
345.22	227.20
345.60	227.54
345.99	227.56
346.37	227.71
346.75	227.90
347.13	227.97
347.52	228.00
347.90	228.14
348.28	228.22
348.66	228.34
349.05	228.30
349.43	228.37
349.81	228.47
350.19	228.55
350.57	228.61
350.96	228.68
351.34	228.76
351.72	228.77
352.10	228.69
352.48	228.69
352.87	228.77
353.25	228.77
353.63	228.85
354.01	229.03
354.39	229.17
354.77	229.21
355.15	229.38
355.54	229.50
355.92	229.52
356.30	229.56
356.68	229.72
357.06	229.85
357.44	229.86
357.82	229.92
358.20	229.97
358.58	229.98
358.97	230.08
359.35	230.20
359.73	230.35
360.11	230.49
360.49	230.62
360.87	230.62
361.25	230.72
361.63	230.76
362.01	230.70
362.39	230.68
362.77	230.77
363.15	230.71
363.53	230.72
363.91	230.63
364.29	230.63
364.67	230.55
365.05	230.50
365.43	230.61
365.81	230.60
366.19	230.71
366.57	230.81
366.95	230.67
367.33	230.70
367.71	230.69
368.09	230.64
368.47	230.59
368.85	230.64
369.23	230.60
369.61	230.57
369.99	230.63
370.37	230.66
370.75	230.62
371.13	230.50
371.51	230.41
371.89	230.44
372.27	230.45
372.65	230.32
373.03	230.25
373.41	230.08
373.78	230.06
374.16	229.86
374.54	229.69
374.92	229.73
375.30	229.53
375.68	229.28
376.06	229.32
376.44	229.30
376.82	229.19
377.19	229.18
377.57	229.05
377.95	228.88
378.33	228.71
378.71	228.59
379.09	228.60
379.47	228.53
379.84	228.45
380.22	228.23
380.60	228.09
380.98	228.00
381.36	227.90
381.73	227.68
382.11	227.64
382.49	227.47
382.87	227.40
383.25	227.30
383.62	227.56
384.00	227.49
384.38	227.26
384.76	227.17
385.13	227.21
385.51	227.07
385.89	227.00
386.27	226.86
386.64	226.78
387.02	226.60
387.40	226.54
387.78	226.51
388.15	226.60
388.53	226.58
388.91	226.55
389.29	226.47
389.66	226.45
390.04	226.44
390.42	226.56
390.79	226.49
391.17	226.52
391.55	226.27
391.92	226.13
392.30	226.21
392.68	226.28
393.05	226.18
393.43	226.23
393.81	226.29
394.18	226.36
394.56	226.39
394.94	226.41
395.31	226.44
395.69	226.44
396.06	226.50
396.44	226.55
396.82	226.53
397.19	226.78
397.57	226.87
397.95	227.00
398.32	227.03
398.70	227.04
399.07	227.13
399.45	227.24
399.82	227.43
400.20	227.50
400.58	227.56
400.95	227.55
401.33	227.71
401.70	228.05
402.08	228.11
402.45	228.26
402.83	228.52
403.20	228.75
403.58	228.95
403.95	229.06
404.33	229.32
404.71	229.60
405.08	229.87
405.46	230.11
405.83	230.27
406.21	230.45
406.58	230.82
406.96	231.12
407.33	231.38
407.70	231.65
408.08	232.10
408.45	232.35
408.83	232.74
409.20	233.13
409.58	233.30
409.95	233.90
410.33	234.39
410.70	234.87
411.08	235.30
411.45	235.81
411.82	236.33
412.20	236.92
412.57	237.70
412.95	238.22
413.32	238.91
413.69	239.61
414.07	240.39
414.44	241.18
414.82	241.95
415.19	242.92
415.56	243.88
415.94	244.85
416.31	246.10
416.68	247.16
417.06	248.39
417.43	249.61
417.81	250.97
418.18	252.39
418.55	253.89
418.93	255.56
419.30	257.22
419.67	259.14
420.04	261.05
420.42	262.94
420.79	265.10
421.16	267.35
421.54	269.76
421.91	272.17
422.28	274.61
422.66	277.26
423.03	279.82
423.40	282.57
423.77	285.33
424.15	288.10
424.52	291.21
424.89	294.60
425.26	297.73
425.64	300.73
426.01	303.91
426.38	307.26
426.75	310.79
427.13	314.43
427.50	317.98
427.87	321.82
428.24	325.64
428.61	329.42
428.99	333.60
429.36	337.95
429.73	342.33
430.10	346.56
430.47	350.93
430.85	355.44
431.22	360.25
431.59	365.30
431.96	370.15
432.33	375.54
432.70	380.60
433.08	386.63
433.45	392.52
433.82	398.38
434.19	404.73
434.56	410.82
434.93	416.76
435.30	422.78
435.68	429.23
436.05	435.77
436.42	442.17
436.79	447.81
437.16	454.00
437.53	460.51
437.90	467.10
438.27	473.41
438.64	480.28
439.01	486.27
439.38	491.94
439.75	497.39
440.13	503.29
440.50	509.05
440.87	513.93
441.24	518.59
441.61	524.14
441.98	528.16
442.35	533.12
442.72	538.08
443.09	542.68
443.46	545.90
443.83	547.85
444.20	549.79
444.57	552.60
444.94	554.26
445.31	556.16
445.68	557.84
446.05	559.08
446.42	559.04
446.79	559.13
447.16	559.12
447.53	559.26
447.90	557.76
448.27	556.03
448.64	553.12
449.01	551.63
449.37	547.85
449.74	544.44
450.11	540.07
450.48	535.19
450.85	530.39
451.22	526.08
451.59	522.25
451.96	518.52
452.33	513.25
452.70	508.46
453.07	502.51
453.43	496.43
453.80	490.65
454.17	484.96
454.54	479.49
454.91	473.53
455.28	467.81
455.65	462.70
456.02	457.30
456.38	452.80
456.75	446.86
457.12	441.96
457.49	437.27
457.86	432.53
458.23	428.39
458.59	423.94
458.96	419.42
459.33	415.40
459.70	411.19
460.07	407.80
460.43	404.01
460.80	400.31
461.17	397.15
461.54	393.89
461.91	390.83
462.27	387.62
462.64	384.93
463.01	381.83
463.38	378.77
463.74	375.90
464.11	373.29
464.48	371.11
464.85	368.73
465.21	366.59
465.58	364.49
465.95	361.96
466.32	359.83
466.68	357.79
467.05	355.66
467.42	353.78
467.78	351.70
468.15	349.66
468.52	348.14
468.88	346.17
469.25	344.27
469.62	342.79
469.98	341.25
470.35	339.70
470.72	338.40
471.08	336.79
471.45	335.47
471.82	334.33
472.18	332.71
472.55	331.59
472.92	330.37
473.28	329.11
473.65	328.02
474.02	326.96
474.38	325.93
474.75	325.06
475.11	324.04
475.48	323.28
475.85	322.53
476.21	321.78
476.58	321.24
476.94	320.71
477.31	320.14
477.67	319.46
478.04	318.89
478.41	318.31
478.77	318.07
479.14	317.60
479.50	317.22
479.87	317.08
480.23	316.86
480.60	316.63
480.96	316.46
481.33	316.49
481.69	316.39
482.06	316.34
482.42	316.18
482.79	316.00
483.15	316.09
483.52	316.23
483.88	316.15
484.25	316.19
484.61	316.28
484.98	316.39
485.34	316.94
485.71	317.32
486.07	317.67
486.44	317.86
486.80	318.26
487.17	318.65
487.53	319.08
487.90	319.51
488.26	320.05
488.62	320.60
488.99	321.09
489.35	321.61
489.72	322.26
490.08	323.00
490.44	323.81
490.81	324.56
491.17	325.30
491.54	326.21
491.90	326.97
492.26	327.94
492.63	328.84
492.99	329.58
493.36	330.38
493.72	331.51
494.08	332.43
494.45	333.46
494.81	334.50
495.17	335.73
495.54	336.86
495.90	337.86
496.26	338.90
496.63	340.05
496.99	341.25
497.35	342.29
497.72	343.52
498.08	344.63
498.44	345.73
498.80	346.97
499.17	348.12
499.53	349.29
499.89	350.42
500.26	351.49
500.62	352.49
500.98	353.78
501.34	354.89
501.71	356.22
502.07	357.30
502.43	358.25
502.79	359.12
503.16	360.12
503.52	361.10
503.88	361.94
504.24	362.68
504.60	363.46
504.97	364.36
505.33	365.06
505.69	366.03
506.05	366.83
506.41	367.31
506.78	367.92
507.14	368.65
507.50	369.19
507.86	369.69
508.22	370.49
508.59	370.81
508.95	371.19
509.31	371.48
509.67	371.97
510.03	372.32
510.39	372.79
510.75	373.00
511.12	373.44
511.48	373.84
511.84	374.25
512.20	374.49
512.56	374.89
512.92	375.10
513.28	375.09
513.64	375.04
514.00	375.27
514.37	375.51
514.73	375.45
515.09	375.46
515.45	375.43
515.81	375.37
516.17	375.57
516.53	375.63
516.89	375.64
517.25	375.54
517.61	375.83
517.97	375.72
518.33	375.81
518.69	375.75
519.05	375.83
519.41	376.02
519.77	376.44
520.13	376.45
520.49	376.60
520.85	376.85
521.21	377.21
521.57	377.63
521.93	377.89
522.29	378.38
522.65	378.93
523.01	379.50
523.37	379.79
523.73	380.27
524.09	380.82
524.45	381.51
524.81	382.18
525.17	382.81
525.53	383.76
525.89	384.71
526.25	385.76
526.61	386.72
526.97	387.67
527.33	388.53
527.68	389.83
528.04	391.14
528.40	392.40
528.76	393.89
529.12	395.35
529.48	396.96
529.84	398.45
530.20	400.19
530.56	402.04
530.91	404.03
531.27	406.02
531.63	407.97
531.99	410.06
532.35	412.20
532.71	414.23
533.07	416.39
533.42	418.80
533.78	421.22
534.14	423.80
534.50	426.20
534.86	428.88
535.21	431.27
535.57	434.10
535.93	436.97
536.29	439.82
536.65	442.56
537.00	445.38
537.36	448.52
537.72	451.57
538.08	454.79
538.44	457.83
538.79	461.02
539.15	464.28
539.51	467.57
539.87	470.97
540.22	474.60
540.58	478.26
540.94	481.81
541.29	485.45
541.65	489.10
542.01	493.12
542.37	497.01
542.72	501.06
543.08	504.91
543.44	508.89
543.79	512.64
544.15	516.71
544.51	520.95
544.87	524.89
545.22	528.90
545.58	532.80
545.94	536.89
546.29	541.03
546.65	545.18
547.01	549.39
547.36	553.61
547.72	557.86
548.07	562.05
548.43	566.17
548.79	570.24
549.14	574.42
549.50	578.63
549.86	582.75
550.21	587.05
550.57	591.29
550.92	595.53
551.28	600.06
551.64	604.14
551.99	608.24
552.35	612.64
552.70	616.97
553.06	621.53
553.41	626.07
553.77	630.50
554.13	635.09
554.48	639.45
554.84	643.87
555.19	648.20
555.55	652.71
555.90	657.04
556.26	661.49
556.61	665.92
556.97	670.04
557.32	674.38
557.68	678.67
558.03	683.04
558.39	687.18
558.74	691.46
559.10	695.85
559.45	700.26
559.81	704.87
560.16	708.92
560.52	713.00
560.87	717.43
561.23	721.42
561.58	725.85
561.94	730.07
562.29	733.98
562.64	737.82
563.00	741.54
563.35	745.61
563.71	749.61
564.06	753.72
564.42	757.72
564.77	761.58
565.12	765.51
565.48	769.44
565.83	773.17
566.19	777.19
566.54	780.91
566.89	784.36
567.25	787.80
567.60	791.84
567.96	795.55
568.31	798.71
568.66	802.04
569.02	804.84
569.37	807.95
569.72	811.21
570.08	814.43
570.43	817.59
570.78	820.47
571.14	823.20
571.49	825.65
571.84	828.64
572.20	831.25
572.55	833.99
572.90	836.30
573.26	838.91
573.61	840.97
573.96	843.43
574.31	845.49
574.67	847.31
575.02	848.96
575.37	850.84
575.72	852.70
576.08	854.65
576.43	856.30
576.78	857.97
577.13	859.68
577.49	861.40
577.84	862.83
578.19	864.16
578.54	865.59
578.90	867.07
579.25	868.00
579.60	869.24
579.95	869.74
580.30	870.62
580.66	871.60
581.01	872.30
581.36	872.92
581.71	873.84
582.06	874.71
582.42	875.32
582.77	875.78
583.12	876.24
583.47	877.10
583.82	877.83
584.17	878.35
584.53	878.77
584.88	879.13
585.23	879.50
585.58	880.04
585.93	880.40
586.28	880.83
586.63	881.11
586.98	881.43
587.34	881.75
587.69	881.79
588.04	881.70
588.39	881.97
588.74	881.77
589.09	881.66
589.44	881.46
589.79	881.40
590.14	881.34
590.49	881.02
590.84	880.26
591.19	880.00
591.54	878.95
591.89	878.22
592.25	877.42
592.60	876.63
592.95	875.62
593.30	874.63
593.65	873.32
594.00	872.22
594.35	871.52
594.70	870.22
595.05	869.62
595.40	868.39
595.75	866.79
596.10	865.87
596.45	865.18
596.80	864.15
597.15	863.05
597.50	861.55
597.85	860.60
598.19	859.76
598.54	858.62
598.89	857.82
599.24	856.98
599.59	855.73
599.94	854.67
600.29	853.60
600.64	852.59
600.99	851.27
601.34	849.90
601.69	848.02
602.04	846.93
602.39	845.17
602.74	844.20
603.08	843.41
603.43	842.04
603.78	840.32
604.13	838.89
604.48	837.50
604.83	836.10
605.18	834.68
605.53	832.54
605.87	830.02
606.22	828.49
606.57	826.47
606.92	824.73
607.27	823.23
607.62	821.81
607.96	820.01
608.31	818.56
608.66	816.79
609.01	814.89
609.36	812.79
609.70	810.48
610.05	807.91
610.40	805.56
610.75	803.33
611.10	800.98
611.44	798.45
611.79	795.90
612.14	793.47
612.49	790.82
612.83	788.39
613.18	786.43
613.53	783.78
613.88	780.97
614.22	778.45
614.57	775.71
614.92	772.80
615.27	770.20
615.61	767.47
615.96	764.98
616.31	762.51
616.65	760.41
617.00	758.20
617.35	755.79
617.70	753.17
618.04	750.35
618.39	747.93
618.74	745.40
619.08	742.95
619.43	740.61
619.78	738.02
620.12	735.45
620.47	732.82
620.82	730.19
621.16	728.06
621.51	725.79
621.85	723.18
622.20	720.52
622.55	717.99
622.89	715.58
623.24	713.16
623.59	710.77
623.93	707.96
624.28	705.61
624.62	703.30
624.97	701.07
625.32	698.77
625.66	696.35
626.01	693.82
626.35	691.37
626.70	688.89
627.04	686.59
627.39	684.30
627.73	681.97
628.08	679.73
628.43	677.01
628.77	674.19
629.12	671.50
629.46	668.92
629.81	665.99
630.15	663.16
630.50	660.61
630.84	657.65
631.19	654.99
631.53	652.47
631.88	649.50
632.22	646.21
632.57	643.65
632.91	640.86
633.26	638.33
633.60	635.46
633.95	632.67
634.29	629.98
634.64	627.50
634.98	624.78
635.32	622.35
635.67	620.09
636.01	617.69
636.36	615.27
636.70	612.85
637.05	610.75
637.39	608.53
637.73	605.95
638.08	603.84
638.42	601.69
638.77	599.17
639.11	596.77
639.45	594.76
639.80	592.43
640.14	589.95
640.49	587.58
640.83	585.19
641.17	582.70
641.52	580.30
641.86	577.87
642.20	575.54
642.55	572.87
642.89	570.31
643.23	567.97
643.58	565.82
643.92	563.43
644.26	561.01
644.61	558.61
644.95	556.44
645.29	553.81
645.64	551.13
645.98	548.55
646.32	546.30
646.66	543.65
647.01	541.24
647.35	539.12
647.69	536.82
648.04	534.54
648.38	532.30
648.72	529.88
649.06	527.50
649.41	525.35
649.75	522.90
650.09	520.71
650.43	518.05
650.78	515.19
651.12	512.80
651.46	510.36
651.80	508.02
652.14	505.67
652.49	503.45
652.83	501.33
653.17	498.94
653.51	496.64
653.85	494.64
654.20	492.06
654.54	489.59
654.88	487.11
655.22	484.74
655.56	482.56
655.90	480.27
656.25	478.00
656.59	475.60
656.93	473.54
657.27	471.20
657.61	469.15
657.95	467.29
658.29	465.23
658.64	463.07
658.98	460.85
659.32	458.45
659.66	456.29
660.00	453.89
660.34	451.96
660.68	449.85
661.02	447.62
661.36	445.93
661.70	444.12
662.05	442.30
662.39	440.75
662.73	438.77
663.07	437.11
663.41	435.26
663.75	433.36
664.09	431.48
664.43	429.72
664.77	427.95
665.11	426.20
665.45	424.44
665.79	422.73
666.13	420.90
666.47	419.17
666.81	417.36
667.15	415.77
667.49	413.95
667.83	412.47
668.17	410.90
668.51	409.15
668.85	407.37
669.19	405.82
669.53	404.00
669.87	402.26
670.21	400.50
670.55	398.91
670.89	397.60
671.23	396.21
671.57	394.61
671.91	393.10
672.25	391.58
672.58	390.16
672.92	388.64
673.26	387.27
673.60	385.91
673.94	384.44
674.28	383.20
674.62	382.04
674.96	380.73
675.30	379.35
675.64	377.88
675.97	376.55
676.31	375.04
676.65	373.63
676.99	372.53
677.33	371.23
677.67	369.84
678.01	368.35
678.34	367.05
678.68	365.81
679.02	364.65
679.36	363.32
679.70	362.02
680.04	360.76
680.37	359.43
680.71	358.16
681.05	357.13
681.39	355.91
681.73	354.65
682.06	353.39
682.40	352.30
682.74	351.29
683.08	350.16
683.42	349.05
683.75	347.91
684.09	346.58
684.43	345.27
684.77	344.09
685.10	342.99
685.44	341.76
685.78	340.65
686.12	339.38
686.45	338.22
686.79	337.03
687.13	336.11
687.46	335.16
687.80	334.20
688.14	333.04
688.48	331.97
688.81	330.84
689.15	329.76
689.49	328.65
689.82	327.53
690.16	326.42
690.50	325.39
690.83	324.35
691.17	323.46
691.51	322.62
691.84	321.82
692.18	320.87
692.52	319.80
692.85	318.78
693.19	318.02
693.52	317.23
693.86	316.25
694.20	315.24
694.53	314.25
694.87	313.19
695.21	312.31
695.54	311.40
695.88	310.44
696.21	309.58
696.55	308.70
696.88	307.88
697.22	306.96
697.56	306.22
697.89	305.48
698.23	304.66
698.56	303.72
698.90	302.79
699.23	301.90
699.57	301.17
699.90	300.41
700.24	299.42
700.58	298.50
700.91	297.75
701.25	297.10
701.58	296.53
701.92	295.98
702.25	295.25
702.59	294.45
702.92	293.85
703.26	293.11
703.59	292.47
703.93	292.05
704.26	291.43
704.60	290.66
704.93	289.92
705.26	289.20
705.60	288.75
705.93	288.05
706.27	287.65
706.60	287.19
706.94	286.59
707.27	286.02
707.61	285.42
707.94	284.90
708.27	284.10
708.61	283.31
708.94	282.67
709.28	282.18
709.61	281.74
709.94	281.27
710.28	280.71
710.61	280.13
710.95	279.38
711.28	278.96
711.61	278.50
711.95	278.10
712.28	277.60
712.61	276.99
712.95	276.58
713.28	275.92
713.61	275.35
713.95	274.87
714.28	274.54
714.61	274.07
714.95	273.52
715.28	273.14
715.61	272.69
715.95	272.14
716.28	271.65
716.61	271.20
716.95	270.61
717.28	270.13
717.61	269.81
717.94	269.31
718.28	268.76
718.61	268.29
718.94	267.76
719.27	267.34
719.61	266.98
719.94	266.61
720.27	266.13
720.60	265.63
720.94	265.13
721.27	264.67
721.60	264.31
721.93	264.03
722.27	263.67
722.60	263.38
722.93	263.08
723.26	262.76
723.59	262.31
723.93	261.95
724.26	261.76
724.59	261.22
724.92	260.94
725.25	260.69
725.59	260.38
725.92	260.13
726.25	259.72
726.58	259.34
726.91	259.01
727.24	258.77
727.57	258.45
727.91	258.20
728.24	257.95
728.57	257.68
728.90	257.31
729.23	256.87
729.56	256.60
729.89	256.18
730.22	255.82
730.55	255.47
730.89	255.08
731.22	254.72
731.55	254.62
731.88	254.30
732.21	253.92
732.54	253.63
732.87	253.24
733.20	253.03
733.53	252.86
733.86	252.62
734.19	252.31
734.52	252.10
734.85	251.97
735.18	251.65
735.51	251.36
735.84	251.11
736.17	251.06
736.50	250.81
736.83	250.78
737.16	250.49
737.49	250.29
737.82	250.16
738.15	250.03
738.48	249.69
738.81	249.51
739.14	249.33
739.47	249.05
739.80	248.90
740.13	248.65
740.46	248.28
740.79	248.09
741.12	247.91
741.45	247.72
741.78	247.46
742.11	247.28
742.44	247.10
742.77	246.90
743.10	246.68
743.43	246.29
743.75	246.01
744.08	246.17
744.41	246.05
744.74	245.94
745.07	245.63
745.40	245.55
745.73	245.46
746.06	245.30
746.39	245.15
746.71	245.07
747.04	244.95
747.37	244.83
747.70	244.69
748.03	244.44
748.36	244.29
748.68	244.12
749.01	243.87
749.34	243.75
749.67	243.59
750.00	243.45
750.33	243.55
750.65	243.44
750.98	243.01
751.31	242.87
751.64	242.67
751.97	242.68
752.29	242.52
752.62	242.30
752.95	242.14
753.28	242.02
753.60	241.77
753.93	241.66
754.26	241.56
754.59	241.33
754.91	241.16
755.24	240.95
755.57	240.66
755.90	240.65
756.22	240.46
756.55	240.52
756.88	240.35
757.20	240.09
757.53	239.82
757.86	239.77
758.19	239.60
758.51	239.50
758.84	239.28
759.17	239.07
759.49	238.88
759.82	238.83
760.15	238.84
760.47	238.82
760.80	238.63
761.13	238.65
761.45	238.53
761.78	238.50
762.11	238.39
762.43	238.32
762.76	238.10
763.08	237.96
763.41	237.67
763.74	237.57
764.06	237.47
764.39	237.38
764.71	237.26
765.04	237.21
765.37	237.09
765.69	236.97
766.02	236.90
766.34	236.73
766.67	236.65
767.00	236.39
767.32	236.33
767.65	236.30
767.97	236.08
768.30	235.87
768.62	235.89
768.95	235.81
769.27	235.73
769.60	235.69
769.92	235.60
770.25	235.44
770.57	235.25
770.90	235.10
771.22	234.99
771.55	234.84
771.87	234.73
772.20	234.62
772.52	234.73
772.85	234.81
773.17	234.75
773.50	234.51
773.82	234.42
774.15	234.20
774.47	234.10
774.80	233.97
775.12	233.94
775.45	233.73
775.77	233.70
776.09	233.68
776.42	233.77
776.74	233.69
777.07	233.66
777.39	233.65
777.72	233.59
778.04	233.61
778.36	233.58
778.69	233.41
779.01	233.39
779.33	233.11
779.66	232.85
779.98	232.88
780.31	232.99
780.63	233.08
780.95	233.01
781.28	233.00
781.60	232.96
781.92	233.01
782.25	233.01
782.57	233.03
782.89	232.94
783.22	232.73
783.54	232.76
783.86	232.73
784.19	232.69
784.51	232.82
784.83	232.79
785.16	232.72
785.48	232.80
785.80	232.77
786.12	232.72
786.45	232.70
786.77	232.60
787.09	232.49
787.42	232.39
787.74	232.43
788.06	232.42
788.38	232.42
788.71	232.40
789.03	232.40
789.35	232.35
789.67	232.40
789.99	232.38
790.32	232.35
790.64	232.43
790.96	232.65
791.28	232.49
791.61	232.48
791.93	232.47
792.25	232.33
792.57	232.44
792.89	232.48
793.21	232.49
793.54	232.42
793.86	232.34
794.18	232.41
