SpectraSuite Data File
++++++++++++++++++++++++++++++++++++
Date: Fri Feb 01 14:39:57 EST 2013
User: group
Dark Spectrum Present: No
Reference Spectrum Present: No
Number of Sampled Component Spectra: 1
Spectrometers: USB2E7196
Integration Time (usec): 70000 (USB2E7196)
Spectra Averaged: 10 (USB2E7196)
Boxcar Smoothing: 10 (USB2E7196)
Correct for Electrical Dark: No (USB2E7196)
Strobe/Lamp Enabled: No (USB2E7196)
Correct for Detector Non-linearity: No (USB2E7196)
Correct for Stray Light: No (USB2E7196)
Number of Pixels in Processed Spectrum: 2048
>>>>>Begin Processed Spectral Data<<<<<
339.09	0.00
339.48	216.70
339.86	218.70
340.24	218.90
340.63	221.30
341.01	225.70
341.39	222.40
341.78	222.70
342.16	225.60
342.54	227.70
342.93	215.03
343.31	225.81
343.69	226.37
344.07	226.90
344.46	227.38
344.84	227.66
345.22	227.78
345.60	228.08
345.99	228.37
346.37	228.54
346.75	228.56
347.13	228.48
347.52	228.42
347.90	228.55
348.28	228.49
348.66	228.53
349.05	228.48
349.43	228.56
349.81	228.58
350.19	228.69
350.57	228.71
350.96	228.89
351.34	229.01
351.72	229.10
352.10	229.00
352.48	228.99
352.87	229.07
353.25	229.08
353.63	229.13
354.01	229.18
354.39	229.08
354.77	229.11
355.15	229.29
355.54	229.33
355.92	229.20
356.30	229.33
356.68	229.42
357.06	229.47
357.44	229.46
357.82	229.52
358.20	229.50
358.58	229.46
358.97	229.43
359.35	229.51
359.73	229.51
360.11	229.61
360.49	229.61
360.87	229.65
361.25	229.73
361.63	229.82
362.01	229.72
362.39	229.77
362.77	229.84
363.15	229.80
363.53	229.81
363.91	229.78
364.29	229.68
364.67	229.46
365.05	229.47
365.43	229.52
365.81	229.48
366.19	229.63
366.57	229.78
366.95	229.71
367.33	229.55
367.71	229.50
368.09	229.53
368.47	229.59
368.85	229.53
369.23	229.54
369.61	229.39
369.99	229.50
370.37	229.59
370.75	229.53
371.13	229.52
371.51	229.44
371.89	229.50
372.27	229.44
372.65	229.50
373.03	229.43
373.41	229.22
373.78	229.24
374.16	229.02
374.54	228.84
374.92	228.80
375.30	228.78
375.68	228.80
376.06	228.67
376.44	228.59
376.82	228.57
377.19	228.51
377.57	228.55
377.95	228.40
378.33	228.25
378.71	228.20
379.09	228.10
379.47	228.11
379.84	227.92
380.22	227.90
380.60	227.79
380.98	227.63
381.36	227.62
381.73	227.40
382.11	227.43
382.49	227.50
382.87	227.38
383.25	227.36
383.62	227.45
384.00	227.41
384.38	227.38
384.76	227.36
385.13	227.31
385.51	227.14
385.89	227.11
386.27	227.15
386.64	227.18
387.02	227.21
387.40	227.12
387.78	227.16
388.15	227.18
388.53	227.12
388.91	227.17
389.29	227.09
389.66	227.20
390.04	227.10
390.42	227.08
390.79	227.12
391.17	227.07
391.55	226.91
391.92	226.79
392.30	226.89
392.68	226.90
393.05	226.90
393.43	226.91
393.81	227.00
394.18	226.85
394.56	226.72
394.94	226.70
395.31	226.70
395.69	226.81
396.06	226.80
396.44	226.86
396.82	226.90
397.19	227.10
397.57	227.14
397.95	227.18
398.32	227.10
398.70	227.10
399.07	227.29
399.45	227.28
399.82	227.43
400.20	227.33
400.58	227.39
400.95	227.32
401.33	227.43
401.70	227.57
402.08	227.76
402.45	227.92
402.83	228.03
403.20	228.16
403.58	228.27
403.95	228.41
404.33	228.52
404.71	228.66
405.08	228.82
405.46	229.02
405.83	229.20
406.21	229.40
406.58	229.63
406.96	229.78
407.33	229.97
407.70	230.19
408.08	230.57
408.45	230.75
408.83	231.10
409.20	231.33
409.58	231.50
409.95	231.75
410.33	232.00
410.70	232.28
411.08	232.51
411.45	232.78
411.82	233.00
412.20	233.37
412.57	233.87
412.95	234.09
413.32	234.43
413.69	234.78
414.07	235.17
414.44	235.69
414.82	236.12
415.19	236.60
415.56	237.20
415.94	237.67
416.31	238.29
416.68	238.99
417.06	239.67
417.43	240.36
417.81	241.09
418.18	241.77
418.55	242.57
418.93	243.50
419.30	244.36
419.67	245.33
420.04	246.36
420.42	247.21
420.79	248.44
421.16	249.51
421.54	250.76
421.91	251.96
422.28	253.13
422.66	254.47
423.03	255.90
423.40	257.20
423.77	258.57
424.15	260.06
424.52	261.43
424.89	263.04
425.26	264.61
425.64	266.17
426.01	267.91
426.38	269.43
426.75	271.13
427.13	272.80
427.50	274.71
427.87	276.61
428.24	278.46
428.61	280.21
428.99	282.27
429.36	284.25
429.73	286.40
430.10	288.51
430.47	290.56
430.85	292.56
431.22	294.70
431.59	297.12
431.96	299.36
432.33	301.83
432.70	304.31
433.08	307.00
433.45	309.75
433.82	312.29
434.19	315.49
434.56	318.38
434.93	321.24
435.30	323.95
435.68	326.78
436.05	329.70
436.42	332.55
436.79	335.10
437.16	337.97
437.53	340.95
437.90	343.90
438.27	346.77
438.64	349.73
439.01	352.49
439.38	354.77
439.75	357.02
440.13	359.68
440.50	362.23
440.87	364.33
441.24	366.32
441.61	368.69
441.98	370.13
442.35	372.05
442.72	374.00
443.09	375.96
443.46	377.10
443.83	377.80
444.20	378.43
444.57	379.50
444.94	379.89
445.31	380.36
445.68	380.86
446.05	381.08
446.42	380.90
446.79	380.66
447.16	380.33
447.53	380.15
447.90	379.17
448.27	378.00
448.64	376.62
449.01	375.63
449.37	373.73
449.74	372.00
450.11	369.93
450.48	367.33
450.85	364.69
451.22	362.67
451.59	360.74
451.96	358.78
452.33	355.96
452.70	353.51
453.07	350.52
453.43	347.60
453.80	344.83
454.17	342.08
454.54	339.56
454.91	336.86
455.28	334.11
455.65	331.50
456.02	329.02
456.38	326.64
456.75	323.73
457.12	321.35
457.49	319.11
457.86	316.68
458.23	314.98
458.59	312.91
458.96	310.69
459.33	308.81
459.70	306.99
460.07	305.52
460.43	304.02
460.80	302.40
461.17	300.83
461.54	299.26
461.91	297.74
462.27	296.07
462.64	294.70
463.01	293.21
463.38	291.86
463.74	290.35
464.11	289.21
464.48	288.12
464.85	287.04
465.21	286.00
465.58	285.16
465.95	283.90
466.32	282.94
466.68	281.84
467.05	280.90
467.42	279.91
467.78	278.96
468.15	277.74
468.52	277.16
468.88	276.17
469.25	275.30
469.62	274.70
469.98	273.99
470.35	273.25
470.72	272.65
471.08	271.82
471.45	271.09
471.82	270.35
472.18	269.74
472.55	269.12
472.92	268.49
473.28	267.86
473.65	267.32
474.02	266.70
474.38	266.36
474.75	265.90
475.11	265.37
475.48	264.81
475.85	264.53
476.21	263.90
476.58	263.53
476.94	263.10
477.31	262.56
477.67	262.20
478.04	261.89
478.41	261.52
478.77	261.52
479.14	261.19
479.50	260.86
479.87	260.62
480.23	260.34
480.60	259.95
480.96	259.53
481.33	259.32
481.69	259.09
482.06	258.92
482.42	258.63
482.79	258.42
483.15	258.29
483.52	258.15
483.88	258.02
484.25	257.91
484.61	257.93
484.98	257.87
485.34	257.94
485.71	257.94
486.07	257.97
486.44	257.70
486.80	257.83
487.17	257.86
487.53	257.89
487.90	257.93
488.26	258.25
488.62	258.55
488.99	258.54
489.35	258.68
489.72	258.73
490.08	258.81
490.44	258.93
490.81	259.19
491.17	259.40
491.54	259.71
491.90	259.93
492.26	260.19
492.63	260.51
492.99	260.71
493.36	261.08
493.72	261.46
494.08	261.89
494.45	262.33
494.81	262.87
495.17	263.37
495.54	264.04
495.90	264.52
496.26	265.01
496.63	265.69
496.99	266.39
497.35	267.15
497.72	268.01
498.08	268.81
498.44	269.67
498.80	270.54
499.17	271.39
499.53	272.26
499.89	273.23
500.26	274.23
500.62	275.32
500.98	276.50
501.34	277.72
501.71	279.02
502.07	280.29
502.43	281.60
502.79	282.94
503.16	284.43
503.52	285.98
503.88	287.50
504.24	289.28
504.60	291.00
504.97	292.74
505.33	294.58
505.69	296.70
506.05	298.78
506.41	300.82
506.78	303.09
507.14	305.50
507.50	307.96
507.86	310.50
508.22	313.12
508.59	315.64
508.95	318.48
509.31	321.42
509.67	324.38
510.03	327.46
510.39	330.81
510.75	334.09
511.12	337.43
511.48	341.14
511.84	344.69
512.20	348.39
512.56	352.20
512.92	356.20
513.28	360.20
513.64	364.35
514.00	368.75
514.37	373.12
514.73	377.73
515.09	382.27
515.45	386.94
515.81	391.69
516.17	396.70
516.53	401.70
516.89	406.76
517.25	412.05
517.61	417.62
517.97	423.03
518.33	428.52
518.69	434.32
519.05	440.20
519.41	446.44
519.77	452.79
520.13	459.21
520.49	465.55
520.85	472.05
521.21	478.55
521.57	485.45
521.93	492.04
522.29	498.89
522.65	505.81
523.01	512.78
523.37	519.86
523.73	527.10
524.09	534.45
524.45	541.95
524.81	549.50
525.17	557.20
525.53	564.94
525.89	572.99
526.25	580.95
526.61	588.84
526.97	596.88
527.33	604.99
527.68	613.24
528.04	621.41
528.40	629.88
528.76	638.62
529.12	647.00
529.48	655.88
529.84	664.60
530.20	673.47
530.56	682.87
530.91	692.35
531.27	701.94
531.63	711.37
531.99	720.57
532.35	729.83
532.71	738.80
533.07	748.48
533.42	757.85
533.78	767.36
534.14	776.99
534.50	786.13
534.86	795.72
535.21	805.09
535.57	815.12
535.93	825.02
536.29	834.36
536.65	844.30
537.00	853.91
537.36	863.85
537.72	873.57
538.08	883.10
538.44	892.50
538.79	901.77
539.15	910.96
539.51	920.77
539.87	930.63
540.22	940.40
540.58	949.86
540.94	959.45
541.29	968.97
541.65	978.52
542.01	988.60
542.37	998.17
542.72	1007.91
543.08	1017.12
543.44	1026.32
543.79	1035.53
544.15	1044.66
544.51	1054.23
544.87	1063.13
545.22	1072.40
545.58	1081.41
545.94	1089.97
546.29	1098.75
546.65	1107.86
547.01	1116.30
547.36	1124.70
547.72	1133.21
548.07	1141.52
548.43	1150.02
548.79	1158.36
549.14	1166.34
549.50	1173.99
549.86	1181.57
550.21	1188.95
550.57	1196.60
550.92	1204.29
551.28	1212.02
551.64	1219.30
551.99	1226.40
552.35	1233.52
552.70	1240.84
553.06	1247.91
553.41	1255.41
553.77	1262.77
554.13	1269.45
554.48	1276.68
554.84	1283.34
555.19	1290.11
555.55	1296.62
555.90	1302.53
556.26	1308.74
556.61	1315.17
556.97	1321.18
557.32	1327.77
557.68	1333.94
558.03	1340.07
558.39	1345.64
558.74	1351.85
559.10	1357.83
559.45	1363.77
559.81	1369.79
560.16	1374.89
560.52	1380.30
560.87	1385.64
561.23	1390.40
561.58	1395.96
561.94	1400.64
562.29	1405.52
562.64	1409.77
563.00	1414.44
563.35	1420.01
563.71	1424.90
564.06	1429.45
564.42	1434.32
564.77	1438.30
565.12	1443.03
565.48	1447.60
565.83	1451.99
566.19	1456.01
566.54	1459.81
566.89	1463.50
567.25	1467.29
567.60	1471.38
567.96	1474.96
568.31	1478.28
568.66	1481.63
569.02	1484.71
569.37	1487.48
569.72	1490.85
570.08	1494.06
570.43	1496.99
570.78	1499.06
571.14	1501.05
571.49	1503.54
571.84	1506.29
572.20	1508.45
572.55	1510.03
572.90	1511.24
573.26	1512.86
573.61	1514.12
573.96	1515.51
574.31	1516.07
574.67	1516.20
575.02	1516.59
575.37	1517.27
575.72	1517.50
576.08	1517.97
576.43	1517.60
576.78	1518.15
577.13	1518.16
577.49	1518.43
577.84	1518.23
578.19	1518.18
578.54	1517.71
578.90	1516.63
579.25	1514.98
579.60	1514.39
579.95	1513.47
580.30	1512.65
580.66	1511.28
581.01	1510.16
581.36	1509.05
581.71	1508.50
582.06	1507.90
582.42	1506.47
582.77	1504.96
583.12	1503.76
583.47	1502.48
583.82	1501.71
584.17	1499.76
584.53	1498.07
584.88	1496.67
585.23	1495.05
585.58	1493.15
585.93	1491.59
586.28	1490.45
586.63	1489.29
586.98	1487.34
587.34	1485.61
587.69	1483.49
588.04	1481.69
588.39	1479.97
588.74	1477.03
589.09	1474.45
589.44	1471.86
589.79	1469.79
590.14	1467.69
590.49	1464.92
590.84	1462.10
591.19	1459.33
591.54	1456.44
591.89	1452.88
592.25	1449.71
592.60	1446.18
592.95	1442.49
593.30	1439.29
593.65	1435.48
594.00	1431.59
594.35	1428.79
594.70	1424.85
595.05	1421.60
595.40	1417.96
595.75	1414.00
596.10	1411.08
596.45	1407.90
596.80	1404.74
597.15	1401.35
597.50	1397.92
597.85	1395.19
598.19	1391.77
598.54	1388.52
598.89	1385.87
599.24	1383.57
599.59	1379.93
599.94	1376.79
600.29	1373.69
600.64	1370.10
600.99	1366.35
601.34	1362.71
601.69	1358.67
602.04	1355.26
602.39	1351.80
602.74	1348.53
603.08	1345.13
603.43	1341.89
603.78	1338.00
604.13	1334.10
604.48	1330.05
604.83	1326.00
605.18	1322.03
605.53	1317.95
605.87	1313.36
606.22	1308.84
606.57	1303.99
606.92	1299.86
607.27	1295.85
607.62	1292.19
607.96	1288.23
608.31	1284.50
608.66	1280.20
609.01	1275.40
609.36	1270.61
609.70	1265.31
610.05	1260.03
610.40	1254.83
610.75	1249.69
611.10	1244.84
611.44	1239.48
611.79	1234.69
612.14	1229.49
612.49	1223.72
612.83	1218.50
613.18	1213.49
613.53	1208.49
613.88	1203.11
614.22	1197.78
614.57	1192.19
614.92	1186.58
615.27	1181.60
615.61	1176.09
615.96	1170.98
616.31	1166.20
616.65	1161.99
617.00	1157.17
617.35	1152.40
617.70	1147.50
618.04	1141.98
618.39	1136.94
618.74	1132.47
619.08	1126.98
619.43	1121.93
619.78	1117.07
620.12	1112.21
620.47	1107.13
620.82	1101.73
621.16	1097.00
621.51	1092.04
621.85	1087.04
622.20	1081.76
622.55	1076.68
622.89	1071.82
623.24	1067.28
623.59	1062.65
623.93	1057.43
624.28	1052.66
624.62	1047.98
624.97	1043.30
625.32	1038.82
625.66	1033.99
626.01	1029.13
626.35	1024.56
626.70	1019.67
627.04	1015.48
627.39	1010.58
627.73	1005.61
628.08	1001.13
628.43	996.14
628.77	991.38
629.12	986.73
629.46	981.82
629.81	976.20
630.15	970.82
630.50	965.33
630.84	959.54
631.19	954.36
631.53	949.31
631.88	943.90
632.22	938.67
632.57	933.69
632.91	928.54
633.26	923.15
633.60	918.00
633.95	913.14
634.29	907.99
634.64	903.40
634.98	898.48
635.32	893.80
635.67	889.42
636.01	884.67
636.36	879.87
636.70	875.42
637.05	871.39
637.39	867.20
637.73	863.00
638.08	859.29
638.42	855.02
638.77	850.72
639.11	846.43
639.45	841.91
639.80	837.33
640.14	832.99
640.49	828.72
640.83	824.31
641.17	820.13
641.52	815.62
641.86	811.03
642.20	806.98
642.55	802.34
642.89	797.82
643.23	793.58
643.58	789.60
643.92	785.12
644.26	780.49
644.61	776.53
644.95	772.12
645.29	767.05
645.64	762.36
645.98	757.67
646.32	753.14
646.66	748.90
647.01	744.67
647.35	740.53
647.69	736.23
648.04	732.36
648.38	727.71
648.72	723.18
649.06	718.75
649.41	714.18
649.75	709.61
650.09	705.21
650.43	700.68
650.78	696.09
651.12	691.67
651.46	687.58
651.80	683.24
652.14	679.14
652.49	675.09
652.83	671.32
653.17	667.28
653.51	663.28
653.85	659.22
654.20	655.03
654.54	650.59
654.88	646.33
655.22	641.92
655.56	637.90
655.90	634.17
656.25	630.44
656.59	626.72
656.93	623.19
657.27	619.53
657.61	615.66
657.95	612.16
658.29	608.69
658.64	604.90
658.98	600.80
659.32	596.69
659.66	593.03
660.00	589.22
660.34	585.67
660.68	582.14
661.02	578.45
661.36	575.08
661.70	571.67
662.05	568.56
662.39	565.38
662.73	562.01
663.07	558.60
663.41	555.24
663.75	551.90
664.09	548.52
664.43	545.00
664.77	542.15
665.11	538.68
665.45	535.64
665.79	532.58
666.13	529.70
666.47	526.98
666.81	523.87
667.15	520.52
667.49	517.66
667.83	514.65
668.17	511.67
668.51	508.58
668.85	505.88
669.19	503.03
669.53	500.18
669.87	497.53
670.21	494.96
670.55	492.27
670.89	489.87
671.23	487.43
671.57	485.28
671.91	482.41
672.25	480.20
672.58	477.62
672.92	475.22
673.26	472.76
673.60	470.37
673.94	468.22
674.28	466.27
674.62	464.13
674.96	461.98
675.30	459.96
675.64	457.85
675.97	455.63
676.31	453.46
676.65	451.20
676.99	449.10
677.33	446.76
677.67	444.56
678.01	442.10
678.34	440.05
678.68	437.73
679.02	435.77
679.36	433.51
679.70	431.37
680.04	429.33
680.37	427.23
680.71	425.15
681.05	423.14
681.39	421.09
681.73	419.07
682.06	417.36
682.40	415.50
682.74	413.64
683.08	411.85
683.42	409.84
683.75	408.09
684.09	406.17
684.43	404.37
684.77	402.57
685.10	400.83
685.44	398.97
685.78	397.46
686.12	395.66
686.45	393.85
686.79	392.20
687.13	390.41
687.46	388.90
687.80	387.37
688.14	385.67
688.48	384.01
688.81	382.25
689.15	380.47
689.49	378.70
689.82	377.00
690.16	375.28
690.50	373.73
690.83	372.08
691.17	370.40
691.51	368.79
691.84	367.26
692.18	365.81
692.52	364.25
692.85	362.61
693.19	361.11
693.52	359.61
693.86	358.07
694.20	356.66
694.53	355.07
694.87	353.38
695.21	352.03
695.54	350.63
695.88	349.19
696.21	347.67
696.55	346.18
696.88	344.81
697.22	343.44
697.56	342.05
697.89	340.64
698.23	339.40
698.56	338.02
698.90	336.71
699.23	335.28
699.57	333.81
699.90	332.49
700.24	331.07
700.58	329.79
700.91	328.47
701.25	327.24
701.58	326.15
701.92	325.02
702.25	323.77
702.59	322.61
702.92	321.47
703.26	320.36
703.59	319.29
703.93	318.32
704.26	317.25
704.60	316.27
704.93	315.33
705.26	314.16
705.60	313.19
705.93	312.26
706.27	311.39
706.60	310.64
706.94	309.68
707.27	308.80
707.61	308.05
707.94	307.24
708.27	306.29
708.61	305.20
708.94	304.35
709.28	303.56
709.61	302.63
709.94	301.89
710.28	301.07
710.61	300.25
710.95	299.27
711.28	298.72
711.61	297.88
711.95	297.03
712.28	296.33
712.61	295.50
712.95	294.82
713.28	294.12
713.61	293.32
713.95	292.50
714.28	291.78
714.61	290.93
714.95	290.34
715.28	289.60
715.61	288.98
715.95	288.33
716.28	287.64
716.61	287.08
716.95	286.39
717.28	285.75
717.61	285.17
717.94	284.58
718.28	283.70
718.61	283.03
718.94	282.51
719.27	281.87
719.61	281.42
719.94	280.91
720.27	280.24
720.60	279.69
720.94	279.19
721.27	278.75
721.60	278.36
721.93	277.82
722.27	277.43
722.60	277.01
722.93	276.64
723.26	276.18
723.59	275.71
723.93	275.22
724.26	274.71
724.59	274.22
724.92	273.88
725.25	273.49
725.59	273.04
725.92	272.64
726.25	272.12
726.58	271.65
726.91	271.08
727.24	270.74
727.57	270.38
727.91	269.84
728.24	269.47
728.57	269.14
728.90	268.67
729.23	268.21
729.56	267.88
729.89	267.44
730.22	266.97
730.55	266.44
730.89	266.03
731.22	265.61
731.55	265.32
731.88	264.95
732.21	264.54
732.54	264.19
732.87	263.75
733.20	263.44
733.53	263.04
733.86	262.70
734.19	262.40
734.52	262.00
734.85	261.87
735.18	261.40
735.51	260.82
735.84	260.45
736.17	260.08
736.50	259.55
736.83	259.34
737.16	259.01
737.49	258.80
737.82	258.42
738.15	258.15
738.48	257.80
738.81	257.40
739.14	257.08
739.47	256.70
739.80	256.38
740.13	256.11
740.46	255.76
740.79	255.43
741.12	254.97
741.45	254.74
741.78	254.36
742.11	254.14
742.44	253.80
742.77	253.52
743.10	253.20
743.43	252.95
743.75	252.39
744.08	252.32
744.41	251.90
744.74	251.63
745.07	251.36
745.40	251.03
745.73	250.65
746.06	250.37
746.39	250.07
746.71	249.78
747.04	249.54
747.37	249.31
747.70	249.06
748.03	248.82
748.36	248.50
748.68	248.20
749.01	247.93
749.34	247.73
749.67	247.52
750.00	247.31
750.33	247.18
750.65	247.06
750.98	246.61
751.31	246.50
751.64	246.25
751.97	245.94
752.29	245.84
752.62	245.58
752.95	245.37
753.28	245.25
753.60	244.97
753.93	244.71
754.26	244.41
754.59	244.19
754.91	243.96
755.24	243.73
755.57	243.48
755.90	243.25
756.22	243.03
756.55	242.70
756.88	242.47
757.20	242.19
757.53	241.99
757.86	241.82
758.19	241.62
758.51	241.46
758.84	241.25
759.17	240.94
759.49	240.88
759.82	240.89
760.15	240.76
760.47	240.62
760.80	240.50
761.13	240.54
761.45	240.46
761.78	240.27
762.11	240.21
762.43	240.10
762.76	239.94
763.08	239.88
763.41	239.90
763.74	239.83
764.06	239.76
764.39	239.61
764.71	239.49
765.04	239.27
765.37	239.21
765.69	239.20
766.02	239.18
766.34	239.08
766.67	238.77
767.00	238.75
767.32	238.78
767.65	238.84
767.97	238.67
768.30	238.58
768.62	238.54
768.95	238.28
769.27	238.21
769.60	238.15
769.92	238.07
770.25	237.90
770.57	237.81
770.90	237.72
771.22	237.60
771.55	237.49
771.87	237.55
772.20	237.38
772.52	237.38
772.85	237.43
773.17	237.38
773.50	237.42
773.82	237.19
774.15	237.03
774.47	236.80
774.80	236.71
775.12	236.62
775.45	236.58
775.77	236.60
776.09	236.56
776.42	236.51
776.74	236.48
777.07	236.42
777.39	236.34
777.72	236.27
778.04	236.26
778.36	236.18
778.69	236.05
779.01	236.00
779.33	235.92
779.66	235.68
779.98	235.65
780.31	235.52
780.63	235.57
780.95	235.58
781.28	235.42
781.60	235.40
781.92	235.39
782.25	235.31
782.57	235.37
782.89	235.26
783.22	235.29
783.54	235.16
783.86	235.10
784.19	235.06
784.51	234.98
784.83	234.78
785.16	234.69
785.48	234.67
785.80	234.62
786.12	234.44
786.45	234.39
786.77	234.27
787.09	234.11
787.42	234.07
787.74	233.97
788.06	233.99
788.38	233.91
788.71	233.74
789.03	233.66
