SpectraSuite Data File
++++++++++++++++++++++++++++++++++++
Date: Fri Feb 01 14:39:22 EST 2013
User: group
Dark Spectrum Present: No
Reference Spectrum Present: No
Number of Sampled Component Spectra: 1
Spectrometers: USB2E7196
Integration Time (usec): 70000 (USB2E7196)
Spectra Averaged: 10 (USB2E7196)
Boxcar Smoothing: 10 (USB2E7196)
Correct for Electrical Dark: No (USB2E7196)
Strobe/Lamp Enabled: No (USB2E7196)
Correct for Detector Non-linearity: No (USB2E7196)
Correct for Stray Light: No (USB2E7196)
Number of Pixels in Processed Spectrum: 2048
>>>>>Begin Processed Spectral Data<<<<<
339.09	0.00
339.48	216.40
339.86	218.10
340.24	219.60
340.63	219.60
341.01	223.40
341.39	222.10
341.78	225.80
342.16	225.10
342.54	225.80
342.93	214.45
343.31	225.29
343.69	225.81
344.07	226.23
344.46	226.69
344.84	227.04
345.22	227.27
345.60	227.62
345.99	227.77
346.37	227.97
346.75	228.04
347.13	228.10
347.52	228.24
347.90	228.34
348.28	228.39
348.66	228.41
349.05	228.40
349.43	228.47
349.81	228.56
350.19	228.68
350.57	228.68
350.96	228.70
351.34	228.80
351.72	228.80
352.10	228.83
352.48	228.77
352.87	228.84
353.25	228.93
353.63	229.05
354.01	229.08
354.39	229.09
354.77	229.25
355.15	229.40
355.54	229.47
355.92	229.46
356.30	229.50
356.68	229.76
357.06	229.79
357.44	229.82
357.82	229.82
358.20	229.90
358.58	230.00
358.97	230.08
359.35	230.18
359.73	230.29
360.11	230.36
360.49	230.41
360.87	230.52
361.25	230.54
361.63	230.52
362.01	230.66
362.39	230.64
362.77	230.65
363.15	230.59
363.53	230.63
363.91	230.60
364.29	230.62
364.67	230.43
365.05	230.47
365.43	230.47
365.81	230.55
366.19	230.69
366.57	230.63
366.95	230.59
367.33	230.41
367.71	230.47
368.09	230.50
368.47	230.55
368.85	230.53
369.23	230.55
369.61	230.44
369.99	230.36
370.37	230.41
370.75	230.48
371.13	230.38
371.51	230.26
371.89	230.36
372.27	230.34
372.65	230.25
373.03	230.14
373.41	230.11
373.78	230.00
374.16	229.70
374.54	229.57
374.92	229.37
375.30	229.39
375.68	229.18
376.06	229.20
376.44	228.97
376.82	228.84
377.19	228.71
377.57	228.52
377.95	228.26
378.33	228.10
378.71	227.86
379.09	227.82
379.47	227.71
379.84	227.55
380.22	227.39
380.60	227.34
380.98	227.32
381.36	227.19
381.73	227.08
382.11	227.15
382.49	227.22
382.87	227.14
383.25	227.07
383.62	227.32
384.00	227.08
384.38	227.18
384.76	227.17
385.13	227.15
385.51	227.13
385.89	227.13
386.27	227.10
386.64	227.04
387.02	226.93
387.40	226.87
387.78	226.87
388.15	226.84
388.53	226.76
388.91	226.64
389.29	226.62
389.66	226.67
390.04	226.52
390.42	226.51
390.79	226.55
391.17	226.52
391.55	226.27
391.92	226.34
392.30	226.23
392.68	226.11
393.05	226.10
393.43	226.13
393.81	226.19
394.18	226.22
394.56	226.25
394.94	226.36
395.31	226.39
395.69	226.39
396.06	226.50
396.44	226.58
396.82	226.62
397.19	226.77
397.57	226.79
397.95	226.91
398.32	226.79
398.70	226.99
399.07	227.18
399.45	227.28
399.82	227.35
400.20	227.48
400.58	227.67
400.95	227.79
401.33	228.00
401.70	228.16
402.08	228.35
402.45	228.42
402.83	228.49
403.20	228.65
403.58	228.81
403.95	228.90
404.33	229.05
404.71	229.28
405.08	229.53
405.46	229.76
405.83	229.84
406.21	230.05
406.58	230.15
406.96	230.31
407.33	230.55
407.70	230.77
408.08	231.09
408.45	231.36
408.83	231.57
409.20	231.80
409.58	232.04
409.95	232.28
410.33	232.64
410.70	232.97
411.08	233.24
411.45	233.59
411.82	233.88
412.20	234.28
412.57	234.77
412.95	234.90
413.32	235.31
413.69	235.80
414.07	236.31
414.44	236.79
414.82	237.18
415.19	237.59
415.56	238.10
415.94	238.65
416.31	239.23
416.68	239.85
417.06	240.53
417.43	241.20
417.81	241.91
418.18	242.81
418.55	243.62
418.93	244.52
419.30	245.40
419.67	246.44
420.04	247.32
420.42	248.18
420.79	249.47
421.16	250.60
421.54	251.87
421.91	253.11
422.28	254.47
422.66	255.87
423.03	257.37
423.40	258.88
423.77	260.33
424.15	261.86
424.52	263.40
424.89	265.11
425.26	266.70
425.64	268.27
426.01	269.75
426.38	271.47
426.75	273.40
427.13	275.35
427.50	277.27
427.87	279.39
428.24	281.41
428.61	283.35
428.99	285.58
429.36	287.71
429.73	290.00
430.10	292.19
430.47	294.50
430.85	296.74
431.22	299.09
431.59	301.92
431.96	304.42
432.33	307.19
432.70	309.88
433.08	313.06
433.45	316.08
433.82	319.09
434.19	322.39
434.56	325.56
434.93	328.47
435.30	331.48
435.68	334.68
436.05	338.01
436.42	341.14
436.79	344.13
437.16	347.33
437.53	350.69
437.90	353.92
438.27	357.14
438.64	360.61
439.01	363.74
439.38	366.32
439.75	369.12
440.13	372.14
440.50	375.04
440.87	377.36
441.24	379.62
441.61	382.29
441.98	384.19
442.35	386.40
442.72	388.75
443.09	391.13
443.46	392.42
443.83	393.41
444.20	394.19
444.57	395.37
444.94	396.02
445.31	396.71
445.68	397.36
446.05	397.70
446.42	397.58
446.79	397.34
447.16	396.90
447.53	396.59
447.90	395.60
448.27	394.50
448.64	392.94
449.01	391.97
449.37	389.90
449.74	388.05
450.11	385.80
450.48	383.20
450.85	380.31
451.22	378.17
451.59	375.93
451.96	373.94
452.33	370.95
452.70	368.29
453.07	365.03
453.43	361.86
453.80	358.87
454.17	355.80
454.54	353.03
454.91	350.26
455.28	347.29
455.65	344.43
456.02	341.83
456.38	339.40
456.75	336.37
457.12	333.86
457.49	331.29
457.86	328.54
458.23	326.52
458.59	324.29
458.96	321.90
459.33	319.73
459.70	317.59
460.07	315.80
460.43	313.90
460.80	312.14
461.17	310.56
461.54	308.63
461.91	306.95
462.27	305.11
462.64	303.53
463.01	301.85
463.38	300.34
463.74	298.50
464.11	297.13
464.48	295.89
464.85	294.61
465.21	293.55
465.58	292.62
465.95	291.10
466.32	289.96
466.68	288.76
467.05	287.67
467.42	286.58
467.78	285.53
468.15	284.53
468.52	283.71
468.88	282.56
469.25	281.61
469.62	280.75
469.98	279.91
470.35	278.99
470.72	278.30
471.08	277.35
471.45	276.60
471.82	275.85
472.18	275.06
472.55	274.41
472.92	273.53
473.28	272.82
473.65	272.14
474.02	271.46
474.38	270.90
474.75	270.35
475.11	269.77
475.48	269.23
475.85	268.63
476.21	268.04
476.58	267.62
476.94	267.28
477.31	266.90
477.67	266.53
478.04	266.14
478.41	265.84
478.77	265.74
479.14	265.40
479.50	265.13
479.87	264.88
480.23	264.66
480.60	264.45
480.96	264.18
481.33	264.07
481.69	263.95
482.06	263.84
482.42	263.63
482.79	263.46
483.15	263.37
483.52	263.31
483.88	263.17
484.25	263.07
484.61	262.89
484.98	262.78
485.34	262.76
485.71	262.80
486.07	262.78
486.44	262.55
486.80	262.61
487.17	262.58
487.53	262.61
487.90	262.54
488.26	262.73
488.62	262.80
488.99	262.97
489.35	263.00
489.72	263.18
490.08	263.39
490.44	263.53
490.81	263.60
491.17	263.89
491.54	264.07
491.90	264.30
492.26	264.62
492.63	264.90
492.99	265.10
493.36	265.33
493.72	265.63
494.08	265.83
494.45	266.07
494.81	266.37
495.17	266.70
495.54	267.16
495.90	267.46
496.26	267.90
496.63	268.26
496.99	268.70
497.35	269.00
497.72	269.37
498.08	269.81
498.44	270.36
498.80	270.75
499.17	271.28
499.53	271.84
499.89	272.36
500.26	272.99
500.62	273.54
500.98	274.25
501.34	274.71
501.71	275.47
502.07	276.16
502.43	276.81
502.79	277.58
503.16	278.20
503.52	279.05
503.88	279.85
504.24	280.67
504.60	281.63
504.97	282.65
505.33	283.64
505.69	284.82
506.05	285.84
506.41	286.97
506.78	288.16
507.14	289.17
507.50	290.37
507.86	291.58
508.22	293.02
508.59	294.28
508.95	295.82
509.31	297.49
509.67	298.98
510.03	300.75
510.39	302.37
510.75	304.12
511.12	305.97
511.48	307.78
511.84	309.75
512.20	311.65
512.56	313.72
512.92	315.95
513.28	318.20
513.64	320.61
514.00	323.06
514.37	325.56
514.73	328.31
515.09	331.05
515.45	333.90
515.81	336.67
516.17	339.69
516.53	342.64
516.89	345.59
517.25	349.03
517.61	352.37
517.97	355.83
518.33	359.35
518.69	362.93
519.05	366.65
519.41	370.35
519.77	374.44
520.13	378.56
520.49	382.57
520.85	386.51
521.21	390.70
521.57	394.85
521.93	399.16
522.29	403.72
522.65	408.30
523.01	412.82
523.37	417.37
523.73	422.32
524.09	427.30
524.45	432.53
524.81	437.47
525.17	442.76
525.53	448.22
525.89	453.69
526.25	459.25
526.61	464.70
526.97	470.50
527.33	476.09
527.68	481.86
528.04	487.83
528.40	493.85
528.76	500.11
529.12	506.63
529.48	513.15
529.84	519.33
530.20	525.94
530.56	532.81
530.91	539.87
531.27	546.52
531.63	553.39
531.99	560.22
532.35	566.90
532.71	573.76
533.07	580.72
533.42	587.93
533.78	595.02
534.14	602.42
534.50	609.51
534.86	616.97
535.21	624.14
535.57	631.60
535.93	639.28
536.29	646.60
536.65	653.97
537.00	661.28
537.36	668.73
537.72	676.17
538.08	683.56
538.44	690.95
538.79	698.43
539.15	705.74
539.51	713.32
539.87	721.68
540.22	729.33
540.58	736.99
540.94	744.54
541.29	752.17
541.65	759.85
542.01	767.78
542.37	775.41
542.72	783.18
543.08	790.86
543.44	798.25
543.79	805.72
544.15	813.34
544.51	821.22
544.87	828.83
545.22	836.46
545.58	843.87
545.94	851.30
546.29	858.95
546.65	866.61
547.01	874.04
547.36	881.04
547.72	888.30
548.07	895.26
548.43	902.28
548.79	909.32
549.14	916.04
549.50	922.80
549.86	929.31
550.21	936.05
550.57	943.09
550.92	950.23
551.28	956.77
551.64	963.29
551.99	969.97
552.35	976.54
552.70	982.81
553.06	989.19
553.41	995.40
553.77	1001.91
554.13	1008.25
554.48	1014.48
554.84	1020.68
555.19	1026.90
555.55	1033.33
555.90	1039.13
556.26	1045.08
556.61	1051.28
556.97	1056.92
557.32	1063.30
557.68	1069.07
558.03	1074.23
558.39	1079.58
558.74	1085.88
559.10	1091.43
559.45	1096.84
559.81	1102.87
560.16	1108.22
560.52	1113.61
560.87	1119.32
561.23	1124.07
561.58	1129.08
561.94	1133.82
562.29	1138.38
562.64	1143.10
563.00	1147.77
563.35	1153.30
563.71	1158.39
564.06	1163.23
564.42	1168.10
564.77	1172.33
565.12	1177.06
565.48	1181.75
565.83	1186.08
566.19	1190.12
566.54	1194.62
566.89	1198.33
567.25	1201.98
567.60	1206.39
567.96	1210.22
568.31	1213.66
568.66	1217.26
569.02	1221.03
569.37	1224.31
569.72	1227.69
570.08	1230.97
570.43	1233.93
570.78	1236.45
571.14	1238.78
571.49	1240.93
571.84	1243.93
572.20	1245.86
572.55	1248.07
572.90	1250.07
573.26	1252.20
573.61	1254.18
573.96	1255.51
574.31	1257.12
574.67	1258.21
575.02	1259.17
575.37	1260.34
575.72	1261.15
576.08	1262.60
576.43	1263.31
576.78	1264.69
577.13	1265.99
577.49	1266.99
577.84	1267.79
578.19	1268.28
578.54	1269.07
578.90	1269.70
579.25	1269.11
579.60	1269.54
579.95	1269.50
580.30	1269.40
580.66	1269.11
581.01	1268.29
581.36	1268.61
581.71	1268.55
582.06	1268.44
582.42	1267.60
582.77	1266.99
583.12	1266.56
583.47	1265.97
583.82	1265.60
584.17	1264.59
584.53	1263.69
584.88	1262.77
585.23	1261.84
585.58	1261.03
585.93	1259.74
586.28	1258.88
586.63	1258.40
586.98	1257.63
587.34	1256.56
587.69	1255.59
588.04	1254.84
588.39	1254.12
588.74	1252.11
589.09	1250.38
589.44	1248.67
589.79	1247.59
590.14	1246.65
590.49	1245.08
590.84	1243.00
591.19	1241.42
591.54	1239.32
591.89	1236.55
592.25	1234.35
592.60	1231.88
592.95	1229.52
593.30	1227.42
593.65	1224.90
594.00	1222.06
594.35	1220.34
594.70	1217.74
595.05	1215.06
595.40	1212.18
595.75	1209.34
596.10	1207.15
596.45	1205.21
596.80	1202.97
597.15	1200.52
597.50	1197.51
597.85	1195.18
598.19	1192.84
598.54	1190.12
598.89	1188.12
599.24	1186.42
599.59	1183.98
599.94	1181.57
600.29	1178.81
600.64	1176.20
600.99	1173.28
601.34	1171.13
601.69	1167.71
602.04	1165.49
602.39	1162.94
602.74	1160.49
603.08	1158.26
603.43	1155.66
603.78	1152.30
604.13	1149.50
604.48	1146.36
604.83	1143.34
605.18	1140.56
605.53	1137.23
605.87	1133.62
606.22	1130.02
606.57	1126.73
606.92	1123.38
607.27	1120.72
607.62	1118.34
607.96	1115.39
608.31	1112.73
608.66	1108.94
609.01	1105.40
609.36	1101.00
609.70	1096.82
610.05	1092.71
610.40	1088.97
610.75	1085.10
611.10	1081.30
611.44	1077.11
611.79	1073.56
612.14	1069.77
612.49	1065.28
612.83	1061.45
613.18	1057.47
613.53	1053.55
613.88	1048.99
614.22	1044.56
614.57	1039.92
614.92	1035.10
615.27	1030.88
615.61	1026.32
615.96	1022.40
616.31	1018.41
616.65	1015.12
617.00	1011.81
617.35	1008.12
617.70	1003.57
618.04	998.98
618.39	995.24
618.74	991.51
619.08	987.25
619.43	983.38
619.78	979.75
620.12	975.73
620.47	971.73
620.82	967.56
621.16	963.80
621.51	960.24
621.85	956.34
622.20	952.42
622.55	948.32
622.89	944.48
623.24	940.28
623.59	936.29
623.93	932.48
624.28	928.47
624.62	924.48
624.97	920.90
625.32	917.38
625.66	913.46
626.01	909.34
626.35	905.40
626.70	901.32
627.04	897.30
627.39	893.07
627.73	889.24
628.08	885.53
628.43	881.60
628.77	877.56
629.12	873.69
629.46	869.61
629.81	865.25
630.15	860.96
630.50	857.02
630.84	852.90
631.19	848.39
631.53	844.12
631.88	839.62
632.22	834.96
632.57	830.96
632.91	826.45
633.26	822.49
633.60	818.37
633.95	814.10
634.29	810.04
634.64	806.36
634.98	802.20
635.32	798.20
635.67	794.55
636.01	790.40
636.36	786.28
636.70	782.60
637.05	778.95
637.39	775.48
637.73	771.80
638.08	768.23
638.42	764.82
638.77	761.24
639.11	757.63
639.45	754.06
639.80	750.31
640.14	746.99
640.49	743.12
640.83	739.34
641.17	736.00
641.52	732.43
641.86	728.63
642.20	725.21
642.55	721.56
642.89	717.72
643.23	714.29
643.58	710.98
643.92	707.18
644.26	703.53
644.61	700.09
644.95	696.42
645.29	692.48
645.64	688.49
645.98	684.75
646.32	681.41
646.66	677.98
647.01	674.20
647.35	670.64
647.69	666.98
648.04	663.78
648.38	660.02
648.72	656.25
649.06	652.59
649.41	648.95
649.75	645.02
650.09	641.30
650.43	637.43
650.78	633.57
651.12	629.99
651.46	626.33
651.80	622.77
652.14	619.50
652.49	616.20
652.83	613.02
653.17	609.42
653.51	605.77
653.85	602.27
654.20	598.79
654.54	595.10
654.88	591.77
655.22	588.03
655.56	584.44
655.90	581.18
656.25	577.90
656.59	574.74
656.93	571.93
657.27	568.84
657.61	565.64
657.95	562.62
658.29	559.56
658.64	556.73
658.98	553.27
659.32	549.76
659.66	546.54
660.00	543.14
660.34	540.04
660.68	537.14
661.02	534.10
661.36	531.34
661.70	528.55
662.05	525.64
662.39	523.09
662.73	520.65
663.07	518.04
663.41	515.39
663.75	512.63
664.09	509.86
664.43	507.11
664.77	504.60
665.11	501.94
665.45	499.26
665.79	496.43
666.13	493.88
666.47	491.49
666.81	488.93
667.15	486.13
667.49	483.60
667.83	481.16
668.17	478.58
668.51	475.91
668.85	473.27
669.19	471.09
669.53	468.37
669.87	465.77
670.21	463.24
670.55	460.90
670.89	458.63
671.23	456.37
671.57	454.25
671.91	452.00
672.25	449.77
672.58	447.70
672.92	445.57
673.26	443.62
673.60	441.53
673.94	439.59
674.28	437.88
674.62	436.01
674.96	433.79
675.30	431.96
675.64	430.13
675.97	428.40
676.31	426.47
676.65	424.77
676.99	423.02
677.33	421.04
677.67	418.99
678.01	416.97
678.34	414.85
678.68	412.83
679.02	410.82
679.36	409.02
679.70	407.26
680.04	405.46
680.37	403.63
680.71	402.00
681.05	400.36
681.39	398.79
681.73	397.19
682.06	395.66
682.40	394.14
682.74	392.46
683.08	390.77
683.42	388.95
683.75	387.25
684.09	385.44
684.43	383.86
684.77	382.39
685.10	380.80
685.44	379.31
685.78	377.92
686.12	376.49
686.45	374.85
686.79	373.20
687.13	371.70
687.46	370.17
687.80	368.48
688.14	366.93
688.48	365.35
688.81	363.73
689.15	362.54
689.49	360.89
689.82	359.47
690.16	357.98
690.50	356.83
690.83	355.58
691.17	354.15
691.51	352.85
691.84	351.60
692.18	350.22
692.52	348.90
692.85	347.59
693.19	346.46
693.52	345.32
693.86	344.00
694.20	342.77
694.53	341.53
694.87	340.25
695.21	338.83
695.54	337.47
695.88	336.22
696.21	334.68
696.55	333.53
696.88	332.50
697.22	331.27
697.56	330.07
697.89	328.86
698.23	327.70
698.56	326.51
698.90	325.38
699.23	324.24
699.57	323.14
699.90	322.02
700.24	320.88
700.58	319.65
700.91	318.56
701.25	317.53
701.58	316.46
701.92	315.50
702.25	314.61
702.59	313.74
702.92	312.80
703.26	311.89
703.59	311.00
703.93	309.93
704.26	309.08
704.60	308.12
704.93	307.14
705.26	306.31
705.60	305.50
705.93	304.64
706.27	303.83
706.60	303.02
706.94	302.22
707.27	301.28
707.61	300.56
707.94	299.86
708.27	299.03
708.61	298.28
708.94	297.59
709.28	296.75
709.61	296.05
709.94	295.37
710.28	294.60
710.61	293.69
710.95	292.91
711.28	292.31
711.61	291.53
711.95	290.81
712.28	290.13
712.61	289.33
712.95	288.66
713.28	288.12
713.61	287.46
713.95	286.62
714.28	286.04
714.61	285.29
714.95	284.67
715.28	283.89
715.61	283.15
715.95	282.54
716.28	281.92
716.61	281.17
716.95	280.48
717.28	279.95
717.61	279.62
717.94	279.19
718.28	278.48
718.61	277.86
718.94	277.36
719.27	276.79
719.61	276.39
719.94	275.71
720.27	275.07
720.60	274.56
720.94	274.02
721.27	273.53
721.60	273.13
721.93	272.61
722.27	272.32
722.60	272.00
722.93	271.52
723.26	271.10
723.59	270.76
723.93	270.39
724.26	269.92
724.59	269.38
724.92	268.82
725.25	268.41
725.59	268.00
725.92	267.58
726.25	267.05
726.58	266.64
726.91	266.32
727.24	265.96
727.57	265.51
727.91	265.20
728.24	264.73
728.57	264.31
728.90	264.03
729.23	263.62
729.56	263.34
729.89	262.85
730.22	262.48
730.55	262.07
730.89	261.72
731.22	261.37
731.55	261.00
731.88	260.68
732.21	260.40
732.54	260.21
732.87	259.82
733.20	259.64
733.53	259.30
733.86	259.01
734.19	258.58
734.52	258.30
734.85	258.13
735.18	257.80
735.51	257.55
735.84	257.17
736.17	256.88
736.50	256.41
736.83	256.50
737.16	256.23
737.49	255.98
737.82	255.75
738.15	255.43
738.48	255.16
738.81	254.89
739.14	254.52
739.47	254.10
739.80	253.91
740.13	253.68
740.46	253.31
740.79	252.99
741.12	252.84
741.45	252.62
741.78	252.25
742.11	252.01
742.44	251.63
742.77	251.44
743.10	250.99
743.43	250.64
743.75	250.02
744.08	250.02
744.41	249.72
744.74	249.35
745.07	249.12
745.40	248.89
745.73	248.71
746.06	248.52
746.39	248.30
746.71	247.99
747.04	247.77
747.37	247.57
747.70	247.33
748.03	247.09
748.36	246.87
748.68	246.59
749.01	246.38
749.34	246.18
749.67	245.80
750.00	245.83
750.33	245.90
750.65	245.78
750.98	245.40
751.31	245.20
751.64	244.97
751.97	244.90
752.29	244.62
752.62	244.44
752.95	244.19
753.28	244.03
753.60	243.90
753.93	243.70
754.26	243.55
754.59	243.39
754.91	243.16
755.24	242.87
755.57	242.77
755.90	242.68
756.22	242.56
756.55	242.47
756.88	242.21
757.20	241.92
757.53	241.70
757.86	241.44
758.19	241.31
758.51	241.18
758.84	240.92
759.17	240.80
759.49	240.57
759.82	240.52
760.15	240.37
760.47	240.17
760.80	239.96
761.13	239.87
761.45	239.75
761.78	239.56
762.11	239.53
762.43	239.42
762.76	239.24
763.08	239.18
763.41	239.13
763.74	239.00
764.06	238.78
764.39	238.72
764.71	238.64
765.04	238.50
765.37	238.48
765.69	238.32
766.02	238.30
766.34	238.19
766.67	238.05
767.00	238.01
767.32	238.07
767.65	238.06
767.97	237.92
768.30	237.80
768.62	237.75
768.95	237.69
769.27	237.60
769.60	237.62
769.92	237.54
770.25	237.42
770.57	237.31
770.90	237.24
771.22	237.19
771.55	237.19
771.87	237.20
772.20	237.08
772.52	237.23
772.85	237.25
773.17	237.16
773.50	237.07
773.82	237.00
774.15	236.74
774.47	236.70
774.80	236.65
775.12	236.60
775.45	236.56
775.77	236.54
776.09	236.43
776.42	236.28
776.74	236.20
777.07	236.19
777.39	236.16
777.72	236.11
778.04	236.00
778.36	235.88
778.69	235.73
779.01	235.68
779.33	235.44
779.66	235.27
779.98	235.20
780.31	235.16
780.63	235.20
780.95	235.20
781.28	235.06
781.60	234.86
781.92	234.76
782.25	234.68
782.57	234.47
782.89	234.41
783.22	234.27
783.54	234.08
783.86	234.02
784.19	233.99
784.51	233.98
784.83	233.81
785.16	233.74
785.48	233.63
785.80	233.50
786.12	233.43
786.45	233.32
786.77	233.26
787.09	233.10
787.42	232.84
787.74	232.71
788.06	232.68
788.38	232.67
788.71	232.64
789.03	232.63
789.35	232.61
789.67	232.42
789.99	232.49
790.32	232.37
