SpectraSuite Data File
++++++++++++++++++++++++++++++++++++
Date: Fri Feb 01 14:36:28 EST 2013
User: group
Dark Spectrum Present: No
Reference Spectrum Present: No
Number of Sampled Component Spectra: 1
Spectrometers: USB2E7196
Integration Time (usec): 70000 (USB2E7196)
Spectra Averaged: 10 (USB2E7196)
Boxcar Smoothing: 10 (USB2E7196)
Correct for Electrical Dark: No (USB2E7196)
Strobe/Lamp Enabled: No (USB2E7196)
Correct for Detector Non-linearity: No (USB2E7196)
Correct for Stray Light: No (USB2E7196)
Number of Pixels in Processed Spectrum: 2048
>>>>>Begin Processed Spectral Data<<<<<
339.09	0.00
339.48	216.20
339.86	217.20
340.24	220.50
340.63	221.00
341.01	225.10
341.39	223.40
341.78	223.40
342.16	225.40
342.54	225.50
342.93	214.77
343.31	225.63
343.69	226.18
344.07	226.68
344.46	227.02
344.84	227.40
345.22	227.65
345.60	227.88
345.99	228.10
346.37	228.21
346.75	228.37
347.13	228.40
347.52	228.52
347.90	228.59
348.28	228.55
348.66	228.63
349.05	228.58
349.43	228.60
349.81	228.65
350.19	228.57
350.57	228.55
350.96	228.56
351.34	228.58
351.72	228.66
352.10	228.65
352.48	228.78
352.87	228.82
353.25	228.78
353.63	228.78
354.01	228.82
354.39	228.94
354.77	228.97
355.15	229.08
355.54	229.19
355.92	229.19
356.30	229.30
356.68	229.41
357.06	229.49
357.44	229.50
357.82	229.50
358.20	229.67
358.58	229.75
358.97	229.84
359.35	229.97
359.73	229.96
360.11	230.05
360.49	230.03
360.87	230.01
361.25	229.95
361.63	230.05
362.01	230.09
362.39	230.02
362.77	230.04
363.15	230.09
363.53	229.98
363.91	229.90
364.29	229.95
364.67	229.87
365.05	229.89
365.43	229.83
365.81	229.89
366.19	229.97
366.57	230.04
366.95	229.99
367.33	229.88
367.71	229.95
368.09	230.02
368.47	230.05
368.85	230.02
369.23	230.13
369.61	230.04
369.99	230.09
370.37	229.97
370.75	230.02
371.13	229.92
371.51	229.94
371.89	229.90
372.27	229.88
372.65	229.71
373.03	229.63
373.41	229.60
373.78	229.56
374.16	229.31
374.54	229.06
374.92	229.06
375.30	229.03
375.68	228.86
376.06	228.71
376.44	228.61
376.82	228.52
377.19	228.40
377.57	228.32
377.95	228.22
378.33	228.31
378.71	228.11
379.09	228.06
379.47	227.95
379.84	227.88
380.22	227.67
380.60	227.62
380.98	227.54
381.36	227.50
381.73	227.32
382.11	227.30
382.49	227.40
382.87	227.21
383.25	227.03
383.62	227.16
384.00	226.99
384.38	226.86
384.76	226.89
385.13	226.95
385.51	226.95
385.89	226.80
386.27	226.76
386.64	226.76
387.02	226.74
387.40	226.68
387.78	226.74
388.15	226.64
388.53	226.66
388.91	226.61
389.29	226.60
389.66	226.56
390.04	226.58
390.42	226.60
390.79	226.65
391.17	226.84
391.55	226.71
391.92	226.88
392.30	226.90
392.68	226.82
393.05	226.79
393.43	226.79
393.81	226.85
394.18	226.79
394.56	226.83
394.94	226.90
395.31	226.86
395.69	226.93
396.06	227.18
396.44	227.28
396.82	227.38
397.19	227.50
397.57	227.66
397.95	227.77
398.32	227.89
398.70	228.01
399.07	228.03
399.45	228.14
399.82	228.22
400.20	228.31
400.58	228.42
400.95	228.49
401.33	228.60
401.70	228.93
402.08	229.13
402.45	229.30
402.83	229.45
403.20	229.69
403.58	229.89
403.95	230.04
404.33	230.18
404.71	230.39
405.08	230.65
405.46	230.80
405.83	231.01
406.21	231.12
406.58	231.35
406.96	231.53
407.33	231.83
407.70	232.11
408.08	232.70
408.45	233.19
408.83	233.57
409.20	233.97
409.58	234.26
409.95	234.78
410.33	235.29
410.70	235.84
411.08	236.32
411.45	236.82
411.82	237.41
412.20	238.05
412.57	238.91
412.95	239.52
413.32	240.36
413.69	241.19
414.07	242.08
414.44	243.05
414.82	244.18
415.19	245.22
415.56	246.30
415.94	247.26
416.31	248.41
416.68	249.70
417.06	251.12
417.43	252.40
417.81	253.92
418.18	255.47
418.55	257.05
418.93	258.88
419.30	260.75
419.67	262.60
420.04	264.65
420.42	266.65
420.79	269.02
421.16	271.37
421.54	273.93
421.91	276.45
422.28	279.16
422.66	281.83
423.03	284.64
423.40	287.54
423.77	290.69
424.15	293.89
424.52	297.12
424.89	300.79
425.26	304.24
425.64	307.45
426.01	310.92
426.38	314.70
426.75	318.44
427.13	322.31
427.50	326.50
427.87	330.77
428.24	335.13
428.61	339.19
428.99	343.79
429.36	348.51
429.73	353.23
430.10	357.90
430.47	362.95
430.85	367.91
431.22	373.20
431.59	378.79
431.96	384.12
432.33	390.05
432.70	395.66
433.08	402.55
433.45	408.99
433.82	415.21
434.19	422.26
434.56	429.29
434.93	435.80
435.30	442.19
435.68	449.29
436.05	456.34
436.42	463.40
436.79	469.79
437.16	476.77
437.53	484.01
437.90	491.39
438.27	498.26
438.64	505.61
439.01	512.51
439.38	518.47
439.75	524.40
440.13	531.02
440.50	537.27
440.87	542.39
441.24	547.81
441.61	553.96
441.98	558.51
442.35	563.74
442.72	569.02
443.09	574.40
443.46	577.75
443.83	579.95
444.20	582.25
444.57	585.20
444.94	586.88
445.31	588.78
445.68	590.35
446.05	591.61
446.42	591.67
446.79	591.42
447.16	591.36
447.53	591.46
447.90	589.52
448.27	587.84
448.64	584.72
449.01	582.81
449.37	578.82
449.74	574.73
450.11	569.90
450.48	564.68
450.85	559.21
451.22	554.75
451.59	550.59
451.96	546.47
452.33	540.60
452.70	535.60
453.07	529.03
453.43	522.50
453.80	516.11
454.17	509.90
454.54	504.21
454.91	497.79
455.28	491.60
455.65	486.08
456.02	480.36
456.38	475.38
456.75	468.96
457.12	463.76
457.49	458.66
457.86	453.56
458.23	449.31
458.59	444.49
458.96	439.54
459.33	435.10
459.70	430.50
460.07	427.00
460.43	422.56
460.80	418.65
461.17	415.19
461.54	411.59
461.91	408.16
462.27	404.57
462.64	401.63
463.01	398.30
463.38	394.94
463.74	391.52
464.11	388.65
464.48	386.20
464.85	383.45
465.21	381.16
465.58	378.90
465.95	376.14
466.32	373.78
466.68	371.61
467.05	369.30
467.42	367.10
467.78	364.71
468.15	362.46
468.52	360.86
468.88	358.74
469.25	356.80
469.62	355.24
469.98	353.46
470.35	351.77
470.72	350.13
471.08	348.44
471.45	347.03
471.82	345.63
472.18	343.99
472.55	342.69
472.92	341.36
473.28	339.98
473.65	338.90
474.02	337.80
474.38	336.65
474.75	335.77
475.11	334.81
475.48	333.92
475.85	333.24
476.21	332.42
476.58	331.76
476.94	331.18
477.31	330.35
477.67	329.88
478.04	329.41
478.41	329.15
478.77	328.93
479.14	328.32
479.50	327.98
479.87	327.80
480.23	327.71
480.60	327.45
480.96	327.18
481.33	326.99
481.69	326.81
482.06	326.64
482.42	326.42
482.79	326.32
483.15	326.34
483.52	326.51
483.88	326.70
484.25	326.91
484.61	327.03
484.98	327.42
485.34	327.81
485.71	328.14
486.07	328.44
486.44	328.71
486.80	329.34
487.17	329.96
487.53	330.71
487.90	331.35
488.26	332.08
488.62	332.81
488.99	333.46
489.35	334.28
489.72	335.05
490.08	335.92
490.44	336.85
490.81	337.89
491.17	338.76
491.54	339.86
491.90	340.96
492.26	342.21
492.63	343.32
492.99	344.28
493.36	345.61
493.72	346.89
494.08	348.11
494.45	349.47
494.81	350.83
495.17	352.01
495.54	353.32
495.90	354.72
496.26	356.23
496.63	357.71
496.99	359.08
497.35	360.60
497.72	362.14
498.08	363.64
498.44	365.05
498.80	366.61
499.17	368.09
499.53	369.32
499.89	370.70
500.26	372.13
500.62	373.67
500.98	375.09
501.34	376.41
501.71	378.04
502.07	379.38
502.43	380.57
502.79	381.90
503.16	383.27
503.52	384.54
503.88	385.88
504.24	387.02
504.60	388.14
504.97	389.42
505.33	390.71
505.69	391.83
506.05	393.10
506.41	394.18
506.78	395.12
507.14	396.15
507.50	397.11
507.86	398.12
508.22	398.98
508.59	399.76
508.95	400.56
509.31	401.20
509.67	401.82
510.03	402.74
510.39	403.55
510.75	404.11
511.12	404.69
511.48	405.10
511.84	405.79
512.20	406.43
512.56	406.94
512.92	407.31
513.28	407.73
513.64	407.97
514.00	408.30
514.37	408.58
514.73	408.83
515.09	409.13
515.45	409.21
515.81	409.46
516.17	409.67
516.53	409.90
516.89	410.10
517.25	410.46
517.61	410.57
517.97	410.63
518.33	410.85
518.69	411.08
519.05	411.48
519.41	411.75
519.77	412.01
520.13	412.13
520.49	412.40
520.85	412.61
521.21	412.94
521.57	413.34
521.93	413.74
522.29	414.05
522.65	414.44
523.01	414.96
523.37	415.39
523.73	415.87
524.09	416.13
524.45	416.60
524.81	417.18
525.17	417.82
525.53	418.63
525.89	419.45
526.25	420.17
526.61	420.85
526.97	421.53
527.33	422.38
527.68	423.56
528.04	424.60
528.40	425.73
528.76	426.92
529.12	428.14
529.48	429.42
529.84	430.84
530.20	432.22
530.56	433.78
530.91	435.39
531.27	437.01
531.63	439.32
531.99	441.17
532.35	443.05
532.71	445.07
533.07	446.99
533.42	449.07
533.78	451.35
534.14	453.53
534.50	455.83
534.86	458.30
535.21	460.48
535.57	462.87
535.93	465.45
536.29	468.14
536.65	470.69
537.00	473.35
537.36	476.35
537.72	479.24
538.08	482.20
538.44	485.29
538.79	488.43
539.15	491.14
539.51	494.30
539.87	497.40
540.22	500.54
540.58	503.86
540.94	507.00
541.29	510.25
541.65	513.54
542.01	517.24
542.37	520.80
542.72	524.40
543.08	528.07
543.44	531.81
543.79	535.30
544.15	539.17
544.51	543.15
544.87	546.84
545.22	550.81
545.58	554.47
545.94	558.08
546.29	561.93
546.65	565.85
547.01	569.60
547.36	573.38
547.72	577.31
548.07	581.33
548.43	585.36
548.79	589.21
549.14	593.25
549.50	597.07
549.86	600.81
550.21	604.74
550.57	608.79
550.92	612.55
551.28	616.58
551.64	620.70
551.99	624.80
552.35	628.72
552.70	632.53
553.06	636.78
553.41	641.24
553.77	645.35
554.13	649.47
554.48	653.82
554.84	658.12
555.19	662.29
555.55	666.47
555.90	670.48
556.26	674.51
556.61	678.81
556.97	682.86
557.32	686.84
557.68	690.89
558.03	694.96
558.39	699.00
558.74	703.23
559.10	707.07
559.45	710.91
559.81	715.19
560.16	719.05
560.52	722.76
560.87	726.65
561.23	730.48
561.58	734.60
561.94	738.34
562.29	742.03
562.64	745.83
563.00	749.36
563.35	753.45
563.71	757.67
564.06	761.30
564.42	765.13
564.77	769.05
565.12	772.88
565.48	776.56
565.83	780.27
566.19	783.71
566.54	787.15
566.89	790.68
567.25	794.26
567.60	798.19
567.96	801.69
568.31	804.80
568.66	808.00
569.02	810.69
569.37	813.73
569.72	816.66
570.08	819.55
570.43	822.48
570.78	825.30
571.14	827.69
571.49	830.55
571.84	833.29
572.20	836.01
572.55	838.68
572.90	841.09
573.26	843.54
573.61	845.80
573.96	848.10
574.31	850.07
574.67	851.57
575.02	852.98
575.37	854.63
575.72	856.01
576.08	857.75
576.43	859.52
576.78	860.99
577.13	862.86
577.49	864.40
577.84	865.90
578.19	867.10
578.54	868.50
578.90	869.43
579.25	870.23
579.60	871.01
579.95	871.43
580.30	872.13
580.66	872.79
581.01	873.57
581.36	874.06
581.71	874.59
582.06	875.24
582.42	876.00
582.77	876.51
583.12	877.09
583.47	877.60
583.82	878.14
584.17	878.61
584.53	878.87
584.88	879.22
585.23	879.46
585.58	879.34
585.93	879.30
586.28	879.51
586.63	879.72
586.98	880.02
587.34	880.22
587.69	880.00
588.04	879.89
588.39	879.95
588.74	879.72
589.09	879.52
589.44	879.10
589.79	878.81
590.14	878.48
590.49	878.08
590.84	877.42
591.19	876.90
591.54	876.08
591.89	875.01
592.25	874.15
592.60	873.02
592.95	872.20
593.30	871.06
593.65	870.06
594.00	869.00
594.35	868.25
594.70	867.04
595.05	866.28
595.40	865.14
595.75	863.73
596.10	862.89
596.45	861.70
596.80	860.80
597.15	859.71
597.50	858.40
597.85	857.59
598.19	856.47
598.54	855.38
598.89	854.37
599.24	853.35
599.59	852.05
599.94	850.92
600.29	849.43
600.64	848.42
600.99	846.70
601.34	845.47
601.69	843.37
602.04	842.13
602.39	840.55
602.74	839.34
603.08	837.94
603.43	836.54
603.78	835.12
604.13	833.50
604.48	831.82
604.83	830.64
605.18	829.08
605.53	827.30
605.87	825.16
606.22	823.28
606.57	821.45
606.92	819.74
607.27	818.17
607.62	816.82
607.96	815.12
608.31	813.67
608.66	811.62
609.01	809.44
609.36	807.13
609.70	804.77
610.05	802.32
610.40	800.49
610.75	797.93
611.10	795.70
611.44	792.94
611.79	790.62
612.14	788.20
612.49	785.01
612.83	782.48
613.18	780.10
613.53	777.70
613.88	775.20
614.22	772.61
614.57	769.74
614.92	766.73
615.27	764.10
615.61	761.33
615.96	758.57
616.31	756.47
616.65	754.52
617.00	752.25
617.35	749.94
617.70	746.74
618.04	744.14
618.39	741.57
618.74	739.41
619.08	736.65
619.43	734.05
619.78	731.78
620.12	729.21
620.47	726.77
620.82	724.13
621.16	721.73
621.51	719.26
621.85	716.65
622.20	714.31
622.55	711.76
622.89	709.18
623.24	707.08
623.59	704.56
623.93	701.97
624.28	699.38
624.62	696.69
624.97	694.72
625.32	692.38
625.66	689.93
626.01	687.58
626.35	685.18
626.70	682.60
627.04	680.30
627.39	677.94
627.73	675.20
628.08	672.84
628.43	669.99
628.77	667.58
629.12	664.99
629.46	662.46
629.81	659.75
630.15	657.09
630.50	654.20
630.84	651.50
631.19	648.50
631.53	645.74
631.88	642.89
632.22	639.86
632.57	637.17
632.91	634.25
633.26	631.46
633.60	628.84
633.95	626.22
634.29	623.52
634.64	621.01
634.98	618.39
635.32	615.93
635.67	613.60
636.01	610.96
636.36	608.61
636.70	606.17
637.05	603.54
637.39	601.32
637.73	598.86
638.08	596.66
638.42	594.42
638.77	592.33
639.11	590.08
639.45	587.70
639.80	585.32
640.14	583.15
640.49	580.87
640.83	578.37
641.17	576.06
641.52	573.62
641.86	571.12
642.20	569.07
642.55	566.51
642.89	564.11
643.23	561.60
643.58	559.52
643.92	556.90
644.26	554.76
644.61	552.39
644.95	550.03
645.29	547.35
645.64	544.87
645.98	542.32
646.32	540.15
646.66	537.89
647.01	535.57
647.35	533.10
647.69	530.91
648.04	528.65
648.38	526.24
648.72	523.90
649.06	521.62
649.41	519.42
649.75	516.97
650.09	514.52
650.43	512.14
650.78	509.44
651.12	507.26
651.46	505.10
651.80	502.80
652.14	500.73
652.49	498.59
652.83	496.44
653.17	494.13
653.51	491.79
653.85	489.65
654.20	487.37
654.54	485.04
654.88	482.56
655.22	480.34
655.56	478.08
655.90	475.98
656.25	473.88
656.59	471.55
656.93	469.56
657.27	467.52
657.61	465.42
657.95	463.66
658.29	461.78
658.64	459.47
658.98	457.51
659.32	455.14
659.66	453.16
660.00	451.06
660.34	449.16
660.68	447.30
661.02	445.01
661.36	443.21
661.70	441.58
662.05	439.80
662.39	438.11
662.73	436.28
663.07	434.59
663.41	432.73
663.75	430.92
664.09	429.14
664.43	427.54
664.77	425.76
665.11	423.91
665.45	422.22
665.79	420.69
666.13	418.67
666.47	417.04
666.81	415.17
667.15	413.29
667.49	411.75
667.83	409.97
668.17	408.42
668.51	406.62
668.85	405.00
669.19	403.37
669.53	401.59
669.87	399.81
670.21	398.10
670.55	396.43
670.89	395.00
671.23	393.63
671.57	391.93
671.91	390.44
672.25	388.82
672.58	387.22
672.92	385.45
673.26	384.24
673.60	382.93
673.94	381.44
674.28	380.30
674.62	378.82
674.96	377.48
675.30	376.27
675.64	375.00
675.97	373.66
676.31	372.31
676.65	371.00
676.99	370.12
677.33	368.80
677.67	367.56
678.01	366.09
678.34	364.72
678.68	363.58
679.02	362.30
679.36	361.17
679.70	359.91
680.04	358.90
680.37	357.59
680.71	356.30
681.05	355.31
681.39	354.04
681.73	352.83
682.06	351.78
682.40	350.60
682.74	349.50
683.08	348.35
683.42	347.26
683.75	346.13
684.09	344.70
684.43	343.60
684.77	342.40
685.10	341.29
685.44	340.11
685.78	339.01
686.12	337.93
686.45	336.77
686.79	335.72
687.13	334.67
687.46	333.56
687.80	332.54
688.14	331.24
688.48	330.28
688.81	329.22
689.15	328.05
689.49	327.03
689.82	325.91
690.16	324.78
690.50	323.72
690.83	322.65
691.17	321.74
691.51	320.78
691.84	319.92
692.18	318.97
692.52	318.04
692.85	317.14
693.19	316.19
693.52	315.34
693.86	314.34
694.20	313.42
694.53	312.60
694.87	311.68
695.21	311.06
695.54	310.10
695.88	309.25
696.21	308.44
696.55	307.61
696.88	306.78
697.22	305.86
697.56	305.10
697.89	304.39
698.23	303.53
698.56	302.63
698.90	301.74
699.23	300.93
699.57	300.02
699.90	299.20
700.24	298.42
700.58	297.54
700.91	296.75
701.25	296.23
701.58	295.72
701.92	295.15
702.25	294.42
702.59	293.78
702.92	293.10
703.26	292.37
703.59	291.62
703.93	291.15
704.26	290.59
704.60	289.99
704.93	289.29
705.26	288.69
705.60	288.12
705.93	287.69
706.27	287.30
706.60	286.84
706.94	286.28
707.27	285.70
707.61	285.27
707.94	284.83
708.27	284.03
708.61	283.21
708.94	282.47
709.28	281.88
709.61	281.37
709.94	280.89
710.28	280.29
710.61	279.79
710.95	279.06
711.28	278.62
711.61	278.03
711.95	277.57
712.28	277.07
712.61	276.58
712.95	275.98
713.28	275.48
713.61	274.84
713.95	274.26
714.28	273.70
714.61	273.14
714.95	272.53
715.28	271.95
715.61	271.39
715.95	271.02
716.28	270.54
716.61	269.96
716.95	269.40
717.28	268.83
717.61	268.39
717.94	268.06
718.28	267.40
718.61	267.03
718.94	266.60
719.27	266.14
719.61	265.72
719.94	265.27
720.27	264.75
720.60	264.51
720.94	264.11
721.27	263.80
721.60	263.39
721.93	263.16
722.27	262.90
722.60	262.65
722.93	262.22
723.26	261.95
723.59	261.60
723.93	261.25
724.26	261.00
724.59	260.60
724.92	260.12
725.25	259.86
725.59	259.42
725.92	259.05
726.25	258.64
726.58	258.37
726.91	258.10
727.24	257.70
727.57	257.24
727.91	256.91
728.24	256.64
728.57	256.33
728.90	256.05
729.23	255.74
729.56	255.55
729.89	255.30
730.22	254.93
730.55	254.72
730.89	254.41
731.22	254.17
731.55	253.90
731.88	253.68
732.21	253.44
732.54	253.10
732.87	252.79
733.20	252.62
733.53	252.27
733.86	251.96
734.19	251.79
734.52	251.61
734.85	251.48
735.18	251.31
735.51	251.12
735.84	250.82
736.17	250.62
736.50	250.21
736.83	250.14
737.16	249.90
737.49	249.74
737.82	249.55
738.15	249.34
738.48	249.17
738.81	248.93
739.14	248.76
739.47	248.64
739.80	248.53
740.13	248.29
740.46	248.13
740.79	248.03
741.12	247.81
741.45	247.63
741.78	247.39
742.11	247.14
742.44	246.99
742.77	246.94
743.10	246.70
743.43	246.61
743.75	246.29
744.08	246.37
744.41	246.15
744.74	245.87
745.07	245.71
745.40	245.45
745.73	245.40
746.06	245.32
746.39	245.29
746.71	245.07
747.04	244.94
747.37	244.75
747.70	244.49
748.03	244.31
748.36	244.17
748.68	243.94
749.01	243.66
749.34	243.45
749.67	243.21
750.00	243.10
750.33	243.09
750.65	242.93
750.98	242.63
751.31	242.39
751.64	242.46
751.97	242.38
752.29	242.30
752.62	242.07
752.95	241.81
753.28	241.56
753.60	241.46
753.93	241.34
754.26	241.21
754.59	241.01
754.91	240.85
755.24	240.70
755.57	240.63
755.90	240.53
756.22	240.38
756.55	240.11
756.88	239.95
757.20	239.64
757.53	239.45
757.86	239.24
758.19	239.14
758.51	238.90
758.84	238.78
759.17	238.70
759.49	238.55
759.82	238.47
760.15	238.24
760.47	238.12
760.80	237.99
761.13	238.00
761.45	237.91
761.78	237.80
762.11	237.64
762.43	237.50
762.76	237.36
763.08	237.22
763.41	237.24
763.74	237.23
764.06	237.10
764.39	237.02
764.71	236.94
765.04	236.73
765.37	236.65
765.69	236.44
766.02	236.29
766.34	236.09
766.67	235.96
767.00	235.98
767.32	235.98
767.65	235.97
767.97	235.73
768.30	235.62
768.62	235.50
768.95	235.51
769.27	235.46
769.60	235.53
769.92	235.55
770.25	235.38
770.57	235.18
770.90	235.07
771.22	234.95
771.55	234.84
771.87	234.84
772.20	234.75
772.52	234.82
772.85	234.92
773.17	235.01
773.50	234.94
773.82	234.87
774.15	234.72
774.47	234.46
774.80	234.45
775.12	234.43
775.45	234.37
775.77	234.33
776.09	234.26
776.42	234.15
776.74	234.08
777.07	234.16
777.39	234.06
777.72	234.06
778.04	234.06
778.36	233.98
778.69	233.93
779.01	233.87
779.33	233.60
779.66	233.36
779.98	233.25
780.31	233.21
780.63	233.27
780.95	233.24
781.28	233.29
781.60	233.24
781.92	233.20
782.25	233.15
782.57	233.06
782.89	232.90
783.22	232.77
783.54	232.78
783.86	232.75
784.19	232.82
784.51	232.85
784.83	232.73
785.16	232.79
785.48	232.85
785.80	232.81
786.12	232.91
786.45	232.93
786.77	232.98
787.09	232.91
787.42	232.72
787.74	232.61
788.06	232.56
788.38	232.56
788.71	232.50
789.03	232.51
789.35	232.57
789.67	232.70
789.99	232.77
790.32	232.65
790.64	232.59
790.96	232.60
791.28	232.52
791.61	232.39
791.93	232.25
792.25	232.15
792.57	232.27
792.89	232.18
793.21	232.02
793.54	231.90
793.86	231.87
794.18	231.96
