SpectraSuite Data File
++++++++++++++++++++++++++++++++++++
Date: Fri Feb 01 14:36:51 EST 2013
User: group
Dark Spectrum Present: No
Reference Spectrum Present: No
Number of Sampled Component Spectra: 1
Spectrometers: USB2E7196
Integration Time (usec): 70000 (USB2E7196)
Spectra Averaged: 10 (USB2E7196)
Boxcar Smoothing: 10 (USB2E7196)
Correct for Electrical Dark: No (USB2E7196)
Strobe/Lamp Enabled: No (USB2E7196)
Correct for Detector Non-linearity: No (USB2E7196)
Correct for Stray Light: No (USB2E7196)
Number of Pixels in Processed Spectrum: 2048
>>>>>Begin Processed Spectral Data<<<<<
339.09	0.00
339.48	215.00
339.86	217.70
340.24	218.10
340.63	219.80
341.01	224.30
341.39	222.50
341.78	222.70
342.16	224.20
342.54	222.00
342.93	213.84
343.31	224.71
343.69	225.32
344.07	225.76
344.46	226.25
344.84	226.60
345.22	226.69
345.60	226.91
345.99	227.19
346.37	227.38
346.75	227.64
347.13	227.70
347.52	227.78
347.90	227.91
348.28	227.85
348.66	227.92
349.05	227.78
349.43	227.80
349.81	227.88
350.19	228.05
350.57	228.00
350.96	227.98
351.34	228.05
351.72	228.00
352.10	228.17
352.48	228.19
352.87	228.30
353.25	228.45
353.63	228.57
354.01	228.63
354.39	228.67
354.77	228.78
355.15	228.91
355.54	229.01
355.92	229.00
356.30	229.21
356.68	229.41
357.06	229.63
357.44	229.74
357.82	229.78
358.20	229.86
358.58	229.96
358.97	230.15
359.35	230.24
359.73	230.48
360.11	230.45
360.49	230.53
360.87	230.66
361.25	230.69
361.63	230.86
362.01	230.82
362.39	230.91
362.77	231.01
363.15	231.08
363.53	231.10
363.91	231.20
364.29	231.16
364.67	231.00
365.05	231.02
365.43	231.12
365.81	231.13
366.19	231.20
366.57	231.32
366.95	231.26
367.33	231.14
367.71	230.93
368.09	230.93
368.47	230.95
368.85	230.80
369.23	230.80
369.61	230.62
369.99	230.73
370.37	230.80
370.75	230.75
371.13	230.64
371.51	230.54
371.89	230.42
372.27	230.38
372.65	230.31
373.03	230.24
373.41	230.14
373.78	230.09
374.16	229.84
374.54	229.71
374.92	229.73
375.30	229.65
375.68	229.67
376.06	229.64
376.44	229.54
376.82	229.45
377.19	229.43
377.57	229.30
377.95	229.19
378.33	229.03
378.71	228.86
379.09	228.88
379.47	228.82
379.84	228.83
380.22	228.64
380.60	228.51
380.98	228.35
381.36	228.27
381.73	228.10
382.11	228.16
382.49	228.08
382.87	227.90
383.25	227.85
383.62	227.99
384.00	227.81
384.38	227.70
384.76	227.76
385.13	227.70
385.51	227.76
385.89	227.53
386.27	227.41
386.64	227.42
387.02	227.24
387.40	227.20
387.78	227.08
388.15	227.21
388.53	227.13
388.91	227.17
389.29	227.06
389.66	227.06
390.04	226.97
390.42	226.93
390.79	226.97
391.17	227.01
391.55	226.77
391.92	226.93
392.30	226.88
392.68	226.83
393.05	226.78
393.43	226.73
393.81	226.90
394.18	226.95
394.56	226.90
394.94	227.02
395.31	227.05
395.69	227.09
396.06	227.10
396.44	227.27
396.82	227.21
397.19	227.36
397.57	227.48
397.95	227.52
398.32	227.53
398.70	227.56
399.07	227.68
399.45	227.79
399.82	227.83
400.20	227.94
400.58	228.07
400.95	228.15
401.33	228.22
401.70	228.50
402.08	228.54
402.45	228.74
402.83	228.85
403.20	228.97
403.58	229.20
403.95	229.40
404.33	229.67
404.71	229.91
405.08	230.14
405.46	230.17
405.83	230.42
406.21	230.66
406.58	230.98
406.96	231.22
407.33	231.48
407.70	231.65
408.08	232.10
408.45	232.45
408.83	232.90
409.20	233.34
409.58	233.59
409.95	233.98
410.33	234.44
410.70	234.84
411.08	235.42
411.45	235.90
411.82	236.37
412.20	236.85
412.57	237.58
412.95	238.20
413.32	239.01
413.69	239.72
414.07	240.49
414.44	241.31
414.82	242.22
415.19	243.34
415.56	244.44
415.94	245.46
416.31	246.56
416.68	247.76
417.06	249.13
417.43	250.38
417.81	251.91
418.18	253.41
418.55	255.05
418.93	256.71
419.30	258.34
419.67	260.14
420.04	261.86
420.42	263.67
420.79	265.97
421.16	268.30
421.54	270.67
421.91	273.08
422.28	275.50
422.66	278.03
423.03	280.52
423.40	283.18
423.77	286.02
424.15	288.91
424.52	291.71
424.89	294.94
425.26	298.05
425.64	301.04
426.01	304.23
426.38	307.68
426.75	311.10
427.13	314.71
427.50	318.52
427.87	322.61
428.24	326.60
428.61	330.20
428.99	334.29
429.36	338.62
429.73	343.00
430.10	347.39
430.47	351.68
430.85	356.18
431.22	360.96
431.59	366.02
431.96	370.93
432.33	376.43
432.70	381.63
433.08	387.78
433.45	393.58
433.82	399.37
434.19	405.82
434.56	412.08
434.93	418.07
435.30	423.96
435.68	430.49
436.05	436.97
436.42	443.44
436.79	449.43
437.16	455.83
437.53	462.36
437.90	468.84
438.27	475.42
438.64	482.21
439.01	488.50
439.38	494.13
439.75	499.45
440.13	505.43
440.50	511.06
440.87	515.72
441.24	520.63
441.61	526.27
441.98	530.19
442.35	534.90
442.72	539.67
443.09	544.48
443.46	547.64
443.83	549.77
444.20	551.53
444.57	554.10
444.94	555.50
445.31	557.16
445.68	558.70
446.05	559.72
446.42	559.65
446.79	559.45
447.16	559.14
447.53	559.30
447.90	557.63
448.27	556.14
448.64	553.40
449.01	551.90
449.37	548.15
449.74	544.40
450.11	539.93
450.48	535.46
450.85	530.43
451.22	526.00
451.59	522.06
451.96	518.43
452.33	512.95
452.70	508.20
453.07	502.30
453.43	496.37
453.80	490.56
454.17	485.00
454.54	479.68
454.91	474.02
455.28	468.32
455.65	463.13
456.02	457.76
456.38	453.36
456.75	447.40
457.12	442.51
457.49	437.85
457.86	433.42
458.23	429.19
458.59	424.75
458.96	420.27
459.33	416.23
459.70	412.18
460.07	409.17
460.43	405.48
460.80	402.01
461.17	398.87
461.54	395.79
461.91	392.55
462.27	389.44
462.64	386.62
463.01	383.62
463.38	380.71
463.74	377.70
464.11	375.05
464.48	372.83
464.85	370.33
465.21	368.51
465.58	366.28
465.95	363.81
466.32	361.67
466.68	359.60
467.05	357.47
467.42	355.38
467.78	353.10
468.15	350.89
468.52	349.37
468.88	347.41
469.25	345.47
469.62	343.95
469.98	342.39
470.35	340.89
470.72	339.33
471.08	337.68
471.45	336.36
471.82	335.00
472.18	333.37
472.55	332.33
472.92	330.90
473.28	329.68
473.65	328.45
474.02	327.36
474.38	326.29
474.75	325.47
475.11	324.42
475.48	323.67
475.85	323.05
476.21	322.30
476.58	321.60
476.94	321.11
477.31	320.50
477.67	319.78
478.04	319.27
478.41	318.94
478.77	318.66
479.14	318.07
479.50	317.62
479.87	317.36
480.23	316.89
480.60	316.58
480.96	316.34
481.33	316.27
481.69	316.17
482.06	316.10
482.42	315.83
482.79	315.83
483.15	315.64
483.52	315.72
483.88	315.66
484.25	315.63
484.61	315.66
484.98	315.87
485.34	316.17
485.71	316.55
486.07	316.77
486.44	317.00
486.80	317.50
487.17	317.94
487.53	318.43
487.90	319.02
488.26	319.67
488.62	320.30
488.99	320.74
489.35	321.41
489.72	322.10
490.08	322.91
490.44	323.60
490.81	324.50
491.17	325.09
491.54	326.07
491.90	327.04
492.26	327.90
492.63	328.62
492.99	329.53
493.36	330.40
493.72	331.38
494.08	332.30
494.45	333.44
494.81	334.63
495.17	335.73
495.54	336.89
495.90	338.08
496.26	339.23
496.63	340.39
496.99	341.54
497.35	342.68
497.72	343.86
498.08	345.01
498.44	346.18
498.80	347.57
499.17	348.73
499.53	349.86
499.89	351.09
500.26	352.35
500.62	353.58
500.98	354.66
501.34	355.86
501.71	357.21
502.07	358.26
502.43	359.18
502.79	360.20
503.16	361.14
503.52	362.12
503.88	363.06
504.24	364.02
504.60	364.80
504.97	365.86
505.33	366.79
505.69	367.74
506.05	368.57
506.41	369.26
506.78	369.97
507.14	370.66
507.50	371.30
507.86	372.04
508.22	372.65
508.59	373.20
508.95	373.87
509.31	374.09
509.67	374.52
510.03	374.89
510.39	375.24
510.75	375.58
511.12	375.76
511.48	375.90
511.84	376.25
512.20	376.66
512.56	376.67
512.92	376.84
513.28	377.03
513.64	377.04
514.00	377.19
514.37	377.28
514.73	377.25
515.09	377.20
515.45	377.20
515.81	377.33
516.17	377.45
516.53	377.35
516.89	377.47
517.25	377.51
517.61	377.65
517.97	377.79
518.33	377.92
518.69	378.05
519.05	378.42
519.41	378.41
519.77	378.60
520.13	378.70
520.49	378.82
520.85	378.99
521.21	379.26
521.57	379.69
521.93	379.74
522.29	380.23
522.65	380.71
523.01	380.98
523.37	381.23
523.73	381.62
524.09	382.12
524.45	382.62
524.81	383.31
525.17	384.00
525.53	384.75
525.89	385.59
526.25	386.56
526.61	387.23
526.97	388.31
527.33	389.32
527.68	390.80
528.04	391.90
528.40	393.13
528.76	394.65
529.12	395.86
529.48	397.56
529.84	399.03
530.20	400.60
530.56	402.62
530.91	404.50
531.27	406.41
531.63	408.31
531.99	410.46
532.35	412.28
532.71	414.39
533.07	416.66
533.42	419.08
533.78	421.30
534.14	423.77
534.50	426.33
534.86	428.76
535.21	431.10
535.57	434.14
535.93	436.95
536.29	439.72
536.65	442.71
537.00	445.67
537.36	448.78
537.72	451.89
538.08	455.02
538.44	458.07
538.79	461.42
539.15	464.73
539.51	468.22
539.87	472.02
540.22	475.59
540.58	479.16
540.94	482.69
541.29	486.54
541.65	490.47
542.01	494.35
542.37	498.38
542.72	502.42
543.08	506.10
543.44	509.97
543.79	513.76
544.15	517.89
544.51	522.20
544.87	526.44
545.22	530.67
545.58	534.79
545.94	539.05
546.29	543.19
546.65	547.40
547.01	551.69
547.36	555.72
547.72	560.00
548.07	564.26
548.43	568.37
548.79	572.55
549.14	576.68
549.50	580.85
549.86	584.89
550.21	589.20
550.57	593.63
550.92	597.92
551.28	602.46
551.64	606.74
551.99	611.15
552.35	615.49
552.70	619.77
553.06	624.13
553.41	628.60
553.77	633.05
554.13	637.41
554.48	641.66
554.84	645.98
555.19	650.51
555.55	654.91
555.90	659.26
556.26	663.66
556.61	667.84
556.97	672.15
557.32	676.78
557.68	681.10
558.03	685.39
558.39	689.61
558.74	693.89
559.10	698.10
559.45	702.24
559.81	706.44
560.16	710.70
560.52	714.87
560.87	719.02
561.23	722.88
561.58	727.55
561.94	731.58
562.29	735.52
562.64	739.21
563.00	743.19
563.35	747.38
563.71	751.36
564.06	755.44
564.42	759.16
564.77	762.80
565.12	766.56
565.48	770.42
565.83	774.17
566.19	777.80
566.54	781.13
566.89	784.41
567.25	787.92
567.60	791.70
567.96	795.04
568.31	798.37
568.66	801.67
569.02	804.37
569.37	807.42
569.72	810.70
570.08	814.00
570.43	816.91
570.78	819.86
571.14	822.69
571.49	825.35
571.84	828.25
572.20	830.78
572.55	833.14
572.90	835.20
573.26	837.89
573.61	840.19
573.96	842.72
574.31	844.85
574.67	846.44
575.02	847.90
575.37	849.74
575.72	851.23
576.08	853.19
576.43	854.84
576.78	856.42
577.13	858.24
577.49	859.57
577.84	861.01
578.19	862.38
578.54	863.54
578.90	864.74
579.25	865.81
579.60	867.11
579.95	868.15
580.30	869.10
580.66	869.83
581.01	870.34
581.36	871.07
581.71	871.89
582.06	872.87
582.42	873.49
582.77	874.09
583.12	875.00
583.47	875.40
583.82	876.02
584.17	876.48
584.53	876.39
584.88	876.71
585.23	877.08
585.58	877.22
585.93	877.70
586.28	878.19
586.63	878.68
586.98	878.67
587.34	878.97
587.69	879.38
588.04	879.50
588.39	879.89
588.74	879.62
589.09	879.65
589.44	879.41
589.79	879.49
590.14	879.63
590.49	879.24
590.84	878.96
591.19	878.55
591.54	877.74
591.89	877.14
592.25	876.54
592.60	875.56
592.95	874.44
593.30	873.39
593.65	872.71
594.00	871.20
594.35	870.60
594.70	869.09
595.05	868.07
595.40	866.83
595.75	865.86
596.10	864.96
596.45	863.74
596.80	862.79
597.15	861.64
597.50	860.07
597.85	859.18
598.19	858.07
598.54	857.05
598.89	856.29
599.24	855.58
599.59	854.51
599.94	853.72
600.29	852.88
600.64	851.61
600.99	849.74
601.34	848.74
601.69	847.16
602.04	846.10
602.39	844.52
602.74	843.49
603.08	842.32
603.43	840.98
603.78	839.54
604.13	838.14
604.48	836.34
604.83	835.05
605.18	833.40
605.53	831.60
605.87	829.55
606.22	827.70
606.57	825.76
606.92	824.12
607.27	822.41
607.62	820.84
607.96	819.21
608.31	817.94
608.66	815.98
609.01	813.83
609.36	811.80
609.70	809.58
610.05	807.24
610.40	804.90
610.75	802.79
611.10	800.84
611.44	798.14
611.79	796.30
612.14	793.94
612.49	791.20
612.83	788.81
613.18	786.40
613.53	784.03
613.88	781.49
614.22	778.74
614.57	775.88
614.92	773.10
615.27	770.45
615.61	767.29
615.96	764.78
616.31	762.46
616.65	760.34
617.00	758.12
617.35	755.78
617.70	753.06
618.04	750.16
618.39	747.26
618.74	745.04
619.08	742.34
619.43	739.83
619.78	737.43
620.12	735.10
620.47	732.72
620.82	730.12
621.16	727.48
621.51	725.14
621.85	722.78
622.20	720.05
622.55	717.54
622.89	715.33
623.24	712.90
623.59	710.39
623.93	707.77
624.28	705.24
624.62	702.68
624.97	700.28
625.32	697.95
625.66	695.61
626.01	693.24
626.35	690.62
626.70	688.11
627.04	685.78
627.39	683.10
627.73	680.39
628.08	677.96
628.43	675.49
628.77	672.88
629.12	670.14
629.46	667.72
629.81	664.97
630.15	662.19
630.50	659.30
630.84	656.46
631.19	653.62
631.53	651.02
631.88	648.10
632.22	645.13
632.57	642.57
632.91	639.79
633.26	637.01
633.60	634.16
633.95	631.40
634.29	628.80
634.64	626.39
634.98	623.93
635.32	621.51
635.67	619.28
636.01	616.92
636.36	614.51
636.70	612.14
637.05	609.78
637.39	607.53
637.73	605.41
638.08	603.40
638.42	601.36
638.77	599.15
639.11	596.91
639.45	594.62
639.80	592.09
640.14	589.80
640.49	587.40
640.83	585.15
641.17	582.88
641.52	580.46
641.86	577.86
642.20	575.45
642.55	572.98
642.89	570.40
643.23	567.89
643.58	565.72
643.92	563.24
644.26	560.99
644.61	558.93
644.95	556.53
645.29	553.76
645.64	551.10
645.98	548.63
646.32	546.23
646.66	543.88
647.01	541.61
647.35	539.30
647.69	537.11
648.04	535.04
648.38	532.70
648.72	530.07
649.06	527.65
649.41	525.53
649.75	523.12
650.09	520.72
650.43	518.40
650.78	515.70
651.12	513.27
651.46	511.08
651.80	508.59
652.14	506.35
652.49	504.22
652.83	501.97
653.17	499.40
653.51	496.95
653.85	494.67
654.20	492.47
654.54	490.06
654.88	487.46
655.22	484.99
655.56	482.53
655.90	480.27
656.25	478.18
656.59	475.87
656.93	473.64
657.27	471.55
657.61	469.13
657.95	467.14
658.29	465.07
658.64	462.71
658.98	460.38
659.32	458.07
659.66	456.04
660.00	453.83
660.34	451.87
660.68	449.94
661.02	448.03
661.36	445.87
661.70	444.06
662.05	442.20
662.39	440.37
662.73	438.44
663.07	436.89
663.41	435.06
663.75	433.12
664.09	431.26
664.43	429.41
664.77	427.70
665.11	425.89
665.45	424.07
665.79	422.27
666.13	420.44
666.47	418.61
666.81	416.70
667.15	414.87
667.49	413.17
667.83	411.50
668.17	409.72
668.51	407.97
668.85	406.14
669.19	404.58
669.53	402.95
669.87	401.16
670.21	399.52
670.55	397.83
670.89	396.39
671.23	394.90
671.57	393.30
671.91	391.86
672.25	390.33
672.58	388.90
672.92	387.49
673.26	386.22
673.60	384.98
673.94	383.64
674.28	382.38
674.62	381.04
674.96	379.70
675.30	378.37
675.64	377.20
675.97	375.89
676.31	374.60
676.65	373.08
676.99	372.01
677.33	370.67
677.67	369.40
678.01	367.97
678.34	366.66
678.68	365.40
679.02	364.09
679.36	362.86
679.70	361.60
680.04	360.29
680.37	359.00
680.71	357.67
681.05	356.59
681.39	355.35
681.73	354.15
682.06	353.07
682.40	351.94
682.74	350.77
683.08	349.70
683.42	348.46
683.75	347.48
684.09	346.40
684.43	345.24
684.77	344.19
685.10	343.08
685.44	342.02
685.78	340.93
686.12	339.91
686.45	338.74
686.79	337.69
687.13	336.79
687.46	335.71
687.80	334.69
688.14	333.50
688.48	332.54
688.81	331.45
689.15	330.29
689.49	329.16
689.82	328.13
690.16	326.99
690.50	325.96
690.83	324.90
691.17	323.75
691.51	322.65
691.84	321.61
692.18	320.72
692.52	319.66
692.85	318.77
693.19	317.79
693.52	316.99
693.86	315.99
694.20	314.94
694.53	314.04
694.87	313.01
695.21	312.03
695.54	311.09
695.88	310.23
696.21	309.21
696.55	308.50
696.88	307.67
697.22	306.91
697.56	306.23
697.89	305.45
698.23	304.61
698.56	303.74
698.90	302.91
699.23	302.02
699.57	301.27
699.90	300.37
700.24	299.42
700.58	298.57
700.91	297.76
701.25	297.13
701.58	296.52
701.92	295.86
702.25	295.13
702.59	294.45
702.92	293.64
703.26	293.00
703.59	292.22
703.93	291.67
704.26	290.90
704.60	290.16
704.93	289.43
705.26	288.86
705.60	288.30
705.93	287.76
706.27	287.21
706.60	286.61
706.94	286.06
707.27	285.50
707.61	284.88
707.94	284.41
708.27	283.66
708.61	282.85
708.94	282.40
709.28	281.78
709.61	281.17
709.94	280.68
710.28	280.15
710.61	279.52
710.95	278.75
711.28	278.37
711.61	277.85
711.95	277.37
712.28	276.72
712.61	276.05
712.95	275.53
713.28	275.06
713.61	274.50
713.95	273.83
714.28	273.31
714.61	272.73
714.95	272.20
715.28	271.69
715.61	271.22
715.95	270.62
716.28	270.20
716.61	269.77
716.95	269.25
717.28	268.69
717.61	268.33
717.94	267.91
718.28	267.42
718.61	267.00
718.94	266.57
719.27	266.18
719.61	265.84
719.94	265.45
720.27	264.91
720.60	264.50
720.94	264.23
721.27	264.03
721.60	263.77
721.93	263.37
722.27	263.24
722.60	262.97
722.93	262.58
723.26	262.29
723.59	261.96
723.93	261.70
724.26	261.40
724.59	261.02
724.92	260.68
725.25	260.39
725.59	260.00
725.92	259.77
726.25	259.50
726.58	259.29
726.91	258.95
727.24	258.81
727.57	258.52
727.91	258.23
728.24	257.88
728.57	257.49
728.90	257.23
729.23	256.69
729.56	256.50
729.89	256.32
730.22	256.01
730.55	255.77
730.89	255.55
731.22	255.38
731.55	255.15
731.88	254.98
732.21	254.60
732.54	254.30
732.87	254.04
733.20	253.84
733.53	253.53
733.86	253.26
734.19	252.89
734.52	252.80
734.85	252.72
735.18	252.48
735.51	252.33
735.84	252.00
736.17	251.99
736.50	251.59
736.83	251.53
737.16	251.40
737.49	251.15
737.82	250.72
738.15	250.50
738.48	250.20
738.81	249.90
739.14	249.70
739.47	249.48
739.80	249.21
740.13	248.91
740.46	248.70
740.79	248.44
741.12	248.23
741.45	247.93
741.78	247.64
742.11	247.50
742.44	247.18
742.77	247.06
743.10	246.70
743.43	246.50
743.75	246.13
744.08	246.06
744.41	245.87
744.74	245.80
745.07	245.54
745.40	245.43
745.73	245.31
746.06	245.00
746.39	244.87
746.71	244.65
747.04	244.50
747.37	244.27
747.70	244.08
748.03	243.99
748.36	243.80
748.68	243.53
749.01	243.17
749.34	243.05
749.67	242.88
750.00	242.70
750.33	242.74
750.65	242.50
750.98	242.13
751.31	241.94
751.64	241.77
751.97	241.73
752.29	241.49
752.62	241.28
752.95	241.21
753.28	241.06
753.60	240.78
753.93	240.59
754.26	240.40
754.59	240.36
754.91	240.14
755.24	240.08
755.57	239.96
755.90	239.90
756.22	239.72
756.55	239.56
756.88	239.46
757.20	239.11
757.53	239.01
757.86	238.92
758.19	238.72
758.51	238.62
758.84	238.44
759.17	238.36
759.49	238.31
759.82	238.30
760.15	238.15
760.47	238.18
760.80	238.16
761.13	238.19
761.45	237.99
761.78	237.85
762.11	237.74
762.43	237.74
762.76	237.66
763.08	237.67
763.41	237.50
763.74	237.40
764.06	237.31
764.39	237.23
764.71	237.08
765.04	237.13
765.37	237.02
765.69	236.94
766.02	237.01
766.34	236.95
766.67	236.76
767.00	236.79
767.32	236.82
767.65	236.76
767.97	236.71
768.30	236.63
768.62	236.57
768.95	236.45
769.27	236.26
769.60	236.24
769.92	236.18
770.25	236.18
770.57	236.07
770.90	236.07
771.22	235.99
771.55	236.09
771.87	235.99
772.20	235.86
772.52	235.98
772.85	236.08
773.17	236.01
773.50	235.99
773.82	235.83
774.15	235.64
774.47	235.41
774.80	235.31
775.12	235.18
775.45	235.04
775.77	234.99
776.09	234.98
776.42	234.95
776.74	234.79
777.07	234.70
777.39	234.63
777.72	234.47
778.04	234.46
778.36	234.23
778.69	234.14
779.01	234.17
779.33	233.80
779.66	233.46
779.98	233.37
780.31	233.34
780.63	233.36
780.95	233.36
781.28	233.27
781.60	233.22
781.92	233.33
782.25	233.32
782.57	233.27
782.89	233.10
783.22	232.90
783.54	232.81
783.86	232.81
784.19	232.70
784.51	232.64
784.83	232.53
785.16	232.39
785.48	232.25
785.80	232.16
786.12	232.20
786.45	232.09
786.77	232.01
787.09	231.82
787.42	231.69
787.74	231.65
788.06	231.63
788.38	231.44
788.71	231.32
789.03	231.19
789.35	231.00
789.67	230.95
789.99	230.98
790.32	230.93
790.64	230.95
790.96	231.05
791.28	230.97
791.61	230.88
791.93	230.97
792.25	230.95
792.57	231.09
792.89	230.94
793.21	230.98
793.54	230.96
793.86	230.97
794.18	230.94
