SpectraSuite Data File
++++++++++++++++++++++++++++++++++++
Date: Fri Feb 01 14:37:46 EST 2013
User: group
Dark Spectrum Present: No
Reference Spectrum Present: No
Number of Sampled Component Spectra: 1
Spectrometers: USB2E7196
Integration Time (usec): 70000 (USB2E7196)
Spectra Averaged: 10 (USB2E7196)
Boxcar Smoothing: 10 (USB2E7196)
Correct for Electrical Dark: No (USB2E7196)
Strobe/Lamp Enabled: No (USB2E7196)
Correct for Detector Non-linearity: No (USB2E7196)
Correct for Stray Light: No (USB2E7196)
Number of Pixels in Processed Spectrum: 2048
>>>>>Begin Processed Spectral Data<<<<<
339.09	0.00
339.48	216.50
339.86	218.90
340.24	220.80
340.63	220.20
341.01	224.60
341.39	225.10
341.78	224.10
342.16	227.10
342.54	226.60
342.93	215.38
343.31	226.21
343.69	226.74
344.07	227.13
344.46	227.43
344.84	227.81
345.22	228.03
345.60	228.14
345.99	228.34
346.37	228.32
346.75	228.36
347.13	228.42
347.52	228.34
347.90	228.34
348.28	228.38
348.66	228.36
349.05	228.35
349.43	228.45
349.81	228.43
350.19	228.48
350.57	228.54
350.96	228.51
351.34	228.66
351.72	228.75
352.10	228.87
352.48	228.97
352.87	229.05
353.25	229.04
353.63	229.07
354.01	229.08
354.39	229.19
354.77	229.26
355.15	229.34
355.54	229.41
355.92	229.39
356.30	229.50
356.68	229.51
357.06	229.57
357.44	229.58
357.82	229.50
358.20	229.49
358.58	229.50
358.97	229.62
359.35	229.61
359.73	229.69
360.11	229.70
360.49	229.72
360.87	229.70
361.25	229.74
361.63	229.91
362.01	229.95
362.39	229.95
362.77	230.01
363.15	229.92
363.53	229.93
363.91	230.04
364.29	229.93
364.67	229.90
365.05	229.88
365.43	229.88
365.81	229.90
366.19	230.06
366.57	230.13
366.95	230.18
367.33	230.10
367.71	230.01
368.09	229.95
368.47	229.93
368.85	229.97
369.23	229.94
369.61	229.78
369.99	229.85
370.37	229.82
370.75	229.87
371.13	229.86
371.51	229.74
371.89	229.68
372.27	229.62
372.65	229.51
373.03	229.45
373.41	229.40
373.78	229.41
374.16	229.16
374.54	228.99
374.92	228.82
375.30	228.86
375.68	228.78
376.06	228.74
376.44	228.61
376.82	228.49
377.19	228.40
377.57	228.37
377.95	228.22
378.33	228.15
378.71	227.89
379.09	227.81
379.47	227.80
379.84	227.66
380.22	227.58
380.60	227.54
380.98	227.46
381.36	227.41
381.73	227.37
382.11	227.33
382.49	227.30
382.87	227.28
383.25	227.15
383.62	227.36
384.00	227.30
384.38	227.30
384.76	227.23
385.13	227.26
385.51	227.23
385.89	227.22
386.27	227.23
386.64	227.21
387.02	227.14
387.40	227.11
387.78	227.11
388.15	227.18
388.53	227.02
388.91	226.90
389.29	226.88
389.66	226.80
390.04	226.80
390.42	226.75
390.79	226.66
391.17	226.70
391.55	226.38
391.92	226.32
392.30	226.42
392.68	226.41
393.05	226.42
393.43	226.43
393.81	226.42
394.18	226.35
394.56	226.55
394.94	226.64
395.31	226.68
395.69	226.86
396.06	226.86
396.44	227.01
396.82	227.15
397.19	227.21
397.57	227.25
397.95	227.26
398.32	227.22
398.70	227.29
399.07	227.46
399.45	227.55
399.82	227.67
400.20	227.61
400.58	227.67
400.95	227.71
401.33	227.91
401.70	228.10
402.08	228.30
402.45	228.28
402.83	228.44
403.20	228.57
403.58	228.56
403.95	228.70
404.33	228.88
404.71	229.11
405.08	229.41
405.46	229.55
405.83	229.73
406.21	229.98
406.58	230.20
406.96	230.23
407.33	230.43
407.70	230.73
408.08	231.11
408.45	231.43
408.83	231.60
409.20	231.79
409.58	231.99
409.95	232.22
410.33	232.68
410.70	232.96
411.08	233.34
411.45	233.87
411.82	234.25
412.20	234.75
412.57	235.22
412.95	235.59
413.32	236.21
413.69	236.80
414.07	237.48
414.44	238.08
414.82	238.84
415.19	239.73
415.56	240.54
415.94	241.35
416.31	242.35
416.68	243.33
417.06	244.34
417.43	245.36
417.81	246.66
418.18	247.70
418.55	248.87
418.93	250.22
419.30	251.50
419.67	252.96
420.04	254.37
420.42	255.90
420.79	257.73
421.16	259.41
421.54	261.18
421.91	263.09
422.28	265.20
422.66	267.28
423.03	269.32
423.40	271.38
423.77	273.62
424.15	275.80
424.52	278.34
424.89	280.98
425.26	283.43
425.64	285.73
426.01	288.44
426.38	291.22
426.75	294.02
427.13	296.90
427.50	299.76
427.87	302.90
428.24	305.95
428.61	308.88
428.99	312.23
429.36	315.82
429.73	319.26
430.10	322.70
430.47	326.05
430.85	329.53
431.22	333.30
431.59	337.33
431.96	341.18
432.33	345.20
432.70	349.16
433.08	353.97
433.45	358.50
433.82	362.98
434.19	368.14
434.56	372.88
434.93	377.57
435.30	382.32
435.68	387.44
436.05	392.56
436.42	397.60
436.79	402.17
437.16	407.13
437.53	412.16
437.90	417.08
438.27	422.25
438.64	427.55
439.01	432.47
439.38	436.92
439.75	441.14
440.13	446.03
440.50	450.52
440.87	454.14
441.24	457.84
441.61	462.10
441.98	465.14
442.35	468.88
442.72	472.50
443.09	476.33
443.46	478.57
443.83	480.07
444.20	481.37
444.57	483.41
444.94	484.35
445.31	485.73
445.68	487.14
446.05	487.77
446.42	487.69
446.79	487.54
447.16	487.21
447.53	487.23
447.90	485.82
448.27	484.36
448.64	482.16
449.01	480.80
449.37	477.85
449.74	474.84
450.11	471.30
450.48	467.39
450.85	463.40
451.22	460.17
451.59	456.96
451.96	454.01
452.33	449.66
452.70	446.03
453.07	441.33
453.43	436.49
453.80	431.95
454.17	427.58
454.54	423.17
454.91	418.48
455.28	413.93
455.65	409.65
456.02	405.58
456.38	402.02
456.75	397.47
457.12	393.58
457.49	389.85
457.86	386.21
458.23	383.10
458.59	379.57
458.96	375.95
459.33	372.88
459.70	369.67
460.07	367.14
460.43	364.18
460.80	361.40
461.17	358.76
461.54	356.15
461.91	353.60
462.27	351.15
462.64	348.95
463.01	346.58
463.38	344.25
463.74	341.93
464.11	339.86
464.48	338.05
464.85	336.07
465.21	334.56
465.58	332.95
465.95	330.99
466.32	329.29
466.68	327.63
467.05	325.97
467.42	324.24
467.78	322.55
468.15	320.83
468.52	319.55
468.88	317.98
469.25	316.50
469.62	315.20
469.98	313.93
470.35	312.74
470.72	311.45
471.08	310.27
471.45	309.17
471.82	308.07
472.18	306.99
472.55	306.13
472.92	305.00
473.28	304.09
473.65	303.20
474.02	302.26
474.38	301.55
474.75	300.81
475.11	300.13
475.48	299.48
475.85	298.88
476.21	298.13
476.58	297.62
476.94	297.25
477.31	296.87
477.67	296.35
478.04	295.86
478.41	295.58
478.77	295.32
479.14	295.00
479.50	294.71
479.87	294.36
480.23	294.13
480.60	293.87
480.96	293.69
481.33	293.54
481.69	293.37
482.06	293.16
482.42	293.00
482.79	292.76
483.15	292.78
483.52	292.87
483.88	292.82
484.25	292.82
484.61	292.72
484.98	292.67
485.34	292.80
485.71	293.00
486.07	293.11
486.44	293.05
486.80	293.09
487.17	293.25
487.53	293.60
487.90	293.90
488.26	294.21
488.62	294.38
488.99	294.63
489.35	294.87
489.72	295.14
490.08	295.52
490.44	295.94
490.81	296.18
491.17	296.51
491.54	297.08
491.90	297.61
492.26	298.12
492.63	298.58
492.99	298.99
493.36	299.46
493.72	300.04
494.08	300.71
494.45	301.21
494.81	301.69
495.17	302.20
495.54	302.66
495.90	303.26
496.26	303.79
496.63	304.38
496.99	304.93
497.35	305.58
497.72	306.19
498.08	306.69
498.44	307.30
498.80	307.83
499.17	308.30
499.53	308.78
499.89	309.39
500.26	309.93
500.62	310.50
500.98	311.10
501.34	311.60
501.71	312.06
502.07	312.51
502.43	313.03
502.79	313.34
503.16	313.73
503.52	314.19
503.88	314.56
504.24	314.99
504.60	315.37
504.97	315.70
505.33	316.01
505.69	316.45
506.05	316.78
506.41	316.98
506.78	317.30
507.14	317.60
507.50	317.70
507.86	317.95
508.22	318.20
508.59	318.20
508.95	318.30
509.31	318.53
509.67	318.82
510.03	318.97
510.39	319.18
510.75	319.32
511.12	319.27
511.48	319.49
511.84	319.54
512.20	319.62
512.56	319.76
512.92	319.88
513.28	319.95
513.64	319.95
514.00	320.00
514.37	320.09
514.73	320.14
515.09	320.36
515.45	320.45
515.81	320.49
516.17	320.85
516.53	321.20
516.89	321.33
517.25	321.51
517.61	321.87
517.97	322.24
518.33	322.67
518.69	323.34
519.05	323.82
519.41	324.40
519.77	325.04
520.13	325.60
520.49	326.19
520.85	327.00
521.21	328.01
521.57	329.15
521.93	330.09
522.29	331.14
522.65	332.07
523.01	333.23
523.37	334.53
523.73	335.69
524.09	336.89
524.45	338.24
524.81	339.90
525.17	341.57
525.53	343.16
525.89	344.81
526.25	346.53
526.61	348.22
526.97	350.10
527.33	352.16
527.68	354.26
528.04	356.51
528.40	358.59
528.76	360.89
529.12	363.27
529.48	365.90
529.84	368.33
530.20	370.97
530.56	373.72
530.91	376.75
531.27	379.68
531.63	382.62
531.99	385.62
532.35	388.44
532.71	391.50
533.07	394.85
533.42	398.38
533.78	401.66
534.14	405.29
534.50	408.81
534.86	412.40
535.21	416.08
535.57	420.05
535.93	424.09
536.29	427.93
536.65	431.90
537.00	435.83
537.36	440.04
537.72	444.34
538.08	448.57
538.44	452.52
538.79	456.86
539.15	461.35
539.51	465.89
539.87	470.50
540.22	474.99
540.58	479.46
540.94	483.82
541.29	488.45
541.65	492.99
542.01	497.89
542.37	502.61
542.72	507.36
543.08	511.83
543.44	516.70
543.79	521.38
544.15	526.28
544.51	531.30
544.87	536.30
545.22	541.19
545.58	546.20
545.94	551.06
546.29	556.01
546.65	560.85
547.01	565.94
547.36	570.89
547.72	575.87
548.07	580.79
548.43	585.81
548.79	591.03
549.14	596.09
549.50	600.99
549.86	605.94
550.21	611.03
550.57	616.48
550.92	621.38
551.28	626.42
551.64	631.57
551.99	636.53
552.35	641.52
552.70	646.50
553.06	651.50
553.41	656.67
553.77	661.73
554.13	666.89
554.48	671.85
554.84	676.99
555.19	682.06
555.55	687.15
555.90	692.11
556.26	696.92
556.61	701.74
556.97	706.48
557.32	711.20
557.68	715.93
558.03	720.30
558.39	725.02
558.74	729.99
559.10	734.38
559.45	739.09
559.81	743.71
560.16	748.38
560.52	752.82
560.87	757.69
561.23	762.27
561.58	766.60
561.94	770.92
562.29	775.05
562.64	779.26
563.00	783.24
563.35	787.75
563.71	792.20
564.06	796.76
564.42	800.76
564.77	805.11
565.12	809.34
565.48	813.74
565.83	817.67
566.19	821.77
566.54	825.80
566.89	829.58
567.25	833.63
567.60	837.60
567.96	841.61
568.31	845.20
568.66	848.70
569.02	852.30
569.37	855.64
569.72	859.24
570.08	862.50
570.43	866.18
570.78	869.05
571.14	871.92
571.49	874.69
571.84	878.25
572.20	880.93
572.55	883.61
572.90	886.00
573.26	889.07
573.61	891.44
573.96	893.86
574.31	896.10
574.67	897.78
575.02	899.60
575.37	901.63
575.72	902.97
576.08	904.66
576.43	906.28
576.78	908.11
577.13	909.74
577.49	911.54
577.84	912.82
578.19	914.59
578.54	916.22
578.90	917.85
579.25	918.61
579.60	919.79
579.95	920.80
580.30	921.80
580.66	922.26
581.01	922.94
581.36	923.81
581.71	924.68
582.06	925.61
582.42	926.14
582.77	926.43
583.12	927.04
583.47	927.84
583.82	928.53
584.17	928.96
584.53	929.47
584.88	929.88
585.23	930.31
585.58	930.48
585.93	930.70
586.28	930.98
586.63	931.34
586.98	931.73
587.34	931.93
587.69	932.00
588.04	932.38
588.39	932.62
588.74	932.29
589.09	932.12
589.44	931.59
589.79	931.72
590.14	931.62
590.49	931.60
590.84	930.99
591.19	930.70
591.54	929.75
591.89	928.67
592.25	928.10
592.60	927.13
592.95	926.02
593.30	924.64
593.65	923.30
594.00	922.16
594.35	921.60
594.70	920.09
595.05	918.96
595.40	917.53
595.75	916.15
596.10	915.32
596.45	914.20
596.80	913.71
597.15	912.43
597.50	911.11
597.85	909.72
598.19	908.82
598.54	907.73
598.89	906.77
599.24	905.97
599.59	904.61
599.94	903.71
600.29	902.36
600.64	901.37
600.99	899.88
601.34	898.40
601.69	896.33
602.04	895.22
602.39	893.91
602.74	892.79
603.08	891.52
603.43	890.08
603.78	888.46
604.13	886.70
604.48	884.75
604.83	883.14
605.18	881.90
605.53	879.86
605.87	877.74
606.22	876.08
606.57	874.13
606.92	872.37
607.27	870.43
607.62	868.94
607.96	867.06
608.31	865.26
608.66	863.32
609.01	860.96
609.36	858.57
609.70	856.04
610.05	853.36
610.40	850.94
610.75	848.27
611.10	845.72
611.44	843.09
611.79	841.25
612.14	838.61
612.49	835.42
612.83	832.77
613.18	829.88
613.53	827.19
613.88	824.16
614.22	821.21
614.57	818.30
614.92	815.34
615.27	812.69
615.61	809.93
615.96	807.27
616.31	805.04
616.65	802.82
617.00	800.27
617.35	797.85
617.70	795.12
618.04	792.24
618.39	789.51
618.74	786.91
619.08	783.69
619.43	781.08
619.78	778.69
620.12	776.13
620.47	773.70
620.82	770.77
621.16	768.31
621.51	765.76
621.85	762.96
622.20	760.27
622.55	757.52
622.89	755.02
623.24	752.36
623.59	749.84
623.93	747.20
624.28	744.60
624.62	741.95
624.97	739.32
625.32	736.98
625.66	734.44
626.01	731.66
626.35	729.13
626.70	726.50
627.04	724.01
627.39	721.16
627.73	718.38
628.08	715.68
628.43	713.07
628.77	710.39
629.12	707.81
629.46	704.95
629.81	701.84
630.15	698.84
630.50	695.90
630.84	692.46
631.19	689.40
631.53	686.33
631.88	682.88
632.22	679.69
632.57	677.00
632.91	674.06
633.26	670.95
633.60	667.97
633.95	665.02
634.29	662.21
634.64	659.50
634.98	656.52
635.32	654.04
635.67	651.39
636.01	648.43
636.36	645.70
636.70	643.18
637.05	640.54
637.39	638.11
637.73	635.69
638.08	633.68
638.42	631.08
638.77	628.74
639.11	626.46
639.45	624.16
639.80	621.15
640.14	618.62
640.49	616.24
640.83	613.64
641.17	611.02
641.52	608.17
641.86	605.75
642.20	603.46
642.55	600.94
642.89	598.29
643.23	595.83
643.58	593.52
643.92	590.86
644.26	588.48
644.61	585.70
644.95	582.98
645.29	579.83
645.64	577.14
645.98	574.55
646.32	572.17
646.66	569.47
647.01	567.07
647.35	564.60
647.69	562.07
648.04	559.88
648.38	557.50
648.72	554.90
649.06	551.89
649.41	549.24
649.75	546.48
650.09	543.77
650.43	541.16
650.78	538.17
651.12	535.62
651.46	532.90
651.80	530.44
652.14	527.94
652.49	525.77
652.83	523.14
653.17	520.57
653.51	517.66
653.85	515.08
654.20	512.32
654.54	509.51
654.88	506.70
655.22	503.94
655.56	501.32
655.90	498.95
656.25	496.77
656.59	494.39
656.93	492.07
657.27	489.80
657.61	487.31
657.95	485.29
658.29	482.96
658.64	480.72
658.98	478.35
659.32	475.97
659.66	473.55
660.00	471.34
660.34	468.93
660.68	466.92
661.02	464.68
661.36	462.64
661.70	460.71
662.05	458.91
662.39	456.88
662.73	454.88
663.07	452.75
663.41	450.72
663.75	448.72
664.09	446.76
664.43	444.57
664.77	442.63
665.11	440.53
665.45	438.80
665.79	436.90
666.13	434.81
666.47	432.90
666.81	430.85
667.15	428.99
667.49	427.28
667.83	425.48
668.17	423.70
668.51	421.95
668.85	419.91
669.19	418.02
669.53	416.18
669.87	414.39
670.21	412.80
670.55	411.04
670.89	409.40
671.23	407.66
671.57	406.13
671.91	404.51
672.25	402.78
672.58	401.08
672.92	399.39
673.26	397.96
673.60	396.49
673.94	394.99
674.28	393.59
674.62	392.30
674.96	390.69
675.30	389.37
675.64	387.81
675.97	386.53
676.31	385.18
676.65	383.79
676.99	382.45
677.33	381.08
677.67	379.71
678.01	378.22
678.34	376.79
678.68	375.52
679.02	374.11
679.36	372.83
679.70	371.35
680.04	370.03
680.37	368.63
680.71	367.21
681.05	366.10
681.39	364.81
681.73	363.48
682.06	362.46
682.40	361.04
682.74	359.95
683.08	358.87
683.42	357.61
683.75	356.40
684.09	354.97
684.43	353.66
684.77	352.47
685.10	351.24
685.44	350.02
685.78	348.80
686.12	347.64
686.45	346.38
686.79	345.14
687.13	344.07
687.46	342.98
687.80	341.91
688.14	340.73
688.48	339.60
688.81	338.26
689.15	337.02
689.49	335.95
689.82	334.81
690.16	333.62
690.50	332.67
690.83	331.52
691.17	330.51
691.51	329.38
691.84	328.44
692.18	327.40
692.52	326.25
692.85	325.26
693.19	324.16
693.52	323.12
693.86	322.13
694.20	321.15
694.53	320.09
694.87	319.05
695.21	317.98
695.54	316.89
695.88	315.89
696.21	314.89
696.55	313.89
696.88	312.80
697.22	311.85
697.56	310.78
697.89	309.95
698.23	308.98
698.56	308.03
698.90	307.00
699.23	305.96
699.57	305.16
699.90	304.09
700.24	303.17
700.58	302.36
700.91	301.51
701.25	300.76
701.58	300.09
701.92	299.26
702.25	298.45
702.59	297.79
702.92	297.11
703.26	296.23
703.59	295.51
703.93	295.00
704.26	294.24
704.60	293.55
704.93	292.77
705.26	292.13
705.60	291.52
705.93	290.87
706.27	290.40
706.60	289.81
706.94	289.30
707.27	288.84
707.61	288.14
707.94	287.56
708.27	286.67
708.61	286.01
708.94	285.47
709.28	284.93
709.61	284.35
709.94	283.87
710.28	283.40
710.61	282.80
710.95	281.97
711.28	281.53
711.61	281.03
711.95	280.44
712.28	279.79
712.61	279.29
712.95	278.80
713.28	278.34
713.61	277.73
713.95	277.12
714.28	276.50
714.61	276.06
714.95	275.59
715.28	275.03
715.61	274.35
715.95	273.89
716.28	273.49
716.61	272.99
716.95	272.41
717.28	272.00
717.61	271.63
717.94	271.30
718.28	270.75
718.61	270.32
718.94	269.89
719.27	269.56
719.61	268.97
719.94	268.60
720.27	268.07
720.60	267.67
720.94	267.32
721.27	266.93
721.60	266.55
721.93	266.07
722.27	265.81
722.60	265.59
722.93	265.13
723.26	264.74
723.59	264.38
723.93	263.96
724.26	263.68
724.59	263.23
724.92	262.86
725.25	262.53
725.59	262.06
725.92	261.72
726.25	261.35
726.58	261.16
726.91	260.81
727.24	260.53
727.57	260.23
727.91	259.79
728.24	259.45
728.57	259.05
728.90	258.74
729.23	258.41
729.56	258.17
729.89	257.78
730.22	257.39
730.55	256.98
730.89	256.68
731.22	256.27
731.55	256.02
731.88	255.65
732.21	255.24
732.54	254.97
732.87	254.57
733.20	254.32
733.53	254.01
733.86	253.66
734.19	253.31
734.52	253.06
734.85	252.97
735.18	252.66
735.51	252.46
735.84	252.32
736.17	252.07
736.50	251.68
736.83	251.70
737.16	251.47
737.49	251.26
737.82	250.97
738.15	250.73
738.48	250.48
738.81	250.39
739.14	250.13
739.47	249.99
739.80	249.88
740.13	249.74
740.46	249.53
740.79	249.26
741.12	249.02
741.45	248.81
741.78	248.50
742.11	248.40
742.44	248.26
742.77	247.85
743.10	247.63
743.43	247.33
743.75	246.91
744.08	246.86
744.41	246.64
744.74	246.61
745.07	246.36
745.40	246.23
745.73	246.03
746.06	245.92
746.39	245.68
746.71	245.50
747.04	245.21
747.37	244.93
747.70	244.74
748.03	244.56
748.36	244.42
748.68	244.29
749.01	243.90
749.34	243.66
749.67	243.62
750.00	243.49
750.33	243.47
750.65	243.42
750.98	243.11
751.31	242.94
751.64	242.68
751.97	242.55
752.29	242.38
752.62	242.10
752.95	241.91
753.28	241.66
753.60	241.48
753.93	241.31
754.26	241.21
754.59	241.07
754.91	240.97
755.24	240.78
755.57	240.51
755.90	240.69
756.22	240.46
756.55	240.29
756.88	240.12
757.20	239.94
757.53	239.65
757.86	239.50
758.19	239.36
758.51	239.17
758.84	239.06
759.17	238.85
759.49	238.81
759.82	238.88
760.15	238.87
760.47	238.78
760.80	238.67
761.13	238.52
761.45	238.31
761.78	238.10
762.11	237.90
762.43	237.79
762.76	237.55
763.08	237.50
763.41	237.31
763.74	237.25
764.06	237.07
764.39	237.04
764.71	236.99
765.04	236.91
765.37	236.84
765.69	236.64
766.02	236.45
766.34	236.40
766.67	236.18
767.00	236.12
767.32	236.12
767.65	236.12
767.97	236.12
768.30	236.07
768.62	236.00
768.95	235.87
769.27	235.91
769.60	235.75
769.92	235.60
770.25	235.54
770.57	235.31
770.90	235.25
771.22	235.18
771.55	235.09
771.87	235.09
772.20	235.04
772.52	235.27
772.85	235.50
773.17	235.33
773.50	235.30
773.82	235.18
774.15	235.01
774.47	234.74
774.80	234.63
775.12	234.62
775.45	234.61
775.77	234.52
776.09	234.36
776.42	234.39
776.74	234.42
777.07	234.34
777.39	234.33
777.72	234.31
778.04	234.26
778.36	234.10
778.69	233.95
779.01	233.99
779.33	233.65
779.66	233.40
779.98	233.33
780.31	233.26
780.63	233.25
780.95	233.18
781.28	233.29
781.60	233.20
781.92	233.15
782.25	232.99
782.57	233.10
782.89	233.04
783.22	232.95
783.54	232.86
783.86	232.90
784.19	232.81
784.51	232.75
784.83	232.69
785.16	232.70
785.48	232.70
785.80	232.60
786.12	232.58
786.45	232.57
786.77	232.58
787.09	232.43
787.42	232.23
787.74	232.20
788.06	232.09
788.38	232.04
788.71	231.91
789.03	231.95
789.35	231.83
789.67	231.86
789.99	231.84
790.32	231.83
790.64	231.65
790.96	231.84
791.28	231.76
791.61	231.74
791.93	231.67
792.25	231.58
792.57	231.57
792.89	231.62
793.21	231.47
793.54	231.33
793.86	231.41
794.18	231.52
