SpectraSuite Data File
++++++++++++++++++++++++++++++++++++
Date: Fri Feb 01 14:35:18 EST 2013
User: group
Dark Spectrum Present: No
Reference Spectrum Present: No
Number of Sampled Component Spectra: 1
Spectrometers: USB2E7196
Integration Time (usec): 70000 (USB2E7196)
Spectra Averaged: 10 (USB2E7196)
Boxcar Smoothing: 10 (USB2E7196)
Correct for Electrical Dark: No (USB2E7196)
Strobe/Lamp Enabled: No (USB2E7196)
Correct for Detector Non-linearity: No (USB2E7196)
Correct for Stray Light: No (USB2E7196)
Number of Pixels in Processed Spectrum: 2048
>>>>>Begin Processed Spectral Data<<<<<
339.09	0.00
339.48	216.70
339.86	217.40
340.24	219.20
340.63	220.60
341.01	225.30
341.39	225.20
341.78	224.10
342.16	225.80
342.54	227.10
342.93	215.25
343.31	226.23
343.69	226.79
344.07	227.20
344.46	227.63
344.84	228.01
345.22	228.15
345.60	228.34
345.99	228.59
346.37	228.80
346.75	228.82
347.13	228.83
347.52	228.88
347.90	228.94
348.28	229.02
348.66	229.03
349.05	228.95
349.43	228.95
349.81	229.12
350.19	229.20
350.57	229.22
350.96	229.32
351.34	229.29
351.72	229.30
352.10	229.43
352.48	229.51
352.87	229.61
353.25	229.58
353.63	229.60
354.01	229.67
354.39	229.67
354.77	229.66
355.15	229.75
355.54	229.77
355.92	229.72
356.30	229.65
356.68	229.77
357.06	229.90
357.44	229.96
357.82	229.88
358.20	229.93
358.58	229.97
358.97	230.04
359.35	230.18
359.73	230.30
360.11	230.42
360.49	230.43
360.87	230.37
361.25	230.57
361.63	230.60
362.01	230.62
362.39	230.68
362.77	230.82
363.15	230.79
363.53	230.73
363.91	230.75
364.29	230.84
364.67	230.65
365.05	230.59
365.43	230.49
365.81	230.57
366.19	230.69
366.57	230.71
366.95	230.65
367.33	230.50
367.71	230.41
368.09	230.33
368.47	230.33
368.85	230.28
369.23	230.23
369.61	230.20
369.99	230.11
370.37	229.98
370.75	230.00
371.13	229.83
371.51	229.84
371.89	229.90
372.27	229.80
372.65	229.74
373.03	229.73
373.41	229.68
373.78	229.57
374.16	229.36
374.54	229.23
374.92	229.13
375.30	228.98
375.68	228.97
376.06	228.95
376.44	228.83
376.82	228.80
377.19	228.68
377.57	228.59
377.95	228.52
378.33	228.45
378.71	228.27
379.09	228.29
379.47	228.15
379.84	227.95
380.22	227.87
380.60	227.74
380.98	227.54
381.36	227.46
381.73	227.26
382.11	227.21
382.49	227.10
382.87	227.02
383.25	226.95
383.62	227.06
384.00	226.87
384.38	226.78
384.76	226.77
385.13	226.74
385.51	226.69
385.89	226.55
386.27	226.60
386.64	226.52
387.02	226.49
387.40	226.52
387.78	226.47
388.15	226.45
388.53	226.48
388.91	226.49
389.29	226.49
389.66	226.67
390.04	226.64
390.42	226.68
390.79	226.69
391.17	226.78
391.55	226.44
391.92	226.50
392.30	226.53
392.68	226.50
393.05	226.51
393.43	226.50
393.81	226.59
394.18	226.48
394.56	226.62
394.94	226.68
395.31	226.74
395.69	226.95
396.06	226.98
396.44	227.03
396.82	227.13
397.19	227.29
397.57	227.17
397.95	227.30
398.32	227.31
398.70	227.44
399.07	227.58
399.45	227.87
399.82	228.03
400.20	228.13
400.58	228.26
400.95	228.47
401.33	228.70
401.70	229.08
402.08	229.39
402.45	229.50
402.83	229.72
403.20	229.89
403.58	230.06
403.95	230.40
404.33	230.72
404.71	231.00
405.08	231.43
405.46	231.85
405.83	232.16
406.21	232.64
406.58	233.01
406.96	233.34
407.33	233.68
407.70	234.15
408.08	234.76
408.45	235.26
408.83	235.67
409.20	236.06
409.58	236.49
409.95	237.02
410.33	237.64
410.70	238.25
411.08	238.96
411.45	239.71
411.82	240.43
412.20	241.20
412.57	242.20
412.95	242.88
413.32	243.88
413.69	244.91
414.07	245.82
414.44	246.99
414.82	248.25
415.19	249.75
415.56	251.03
415.94	252.53
416.31	254.17
416.68	255.89
417.06	257.91
417.43	259.57
417.81	261.59
418.18	263.84
418.55	266.12
418.93	268.50
419.30	271.00
419.67	273.58
420.04	276.27
420.42	278.92
420.79	282.21
421.16	285.33
421.54	288.68
421.91	292.27
422.28	295.89
422.66	299.72
423.03	303.28
423.40	307.20
423.77	311.14
424.15	315.39
424.52	319.63
424.89	324.20
425.26	328.90
425.64	333.17
426.01	337.88
426.38	342.65
426.75	347.63
427.13	352.66
427.50	358.02
427.87	363.60
428.24	369.35
428.61	374.57
428.99	380.63
429.36	387.23
429.73	393.54
430.10	399.74
430.47	406.09
430.85	412.71
431.22	419.58
431.59	427.00
431.96	433.87
432.33	441.65
432.70	449.15
433.08	458.10
433.45	466.66
433.82	474.87
434.19	484.27
434.56	493.39
434.93	502.16
435.30	510.77
435.68	520.29
436.05	529.70
436.42	539.03
436.79	547.50
437.16	556.36
437.53	565.89
437.90	575.26
438.27	584.51
438.64	594.27
439.01	603.41
439.38	611.50
439.75	619.44
440.13	628.42
440.50	636.92
440.87	643.94
441.24	651.11
441.61	659.27
441.98	665.19
442.35	672.06
442.72	679.10
443.09	686.18
443.46	690.90
443.83	693.98
444.20	697.05
444.57	700.95
444.94	703.60
445.31	705.98
445.68	708.33
446.05	710.21
446.42	710.58
446.79	710.57
447.16	710.51
447.53	710.91
447.90	708.43
448.27	706.17
448.64	702.17
449.01	699.95
449.37	694.40
449.74	689.36
450.11	683.23
450.48	676.42
450.85	669.27
451.22	663.18
451.59	657.65
451.96	652.13
452.33	644.48
452.70	637.43
453.07	629.02
453.43	620.60
453.80	612.14
454.17	603.65
454.54	595.99
454.91	587.78
455.28	579.53
455.65	572.06
456.02	564.16
456.38	557.53
456.75	548.96
457.12	542.27
457.49	535.56
457.86	528.78
458.23	522.83
458.59	516.45
458.96	509.93
459.33	504.06
459.70	498.30
460.07	493.61
460.43	488.15
460.80	482.95
461.17	478.27
461.54	473.60
461.91	469.22
462.27	464.61
462.64	460.33
463.01	455.88
463.38	451.64
463.74	447.44
464.11	443.64
464.48	440.36
464.85	436.85
465.21	433.88
465.58	430.89
465.95	427.34
466.32	424.36
466.68	421.22
467.05	418.29
467.42	415.29
467.78	412.29
468.15	409.38
468.52	407.23
468.88	404.61
469.25	401.91
469.62	399.80
469.98	397.58
470.35	395.68
470.72	393.64
471.08	391.42
471.45	389.68
471.82	387.67
472.18	385.48
472.55	383.75
472.92	382.08
473.28	380.50
473.65	378.95
474.02	377.18
474.38	375.83
474.75	374.63
475.11	373.31
475.48	372.48
475.85	371.50
476.21	370.54
476.58	369.55
476.94	368.80
477.31	368.11
477.67	367.22
478.04	366.51
478.41	366.12
478.77	365.81
479.14	365.25
479.50	365.14
479.87	365.16
480.23	365.00
480.60	364.76
480.96	364.59
481.33	364.75
481.69	364.97
482.06	365.07
482.42	364.92
482.79	365.09
483.15	365.19
483.52	365.66
483.88	366.00
484.25	366.43
484.61	367.04
484.98	367.60
485.34	368.50
485.71	369.44
486.07	370.11
486.44	370.80
486.80	371.81
487.17	372.69
487.53	373.88
487.90	375.11
488.26	376.36
488.62	377.65
488.99	378.83
489.35	380.12
489.72	381.61
490.08	383.38
490.44	385.00
490.81	386.66
491.17	388.24
491.54	390.14
491.90	392.13
492.26	394.10
492.63	395.94
492.99	397.82
493.36	399.94
493.72	402.35
494.08	404.56
494.45	406.77
494.81	409.25
495.17	411.65
495.54	414.15
495.90	416.77
496.26	419.38
496.63	422.18
496.99	425.12
497.35	427.95
497.72	430.84
498.08	433.73
498.44	436.85
498.80	440.03
499.17	443.07
499.53	446.10
499.89	449.26
500.26	452.22
500.62	455.33
500.98	458.34
501.34	461.35
501.71	464.51
502.07	467.66
502.43	470.80
502.79	473.71
503.16	476.80
503.52	479.62
503.88	482.58
504.24	485.44
504.60	488.49
504.97	491.62
505.33	494.53
505.69	497.64
506.05	500.51
506.41	503.15
506.78	505.77
507.14	508.40
507.50	511.05
507.86	513.86
508.22	516.54
508.59	519.10
508.95	521.68
509.31	524.15
509.67	526.75
510.03	529.20
510.39	531.72
510.75	534.10
511.12	536.47
511.48	538.81
511.84	541.21
512.20	543.24
512.56	545.19
512.92	547.31
513.28	549.26
513.64	550.84
514.00	552.80
514.37	554.58
514.73	556.50
515.09	558.02
515.45	559.74
515.81	561.18
516.17	562.85
516.53	564.30
516.89	565.88
517.25	567.08
517.61	568.48
517.97	569.74
518.33	570.98
518.69	572.27
519.05	573.44
519.41	574.57
519.77	575.97
520.13	577.28
520.49	578.16
520.85	579.06
521.21	580.39
521.57	581.57
521.93	582.60
522.29	583.75
522.65	584.93
523.01	585.69
523.37	586.85
523.73	587.77
524.09	588.75
524.45	589.88
524.81	590.94
525.17	592.08
525.53	593.31
525.89	594.31
526.25	595.61
526.61	596.66
526.97	597.87
527.33	599.00
527.68	600.32
528.04	601.70
528.40	603.07
528.76	604.61
529.12	606.00
529.48	607.67
529.84	608.93
530.20	610.57
530.56	612.50
530.91	614.46
531.27	616.23
531.63	617.89
531.99	619.60
532.35	621.45
532.71	623.08
533.07	625.06
533.42	627.26
533.78	629.20
534.14	631.41
534.50	633.46
534.86	635.40
535.21	637.35
535.57	639.71
535.93	641.86
536.29	643.85
536.65	646.10
537.00	648.37
537.36	650.71
537.72	652.97
538.08	655.22
538.44	657.32
538.79	659.78
539.15	662.25
539.51	664.85
539.87	667.59
540.22	670.18
540.58	673.08
540.94	675.63
541.29	678.14
541.65	680.81
542.01	683.80
542.37	686.83
542.72	689.68
543.08	692.41
543.44	695.44
543.79	698.38
544.15	701.33
544.51	704.58
544.87	708.09
545.22	711.48
545.58	714.52
545.94	717.70
546.29	720.73
546.65	724.12
547.01	727.18
547.36	730.50
547.72	733.72
548.07	736.56
548.43	739.73
548.79	742.90
549.14	746.23
549.50	749.21
549.86	752.24
550.21	755.36
550.57	758.64
550.92	761.72
551.28	764.81
551.64	767.93
551.99	771.04
552.35	773.89
552.70	776.77
553.06	780.23
553.41	783.39
553.77	786.71
554.13	789.94
554.48	793.24
554.84	796.21
555.19	799.31
555.55	802.73
555.90	805.99
556.26	809.47
556.61	812.74
556.97	815.86
557.32	818.72
557.68	821.96
558.03	825.18
558.39	828.43
558.74	831.75
559.10	835.08
559.45	838.25
559.81	841.53
560.16	844.90
560.52	848.02
560.87	851.34
561.23	854.40
561.58	857.48
561.94	860.59
562.29	863.57
562.64	866.44
563.00	869.07
563.35	872.08
563.71	875.05
564.06	877.93
564.42	880.91
564.77	884.11
565.12	887.03
565.48	889.82
565.83	892.50
566.19	895.35
566.54	897.90
566.89	900.34
567.25	903.01
567.60	905.52
567.96	908.08
568.31	910.17
568.66	912.32
569.02	914.39
569.37	916.44
569.72	918.70
570.08	921.07
570.43	923.35
570.78	925.05
571.14	926.39
571.49	927.98
571.84	929.91
572.20	931.60
572.55	933.13
572.90	934.53
573.26	936.15
573.61	937.40
573.96	938.62
574.31	939.56
574.67	939.88
575.02	940.62
575.37	941.66
575.72	942.31
576.08	943.11
576.43	943.92
576.78	944.61
577.13	945.26
577.49	945.60
577.84	945.99
578.19	946.41
578.54	947.16
578.90	947.40
579.25	947.34
579.60	947.47
579.95	947.50
580.30	947.29
580.66	947.19
581.01	947.24
581.36	947.36
581.71	947.37
582.06	947.73
582.42	947.57
582.77	946.96
583.12	946.70
583.47	946.62
583.82	946.27
584.17	945.68
584.53	945.07
584.88	944.85
585.23	944.33
585.58	944.11
585.93	943.54
586.28	943.20
586.63	942.61
586.98	941.99
587.34	941.40
587.69	940.98
588.04	940.50
588.39	939.76
588.74	938.41
589.09	937.39
589.44	936.11
589.79	934.70
590.14	933.85
590.49	932.89
590.84	931.50
591.19	930.42
591.54	929.00
591.89	927.27
592.25	926.12
592.60	924.20
592.95	922.35
593.30	920.49
593.65	918.64
594.00	916.89
594.35	915.69
594.70	913.71
595.05	911.94
595.40	909.74
595.75	907.65
596.10	906.06
596.45	904.70
596.80	903.54
597.15	902.16
597.50	900.16
597.85	898.68
598.19	897.23
598.54	895.76
598.89	894.19
599.24	892.80
599.59	890.77
599.94	889.47
600.29	887.94
600.64	886.21
600.99	884.08
601.34	882.26
601.69	879.63
602.04	877.64
602.39	875.62
602.74	873.91
603.08	872.37
603.43	870.53
603.78	868.36
604.13	866.02
604.48	864.02
604.83	861.92
605.18	859.82
605.53	857.00
605.87	854.31
606.22	852.02
606.57	849.81
606.92	847.52
607.27	845.14
607.62	843.01
607.96	840.80
608.31	838.75
608.66	836.13
609.01	833.46
609.36	830.89
609.70	827.88
610.05	824.96
610.40	822.04
610.75	819.38
611.10	816.40
611.44	813.27
611.79	810.24
612.14	807.47
612.49	804.14
612.83	801.37
613.18	798.24
613.53	795.19
613.88	792.10
614.22	788.98
614.57	785.83
614.92	782.54
615.27	779.72
615.61	776.62
615.96	773.82
616.31	771.09
616.65	768.36
617.00	765.93
617.35	763.06
617.70	759.88
618.04	756.65
618.39	753.77
618.74	751.05
619.08	748.04
619.43	745.20
619.78	742.49
620.12	739.81
620.47	737.20
620.82	734.43
621.16	731.40
621.51	728.70
621.85	725.84
622.20	722.78
622.55	719.63
622.89	716.79
623.24	714.17
623.59	711.74
623.93	709.08
624.28	706.17
624.62	703.68
624.97	701.38
625.32	698.81
625.66	696.10
626.01	693.38
626.35	690.68
626.70	688.01
627.04	685.41
627.39	682.53
627.73	679.86
628.08	677.06
628.43	674.44
628.77	671.68
629.12	668.84
629.46	666.04
629.81	663.20
630.15	660.36
630.50	657.41
630.84	654.02
631.19	650.93
631.53	648.10
631.88	644.80
632.22	641.58
632.57	638.77
632.91	635.93
633.26	633.31
633.60	630.52
633.95	627.53
634.29	624.74
634.64	622.40
634.98	619.42
635.32	616.88
635.67	614.37
636.01	611.82
636.36	609.23
636.70	606.78
637.05	604.31
637.39	601.91
637.73	599.34
638.08	597.40
638.42	595.15
638.77	592.92
639.11	590.56
639.45	588.30
639.80	585.78
640.14	583.44
640.49	580.90
640.83	578.46
641.17	576.26
641.52	573.75
641.86	571.11
642.20	568.81
642.55	566.32
642.89	564.00
643.23	561.41
643.58	559.32
643.92	556.88
644.26	554.55
644.61	552.46
644.95	550.25
645.29	547.62
645.64	545.19
645.98	542.80
646.32	540.64
646.66	538.07
647.01	535.87
647.35	533.50
647.69	531.21
648.04	529.07
648.38	526.46
648.72	523.97
649.06	521.54
649.41	519.22
649.75	516.77
650.09	514.09
650.43	511.69
650.78	508.98
651.12	506.54
651.46	504.17
651.80	501.65
652.14	499.21
652.49	496.78
652.83	494.44
653.17	491.92
653.51	489.49
653.85	487.15
654.20	484.57
654.54	482.16
654.88	479.60
655.22	477.00
655.56	474.75
655.90	472.70
656.25	470.41
656.59	468.16
656.93	466.12
657.27	464.19
657.61	461.92
657.95	460.02
658.29	458.04
658.64	455.97
658.98	453.72
659.32	451.41
659.66	449.45
660.00	447.42
660.34	445.34
660.68	443.35
661.02	441.28
661.36	439.45
661.70	437.41
662.05	435.56
662.39	433.95
662.73	432.02
663.07	430.18
663.41	428.48
663.75	426.47
664.09	424.62
664.43	422.65
664.77	420.90
665.11	419.05
665.45	417.36
665.79	415.52
666.13	413.74
666.47	412.06
666.81	410.25
667.15	408.28
667.49	406.68
667.83	405.06
668.17	403.31
668.51	401.63
668.85	400.08
669.19	398.53
669.53	396.90
669.87	395.36
670.21	393.82
670.55	392.21
670.89	391.00
671.23	389.63
671.57	388.18
671.91	386.72
672.25	385.16
672.58	383.76
672.92	382.41
673.26	381.18
673.60	380.07
673.94	378.74
674.28	377.67
674.62	376.39
674.96	375.08
675.30	374.02
675.64	372.82
675.97	371.54
676.31	370.39
676.65	369.15
676.99	367.95
677.33	366.54
677.67	365.29
678.01	363.94
678.34	362.53
678.68	361.42
679.02	360.38
679.36	359.22
679.70	358.00
680.04	356.79
680.37	355.52
680.71	354.25
681.05	353.24
681.39	352.03
681.73	350.90
682.06	349.81
682.40	348.60
682.74	347.56
683.08	346.63
683.42	345.41
683.75	344.17
684.09	343.02
684.43	342.00
684.77	341.02
685.10	339.96
685.44	339.11
685.78	337.97
686.12	336.78
686.45	335.62
686.79	334.47
687.13	333.53
687.46	332.42
687.80	331.31
688.14	330.13
688.48	329.16
688.81	328.00
689.15	326.90
689.49	325.90
689.82	324.80
690.16	323.67
690.50	322.81
690.83	321.90
691.17	320.95
691.51	319.95
691.84	319.02
692.18	318.00
692.52	316.87
692.85	315.99
693.19	315.20
693.52	314.36
693.86	313.46
694.20	312.48
694.53	311.60
694.87	310.68
695.21	309.87
695.54	308.95
695.88	307.99
696.21	307.10
696.55	306.26
696.88	305.34
697.22	304.51
697.56	303.47
697.89	302.54
698.23	301.64
698.56	300.77
698.90	299.80
699.23	298.91
699.57	298.15
699.90	297.16
700.24	296.28
700.58	295.49
700.91	294.67
701.25	293.94
701.58	293.30
701.92	292.60
702.25	291.86
702.59	291.00
702.92	290.47
703.26	289.87
703.59	289.20
703.93	288.75
704.26	288.06
704.60	287.50
704.93	286.78
705.26	286.15
705.60	285.67
705.93	285.08
706.27	284.70
706.60	284.11
706.94	283.66
707.27	282.95
707.61	282.41
707.94	281.87
708.27	281.27
708.61	280.65
708.94	280.18
709.28	279.56
709.61	279.15
709.94	278.61
710.28	277.93
710.61	277.53
710.95	276.77
711.28	276.40
711.61	275.83
711.95	275.61
712.28	275.07
712.61	274.56
712.95	274.08
713.28	273.52
713.61	273.00
713.95	272.66
714.28	272.29
714.61	271.86
714.95	271.42
715.28	270.92
715.61	270.45
715.95	270.01
716.28	269.81
716.61	269.40
716.95	269.02
717.28	268.67
717.61	268.03
717.94	267.66
718.28	267.15
718.61	266.75
718.94	266.33
719.27	266.02
719.61	265.71
719.94	265.37
720.27	264.94
720.60	264.61
720.94	264.08
721.27	263.78
721.60	263.43
721.93	263.19
722.27	262.98
722.60	262.62
722.93	262.20
723.26	261.72
723.59	261.43
723.93	261.03
724.26	260.80
724.59	260.67
724.92	260.33
725.25	260.08
725.59	259.93
725.92	259.59
726.25	259.29
726.58	258.85
726.91	258.54
727.24	258.40
727.57	258.17
727.91	257.92
728.24	257.67
728.57	257.41
728.90	257.08
729.23	256.73
729.56	256.57
729.89	256.29
730.22	256.05
730.55	255.73
730.89	255.48
731.22	255.14
731.55	254.84
731.88	254.70
732.21	254.40
732.54	253.97
732.87	253.72
733.20	253.49
733.53	253.31
733.86	253.04
734.19	252.71
734.52	252.40
734.85	252.27
735.18	252.07
735.51	251.86
735.84	251.61
736.17	251.28
736.50	250.98
736.83	251.02
737.16	250.77
737.49	250.41
737.82	250.13
738.15	249.95
738.48	249.69
738.81	249.36
739.14	249.05
739.47	248.86
739.80	248.66
740.13	248.44
740.46	248.15
740.79	247.84
741.12	247.50
741.45	247.26
741.78	246.96
742.11	246.64
742.44	246.27
742.77	246.03
743.10	245.87
743.43	245.58
743.75	245.20
744.08	245.17
744.41	245.05
744.74	244.83
745.07	244.68
745.40	244.56
745.73	244.32
746.06	244.15
746.39	243.92
746.71	243.66
747.04	243.48
747.37	243.19
747.70	243.19
748.03	243.10
748.36	242.92
748.68	242.70
749.01	242.58
749.34	242.46
749.67	242.21
750.00	242.14
750.33	242.01
750.65	241.80
750.98	241.37
751.31	241.23
751.64	241.12
751.97	240.91
752.29	240.67
752.62	240.52
752.95	240.37
753.28	240.25
753.60	240.13
753.93	240.00
754.26	239.97
754.59	239.75
754.91	239.66
755.24	239.49
755.57	239.42
755.90	239.25
756.22	239.15
756.55	238.96
756.88	238.85
757.20	238.74
757.53	238.63
757.86	238.64
758.19	238.52
758.51	238.38
758.84	238.36
759.17	238.26
759.49	238.29
759.82	238.29
760.15	238.28
760.47	238.23
760.80	238.16
761.13	238.06
761.45	237.99
761.78	237.88
762.11	237.93
762.43	237.81
762.76	237.78
763.08	237.74
763.41	237.87
763.74	237.77
764.06	237.74
764.39	237.64
764.71	237.54
765.04	237.60
765.37	237.59
765.69	237.36
766.02	237.42
766.34	237.30
766.67	237.20
767.00	237.19
767.32	237.18
767.65	237.18
767.97	237.32
768.30	237.19
768.62	237.16
768.95	237.09
769.27	237.04
769.60	236.97
769.92	236.89
770.25	236.73
770.57	236.67
770.90	236.67
771.22	236.69
771.55	236.61
771.87	236.47
772.20	236.32
772.52	236.45
772.85	236.52
773.17	236.45
773.50	236.38
773.82	236.21
774.15	236.10
774.47	235.86
774.80	235.67
775.12	235.67
775.45	235.52
775.77	235.39
776.09	235.34
776.42	235.22
776.74	235.18
777.07	234.99
777.39	234.89
777.72	234.68
778.04	234.50
778.36	234.40
778.69	234.30
779.01	234.38
779.33	234.11
779.66	233.78
779.98	233.62
780.31	233.51
780.63	233.54
780.95	233.42
781.28	233.33
781.60	233.26
781.92	233.18
782.25	233.04
782.57	232.97
782.89	232.83
783.22	232.70
783.54	232.57
783.86	232.50
784.19	232.40
784.51	232.37
784.83	232.29
785.16	232.20
785.48	232.07
785.80	231.94
786.12	231.93
786.45	231.87
786.77	231.80
787.09	231.77
787.42	231.68
787.74	231.72
788.06	231.80
788.38	231.77
788.71	231.69
789.03	231.76
789.35	231.75
789.67	231.69
789.99	231.79
790.32	231.71
790.64	231.91
790.96	232.00
791.28	231.91
791.61	231.83
791.93	231.80
792.25	231.80
792.57	231.85
792.89	231.86
793.21	231.97
793.54	232.01
793.86	232.05
794.18	231.99
