SpectraSuite Data File
++++++++++++++++++++++++++++++++++++
Date: Fri Feb 01 14:39:11 EST 2013
User: group
Dark Spectrum Present: No
Reference Spectrum Present: No
Number of Sampled Component Spectra: 1
Spectrometers: USB2E7196
Integration Time (usec): 70000 (USB2E7196)
Spectra Averaged: 10 (USB2E7196)
Boxcar Smoothing: 10 (USB2E7196)
Correct for Electrical Dark: No (USB2E7196)
Strobe/Lamp Enabled: No (USB2E7196)
Correct for Detector Non-linearity: No (USB2E7196)
Correct for Stray Light: No (USB2E7196)
Number of Pixels in Processed Spectrum: 2048
>>>>>Begin Processed Spectral Data<<<<<
339.09	0.00
339.48	215.00
339.86	217.10
340.24	220.50
340.63	217.60
341.01	225.00
341.39	223.00
341.78	224.40
342.16	225.00
342.54	226.40
342.93	214.61
343.31	225.42
343.69	226.11
344.07	226.67
344.46	227.04
344.84	227.62
345.22	227.84
345.60	228.15
345.99	228.42
346.37	228.62
346.75	228.74
347.13	228.84
347.52	228.86
347.90	228.96
348.28	228.99
348.66	229.10
349.05	229.04
349.43	229.18
349.81	229.22
350.19	229.26
350.57	229.31
350.96	229.27
351.34	229.39
351.72	229.40
352.10	229.44
352.48	229.50
352.87	229.55
353.25	229.58
353.63	229.61
354.01	229.60
354.39	229.67
354.77	229.82
355.15	229.91
355.54	230.02
355.92	230.01
356.30	230.01
356.68	230.16
357.06	230.31
357.44	230.29
357.82	230.28
358.20	230.34
358.58	230.31
358.97	230.44
359.35	230.49
359.73	230.57
360.11	230.60
360.49	230.66
360.87	230.61
361.25	230.67
361.63	230.77
362.01	230.83
362.39	230.92
362.77	230.85
363.15	230.81
363.53	230.87
363.91	230.88
364.29	230.84
364.67	230.70
365.05	230.67
365.43	230.72
365.81	230.75
366.19	230.83
366.57	230.94
366.95	230.84
367.33	230.80
367.71	230.72
368.09	230.70
368.47	230.62
368.85	230.57
369.23	230.63
369.61	230.40
369.99	230.39
370.37	230.22
370.75	230.21
371.13	230.06
371.51	229.97
371.89	229.90
372.27	229.78
372.65	229.70
373.03	229.55
373.41	229.32
373.78	229.23
374.16	229.13
374.54	228.92
374.92	228.90
375.30	228.80
375.68	228.64
376.06	228.49
376.44	228.40
376.82	228.37
377.19	228.14
377.57	228.01
377.95	227.87
378.33	227.68
378.71	227.44
379.09	227.44
379.47	227.26
379.84	227.16
380.22	227.18
380.60	227.03
380.98	226.96
381.36	226.92
381.73	226.80
382.11	226.68
382.49	226.57
382.87	226.42
383.25	226.39
383.62	226.61
384.00	226.57
384.38	226.52
384.76	226.56
385.13	226.60
385.51	226.61
385.89	226.53
386.27	226.57
386.64	226.56
387.02	226.54
387.40	226.49
387.78	226.40
388.15	226.29
388.53	226.31
388.91	226.45
389.29	226.44
389.66	226.56
390.04	226.54
390.42	226.59
390.79	226.72
391.17	226.65
391.55	226.42
391.92	226.48
392.30	226.46
392.68	226.35
393.05	226.31
393.43	226.38
393.81	226.36
394.18	226.37
394.56	226.50
394.94	226.53
395.31	226.60
395.69	226.85
396.06	226.99
396.44	227.05
396.82	226.98
397.19	227.22
397.57	227.29
397.95	227.40
398.32	227.57
398.70	227.65
399.07	227.83
399.45	228.05
399.82	228.10
400.20	228.29
400.58	228.50
400.95	228.61
401.33	228.79
401.70	229.11
402.08	229.23
402.45	229.33
402.83	229.49
403.20	229.61
403.58	229.69
403.95	229.76
404.33	229.99
404.71	230.15
405.08	230.21
405.46	230.32
405.83	230.43
406.21	230.54
406.58	230.56
406.96	230.74
407.33	230.84
407.70	231.20
408.08	231.49
408.45	231.66
408.83	231.93
409.20	232.12
409.58	232.15
409.95	232.43
410.33	232.76
410.70	232.95
411.08	233.24
411.45	233.59
411.82	233.86
412.20	234.13
412.57	234.55
412.95	234.80
413.32	235.17
413.69	235.64
414.07	236.04
414.44	236.60
414.82	237.07
415.19	237.52
415.56	237.86
415.94	238.30
416.31	238.96
416.68	239.56
417.06	240.22
417.43	241.04
417.81	241.91
418.18	242.67
418.55	243.65
418.93	244.65
419.30	245.53
419.67	246.60
420.04	247.55
420.42	248.56
420.79	249.91
421.16	251.10
421.54	252.31
421.91	253.56
422.28	254.92
422.66	256.20
423.03	257.82
423.40	259.39
423.77	260.91
424.15	262.38
424.52	263.79
424.89	265.54
425.26	267.20
425.64	268.72
426.01	270.44
426.38	272.13
426.75	273.91
427.13	275.86
427.50	277.92
427.87	280.09
428.24	282.21
428.61	283.98
428.99	286.28
429.36	288.64
429.73	291.07
430.10	293.45
430.47	295.91
430.85	298.19
431.22	300.73
431.59	303.64
431.96	306.29
432.33	309.36
432.70	312.24
433.08	315.48
433.45	318.73
433.82	321.90
434.19	325.54
434.56	329.01
434.93	332.08
435.30	335.10
435.68	338.70
436.05	342.09
436.42	345.63
436.79	348.62
437.16	351.90
437.53	355.49
437.90	358.80
438.27	362.23
438.64	365.70
439.01	368.96
439.38	371.79
439.75	374.56
440.13	377.75
440.50	380.83
440.87	383.19
441.24	385.63
441.61	388.37
441.98	390.27
442.35	392.59
442.72	395.18
443.09	397.76
443.46	399.19
443.83	400.20
444.20	401.16
444.57	402.55
444.94	403.30
445.31	403.87
445.68	404.69
446.05	405.11
446.42	404.87
446.79	404.67
447.16	404.35
447.53	404.23
447.90	403.06
448.27	401.94
448.64	400.50
449.01	399.30
449.37	397.24
449.74	395.33
450.11	392.92
450.48	390.10
450.85	387.19
451.22	384.82
451.59	382.73
451.96	380.61
452.33	377.58
452.70	375.01
453.07	371.86
453.43	368.58
453.80	365.34
454.17	362.52
454.54	359.60
454.91	356.32
455.28	353.25
455.65	350.52
456.02	347.82
456.38	345.29
456.75	342.22
457.12	339.44
457.49	336.69
457.86	334.11
458.23	332.02
458.59	329.61
458.96	327.10
459.33	324.80
459.70	322.55
460.07	320.76
460.43	318.56
460.80	316.52
461.17	314.68
461.54	312.90
461.91	310.98
462.27	309.33
462.64	307.86
463.01	306.20
463.38	304.53
463.74	302.56
464.11	301.01
464.48	299.81
464.85	298.44
465.21	297.36
465.58	296.22
465.95	294.77
466.32	293.53
466.68	292.34
467.05	291.18
467.42	289.96
467.78	288.74
468.15	287.58
468.52	286.68
468.88	285.53
469.25	284.51
469.62	283.75
469.98	282.64
470.35	281.81
470.72	280.87
471.08	279.74
471.45	278.97
471.82	278.14
472.18	277.20
472.55	276.60
472.92	275.79
473.28	274.98
473.65	274.23
474.02	273.64
474.38	273.02
474.75	272.31
475.11	271.54
475.48	270.97
475.85	270.51
476.21	269.92
476.58	269.50
476.94	269.00
477.31	268.38
477.67	267.95
478.04	267.59
478.41	267.37
478.77	267.39
479.14	266.99
479.50	266.79
479.87	266.50
480.23	266.29
480.60	266.04
480.96	265.82
481.33	265.68
481.69	265.48
482.06	265.37
482.42	265.18
482.79	265.22
483.15	265.19
483.52	265.15
483.88	265.11
484.25	264.93
484.61	264.97
484.98	264.97
485.34	265.06
485.71	265.00
486.07	264.98
486.44	264.78
486.80	264.94
487.17	264.90
487.53	265.01
487.90	265.03
488.26	265.24
488.62	265.38
488.99	265.50
489.35	265.63
489.72	265.75
490.08	266.02
490.44	266.17
490.81	266.46
491.17	266.54
491.54	266.79
491.90	267.07
492.26	267.28
492.63	267.50
492.99	267.70
493.36	267.99
493.72	268.28
494.08	268.53
494.45	268.75
494.81	269.21
495.17	269.54
495.54	269.96
495.90	270.18
496.26	270.56
496.63	270.99
496.99	271.33
497.35	271.67
497.72	272.20
498.08	272.60
498.44	272.87
498.80	273.35
499.17	273.77
499.53	274.21
499.89	274.67
500.26	275.20
500.62	275.71
500.98	276.27
501.34	276.75
501.71	277.40
502.07	278.00
502.43	278.48
502.79	279.08
503.16	279.70
503.52	280.41
503.88	281.02
504.24	281.66
504.60	282.50
504.97	283.30
505.33	283.93
505.69	284.77
506.05	285.72
506.41	286.79
506.78	287.74
507.14	288.72
507.50	289.67
507.86	290.73
508.22	291.83
508.59	292.89
508.95	294.01
509.31	295.20
509.67	296.42
510.03	297.77
510.39	299.08
510.75	300.38
511.12	301.70
511.48	303.30
511.84	304.85
512.20	306.38
512.56	308.09
512.92	309.91
513.28	311.87
513.64	313.72
514.00	315.46
514.37	317.58
514.73	319.68
515.09	321.87
515.45	324.20
515.81	326.48
516.17	329.02
516.53	331.61
516.89	334.07
517.25	336.81
517.61	339.52
517.97	342.35
518.33	345.35
518.69	348.40
519.05	351.47
519.41	354.66
519.77	358.17
520.13	361.63
520.49	364.98
520.85	368.60
521.21	372.37
521.57	376.26
521.93	380.06
522.29	384.18
522.65	388.13
523.01	392.11
523.37	396.27
523.73	400.50
524.09	404.70
524.45	409.26
524.81	413.65
525.17	418.56
525.53	423.41
525.89	428.32
526.25	433.33
526.61	438.19
526.97	443.24
527.33	448.41
527.68	453.76
528.04	459.42
528.40	464.74
528.76	470.26
529.12	475.75
529.48	481.50
529.84	487.02
530.20	492.99
530.56	499.14
530.91	505.34
531.27	511.48
531.63	517.89
531.99	524.23
532.35	530.80
532.71	536.89
533.07	543.35
533.42	549.88
533.78	556.53
534.14	563.26
534.50	569.97
534.86	576.62
535.21	583.37
535.57	590.06
535.93	597.00
536.29	604.01
536.65	611.22
537.00	618.08
537.36	625.26
537.72	632.36
538.08	639.46
538.44	646.63
538.79	654.02
539.15	660.97
539.51	668.18
539.87	675.55
540.22	683.03
540.58	690.51
540.94	697.62
541.29	704.60
541.65	711.91
542.01	719.60
542.37	727.11
542.72	734.19
543.08	741.61
543.44	749.03
543.79	755.94
544.15	763.21
544.51	770.75
544.87	778.17
545.22	785.24
545.58	792.11
545.94	799.10
546.29	805.79
546.65	813.15
547.01	820.04
547.36	826.84
547.72	833.54
548.07	840.15
548.43	846.87
548.79	853.81
549.14	860.51
549.50	866.77
549.86	873.08
550.21	879.96
550.57	886.48
550.92	892.66
551.28	898.98
551.64	905.31
551.99	911.52
552.35	917.63
552.70	924.10
553.06	930.83
553.41	937.05
553.77	943.26
554.13	949.10
554.48	955.20
554.84	961.34
555.19	967.50
555.55	973.60
555.90	979.81
556.26	985.98
556.61	991.78
556.97	997.47
557.32	1003.11
557.68	1008.34
558.03	1013.75
558.39	1019.29
558.74	1025.26
559.10	1030.60
559.45	1036.27
559.81	1042.22
560.16	1047.45
560.52	1052.38
560.87	1057.70
561.23	1062.60
561.58	1068.07
561.94	1072.94
562.29	1077.54
562.64	1082.29
563.00	1087.00
563.35	1091.90
563.71	1096.48
564.06	1101.38
564.42	1105.91
564.77	1110.43
565.12	1115.31
565.48	1119.66
565.83	1123.83
566.19	1127.86
566.54	1132.06
566.89	1135.92
567.25	1139.35
567.60	1143.55
567.96	1147.50
568.31	1150.86
568.66	1154.73
569.02	1157.96
569.37	1161.54
569.72	1164.92
570.08	1168.06
570.43	1171.09
570.78	1173.70
571.14	1176.23
571.49	1178.86
571.84	1182.15
572.20	1184.71
572.55	1186.66
572.90	1188.93
573.26	1191.67
573.61	1193.85
573.96	1195.54
574.31	1196.90
574.67	1198.30
575.02	1199.46
575.37	1201.03
575.72	1202.33
576.08	1203.70
576.43	1204.79
576.78	1205.70
577.13	1207.02
577.49	1207.95
577.84	1208.66
578.19	1209.60
578.54	1210.20
578.90	1210.39
579.25	1210.29
579.60	1210.55
579.95	1210.90
580.30	1210.93
580.66	1210.60
581.01	1210.50
581.36	1210.68
581.71	1210.70
582.06	1210.77
582.42	1210.24
582.77	1209.60
583.12	1209.26
583.47	1209.20
583.82	1209.15
584.17	1208.70
584.53	1207.98
584.88	1207.50
585.23	1207.09
585.58	1206.15
585.93	1205.74
586.28	1205.50
586.63	1204.87
586.98	1204.43
587.34	1204.02
587.69	1203.47
588.04	1202.74
588.39	1201.92
588.74	1200.58
589.09	1199.79
589.44	1198.13
589.79	1197.58
590.14	1196.53
590.49	1195.41
590.84	1193.79
591.19	1192.14
591.54	1190.34
591.89	1188.20
592.25	1186.72
592.60	1184.54
592.95	1182.81
593.30	1180.35
593.65	1178.00
594.00	1175.80
594.35	1173.74
594.70	1170.85
595.05	1168.48
595.40	1166.22
595.75	1163.66
596.10	1161.67
596.45	1159.39
596.80	1157.78
597.15	1155.33
597.50	1152.85
597.85	1150.73
598.19	1148.29
598.54	1146.14
598.89	1144.31
599.24	1142.48
599.59	1140.28
599.94	1138.34
600.29	1135.78
600.64	1133.70
600.99	1130.98
601.34	1128.46
601.69	1125.60
602.04	1123.35
602.39	1121.03
602.74	1118.64
603.08	1116.57
603.43	1114.14
603.78	1111.22
604.13	1108.59
604.48	1105.80
604.83	1103.40
605.18	1100.57
605.53	1097.53
605.87	1094.05
606.22	1090.87
606.57	1087.68
606.92	1084.53
607.27	1081.68
607.62	1079.05
607.96	1076.05
608.31	1073.80
608.66	1070.71
609.01	1067.60
609.36	1063.87
609.70	1060.07
610.05	1056.30
610.40	1052.82
610.75	1048.88
611.10	1045.53
611.44	1041.14
611.79	1037.67
612.14	1033.70
612.49	1029.32
612.83	1025.37
613.18	1021.66
613.53	1017.93
613.88	1013.84
614.22	1009.67
614.57	1005.28
614.92	1001.01
615.27	997.27
615.61	993.00
615.96	989.26
616.31	985.47
616.65	982.58
617.00	979.18
617.35	975.41
617.70	971.27
618.04	967.46
618.39	963.39
618.74	959.92
619.08	955.79
619.43	952.09
619.78	948.70
620.12	945.21
620.47	941.40
620.82	937.32
621.16	933.66
621.51	930.10
621.85	926.44
622.20	922.56
622.55	918.72
622.89	914.80
623.24	911.01
623.59	907.47
623.93	903.50
624.28	899.58
624.62	895.92
624.97	892.11
625.32	888.65
625.66	885.12
626.01	881.47
626.35	877.96
626.70	874.13
627.04	870.42
627.39	866.49
627.73	862.86
628.08	859.38
628.43	855.72
628.77	851.64
629.12	847.71
629.46	843.99
629.81	839.80
630.15	835.73
630.50	831.73
630.84	827.22
631.19	822.85
631.53	818.81
631.88	814.79
632.22	810.69
632.57	806.93
632.91	802.74
633.26	798.48
633.60	794.17
633.95	790.29
634.29	786.49
634.64	782.80
634.98	778.82
635.32	775.13
635.67	771.53
636.01	767.94
636.36	764.27
636.70	760.62
637.05	757.13
637.39	753.70
637.73	750.08
638.08	747.20
638.42	744.10
638.77	740.75
639.11	737.12
639.45	733.83
639.80	729.85
640.14	726.54
640.49	723.44
640.83	720.00
641.17	716.50
641.52	712.88
641.86	709.24
642.20	705.87
642.55	702.17
642.89	698.70
643.23	695.06
643.58	691.99
643.92	688.62
644.26	685.27
644.61	681.97
644.95	678.66
645.29	674.55
645.64	670.79
645.98	667.10
646.32	663.65
646.66	660.06
647.01	656.81
647.35	653.42
647.69	650.24
648.04	647.16
648.38	643.64
648.72	640.05
649.06	636.65
649.41	633.17
649.75	629.58
650.09	626.05
650.43	622.74
650.78	618.94
651.12	615.46
651.46	611.97
651.80	608.58
652.14	605.08
652.49	601.91
652.83	598.60
653.17	595.28
653.51	591.95
653.85	588.85
654.20	585.40
654.54	581.88
654.88	578.28
655.22	574.49
655.56	571.26
655.90	568.25
656.25	565.22
656.59	562.16
656.93	559.19
657.27	556.11
657.61	552.83
657.95	549.99
658.29	547.06
658.64	543.91
658.98	540.71
659.32	537.68
659.66	534.73
660.00	531.80
660.34	528.83
660.68	525.88
661.02	522.85
661.36	520.16
661.70	517.75
662.05	515.05
662.39	512.70
662.73	510.08
663.07	507.54
663.41	504.96
663.75	502.29
664.09	499.74
664.43	497.04
664.77	494.64
665.11	492.08
665.45	489.55
665.79	487.15
666.13	484.70
666.47	482.26
666.81	479.69
667.15	477.12
667.49	474.70
667.83	472.61
668.17	470.15
668.51	467.58
668.85	464.96
669.19	462.76
669.53	460.30
669.87	457.95
670.21	455.65
670.55	453.37
670.89	451.34
671.23	449.30
671.57	447.25
671.91	445.28
672.25	443.02
672.58	440.95
672.92	439.15
673.26	437.27
673.60	435.51
673.94	433.70
674.28	431.98
674.62	430.38
674.96	428.37
675.30	426.67
675.64	425.13
675.97	423.39
676.31	421.56
676.65	419.91
676.99	418.04
677.33	416.09
677.67	414.22
678.01	412.23
678.34	410.33
678.68	408.59
679.02	406.68
679.36	405.07
679.70	403.17
680.04	401.21
680.37	399.37
680.71	397.41
681.05	395.81
681.39	394.16
681.73	392.49
682.06	390.86
682.40	389.25
682.74	387.64
683.08	386.25
683.42	384.62
683.75	382.90
684.09	381.28
684.43	379.85
684.77	378.30
685.10	376.87
685.44	375.45
685.78	373.83
686.12	372.29
686.45	370.68
686.79	369.14
687.13	367.75
687.46	366.28
687.80	364.96
688.14	363.34
688.48	362.02
688.81	360.40
689.15	359.01
689.49	357.52
689.82	356.12
690.16	354.45
690.50	353.17
690.83	351.90
691.17	350.60
691.51	349.19
691.84	348.02
692.18	346.70
692.52	345.28
692.85	344.02
693.19	342.91
693.52	341.73
693.86	340.58
694.20	339.27
694.53	338.01
694.87	336.58
695.21	335.48
695.54	334.10
695.88	332.79
696.21	331.66
696.55	330.48
696.88	329.29
697.22	328.14
697.56	326.96
697.89	325.82
698.23	324.80
698.56	323.67
698.90	322.52
699.23	321.29
699.57	320.24
699.90	319.25
700.24	317.98
700.58	316.87
700.91	315.75
701.25	314.97
701.58	314.04
701.92	313.25
702.25	312.35
702.59	311.41
702.92	310.60
703.26	309.63
703.59	308.64
703.93	307.71
704.26	306.90
704.60	305.95
704.93	305.01
705.26	304.16
705.60	303.46
705.93	302.58
706.27	301.92
706.60	301.15
706.94	300.47
707.27	299.73
707.61	298.99
707.94	298.31
708.27	297.44
708.61	296.76
708.94	295.92
709.28	295.10
709.61	294.44
709.94	293.80
710.28	292.99
710.61	292.41
710.95	291.61
711.28	291.14
711.61	290.48
711.95	289.90
712.28	289.21
712.61	288.37
712.95	287.70
713.28	287.07
713.61	286.36
713.95	285.57
714.28	285.01
714.61	284.26
714.95	283.60
715.28	282.95
715.61	282.19
715.95	281.52
716.28	280.82
716.61	280.23
716.95	279.63
717.28	279.19
717.61	278.56
717.94	278.02
718.28	277.27
718.61	276.60
718.94	276.12
719.27	275.49
719.61	275.07
719.94	274.55
720.27	273.99
720.60	273.54
720.94	273.03
721.27	272.43
721.60	272.03
721.93	271.60
722.27	271.17
722.60	270.84
722.93	270.57
723.26	270.21
723.59	269.75
723.93	269.38
724.26	268.84
724.59	268.47
724.92	268.03
725.25	267.78
725.59	267.44
725.92	267.07
726.25	266.79
726.58	266.35
726.91	265.99
727.24	265.62
727.57	265.20
727.91	264.80
728.24	264.60
728.57	264.28
728.90	264.01
729.23	263.55
729.56	263.20
729.89	262.73
730.22	262.36
730.55	262.06
730.89	261.60
731.22	261.34
731.55	260.95
731.88	260.72
732.21	260.20
732.54	259.80
732.87	259.27
733.20	258.78
733.53	258.44
733.86	258.14
734.19	257.72
734.52	257.35
734.85	257.09
735.18	256.75
735.51	256.52
735.84	256.14
736.17	255.93
736.50	255.60
736.83	255.48
737.16	255.16
737.49	254.79
737.82	254.40
738.15	254.03
738.48	253.77
738.81	253.47
739.14	253.21
739.47	252.99
739.80	252.81
740.13	252.68
740.46	252.47
740.79	252.12
741.12	251.89
741.45	251.64
741.78	251.40
742.11	251.17
742.44	250.81
742.77	250.61
743.10	250.25
743.43	249.84
743.75	249.45
744.08	249.40
744.41	249.17
744.74	249.11
745.07	248.74
745.40	248.59
745.73	248.46
746.06	248.26
746.39	247.97
746.71	247.73
747.04	247.42
747.37	247.19
747.70	246.90
748.03	246.72
748.36	246.51
748.68	246.35
749.01	246.11
749.34	245.92
749.67	245.67
750.00	245.60
750.33	245.64
750.65	245.41
750.98	245.01
751.31	244.83
751.64	244.61
751.97	244.64
752.29	244.33
752.62	243.94
752.95	243.68
753.28	243.47
753.60	243.22
753.93	243.26
754.26	243.02
754.59	242.95
754.91	242.82
755.24	242.72
755.57	242.53
755.90	242.24
756.22	242.07
756.55	241.87
756.88	241.64
757.20	241.43
757.53	241.31
757.86	241.20
758.19	241.04
758.51	240.79
758.84	240.60
759.17	240.60
759.49	240.47
759.82	240.58
760.15	240.54
760.47	240.42
760.80	240.18
761.13	240.16
761.45	239.99
761.78	239.85
762.11	239.69
762.43	239.60
762.76	239.52
763.08	239.42
763.41	239.39
763.74	239.23
764.06	239.02
764.39	238.86
764.71	238.77
765.04	238.64
765.37	238.58
765.69	238.51
766.02	238.34
766.34	238.36
766.67	238.09
767.00	238.00
767.32	238.03
767.65	237.93
767.97	237.71
768.30	237.67
768.62	237.50
768.95	237.34
769.27	237.13
769.60	237.00
769.92	236.86
770.25	236.74
770.57	236.69
770.90	236.60
771.22	236.45
771.55	236.34
771.87	236.34
772.20	236.27
772.52	236.34
772.85	236.38
773.17	236.20
773.50	236.04
773.82	235.96
774.15	235.80
774.47	235.67
774.80	235.70
775.12	235.57
775.45	235.59
775.77	235.66
776.09	235.65
776.42	235.68
776.74	235.60
777.07	235.49
777.39	235.40
777.72	235.32
778.04	235.30
778.36	235.24
778.69	235.15
779.01	235.04
779.33	234.73
779.66	234.61
779.98	234.52
780.31	234.48
780.63	234.47
780.95	234.49
781.28	234.44
781.60	234.29
781.92	234.19
782.25	234.10
782.57	233.97
782.89	233.82
783.22	233.70
783.54	233.61
783.86	233.52
784.19	233.52
784.51	233.58
784.83	233.52
785.16	233.45
785.48	233.36
785.80	233.46
786.12	233.45
786.45	233.27
786.77	233.28
787.09	233.23
787.42	233.12
787.74	233.10
788.06	233.03
788.38	233.08
788.71	233.07
789.03	233.00
789.35	232.88
789.67	232.87
789.99	232.89
790.32	232.87
790.64	232.96
