SpectraSuite Data File
++++++++++++++++++++++++++++++++++++
Date: Fri Feb 01 14:35:13 EST 2013
User: group
Dark Spectrum Present: No
Reference Spectrum Present: No
Number of Sampled Component Spectra: 1
Spectrometers: USB2E7196
Integration Time (usec): 70000 (USB2E7196)
Spectra Averaged: 10 (USB2E7196)
Boxcar Smoothing: 10 (USB2E7196)
Correct for Electrical Dark: No (USB2E7196)
Strobe/Lamp Enabled: No (USB2E7196)
Correct for Detector Non-linearity: No (USB2E7196)
Correct for Stray Light: No (USB2E7196)
Number of Pixels in Processed Spectrum: 2048
>>>>>Begin Processed Spectral Data<<<<<
339.09	0.00
339.48	219.00
339.86	218.80
340.24	218.10
340.63	219.30
341.01	224.40
341.39	224.50
341.78	226.50
342.16	226.40
342.54	225.70
342.93	215.21
343.31	226.11
343.69	226.61
344.07	226.99
344.46	227.48
344.84	227.92
345.22	228.11
345.60	228.33
345.99	228.44
346.37	228.50
346.75	228.62
347.13	228.64
347.52	228.67
347.90	228.78
348.28	228.74
348.66	228.68
349.05	228.52
349.43	228.47
349.81	228.45
350.19	228.56
350.57	228.59
350.96	228.66
351.34	228.73
351.72	228.75
352.10	228.89
352.48	228.93
352.87	229.03
353.25	229.03
353.63	229.12
354.01	229.16
354.39	229.30
354.77	229.46
355.15	229.58
355.54	229.67
355.92	229.71
356.30	229.85
356.68	230.11
357.06	230.18
357.44	230.22
357.82	230.35
358.20	230.40
358.58	230.42
358.97	230.42
359.35	230.46
359.73	230.50
360.11	230.53
360.49	230.67
360.87	230.68
361.25	230.85
361.63	230.87
362.01	230.86
362.39	230.81
362.77	230.74
363.15	230.74
363.53	230.82
363.91	230.80
364.29	230.75
364.67	230.60
365.05	230.70
365.43	230.77
365.81	230.69
366.19	230.72
366.57	230.91
366.95	230.90
367.33	230.85
367.71	230.74
368.09	230.78
368.47	230.62
368.85	230.55
369.23	230.48
369.61	230.40
369.99	230.47
370.37	230.51
370.75	230.60
371.13	230.47
371.51	230.32
371.89	230.33
372.27	230.18
372.65	230.12
373.03	230.09
373.41	229.96
373.78	229.85
374.16	229.67
374.54	229.51
374.92	229.37
375.30	229.29
375.68	229.24
376.06	229.08
376.44	228.99
376.82	228.96
377.19	228.83
377.57	228.64
377.95	228.40
378.33	228.18
378.71	227.92
379.09	227.91
379.47	227.87
379.84	227.73
380.22	227.71
380.60	227.57
380.98	227.44
381.36	227.40
381.73	227.34
382.11	227.25
382.49	227.06
382.87	227.02
383.25	226.90
383.62	227.12
384.00	227.03
384.38	227.02
384.76	226.91
385.13	226.98
385.51	227.00
385.89	227.01
386.27	227.09
386.64	227.07
387.02	226.95
387.40	226.84
387.78	226.79
388.15	226.74
388.53	226.70
388.91	226.68
389.29	226.61
389.66	226.77
390.04	226.78
390.42	226.90
390.79	226.92
391.17	226.98
391.55	226.80
391.92	226.87
392.30	226.90
392.68	226.89
393.05	226.82
393.43	226.84
393.81	226.88
394.18	226.87
394.56	226.96
394.94	227.04
395.31	227.18
395.69	227.35
396.06	227.49
396.44	227.60
396.82	227.70
397.19	227.85
397.57	227.80
397.95	227.94
398.32	228.02
398.70	228.15
399.07	228.33
399.45	228.31
399.82	228.45
400.20	228.62
400.58	228.81
400.95	229.00
401.33	229.25
401.70	229.57
402.08	229.74
402.45	229.95
402.83	230.14
403.20	230.38
403.58	230.48
403.95	230.76
404.33	231.01
404.71	231.24
405.08	231.59
405.46	231.94
405.83	232.36
406.21	232.61
406.58	233.01
406.96	233.26
407.33	233.80
407.70	234.16
408.08	234.69
408.45	235.16
408.83	235.67
409.20	236.14
409.58	236.55
409.95	237.18
410.33	237.87
410.70	238.53
411.08	239.20
411.45	240.03
411.82	240.81
412.20	241.60
412.57	242.67
412.95	243.42
413.32	244.38
413.69	245.30
414.07	246.40
414.44	247.63
414.82	248.93
415.19	250.22
415.56	251.69
415.94	253.22
416.31	254.98
416.68	256.73
417.06	258.68
417.43	260.56
417.81	262.62
418.18	264.69
418.55	266.99
418.93	269.39
419.30	271.99
419.67	274.58
420.04	277.36
420.42	280.08
420.79	283.43
421.16	286.64
421.54	290.01
421.91	293.50
422.28	296.94
422.66	300.76
423.03	304.50
423.40	308.42
423.77	312.49
424.15	316.62
424.52	320.87
424.89	325.74
425.26	330.45
425.64	334.85
426.01	339.53
426.38	344.53
426.75	349.53
427.13	354.55
427.50	360.09
427.87	365.88
428.24	371.56
428.61	376.88
428.99	383.01
429.36	389.77
429.73	396.30
430.10	402.82
430.47	409.46
430.85	416.27
431.22	423.30
431.59	430.83
431.96	438.06
432.33	446.08
432.70	453.60
433.08	462.54
433.45	470.95
433.82	479.65
434.19	489.03
434.56	498.34
434.93	507.23
435.30	515.90
435.68	525.53
436.05	535.18
436.42	544.92
436.79	553.35
437.16	562.64
437.53	572.45
437.90	582.13
438.27	591.46
438.64	601.54
439.01	610.89
439.38	619.10
439.75	626.99
440.13	635.92
440.50	644.70
440.87	651.80
441.24	659.30
441.61	667.60
441.98	673.85
442.35	681.09
442.72	688.43
443.09	695.60
443.46	700.20
443.83	703.44
444.20	706.38
444.57	710.67
444.94	712.86
445.31	715.36
445.68	717.82
446.05	719.77
446.42	719.56
446.79	719.36
447.16	719.30
447.53	719.55
447.90	717.36
448.27	714.76
448.64	710.65
449.01	708.21
449.37	702.61
449.74	697.45
450.11	690.98
450.48	683.85
450.85	676.53
451.22	670.41
451.59	664.63
451.96	659.07
452.33	651.13
452.70	644.15
453.07	635.57
453.43	626.82
453.80	618.17
454.17	610.07
454.54	602.44
454.91	593.81
455.28	585.59
455.65	577.70
456.02	569.65
456.38	563.07
456.75	554.53
457.12	547.57
457.49	540.27
457.86	533.39
458.23	527.53
458.59	521.01
458.96	514.24
459.33	508.31
459.70	502.28
460.07	497.58
460.43	492.04
460.80	486.61
461.17	481.86
461.54	477.07
461.91	472.54
462.27	467.74
462.64	463.72
463.01	459.30
463.38	454.98
463.74	450.87
464.11	447.16
464.48	444.00
464.85	440.26
465.21	437.59
465.58	434.85
465.95	431.28
466.32	428.38
466.68	425.50
467.05	422.55
467.42	419.64
467.78	416.63
468.15	413.64
468.52	411.40
468.88	408.51
469.25	405.88
469.62	403.62
469.98	401.41
470.35	399.27
470.72	397.16
471.08	395.08
471.45	393.22
471.82	391.25
472.18	388.90
472.55	387.44
472.92	385.52
473.28	383.65
473.65	382.03
474.02	380.59
474.38	379.33
474.75	378.15
475.11	376.77
475.48	375.63
475.85	374.70
476.21	373.83
476.58	373.15
476.94	372.33
477.31	371.64
477.67	370.86
478.04	370.24
478.41	369.78
478.77	369.38
479.14	368.89
479.50	368.58
479.87	368.64
480.23	368.56
480.60	368.53
480.96	368.38
481.33	368.32
481.69	368.12
482.06	368.05
482.42	367.96
482.79	368.08
483.15	368.47
483.52	369.01
483.88	369.34
484.25	369.74
484.61	370.33
484.98	370.96
485.34	371.78
485.71	372.81
486.07	373.69
486.44	374.22
486.80	375.10
487.17	376.14
487.53	377.27
487.90	378.43
488.26	379.73
488.62	381.13
488.99	382.45
489.35	383.80
489.72	385.25
490.08	386.98
490.44	388.66
490.81	390.25
491.17	391.77
491.54	393.75
491.90	395.54
492.26	397.50
492.63	399.31
492.99	401.41
493.36	403.48
493.72	405.83
494.08	408.30
494.45	410.81
494.81	413.31
495.17	415.66
495.54	418.35
495.90	420.91
496.26	423.48
496.63	426.29
496.99	429.35
497.35	432.42
497.72	435.41
498.08	438.40
498.44	441.50
498.80	444.76
499.17	447.89
499.53	451.00
499.89	454.16
500.26	457.34
500.62	460.28
500.98	463.47
501.34	466.53
501.71	469.76
502.07	472.80
502.43	475.89
502.79	479.26
503.16	482.40
503.52	485.59
503.88	488.56
504.24	491.73
504.60	494.83
504.97	497.99
505.33	501.03
505.69	504.45
506.05	507.78
506.41	510.74
506.78	513.59
507.14	516.57
507.50	519.60
507.86	522.73
508.22	525.82
508.59	528.46
508.95	531.35
509.31	534.29
509.67	537.19
510.03	540.09
510.39	542.71
510.75	545.15
511.12	547.80
511.48	550.56
511.84	553.02
512.20	555.32
512.56	557.61
512.92	559.97
513.28	562.04
513.64	563.87
514.00	565.89
514.37	568.02
514.73	569.78
515.09	571.50
515.45	573.24
515.81	574.91
516.17	576.61
516.53	578.24
516.89	579.67
517.25	580.98
517.61	582.62
517.97	583.82
518.33	585.29
518.69	586.42
519.05	587.73
519.41	589.09
519.77	590.50
520.13	591.74
520.49	592.84
520.85	594.01
521.21	595.05
521.57	596.38
521.93	597.40
522.29	598.87
522.65	599.97
523.01	600.95
523.37	601.84
523.73	602.92
524.09	603.74
524.45	604.96
524.81	606.10
525.17	607.19
525.53	608.36
525.89	609.38
526.25	610.72
526.61	611.80
526.97	613.08
527.33	614.47
527.68	615.80
528.04	616.99
528.40	618.16
528.76	619.80
529.12	621.19
529.48	622.82
529.84	624.15
530.20	625.91
530.56	627.75
530.91	629.83
531.27	631.64
531.63	633.48
531.99	635.26
532.35	637.13
532.71	638.70
533.07	640.92
533.42	643.04
533.78	644.93
534.14	646.93
534.50	648.91
534.86	650.96
535.21	653.04
535.57	655.29
535.93	657.56
536.29	659.89
536.65	661.97
537.00	663.82
537.36	666.38
537.72	668.55
538.08	670.65
538.44	672.78
538.79	675.21
539.15	677.74
539.51	680.11
539.87	682.64
540.22	685.29
540.58	687.83
540.94	690.40
541.29	693.20
541.65	695.97
542.01	698.86
542.37	701.50
542.72	704.12
543.08	706.97
543.44	709.93
543.79	712.46
544.15	715.76
544.51	719.32
544.87	722.24
545.22	725.35
545.58	728.51
545.94	731.52
546.29	734.75
546.65	737.65
547.01	740.78
547.36	743.96
547.72	747.09
548.07	750.09
548.43	753.01
548.79	756.10
549.14	759.09
549.50	761.99
549.86	765.33
550.21	768.68
550.57	772.04
550.92	775.15
551.28	778.42
551.64	781.30
551.99	784.13
552.35	787.10
552.70	790.19
553.06	793.62
553.41	796.85
553.77	799.88
554.13	803.21
554.48	806.70
554.84	810.06
555.19	813.23
555.55	816.58
555.90	819.63
556.26	822.81
556.61	826.12
556.97	829.20
557.32	832.11
557.68	835.11
558.03	838.04
558.39	841.05
558.74	844.18
559.10	847.41
559.45	850.49
559.81	853.94
560.16	857.08
560.52	859.99
560.87	862.96
561.23	865.62
561.58	868.85
561.94	871.51
562.29	874.09
562.64	876.78
563.00	879.49
563.35	882.66
563.71	885.83
564.06	888.63
564.42	891.54
564.77	894.32
565.12	897.13
565.48	899.95
565.83	902.58
566.19	905.41
566.54	907.80
566.89	910.46
567.25	912.68
567.60	915.40
567.96	917.72
568.31	920.02
568.66	922.75
569.02	924.66
569.37	926.65
569.72	928.64
570.08	930.41
570.43	932.45
570.78	934.36
571.14	935.85
571.49	937.51
571.84	939.29
572.20	940.86
572.55	942.26
572.90	943.49
573.26	944.87
573.61	945.85
573.96	947.10
574.31	947.89
574.67	948.73
575.02	949.18
575.37	949.70
575.72	950.32
576.08	951.07
576.43	951.59
576.78	952.31
577.13	953.12
577.49	954.02
577.84	954.28
578.19	954.57
578.54	954.69
578.90	954.71
579.25	954.60
579.60	954.68
579.95	954.65
580.30	954.60
580.66	954.45
581.01	954.49
581.36	954.21
581.71	954.12
582.06	954.00
582.42	953.61
582.77	953.37
583.12	953.05
583.47	952.45
583.82	952.07
584.17	951.34
584.53	950.72
584.88	950.10
585.23	949.39
585.58	948.67
585.93	947.89
586.28	947.70
586.63	947.22
586.98	946.60
587.34	945.91
587.69	945.11
588.04	944.37
588.39	943.72
588.74	942.47
589.09	941.62
589.44	940.42
589.79	939.76
590.14	938.87
590.49	937.99
590.84	936.66
591.19	935.58
591.54	934.11
591.89	932.34
592.25	931.15
592.60	929.51
592.95	927.90
593.30	926.54
593.65	924.56
594.00	922.74
594.35	921.26
594.70	919.42
595.05	918.01
595.40	916.02
595.75	913.70
596.10	912.38
596.45	910.60
596.80	909.12
597.15	907.33
597.50	905.68
597.85	903.89
598.19	902.42
598.54	900.99
598.89	899.45
599.24	898.08
599.59	895.94
599.94	894.41
600.29	892.49
600.64	890.44
600.99	888.69
601.34	886.66
601.69	884.17
602.04	882.52
602.39	880.30
602.74	878.75
603.08	877.08
603.43	875.20
603.78	873.08
604.13	870.86
604.48	868.67
604.83	866.24
605.18	864.13
605.53	861.52
605.87	858.70
606.22	856.44
606.57	853.90
606.92	851.68
607.27	849.24
607.62	847.20
607.96	845.10
608.31	842.61
608.66	840.18
609.01	837.73
609.36	834.60
609.70	831.52
610.05	828.55
610.40	825.51
610.75	822.62
611.10	819.49
611.44	816.27
611.79	813.40
612.14	810.76
612.49	807.37
612.83	804.71
613.18	801.69
613.53	798.89
613.88	795.91
614.22	792.82
614.57	789.67
614.92	786.38
615.27	783.23
615.61	780.05
615.96	777.06
616.31	774.19
616.65	771.59
617.00	768.93
617.35	766.10
617.70	763.42
618.04	760.21
618.39	757.52
618.74	754.86
619.08	751.69
619.43	748.51
619.78	745.67
620.12	742.64
620.47	739.74
620.82	736.54
621.16	733.34
621.51	730.61
621.85	727.92
622.20	724.80
622.55	721.88
622.89	719.21
623.24	716.56
623.59	713.90
623.93	711.07
624.28	708.47
624.62	705.57
624.97	702.69
625.32	699.98
625.66	697.30
626.01	694.61
626.35	691.97
626.70	689.00
627.04	686.34
627.39	683.30
627.73	680.73
628.08	678.15
628.43	675.61
628.77	672.63
629.12	669.51
629.46	666.99
629.81	663.87
630.15	660.98
630.50	657.99
630.84	654.72
631.19	651.58
631.53	648.57
631.88	645.35
632.22	642.22
632.57	639.44
632.91	636.42
633.26	633.50
633.60	630.53
633.95	628.07
634.29	625.27
634.64	622.85
634.98	619.98
635.32	617.45
635.67	614.98
636.01	612.53
636.36	610.13
636.70	607.67
637.05	605.30
637.39	602.98
637.73	600.60
638.08	598.45
638.42	596.26
638.77	593.89
639.11	591.61
639.45	589.29
639.80	586.86
640.14	584.57
640.49	582.24
640.83	579.94
641.17	577.60
641.52	575.26
641.86	572.69
642.20	570.26
642.55	567.60
642.89	565.13
643.23	562.61
643.58	560.28
643.92	557.78
644.26	555.36
644.61	552.87
644.95	550.28
645.29	547.60
645.64	545.06
645.98	542.58
646.32	540.32
646.66	538.12
647.01	535.86
647.35	533.45
647.69	531.01
648.04	528.81
648.38	526.27
648.72	523.77
649.06	521.36
649.41	519.16
649.75	516.78
650.09	514.41
650.43	511.99
650.78	509.51
651.12	507.07
651.46	504.79
651.80	502.42
652.14	500.24
652.49	498.08
652.83	495.96
653.17	493.44
653.51	490.93
653.85	488.41
654.20	485.91
654.54	483.45
654.88	481.04
655.22	478.43
655.56	476.14
655.90	474.04
656.25	471.85
656.59	469.42
656.93	467.18
657.27	464.90
657.61	462.54
657.95	460.50
658.29	458.40
658.64	456.16
658.98	453.98
659.32	451.79
659.66	449.59
660.00	447.30
660.34	445.32
660.68	443.40
661.02	441.38
661.36	439.43
661.70	437.73
662.05	435.88
662.39	434.14
662.73	432.27
663.07	430.39
663.41	428.53
663.75	426.76
664.09	425.08
664.43	423.21
664.77	421.76
665.11	419.84
665.45	418.17
665.79	416.48
666.13	414.67
666.47	413.04
666.81	411.23
667.15	409.52
667.49	407.88
667.83	406.35
668.17	404.65
668.51	402.91
668.85	401.17
669.19	399.55
669.53	397.93
669.87	396.17
670.21	394.63
670.55	393.13
670.89	391.97
671.23	390.23
671.57	388.98
671.91	387.40
672.25	386.02
672.58	384.55
672.92	383.20
673.26	381.88
673.60	380.40
673.94	379.18
674.28	377.94
674.62	376.69
674.96	375.14
675.30	373.99
675.64	372.74
675.97	371.47
676.31	370.32
676.65	368.99
676.99	367.99
677.33	366.68
677.67	365.36
678.01	363.79
678.34	362.69
678.68	361.51
679.02	360.26
679.36	359.10
679.70	357.86
680.04	356.50
680.37	355.31
680.71	354.12
681.05	353.05
681.39	351.81
681.73	350.82
682.06	349.93
682.40	348.82
682.74	347.68
683.08	346.56
683.42	345.44
683.75	344.49
684.09	343.34
684.43	342.25
684.77	341.19
685.10	340.20
685.44	339.17
685.78	337.99
686.12	336.99
686.45	335.99
686.79	335.03
687.13	334.20
687.46	333.17
687.80	332.18
688.14	331.03
688.48	330.01
688.81	328.76
689.15	327.82
689.49	326.78
689.82	325.89
690.16	324.93
690.50	323.87
690.83	322.72
691.17	321.60
691.51	320.77
691.84	319.95
692.18	318.95
692.52	318.02
692.85	317.12
693.19	316.23
693.52	315.26
693.86	314.20
694.20	313.25
694.53	312.38
694.87	311.37
695.21	310.42
695.54	309.54
695.88	308.66
696.21	307.56
696.55	306.77
696.88	305.78
697.22	304.77
697.56	304.02
697.89	303.31
698.23	302.64
698.56	301.67
698.90	300.77
699.23	299.77
699.57	298.90
699.90	298.20
700.24	297.32
700.58	296.46
700.91	295.68
701.25	295.00
701.58	294.29
701.92	293.63
702.25	292.92
702.59	292.26
702.92	291.68
703.26	291.06
703.59	290.27
703.93	289.82
704.26	289.18
704.60	288.55
704.93	287.99
705.26	287.20
705.60	286.51
705.93	285.85
706.27	285.47
706.60	284.91
706.94	284.15
707.27	283.52
707.61	282.98
707.94	282.36
708.27	281.66
708.61	281.07
708.94	280.52
709.28	280.05
709.61	279.49
709.94	278.94
710.28	278.36
710.61	277.83
710.95	277.07
711.28	276.70
711.61	276.13
711.95	275.45
712.28	274.96
712.61	274.51
712.95	274.01
713.28	273.59
713.61	273.00
713.95	272.61
714.28	272.09
714.61	271.63
714.95	271.18
715.28	270.70
715.61	270.18
715.95	269.65
716.28	269.20
716.61	268.85
716.95	268.40
717.28	268.04
717.61	267.59
717.94	267.19
718.28	266.68
718.61	266.22
718.94	265.79
719.27	265.39
719.61	265.09
719.94	264.85
720.27	264.32
720.60	264.02
720.94	263.75
721.27	263.58
721.60	263.34
721.93	263.16
722.27	262.95
722.60	262.80
722.93	262.58
723.26	262.22
723.59	261.87
723.93	261.51
724.26	261.11
724.59	260.85
724.92	260.70
725.25	260.54
725.59	260.15
725.92	259.98
726.25	259.76
726.58	259.45
726.91	259.20
727.24	258.99
727.57	258.79
727.91	258.35
728.24	258.08
728.57	257.72
728.90	257.52
729.23	257.09
729.56	256.74
729.89	256.50
730.22	256.28
730.55	255.95
730.89	255.73
731.22	255.60
731.55	255.41
731.88	254.98
732.21	254.60
732.54	254.43
732.87	254.17
733.20	253.93
733.53	253.64
733.86	253.28
734.19	253.00
734.52	252.81
734.85	252.68
735.18	252.28
735.51	252.08
735.84	251.65
736.17	251.58
736.50	251.17
736.83	251.20
737.16	250.97
737.49	250.75
737.82	250.55
738.15	250.29
738.48	249.95
738.81	249.77
739.14	249.60
739.47	249.35
739.80	249.16
740.13	248.90
740.46	248.66
740.79	248.45
741.12	248.20
741.45	247.84
741.78	247.50
742.11	247.31
742.44	247.02
742.77	246.98
743.10	246.64
743.43	246.56
743.75	245.99
744.08	245.89
744.41	245.60
744.74	245.38
745.07	245.09
745.40	245.00
745.73	244.83
746.06	244.58
746.39	244.48
746.71	244.15
747.04	243.87
747.37	243.65
747.70	243.50
748.03	243.27
748.36	243.17
748.68	243.06
749.01	242.85
749.34	242.67
749.67	242.38
750.00	242.30
750.33	242.22
750.65	242.17
750.98	241.80
751.31	241.76
751.64	241.48
751.97	241.51
752.29	241.20
752.62	241.08
752.95	240.83
753.28	240.60
753.60	240.64
753.93	240.62
754.26	240.49
754.59	240.30
754.91	240.20
755.24	240.07
755.57	239.99
755.90	239.95
756.22	239.80
756.55	239.73
756.88	239.66
757.20	239.38
757.53	239.23
757.86	239.25
758.19	239.16
758.51	239.25
758.84	239.07
759.17	239.05
759.49	238.95
759.82	238.95
760.15	238.85
760.47	238.63
760.80	238.44
761.13	238.40
761.45	238.26
761.78	238.17
762.11	237.94
762.43	237.87
762.76	237.74
763.08	237.79
763.41	237.74
763.74	237.53
764.06	237.53
764.39	237.37
764.71	237.22
765.04	236.94
765.37	236.76
765.69	236.64
766.02	236.54
766.34	236.40
766.67	236.34
767.00	236.31
767.32	236.45
767.65	236.61
767.97	236.56
768.30	236.55
768.62	236.57
768.95	236.54
769.27	236.41
769.60	236.25
769.92	236.16
770.25	236.04
770.57	235.85
770.90	235.79
771.22	235.75
771.55	235.68
771.87	235.74
772.20	235.66
772.52	235.81
772.85	235.98
773.17	235.99
773.50	235.85
773.82	235.80
774.15	235.54
774.47	235.29
774.80	235.26
775.12	235.12
775.45	234.96
775.77	234.92
776.09	234.86
776.42	234.90
776.74	234.85
777.07	234.77
777.39	234.73
777.72	234.64
778.04	234.56
778.36	234.48
778.69	234.41
779.01	234.25
779.33	234.02
779.66	233.70
779.98	233.49
780.31	233.51
780.63	233.44
780.95	233.38
781.28	233.28
781.60	233.08
781.92	233.00
782.25	232.87
782.57	232.83
782.89	232.73
783.22	232.62
783.54	232.55
783.86	232.46
784.19	232.41
784.51	232.32
784.83	232.19
785.16	232.12
785.48	232.00
785.80	232.00
786.12	231.80
786.45	231.83
786.77	231.80
787.09	231.71
787.42	231.65
787.74	231.62
788.06	231.60
788.38	231.62
788.71	231.52
789.03	231.59
789.35	231.47
789.67	231.46
789.99	231.45
790.32	231.34
790.64	231.34
790.96	231.44
791.28	231.37
791.61	231.33
791.93	231.44
792.25	231.42
792.57	231.53
792.89	231.54
793.21	231.45
793.54	231.45
793.86	231.30
794.18	231.38
