SpectraSuite Data File
++++++++++++++++++++++++++++++++++++
Date: Fri Feb 01 14:34:12 EST 2013
User: group
Dark Spectrum Present: No
Reference Spectrum Present: No
Number of Sampled Component Spectra: 1
Spectrometers: USB2E7196
Integration Time (usec): 70000 (USB2E7196)
Spectra Averaged: 10 (USB2E7196)
Boxcar Smoothing: 10 (USB2E7196)
Correct for Electrical Dark: No (USB2E7196)
Strobe/Lamp Enabled: No (USB2E7196)
Correct for Detector Non-linearity: No (USB2E7196)
Correct for Stray Light: No (USB2E7196)
Number of Pixels in Processed Spectrum: 2048
>>>>>Begin Processed Spectral Data<<<<<
339.09	0.00
339.48	217.20
339.86	218.70
340.24	218.80
340.63	220.80
341.01	226.60
341.39	222.90
341.78	223.00
342.16	227.30
342.54	225.90
342.93	214.67
343.31	225.59
343.69	226.11
344.07	226.48
344.46	226.96
344.84	227.39
345.22	227.47
345.60	227.75
345.99	228.03
346.37	228.09
346.75	228.18
347.13	228.29
347.52	228.42
347.90	228.63
348.28	228.60
348.66	228.64
349.05	228.67
349.43	228.76
349.81	228.85
350.19	228.94
350.57	228.99
350.96	229.05
351.34	229.19
351.72	229.22
352.10	229.42
352.48	229.46
352.87	229.46
353.25	229.50
353.63	229.53
354.01	229.50
354.39	229.61
354.77	229.66
355.15	229.70
355.54	229.71
355.92	229.70
356.30	229.80
356.68	229.96
357.06	230.08
357.44	230.11
357.82	230.06
358.20	230.15
358.58	230.18
358.97	230.21
359.35	230.19
359.73	230.35
360.11	230.37
360.49	230.41
360.87	230.50
361.25	230.73
361.63	230.84
362.01	231.00
362.39	230.99
362.77	231.00
363.15	231.20
363.53	231.20
363.91	231.22
364.29	231.23
364.67	231.12
365.05	231.10
365.43	231.11
365.81	231.18
366.19	231.20
366.57	231.31
366.95	231.36
367.33	231.29
367.71	231.14
368.09	231.15
368.47	231.14
368.85	231.09
369.23	231.01
369.61	230.90
369.99	230.89
370.37	230.85
370.75	231.06
371.13	230.85
371.51	230.77
371.89	230.71
372.27	230.66
372.65	230.52
373.03	230.44
373.41	230.40
373.78	230.39
374.16	230.28
374.54	229.97
374.92	229.83
375.30	229.68
375.68	229.61
376.06	229.49
376.44	229.42
376.82	229.32
377.19	229.22
377.57	229.15
377.95	229.02
378.33	228.97
378.71	228.67
379.09	228.60
379.47	228.61
379.84	228.49
380.22	228.35
380.60	228.20
380.98	228.10
381.36	227.95
381.73	227.77
382.11	227.72
382.49	227.80
382.87	227.77
383.25	227.81
383.62	228.02
384.00	227.89
384.38	227.78
384.76	227.79
385.13	227.82
385.51	227.72
385.89	227.60
386.27	227.59
386.64	227.61
387.02	227.47
387.40	227.35
387.78	227.34
388.15	227.42
388.53	227.43
388.91	227.35
389.29	227.38
389.66	227.42
390.04	227.35
390.42	227.36
390.79	227.28
391.17	227.26
391.55	227.04
391.92	227.14
392.30	227.13
392.68	227.11
393.05	227.03
393.43	227.10
393.81	227.21
394.18	227.16
394.56	227.18
394.94	227.40
395.31	227.44
395.69	227.51
396.06	227.52
396.44	227.68
396.82	227.71
397.19	227.88
397.57	227.89
397.95	228.02
398.32	228.00
398.70	228.25
399.07	228.40
399.45	228.45
399.82	228.57
400.20	228.86
400.58	228.95
400.95	229.04
401.33	229.25
401.70	229.45
402.08	229.60
402.45	229.83
402.83	230.00
403.20	230.15
403.58	230.41
403.95	230.80
404.33	231.03
404.71	231.41
405.08	231.79
405.46	232.24
405.83	232.64
406.21	233.05
406.58	233.35
406.96	233.86
407.33	234.49
407.70	234.91
408.08	235.49
408.45	236.10
408.83	236.66
409.20	237.36
409.58	237.90
409.95	238.76
410.33	239.56
410.70	240.32
411.08	241.20
411.45	242.11
411.82	242.89
412.20	243.94
412.57	245.09
412.95	246.08
413.32	247.30
413.69	248.50
414.07	249.95
414.44	251.50
414.82	252.86
415.19	254.56
415.56	256.34
415.94	258.16
416.31	260.27
416.68	262.40
417.06	264.64
417.43	266.92
417.81	269.49
418.18	272.18
418.55	274.98
418.93	277.97
419.30	281.03
419.67	284.28
420.04	287.65
420.42	291.20
420.79	295.25
421.16	299.33
421.54	303.54
421.91	307.75
422.28	312.32
422.66	317.20
423.03	321.73
423.40	326.65
423.77	331.78
424.15	336.80
424.52	342.38
424.89	348.36
425.26	354.15
425.64	359.53
426.01	365.27
426.38	371.44
426.75	377.70
427.13	384.23
427.50	391.12
427.87	398.32
428.24	405.35
428.61	412.04
428.99	419.28
429.36	427.43
429.73	435.43
430.10	443.14
430.47	451.13
430.85	459.48
431.22	468.24
431.59	477.41
431.96	486.38
432.33	496.03
432.70	505.56
433.08	516.54
433.45	526.92
433.82	537.44
434.19	549.21
434.56	560.47
434.93	571.23
435.30	582.15
435.68	593.80
436.05	605.48
436.42	617.21
436.79	628.06
437.16	639.28
437.53	651.20
437.90	663.24
438.27	674.74
438.64	687.09
439.01	698.39
439.38	708.49
439.75	718.31
440.13	729.21
440.50	739.73
440.87	748.75
441.24	758.13
441.61	768.31
441.98	775.90
442.35	784.96
442.72	794.00
443.09	802.76
443.46	808.64
443.83	812.78
444.20	816.58
444.57	821.88
444.94	824.91
445.31	828.23
445.68	831.14
446.05	833.62
446.42	833.75
446.79	833.65
447.16	833.61
447.53	834.01
447.90	831.33
448.27	828.43
448.64	823.20
449.01	820.20
449.37	813.57
449.74	807.11
450.11	798.71
450.48	789.97
450.85	780.85
451.22	773.32
451.59	766.19
451.96	759.23
452.33	749.19
452.70	740.54
453.07	729.66
453.43	718.85
453.80	708.22
454.17	697.89
454.54	688.42
454.91	677.91
455.28	667.61
455.65	657.96
456.02	647.85
456.38	639.70
456.75	629.05
457.12	620.22
457.49	611.57
457.86	603.70
458.23	596.68
458.59	588.80
458.96	580.43
459.33	573.18
459.70	566.10
460.07	560.33
460.43	553.44
460.80	547.03
461.17	541.34
461.54	535.17
461.91	529.60
462.27	523.64
462.64	518.60
463.01	513.18
463.38	507.99
463.74	502.82
464.11	498.39
464.48	494.41
464.85	490.03
465.21	486.39
465.58	482.49
465.95	477.89
466.32	474.16
466.68	470.61
467.05	466.98
467.42	463.09
467.78	459.30
468.15	455.78
468.52	453.24
468.88	450.04
469.25	447.08
469.62	444.51
469.98	442.08
470.35	439.51
470.72	437.01
471.08	434.49
471.45	432.43
471.82	430.07
472.18	427.36
472.55	425.61
472.92	423.50
473.28	421.85
473.65	419.92
474.02	418.07
474.38	416.43
474.75	414.94
475.11	413.60
475.48	412.45
475.85	411.30
476.21	410.19
476.58	409.05
476.94	408.28
477.31	407.50
477.67	406.46
478.04	405.80
478.41	405.24
478.77	404.80
479.14	404.27
479.50	404.05
479.87	404.18
480.23	404.10
480.60	404.02
480.96	403.63
481.33	404.04
481.69	404.25
482.06	404.33
482.42	404.47
482.79	404.60
483.15	405.17
483.52	406.02
483.88	406.66
484.25	407.33
484.61	408.17
484.98	409.03
485.34	410.20
485.71	411.55
486.07	412.83
486.44	413.94
486.80	415.38
487.17	416.87
487.53	418.48
487.90	420.07
488.26	422.06
488.62	424.07
488.99	426.03
489.35	427.98
489.72	430.31
490.08	432.81
490.44	435.25
490.81	437.79
491.17	440.32
491.54	442.97
491.90	445.68
492.26	448.60
492.63	451.47
492.99	454.52
493.36	457.61
493.72	461.02
494.08	464.60
494.45	468.20
494.81	471.85
495.17	475.56
495.54	479.38
495.90	483.12
496.26	487.22
496.63	491.35
496.99	495.61
497.35	500.06
497.72	504.52
498.08	509.02
498.44	513.50
498.80	518.49
499.17	523.42
499.53	528.16
499.89	532.92
500.26	537.95
500.62	542.81
500.98	547.85
501.34	552.98
501.71	558.16
502.07	563.13
502.43	568.28
502.79	573.48
503.16	578.75
503.52	584.09
503.88	589.21
504.24	594.36
504.60	599.79
504.97	604.91
505.33	610.12
505.69	615.83
506.05	621.25
506.41	626.13
506.78	631.22
507.14	636.51
507.50	641.80
507.86	647.11
508.22	652.47
508.59	657.64
508.95	662.76
509.31	667.86
509.67	673.15
510.03	678.13
510.39	683.13
510.75	688.16
511.12	693.11
511.48	698.26
511.84	702.90
512.20	707.46
512.56	712.37
512.92	717.16
513.28	721.60
513.64	725.76
514.00	730.24
514.37	734.61
514.73	738.93
515.09	742.98
515.45	746.78
515.81	750.74
516.17	754.65
516.53	758.66
516.89	762.27
517.25	765.80
517.61	769.49
517.97	772.89
518.33	776.17
518.69	779.35
519.05	782.26
519.41	785.79
519.77	789.55
520.13	792.56
520.49	795.63
520.85	798.43
521.21	801.70
521.57	804.70
521.93	807.20
522.29	810.15
522.65	812.80
523.01	815.24
523.37	817.59
523.73	820.26
524.09	822.44
524.45	824.83
524.81	827.53
525.17	830.27
525.53	832.85
525.89	835.56
526.25	838.16
526.61	840.57
526.97	842.73
527.33	844.73
527.68	847.08
528.04	849.39
528.40	851.59
528.76	853.82
529.12	856.43
529.48	858.96
529.84	861.08
530.20	863.69
530.56	866.55
530.91	869.23
531.27	871.77
531.63	874.51
531.99	877.01
532.35	879.19
532.71	881.04
533.07	883.56
533.42	885.72
533.78	888.04
534.14	890.55
534.50	892.68
534.86	894.85
535.21	896.88
535.57	899.07
535.93	901.80
536.29	904.14
536.65	906.16
537.00	908.59
537.36	911.12
537.72	913.37
538.08	915.53
538.44	917.80
538.79	919.91
539.15	921.78
539.51	924.15
539.87	926.60
540.22	929.23
540.58	931.90
540.94	934.60
541.29	937.05
541.65	939.25
542.01	942.13
542.37	944.76
542.72	947.41
543.08	950.02
543.44	952.17
543.79	954.33
544.15	956.78
544.51	959.49
544.87	961.95
545.22	964.60
545.58	967.04
545.94	969.04
546.29	971.40
546.65	973.90
547.01	976.23
547.36	978.27
547.72	980.15
548.07	982.03
548.43	983.93
548.79	986.07
549.14	988.40
549.50	990.38
549.86	992.51
550.21	994.54
550.57	996.40
550.92	998.36
551.28	1000.48
551.64	1002.65
551.99	1004.74
552.35	1006.52
552.70	1008.47
553.06	1010.92
553.41	1013.29
553.77	1015.47
554.13	1017.33
554.48	1019.62
554.84	1021.86
555.19	1024.30
555.55	1026.13
555.90	1028.21
556.26	1030.27
556.61	1032.12
556.97	1034.17
557.32	1036.01
557.68	1038.10
558.03	1040.48
558.39	1042.63
558.74	1045.02
559.10	1046.80
559.45	1048.60
559.81	1051.39
560.16	1053.25
560.52	1054.89
560.87	1056.81
561.23	1058.69
561.58	1061.03
561.94	1062.68
562.29	1064.28
562.64	1065.93
563.00	1067.75
563.35	1069.69
563.71	1071.80
564.06	1073.91
564.42	1075.31
564.77	1077.24
565.12	1079.13
565.48	1080.65
565.83	1081.98
566.19	1083.38
566.54	1084.84
566.89	1086.27
567.25	1087.23
567.60	1088.90
567.96	1090.10
568.31	1091.45
568.66	1092.30
569.02	1093.19
569.37	1094.03
569.72	1095.14
570.08	1095.90
570.43	1096.80
570.78	1097.10
571.14	1097.26
571.49	1097.60
571.84	1098.78
572.20	1099.29
572.55	1099.40
572.90	1099.60
573.26	1100.13
573.61	1100.20
573.96	1100.30
574.31	1099.87
574.67	1099.41
575.02	1098.61
575.37	1098.05
575.72	1097.05
576.08	1096.98
576.43	1096.29
576.78	1095.85
577.13	1095.54
577.49	1094.93
577.84	1094.09
578.19	1093.57
578.54	1092.92
578.90	1092.10
579.25	1090.43
579.60	1089.18
579.95	1088.09
580.30	1086.74
580.66	1085.47
581.01	1084.10
581.36	1082.54
581.71	1081.75
582.06	1080.41
582.42	1079.10
582.77	1077.75
583.12	1076.62
583.47	1074.95
583.82	1073.41
584.17	1071.78
584.53	1069.92
584.88	1068.36
585.23	1066.67
585.58	1064.97
585.93	1063.07
586.28	1061.43
586.63	1060.00
586.98	1058.15
587.34	1056.55
587.69	1054.90
588.04	1053.00
588.39	1051.54
588.74	1049.36
589.09	1047.17
589.44	1044.98
589.79	1043.00
590.14	1041.18
590.49	1039.09
590.84	1036.90
591.19	1034.96
591.54	1032.57
591.89	1029.73
592.25	1027.46
592.60	1024.91
592.95	1022.31
593.30	1019.57
593.65	1016.76
594.00	1013.92
594.35	1011.66
594.70	1008.67
595.05	1006.24
595.40	1003.46
595.75	1000.29
596.10	998.01
596.45	995.38
596.80	993.06
597.15	990.44
597.50	987.65
597.85	985.16
598.19	982.65
598.54	980.00
598.89	977.31
599.24	975.24
599.59	972.32
599.94	970.01
600.29	967.46
600.64	964.82
600.99	962.02
601.34	959.61
601.69	956.55
602.04	953.89
602.39	950.78
602.74	948.22
603.08	945.58
603.43	943.10
603.78	940.55
604.13	937.50
604.48	934.83
604.83	932.15
605.18	929.38
605.53	926.20
605.87	922.81
606.22	920.01
606.57	916.80
606.92	913.90
607.27	910.83
607.62	908.08
607.96	905.48
608.31	902.75
608.66	899.39
609.01	896.14
609.36	892.64
609.70	888.95
610.05	885.30
610.40	881.99
610.75	878.34
611.10	874.42
611.44	870.83
611.79	867.24
612.14	863.47
612.49	859.35
612.83	855.63
613.18	852.04
613.53	848.34
613.88	844.69
614.22	841.15
614.57	837.34
614.92	833.37
615.27	829.61
615.61	825.61
615.96	821.95
616.31	818.47
616.65	815.49
617.00	812.37
617.35	809.17
617.70	805.50
618.04	801.84
618.39	798.61
618.74	795.21
619.08	791.46
619.43	788.18
619.78	784.88
620.12	781.44
620.47	778.10
620.82	774.60
621.16	771.25
621.51	767.94
621.85	764.53
622.20	760.86
622.55	757.42
622.89	754.24
623.24	751.10
623.59	747.94
623.93	744.55
624.28	741.28
624.62	738.02
624.97	735.12
625.32	732.02
625.66	728.60
626.01	725.40
626.35	722.33
626.70	719.02
627.04	716.08
627.39	712.99
627.73	709.82
628.08	706.70
628.43	703.36
628.77	700.04
629.12	696.99
629.46	694.03
629.81	690.53
630.15	687.16
630.50	683.80
630.84	680.26
631.19	676.72
631.53	673.51
631.88	669.95
632.22	666.29
632.57	663.06
632.91	659.84
633.26	656.84
633.60	653.43
633.95	650.23
634.29	647.19
634.64	644.26
634.98	641.40
635.32	638.48
635.67	635.65
636.01	632.59
636.36	629.56
636.70	626.87
637.05	624.37
637.39	621.79
637.73	619.14
638.08	616.66
638.42	614.11
638.77	611.56
639.11	608.94
639.45	606.28
639.80	603.39
640.14	600.91
640.49	598.17
640.83	595.79
641.17	593.10
641.52	590.49
641.86	587.81
642.20	585.23
642.55	582.59
642.89	580.02
643.23	577.59
643.58	575.11
643.92	572.45
644.26	569.80
644.61	567.43
644.95	564.85
645.29	561.87
645.64	559.21
645.98	556.52
646.32	554.19
646.66	551.72
647.01	549.26
647.35	546.67
647.69	544.01
648.04	541.52
648.38	539.01
648.72	536.10
649.06	533.41
649.41	530.73
649.75	528.10
650.09	525.59
650.43	522.86
650.78	520.18
651.12	517.50
651.46	514.99
651.80	512.33
652.14	510.00
652.49	507.71
652.83	505.39
653.17	502.63
653.51	500.08
653.85	497.63
654.20	495.25
654.54	492.52
654.88	489.97
655.22	487.39
655.56	484.86
655.90	482.64
656.25	480.38
656.59	477.91
656.93	475.79
657.27	473.58
657.61	471.17
657.95	468.99
658.29	466.81
658.64	464.43
658.98	462.06
659.32	459.50
659.66	457.10
660.00	454.74
660.34	452.70
660.68	450.38
661.02	448.25
661.36	446.29
661.70	444.28
662.05	442.45
662.39	440.56
662.73	438.68
663.07	436.71
663.41	434.81
663.75	433.20
664.09	431.19
664.43	429.19
664.77	427.60
665.11	425.74
665.45	423.91
665.79	422.10
666.13	420.28
666.47	418.64
666.81	416.96
667.15	414.94
667.49	413.13
667.83	411.35
668.17	409.50
668.51	407.48
668.85	405.76
669.19	404.00
669.53	402.31
669.87	400.58
670.21	398.98
670.55	397.38
670.89	395.71
671.23	394.11
671.57	392.38
671.91	390.70
672.25	389.10
672.58	387.45
672.92	385.93
673.26	384.50
673.60	383.09
673.94	381.70
674.28	380.47
674.62	379.12
674.96	377.82
675.30	376.51
675.64	375.32
675.97	374.07
676.31	372.63
676.65	371.29
676.99	370.06
677.33	368.70
677.67	367.31
678.01	365.76
678.34	364.38
678.68	363.19
679.02	361.88
679.36	360.65
679.70	359.55
680.04	358.30
680.37	357.08
680.71	355.69
681.05	354.52
681.39	353.41
681.73	352.39
682.06	351.21
682.40	350.15
682.74	348.93
683.08	347.89
683.42	346.89
683.75	345.72
684.09	344.53
684.43	343.52
684.77	342.30
685.10	341.47
685.44	340.47
685.78	339.52
686.12	338.62
686.45	337.51
686.79	336.35
687.13	335.35
687.46	334.38
687.80	333.49
688.14	332.49
688.48	331.54
688.81	330.36
689.15	329.46
689.49	328.42
689.82	327.59
690.16	326.46
690.50	325.50
690.83	324.54
691.17	323.54
691.51	322.54
691.84	321.73
692.18	320.76
692.52	319.84
692.85	318.98
693.19	318.08
693.52	317.15
693.86	316.26
694.20	315.35
694.53	314.31
694.87	313.35
695.21	312.38
695.54	311.52
695.88	310.68
696.21	309.71
696.55	308.83
696.88	307.88
697.22	307.09
697.56	306.30
697.89	305.55
698.23	304.81
698.56	303.90
698.90	303.11
699.23	302.15
699.57	301.27
699.90	300.35
700.24	299.41
700.58	298.63
700.91	297.92
701.25	297.29
701.58	296.74
701.92	296.02
702.25	295.28
702.59	294.36
702.92	293.69
703.26	293.04
703.59	292.37
703.93	291.87
704.26	291.20
704.60	290.55
704.93	289.78
705.26	289.10
705.60	288.56
705.93	287.93
706.27	287.31
706.60	286.83
706.94	286.21
707.27	285.55
707.61	285.08
707.94	284.34
708.27	283.57
708.61	282.82
708.94	282.19
709.28	281.67
709.61	281.30
709.94	280.80
710.28	280.00
710.61	279.39
710.95	278.67
711.28	278.26
711.61	277.50
711.95	277.01
712.28	276.46
712.61	275.82
712.95	275.29
713.28	274.93
713.61	274.28
713.95	273.78
714.28	273.37
714.61	272.79
714.95	272.39
715.28	271.84
715.61	271.39
715.95	271.04
716.28	270.51
716.61	269.97
716.95	269.35
717.28	269.06
717.61	268.54
717.94	268.03
718.28	267.41
718.61	267.07
718.94	266.59
719.27	266.14
719.61	265.70
719.94	265.29
720.27	264.68
720.60	264.38
720.94	263.96
721.27	263.57
721.60	263.15
721.93	262.75
722.27	262.56
722.60	262.22
722.93	261.80
723.26	261.53
723.59	261.24
723.93	260.97
724.26	260.69
724.59	260.33
724.92	260.16
725.25	259.87
725.59	259.60
725.92	259.41
726.25	259.17
726.58	258.97
726.91	258.70
727.24	258.52
727.57	258.24
727.91	257.92
728.24	257.65
728.57	257.42
728.90	257.20
729.23	256.89
729.56	256.71
729.89	256.43
730.22	256.20
730.55	255.90
730.89	255.69
731.22	255.48
731.55	255.39
731.88	255.07
732.21	254.81
732.54	254.53
732.87	254.19
733.20	253.88
733.53	253.62
733.86	253.46
734.19	253.24
734.52	252.95
734.85	252.90
735.18	252.77
735.51	252.62
735.84	252.46
736.17	252.24
736.50	251.95
736.83	252.02
737.16	251.70
737.49	251.41
737.82	251.14
738.15	250.89
738.48	250.69
738.81	250.48
739.14	250.30
739.47	250.19
739.80	249.97
740.13	249.89
740.46	249.69
740.79	249.42
741.12	249.13
741.45	248.92
741.78	248.61
742.11	248.35
742.44	248.16
742.77	247.90
743.10	247.77
743.43	247.50
743.75	247.04
744.08	247.21
744.41	247.11
744.74	246.90
745.07	246.68
745.40	246.56
745.73	246.47
746.06	246.26
746.39	245.98
746.71	245.85
747.04	245.61
747.37	245.43
747.70	245.21
748.03	245.10
748.36	244.92
748.68	244.61
749.01	244.37
749.34	244.07
749.67	243.82
750.00	243.58
750.33	243.46
750.65	243.32
750.98	242.83
751.31	242.56
751.64	242.44
751.97	242.31
752.29	242.09
752.62	241.87
752.95	241.72
753.28	241.48
753.60	241.32
753.93	241.11
754.26	240.98
754.59	240.79
754.91	240.68
755.24	240.54
755.57	240.44
755.90	240.31
756.22	240.20
756.55	240.12
756.88	239.98
757.20	239.77
757.53	239.55
757.86	239.42
758.19	239.36
758.51	239.12
758.84	238.94
759.17	238.85
759.49	238.59
759.82	238.45
760.15	238.42
760.47	238.22
760.80	238.05
761.13	237.93
761.45	237.84
761.78	237.66
762.11	237.52
762.43	237.35
762.76	237.23
763.08	237.07
763.41	237.00
763.74	236.86
764.06	236.85
764.39	236.85
764.71	236.70
765.04	236.51
765.37	236.48
765.69	236.41
766.02	236.18
766.34	236.03
766.67	236.03
767.00	235.88
767.32	235.92
767.65	236.01
767.97	235.86
768.30	235.75
768.62	235.71
768.95	235.69
769.27	235.73
769.60	235.74
769.92	235.71
770.25	235.53
770.57	235.47
770.90	235.29
771.22	235.14
771.55	235.08
771.87	235.15
772.20	235.16
772.52	235.26
772.85	235.43
773.17	235.57
773.50	235.34
773.82	235.36
774.15	235.31
774.47	235.16
774.80	235.13
775.12	235.16
775.45	235.06
775.77	234.94
776.09	234.86
776.42	234.82
776.74	234.91
777.07	234.95
777.39	234.87
777.72	234.92
778.04	234.94
778.36	234.94
778.69	234.85
779.01	234.80
779.33	234.56
779.66	234.29
779.98	234.19
780.31	234.15
780.63	234.19
780.95	234.10
781.28	233.97
781.60	233.97
781.92	233.86
782.25	233.82
782.57	233.82
782.89	233.77
783.22	233.73
783.54	233.59
783.86	233.52
784.19	233.48
784.51	233.48
784.83	233.44
785.16	233.37
785.48	233.45
785.80	233.38
786.12	233.33
786.45	233.38
786.77	233.23
787.09	233.22
787.42	233.07
787.74	233.05
788.06	233.15
788.38	233.01
788.71	232.98
789.03	232.99
789.35	233.01
789.67	233.00
789.99	232.82
790.32	232.75
790.64	232.72
790.96	232.89
791.28	232.81
791.61	232.78
