SpectraSuite Data File
++++++++++++++++++++++++++++++++++++
Date: Fri Feb 01 14:39:12 EST 2013
User: group
Dark Spectrum Present: No
Reference Spectrum Present: No
Number of Sampled Component Spectra: 1
Spectrometers: USB2E7196
Integration Time (usec): 70000 (USB2E7196)
Spectra Averaged: 10 (USB2E7196)
Boxcar Smoothing: 10 (USB2E7196)
Correct for Electrical Dark: No (USB2E7196)
Strobe/Lamp Enabled: No (USB2E7196)
Correct for Detector Non-linearity: No (USB2E7196)
Correct for Stray Light: No (USB2E7196)
Number of Pixels in Processed Spectrum: 2048
>>>>>Begin Processed Spectral Data<<<<<
339.09	0.00
339.48	215.50
339.86	217.20
340.24	218.50
340.63	219.80
341.01	223.00
341.39	222.50
341.78	224.90
342.16	226.60
342.54	225.30
342.93	214.39
343.31	225.27
343.69	225.85
344.07	226.34
344.46	226.81
344.84	227.15
345.22	227.43
345.60	227.65
345.99	227.86
346.37	227.95
346.75	228.11
347.13	228.23
347.52	228.30
347.90	228.33
348.28	228.41
348.66	228.38
349.05	228.43
349.43	228.41
349.81	228.41
350.19	228.49
350.57	228.50
350.96	228.62
351.34	228.67
351.72	228.83
352.10	228.86
352.48	228.94
352.87	229.05
353.25	229.14
353.63	229.20
354.01	229.19
354.39	229.27
354.77	229.27
355.15	229.36
355.54	229.43
355.92	229.53
356.30	229.51
356.68	229.76
357.06	229.76
357.44	229.81
357.82	229.93
358.20	229.89
358.58	229.96
358.97	230.09
359.35	230.15
359.73	230.20
360.11	230.27
360.49	230.28
360.87	230.39
361.25	230.36
361.63	230.55
362.01	230.58
362.39	230.60
362.77	230.64
363.15	230.69
363.53	230.60
363.91	230.63
364.29	230.83
364.67	230.67
365.05	230.62
365.43	230.65
365.81	230.54
366.19	230.63
366.57	230.69
366.95	230.60
367.33	230.54
367.71	230.45
368.09	230.40
368.47	230.47
368.85	230.36
369.23	230.34
369.61	230.17
369.99	230.21
370.37	230.21
370.75	230.25
371.13	230.08
371.51	230.16
371.89	230.12
372.27	229.85
372.65	229.80
373.03	229.75
373.41	229.68
373.78	229.60
374.16	229.35
374.54	229.14
374.92	229.09
375.30	229.00
375.68	228.85
376.06	228.90
376.44	228.75
376.82	228.61
377.19	228.51
377.57	228.39
377.95	228.19
378.33	228.07
378.71	227.90
379.09	227.90
379.47	227.82
379.84	227.65
380.22	227.68
380.60	227.51
380.98	227.32
381.36	227.24
381.73	227.19
382.11	227.27
382.49	227.28
382.87	227.05
383.25	226.95
383.62	227.17
384.00	226.95
384.38	226.90
384.76	226.98
385.13	227.04
385.51	227.00
385.89	226.97
386.27	226.86
386.64	226.84
387.02	226.80
387.40	226.66
387.78	226.62
388.15	226.52
388.53	226.52
388.91	226.60
389.29	226.53
389.66	226.57
390.04	226.50
390.42	226.47
390.79	226.49
391.17	226.50
391.55	226.27
391.92	226.30
392.30	226.22
392.68	226.13
393.05	226.00
393.43	226.07
393.81	226.20
394.18	226.20
394.56	226.22
394.94	226.21
395.31	226.26
395.69	226.39
396.06	226.44
396.44	226.47
396.82	226.55
397.19	226.72
397.57	226.80
397.95	226.95
398.32	226.86
398.70	227.07
399.07	227.16
399.45	227.13
399.82	227.33
400.20	227.29
400.58	227.40
400.95	227.57
401.33	227.77
401.70	227.84
402.08	227.99
402.45	228.07
402.83	228.23
403.20	228.37
403.58	228.39
403.95	228.50
404.33	228.67
404.71	228.79
405.08	228.93
405.46	229.11
405.83	229.24
406.21	229.57
406.58	229.73
406.96	229.97
407.33	230.31
407.70	230.41
408.08	230.93
408.45	231.27
408.83	231.50
409.20	231.67
409.58	231.79
409.95	232.10
410.33	232.52
410.70	232.74
411.08	233.05
411.45	233.50
411.82	233.90
412.20	234.31
412.57	234.81
412.95	235.07
413.32	235.41
413.69	235.84
414.07	236.36
414.44	236.75
414.82	237.22
415.19	237.78
415.56	238.41
415.94	238.93
416.31	239.50
416.68	240.16
417.06	240.72
417.43	241.60
417.81	242.44
418.18	243.17
418.55	244.03
418.93	244.92
419.30	245.84
419.67	246.81
420.04	247.80
420.42	248.90
420.79	250.30
421.16	251.54
421.54	252.84
421.91	253.99
422.28	255.38
422.66	256.80
423.03	258.34
423.40	259.84
423.77	261.39
424.15	262.99
424.52	264.64
424.89	266.54
425.26	268.14
425.64	269.70
426.01	271.44
426.38	273.41
426.75	275.41
427.13	277.33
427.50	279.43
427.87	281.63
428.24	283.69
428.61	285.53
428.99	287.78
429.36	290.14
429.73	292.53
430.10	294.86
430.47	297.23
430.85	299.50
431.22	301.96
431.59	304.83
431.96	307.40
432.33	310.22
432.70	313.06
433.08	316.36
433.45	319.45
433.82	322.44
434.19	325.64
434.56	328.94
434.93	332.05
435.30	335.10
435.68	338.43
436.05	341.68
436.42	345.05
436.79	348.31
437.16	351.58
437.53	355.04
437.90	358.54
438.27	361.89
438.64	365.34
439.01	368.58
439.38	371.20
439.75	373.96
440.13	377.06
440.50	379.86
440.87	382.26
441.24	384.66
441.61	387.48
441.98	389.61
442.35	391.87
442.72	394.30
443.09	396.64
443.46	398.14
443.83	399.34
444.20	400.22
444.57	401.14
444.94	401.70
445.31	402.39
445.68	403.22
446.05	403.58
446.42	403.23
446.79	402.95
447.16	402.76
447.53	402.63
447.90	401.54
448.27	400.56
448.64	399.04
449.01	398.04
449.37	396.03
449.74	393.91
450.11	391.59
450.48	388.91
450.85	386.13
451.22	383.80
451.59	381.46
451.96	379.38
452.33	376.54
452.70	374.02
453.07	370.77
453.43	367.30
453.80	364.10
454.17	361.22
454.54	358.35
454.91	355.23
455.28	352.07
455.65	349.25
456.02	346.61
456.38	344.06
456.75	341.09
457.12	338.38
457.49	335.73
457.86	333.01
458.23	330.81
458.59	328.48
458.96	326.05
459.33	323.85
459.70	321.70
460.07	319.89
460.43	317.79
460.80	315.98
461.17	314.26
461.54	312.55
461.91	310.83
462.27	309.06
462.64	307.53
463.01	305.99
463.38	304.52
463.74	302.56
464.11	301.10
464.48	299.76
464.85	298.34
465.21	297.35
465.58	296.41
465.95	295.15
466.32	293.90
466.68	292.74
467.05	291.46
467.42	290.19
467.78	288.98
468.15	287.90
468.52	286.98
468.88	285.81
469.25	284.76
469.62	283.86
469.98	283.03
470.35	282.07
470.72	281.17
471.08	280.18
471.45	279.44
471.82	278.63
472.18	277.71
472.55	277.10
472.92	276.31
473.28	275.60
473.65	274.80
474.02	274.10
474.38	273.44
474.75	273.07
475.11	272.48
475.48	271.95
475.85	271.43
476.21	270.89
476.58	270.42
476.94	270.03
477.31	269.59
477.67	269.15
478.04	268.77
478.41	268.36
478.77	268.14
479.14	267.85
479.50	267.55
479.87	267.20
480.23	266.84
480.60	266.60
480.96	266.14
481.33	266.08
481.69	265.90
482.06	265.68
482.42	265.45
482.79	265.23
483.15	265.08
483.52	264.90
483.88	264.70
484.25	264.58
484.61	264.48
484.98	264.47
485.34	264.45
485.71	264.45
486.07	264.51
486.44	264.25
486.80	264.20
487.17	264.25
487.53	264.47
487.90	264.64
488.26	264.82
488.62	264.99
488.99	264.90
489.35	265.07
489.72	265.06
490.08	265.14
490.44	265.24
490.81	265.45
491.17	265.72
491.54	266.00
491.90	266.06
492.26	266.22
492.63	266.39
492.99	266.46
493.36	266.72
493.72	266.96
494.08	267.31
494.45	267.60
494.81	267.85
495.17	268.15
495.54	268.46
495.90	268.69
496.26	269.12
496.63	269.51
496.99	269.91
497.35	270.38
497.72	270.84
498.08	271.32
498.44	271.70
498.80	272.12
499.17	272.54
499.53	273.11
499.89	273.65
500.26	274.21
500.62	274.80
500.98	275.20
501.34	275.70
501.71	276.27
502.07	276.80
502.43	277.46
502.79	277.92
503.16	278.59
503.52	279.20
503.88	279.81
504.24	280.61
504.60	281.32
504.97	282.21
505.33	282.93
505.69	283.81
506.05	284.72
506.41	285.63
506.78	286.60
507.14	287.53
507.50	288.61
507.86	289.60
508.22	290.89
508.59	292.11
508.95	293.33
509.31	294.71
509.67	296.03
510.03	297.34
510.39	298.74
510.75	300.38
511.12	302.07
511.48	303.70
511.84	305.27
512.20	306.89
512.56	308.70
512.92	310.54
513.28	312.52
513.64	314.53
514.00	316.64
514.37	318.84
514.73	321.09
515.09	323.19
515.45	325.51
515.81	327.72
516.17	330.35
516.53	332.85
516.89	335.38
517.25	338.21
517.61	340.97
517.97	344.01
518.33	346.79
518.69	349.73
519.05	352.90
519.41	356.09
519.77	359.60
520.13	362.91
520.49	366.39
520.85	369.92
521.21	373.58
521.57	377.35
521.93	380.94
522.29	385.02
522.65	389.16
523.01	393.23
523.37	397.46
523.73	401.70
524.09	406.21
524.45	410.76
524.81	415.27
525.17	419.93
525.53	424.64
525.89	429.37
526.25	434.47
526.61	439.32
526.97	444.48
527.33	449.64
527.68	455.28
528.04	460.78
528.40	466.33
528.76	471.86
529.12	477.40
529.48	483.41
529.84	489.06
530.20	494.96
530.56	501.25
530.91	507.45
531.27	513.79
531.63	520.16
531.99	526.50
532.35	532.79
532.71	539.35
533.07	545.96
533.42	552.86
533.78	559.48
534.14	566.28
534.50	573.07
534.86	580.06
535.21	586.56
535.57	593.32
535.93	600.30
536.29	607.58
536.65	614.97
537.00	621.83
537.36	629.28
537.72	636.45
538.08	643.52
538.44	650.50
538.79	657.58
539.15	664.62
539.51	671.89
539.87	679.41
540.22	686.88
540.58	694.47
540.94	701.48
541.29	708.66
541.65	716.16
542.01	723.79
542.37	731.10
542.72	738.51
543.08	746.03
543.44	753.37
543.79	760.13
544.15	767.26
544.51	774.85
544.87	782.15
545.22	789.56
545.58	796.67
545.94	803.70
546.29	810.80
546.65	817.94
547.01	824.86
547.36	831.80
547.72	838.70
548.07	845.47
548.43	852.39
548.79	859.36
549.14	865.90
549.50	872.14
549.86	878.61
550.21	885.03
550.57	891.78
550.92	898.44
551.28	905.09
551.64	911.39
551.99	917.54
552.35	923.72
552.70	929.91
553.06	936.36
553.41	942.97
553.77	949.15
554.13	955.15
554.48	961.32
554.84	967.58
555.19	973.34
555.55	979.38
555.90	985.52
556.26	991.33
556.61	997.12
556.97	1002.84
557.32	1008.67
557.68	1014.36
558.03	1019.61
558.39	1024.84
558.74	1030.68
559.10	1036.28
559.45	1041.93
559.81	1047.33
560.16	1052.59
560.52	1057.69
560.87	1063.02
561.23	1067.90
561.58	1073.23
561.94	1078.17
562.29	1082.38
562.64	1086.93
563.00	1091.24
563.35	1095.82
563.71	1100.69
564.06	1105.63
564.42	1110.23
564.77	1114.76
565.12	1119.60
565.48	1124.17
565.83	1128.50
566.19	1132.44
566.54	1136.47
566.89	1140.43
567.25	1144.40
567.60	1148.51
567.96	1152.32
568.31	1155.76
568.66	1159.54
569.02	1162.97
569.37	1166.15
569.72	1169.76
570.08	1173.02
570.43	1176.32
570.78	1179.20
571.14	1181.74
571.49	1184.22
571.84	1187.34
572.20	1189.62
572.55	1191.86
572.90	1193.99
573.26	1196.50
573.61	1198.61
573.96	1200.30
574.31	1201.80
574.67	1202.81
575.02	1203.85
575.37	1205.29
575.72	1206.49
576.08	1207.82
576.43	1208.88
576.78	1209.96
577.13	1211.30
577.49	1212.65
577.84	1213.44
578.19	1214.44
578.54	1215.11
578.90	1215.48
579.25	1215.63
579.60	1216.10
579.95	1216.05
580.30	1216.10
580.66	1215.52
581.01	1215.45
581.36	1215.55
581.71	1215.57
582.06	1215.75
582.42	1215.72
582.77	1215.31
583.12	1214.74
583.47	1214.49
583.82	1214.18
584.17	1213.90
584.53	1213.37
584.88	1213.06
585.23	1212.28
585.58	1211.51
585.93	1210.95
586.28	1210.31
586.63	1209.74
586.98	1209.05
587.34	1208.54
587.69	1207.79
588.04	1207.25
588.39	1206.58
588.74	1205.27
589.09	1203.89
589.44	1202.29
589.79	1201.23
590.14	1200.30
590.49	1199.03
590.84	1197.41
591.19	1195.92
591.54	1194.00
591.89	1191.66
592.25	1189.55
592.60	1187.50
592.95	1185.29
593.30	1182.94
593.65	1180.64
594.00	1178.28
594.35	1176.47
594.70	1174.08
595.05	1171.76
595.40	1169.34
595.75	1166.59
596.10	1164.49
596.45	1162.68
596.80	1161.06
597.15	1158.71
597.50	1156.16
597.85	1154.20
598.19	1152.02
598.54	1149.89
598.89	1147.75
599.24	1146.30
599.59	1143.97
599.94	1142.31
600.29	1140.00
600.64	1137.73
600.99	1135.06
601.34	1132.62
601.69	1129.65
602.04	1127.04
602.39	1124.37
602.74	1122.39
603.08	1119.98
603.43	1117.98
603.78	1115.32
604.13	1112.40
604.48	1109.77
604.83	1107.10
605.18	1104.51
605.53	1101.50
605.87	1098.03
606.22	1095.42
606.57	1091.90
606.92	1088.87
607.27	1085.90
607.62	1083.15
607.96	1080.17
608.31	1077.85
608.66	1074.50
609.01	1070.99
609.36	1067.60
609.70	1063.83
610.05	1059.83
610.40	1056.41
610.75	1052.31
611.10	1048.80
611.44	1044.97
611.79	1041.23
612.14	1037.24
612.49	1032.68
612.83	1028.56
613.18	1024.74
613.53	1020.54
613.88	1016.30
614.22	1012.41
614.57	1008.28
614.92	1004.09
615.27	1000.10
615.61	995.76
615.96	991.81
616.31	988.29
616.65	984.80
617.00	981.73
617.35	977.78
617.70	973.62
618.04	969.57
618.39	965.30
618.74	961.60
619.08	957.53
619.43	953.76
619.78	950.38
620.12	946.72
620.47	943.29
620.82	939.35
621.16	935.76
621.51	931.93
621.85	927.73
622.20	923.84
622.55	920.33
622.89	916.65
623.24	913.09
623.59	909.17
623.93	905.43
624.28	901.56
624.62	898.13
624.97	894.86
625.32	891.60
625.66	888.18
626.01	884.61
626.35	880.86
626.70	877.08
627.04	873.46
627.39	869.81
627.73	865.62
628.08	862.04
628.43	858.27
628.77	854.58
629.12	850.95
629.46	847.02
629.81	842.70
630.15	838.60
630.50	834.74
630.84	830.43
631.19	826.03
631.53	822.00
631.88	817.65
632.22	813.21
632.57	808.95
632.91	804.70
633.26	800.46
633.60	796.22
633.95	792.31
634.29	788.31
634.64	784.63
634.98	781.00
635.32	777.50
635.67	773.76
636.01	770.10
636.36	766.32
636.70	762.77
637.05	759.52
637.39	756.21
637.73	752.57
638.08	749.72
638.42	746.59
638.77	743.14
639.11	739.79
639.45	736.26
639.80	732.74
640.14	729.45
640.49	726.00
640.83	722.80
641.17	719.60
641.52	716.37
641.86	712.83
642.20	709.53
642.55	705.64
642.89	702.32
643.23	698.70
643.58	695.30
643.92	691.84
644.26	688.28
644.61	684.97
644.95	681.59
645.29	677.60
645.64	673.89
645.98	670.37
646.32	666.99
646.66	663.76
647.01	660.41
647.35	656.92
647.69	653.74
648.04	650.69
648.38	647.20
648.72	643.27
649.06	639.48
649.41	635.79
649.75	632.13
650.09	628.56
650.43	624.92
650.78	621.18
651.12	617.64
651.46	614.15
651.80	610.54
652.14	607.07
652.49	603.95
652.83	600.60
653.17	597.13
653.51	593.66
653.85	590.42
654.20	586.82
654.54	583.23
654.88	579.66
655.22	575.90
655.56	572.40
655.90	569.51
656.25	566.37
656.59	563.16
656.93	560.26
657.27	557.18
657.61	554.11
657.95	551.44
658.29	548.45
658.64	545.38
658.98	542.25
659.32	539.06
659.66	535.88
660.00	532.80
660.34	529.72
660.68	526.62
661.02	523.44
661.36	520.69
661.70	517.88
662.05	515.23
662.39	512.57
662.73	509.87
663.07	506.97
663.41	504.49
663.75	501.97
664.09	499.41
664.43	496.69
664.77	494.14
665.11	491.40
665.45	488.97
665.79	486.36
666.13	483.85
666.47	481.46
666.81	478.84
667.15	476.34
667.49	474.01
667.83	471.96
668.17	469.58
668.51	467.14
668.85	465.09
669.19	462.80
669.53	460.49
669.87	458.04
670.21	455.84
670.55	453.49
670.89	451.34
671.23	449.15
671.57	447.08
671.91	445.04
672.25	442.96
672.58	440.83
672.92	438.89
673.26	436.91
673.60	434.92
673.94	433.28
674.28	431.36
674.62	429.70
674.96	427.63
675.30	425.96
675.64	424.23
675.97	422.23
676.31	420.54
676.65	418.90
676.99	417.38
677.33	415.52
677.67	413.75
678.01	411.90
678.34	410.09
678.68	408.32
679.02	406.43
679.36	404.66
679.70	402.95
680.04	401.23
680.37	399.56
680.71	397.75
681.05	396.16
681.39	394.74
681.73	392.93
682.06	391.42
682.40	389.81
682.74	388.27
683.08	386.92
683.42	385.30
683.75	383.68
684.09	382.01
684.43	380.62
684.77	379.15
685.10	377.56
685.44	376.12
685.78	374.65
686.12	373.34
686.45	371.85
686.79	370.39
687.13	368.93
687.46	367.48
687.80	366.29
688.14	364.72
688.48	363.20
688.81	361.85
689.15	360.32
689.49	358.89
689.82	357.58
690.16	356.01
690.50	354.59
690.83	353.19
691.17	351.74
691.51	350.24
691.84	348.86
692.18	347.61
692.52	346.16
692.85	344.81
693.19	343.38
693.52	342.12
693.86	340.78
694.20	339.42
694.53	338.11
694.87	336.69
695.21	335.40
695.54	334.08
695.88	332.73
696.21	331.60
696.55	330.50
696.88	329.10
697.22	327.97
697.56	326.81
697.89	325.68
698.23	324.61
698.56	323.43
698.90	322.39
699.23	321.11
699.57	320.01
699.90	318.90
700.24	317.72
700.58	316.65
700.91	315.67
701.25	314.75
701.58	313.77
701.92	312.91
702.25	311.87
702.59	311.00
702.92	309.99
703.26	309.01
703.59	308.00
703.93	307.28
704.26	306.30
704.60	305.40
704.93	304.47
705.26	303.50
705.60	302.79
705.93	301.88
706.27	301.26
706.60	300.58
706.94	299.89
707.27	299.05
707.61	298.24
707.94	297.45
708.27	296.50
708.61	295.70
708.94	294.78
709.28	294.08
709.61	293.31
709.94	292.62
710.28	291.90
710.61	291.13
710.95	290.30
711.28	289.66
711.61	289.05
711.95	288.32
712.28	287.70
712.61	287.01
712.95	286.44
713.28	285.82
713.61	285.19
713.95	284.50
714.28	283.99
714.61	283.42
714.95	282.78
715.28	282.19
715.61	281.57
715.95	281.00
716.28	280.40
716.61	279.87
716.95	279.34
717.28	278.69
717.61	278.18
717.94	277.56
718.28	276.98
718.61	276.30
718.94	275.87
719.27	275.30
719.61	274.79
719.94	274.33
720.27	273.69
720.60	273.21
720.94	272.79
721.27	272.34
721.60	271.97
721.93	271.63
722.27	271.36
722.60	271.01
722.93	270.73
723.26	270.37
723.59	269.95
723.93	269.63
724.26	269.35
724.59	268.97
724.92	268.69
725.25	268.36
725.59	267.91
725.92	267.55
726.25	267.24
726.58	266.78
726.91	266.32
727.24	266.13
727.57	265.75
727.91	265.34
728.24	265.10
728.57	264.60
728.90	264.10
729.23	263.63
729.56	263.44
729.89	262.95
730.22	262.56
730.55	262.21
730.89	261.80
731.22	261.45
731.55	261.00
731.88	260.56
732.21	260.10
732.54	259.75
732.87	259.24
733.20	258.88
733.53	258.62
733.86	258.22
734.19	257.80
734.52	257.41
734.85	257.18
735.18	256.69
735.51	256.37
735.84	256.08
736.17	255.78
736.50	255.30
736.83	255.23
737.16	254.94
737.49	254.62
737.82	254.27
738.15	253.98
738.48	253.80
738.81	253.54
739.14	253.21
739.47	253.00
739.80	252.78
740.13	252.48
740.46	252.14
740.79	251.89
741.12	251.55
741.45	251.30
741.78	250.96
742.11	250.79
742.44	250.56
742.77	250.30
743.10	250.08
743.43	249.72
743.75	249.18
744.08	249.18
744.41	248.87
744.74	248.64
745.07	248.35
745.40	248.08
745.73	247.95
746.06	247.71
746.39	247.50
746.71	247.26
747.04	247.11
747.37	246.97
747.70	246.68
748.03	246.46
748.36	246.19
748.68	245.92
749.01	245.55
749.34	245.35
749.67	245.28
750.00	244.99
750.33	245.00
750.65	244.88
750.98	244.40
751.31	244.20
751.64	244.10
751.97	244.04
752.29	243.93
752.62	243.60
752.95	243.46
753.28	243.22
753.60	243.01
753.93	242.91
754.26	242.74
754.59	242.61
754.91	242.49
755.24	242.33
755.57	242.30
755.90	242.26
756.22	242.03
756.55	241.80
756.88	241.69
757.20	241.45
757.53	241.32
757.86	241.25
758.19	241.15
758.51	240.95
758.84	240.70
759.17	240.46
759.49	240.40
759.82	240.46
760.15	240.47
760.47	240.48
760.80	240.29
761.13	240.21
761.45	240.12
761.78	240.04
762.11	239.92
762.43	239.74
762.76	239.72
763.08	239.64
763.41	239.54
763.74	239.50
764.06	239.39
764.39	239.22
764.71	239.10
765.04	239.03
765.37	239.02
765.69	238.95
766.02	238.92
766.34	238.80
766.67	238.61
767.00	238.49
767.32	238.41
767.65	238.56
767.97	238.49
768.30	238.48
768.62	238.35
768.95	238.26
769.27	238.19
769.60	238.01
769.92	237.99
770.25	237.84
770.57	237.61
770.90	237.49
771.22	237.46
771.55	237.30
771.87	237.20
772.20	237.09
772.52	237.12
772.85	237.17
773.17	237.03
773.50	236.86
773.82	236.62
774.15	236.50
774.47	236.07
774.80	235.83
775.12	235.70
775.45	235.67
775.77	235.66
776.09	235.51
776.42	235.47
776.74	235.42
777.07	235.32
777.39	235.30
777.72	235.28
778.04	235.21
778.36	235.13
778.69	235.07
779.01	235.00
779.33	234.76
779.66	234.53
779.98	234.45
780.31	234.42
780.63	234.48
780.95	234.35
781.28	234.23
781.60	234.15
781.92	233.97
782.25	233.77
782.57	233.71
782.89	233.66
783.22	233.64
783.54	233.48
783.86	233.43
784.19	233.48
784.51	233.34
784.83	233.20
785.16	233.12
785.48	233.04
785.80	232.98
786.12	232.94
786.45	232.94
786.77	233.00
787.09	232.97
787.42	232.90
787.74	232.86
788.06	232.90
788.38	232.90
788.71	232.85
789.03	232.89
789.35	232.70
789.67	232.64
789.99	232.51
790.32	232.51
790.64	232.57
