SpectraSuite Data File
++++++++++++++++++++++++++++++++++++
Date: Fri Feb 01 14:39:34 EST 2013
User: group
Dark Spectrum Present: No
Reference Spectrum Present: No
Number of Sampled Component Spectra: 1
Spectrometers: USB2E7196
Integration Time (usec): 70000 (USB2E7196)
Spectra Averaged: 10 (USB2E7196)
Boxcar Smoothing: 10 (USB2E7196)
Correct for Electrical Dark: No (USB2E7196)
Strobe/Lamp Enabled: No (USB2E7196)
Correct for Detector Non-linearity: No (USB2E7196)
Correct for Stray Light: No (USB2E7196)
Number of Pixels in Processed Spectrum: 2048
>>>>>Begin Processed Spectral Data<<<<<
339.09	0.00
339.48	215.30
339.86	218.00
340.24	218.60
340.63	220.60
341.01	225.50
341.39	223.20
341.78	226.10
342.16	225.50
342.54	226.00
342.93	214.57
343.31	225.39
343.69	226.02
344.07	226.48
344.46	226.90
344.84	227.25
345.22	227.38
345.60	227.60
345.99	227.66
346.37	227.79
346.75	227.83
347.13	227.94
347.52	228.02
347.90	228.12
348.28	228.18
348.66	228.32
349.05	228.25
349.43	228.17
349.81	228.19
350.19	228.17
350.57	228.17
350.96	228.17
351.34	228.24
351.72	228.21
352.10	228.22
352.48	228.24
352.87	228.29
353.25	228.29
353.63	228.29
354.01	228.39
354.39	228.43
354.77	228.60
355.15	228.66
355.54	228.74
355.92	228.80
356.30	228.87
356.68	228.86
357.06	228.99
357.44	229.10
357.82	229.07
358.20	229.19
358.58	229.18
358.97	229.29
359.35	229.39
359.73	229.57
360.11	229.64
360.49	229.71
360.87	229.72
361.25	229.87
361.63	230.00
362.01	230.01
362.39	230.08
362.77	230.01
363.15	230.07
363.53	230.03
363.91	230.09
364.29	230.13
364.67	230.07
365.05	230.06
365.43	230.04
365.81	230.18
366.19	230.28
366.57	230.39
366.95	230.38
367.33	230.24
367.71	230.17
368.09	230.28
368.47	230.27
368.85	230.27
369.23	230.28
369.61	230.22
369.99	230.15
370.37	230.06
370.75	230.21
371.13	230.07
371.51	230.04
371.89	229.87
372.27	229.83
372.65	229.74
373.03	229.58
373.41	229.50
373.78	229.46
374.16	229.25
374.54	229.12
374.92	228.93
375.30	228.99
375.68	228.86
376.06	228.68
376.44	228.56
376.82	228.58
377.19	228.41
377.57	228.29
377.95	228.27
378.33	228.20
378.71	227.97
379.09	228.00
379.47	227.97
379.84	227.93
380.22	227.79
380.60	227.75
380.98	227.68
381.36	227.66
381.73	227.53
382.11	227.50
382.49	227.43
382.87	227.41
383.25	227.28
383.62	227.49
384.00	227.51
384.38	227.51
384.76	227.40
385.13	227.50
385.51	227.45
385.89	227.34
386.27	227.28
386.64	227.22
387.02	227.10
387.40	227.02
387.78	227.00
388.15	226.99
388.53	226.83
388.91	226.98
389.29	226.91
389.66	226.91
390.04	226.90
390.42	226.92
390.79	226.96
391.17	227.00
391.55	226.69
391.92	226.61
392.30	226.61
392.68	226.66
393.05	226.52
393.43	226.56
393.81	226.60
394.18	226.68
394.56	226.73
394.94	226.86
395.31	226.80
395.69	226.94
396.06	227.05
396.44	227.24
396.82	227.15
397.19	227.23
397.57	227.27
397.95	227.36
398.32	227.36
398.70	227.44
399.07	227.47
399.45	227.50
399.82	227.58
400.20	227.70
400.58	227.70
400.95	227.70
401.33	227.78
401.70	227.95
402.08	228.05
402.45	228.17
402.83	228.23
403.20	228.40
403.58	228.37
403.95	228.45
404.33	228.60
404.71	228.78
405.08	229.04
405.46	229.21
405.83	229.32
406.21	229.54
406.58	229.64
406.96	229.91
407.33	230.17
407.70	230.29
408.08	230.64
408.45	230.90
408.83	231.26
409.20	231.42
409.58	231.63
409.95	231.86
410.33	232.05
410.70	232.22
411.08	232.42
411.45	232.77
411.82	233.01
412.20	233.22
412.57	233.60
412.95	233.84
413.32	234.24
413.69	234.60
414.07	234.94
414.44	235.41
414.82	235.75
415.19	236.24
415.56	236.79
415.94	237.17
416.31	237.76
416.68	238.28
417.06	239.17
417.43	239.77
417.81	240.48
418.18	241.33
418.55	242.26
418.93	243.15
419.30	244.01
419.67	245.04
420.04	246.09
420.42	247.14
420.79	248.39
421.16	249.51
421.54	250.75
421.91	252.06
422.28	253.31
422.66	254.69
423.03	256.13
423.40	257.48
423.77	258.87
424.15	260.32
424.52	261.78
424.89	263.38
425.26	265.06
425.64	266.70
426.01	268.38
426.38	270.03
426.75	271.84
427.13	273.61
427.50	275.46
427.87	277.40
428.24	279.36
428.61	281.14
428.99	283.15
429.36	285.40
429.73	287.63
430.10	289.65
430.47	291.91
430.85	294.09
431.22	296.47
431.59	299.10
431.96	301.50
432.33	304.22
432.70	306.70
433.08	309.67
433.45	312.40
433.82	315.14
434.19	318.24
434.56	321.31
434.93	324.30
435.30	327.32
435.68	330.48
436.05	333.53
436.42	336.56
436.79	339.49
437.16	342.49
437.53	345.68
437.90	348.96
438.27	352.03
438.64	355.15
439.01	358.20
439.38	360.83
439.75	363.31
440.13	366.15
440.50	368.90
440.87	371.12
441.24	373.42
441.61	375.99
441.98	377.81
442.35	379.88
442.72	381.98
443.09	384.09
443.46	385.36
443.83	386.13
444.20	386.96
444.57	387.98
444.94	388.38
445.31	388.84
445.68	389.55
446.05	389.79
446.42	389.64
446.79	389.37
447.16	389.06
447.53	388.96
447.90	388.01
448.27	386.82
448.64	385.27
449.01	384.30
449.37	382.30
449.74	380.49
450.11	378.35
450.48	375.79
450.85	373.00
451.22	370.81
451.59	368.80
451.96	366.72
452.33	363.99
452.70	361.55
453.07	358.54
453.43	355.43
453.80	352.51
454.17	349.73
454.54	347.00
454.91	344.05
455.28	341.10
455.65	338.39
456.02	335.92
456.38	333.60
456.75	330.63
457.12	328.14
457.49	325.65
457.86	323.22
458.23	321.37
458.59	319.23
458.96	316.95
459.33	314.98
459.70	313.02
460.07	311.27
460.43	309.43
460.80	307.66
461.17	306.07
461.54	304.37
461.91	302.70
462.27	301.08
462.64	299.74
463.01	298.19
463.38	296.77
463.74	295.12
464.11	293.70
464.48	292.51
464.85	291.20
465.21	290.13
465.58	288.91
465.95	287.53
466.32	286.58
466.68	285.59
467.05	284.37
467.42	283.19
467.78	282.29
468.15	281.27
468.52	280.49
468.88	279.32
469.25	278.41
469.62	277.72
469.98	276.81
470.35	275.88
470.72	275.29
471.08	274.34
471.45	273.63
471.82	272.92
472.18	272.15
472.55	271.53
472.92	270.94
473.28	270.49
473.65	269.96
474.02	269.23
474.38	268.60
474.75	268.10
475.11	267.65
475.48	267.10
475.85	266.68
476.21	266.08
476.58	265.74
476.94	265.34
477.31	264.83
477.67	264.55
478.04	264.15
478.41	263.74
478.77	263.69
479.14	263.34
479.50	263.11
479.87	262.86
480.23	262.67
480.60	262.36
480.96	262.04
481.33	261.78
481.69	261.60
482.06	261.43
482.42	261.29
482.79	261.18
483.15	261.00
483.52	260.91
483.88	260.94
484.25	260.81
484.61	260.70
484.98	260.65
485.34	260.65
485.71	260.69
486.07	260.70
486.44	260.40
486.80	260.44
487.17	260.39
487.53	260.55
487.90	260.71
488.26	260.86
488.62	261.00
488.99	261.15
489.35	261.22
489.72	261.41
490.08	261.48
490.44	261.60
490.81	261.80
491.17	261.85
491.54	262.05
491.90	262.21
492.26	262.46
492.63	262.67
492.99	262.83
493.36	263.13
493.72	263.35
494.08	263.60
494.45	263.95
494.81	264.37
495.17	264.64
495.54	265.02
495.90	265.40
496.26	265.77
496.63	266.19
496.99	266.67
497.35	267.10
497.72	267.72
498.08	268.32
498.44	268.93
498.80	269.64
499.17	270.22
499.53	270.99
499.89	271.80
500.26	272.61
500.62	273.40
500.98	274.20
501.34	275.05
501.71	276.05
502.07	276.79
502.43	277.63
502.79	278.55
503.16	279.52
503.52	280.53
503.88	281.57
504.24	282.75
504.60	283.85
504.97	285.12
505.33	286.38
505.69	287.66
506.05	289.00
506.41	290.28
506.78	291.79
507.14	293.18
507.50	294.68
507.86	296.27
508.22	298.01
508.59	299.75
508.95	301.67
509.31	303.70
509.67	305.94
510.03	308.01
510.39	310.20
510.75	312.57
511.12	315.01
511.48	317.60
511.84	319.92
512.20	322.49
512.56	325.15
512.92	327.79
513.28	330.68
513.64	333.64
514.00	336.92
514.37	339.95
514.73	343.38
515.09	346.72
515.45	350.19
515.81	353.54
516.17	357.04
516.53	360.75
516.89	364.54
517.25	368.34
517.61	372.56
517.97	376.70
518.33	380.70
518.69	385.01
519.05	389.21
519.41	393.69
519.77	398.55
520.13	403.24
520.49	408.23
520.85	413.12
521.21	418.20
521.57	423.33
521.93	428.50
522.29	433.89
522.65	439.14
523.01	444.67
523.37	450.11
523.73	455.98
524.09	461.57
524.45	467.38
524.81	473.28
525.17	479.44
525.53	485.72
525.89	492.00
526.25	498.52
526.61	504.89
526.97	511.67
527.33	518.12
527.68	525.27
528.04	532.10
528.40	538.98
528.76	546.03
529.12	553.28
529.48	560.71
529.84	567.78
530.20	575.39
530.56	582.84
530.91	590.96
531.27	598.73
531.63	606.38
531.99	614.09
532.35	621.87
532.71	629.42
533.07	637.30
533.42	645.45
533.78	653.23
534.14	661.49
534.50	669.18
534.86	677.13
535.21	684.74
535.57	692.93
535.93	701.15
536.29	709.25
536.65	717.36
537.00	725.56
537.36	733.87
537.72	741.99
538.08	750.26
538.44	758.06
538.79	766.32
539.15	774.36
539.51	782.98
539.87	791.45
540.22	799.99
540.58	808.33
540.94	816.51
541.29	824.96
541.65	833.15
542.01	842.17
542.37	850.87
542.72	859.19
543.08	867.57
543.44	875.99
543.79	884.11
544.15	892.45
544.51	900.60
544.87	908.84
545.22	916.98
545.58	925.06
545.94	932.89
546.29	940.60
546.65	948.93
547.01	956.57
547.36	964.26
547.72	971.81
548.07	979.15
548.43	986.51
548.79	993.62
549.14	1000.96
549.50	1007.69
549.86	1014.58
550.21	1021.80
550.57	1028.80
550.92	1035.81
551.28	1042.56
551.64	1049.03
551.99	1055.83
552.35	1062.47
552.70	1069.17
553.06	1075.70
553.41	1082.57
553.77	1089.24
554.13	1095.88
554.48	1102.30
554.84	1108.67
555.19	1115.05
555.55	1121.74
555.90	1128.00
556.26	1134.40
556.61	1140.70
556.97	1146.90
557.32	1153.14
557.68	1159.46
558.03	1165.20
558.39	1171.00
558.74	1177.37
559.10	1183.24
559.45	1189.17
559.81	1195.11
560.16	1200.77
560.52	1206.20
560.87	1211.90
561.23	1217.26
561.58	1222.51
561.94	1227.36
562.29	1232.09
562.64	1236.47
563.00	1241.14
563.35	1246.42
563.71	1251.24
564.06	1255.90
564.42	1260.62
564.77	1265.21
565.12	1269.39
565.48	1273.90
565.83	1277.67
566.19	1281.80
566.54	1285.84
566.89	1289.29
567.25	1292.87
567.60	1296.74
567.96	1300.80
568.31	1304.14
568.66	1307.42
569.02	1310.55
569.37	1313.72
569.72	1317.05
570.08	1320.48
570.43	1323.46
570.78	1325.70
571.14	1328.11
571.49	1330.50
571.84	1333.07
572.20	1335.07
572.55	1336.89
572.90	1338.80
573.26	1341.11
573.61	1342.58
573.96	1344.54
574.31	1345.67
574.67	1346.54
575.02	1347.17
575.37	1347.78
575.72	1348.31
576.08	1349.37
576.43	1350.03
576.78	1350.79
577.13	1351.73
577.49	1352.29
577.84	1352.65
578.19	1353.16
578.54	1353.32
578.90	1353.13
579.25	1352.62
579.60	1352.36
579.95	1352.01
580.30	1351.40
580.66	1350.74
581.01	1349.93
581.36	1349.50
581.71	1349.34
582.06	1349.03
582.42	1348.38
582.77	1347.75
583.12	1346.85
583.47	1346.11
583.82	1345.64
584.17	1344.44
584.53	1343.33
584.88	1342.63
585.23	1341.34
585.58	1340.25
585.93	1339.00
586.28	1338.06
586.63	1337.25
586.98	1336.39
587.34	1335.44
587.69	1334.13
588.04	1332.67
588.39	1331.71
588.74	1329.27
589.09	1327.52
589.44	1325.50
589.79	1323.91
590.14	1322.15
590.49	1320.39
590.84	1318.22
591.19	1315.76
591.54	1313.59
591.89	1310.56
592.25	1307.90
592.60	1304.89
592.95	1302.07
593.30	1299.15
593.65	1296.41
594.00	1293.16
594.35	1290.79
594.70	1287.48
595.05	1284.86
595.40	1281.69
595.75	1278.40
596.10	1276.12
596.45	1273.45
596.80	1271.04
597.15	1268.49
597.50	1265.53
597.85	1263.14
598.19	1260.55
598.54	1257.88
598.89	1255.48
599.24	1253.61
599.59	1250.72
599.94	1248.73
600.29	1245.86
600.64	1243.40
600.99	1239.91
601.34	1237.16
601.69	1233.50
602.04	1231.09
602.39	1227.91
602.74	1225.63
603.08	1223.03
603.43	1220.20
603.78	1216.94
604.13	1214.00
604.48	1210.60
604.83	1207.46
605.18	1204.16
605.53	1200.08
605.87	1196.17
606.22	1192.60
606.57	1188.59
606.92	1185.30
607.27	1181.46
607.62	1178.43
607.96	1175.17
608.31	1172.35
608.66	1168.63
609.01	1164.73
609.36	1160.19
609.70	1156.00
610.05	1151.54
610.40	1147.45
610.75	1142.91
611.10	1138.81
611.44	1134.23
611.79	1129.88
612.14	1125.31
612.49	1120.33
612.83	1116.14
613.18	1111.93
613.53	1107.50
613.88	1102.64
614.22	1097.87
614.57	1093.12
614.92	1088.03
615.27	1083.48
615.61	1078.70
615.96	1074.30
616.31	1070.06
616.65	1066.48
617.00	1062.26
617.35	1057.75
617.70	1053.18
618.04	1048.43
618.39	1043.79
618.74	1039.52
619.08	1034.90
619.43	1030.59
619.78	1026.56
620.12	1022.50
620.47	1018.26
620.82	1013.50
621.16	1009.28
621.51	1005.02
621.85	1001.13
622.20	996.86
622.55	992.19
622.89	987.64
623.24	983.33
623.59	978.95
623.93	974.47
624.28	970.28
624.62	966.36
624.97	961.92
625.32	957.99
625.66	954.21
626.01	949.72
626.35	945.63
626.70	941.57
627.04	937.46
627.39	932.86
627.73	928.35
628.08	924.48
628.43	920.54
628.77	916.16
629.12	911.40
629.46	907.30
629.81	902.75
630.15	898.33
630.50	893.86
630.84	888.95
631.19	884.07
631.53	879.64
631.88	874.76
632.22	870.30
632.57	865.98
632.91	861.26
633.26	856.78
633.60	852.15
633.95	847.60
634.29	843.10
634.64	839.07
634.98	834.78
635.32	830.60
635.67	826.40
636.01	822.38
636.36	818.44
636.70	814.18
637.05	810.45
637.39	806.77
637.73	802.90
638.08	799.68
638.42	796.24
638.77	792.24
639.11	788.40
639.45	784.72
639.80	780.58
640.14	776.76
640.49	772.66
640.83	768.97
641.17	765.07
641.52	761.22
641.86	756.88
642.20	753.30
642.55	749.30
642.89	745.49
643.23	741.35
643.58	737.86
643.92	734.04
644.26	729.90
644.61	726.38
644.95	722.42
645.29	718.04
645.64	713.76
645.98	709.92
646.32	706.28
646.66	702.25
647.01	698.45
647.35	694.76
647.69	691.32
648.04	687.64
648.38	683.82
648.72	679.83
649.06	676.17
649.41	672.29
649.75	668.29
650.09	664.37
650.43	660.52
650.78	656.15
651.12	652.03
651.46	648.64
651.80	644.53
652.14	640.85
652.49	637.46
652.83	633.91
653.17	630.09
653.51	626.15
653.85	622.65
654.20	618.86
654.54	614.89
654.88	611.12
655.22	607.22
655.56	603.43
655.90	599.90
656.25	596.50
656.59	592.94
656.93	589.65
657.27	586.11
657.61	582.64
657.95	579.47
658.29	576.30
658.64	572.67
658.98	569.17
659.32	565.66
659.66	562.30
660.00	558.99
660.34	555.68
660.68	552.55
661.02	549.02
661.36	545.96
661.70	543.00
662.05	540.03
662.39	537.33
662.73	534.52
663.07	531.67
663.41	528.76
663.75	525.92
664.09	522.98
664.43	520.13
664.77	517.42
665.11	514.65
665.45	511.77
665.79	508.95
666.13	506.29
666.47	503.63
666.81	500.76
667.15	497.81
667.49	495.30
667.83	492.90
668.17	490.35
668.51	487.62
668.85	484.98
669.19	482.40
669.53	479.61
669.87	476.95
670.21	474.47
670.55	471.87
670.89	469.49
671.23	467.16
671.57	464.82
671.91	462.51
672.25	460.00
672.58	457.84
672.92	455.61
673.26	453.35
673.60	451.18
673.94	449.21
674.28	447.45
674.62	445.59
674.96	443.43
675.30	441.39
675.64	439.42
675.97	437.44
676.31	435.58
676.65	433.71
676.99	431.93
677.33	429.84
677.67	428.03
678.01	426.02
678.34	424.04
678.68	422.20
679.02	420.25
679.36	418.52
679.70	416.65
680.04	414.86
680.37	413.15
680.71	411.31
681.05	409.52
681.39	407.64
681.73	405.77
682.06	404.09
682.40	402.44
682.74	400.80
683.08	399.05
683.42	397.18
683.75	395.48
684.09	393.65
684.43	392.01
684.77	390.29
685.10	388.62
685.44	387.08
685.78	385.38
686.12	383.84
686.45	382.27
686.79	380.66
687.13	379.09
687.46	377.42
687.80	375.87
688.14	374.22
688.48	372.74
688.81	371.09
689.15	369.58
689.49	368.00
689.82	366.55
690.16	365.05
690.50	363.64
690.83	362.16
691.17	360.81
691.51	359.49
691.84	358.10
692.18	356.60
692.52	355.10
692.85	353.59
693.19	352.20
693.52	350.63
693.86	349.23
694.20	347.97
694.53	346.72
694.87	345.34
695.21	343.94
695.54	342.52
695.88	341.08
696.21	339.59
696.55	338.31
696.88	336.98
697.22	335.76
697.56	334.55
697.89	333.28
698.23	331.94
698.56	330.61
698.90	329.37
699.23	327.99
699.57	326.77
699.90	325.71
700.24	324.47
700.58	323.42
700.91	322.28
701.25	321.02
701.58	319.98
701.92	318.88
702.25	317.81
702.59	316.74
702.92	315.82
703.26	314.90
703.59	313.92
703.93	313.13
704.26	312.03
704.60	310.89
704.93	309.87
705.26	308.90
705.60	308.00
705.93	307.04
706.27	306.35
706.60	305.56
706.94	304.70
707.27	303.82
707.61	303.00
707.94	302.20
708.27	301.31
708.61	300.26
708.94	299.39
709.28	298.53
709.61	297.77
709.94	296.96
710.28	296.12
710.61	295.46
710.95	294.32
711.28	293.78
711.61	293.12
711.95	292.34
712.28	291.71
712.61	290.90
712.95	290.27
713.28	289.70
713.61	288.91
713.95	288.15
714.28	287.46
714.61	286.69
714.95	286.02
715.28	285.34
715.61	284.72
715.95	284.18
716.28	283.59
716.61	283.03
716.95	282.41
717.28	281.87
717.61	281.18
717.94	280.73
718.28	279.94
718.61	279.36
718.94	278.85
719.27	278.27
719.61	277.81
719.94	277.31
720.27	276.56
720.60	276.10
720.94	275.70
721.27	275.28
721.60	274.87
721.93	274.35
722.27	273.93
722.60	273.55
722.93	273.02
723.26	272.53
723.59	272.03
723.93	271.62
724.26	271.18
724.59	270.73
724.92	270.38
725.25	270.13
725.59	269.64
725.92	269.24
726.25	268.76
726.58	268.36
726.91	267.91
727.24	267.62
727.57	267.27
727.91	266.79
728.24	266.35
728.57	265.98
728.90	265.55
729.23	265.15
729.56	264.77
729.89	264.42
730.22	264.06
730.55	263.71
730.89	263.31
731.22	262.92
731.55	262.51
731.88	262.10
732.21	261.64
732.54	261.38
732.87	261.10
733.20	260.85
733.53	260.37
733.86	259.99
734.19	259.59
734.52	259.09
734.85	258.95
735.18	258.60
735.51	258.29
735.84	257.98
736.17	257.79
736.50	257.46
736.83	257.42
737.16	257.13
737.49	256.80
737.82	256.39
738.15	256.13
738.48	255.82
738.81	255.47
739.14	255.18
739.47	254.75
739.80	254.32
740.13	254.05
740.46	253.85
740.79	253.59
741.12	253.25
741.45	252.94
741.78	252.57
742.11	252.30
742.44	251.92
742.77	251.75
743.10	251.35
743.43	251.01
743.75	250.49
744.08	250.36
744.41	250.07
744.74	249.89
745.07	249.46
745.40	249.28
745.73	249.11
746.06	248.90
746.39	248.74
746.71	248.56
747.04	248.18
747.37	247.83
747.70	247.60
748.03	247.30
748.36	247.20
748.68	246.83
749.01	246.44
749.34	246.24
749.67	245.94
750.00	245.74
750.33	245.63
750.65	245.40
750.98	244.99
751.31	244.85
751.64	244.59
751.97	244.53
752.29	244.22
752.62	244.01
752.95	243.71
753.28	243.49
753.60	243.28
753.93	243.19
754.26	243.09
754.59	242.88
754.91	242.92
755.24	242.74
755.57	242.66
755.90	242.65
756.22	242.46
756.55	242.33
756.88	242.14
757.20	241.94
757.53	241.74
757.86	241.68
758.19	241.42
758.51	241.42
758.84	241.24
759.17	241.21
759.49	241.06
759.82	241.02
760.15	240.94
760.47	240.73
760.80	240.67
761.13	240.58
761.45	240.36
761.78	240.13
762.11	240.03
762.43	239.90
762.76	239.70
763.08	239.62
763.41	239.47
763.74	239.40
764.06	239.24
764.39	239.18
764.71	238.95
765.04	238.97
765.37	238.83
765.69	238.75
766.02	238.52
766.34	238.40
766.67	238.18
767.00	238.14
767.32	238.18
767.65	238.09
767.97	238.06
768.30	238.09
768.62	237.99
768.95	237.80
769.27	237.67
769.60	237.67
769.92	237.46
770.25	237.32
770.57	237.16
770.90	237.17
771.22	237.01
771.55	237.10
771.87	236.84
772.20	236.75
772.52	236.80
772.85	236.92
773.17	236.83
773.50	236.81
773.82	236.69
774.15	236.60
774.47	236.36
774.80	236.16
775.12	235.98
775.45	235.94
775.77	235.90
776.09	235.86
776.42	235.77
776.74	235.87
777.07	235.82
777.39	235.70
777.72	235.47
778.04	235.35
778.36	235.12
778.69	235.23
779.01	235.05
779.33	234.80
779.66	234.61
779.98	234.56
780.31	234.42
780.63	234.40
780.95	234.27
781.28	234.27
781.60	234.11
781.92	234.10
782.25	233.99
782.57	233.87
782.89	233.75
783.22	233.62
783.54	233.45
783.86	233.39
784.19	233.33
784.51	233.39
784.83	233.27
785.16	233.27
785.48	233.15
785.80	233.18
786.12	233.20
786.45	233.13
786.77	232.93
787.09	232.93
787.42	232.75
787.74	232.65
788.06	232.59
788.38	232.67
788.71	232.53
789.03	232.55
789.35	232.63
789.67	232.52
