SpectraSuite Data File
++++++++++++++++++++++++++++++++++++
Date: Fri Feb 01 14:38:11 EST 2013
User: group
Dark Spectrum Present: No
Reference Spectrum Present: No
Number of Sampled Component Spectra: 1
Spectrometers: USB2E7196
Integration Time (usec): 70000 (USB2E7196)
Spectra Averaged: 10 (USB2E7196)
Boxcar Smoothing: 10 (USB2E7196)
Correct for Electrical Dark: No (USB2E7196)
Strobe/Lamp Enabled: No (USB2E7196)
Correct for Detector Non-linearity: No (USB2E7196)
Correct for Stray Light: No (USB2E7196)
Number of Pixels in Processed Spectrum: 2048
>>>>>Begin Processed Spectral Data<<<<<
339.09	0.00
339.48	216.80
339.86	218.70
340.24	220.20
340.63	220.60
341.01	226.30
341.39	224.20
341.78	225.70
342.16	225.50
342.54	225.80
342.93	214.82
343.31	225.59
343.69	226.06
344.07	226.41
344.46	226.82
344.84	227.16
345.22	227.22
345.60	227.31
345.99	227.38
346.37	227.40
346.75	227.45
347.13	227.54
347.52	227.60
347.90	227.62
348.28	227.73
348.66	227.74
349.05	227.65
349.43	227.72
349.81	227.73
350.19	227.83
350.57	227.85
350.96	227.79
351.34	227.91
351.72	228.06
352.10	228.17
352.48	228.13
352.87	228.13
353.25	228.16
353.63	228.27
354.01	228.33
354.39	228.53
354.77	228.68
355.15	228.85
355.54	228.92
355.92	228.97
356.30	228.87
356.68	229.05
357.06	229.21
357.44	229.20
357.82	229.22
358.20	229.22
358.58	229.23
358.97	229.28
359.35	229.32
359.73	229.33
360.11	229.42
360.49	229.57
360.87	229.63
361.25	229.74
361.63	229.87
362.01	229.98
362.39	229.94
362.77	229.93
363.15	229.96
363.53	229.97
363.91	229.95
364.29	230.10
364.67	229.99
365.05	229.96
365.43	229.94
365.81	230.01
366.19	230.12
366.57	230.15
366.95	230.15
367.33	230.19
367.71	230.11
368.09	230.11
368.47	230.01
368.85	230.04
369.23	230.10
369.61	229.96
369.99	229.95
370.37	229.97
370.75	230.04
371.13	229.94
371.51	229.86
371.89	229.88
372.27	229.87
372.65	229.83
373.03	229.85
373.41	229.83
373.78	229.77
374.16	229.65
374.54	229.50
374.92	229.42
375.30	229.41
375.68	229.27
376.06	229.22
376.44	229.20
376.82	229.12
377.19	229.00
377.57	229.01
377.95	228.88
378.33	228.72
378.71	228.48
379.09	228.37
379.47	228.33
379.84	228.23
380.22	228.08
380.60	227.81
380.98	227.67
381.36	227.68
381.73	227.54
382.11	227.38
382.49	227.34
382.87	227.27
383.25	227.10
383.62	227.37
384.00	227.14
384.38	227.00
384.76	227.02
385.13	226.97
385.51	226.83
385.89	226.68
386.27	226.71
386.64	226.79
387.02	226.76
387.40	226.80
387.78	226.67
388.15	226.69
388.53	226.76
388.91	226.73
389.29	226.60
389.66	226.60
390.04	226.62
390.42	226.63
390.79	226.64
391.17	226.56
391.55	226.30
391.92	226.35
392.30	226.41
392.68	226.34
393.05	226.38
393.43	226.35
393.81	226.46
394.18	226.42
394.56	226.33
394.94	226.32
395.31	226.27
395.69	226.34
396.06	226.40
396.44	226.47
396.82	226.50
397.19	226.67
397.57	226.80
397.95	226.86
398.32	226.91
398.70	226.90
399.07	227.04
399.45	227.12
399.82	227.21
400.20	227.17
400.58	227.24
400.95	227.22
401.33	227.34
401.70	227.62
402.08	227.83
402.45	228.02
402.83	228.22
403.20	228.31
403.58	228.48
403.95	228.68
404.33	228.83
404.71	228.94
405.08	229.25
405.46	229.35
405.83	229.51
406.21	229.73
406.58	230.04
406.96	230.20
407.33	230.55
407.70	230.88
408.08	231.35
408.45	231.60
408.83	231.90
409.20	232.23
409.58	232.37
409.95	232.67
410.33	232.91
410.70	233.27
411.08	233.72
411.45	234.12
411.82	234.44
412.20	234.89
412.57	235.61
412.95	235.96
413.32	236.57
413.69	237.18
414.07	237.68
414.44	238.32
414.82	239.00
415.19	239.58
415.56	240.21
415.94	240.89
416.31	241.86
416.68	242.77
417.06	243.81
417.43	244.75
417.81	245.70
418.18	246.83
418.55	247.91
418.93	249.02
419.30	250.21
419.67	251.49
420.04	252.85
420.42	254.00
420.79	255.60
421.16	257.08
421.54	258.70
421.91	260.45
422.28	262.16
422.66	264.07
423.03	266.04
423.40	267.90
423.77	269.93
424.15	271.72
424.52	273.80
424.89	276.10
425.26	278.27
425.64	280.38
426.01	282.56
426.38	284.99
426.75	287.49
427.13	289.97
427.50	292.62
427.87	295.40
428.24	298.21
428.61	300.75
428.99	303.65
429.36	306.70
429.73	309.72
430.10	312.66
430.47	315.70
430.85	318.85
431.22	322.33
431.59	325.94
431.96	329.50
432.33	333.18
432.70	336.69
433.08	341.00
433.45	344.87
433.82	348.83
434.19	353.06
434.56	357.51
434.93	361.47
435.30	365.52
435.68	369.94
436.05	374.35
436.42	378.73
436.79	382.67
437.16	387.11
437.53	391.54
437.90	396.02
438.27	400.36
438.64	404.87
439.01	408.98
439.38	412.74
439.75	416.36
440.13	420.47
440.50	424.29
440.87	427.60
441.24	431.11
441.61	434.86
441.98	437.75
442.35	440.88
442.72	444.36
443.09	447.58
443.46	449.68
443.83	451.03
444.20	452.20
444.57	454.10
444.94	454.88
445.31	455.98
445.68	457.17
446.05	457.74
446.42	457.59
446.79	457.45
447.16	457.06
447.53	456.92
447.90	455.81
448.27	454.71
448.64	452.44
449.01	451.07
449.37	448.53
449.74	445.89
450.11	442.76
450.48	439.31
450.85	435.70
451.22	432.64
451.59	429.78
451.96	427.20
452.33	423.37
452.70	420.10
453.07	416.10
453.43	411.70
453.80	407.61
454.17	403.70
454.54	400.04
454.91	395.99
455.28	392.09
455.65	388.28
456.02	384.54
456.38	381.40
456.75	377.43
457.12	374.09
457.49	370.85
457.86	367.58
458.23	364.81
458.59	361.74
458.96	358.48
459.33	355.76
459.70	352.94
460.07	350.68
460.43	347.91
460.80	345.29
461.17	343.13
461.54	340.91
461.91	338.67
462.27	336.30
462.64	334.45
463.01	332.28
463.38	330.15
463.74	327.96
464.11	326.20
464.48	324.57
464.85	322.87
465.21	321.33
465.58	319.88
465.95	318.16
466.32	316.71
466.68	315.29
467.05	313.77
467.42	312.18
467.78	310.63
468.15	309.37
468.52	308.27
468.88	306.81
469.25	305.59
469.62	304.50
469.98	303.33
470.35	302.29
470.72	301.26
471.08	300.17
471.45	299.20
471.82	298.22
472.18	297.07
472.55	296.17
472.92	295.29
473.28	294.26
473.65	293.41
474.02	292.66
474.38	291.87
474.75	291.17
475.11	290.38
475.48	289.76
475.85	289.04
476.21	288.44
476.58	287.90
476.94	287.36
477.31	286.82
477.67	286.42
478.04	285.95
478.41	285.57
478.77	285.39
479.14	284.93
479.50	284.52
479.87	284.35
480.23	284.09
480.60	283.70
480.96	283.55
481.33	283.34
481.69	282.98
482.06	282.77
482.42	282.68
482.79	282.66
483.15	282.58
483.52	282.58
483.88	282.36
484.25	282.37
484.61	282.19
484.98	282.24
485.34	282.25
485.71	282.31
486.07	282.36
486.44	282.21
486.80	282.39
487.17	282.53
487.53	282.72
487.90	282.84
488.26	283.10
488.62	283.23
488.99	283.34
489.35	283.56
489.72	283.87
490.08	284.05
490.44	284.24
490.81	284.45
491.17	284.63
491.54	285.10
491.90	285.45
492.26	286.00
492.63	286.45
492.99	286.80
493.36	287.13
493.72	287.56
494.08	288.02
494.45	288.47
494.81	288.82
495.17	289.07
495.54	289.59
495.90	290.10
496.26	290.57
496.63	291.08
496.99	291.57
497.35	291.92
497.72	292.30
498.08	292.71
498.44	293.00
498.80	293.47
499.17	293.83
499.53	294.17
499.89	294.57
500.26	294.81
500.62	295.30
500.98	295.58
501.34	296.02
501.71	296.43
502.07	296.76
502.43	297.21
502.79	297.70
503.16	297.87
503.52	298.02
503.88	298.19
504.24	298.35
504.60	298.53
504.97	298.86
505.33	299.23
505.69	299.70
506.05	300.13
506.41	300.41
506.78	300.60
507.14	300.97
507.50	301.10
507.86	301.44
508.22	301.62
508.59	301.97
508.95	302.11
509.31	302.46
509.67	302.70
510.03	302.70
510.39	303.00
510.75	303.35
511.12	303.78
511.48	304.14
511.84	304.48
512.20	305.00
512.56	305.33
512.92	305.81
513.28	306.11
513.64	306.50
514.00	307.09
514.37	307.64
514.73	308.06
515.09	308.69
515.45	309.20
515.81	309.62
516.17	310.25
516.53	311.00
516.89	311.55
517.25	312.27
517.61	313.39
517.97	314.09
518.33	314.93
518.69	315.92
519.05	317.01
519.41	318.15
519.77	319.29
520.13	320.48
520.49	321.49
520.85	322.76
521.21	324.23
521.57	325.49
521.93	326.90
522.29	328.47
522.65	330.06
523.01	331.80
523.37	333.56
523.73	335.23
524.09	337.10
524.45	339.16
524.81	341.26
525.17	343.37
525.53	345.72
525.89	348.22
526.25	350.61
526.61	353.07
526.97	355.68
527.33	358.31
527.68	361.28
528.04	364.22
528.40	367.22
528.76	370.25
529.12	373.36
529.48	376.57
529.84	379.72
530.20	383.37
530.56	386.85
530.91	390.65
531.27	394.27
531.63	397.89
531.99	401.50
532.35	405.29
532.71	409.21
533.07	413.19
533.42	417.31
533.78	421.42
534.14	425.68
534.50	429.73
534.86	434.12
535.21	438.20
535.57	442.71
535.93	447.21
536.29	451.90
536.65	456.48
537.00	461.26
537.36	465.97
537.72	470.43
538.08	475.28
538.44	479.93
538.79	485.04
539.15	490.00
539.51	495.22
539.87	500.55
540.22	505.55
540.58	510.88
540.94	515.88
541.29	521.00
541.65	526.24
542.01	532.08
542.37	537.36
542.72	542.94
543.08	548.39
543.44	553.90
543.79	559.18
544.15	564.91
544.51	570.48
544.87	576.30
545.22	582.07
545.58	587.71
545.94	593.25
546.29	598.92
546.65	604.57
547.01	610.28
547.36	615.73
547.72	621.45
548.07	626.98
548.43	632.58
548.79	638.24
549.14	643.48
549.50	648.64
549.86	653.99
550.21	659.32
550.57	664.71
550.92	670.18
551.28	675.40
551.64	680.81
551.99	686.27
552.35	691.59
552.70	696.80
553.06	702.12
553.41	707.57
553.77	712.79
554.13	718.21
554.48	723.44
554.84	728.65
555.19	733.87
555.55	739.18
555.90	744.18
556.26	749.37
556.61	754.67
556.97	759.73
557.32	764.80
557.68	769.97
558.03	775.01
558.39	780.24
558.74	785.32
559.10	790.18
559.45	794.96
559.81	800.02
560.16	804.78
560.52	809.50
560.87	814.48
561.23	818.96
561.58	823.82
561.94	828.27
562.29	832.60
562.64	836.89
563.00	841.30
563.35	846.17
563.71	850.72
564.06	855.22
564.42	859.56
564.77	863.98
565.12	868.53
565.48	872.92
565.83	876.56
566.19	880.80
566.54	884.57
566.89	888.63
567.25	892.27
567.60	896.36
567.96	900.34
568.31	903.86
568.66	907.63
569.02	910.78
569.37	914.16
569.72	917.80
570.08	920.86
570.43	923.64
570.78	926.56
571.14	929.50
571.49	932.50
571.84	935.74
572.20	938.56
572.55	941.09
572.90	943.50
573.26	946.12
573.61	948.58
573.96	951.20
574.31	952.91
574.67	954.71
575.02	956.31
575.37	957.97
575.72	959.42
576.08	961.28
576.43	962.94
576.78	964.71
577.13	966.59
577.49	968.56
577.84	970.17
578.19	971.54
578.54	972.88
578.90	973.78
579.25	974.40
579.60	975.34
579.95	976.02
580.30	976.67
580.66	977.53
581.01	977.95
581.36	978.44
581.71	979.33
582.06	980.35
582.42	981.07
582.77	981.75
583.12	982.47
583.47	982.90
583.82	983.52
584.17	983.46
584.53	983.57
584.88	983.81
585.23	984.04
585.58	984.14
585.93	984.13
586.28	984.60
586.63	984.99
586.98	985.16
587.34	985.44
587.69	985.39
588.04	985.30
588.39	985.48
588.74	984.96
589.09	984.69
589.44	984.09
589.79	983.93
590.14	983.49
590.49	983.19
590.84	982.67
591.19	981.83
591.54	981.06
591.89	979.78
592.25	979.07
592.60	977.86
592.95	976.66
593.30	975.33
593.65	973.92
594.00	972.54
594.35	971.83
594.70	970.25
595.05	969.22
595.40	967.70
595.75	965.88
596.10	965.00
596.45	963.84
596.80	962.77
597.15	961.48
597.50	959.93
597.85	958.56
598.19	957.10
598.54	956.13
598.89	954.93
599.24	954.02
599.59	952.35
599.94	951.10
600.29	949.82
600.64	948.51
600.99	946.78
601.34	945.34
601.69	943.26
602.04	941.56
602.39	939.88
602.74	938.69
603.08	937.50
603.43	935.95
603.78	934.33
604.13	932.46
604.48	930.31
604.83	928.66
605.18	926.70
605.53	924.63
605.87	922.11
606.22	920.25
606.57	917.89
606.92	915.85
607.27	914.00
607.62	912.03
607.96	910.18
608.31	908.44
608.66	906.10
609.01	903.50
609.36	901.08
609.70	898.24
610.05	895.36
610.40	892.80
610.75	889.83
611.10	886.77
611.44	883.64
611.79	881.27
612.14	878.20
612.49	874.90
612.83	871.95
613.18	869.15
613.53	866.02
613.88	862.93
614.22	860.02
614.57	856.82
614.92	853.44
615.27	850.28
615.61	846.91
615.96	843.79
616.31	841.17
616.65	838.67
617.00	835.97
617.35	833.05
617.70	830.05
618.04	827.05
618.39	824.01
618.74	821.36
619.08	817.99
619.43	815.19
619.78	812.53
620.12	809.62
620.47	806.86
620.82	803.84
621.16	801.05
621.51	798.14
621.85	795.16
622.20	792.31
622.55	789.39
622.89	786.78
623.24	784.00
623.59	781.10
623.93	778.01
624.28	775.16
624.62	772.48
624.97	769.84
625.32	767.32
625.66	764.77
626.01	761.93
626.35	759.12
626.70	756.31
627.04	753.72
627.39	751.02
627.73	748.14
628.08	745.42
628.43	742.53
628.77	739.54
629.12	736.56
629.46	733.72
629.81	730.47
630.15	727.31
630.50	724.28
630.84	720.88
631.19	717.48
631.53	714.31
631.88	710.93
632.22	707.22
632.57	704.07
632.91	700.81
633.26	697.58
633.60	694.46
633.95	691.15
634.29	687.98
634.64	684.96
634.98	681.78
635.32	679.01
635.67	676.37
636.01	673.56
636.36	670.61
636.70	667.81
637.05	665.24
637.39	662.48
637.73	659.74
638.08	657.45
638.42	655.25
638.77	652.80
639.11	649.99
639.45	647.64
639.80	644.65
640.14	642.08
640.49	639.61
640.83	636.90
641.17	634.50
641.52	631.86
641.86	628.99
642.20	626.24
642.55	623.28
642.89	620.41
643.23	617.39
643.58	614.92
643.92	612.19
644.26	609.40
644.61	606.84
644.95	604.06
645.29	600.74
645.64	597.60
645.98	594.82
646.32	592.40
646.66	589.60
647.01	587.04
647.35	584.38
647.69	581.67
648.04	579.23
648.38	576.40
648.72	573.30
649.06	570.59
649.41	567.98
649.75	565.04
650.09	562.13
650.43	559.41
650.78	556.43
651.12	553.47
651.46	550.68
651.80	547.90
652.14	545.40
652.49	543.01
652.83	540.38
653.17	537.58
653.51	534.75
653.85	532.07
654.20	529.25
654.54	526.33
654.88	523.48
655.22	520.45
655.56	517.56
655.90	515.06
656.25	512.50
656.59	509.87
656.93	507.66
657.27	505.22
657.61	502.49
657.95	500.19
658.29	497.89
658.64	495.45
658.98	493.00
659.32	490.30
659.66	487.66
660.00	485.29
660.34	482.80
660.68	480.24
661.02	477.59
661.36	475.31
661.70	473.08
662.05	470.72
662.39	468.70
662.73	466.78
663.07	464.69
663.41	462.51
663.75	460.41
664.09	458.15
664.43	455.86
664.77	454.00
665.11	451.83
665.45	449.63
665.79	447.46
666.13	445.25
666.47	443.17
666.81	441.14
667.15	438.99
667.49	437.04
667.83	435.21
668.17	433.36
668.51	431.49
668.85	429.63
669.19	427.98
669.53	425.92
669.87	423.77
670.21	421.90
670.55	420.05
670.89	418.33
671.23	416.74
671.57	415.09
671.91	413.42
672.25	411.77
672.58	410.11
672.92	408.47
673.26	406.83
673.60	405.32
673.94	403.91
674.28	402.60
674.62	401.20
674.96	399.61
675.30	398.15
675.64	396.52
675.97	394.95
676.31	393.39
676.65	392.04
676.99	390.78
677.33	389.24
677.67	387.75
678.01	386.09
678.34	384.48
678.68	383.12
679.02	381.53
679.36	380.10
679.70	378.67
680.04	377.22
680.37	375.78
680.71	374.33
681.05	372.99
681.39	371.56
681.73	370.06
682.06	368.85
682.40	367.63
682.74	366.33
683.08	365.18
683.42	363.82
683.75	362.57
684.09	361.11
684.43	359.90
684.77	358.57
685.10	357.42
685.44	356.18
685.78	354.83
686.12	353.70
686.45	352.41
686.79	351.15
687.13	350.00
687.46	348.77
687.80	347.54
688.14	346.16
688.48	344.87
688.81	343.67
689.15	342.56
689.49	341.28
689.82	340.11
690.16	338.84
690.50	337.71
690.83	336.46
691.17	335.28
691.51	334.07
691.84	332.92
692.18	331.67
692.52	330.45
692.85	329.42
693.19	328.41
693.52	327.27
693.86	326.16
694.20	325.01
694.53	324.05
694.87	322.86
695.21	321.77
695.54	320.73
695.88	319.65
696.21	318.38
696.55	317.31
696.88	316.35
697.22	315.23
697.56	314.19
697.89	313.11
698.23	312.20
698.56	311.27
698.90	310.44
699.23	309.46
699.57	308.65
699.90	307.62
700.24	306.52
700.58	305.60
700.91	304.68
701.25	303.90
701.58	303.13
701.92	302.40
702.25	301.60
702.59	300.65
702.92	299.67
703.26	298.90
703.59	298.07
703.93	297.47
704.26	296.76
704.60	296.00
704.93	295.30
705.26	294.50
705.60	293.81
705.93	293.00
706.27	292.45
706.60	291.58
706.94	290.80
707.27	290.07
707.61	289.40
707.94	288.85
708.27	288.10
708.61	287.19
708.94	286.41
709.28	285.77
709.61	285.21
709.94	284.77
710.28	284.16
710.61	283.61
710.95	282.87
711.28	282.35
711.61	281.70
711.95	281.10
712.28	280.49
712.61	279.80
712.95	279.29
713.28	278.75
713.61	278.26
713.95	277.77
714.28	277.30
714.61	276.83
714.95	276.25
715.28	275.73
715.61	275.22
715.95	274.70
716.28	274.12
716.61	273.65
716.95	273.12
717.28	272.60
717.61	272.03
717.94	271.60
718.28	271.03
718.61	270.66
718.94	270.27
719.27	269.84
719.61	269.59
719.94	269.21
720.27	268.59
720.60	268.16
720.94	267.83
721.27	267.43
721.60	267.06
721.93	266.70
722.27	266.42
722.60	266.16
722.93	265.87
723.26	265.58
723.59	265.31
723.93	265.00
724.26	264.71
724.59	264.51
724.92	264.07
725.25	263.76
725.59	263.36
725.92	263.00
726.25	262.79
726.58	262.41
726.91	261.96
727.24	261.80
727.57	261.51
727.91	261.21
728.24	261.03
728.57	260.67
728.90	260.36
729.23	260.00
729.56	259.64
729.89	259.36
730.22	259.03
730.55	258.69
730.89	258.32
731.22	258.10
731.55	257.72
731.88	257.43
732.21	257.07
732.54	256.76
732.87	256.43
733.20	256.07
733.53	255.79
733.86	255.57
734.19	255.28
734.52	255.12
734.85	254.85
735.18	254.44
735.51	254.20
735.84	253.87
736.17	253.59
736.50	253.43
736.83	253.41
737.16	253.22
737.49	252.92
737.82	252.69
738.15	252.35
738.48	252.17
738.81	251.95
739.14	251.72
739.47	251.51
739.80	251.35
740.13	251.08
740.46	250.75
740.79	250.48
741.12	250.20
741.45	249.78
741.78	249.53
742.11	249.37
742.44	249.04
742.77	248.84
743.10	248.55
743.43	248.21
743.75	247.77
744.08	247.63
744.41	247.36
744.74	247.06
745.07	246.81
745.40	246.51
745.73	246.22
746.06	246.02
746.39	245.84
746.71	245.49
747.04	245.22
747.37	245.05
747.70	244.91
748.03	244.66
748.36	244.60
748.68	244.34
749.01	244.04
749.34	243.88
749.67	243.67
750.00	243.46
750.33	243.31
750.65	243.16
750.98	242.76
751.31	242.56
751.64	242.46
751.97	242.38
752.29	242.19
752.62	241.97
752.95	241.75
753.28	241.49
753.60	241.38
753.93	241.29
754.26	241.01
754.59	240.86
754.91	240.71
755.24	240.45
755.57	240.34
755.90	240.18
756.22	240.06
756.55	239.83
756.88	239.81
757.20	239.66
757.53	239.47
757.86	239.35
758.19	239.38
758.51	239.22
758.84	239.09
759.17	238.97
759.49	238.92
759.82	238.96
760.15	238.96
760.47	238.89
760.80	238.81
761.13	238.85
761.45	238.60
761.78	238.54
762.11	238.55
762.43	238.49
762.76	238.47
763.08	238.38
763.41	238.28
763.74	238.14
764.06	237.99
764.39	237.99
764.71	237.85
765.04	237.65
765.37	237.55
765.69	237.44
766.02	237.40
766.34	237.26
766.67	237.06
767.00	236.95
767.32	236.93
767.65	236.95
767.97	236.93
768.30	237.00
768.62	237.00
768.95	236.90
769.27	236.76
769.60	236.70
769.92	236.62
770.25	236.62
770.57	236.58
770.90	236.55
771.22	236.39
771.55	236.51
771.87	236.50
772.20	236.46
772.52	236.55
772.85	236.60
773.17	236.75
773.50	236.76
773.82	236.65
774.15	236.59
774.47	236.45
774.80	236.34
775.12	236.27
775.45	236.16
775.77	236.05
776.09	236.05
776.42	235.89
776.74	235.84
777.07	235.70
777.39	235.58
777.72	235.49
778.04	235.51
778.36	235.41
778.69	235.33
779.01	235.30
779.33	235.00
779.66	234.85
779.98	234.65
780.31	234.56
780.63	234.66
780.95	234.55
781.28	234.41
781.60	234.30
781.92	234.15
782.25	233.96
782.57	233.91
782.89	233.84
783.22	233.70
783.54	233.60
783.86	233.59
784.19	233.52
784.51	233.45
784.83	233.22
785.16	233.06
785.48	233.04
785.80	233.00
786.12	233.02
786.45	233.00
786.77	232.94
787.09	232.80
787.42	232.57
787.74	232.46
788.06	232.39
788.38	232.31
788.71	232.26
789.03	232.28
789.35	232.17
789.67	232.06
789.99	232.04
790.32	231.90
790.64	231.92
790.96	231.99
791.28	231.89
791.61	231.91
791.93	231.86
792.25	231.69
792.57	231.67
792.89	231.47
793.21	231.36
793.54	231.23
793.86	231.19
794.18	231.12
