SpectraSuite Data File
++++++++++++++++++++++++++++++++++++
Date: Fri Feb 01 14:35:13 EST 2013
User: group
Dark Spectrum Present: No
Reference Spectrum Present: No
Number of Sampled Component Spectra: 1
Spectrometers: USB2E7196
Integration Time (usec): 70000 (USB2E7196)
Spectra Averaged: 10 (USB2E7196)
Boxcar Smoothing: 10 (USB2E7196)
Correct for Electrical Dark: No (USB2E7196)
Strobe/Lamp Enabled: No (USB2E7196)
Correct for Detector Non-linearity: No (USB2E7196)
Correct for Stray Light: No (USB2E7196)
Number of Pixels in Processed Spectrum: 2048
>>>>>Begin Processed Spectral Data<<<<<
339.09	0.00
339.48	218.40
339.86	218.40
340.24	219.60
340.63	220.20
341.01	225.40
341.39	223.80
341.78	225.90
342.16	226.20
342.54	226.60
342.93	215.25
343.31	226.10
343.69	226.60
344.07	227.06
344.46	227.46
344.84	227.84
345.22	227.90
345.60	228.20
345.99	228.25
346.37	228.40
346.75	228.34
347.13	228.35
347.52	228.48
347.90	228.51
348.28	228.49
348.66	228.45
349.05	228.47
349.43	228.49
349.81	228.50
350.19	228.60
350.57	228.58
350.96	228.61
351.34	228.70
351.72	228.66
352.10	228.67
352.48	228.67
352.87	228.72
353.25	228.86
353.63	228.81
354.01	228.97
354.39	228.97
354.77	229.12
355.15	229.21
355.54	229.11
355.92	229.11
356.30	229.23
356.68	229.57
357.06	229.58
357.44	229.61
357.82	229.66
358.20	229.69
358.58	229.75
358.97	229.89
359.35	230.00
359.73	230.07
360.11	230.11
360.49	230.13
360.87	230.16
361.25	230.13
361.63	230.27
362.01	230.33
362.39	230.33
362.77	230.49
363.15	230.55
363.53	230.59
363.91	230.66
364.29	230.70
364.67	230.49
365.05	230.57
365.43	230.66
365.81	230.70
366.19	230.78
366.57	230.88
366.95	230.77
367.33	230.65
367.71	230.66
368.09	230.72
368.47	230.76
368.85	230.66
369.23	230.77
369.61	230.68
369.99	230.66
370.37	230.68
370.75	230.60
371.13	230.49
371.51	230.42
371.89	230.32
372.27	230.20
372.65	230.20
373.03	230.05
373.41	229.91
373.78	229.78
374.16	229.61
374.54	229.47
374.92	229.39
375.30	229.37
375.68	229.26
376.06	229.19
376.44	229.09
376.82	229.05
377.19	228.90
377.57	228.80
377.95	228.61
378.33	228.49
378.71	228.32
379.09	228.23
379.47	228.22
379.84	228.14
380.22	227.98
380.60	227.73
380.98	227.72
381.36	227.67
381.73	227.56
382.11	227.46
382.49	227.41
382.87	227.38
383.25	227.35
383.62	227.46
384.00	227.33
384.38	227.28
384.76	227.28
385.13	227.41
385.51	227.29
385.89	227.28
386.27	227.22
386.64	227.24
387.02	227.21
387.40	227.07
387.78	227.05
388.15	227.07
388.53	227.12
388.91	227.07
389.29	226.99
389.66	227.02
390.04	227.05
390.42	227.04
390.79	227.00
391.17	226.96
391.55	226.81
391.92	226.86
392.30	227.03
392.68	227.01
393.05	226.99
393.43	227.12
393.81	227.07
394.18	227.10
394.56	227.08
394.94	227.22
395.31	227.38
395.69	227.46
396.06	227.61
396.44	227.64
396.82	227.67
397.19	227.85
397.57	227.93
397.95	228.02
398.32	228.03
398.70	228.20
399.07	228.30
399.45	228.46
399.82	228.63
400.20	228.66
400.58	228.86
400.95	228.84
401.33	228.94
401.70	229.27
402.08	229.43
402.45	229.65
402.83	229.77
403.20	229.90
403.58	230.04
403.95	230.29
404.33	230.63
404.71	230.82
405.08	231.29
405.46	231.51
405.83	231.88
406.21	232.17
406.58	232.50
406.96	232.89
407.33	233.24
407.70	233.62
408.08	234.27
408.45	234.72
408.83	235.29
409.20	235.82
409.58	236.30
409.95	237.01
410.33	237.65
410.70	238.40
411.08	239.12
411.45	239.89
411.82	240.56
412.20	241.49
412.57	242.62
412.95	243.48
413.32	244.55
413.69	245.52
414.07	246.75
414.44	248.03
414.82	249.26
415.19	250.74
415.56	252.19
415.94	253.59
416.31	255.35
416.68	257.06
417.06	259.02
417.43	260.85
417.81	262.92
418.18	265.22
418.55	267.46
418.93	269.85
419.30	272.48
419.67	275.15
420.04	277.74
420.42	280.61
420.79	283.73
421.16	287.01
421.54	290.47
421.91	293.91
422.28	297.42
422.66	301.30
423.03	305.03
423.40	309.09
423.77	313.20
424.15	317.24
424.52	321.65
424.89	326.33
425.26	330.99
425.64	335.31
426.01	340.06
426.38	345.10
426.75	350.37
427.13	355.53
427.50	361.19
427.87	367.05
428.24	372.76
428.61	378.20
428.99	384.23
429.36	390.90
429.73	397.53
430.10	404.00
430.47	410.37
430.85	417.08
431.22	424.02
431.59	431.72
431.96	439.04
432.33	447.17
432.70	454.93
433.08	463.94
433.45	472.51
433.82	481.17
434.19	490.49
434.56	499.53
434.93	508.30
435.30	516.99
435.68	526.70
436.05	536.19
436.42	545.88
436.79	554.48
437.16	563.53
437.53	573.13
437.90	582.88
438.27	592.57
438.64	602.73
439.01	612.03
439.38	620.21
439.75	628.28
440.13	637.13
440.50	645.70
440.87	653.04
441.24	660.60
441.61	668.86
441.98	675.18
442.35	682.29
442.72	689.86
443.09	697.19
443.46	701.64
443.83	705.15
444.20	707.99
444.57	712.18
444.94	714.73
445.31	717.31
445.68	719.94
446.05	721.63
446.42	721.77
446.79	721.89
447.16	721.73
447.53	721.87
447.90	719.64
448.27	717.29
448.64	713.29
449.01	710.79
449.37	705.07
449.74	699.88
450.11	693.60
450.48	686.28
450.85	678.68
451.22	672.74
451.59	666.91
451.96	661.60
452.33	653.79
452.70	646.61
453.07	637.97
453.43	628.95
453.80	620.53
454.17	612.28
454.54	604.43
454.91	595.67
455.28	587.42
455.65	579.71
456.02	571.61
456.38	564.91
456.75	556.25
457.12	549.32
457.49	542.23
457.86	535.44
458.23	529.53
458.59	523.02
458.96	516.16
459.33	510.12
459.70	503.93
460.07	499.17
460.43	493.76
460.80	488.36
461.17	483.62
461.54	478.61
461.91	473.74
462.27	468.80
462.64	465.03
463.01	460.55
463.38	456.01
463.74	451.85
464.11	447.99
464.48	444.57
464.85	440.83
465.21	437.86
465.58	434.73
465.95	431.21
466.32	428.22
466.68	425.34
467.05	422.26
467.42	419.25
467.78	416.06
468.15	412.96
468.52	410.73
468.88	407.93
469.25	405.30
469.62	403.17
469.98	400.86
470.35	398.61
470.72	396.50
471.08	394.26
471.45	392.32
471.82	390.29
472.18	388.27
472.55	386.74
472.92	384.88
473.28	383.37
473.65	381.67
474.02	380.12
474.38	378.63
474.75	377.51
475.11	376.27
475.48	375.30
475.85	374.45
476.21	373.66
476.58	372.81
476.94	372.15
477.31	371.39
477.67	370.73
478.04	370.08
478.41	369.59
478.77	369.31
479.14	368.91
479.50	368.60
479.87	368.35
480.23	368.12
480.60	368.09
480.96	367.92
481.33	368.21
481.69	368.38
482.06	368.43
482.42	368.39
482.79	368.49
483.15	368.79
483.52	369.26
483.88	369.52
484.25	369.95
484.61	370.50
484.98	371.00
485.34	371.87
485.71	372.70
486.07	373.64
486.44	374.31
486.80	375.25
487.17	376.23
487.53	377.53
487.90	378.71
488.26	380.00
488.62	381.15
488.99	382.30
489.35	383.58
489.72	385.04
490.08	386.64
490.44	388.21
490.81	389.97
491.17	391.66
491.54	393.77
491.90	395.73
492.26	397.55
492.63	399.73
492.99	401.64
493.36	403.87
493.72	406.16
494.08	408.61
494.45	411.05
494.81	413.79
495.17	416.28
495.54	419.17
495.90	421.94
496.26	424.77
496.63	427.80
496.99	430.77
497.35	433.79
497.72	436.80
498.08	440.00
498.44	442.94
498.80	446.33
499.17	449.21
499.53	452.29
499.89	455.66
500.26	458.68
500.62	461.80
500.98	465.13
501.34	468.35
501.71	471.61
502.07	474.82
502.43	477.74
502.79	480.92
503.16	484.00
503.52	487.08
503.88	490.05
504.24	492.97
504.60	496.08
504.97	499.13
505.33	502.46
505.69	505.72
506.05	508.94
506.41	511.58
506.78	514.69
507.14	517.76
507.50	520.79
507.86	523.98
508.22	527.00
508.59	529.67
508.95	532.51
509.31	535.41
509.67	538.16
510.03	540.86
510.39	543.41
510.75	546.07
511.12	548.74
511.48	551.52
511.84	553.80
512.20	556.00
512.56	558.59
512.92	560.81
513.28	562.85
513.64	564.76
514.00	566.77
514.37	568.79
514.73	570.77
515.09	572.55
515.45	574.15
515.81	575.80
516.17	577.74
516.53	579.32
516.89	580.81
517.25	582.31
517.61	584.00
517.97	585.51
518.33	586.68
518.69	587.76
519.05	589.08
519.41	590.62
519.77	592.21
520.13	593.19
520.49	594.30
520.85	595.40
521.21	596.69
521.57	598.17
521.93	599.18
522.29	600.32
522.65	601.38
523.01	602.44
523.37	603.54
523.73	604.52
524.09	605.44
524.45	606.55
524.81	607.82
525.17	609.22
525.53	610.61
525.89	611.80
526.25	613.19
526.61	614.35
526.97	615.75
527.33	617.01
527.68	618.67
528.04	619.93
528.40	621.33
528.76	623.08
529.12	624.59
529.48	626.05
529.84	627.39
530.20	629.14
530.56	631.04
530.91	632.99
531.27	634.74
531.63	636.52
531.99	638.25
532.35	639.91
532.71	641.41
533.07	643.26
533.42	645.41
533.78	647.47
534.14	649.46
534.50	651.09
534.86	653.38
535.21	655.06
535.57	657.41
535.93	659.60
536.29	661.54
536.65	663.83
537.00	666.22
537.36	668.62
537.72	670.83
538.08	673.32
538.44	675.64
538.79	677.90
539.15	680.28
539.51	683.09
539.87	685.83
540.22	688.44
540.58	691.27
540.94	693.97
541.29	696.60
541.65	699.40
542.01	702.66
542.37	705.34
542.72	708.29
543.08	711.10
543.44	714.28
543.79	717.19
544.15	720.24
544.51	723.47
544.87	726.77
545.22	729.93
545.58	732.65
545.94	735.48
546.29	738.64
546.65	741.95
547.01	744.79
547.36	747.82
547.72	750.91
548.07	753.74
548.43	756.65
548.79	759.67
549.14	762.57
549.50	765.51
549.86	768.40
550.21	771.56
550.57	774.75
550.92	777.52
551.28	780.58
551.64	783.54
551.99	786.41
552.35	789.20
552.70	792.26
553.06	795.60
553.41	799.00
553.77	802.13
554.13	805.17
554.48	808.42
554.84	811.78
555.19	814.96
555.55	818.38
555.90	821.32
556.26	824.40
556.61	827.61
556.97	830.61
557.32	833.81
557.68	836.80
558.03	839.88
558.39	842.90
558.74	846.31
559.10	849.19
559.45	852.41
559.81	855.86
560.16	859.12
560.52	862.07
560.87	865.13
561.23	868.09
561.58	871.34
561.94	874.00
562.29	876.59
562.64	879.41
563.00	881.96
563.35	885.53
563.71	888.74
564.06	891.60
564.42	894.59
564.77	897.41
565.12	900.31
565.48	902.78
565.83	905.48
566.19	907.86
566.54	910.44
566.89	912.65
567.25	915.03
567.60	917.46
567.96	919.88
568.31	922.19
568.66	924.34
569.02	926.09
569.37	928.35
569.72	930.46
570.08	932.42
570.43	934.30
570.78	935.52
571.14	936.68
571.49	938.50
571.84	940.38
572.20	941.85
572.55	943.30
572.90	944.75
573.26	946.53
573.61	947.99
573.96	949.23
574.31	950.27
574.67	951.04
575.02	951.43
575.37	952.17
575.72	952.57
576.08	953.70
576.43	954.52
576.78	955.08
577.13	955.80
577.49	956.20
577.84	956.67
578.19	957.20
578.54	957.93
578.90	958.08
579.25	957.80
579.60	957.66
579.95	957.47
580.30	957.35
580.66	956.93
581.01	956.35
581.36	956.42
581.71	956.33
582.06	956.13
582.42	956.11
582.77	955.63
583.12	955.44
583.47	954.76
583.82	954.37
584.17	953.89
584.53	952.95
584.88	952.68
585.23	952.15
585.58	951.37
585.93	950.32
586.28	949.77
586.63	949.34
586.98	948.90
587.34	948.56
587.69	947.71
588.04	946.91
588.39	946.40
588.74	944.70
589.09	943.70
589.44	942.36
589.79	941.44
590.14	940.67
590.49	939.39
590.84	938.00
591.19	936.94
591.54	935.34
591.89	933.86
592.25	932.40
592.60	930.78
592.95	929.13
593.30	927.59
593.65	925.50
594.00	923.23
594.35	921.87
594.70	919.54
595.05	918.08
595.40	916.16
595.75	913.99
596.10	912.68
596.45	911.00
596.80	909.31
597.15	907.57
597.50	905.46
597.85	904.07
598.19	902.43
598.54	900.72
598.89	899.23
599.24	898.09
599.59	896.03
599.94	894.30
600.29	892.47
600.64	890.51
600.99	888.36
601.34	886.56
601.69	883.96
602.04	882.18
602.39	879.88
602.74	877.86
603.08	876.13
603.43	874.31
603.78	872.11
604.13	870.06
604.48	867.60
604.83	865.46
605.18	862.99
605.53	860.39
605.87	857.55
606.22	855.11
606.57	852.23
606.92	849.98
607.27	847.61
607.62	845.80
607.96	843.54
608.31	841.63
608.66	839.23
609.01	836.63
609.36	833.93
609.70	831.03
610.05	828.22
610.40	825.41
610.75	822.28
611.10	819.25
611.44	816.01
611.79	813.25
612.14	810.19
612.49	807.03
612.83	804.28
613.18	801.54
613.53	798.40
613.88	795.29
614.22	792.13
614.57	788.75
614.92	785.33
615.27	782.47
615.61	779.28
615.96	776.26
616.31	773.50
616.65	771.05
617.00	768.42
617.35	765.54
617.70	762.60
618.04	759.40
618.39	756.47
618.74	753.90
619.08	750.96
619.43	748.32
619.78	745.44
620.12	742.43
620.47	739.51
620.82	736.64
621.16	733.79
621.51	730.94
621.85	728.12
622.20	724.83
622.55	721.84
622.89	719.13
623.24	716.38
623.59	713.50
623.93	710.38
624.28	707.65
624.62	704.88
624.97	702.22
625.32	699.79
625.66	697.31
626.01	694.62
626.35	691.67
626.70	688.74
627.04	686.15
627.39	683.44
627.73	680.59
628.08	677.94
628.43	675.27
628.77	672.57
629.12	669.81
629.46	667.31
629.81	664.36
630.15	661.41
630.50	658.49
630.84	655.46
631.19	652.35
631.53	649.29
631.88	646.32
632.22	642.99
632.57	640.16
632.91	637.22
633.26	634.29
633.60	631.75
633.95	628.98
634.29	626.19
634.64	623.52
634.98	620.70
635.32	618.23
635.67	615.77
636.01	613.18
636.36	610.67
636.70	608.11
637.05	605.80
637.39	603.39
637.73	601.03
638.08	598.95
638.42	596.98
638.77	594.83
639.11	592.47
639.45	590.29
639.80	587.60
640.14	585.20
640.49	582.87
640.83	580.17
641.17	577.78
641.52	575.16
641.86	572.68
642.20	570.42
642.55	567.77
642.89	565.33
643.23	562.89
643.58	560.62
643.92	558.07
644.26	555.50
644.61	553.22
644.95	550.68
645.29	547.84
645.64	544.93
645.98	542.22
646.32	539.96
646.66	537.39
647.01	535.18
647.35	532.83
647.69	530.46
648.04	528.39
648.38	526.09
648.72	523.63
649.06	521.25
649.41	518.80
649.75	516.11
650.09	513.38
650.43	510.98
650.78	508.32
651.12	505.95
651.46	503.59
651.80	501.25
652.14	498.99
652.49	496.80
652.83	494.84
653.17	492.60
653.51	490.10
653.85	487.90
654.20	485.48
654.54	482.91
654.88	480.57
655.22	477.91
655.56	475.37
655.90	473.30
656.25	470.96
656.59	468.79
656.93	466.86
657.27	464.85
657.61	462.40
657.95	460.40
658.29	458.37
658.64	456.18
658.98	453.93
659.32	451.75
659.66	449.75
660.00	447.55
660.34	445.44
660.68	443.40
661.02	441.23
661.36	439.44
661.70	437.63
662.05	435.64
662.39	433.96
662.73	432.18
663.07	430.38
663.41	428.63
663.75	426.64
664.09	424.78
664.43	422.96
664.77	421.43
665.11	419.73
665.45	418.02
665.79	416.25
666.13	414.32
666.47	412.56
666.81	410.66
667.15	408.87
667.49	407.20
667.83	405.66
668.17	403.93
668.51	402.18
668.85	400.72
669.19	399.21
669.53	397.54
669.87	395.81
670.21	394.14
670.55	392.57
670.89	391.22
671.23	389.73
671.57	388.29
671.91	386.71
672.25	385.18
672.58	383.82
672.92	382.50
673.26	381.21
673.60	380.00
673.94	378.76
674.28	377.58
674.62	376.27
674.96	374.92
675.30	373.95
675.64	372.59
675.97	371.16
676.31	369.82
676.65	368.56
676.99	367.49
677.33	366.27
677.67	365.06
678.01	363.69
678.34	362.50
678.68	361.29
679.02	360.15
679.36	358.90
679.70	357.64
680.04	356.45
680.37	355.27
680.71	354.02
681.05	352.86
681.39	351.66
681.73	350.50
682.06	349.43
682.40	348.20
682.74	347.20
683.08	346.13
683.42	345.05
683.75	344.00
684.09	343.01
684.43	342.02
684.77	340.85
685.10	339.92
685.44	338.89
685.78	337.88
686.12	336.72
686.45	335.66
686.79	334.54
687.13	333.51
687.46	332.40
687.80	331.44
688.14	330.51
688.48	329.43
688.81	328.52
689.15	327.48
689.49	326.47
689.82	325.49
690.16	324.41
690.50	323.51
690.83	322.55
691.17	321.40
691.51	320.41
691.84	319.65
692.18	318.56
692.52	317.56
692.85	316.68
693.19	315.93
693.52	315.08
693.86	314.19
694.20	313.30
694.53	312.41
694.87	311.33
695.21	310.28
695.54	309.39
695.88	308.36
696.21	307.32
696.55	306.52
696.88	305.72
697.22	304.91
697.56	304.08
697.89	303.15
698.23	302.44
698.56	301.59
698.90	300.76
699.23	299.90
699.57	299.12
699.90	298.22
700.24	297.33
700.58	296.50
700.91	295.66
701.25	295.01
701.58	294.43
701.92	293.83
702.25	293.16
702.59	292.47
702.92	291.85
703.26	291.38
703.59	290.56
703.93	289.97
704.26	289.35
704.60	288.60
704.93	288.00
705.26	287.34
705.60	286.77
705.93	286.05
706.27	285.55
706.60	284.94
706.94	284.35
707.27	283.82
707.61	283.23
707.94	282.80
708.27	282.20
708.61	281.54
708.94	280.82
709.28	280.23
709.61	279.70
709.94	279.21
710.28	278.58
710.61	278.14
710.95	277.37
711.28	276.87
711.61	276.35
711.95	275.88
712.28	275.31
712.61	274.68
712.95	274.29
713.28	273.73
713.61	273.20
713.95	272.76
714.28	272.17
714.61	271.67
714.95	271.30
715.28	270.74
715.61	270.28
715.95	269.97
716.28	269.59
716.61	269.11
716.95	268.67
717.28	268.31
717.61	267.86
717.94	267.44
718.28	266.90
718.61	266.55
718.94	266.16
719.27	265.77
719.61	265.49
719.94	264.95
720.27	264.64
720.60	264.20
720.94	263.82
721.27	263.55
721.60	263.29
721.93	262.84
722.27	262.55
722.60	262.33
722.93	261.93
723.26	261.55
723.59	261.20
723.93	260.85
724.26	260.49
724.59	260.23
724.92	260.04
725.25	259.90
725.59	259.54
725.92	259.08
726.25	258.85
726.58	258.46
726.91	258.29
727.24	258.11
727.57	257.93
727.91	257.65
728.24	257.41
728.57	257.10
728.90	256.77
729.23	256.41
729.56	256.17
729.89	255.91
730.22	255.64
730.55	255.49
730.89	255.10
731.22	254.81
731.55	254.46
731.88	254.10
732.21	253.76
732.54	253.48
732.87	253.29
733.20	253.02
733.53	252.84
733.86	252.51
734.19	252.19
734.52	251.97
734.85	251.73
735.18	251.40
735.51	251.17
735.84	250.89
736.17	250.70
736.50	250.25
736.83	250.22
737.16	250.02
737.49	249.67
737.82	249.54
738.15	249.27
738.48	249.17
738.81	248.90
739.14	248.64
739.47	248.38
739.80	248.20
740.13	247.94
740.46	247.65
740.79	247.42
741.12	247.14
741.45	246.87
741.78	246.62
742.11	246.49
742.44	246.23
742.77	246.03
743.10	245.74
743.43	245.61
743.75	245.16
744.08	245.26
744.41	245.05
744.74	244.81
745.07	244.58
745.40	244.26
745.73	244.20
746.06	244.00
746.39	243.88
746.71	243.65
747.04	243.47
747.37	243.30
747.70	243.24
748.03	243.18
748.36	243.10
748.68	242.94
749.01	242.72
749.34	242.58
749.67	242.52
750.00	242.41
750.33	242.39
750.65	242.38
750.98	241.93
751.31	241.84
751.64	241.73
751.97	241.71
752.29	241.70
752.62	241.44
752.95	241.33
753.28	241.20
753.60	241.11
753.93	240.87
754.26	240.75
754.59	240.65
754.91	240.44
755.24	240.30
755.57	240.15
755.90	240.08
756.22	239.97
756.55	239.71
756.88	239.62
757.20	239.40
757.53	239.15
757.86	239.08
758.19	239.05
758.51	239.09
758.84	238.91
759.17	238.76
759.49	238.80
759.82	238.78
760.15	238.67
760.47	238.55
760.80	238.55
761.13	238.61
761.45	238.39
761.78	238.47
762.11	238.46
762.43	238.38
762.76	238.29
763.08	238.31
763.41	238.28
763.74	238.19
764.06	238.08
764.39	238.11
764.71	238.02
765.04	237.82
765.37	237.60
765.69	237.58
766.02	237.47
766.34	237.33
766.67	237.20
767.00	237.19
767.32	237.15
767.65	237.28
767.97	237.08
768.30	237.10
768.62	236.92
768.95	236.70
769.27	236.60
769.60	236.59
769.92	236.44
770.25	236.43
770.57	236.37
770.90	236.42
771.22	236.32
771.55	236.28
771.87	236.20
772.20	236.18
772.52	236.18
772.85	236.25
773.17	236.10
773.50	235.99
773.82	235.86
774.15	235.73
774.47	235.47
774.80	235.41
775.12	235.30
775.45	235.11
775.77	235.03
776.09	235.07
776.42	234.73
776.74	234.71
777.07	234.51
777.39	234.36
777.72	234.14
778.04	233.97
778.36	233.83
778.69	233.79
779.01	233.71
779.33	233.56
779.66	233.32
779.98	233.24
780.31	233.14
780.63	233.08
780.95	232.98
781.28	232.87
781.60	232.65
781.92	232.52
782.25	232.47
782.57	232.45
782.89	232.30
783.22	232.38
783.54	232.16
783.86	232.11
784.19	231.98
784.51	231.86
784.83	231.80
785.16	231.70
785.48	231.68
785.80	231.55
786.12	231.50
786.45	231.52
786.77	231.46
787.09	231.40
787.42	231.30
787.74	231.28
788.06	231.23
788.38	231.36
788.71	231.29
789.03	231.39
789.35	231.30
789.67	231.14
789.99	231.16
790.32	231.18
790.64	231.24
790.96	231.36
791.28	231.30
791.61	231.27
791.93	231.30
792.25	231.19
792.57	231.33
792.89	231.20
793.21	231.20
793.54	231.30
793.86	231.34
794.18	231.39
