SpectraSuite Data File
++++++++++++++++++++++++++++++++++++
Date: Fri Feb 01 14:35:04 EST 2013
User: group
Dark Spectrum Present: No
Reference Spectrum Present: No
Number of Sampled Component Spectra: 1
Spectrometers: USB2E7196
Integration Time (usec): 70000 (USB2E7196)
Spectra Averaged: 10 (USB2E7196)
Boxcar Smoothing: 10 (USB2E7196)
Correct for Electrical Dark: No (USB2E7196)
Strobe/Lamp Enabled: No (USB2E7196)
Correct for Detector Non-linearity: No (USB2E7196)
Correct for Stray Light: No (USB2E7196)
Number of Pixels in Processed Spectrum: 2048
>>>>>Begin Processed Spectral Data<<<<<
339.09	0.00
339.48	216.80
339.86	217.00
340.24	219.20
340.63	219.80
341.01	227.30
341.39	222.50
341.78	225.40
342.16	225.00
342.54	226.80
342.93	215.04
343.31	225.90
343.69	226.47
344.07	226.93
344.46	227.41
344.84	227.89
345.22	227.92
345.60	228.16
345.99	228.26
346.37	228.53
346.75	228.62
347.13	228.69
347.52	228.68
347.90	228.67
348.28	228.69
348.66	228.62
349.05	228.69
349.43	228.85
349.81	228.71
350.19	228.73
350.57	228.61
350.96	228.60
351.34	228.58
351.72	228.59
352.10	228.72
352.48	228.66
352.87	228.67
353.25	228.72
353.63	228.84
354.01	228.90
354.39	228.92
354.77	228.96
355.15	229.13
355.54	229.15
355.92	229.19
356.30	229.17
356.68	229.39
357.06	229.31
357.44	229.19
357.82	229.28
358.20	229.23
358.58	229.31
358.97	229.36
359.35	229.42
359.73	229.50
360.11	229.44
360.49	229.56
360.87	229.51
361.25	229.56
361.63	229.60
362.01	229.69
362.39	229.60
362.77	229.65
363.15	229.63
363.53	229.60
363.91	229.71
364.29	229.82
364.67	229.59
365.05	229.73
365.43	229.79
365.81	229.86
366.19	229.94
366.57	230.11
366.95	230.09
367.33	230.07
367.71	230.05
368.09	230.06
368.47	230.00
368.85	229.97
369.23	230.02
369.61	229.97
369.99	229.90
370.37	229.99
370.75	230.02
371.13	229.94
371.51	229.97
371.89	229.93
372.27	229.90
372.65	230.02
373.03	230.00
373.41	229.89
373.78	229.87
374.16	229.73
374.54	229.54
374.92	229.48
375.30	229.58
375.68	229.52
376.06	229.56
376.44	229.50
376.82	229.49
377.19	229.29
377.57	229.11
377.95	229.05
378.33	228.86
378.71	228.70
379.09	228.75
379.47	228.66
379.84	228.49
380.22	228.32
380.60	228.17
380.98	228.05
381.36	228.09
381.73	227.96
382.11	227.98
382.49	227.97
382.87	227.93
383.25	227.76
383.62	227.82
384.00	227.72
384.38	227.72
384.76	227.71
385.13	227.77
385.51	227.84
385.89	227.79
386.27	227.75
386.64	227.65
387.02	227.55
387.40	227.51
387.78	227.50
388.15	227.56
388.53	227.46
388.91	227.40
389.29	227.40
389.66	227.33
390.04	227.31
390.42	227.19
390.79	227.26
391.17	227.29
391.55	227.07
391.92	227.09
392.30	227.07
392.68	227.02
393.05	227.08
393.43	227.10
393.81	227.13
394.18	227.09
394.56	227.23
394.94	227.36
395.31	227.39
395.69	227.59
396.06	227.59
396.44	227.69
396.82	227.77
397.19	227.99
397.57	228.02
397.95	228.22
398.32	228.35
398.70	228.32
399.07	228.37
399.45	228.57
399.82	228.65
400.20	228.70
400.58	228.94
400.95	228.91
401.33	229.05
401.70	229.40
402.08	229.67
402.45	229.87
402.83	230.02
403.20	230.23
403.58	230.40
403.95	230.69
404.33	231.02
404.71	231.22
405.08	231.48
405.46	231.82
405.83	232.12
406.21	232.49
406.58	232.91
406.96	233.30
407.33	233.74
407.70	234.17
408.08	234.80
408.45	235.18
408.83	235.80
409.20	236.31
409.58	236.64
409.95	237.28
410.33	237.91
410.70	238.61
411.08	239.32
411.45	240.11
411.82	240.77
412.20	241.73
412.57	242.77
412.95	243.54
413.32	244.58
413.69	245.63
414.07	246.73
414.44	248.00
414.82	249.37
415.19	250.77
415.56	252.39
415.94	254.00
416.31	255.83
416.68	257.55
417.06	259.65
417.43	261.60
417.81	263.72
418.18	265.96
418.55	268.30
418.93	270.96
419.30	273.49
419.67	276.28
420.04	278.91
420.42	281.76
420.79	285.21
421.16	288.63
421.54	292.04
421.91	295.71
422.28	299.43
422.66	303.41
423.03	307.23
423.40	311.18
423.77	315.24
424.15	319.47
424.52	324.07
424.89	328.93
425.26	333.75
425.64	338.33
426.01	343.27
426.38	348.26
426.75	353.48
427.13	358.94
427.50	364.74
427.87	370.64
428.24	376.63
428.61	382.19
428.99	388.30
429.36	395.14
429.73	401.79
430.10	408.48
430.47	415.19
430.85	422.28
431.22	429.61
431.59	437.67
431.96	445.25
432.33	453.50
432.70	461.41
433.08	470.82
433.45	479.78
433.82	488.51
434.19	498.53
434.56	507.93
434.93	517.03
435.30	526.03
435.68	536.20
436.05	546.06
436.42	555.94
436.79	565.10
437.16	574.77
437.53	584.96
437.90	594.92
438.27	604.72
438.64	615.00
439.01	624.58
439.38	633.09
439.75	641.25
440.13	650.67
440.50	659.82
440.87	667.26
441.24	674.82
441.61	683.34
441.98	689.76
442.35	697.46
442.72	705.16
443.09	712.66
443.46	717.42
443.83	720.84
444.20	723.93
444.57	728.21
444.94	730.67
445.31	733.30
445.68	735.81
446.05	737.66
446.42	737.72
446.79	737.63
447.16	737.38
447.53	737.92
447.90	735.32
448.27	732.54
448.64	728.22
449.01	725.64
449.37	720.20
449.74	714.59
450.11	707.77
450.48	700.47
450.85	693.05
451.22	686.70
451.59	680.89
451.96	675.23
452.33	667.15
452.70	659.93
453.07	650.88
453.43	641.83
453.80	633.00
454.17	624.70
454.54	616.76
454.91	607.86
455.28	599.15
455.65	591.12
456.02	582.91
456.38	576.14
456.75	567.30
457.12	559.85
457.49	552.73
457.86	545.53
458.23	539.22
458.59	532.31
458.96	525.38
459.33	519.08
459.70	512.88
460.07	507.88
460.43	502.03
460.80	496.60
461.17	491.73
461.54	486.73
461.91	481.91
462.27	476.91
462.64	472.80
463.01	468.05
463.38	463.60
463.74	459.27
464.11	455.40
464.48	451.93
464.85	448.18
465.21	445.16
465.58	442.04
465.95	438.31
466.32	435.12
466.68	432.00
467.05	428.75
467.42	425.64
467.78	422.38
468.15	419.17
468.52	416.86
468.88	413.95
469.25	411.25
469.62	408.93
469.98	406.53
470.35	404.40
470.72	402.25
471.08	399.98
471.45	398.14
471.82	396.06
472.18	394.04
472.55	392.55
472.92	390.65
473.28	389.05
473.65	387.39
474.02	385.75
474.38	384.32
474.75	383.35
475.11	382.04
475.48	381.02
475.85	380.14
476.21	379.28
476.58	378.58
476.94	377.99
477.31	377.22
477.67	376.43
478.04	375.80
478.41	375.38
478.77	375.04
479.14	374.30
479.50	373.92
479.87	373.76
480.23	373.50
480.60	373.26
480.96	373.28
481.33	373.48
481.69	373.67
482.06	373.85
482.42	373.68
482.79	373.81
483.15	374.03
483.52	374.69
483.88	374.93
484.25	375.33
484.61	375.70
484.98	376.27
485.34	377.20
485.71	378.01
486.07	378.84
486.44	379.76
486.80	380.95
487.17	381.99
487.53	383.19
487.90	384.46
488.26	385.95
488.62	387.30
488.99	388.65
489.35	390.18
489.72	391.75
490.08	393.69
490.44	395.61
490.81	397.34
491.17	399.00
491.54	401.21
491.90	403.10
492.26	405.45
492.63	407.74
492.99	410.03
493.36	412.29
493.72	414.86
494.08	417.29
494.45	419.96
494.81	422.59
495.17	425.07
495.54	427.91
495.90	430.74
496.26	433.65
496.63	436.79
496.99	439.93
497.35	442.99
497.72	446.19
498.08	449.24
498.44	452.70
498.80	456.38
499.17	459.68
499.53	463.11
499.89	466.50
500.26	469.86
500.62	473.06
500.98	476.62
501.34	480.06
501.71	483.68
502.07	486.92
502.43	490.45
502.79	493.97
503.16	497.25
503.52	500.68
503.88	503.95
504.24	507.37
504.60	510.68
504.97	514.04
505.33	517.36
505.69	521.00
506.05	524.40
506.41	527.40
506.78	530.40
507.14	533.63
507.50	536.66
507.86	539.77
508.22	543.23
508.59	546.31
508.95	549.36
509.31	552.27
509.67	555.46
510.03	558.54
510.39	561.45
510.75	564.58
511.12	567.28
511.48	570.16
511.84	572.70
512.20	575.32
512.56	578.15
512.92	580.80
513.28	583.20
513.64	585.59
514.00	588.10
514.37	590.65
514.73	592.96
515.09	595.23
515.45	597.35
515.81	599.31
516.17	601.41
516.53	603.65
516.89	605.51
517.25	607.27
517.61	608.88
517.97	610.61
518.33	611.92
518.69	613.48
519.05	615.05
519.41	616.86
519.77	618.73
520.13	620.02
520.49	621.44
520.85	622.83
521.21	624.33
521.57	625.71
521.93	626.80
522.29	628.27
522.65	629.49
523.01	630.70
523.37	631.73
523.73	633.00
524.09	634.04
524.45	635.50
524.81	636.86
525.17	638.54
525.53	640.11
525.89	641.74
526.25	643.36
526.61	644.68
526.97	645.89
527.33	647.18
527.68	648.90
528.04	650.20
528.40	651.67
528.76	653.23
529.12	654.77
529.48	656.69
529.84	658.09
530.20	659.92
530.56	662.01
530.91	664.41
531.27	666.30
531.63	668.20
531.99	670.14
532.35	671.90
532.71	673.52
533.07	675.53
533.42	677.62
533.78	679.67
534.14	681.75
534.50	683.61
534.86	685.57
535.21	687.42
535.57	689.93
535.93	692.03
536.29	694.21
536.65	696.36
537.00	698.52
537.36	701.07
537.72	703.20
538.08	705.26
538.44	707.17
538.79	709.60
539.15	711.64
539.51	714.04
539.87	716.79
540.22	719.48
540.58	722.14
540.94	724.67
541.29	727.24
541.65	729.98
542.01	733.26
542.37	736.11
542.72	738.85
543.08	741.44
543.44	744.50
543.79	747.16
544.15	750.25
544.51	753.60
544.87	756.47
545.22	759.58
545.58	762.63
545.94	765.54
546.29	768.39
546.65	771.64
547.01	774.46
547.36	777.36
547.72	780.12
548.07	782.94
548.43	785.80
548.79	788.95
549.14	791.92
549.50	794.56
549.86	797.53
550.21	800.66
550.57	803.55
550.92	806.36
551.28	809.09
551.64	812.07
551.99	814.79
552.35	817.81
552.70	820.68
553.06	823.65
553.41	826.96
553.77	829.82
554.13	832.83
554.48	835.79
554.84	838.79
555.19	842.05
555.55	844.89
555.90	847.92
556.26	850.86
556.61	853.51
556.97	856.52
557.32	859.60
557.68	862.54
558.03	865.53
558.39	868.50
558.74	871.75
559.10	874.31
559.45	877.15
559.81	880.05
560.16	882.80
560.52	885.50
560.87	888.09
561.23	891.05
561.58	894.07
561.94	897.07
562.29	899.57
562.64	902.06
563.00	904.93
563.35	907.84
563.71	910.85
564.06	913.75
564.42	916.33
564.77	918.77
565.12	921.61
565.48	924.44
565.83	927.03
566.19	929.50
566.54	932.06
566.89	934.35
567.25	936.56
567.60	939.60
567.96	942.33
568.31	944.70
568.66	946.92
569.02	948.79
569.37	950.70
569.72	952.83
570.08	954.83
570.43	956.52
570.78	958.01
571.14	959.05
571.49	960.84
571.84	962.55
572.20	963.98
572.55	965.03
572.90	965.87
573.26	967.18
573.61	968.42
573.96	969.77
574.31	970.38
574.67	970.95
575.02	970.85
575.37	970.97
575.72	971.23
576.08	971.78
576.43	972.18
576.78	972.58
577.13	973.03
577.49	973.33
577.84	973.77
578.19	973.92
578.54	974.43
578.90	974.37
579.25	974.03
579.60	973.93
579.95	973.73
580.30	973.65
580.66	973.12
581.01	972.53
581.36	972.00
581.71	972.13
582.06	971.87
582.42	971.67
582.77	971.35
583.12	970.65
583.47	970.12
583.82	969.73
584.17	968.97
584.53	968.40
584.88	967.76
585.23	966.98
585.58	966.29
585.93	965.10
586.28	964.35
586.63	963.97
586.98	963.09
587.34	962.35
587.69	961.66
588.04	960.85
588.39	959.95
588.74	958.44
589.09	957.12
589.44	955.93
589.79	954.78
590.14	953.86
590.49	952.94
590.84	951.52
591.19	950.20
591.54	948.73
591.89	946.67
592.25	945.12
592.60	943.25
592.95	941.39
593.30	939.58
593.65	937.55
594.00	935.32
594.35	934.00
594.70	931.59
595.05	929.54
595.40	927.60
595.75	925.42
596.10	923.89
596.45	922.21
596.80	920.49
597.15	918.83
597.50	916.42
597.85	914.69
598.19	912.78
598.54	910.67
598.89	908.89
599.24	907.42
599.59	905.18
599.94	903.39
600.29	901.49
600.64	899.54
600.99	897.35
601.34	895.35
601.69	892.72
602.04	890.96
602.39	888.59
602.74	886.65
603.08	884.82
603.43	882.94
603.78	880.43
604.13	878.15
604.48	875.54
604.83	873.50
605.18	870.99
605.53	868.41
605.87	865.79
606.22	863.30
606.57	860.54
606.92	858.37
607.27	855.97
607.62	853.83
607.96	851.64
608.31	849.41
608.66	846.84
609.01	844.01
609.36	841.00
609.70	837.98
610.05	834.41
610.40	831.51
610.75	828.47
611.10	825.57
611.44	822.38
611.79	819.75
612.14	816.77
612.49	813.47
612.83	810.18
613.18	807.13
613.53	804.00
613.88	800.89
614.22	797.64
614.57	794.41
614.92	790.87
615.27	787.59
615.61	784.25
615.96	781.07
616.31	778.16
616.65	775.94
617.00	773.40
617.35	771.04
617.70	768.18
618.04	764.91
618.39	761.98
618.74	759.10
619.08	755.79
619.43	752.76
619.78	749.87
620.12	747.30
620.47	744.29
620.82	741.10
621.16	738.37
621.51	735.50
621.85	732.40
622.20	729.48
622.55	726.61
622.89	723.83
623.24	721.05
623.59	718.41
623.93	715.32
624.28	712.39
624.62	709.52
624.97	706.60
625.32	703.80
625.66	700.93
626.01	698.20
626.35	695.38
626.70	692.59
627.04	689.96
627.39	686.87
627.73	684.30
628.08	681.68
628.43	678.65
628.77	675.72
629.12	672.90
629.46	670.16
629.81	667.03
630.15	664.17
630.50	661.18
630.84	657.82
631.19	654.60
631.53	651.57
631.88	648.31
632.22	645.10
632.57	642.31
632.91	639.32
633.26	636.30
633.60	633.45
633.95	630.49
634.29	627.55
634.64	624.90
634.98	621.89
635.32	619.36
635.67	616.97
636.01	614.30
636.36	611.69
636.70	609.08
637.05	606.63
637.39	604.00
637.73	601.59
638.08	599.35
638.42	597.04
638.77	594.72
639.11	592.27
639.45	589.88
639.80	587.43
640.14	585.17
640.49	582.89
640.83	580.26
641.17	577.81
641.52	575.60
641.86	573.25
642.20	570.91
642.55	568.34
642.89	565.80
643.23	563.30
643.58	561.11
643.92	558.72
644.26	556.29
644.61	554.07
644.95	551.49
645.29	548.90
645.64	546.39
645.98	543.74
646.32	541.50
646.66	539.18
647.01	536.62
647.35	534.07
647.69	531.66
648.04	529.50
648.38	527.02
648.72	524.39
649.06	521.90
649.41	519.44
649.75	517.07
650.09	514.49
650.43	512.16
650.78	509.40
651.12	506.76
651.46	504.40
651.80	502.03
652.14	500.00
652.49	497.65
652.83	495.31
653.17	493.14
653.51	490.70
653.85	488.50
654.20	486.12
654.54	483.61
654.88	481.15
655.22	478.64
655.56	476.26
655.90	473.97
656.25	471.71
656.59	469.48
656.93	467.14
657.27	465.01
657.61	462.67
657.95	460.56
658.29	458.68
658.64	456.77
658.98	454.67
659.32	452.16
659.66	450.15
660.00	447.86
660.34	445.59
660.68	443.64
661.02	441.56
661.36	439.56
661.70	437.64
662.05	435.83
662.39	434.00
662.73	432.27
663.07	430.55
663.41	428.85
663.75	427.14
664.09	425.20
664.43	423.33
664.77	421.72
665.11	420.15
665.45	418.25
665.79	416.30
666.13	414.45
666.47	412.76
666.81	410.94
667.15	409.36
667.49	407.86
667.83	406.06
668.17	404.21
668.51	402.65
668.85	401.17
669.19	399.58
669.53	397.93
669.87	396.29
670.21	394.61
670.55	392.85
670.89	391.35
671.23	390.04
671.57	388.75
671.91	387.09
672.25	385.69
672.58	384.46
672.92	383.00
673.26	381.52
673.60	380.14
673.94	378.87
674.28	377.61
674.62	376.45
674.96	375.15
675.30	373.93
675.64	372.71
675.97	371.51
676.31	370.15
676.65	369.09
676.99	367.92
677.33	366.45
677.67	365.28
678.01	363.87
678.34	362.50
678.68	361.23
679.02	360.01
679.36	358.69
679.70	357.24
680.04	356.08
680.37	354.92
680.71	353.92
681.05	352.75
681.39	351.67
681.73	350.44
682.06	349.24
682.40	348.22
682.74	347.16
683.08	346.08
683.42	344.93
683.75	343.68
684.09	342.59
684.43	341.65
684.77	340.55
685.10	339.68
685.44	338.73
685.78	337.66
686.12	336.77
686.45	335.64
686.79	334.64
687.13	333.53
687.46	332.46
687.80	331.32
688.14	330.21
688.48	329.00
688.81	327.93
689.15	327.04
689.49	325.92
689.82	324.76
690.16	323.58
690.50	322.66
690.83	321.73
691.17	320.75
691.51	319.92
691.84	319.06
692.18	317.94
692.52	316.89
692.85	315.96
693.19	315.00
693.52	314.05
693.86	313.21
694.20	312.39
694.53	311.47
694.87	310.58
695.21	309.77
695.54	308.98
695.88	308.07
696.21	307.13
696.55	306.29
696.88	305.44
697.22	304.75
697.56	303.90
697.89	303.03
698.23	302.21
698.56	301.34
698.90	300.49
699.23	299.76
699.57	298.96
699.90	298.13
700.24	297.36
700.58	296.65
700.91	295.89
701.25	295.28
701.58	294.72
701.92	294.11
702.25	293.36
702.59	292.70
702.92	292.08
703.26	291.56
703.59	290.99
703.93	290.58
704.26	289.92
704.60	289.38
704.93	288.84
705.26	288.26
705.60	287.67
705.93	287.09
706.27	286.55
706.60	286.13
706.94	285.58
707.27	285.05
707.61	284.57
707.94	283.90
708.27	283.27
708.61	282.62
708.94	281.99
709.28	281.41
709.61	280.83
709.94	280.20
710.28	279.62
710.61	279.01
710.95	278.18
711.28	277.76
711.61	277.23
711.95	276.75
712.28	276.20
712.61	275.63
712.95	275.24
713.28	274.72
713.61	274.11
713.95	273.59
714.28	273.08
714.61	272.51
714.95	272.14
715.28	271.59
715.61	271.14
715.95	270.63
716.28	270.28
716.61	269.84
716.95	269.37
717.28	268.87
717.61	268.45
717.94	268.15
718.28	267.53
718.61	266.98
718.94	266.51
719.27	266.06
719.61	265.71
719.94	265.24
720.27	264.88
720.60	264.35
720.94	264.05
721.27	263.62
721.60	263.36
721.93	262.98
722.27	262.73
722.60	262.34
722.93	262.05
723.26	261.72
723.59	261.38
723.93	261.16
724.26	260.81
724.59	260.47
724.92	260.22
725.25	259.93
725.59	259.70
725.92	259.33
726.25	258.98
726.58	258.62
726.91	258.32
727.24	258.04
727.57	257.91
727.91	257.50
728.24	257.25
728.57	256.77
728.90	256.44
729.23	256.06
729.56	255.79
729.89	255.53
730.22	255.20
730.55	254.88
730.89	254.57
731.22	254.36
731.55	253.99
731.88	253.61
732.21	253.34
732.54	252.95
732.87	252.66
733.20	252.40
733.53	252.18
733.86	251.90
734.19	251.59
734.52	251.26
734.85	251.14
735.18	250.79
735.51	250.62
735.84	250.38
736.17	250.15
736.50	249.86
736.83	249.74
737.16	249.53
737.49	249.26
737.82	249.10
738.15	248.86
738.48	248.70
738.81	248.62
739.14	248.36
739.47	248.21
739.80	247.99
740.13	247.89
740.46	247.72
740.79	247.51
741.12	247.33
741.45	247.24
741.78	246.98
742.11	246.96
742.44	246.74
742.77	246.60
743.10	246.44
743.43	246.23
743.75	245.87
744.08	245.98
744.41	245.93
744.74	245.80
745.07	245.71
745.40	245.65
745.73	245.48
746.06	245.36
746.39	245.29
746.71	245.22
747.04	245.08
747.37	244.89
747.70	244.76
748.03	244.53
748.36	244.38
748.68	244.30
749.01	244.10
749.34	243.98
749.67	243.84
750.00	243.73
750.33	243.77
750.65	243.67
750.98	243.27
751.31	243.00
751.64	242.79
751.97	242.76
752.29	242.56
752.62	242.39
752.95	242.25
753.28	242.13
753.60	241.93
753.93	241.87
754.26	241.66
754.59	241.45
754.91	241.40
755.24	241.21
755.57	240.94
755.90	240.77
756.22	240.65
756.55	240.44
756.88	240.15
757.20	239.86
757.53	239.80
757.86	239.82
758.19	239.75
758.51	239.68
758.84	239.43
759.17	239.32
759.49	239.21
759.82	239.17
760.15	239.10
760.47	239.00
760.80	238.79
761.13	238.70
761.45	238.70
761.78	238.60
762.11	238.54
762.43	238.43
762.76	238.29
763.08	238.21
763.41	238.22
763.74	238.19
764.06	238.15
764.39	237.93
764.71	237.69
765.04	237.63
765.37	237.41
765.69	237.25
766.02	237.11
766.34	236.90
766.67	236.66
767.00	236.56
767.32	236.55
767.65	236.57
767.97	236.52
768.30	236.40
768.62	236.24
768.95	236.05
769.27	236.00
769.60	235.93
769.92	235.78
770.25	235.63
770.57	235.54
770.90	235.40
771.22	235.30
771.55	235.20
771.87	235.05
772.20	235.01
772.52	235.09
772.85	235.28
773.17	235.26
773.50	235.26
773.82	235.08
774.15	234.94
774.47	234.68
774.80	234.58
775.12	234.43
775.45	234.38
775.77	234.37
776.09	234.21
776.42	234.23
776.74	234.21
777.07	234.10
777.39	234.05
777.72	233.95
778.04	233.90
778.36	233.72
778.69	233.68
779.01	233.57
779.33	233.41
779.66	233.13
779.98	232.98
780.31	232.94
780.63	233.00
780.95	232.93
781.28	232.84
781.60	232.76
781.92	232.66
782.25	232.57
782.57	232.40
782.89	232.37
783.22	232.20
783.54	232.12
783.86	232.06
784.19	232.12
784.51	232.16
784.83	232.04
785.16	232.08
785.48	232.07
785.80	232.07
786.12	231.98
786.45	232.01
786.77	232.04
787.09	231.96
787.42	231.80
787.74	231.80
788.06	231.92
788.38	231.85
788.71	231.85
789.03	231.80
789.35	231.92
789.67	231.83
789.99	231.94
790.32	231.90
790.64	231.98
790.96	232.05
791.28	232.06
791.61	232.13
791.93	232.10
792.25	232.12
792.57	232.21
792.89	232.10
793.21	232.00
793.54	231.99
793.86	231.95
794.18	231.97
