SpectraSuite Data File
++++++++++++++++++++++++++++++++++++
Date: Fri Feb 01 14:41:08 EST 2013
User: group
Dark Spectrum Present: No
Reference Spectrum Present: No
Number of Sampled Component Spectra: 1
Spectrometers: USB2E7196
Integration Time (usec): 70000 (USB2E7196)
Spectra Averaged: 10 (USB2E7196)
Boxcar Smoothing: 10 (USB2E7196)
Correct for Electrical Dark: No (USB2E7196)
Strobe/Lamp Enabled: No (USB2E7196)
Correct for Detector Non-linearity: No (USB2E7196)
Correct for Stray Light: No (USB2E7196)
Number of Pixels in Processed Spectrum: 2048
>>>>>Begin Processed Spectral Data<<<<<
339.09	0.00
339.48	214.50
339.86	219.70
340.24	218.40
340.63	220.80
341.01	226.10
341.39	223.40
341.78	225.20
342.16	225.90
342.54	226.20
342.93	214.56
343.31	225.45
343.69	226.05
344.07	226.40
344.46	226.80
344.84	227.16
345.22	227.28
345.60	227.49
345.99	227.57
346.37	227.71
346.75	227.72
347.13	227.74
347.52	227.84
347.90	228.02
348.28	227.99
348.66	228.19
349.05	228.14
349.43	228.30
349.81	228.42
350.19	228.48
350.57	228.56
350.96	228.62
351.34	228.60
351.72	228.79
352.10	228.95
352.48	229.20
352.87	229.30
353.25	229.34
353.63	229.35
354.01	229.49
354.39	229.55
354.77	229.68
355.15	229.88
355.54	229.90
355.92	229.84
356.30	229.76
356.68	229.80
357.06	229.92
357.44	229.89
357.82	229.92
358.20	230.11
358.58	230.11
358.97	230.20
359.35	230.39
359.73	230.41
360.11	230.39
360.49	230.36
360.87	230.39
361.25	230.45
361.63	230.60
362.01	230.65
362.39	230.66
362.77	230.70
363.15	230.62
363.53	230.65
363.91	230.70
364.29	230.86
364.67	230.70
365.05	230.70
365.43	230.79
365.81	230.80
366.19	230.82
366.57	230.88
366.95	230.82
367.33	230.70
367.71	230.62
368.09	230.62
368.47	230.47
368.85	230.35
369.23	230.27
369.61	230.13
369.99	230.15
370.37	230.08
370.75	230.19
371.13	230.13
371.51	229.95
371.89	229.87
372.27	229.82
372.65	229.82
373.03	229.69
373.41	229.61
373.78	229.52
374.16	229.35
374.54	229.25
374.92	229.25
375.30	229.21
375.68	229.10
376.06	229.03
376.44	229.09
376.82	229.02
377.19	229.04
377.57	229.00
377.95	228.80
378.33	228.73
378.71	228.50
379.09	228.45
379.47	228.42
379.84	228.39
380.22	228.35
380.60	228.18
380.98	228.13
381.36	228.04
381.73	228.01
382.11	227.96
382.49	228.00
382.87	227.95
383.25	227.93
383.62	228.12
384.00	228.09
384.38	227.93
384.76	227.91
385.13	227.87
385.51	227.80
385.89	227.81
386.27	227.68
386.64	227.70
387.02	227.69
387.40	227.77
387.78	227.80
388.15	227.77
388.53	227.80
388.91	227.73
389.29	227.73
389.66	227.71
390.04	227.62
390.42	227.55
390.79	227.46
391.17	227.37
391.55	227.12
391.92	227.08
392.30	227.14
392.68	227.14
393.05	227.12
393.43	227.10
393.81	227.15
394.18	227.34
394.56	227.31
394.94	227.33
395.31	227.49
395.69	227.57
396.06	227.63
396.44	227.65
396.82	227.83
397.19	227.96
397.57	228.02
397.95	228.22
398.32	228.22
398.70	228.33
399.07	228.49
399.45	228.54
399.82	228.61
400.20	228.71
400.58	228.80
400.95	228.89
401.33	229.14
401.70	229.34
402.08	229.40
402.45	229.55
402.83	229.69
403.20	229.65
403.58	229.73
403.95	229.82
404.33	229.96
404.71	229.93
405.08	230.20
405.46	230.24
405.83	230.32
406.21	230.43
406.58	230.72
406.96	230.92
407.33	231.18
407.70	231.38
408.08	231.72
408.45	231.99
408.83	232.36
409.20	232.57
409.58	232.74
409.95	233.06
410.33	233.40
410.70	233.64
411.08	233.93
411.45	234.19
411.82	234.53
412.20	235.03
412.57	235.55
412.95	235.71
413.32	236.29
413.69	236.85
414.07	237.47
414.44	237.82
414.82	238.25
415.19	238.86
415.56	239.46
415.94	239.93
416.31	240.72
416.68	241.37
417.06	242.19
417.43	243.03
417.81	243.87
418.18	244.62
418.55	245.61
418.93	246.70
419.30	247.70
419.67	248.76
420.04	249.72
420.42	250.83
420.79	252.25
421.16	253.55
421.54	254.91
421.91	256.27
422.28	257.67
422.66	259.28
423.03	260.90
423.40	262.48
423.77	264.10
424.15	265.68
424.52	267.37
424.89	269.26
425.26	271.00
425.64	272.55
426.01	274.48
426.38	276.34
426.75	278.15
427.13	280.10
427.50	282.17
427.87	284.31
428.24	286.34
428.61	288.24
428.99	290.36
429.36	292.67
429.73	294.96
430.10	297.34
430.47	299.73
430.85	301.99
431.22	304.49
431.59	307.29
431.96	309.77
432.33	312.53
432.70	315.15
433.08	318.29
433.45	321.42
433.82	324.40
434.19	327.59
434.56	330.76
434.93	333.82
435.30	336.84
435.68	340.11
436.05	343.40
436.42	346.53
436.79	349.55
437.16	352.60
437.53	355.72
437.90	358.92
438.27	361.96
438.64	365.14
439.01	368.10
439.38	370.60
439.75	373.13
440.13	375.94
440.50	378.50
440.87	380.50
441.24	382.67
441.61	385.12
441.98	386.98
442.35	389.01
442.72	391.10
443.09	393.04
443.46	394.14
443.83	394.73
444.20	395.30
444.57	396.12
444.94	396.40
445.31	396.91
445.68	397.43
446.05	397.48
446.42	396.96
446.79	396.51
447.16	395.84
447.53	395.26
447.90	393.91
448.27	392.52
448.64	390.74
449.01	389.37
449.37	387.01
449.74	384.80
450.11	382.38
450.48	379.54
450.85	376.69
451.22	374.30
451.59	372.09
451.96	369.98
452.33	366.96
452.70	364.31
453.07	360.88
453.43	357.40
453.80	354.20
454.17	351.30
454.54	348.39
454.91	345.33
455.28	342.43
455.65	339.57
456.02	337.02
456.38	334.50
456.75	331.38
457.12	328.92
457.49	326.33
457.86	323.73
458.23	321.62
458.59	319.18
458.96	316.78
459.33	314.66
459.70	312.46
460.07	310.68
460.43	308.63
460.80	306.92
461.17	305.33
461.54	303.66
461.91	301.86
462.27	300.11
462.64	298.70
463.01	297.11
463.38	295.65
463.74	293.93
464.11	292.61
464.48	291.51
464.85	290.19
465.21	289.14
465.58	288.03
465.95	286.73
466.32	285.78
466.68	284.67
467.05	283.62
467.42	282.51
467.78	281.46
468.15	280.42
468.52	279.64
468.88	278.52
469.25	277.66
469.62	276.98
469.98	276.22
470.35	275.42
470.72	274.60
471.08	273.77
471.45	273.06
471.82	272.37
472.18	271.65
472.55	270.95
472.92	270.28
473.28	269.62
473.65	268.87
474.02	268.20
474.38	267.67
474.75	267.15
475.11	266.65
475.48	266.18
475.85	265.82
476.21	265.42
476.58	265.19
476.94	264.76
477.31	264.35
477.67	263.96
478.04	263.82
478.41	263.70
478.77	263.67
479.14	263.35
479.50	263.23
479.87	263.12
480.23	263.10
480.60	263.02
480.96	263.02
481.33	263.10
481.69	263.11
482.06	263.11
482.42	263.11
482.79	263.13
483.15	263.28
483.52	263.39
483.88	263.40
484.25	263.50
484.61	263.72
484.98	263.91
485.34	264.28
485.71	264.47
486.07	264.80
486.44	264.93
486.80	265.40
487.17	265.79
487.53	266.19
487.90	266.56
488.26	267.14
488.62	267.79
488.99	268.45
489.35	269.18
489.72	269.94
490.08	270.70
490.44	271.58
490.81	272.51
491.17	273.44
491.54	274.53
491.90	275.53
492.26	276.59
492.63	277.83
492.99	278.98
493.36	280.32
493.72	281.74
494.08	283.19
494.45	284.73
494.81	286.35
495.17	288.09
495.54	290.12
495.90	291.92
496.26	293.83
496.63	295.92
496.99	298.16
497.35	300.56
497.72	303.11
498.08	305.69
498.44	308.41
498.80	311.23
499.17	314.20
499.53	317.36
499.89	320.63
500.26	324.00
500.62	327.76
500.98	331.50
501.34	335.20
501.71	339.38
502.07	343.57
502.43	347.99
502.79	352.55
503.16	357.18
503.52	362.26
503.88	367.30
504.24	372.76
504.60	378.31
504.97	384.09
505.33	390.16
505.69	396.69
506.05	403.06
506.41	409.74
506.78	416.42
507.14	423.32
507.50	430.80
507.86	438.45
508.22	446.04
508.59	453.92
508.95	462.20
509.31	470.70
509.67	479.48
510.03	488.41
510.39	497.66
510.75	507.14
511.12	516.76
511.48	526.65
511.84	536.46
512.20	546.73
512.56	557.34
512.92	568.02
513.28	578.68
513.64	590.01
514.00	601.19
514.37	613.00
514.73	624.86
515.09	636.73
515.45	648.90
515.81	661.37
516.17	674.06
516.53	687.13
516.89	700.40
517.25	713.62
517.61	727.28
517.97	740.87
518.33	754.59
518.69	768.33
519.05	782.71
519.41	797.05
519.77	811.71
520.13	826.70
520.49	841.70
520.85	856.88
521.21	871.97
521.57	887.89
521.93	903.11
522.29	919.15
522.65	935.02
523.01	950.74
523.37	966.46
523.73	982.59
524.09	998.62
524.45	1014.53
524.81	1031.32
525.17	1048.00
525.53	1064.65
525.89	1081.53
526.25	1098.51
526.61	1115.18
526.97	1132.61
527.33	1149.82
527.68	1166.91
528.04	1183.95
528.40	1201.15
528.76	1219.06
529.12	1236.52
529.48	1254.53
529.84	1271.89
530.20	1289.71
530.56	1308.50
530.91	1327.20
531.27	1345.36
531.63	1363.23
531.99	1381.14
532.35	1398.09
532.71	1415.19
533.07	1433.07
533.42	1450.84
533.78	1468.76
534.14	1486.72
534.50	1503.63
534.86	1520.90
535.21	1537.64
535.57	1555.17
535.93	1572.74
536.29	1589.38
536.65	1606.30
537.00	1622.65
537.36	1639.53
537.72	1656.07
538.08	1671.53
538.44	1687.07
538.79	1703.30
539.15	1719.12
539.51	1735.27
539.87	1752.44
540.22	1768.48
540.58	1784.97
540.94	1800.25
541.29	1815.26
541.65	1829.81
542.01	1845.43
542.37	1860.69
542.72	1875.43
543.08	1890.08
543.44	1904.42
543.79	1917.97
544.15	1931.92
544.51	1946.92
544.87	1960.83
545.22	1974.25
545.58	1987.60
545.94	2000.34
546.29	2012.73
546.65	2025.29
547.01	2037.30
547.36	2048.39
547.72	2059.41
548.07	2070.31
548.43	2081.32
548.79	2092.16
549.14	2103.67
549.50	2113.79
549.86	2123.85
550.21	2134.17
550.57	2143.99
550.92	2153.92
551.28	2163.58
551.64	2172.87
551.99	2181.66
552.35	2190.82
552.70	2199.57
553.06	2208.87
553.41	2217.70
553.77	2226.07
554.13	2234.49
554.48	2243.13
554.84	2251.71
555.19	2260.34
555.55	2268.13
555.90	2275.55
556.26	2283.34
556.61	2290.53
556.97	2297.62
557.32	2304.70
557.68	2311.90
558.03	2318.63
558.39	2325.00
558.74	2332.15
559.10	2339.00
559.45	2345.17
559.81	2351.60
560.16	2357.50
560.52	2362.82
560.87	2369.02
561.23	2374.61
561.58	2380.21
561.94	2384.85
562.29	2388.92
562.64	2392.92
563.00	2397.37
563.35	2402.94
563.71	2407.88
564.06	2412.79
564.42	2417.58
564.77	2422.06
565.12	2426.53
565.48	2430.37
565.83	2433.57
566.19	2437.22
566.54	2439.85
566.89	2442.36
567.25	2444.58
567.60	2447.64
567.96	2450.03
568.31	2452.09
568.66	2454.22
569.02	2456.53
569.37	2458.21
569.72	2460.27
570.08	2462.47
570.43	2463.99
570.78	2464.31
571.14	2464.14
571.49	2464.09
571.84	2465.45
572.20	2465.06
572.55	2464.20
572.90	2463.62
573.26	2463.66
573.61	2462.71
573.96	2461.76
574.31	2460.34
574.67	2458.18
575.02	2456.14
575.37	2455.11
575.72	2452.55
576.08	2450.01
576.43	2446.87
576.78	2444.99
577.13	2442.89
577.49	2440.50
577.84	2437.09
578.19	2434.47
578.54	2431.75
578.90	2428.20
579.25	2423.53
579.60	2419.61
579.95	2415.49
580.30	2411.20
580.66	2406.35
581.01	2401.69
581.36	2397.62
581.71	2393.84
582.06	2389.95
582.42	2385.07
582.77	2379.60
583.12	2375.02
583.47	2371.13
583.82	2367.13
584.17	2361.73
584.53	2356.85
584.88	2351.72
585.23	2346.94
585.58	2342.23
585.93	2337.23
586.28	2332.48
586.63	2327.37
586.98	2322.77
587.34	2318.15
587.69	2313.18
588.04	2308.34
588.39	2303.31
588.74	2296.74
589.09	2290.52
589.44	2284.24
589.79	2278.89
590.14	2273.46
590.49	2267.60
590.84	2260.90
591.19	2254.69
591.54	2248.08
591.89	2240.06
592.25	2233.50
592.60	2225.64
592.95	2217.63
593.30	2210.17
593.65	2202.50
594.00	2195.06
594.35	2187.52
594.70	2179.40
595.05	2172.20
595.40	2164.68
595.75	2156.84
596.10	2150.55
596.45	2144.29
596.80	2137.94
597.15	2131.42
597.50	2124.21
597.85	2117.55
598.19	2111.29
598.54	2103.96
598.89	2097.34
599.24	2092.17
599.59	2085.12
599.94	2078.92
600.29	2072.46
600.64	2065.61
600.99	2058.02
601.34	2051.29
601.69	2044.08
602.04	2037.54
602.39	2030.55
602.74	2024.05
603.08	2017.44
603.43	2010.51
603.78	2003.01
604.13	1995.78
604.48	1987.85
604.83	1980.32
605.18	1972.75
605.53	1964.28
605.87	1956.06
606.22	1948.21
606.57	1939.35
606.92	1931.49
607.27	1924.24
607.62	1917.16
607.96	1909.61
608.31	1902.55
608.66	1894.26
609.01	1886.24
609.36	1877.36
609.70	1868.24
610.05	1859.13
610.40	1850.66
610.75	1841.43
611.10	1832.34
611.44	1822.81
611.79	1814.45
612.14	1805.55
612.49	1795.94
612.83	1786.75
613.18	1778.18
613.53	1769.48
613.88	1760.08
614.22	1751.39
614.57	1741.96
614.92	1732.33
615.27	1723.90
615.61	1714.71
615.96	1706.07
616.31	1697.80
616.65	1690.19
617.00	1682.28
617.35	1674.12
617.70	1665.31
618.04	1656.75
618.39	1648.07
618.74	1639.87
619.08	1630.68
619.43	1622.44
619.78	1614.72
620.12	1606.90
620.47	1598.65
620.82	1590.00
621.16	1582.49
621.51	1574.15
621.85	1565.63
622.20	1557.03
622.55	1548.09
622.89	1540.44
623.24	1532.20
623.59	1523.72
623.93	1515.62
624.28	1507.67
624.62	1499.22
624.97	1491.32
625.32	1483.75
625.66	1476.29
626.01	1468.31
626.35	1460.31
626.70	1451.90
627.04	1443.87
627.39	1435.10
627.73	1426.94
628.08	1419.48
628.43	1411.30
628.77	1403.07
629.12	1394.99
629.46	1386.91
629.81	1378.18
630.15	1369.49
630.50	1361.03
630.84	1352.08
631.19	1342.73
631.53	1334.09
631.88	1325.24
632.22	1316.41
632.57	1307.89
632.91	1299.36
633.26	1290.93
633.60	1282.66
633.95	1274.70
634.29	1266.69
634.64	1259.29
634.98	1251.14
635.32	1242.85
635.67	1235.55
636.01	1227.94
636.36	1220.36
636.70	1212.93
637.05	1205.94
637.39	1198.76
637.73	1191.54
638.08	1185.06
638.42	1178.68
638.77	1171.76
639.11	1164.92
639.45	1157.93
639.80	1150.47
640.14	1143.32
640.49	1136.27
640.83	1129.33
641.17	1122.34
641.52	1115.35
641.86	1108.24
642.20	1101.66
642.55	1094.46
642.89	1087.19
643.23	1079.97
643.58	1073.22
643.92	1066.06
644.26	1058.78
644.61	1051.94
644.95	1045.08
645.29	1037.49
645.64	1029.90
645.98	1022.78
646.32	1016.07
646.66	1009.17
647.01	1002.72
647.35	995.95
647.69	989.30
648.04	982.93
648.38	975.90
648.72	968.60
649.06	961.57
649.41	954.80
649.75	947.98
650.09	941.02
650.43	934.27
650.78	927.10
651.12	920.43
651.46	914.32
651.80	907.77
652.14	901.44
652.49	895.20
652.83	889.25
653.17	882.67
653.51	876.02
653.85	869.84
654.20	863.20
654.54	856.66
654.88	849.95
655.22	842.90
655.56	836.42
655.90	830.53
656.25	824.72
656.59	818.53
656.93	812.80
657.27	806.86
657.61	800.63
657.95	794.98
658.29	789.07
658.64	783.07
658.98	776.95
659.32	770.80
659.66	765.14
660.00	759.19
660.34	753.49
660.68	747.75
661.02	742.11
661.36	736.72
661.70	731.40
662.05	726.45
662.39	721.79
662.73	716.92
663.07	711.70
663.41	706.59
663.75	701.56
664.09	696.32
664.43	691.11
664.77	686.61
665.11	682.09
665.45	677.47
665.79	672.59
666.13	667.93
666.47	663.33
666.81	658.45
667.15	653.64
667.49	649.01
667.83	644.93
668.17	640.44
668.51	635.84
668.85	631.48
669.19	627.23
669.53	622.68
669.87	618.09
670.21	614.08
670.55	609.89
670.89	605.81
671.23	602.11
671.57	598.37
671.91	594.38
672.25	590.33
672.58	586.46
672.92	582.75
673.26	579.19
673.60	575.51
673.94	571.92
674.28	568.85
674.62	565.50
674.96	561.80
675.30	558.39
675.64	555.30
675.97	551.95
676.31	548.54
676.65	545.32
676.99	542.45
677.33	539.03
677.67	535.64
678.01	532.22
678.34	528.82
678.68	525.82
679.02	522.53
679.36	519.24
679.70	516.18
680.04	513.23
680.37	509.89
680.71	506.81
681.05	504.21
681.39	501.07
681.73	498.35
682.06	495.65
682.40	492.96
682.74	490.07
683.08	487.19
683.42	484.25
683.75	481.33
684.09	478.24
684.43	475.46
684.77	472.90
685.10	470.20
685.44	467.41
685.78	464.53
686.12	462.05
686.45	459.46
686.79	456.78
687.13	454.20
687.46	451.74
687.80	449.35
688.14	446.44
688.48	444.06
688.81	441.42
689.15	439.03
689.49	436.59
689.82	434.22
690.16	431.92
690.50	429.68
690.83	427.50
691.17	425.35
691.51	423.09
691.84	420.95
692.18	418.74
692.52	416.51
692.85	414.31
693.19	412.20
693.52	410.04
693.86	407.91
694.20	405.83
694.53	403.75
694.87	401.49
695.21	399.40
695.54	397.12
695.88	395.00
696.21	392.76
696.55	390.74
696.88	388.80
697.22	386.82
697.56	385.05
697.89	383.07
698.23	381.17
698.56	379.36
698.90	377.36
699.23	375.50
699.57	373.75
699.90	371.95
700.24	369.89
700.58	368.17
700.91	366.50
701.25	364.84
701.58	363.19
701.92	361.67
702.25	360.31
702.59	358.84
702.92	357.38
703.26	355.89
703.59	354.32
703.93	353.11
704.26	351.57
704.60	349.99
704.93	348.59
705.26	347.14
705.60	345.77
705.93	344.35
706.27	343.05
706.60	341.83
706.94	340.51
707.27	339.20
707.61	337.85
707.94	336.58
708.27	335.14
708.61	333.82
708.94	332.51
709.28	331.22
709.61	329.93
709.94	328.60
710.28	327.37
710.61	326.14
710.95	324.64
711.28	323.59
711.61	322.33
711.95	321.08
712.28	319.91
712.61	318.80
712.95	317.87
713.28	316.76
713.61	315.68
713.95	314.60
714.28	313.71
714.61	312.65
714.95	311.50
715.28	310.50
715.61	309.49
715.95	308.50
716.28	307.51
716.61	306.63
716.95	305.67
717.28	304.95
717.61	303.98
717.94	303.00
718.28	301.96
718.61	301.05
718.94	300.31
719.27	299.36
719.61	298.50
719.94	297.55
720.27	296.74
720.60	295.79
720.94	295.00
721.27	294.25
721.60	293.57
721.93	292.93
722.27	292.30
722.60	291.59
722.93	290.85
723.26	290.03
723.59	289.20
723.93	288.60
724.26	287.83
724.59	287.12
724.92	286.43
725.25	285.88
725.59	285.39
725.92	284.72
726.25	284.18
726.58	283.51
726.91	282.88
727.24	282.34
727.57	281.85
727.91	281.26
728.24	280.66
728.57	280.06
728.90	279.51
729.23	278.84
729.56	278.49
729.89	277.92
730.22	277.50
730.55	277.02
730.89	276.54
731.22	275.91
731.55	275.59
731.88	275.09
732.21	274.59
732.54	273.94
732.87	273.42
733.20	273.04
733.53	272.64
733.86	272.21
734.19	271.70
734.52	271.19
734.85	270.79
735.18	270.21
735.51	269.76
735.84	269.38
736.17	268.95
736.50	268.34
736.83	268.11
737.16	267.60
737.49	267.16
737.82	266.68
738.15	266.35
738.48	265.74
738.81	265.41
739.14	264.87
739.47	264.53
739.80	264.15
740.13	263.79
740.46	263.35
740.79	262.89
741.12	262.39
741.45	261.96
741.78	261.52
742.11	261.17
742.44	260.80
742.77	260.40
743.10	260.00
743.43	259.56
743.75	258.93
744.08	258.70
744.41	258.38
744.74	258.01
745.07	257.57
745.40	257.37
745.73	256.99
746.06	256.77
746.39	256.49
746.71	256.22
747.04	255.74
747.37	255.34
747.70	255.08
748.03	254.80
748.36	254.55
748.68	254.26
749.01	253.98
749.34	253.64
749.67	253.27
750.00	252.97
750.33	252.80
750.65	252.64
750.98	252.15
751.31	251.78
751.64	251.51
751.97	251.31
752.29	250.93
752.62	250.59
752.95	250.23
753.28	249.90
753.60	249.46
753.93	249.30
754.26	249.04
754.59	248.80
754.91	248.65
755.24	248.34
755.57	248.12
755.90	247.78
756.22	247.58
756.55	247.38
756.88	247.04
757.20	246.70
757.53	246.36
757.86	246.30
758.19	246.13
758.51	245.91
758.84	245.74
759.17	245.55
759.49	245.33
759.82	245.27
760.15	245.05
760.47	244.89
760.80	244.66
761.13	244.55
761.45	244.35
761.78	244.12
762.11	243.97
762.43	243.79
762.76	243.64
763.08	243.43
763.41	243.27
763.74	243.17
764.06	243.11
764.39	243.07
764.71	242.83
765.04	242.70
765.37	242.51
765.69	242.31
766.02	242.11
766.34	242.00
766.67	241.70
767.00	241.64
767.32	241.57
767.65	241.51
767.97	241.36
768.30	241.27
768.62	241.04
768.95	240.87
769.27	240.61
769.60	240.69
769.92	240.54
770.25	240.46
770.57	240.34
770.90	240.06
771.22	239.96
771.55	239.89
771.87	239.76
772.20	239.68
772.52	239.76
772.85	239.95
773.17	239.81
773.50	239.77
773.82	239.62
774.15	239.48
774.47	239.26
774.80	239.10
775.12	238.91
775.45	238.85
775.77	238.80
776.09	238.79
776.42	238.59
776.74	238.54
777.07	238.19
777.39	238.07
777.72	238.01
778.04	237.75
778.36	237.59
778.69	237.51
779.01	237.39
779.33	237.11
779.66	236.76
779.98	236.74
780.31	236.56
780.63	236.45
780.95	236.29
781.28	236.18
781.60	236.01
781.92	235.90
782.25	235.77
782.57	235.61
782.89	235.56
783.22	235.37
783.54	235.25
783.86	235.26
784.19	235.17
784.51	235.14
784.83	235.18
785.16	235.09
785.48	234.96
785.80	234.94
786.12	234.87
786.45	234.76
786.77	234.65
