SpectraSuite Data File
++++++++++++++++++++++++++++++++++++
Date: Fri Feb 01 14:33:38 EST 2013
User: group
Dark Spectrum Present: No
Reference Spectrum Present: No
Number of Sampled Component Spectra: 1
Spectrometers: USB2E7196
Integration Time (usec): 70000 (USB2E7196)
Spectra Averaged: 10 (USB2E7196)
Boxcar Smoothing: 10 (USB2E7196)
Correct for Electrical Dark: No (USB2E7196)
Strobe/Lamp Enabled: No (USB2E7196)
Correct for Detector Non-linearity: No (USB2E7196)
Correct for Stray Light: No (USB2E7196)
Number of Pixels in Processed Spectrum: 2048
>>>>>Begin Processed Spectral Data<<<<<
339.09	0.00
339.48	216.10
339.86	219.10
340.24	219.50
340.63	220.50
341.01	226.70
341.39	222.90
341.78	224.30
342.16	226.50
342.54	226.30
342.93	214.79
343.31	225.61
343.69	226.17
344.07	226.50
344.46	226.96
344.84	227.42
345.22	227.53
345.60	227.86
345.99	228.02
346.37	228.10
346.75	228.31
347.13	228.44
347.52	228.53
347.90	228.71
348.28	228.73
348.66	228.83
349.05	228.71
349.43	228.90
349.81	228.94
350.19	229.08
350.57	229.05
350.96	229.16
351.34	229.29
351.72	229.29
352.10	229.39
352.48	229.47
352.87	229.52
353.25	229.55
353.63	229.44
354.01	229.51
354.39	229.59
354.77	229.59
355.15	229.68
355.54	229.63
355.92	229.58
356.30	229.68
356.68	229.87
357.06	229.95
357.44	229.93
357.82	230.06
358.20	230.16
358.58	230.07
358.97	230.07
359.35	230.18
359.73	230.33
360.11	230.36
360.49	230.30
360.87	230.27
361.25	230.38
361.63	230.63
362.01	230.69
362.39	230.66
362.77	230.68
363.15	230.65
363.53	230.62
363.91	230.63
364.29	230.62
364.67	230.41
365.05	230.40
365.43	230.46
365.81	230.34
366.19	230.36
366.57	230.55
366.95	230.53
367.33	230.38
367.71	230.40
368.09	230.55
368.47	230.50
368.85	230.44
369.23	230.37
369.61	230.12
369.99	230.12
370.37	230.13
370.75	230.16
371.13	230.10
371.51	230.11
371.89	230.06
372.27	230.01
372.65	230.08
373.03	230.06
373.41	229.97
373.78	230.01
374.16	229.80
374.54	229.68
374.92	229.54
375.30	229.50
375.68	229.31
376.06	229.11
376.44	229.10
376.82	229.08
377.19	229.01
377.57	228.99
377.95	228.91
378.33	228.88
378.71	228.73
379.09	228.60
379.47	228.48
379.84	228.43
380.22	228.30
380.60	228.03
380.98	228.01
381.36	227.95
381.73	227.80
382.11	227.79
382.49	227.79
382.87	227.72
383.25	227.69
383.62	227.96
384.00	227.91
384.38	227.87
384.76	227.74
385.13	227.79
385.51	227.80
385.89	227.69
386.27	227.61
386.64	227.54
387.02	227.59
387.40	227.60
387.78	227.56
388.15	227.65
388.53	227.74
388.91	227.70
389.29	227.78
389.66	227.80
390.04	227.81
390.42	227.78
390.79	227.95
391.17	227.90
391.55	227.66
391.92	227.77
392.30	227.85
392.68	227.96
393.05	228.01
393.43	227.98
393.81	228.10
394.18	228.06
394.56	228.18
394.94	228.30
395.31	228.39
395.69	228.46
396.06	228.57
396.44	228.63
396.82	228.61
397.19	228.77
397.57	228.89
397.95	229.06
398.32	229.18
398.70	229.23
399.07	229.46
399.45	229.63
399.82	229.66
400.20	229.83
400.58	230.02
400.95	230.01
401.33	230.29
401.70	230.49
402.08	230.77
402.45	230.90
402.83	231.09
403.20	231.39
403.58	231.71
403.95	231.95
404.33	232.36
404.71	232.75
405.08	233.12
405.46	233.52
405.83	233.91
406.21	234.28
406.58	234.71
406.96	235.10
407.33	235.58
407.70	236.22
408.08	236.92
408.45	237.57
408.83	238.37
409.20	238.98
409.58	239.67
409.95	240.56
410.33	241.42
410.70	242.28
411.08	243.16
411.45	244.06
411.82	245.05
412.20	246.17
412.57	247.54
412.95	248.78
413.32	250.08
413.69	251.46
414.07	253.05
414.44	254.71
414.82	256.40
415.19	258.34
415.56	260.37
415.94	262.46
416.31	264.68
416.68	267.00
417.06	269.72
417.43	272.24
417.81	275.02
418.18	277.96
418.55	281.12
418.93	284.66
419.30	288.21
419.67	291.95
420.04	295.65
420.42	299.56
420.79	304.04
421.16	308.67
421.54	313.16
421.91	317.96
422.28	322.95
422.66	328.43
423.03	333.47
423.40	338.79
423.77	344.46
424.15	350.55
424.52	356.59
424.89	363.34
425.26	369.89
425.64	376.11
426.01	382.68
426.38	389.75
426.75	396.71
427.13	404.03
427.50	411.63
427.87	419.70
428.24	427.78
428.61	435.44
428.99	443.68
429.36	453.09
429.73	462.08
430.10	471.06
430.47	480.05
430.85	489.70
431.22	499.62
431.59	510.09
431.96	520.02
432.33	531.03
432.70	541.80
433.08	554.43
433.45	566.32
433.82	578.41
434.19	591.49
434.56	604.32
434.93	616.80
435.30	629.32
435.68	642.87
436.05	656.20
436.42	669.47
436.79	681.72
437.16	694.70
437.53	708.63
437.90	722.35
438.27	735.78
438.64	749.74
439.01	762.84
439.38	774.51
439.75	785.72
440.13	798.53
440.50	810.73
440.87	821.01
441.24	831.49
441.61	843.07
441.98	851.90
442.35	862.27
442.72	872.39
443.09	882.20
443.46	888.60
443.83	893.15
444.20	897.23
444.57	903.31
444.94	906.55
445.31	909.72
445.68	912.94
446.05	915.42
446.42	915.64
446.79	915.42
447.16	915.44
447.53	916.22
447.90	913.14
448.27	909.45
448.64	903.74
449.01	900.44
449.37	892.75
449.74	885.39
450.11	876.00
450.48	866.17
450.85	856.15
451.22	847.70
451.59	839.70
451.96	832.19
452.33	821.04
452.70	811.35
453.07	799.49
453.43	787.37
453.80	775.24
454.17	763.64
454.54	752.79
454.91	740.84
455.28	728.74
455.65	717.77
456.02	706.44
456.38	696.93
456.75	685.13
457.12	675.38
457.49	665.42
457.86	656.00
458.23	647.65
458.59	638.44
458.96	629.11
459.33	620.83
459.70	612.36
460.07	605.65
460.43	597.91
460.80	590.49
461.17	583.95
461.54	577.27
461.91	570.82
462.27	564.30
462.64	558.67
463.01	552.39
463.38	546.30
463.74	540.61
464.11	535.40
464.48	530.48
464.85	525.50
465.21	521.75
465.58	517.62
465.95	512.69
466.32	508.49
466.68	504.33
467.05	500.11
467.42	496.10
467.78	491.60
468.15	487.49
468.52	484.42
468.88	480.62
469.25	477.02
469.62	474.23
469.98	471.19
470.35	468.19
470.72	465.55
471.08	462.73
471.45	460.20
471.82	457.55
472.18	454.72
472.55	452.57
472.92	450.17
473.28	448.09
473.65	446.02
474.02	444.05
474.38	442.35
474.75	440.97
475.11	439.35
475.48	438.32
475.85	437.26
476.21	436.20
476.58	435.26
476.94	434.67
477.31	433.70
477.67	432.89
478.04	432.00
478.41	431.50
478.77	431.20
479.14	430.89
479.50	430.65
479.87	430.60
480.23	430.60
480.60	430.55
480.96	430.47
481.33	430.82
481.69	431.13
482.06	431.25
482.42	431.30
482.79	431.71
483.15	432.43
483.52	433.50
483.88	434.22
484.25	434.96
484.61	435.94
484.98	436.93
485.34	438.26
485.71	440.06
486.07	441.71
486.44	443.02
486.80	444.62
487.17	446.67
487.53	448.95
487.90	451.13
488.26	453.29
488.62	455.73
488.99	458.10
489.35	460.62
489.72	463.64
490.08	466.89
490.44	470.02
490.81	473.11
491.17	476.10
491.54	479.80
491.90	483.37
492.26	487.24
492.63	490.99
492.99	494.82
493.36	498.80
493.72	503.00
494.08	507.40
494.45	511.99
494.81	516.43
495.17	520.89
495.54	525.75
495.90	530.63
496.26	535.80
496.63	541.06
496.99	546.69
497.35	552.08
497.72	557.58
498.08	563.18
498.44	568.92
498.80	575.20
499.17	581.14
499.53	587.28
499.89	593.54
500.26	599.95
500.62	606.16
500.98	612.67
501.34	619.07
501.71	625.61
502.07	632.14
502.43	638.68
502.79	645.68
503.16	652.58
503.52	659.64
503.88	666.24
504.24	673.17
504.60	679.92
504.97	687.10
505.33	694.18
505.69	701.73
506.05	708.91
506.41	715.61
506.78	722.47
507.14	729.53
507.50	736.40
507.86	743.50
508.22	750.81
508.59	757.87
508.95	765.18
509.31	772.49
509.67	779.94
510.03	787.09
510.39	794.18
510.75	801.17
511.12	807.76
511.48	814.96
511.84	821.73
512.20	828.25
512.56	834.86
512.92	841.38
513.28	847.52
513.64	853.97
514.00	860.39
514.37	866.70
514.73	872.78
515.09	878.62
515.45	884.68
515.81	890.45
516.17	895.99
516.53	901.53
516.89	906.90
517.25	912.10
517.61	917.57
517.97	922.34
518.33	927.42
518.69	932.73
519.05	937.76
519.41	943.16
519.77	948.50
520.13	953.32
520.49	958.07
520.85	962.98
521.21	967.40
521.57	971.88
521.93	976.11
522.29	980.85
522.65	985.11
523.01	988.94
523.37	992.80
523.73	996.72
524.09	1000.40
524.45	1004.50
524.81	1008.53
525.17	1012.58
525.53	1017.00
525.89	1020.67
526.25	1024.73
526.61	1027.80
526.97	1031.10
527.33	1034.49
527.68	1038.22
528.04	1041.75
528.40	1044.83
528.76	1048.51
529.12	1052.06
529.48	1055.75
529.84	1058.79
530.20	1062.40
530.56	1066.25
530.91	1070.12
531.27	1073.92
531.63	1077.32
531.99	1080.39
532.35	1083.39
532.71	1086.01
533.07	1089.07
533.42	1092.38
533.78	1095.06
534.14	1098.54
534.50	1101.03
534.86	1103.75
535.21	1106.10
535.57	1109.05
535.93	1111.89
536.29	1114.44
536.65	1116.91
537.00	1119.42
537.36	1122.18
537.72	1124.55
538.08	1126.62
538.44	1128.60
538.79	1130.86
539.15	1133.12
539.51	1135.47
539.87	1137.88
540.22	1140.62
540.58	1143.09
540.94	1145.14
541.29	1147.10
541.65	1148.97
542.01	1151.73
542.37	1154.26
542.72	1156.50
543.08	1158.28
543.44	1160.43
543.79	1162.30
544.15	1164.29
544.51	1166.70
544.87	1168.76
545.22	1170.60
545.58	1172.70
545.94	1174.40
546.29	1176.08
546.65	1177.68
547.01	1179.30
547.36	1180.88
547.72	1182.34
548.07	1183.39
548.43	1184.69
548.79	1186.38
549.14	1187.84
549.50	1188.77
549.86	1189.90
550.21	1191.31
550.57	1192.26
550.92	1193.13
551.28	1194.60
551.64	1195.97
551.99	1196.90
552.35	1197.77
552.70	1198.88
553.06	1200.14
553.41	1201.72
553.77	1202.83
554.13	1204.51
554.48	1205.91
554.84	1207.13
555.19	1207.97
555.55	1208.97
555.90	1209.82
556.26	1210.65
556.61	1211.74
556.97	1212.76
557.32	1213.61
557.68	1214.46
558.03	1215.92
558.39	1216.80
558.74	1217.73
559.10	1218.55
559.45	1219.24
559.81	1220.30
560.16	1221.47
560.52	1222.19
560.87	1223.04
561.23	1223.46
561.58	1224.18
561.94	1224.70
562.29	1225.10
562.64	1225.46
563.00	1226.18
563.35	1227.22
563.71	1228.15
564.06	1228.83
564.42	1229.48
564.77	1230.48
565.12	1230.96
565.48	1231.30
565.83	1231.65
566.19	1232.09
566.54	1232.52
566.89	1232.66
567.25	1232.64
567.60	1232.98
567.96	1233.26
568.31	1233.30
568.66	1233.50
569.02	1233.46
569.37	1233.06
569.72	1232.84
570.08	1233.00
570.43	1232.78
570.78	1232.25
571.14	1231.81
571.49	1231.51
571.84	1231.28
572.20	1229.89
572.55	1229.11
572.90	1228.02
573.26	1227.48
573.61	1226.63
573.96	1225.37
574.31	1223.94
574.67	1222.31
575.02	1220.45
575.37	1218.59
575.72	1216.72
576.08	1215.28
576.43	1213.06
576.78	1211.57
577.13	1210.07
577.49	1208.12
577.84	1206.30
578.19	1204.53
578.54	1202.44
578.90	1200.04
579.25	1197.22
579.60	1195.28
579.95	1193.10
580.30	1191.01
580.66	1188.68
581.01	1185.91
581.36	1183.61
581.71	1181.53
582.06	1179.68
582.42	1177.32
582.77	1175.12
583.12	1172.85
583.47	1170.54
583.82	1168.40
584.17	1165.74
584.53	1163.24
584.88	1160.81
585.23	1158.08
585.58	1155.32
585.93	1152.70
586.28	1150.53
586.63	1148.55
586.98	1146.34
587.34	1143.99
587.69	1141.68
588.04	1139.24
588.39	1136.73
588.74	1133.92
589.09	1131.12
589.44	1127.82
589.79	1125.37
590.14	1122.72
590.49	1119.60
590.84	1116.43
591.19	1113.70
591.54	1110.53
591.89	1106.90
592.25	1104.12
592.60	1100.70
592.95	1097.45
593.30	1094.23
593.65	1090.65
594.00	1086.97
594.35	1084.13
594.70	1080.07
595.05	1076.70
595.40	1072.99
595.75	1069.39
596.10	1066.12
596.45	1063.24
596.80	1060.42
597.15	1057.09
597.50	1053.51
597.85	1050.59
598.19	1047.68
598.54	1044.47
598.89	1041.35
599.24	1038.74
599.59	1035.34
599.94	1032.37
600.29	1028.92
600.64	1025.56
600.99	1021.80
601.34	1018.84
601.69	1014.53
602.04	1011.47
602.39	1007.81
602.74	1004.97
603.08	1001.72
603.43	998.51
603.78	994.76
604.13	991.13
604.48	987.42
604.83	984.00
605.18	980.56
605.53	976.34
605.87	972.20
606.22	968.59
606.57	964.54
606.92	960.62
607.27	957.20
607.62	953.75
607.96	950.40
608.31	947.21
608.66	943.23
609.01	939.44
609.36	935.45
609.70	931.34
610.05	926.73
610.40	922.94
610.75	918.79
611.10	914.61
611.44	910.12
611.79	906.02
612.14	902.17
612.49	897.46
612.83	893.68
613.18	889.78
613.53	885.68
613.88	881.37
614.22	877.21
614.57	872.69
614.92	868.93
615.27	864.64
615.61	860.39
615.96	856.40
616.31	852.61
616.65	849.57
617.00	845.80
617.35	842.35
617.70	838.24
618.04	834.11
618.39	830.41
618.74	826.82
619.08	822.80
619.43	818.84
619.78	815.32
620.12	811.50
620.47	807.60
620.82	803.87
621.16	800.30
621.51	796.85
621.85	793.18
622.20	789.24
622.55	785.53
622.89	781.95
623.24	778.23
623.59	774.75
623.93	770.80
624.28	767.23
624.62	763.56
624.97	760.10
625.32	756.77
625.66	753.56
626.01	750.32
626.35	747.07
626.70	743.42
627.04	740.06
627.39	736.74
627.73	733.38
628.08	730.01
628.43	726.85
628.77	723.28
629.12	719.80
629.46	716.26
629.81	712.52
630.15	708.85
630.50	705.49
630.84	701.68
631.19	697.70
631.53	694.24
631.88	690.58
632.22	686.95
632.57	683.62
632.91	679.82
633.26	676.28
633.60	672.59
633.95	669.32
634.29	666.08
634.64	662.64
634.98	659.30
635.32	656.30
635.67	653.15
636.01	650.15
636.36	646.96
636.70	643.98
637.05	641.02
637.39	638.22
637.73	635.23
638.08	632.52
638.42	630.05
638.77	627.30
639.11	624.36
639.45	621.50
639.80	618.35
640.14	615.50
640.49	612.61
640.83	609.99
641.17	607.12
641.52	604.22
641.86	601.35
642.20	598.68
642.55	595.68
642.89	592.82
643.23	589.79
643.58	587.23
643.92	584.19
644.26	581.50
644.61	578.84
644.95	576.14
645.29	573.10
645.64	570.19
645.98	567.19
646.32	564.43
646.66	561.55
647.01	558.76
647.35	556.30
647.69	553.69
648.04	551.12
648.38	548.40
648.72	545.53
649.06	542.72
649.41	539.84
649.75	536.86
650.09	533.86
650.43	531.24
650.78	528.50
651.12	525.93
651.46	523.42
651.80	520.82
652.14	518.22
652.49	515.96
652.83	513.29
653.17	510.84
653.51	508.22
653.85	505.94
654.20	503.47
654.54	500.58
654.88	497.83
655.22	495.01
655.56	492.40
655.90	490.17
656.25	487.80
656.59	485.44
656.93	483.20
657.27	481.05
657.61	478.39
657.95	476.00
658.29	473.81
658.64	471.55
658.98	468.89
659.32	466.38
659.66	463.87
660.00	461.59
660.34	459.38
660.68	457.18
661.02	454.77
661.36	452.72
661.70	450.81
662.05	448.95
662.39	447.06
662.73	445.03
663.07	442.83
663.41	440.95
663.75	439.00
664.09	437.02
664.43	434.92
664.77	433.31
665.11	431.42
665.45	429.41
665.79	427.43
666.13	425.61
666.47	423.68
666.81	421.79
667.15	419.84
667.49	417.98
667.83	416.32
668.17	414.51
668.51	412.62
668.85	410.75
669.19	408.88
669.53	407.19
669.87	405.44
670.21	403.73
670.55	402.03
670.89	400.58
671.23	399.04
671.57	397.54
671.91	395.86
672.25	394.33
672.58	392.99
672.92	391.27
673.26	389.79
673.60	388.36
673.94	386.79
674.28	385.54
674.62	384.16
674.96	382.62
675.30	381.35
675.64	380.02
675.97	378.76
676.31	377.51
676.65	376.08
676.99	374.87
677.33	373.56
677.67	372.13
678.01	370.50
678.34	369.14
678.68	367.83
679.02	366.49
679.36	365.23
679.70	363.73
680.04	362.63
680.37	361.46
680.71	360.25
681.05	359.19
681.39	357.91
681.73	356.73
682.06	355.67
682.40	354.43
682.74	353.29
683.08	352.01
683.42	350.81
683.75	349.70
684.09	348.49
684.43	347.26
684.77	346.09
685.10	345.13
685.44	343.94
685.78	342.86
686.12	341.86
686.45	340.74
686.79	339.59
687.13	338.53
687.46	337.36
687.80	336.26
688.14	335.26
688.48	334.17
688.81	333.09
689.15	331.96
689.49	330.94
689.82	329.90
690.16	328.78
690.50	327.71
690.83	326.61
691.17	325.53
691.51	324.49
691.84	323.60
692.18	322.56
692.52	321.66
692.85	320.59
693.19	319.70
693.52	318.64
693.86	317.67
694.20	316.59
694.53	315.54
694.87	314.56
695.21	313.48
695.54	312.38
695.88	311.26
696.21	310.32
696.55	309.44
696.88	308.43
697.22	307.60
697.56	306.71
697.89	305.83
698.23	305.04
698.56	304.30
698.90	303.44
699.23	302.43
699.57	301.54
699.90	300.77
700.24	299.83
700.58	299.08
700.91	298.30
701.25	297.65
701.58	297.17
701.92	296.58
702.25	295.89
702.59	295.33
702.92	294.74
703.26	294.06
703.59	293.39
703.93	292.96
704.26	292.25
704.60	291.60
704.93	290.94
705.26	290.15
705.60	289.50
705.93	288.88
706.27	288.44
706.60	287.86
706.94	287.13
707.27	286.50
707.61	285.89
707.94	285.26
708.27	284.48
708.61	283.81
708.94	283.15
709.28	282.56
709.61	281.99
709.94	281.46
710.28	280.83
710.61	280.17
710.95	279.35
711.28	278.90
711.61	278.35
711.95	277.85
712.28	277.28
712.61	276.60
712.95	276.08
713.28	275.56
713.61	274.90
713.95	274.43
714.28	273.96
714.61	273.41
714.95	272.98
715.28	272.50
715.61	271.94
715.95	271.35
716.28	270.83
716.61	270.36
716.95	269.81
717.28	269.40
717.61	269.05
717.94	268.69
718.28	268.21
718.61	267.69
718.94	267.31
719.27	266.97
719.61	266.69
719.94	266.31
720.27	265.90
720.60	265.65
720.94	265.28
721.27	264.82
721.60	264.49
721.93	264.10
722.27	263.83
722.60	263.49
722.93	263.22
723.26	262.90
723.59	262.45
723.93	262.25
724.26	261.92
724.59	261.50
724.92	261.10
725.25	260.90
725.59	260.73
725.92	260.35
726.25	260.05
726.58	259.76
726.91	259.53
727.24	259.22
727.57	258.92
727.91	258.63
728.24	258.45
728.57	258.26
728.90	257.98
729.23	257.61
729.56	257.43
729.89	257.04
730.22	256.66
730.55	256.40
730.89	256.10
731.22	255.80
731.55	255.52
731.88	255.39
732.21	254.85
732.54	254.57
732.87	254.31
733.20	254.13
733.53	253.85
733.86	253.59
734.19	253.36
734.52	253.07
734.85	252.90
735.18	252.52
735.51	252.35
735.84	252.02
736.17	251.87
736.50	251.50
736.83	251.61
737.16	251.60
737.49	251.38
737.82	251.12
738.15	250.98
738.48	250.82
738.81	250.58
739.14	250.57
739.47	250.21
739.80	250.19
740.13	249.95
740.46	249.72
740.79	249.45
741.12	249.28
741.45	249.17
741.78	248.93
742.11	248.86
742.44	248.60
742.77	248.59
743.10	248.45
743.43	248.33
743.75	247.87
744.08	247.87
744.41	247.72
744.74	247.54
745.07	247.29
745.40	247.20
745.73	246.98
746.06	246.73
746.39	246.63
746.71	246.34
747.04	246.09
747.37	245.75
747.70	245.60
748.03	245.30
748.36	245.17
748.68	245.06
749.01	244.82
749.34	244.61
749.67	244.37
750.00	244.10
750.33	244.01
750.65	243.81
750.98	243.32
751.31	243.07
751.64	242.88
751.97	242.79
752.29	242.60
752.62	242.35
752.95	242.14
753.28	241.94
753.60	241.77
753.93	241.68
754.26	241.66
754.59	241.43
754.91	241.32
755.24	241.14
755.57	240.91
755.90	240.82
756.22	240.60
756.55	240.41
756.88	240.24
757.20	239.87
757.53	239.78
757.86	239.62
758.19	239.60
758.51	239.40
758.84	239.27
759.17	239.10
759.49	238.99
759.82	238.99
760.15	238.86
760.47	238.66
760.80	238.50
761.13	238.33
761.45	238.18
761.78	238.02
762.11	237.84
762.43	237.68
762.76	237.50
763.08	237.33
763.41	237.26
763.74	237.14
764.06	237.08
764.39	236.90
764.71	236.85
765.04	236.71
765.37	236.69
765.69	236.43
766.02	236.33
766.34	236.24
766.67	236.07
767.00	236.15
767.32	236.19
767.65	236.18
767.97	236.17
768.30	236.18
768.62	236.08
768.95	235.95
769.27	235.80
769.60	235.75
769.92	235.71
770.25	235.58
770.57	235.48
770.90	235.55
771.22	235.49
771.55	235.46
771.87	235.33
772.20	235.23
772.52	235.44
772.85	235.63
773.17	235.62
773.50	235.55
773.82	235.38
774.15	235.26
774.47	235.03
774.80	235.00
775.12	234.87
775.45	234.82
775.77	234.91
776.09	234.91
776.42	234.93
776.74	235.00
777.07	235.00
777.39	234.99
777.72	234.91
778.04	234.81
778.36	234.76
778.69	234.82
779.01	234.73
779.33	234.48
779.66	234.15
779.98	234.08
780.31	234.06
780.63	234.03
780.95	234.03
781.28	234.05
781.60	234.00
781.92	233.97
782.25	233.85
782.57	233.69
782.89	233.66
783.22	233.50
783.54	233.40
783.86	233.40
784.19	233.39
784.51	233.33
784.83	233.30
785.16	233.19
785.48	233.13
785.80	233.21
786.12	233.10
786.45	233.06
786.77	233.03
787.09	232.98
787.42	232.88
787.74	232.90
788.06	232.87
788.38	232.80
788.71	232.74
789.03	232.81
789.35	232.80
