SpectraSuite Data File
++++++++++++++++++++++++++++++++++++
Date: Fri Feb 01 14:42:05 EST 2013
User: group
Dark Spectrum Present: No
Reference Spectrum Present: No
Number of Sampled Component Spectra: 1
Spectrometers: USB2E7196
Integration Time (usec): 70000 (USB2E7196)
Spectra Averaged: 10 (USB2E7196)
Boxcar Smoothing: 10 (USB2E7196)
Correct for Electrical Dark: No (USB2E7196)
Strobe/Lamp Enabled: No (USB2E7196)
Correct for Detector Non-linearity: No (USB2E7196)
Correct for Stray Light: No (USB2E7196)
Number of Pixels in Processed Spectrum: 2048
>>>>>Begin Processed Spectral Data<<<<<
339.09	0.00
339.48	215.50
339.86	216.90
340.24	217.50
340.63	220.70
341.01	225.70
341.39	222.80
341.78	225.40
342.16	225.60
342.54	226.20
342.93	214.23
343.31	225.12
343.69	225.64
344.07	226.13
344.46	226.63
344.84	227.06
345.22	227.19
345.60	227.52
345.99	227.72
346.37	227.98
346.75	228.04
347.13	228.07
347.52	228.09
347.90	228.23
348.28	228.27
348.66	228.45
349.05	228.52
349.43	228.71
349.81	228.89
350.19	228.94
350.57	229.01
350.96	229.18
351.34	229.22
351.72	229.41
352.10	229.47
352.48	229.55
352.87	229.57
353.25	229.67
353.63	229.69
354.01	229.71
354.39	229.68
354.77	229.86
355.15	230.02
355.54	230.09
355.92	230.06
356.30	230.06
356.68	230.22
357.06	230.28
357.44	230.30
357.82	230.34
358.20	230.51
358.58	230.58
358.97	230.60
359.35	230.66
359.73	230.70
360.11	230.93
360.49	230.99
360.87	231.06
361.25	231.06
361.63	231.10
362.01	231.16
362.39	231.33
362.77	231.39
363.15	231.38
363.53	231.49
363.91	231.59
364.29	231.64
364.67	231.50
365.05	231.59
365.43	231.54
365.81	231.65
366.19	231.67
366.57	231.70
366.95	231.68
367.33	231.57
367.71	231.59
368.09	231.47
368.47	231.46
368.85	231.39
369.23	231.44
369.61	231.45
369.99	231.43
370.37	231.28
370.75	231.28
371.13	231.18
371.51	231.05
371.89	231.04
372.27	230.99
372.65	230.89
373.03	230.73
373.41	230.69
373.78	230.50
374.16	230.30
374.54	230.20
374.92	230.14
375.30	230.21
375.68	230.13
376.06	230.16
376.44	230.09
376.82	229.94
377.19	229.87
377.57	229.77
377.95	229.64
378.33	229.46
378.71	229.20
379.09	229.15
379.47	229.16
379.84	229.10
380.22	229.05
380.60	228.95
380.98	228.86
381.36	228.76
381.73	228.60
382.11	228.66
382.49	228.52
382.87	228.41
383.25	228.31
383.62	228.42
384.00	228.21
384.38	228.11
384.76	228.17
385.13	228.21
385.51	228.17
385.89	228.05
386.27	228.10
386.64	228.10
387.02	228.01
387.40	227.97
387.78	227.79
388.15	227.76
388.53	227.77
388.91	227.78
389.29	227.77
389.66	227.89
390.04	227.78
390.42	227.99
390.79	227.98
391.17	228.00
391.55	227.79
391.92	227.84
392.30	227.90
392.68	227.82
393.05	227.81
393.43	227.79
393.81	227.86
394.18	227.89
394.56	227.93
394.94	228.08
395.31	228.16
395.69	228.29
396.06	228.39
396.44	228.45
396.82	228.47
397.19	228.69
397.57	228.69
397.95	228.82
398.32	228.71
398.70	228.82
399.07	229.03
399.45	229.10
399.82	229.18
400.20	229.27
400.58	229.41
400.95	229.50
401.33	229.68
401.70	229.95
402.08	230.02
402.45	230.17
402.83	230.31
403.20	230.38
403.58	230.57
403.95	230.70
404.33	230.90
404.71	231.17
405.08	231.41
405.46	231.68
405.83	231.88
406.21	232.19
406.58	232.45
406.96	232.60
407.33	232.90
407.70	233.35
408.08	233.75
408.45	234.12
408.83	234.42
409.20	234.76
409.58	235.00
409.95	235.49
410.33	235.93
410.70	236.33
411.08	236.80
411.45	237.30
411.82	237.83
412.20	238.32
412.57	238.98
412.95	239.50
413.32	240.14
413.69	240.72
414.07	241.40
414.44	242.07
414.82	242.78
415.19	243.67
415.56	244.43
415.94	245.26
416.31	246.25
416.68	247.23
417.06	248.30
417.43	249.38
417.81	250.57
418.18	251.84
418.55	253.13
418.93	254.49
419.30	255.93
419.67	257.38
420.04	258.99
420.42	260.40
420.79	262.24
421.16	264.02
421.54	266.05
421.91	267.78
422.28	269.83
422.66	271.86
423.03	274.03
423.40	276.03
423.77	278.30
424.15	280.51
424.52	282.79
424.89	285.26
425.26	287.76
425.64	290.00
426.01	292.31
426.38	294.80
426.75	297.43
427.13	300.16
427.50	303.02
427.87	305.88
428.24	308.88
428.61	311.49
428.99	314.47
429.36	317.68
429.73	321.00
430.10	324.14
430.47	327.49
430.85	330.57
431.22	334.10
431.59	337.72
431.96	341.15
432.33	345.09
432.70	348.76
433.08	353.06
433.45	357.19
433.82	361.32
434.19	365.87
434.56	370.32
434.93	374.36
435.30	378.36
435.68	382.95
436.05	387.25
436.42	391.55
436.79	395.48
437.16	399.76
437.53	404.29
437.90	408.69
438.27	412.90
438.64	417.36
439.01	421.43
439.38	424.94
439.75	428.38
440.13	432.35
440.50	436.10
440.87	439.09
441.24	442.06
441.61	445.50
441.98	447.88
442.35	450.60
442.72	453.50
443.09	456.27
443.46	457.82
443.83	458.70
444.20	459.61
444.57	460.97
444.94	461.28
445.31	461.79
445.68	462.18
446.05	462.21
446.42	461.60
446.79	460.93
447.16	460.26
447.53	459.75
447.90	457.72
448.27	455.94
448.64	453.33
449.01	451.63
449.37	448.50
449.74	445.64
450.11	442.16
450.48	438.12
450.85	434.13
451.22	430.61
451.59	427.47
451.96	424.36
452.33	420.14
452.70	416.38
453.07	411.85
453.43	407.41
453.80	403.13
454.17	398.87
454.54	394.72
454.91	390.36
455.28	386.05
455.65	382.04
456.02	378.10
456.38	374.67
456.75	370.45
457.12	366.91
457.49	363.24
457.86	359.67
458.23	356.94
458.59	353.80
458.96	350.52
459.33	347.64
459.70	344.68
460.07	342.41
460.43	339.70
460.80	337.03
461.17	334.80
461.54	332.38
461.91	330.15
462.27	327.92
462.64	326.00
463.01	323.97
463.38	322.16
463.74	319.93
464.11	318.13
464.48	316.48
464.85	314.73
465.21	313.32
465.58	311.89
465.95	309.99
466.32	308.46
466.68	306.92
467.05	305.41
467.42	304.01
467.78	302.48
468.15	301.17
468.52	300.10
468.88	298.65
469.25	297.43
469.62	296.46
469.98	295.41
470.35	294.35
470.72	293.29
471.08	292.08
471.45	291.16
471.82	290.22
472.18	289.24
472.55	288.43
472.92	287.56
473.28	286.82
473.65	286.31
474.02	285.59
474.38	285.11
474.75	284.67
475.11	284.08
475.48	283.52
475.85	283.04
476.21	282.68
476.58	282.30
476.94	282.01
477.31	281.47
477.67	281.17
478.04	280.96
478.41	280.83
478.77	280.87
479.14	280.70
479.50	280.83
479.87	280.88
480.23	280.98
480.60	281.03
480.96	281.10
481.33	281.10
481.69	281.32
482.06	281.50
482.42	281.61
482.79	281.74
483.15	282.17
483.52	282.62
483.88	283.00
484.25	283.45
484.61	283.88
484.98	284.60
485.34	285.30
485.71	286.00
486.07	286.81
486.44	287.58
486.80	288.48
487.17	289.18
487.53	290.14
487.90	291.23
488.26	292.47
488.62	293.73
488.99	295.15
489.35	296.42
489.72	297.90
490.08	299.49
490.44	301.19
490.81	302.99
491.17	304.79
491.54	306.91
491.90	309.05
492.26	311.36
492.63	313.72
492.99	316.13
493.36	318.70
493.72	321.50
494.08	324.22
494.45	327.36
494.81	330.71
495.17	334.02
495.54	337.56
495.90	341.20
496.26	345.06
496.63	349.10
496.99	353.57
497.35	358.17
497.72	363.10
498.08	368.16
498.44	373.41
498.80	378.92
499.17	384.44
499.53	390.20
499.89	396.40
500.26	402.80
500.62	409.34
500.98	416.36
501.34	423.53
501.71	431.21
502.07	439.03
502.43	447.06
502.79	455.67
503.16	464.31
503.52	473.14
503.88	482.18
504.24	491.75
504.60	501.69
504.97	512.13
505.33	522.65
505.69	533.86
506.05	544.96
506.41	556.46
506.78	568.24
507.14	580.59
507.50	593.25
507.86	606.53
508.22	619.95
508.59	633.57
508.95	647.56
509.31	662.02
509.67	677.01
510.03	692.30
510.39	707.74
510.75	723.58
511.12	740.10
511.48	757.30
511.84	774.33
512.20	791.54
512.56	809.17
512.92	827.54
513.28	845.69
513.64	864.65
514.00	883.83
514.37	903.65
514.73	923.26
515.09	943.13
515.45	963.33
515.81	984.01
516.17	1005.28
516.53	1026.92
516.89	1048.55
517.25	1070.28
517.61	1092.25
517.97	1114.12
518.33	1136.50
518.69	1158.86
519.05	1181.48
519.41	1204.84
519.77	1228.55
520.13	1252.50
520.49	1275.71
520.85	1299.69
521.21	1323.68
521.57	1348.40
521.93	1372.44
522.29	1397.80
522.65	1422.29
523.01	1446.18
523.37	1470.83
523.73	1495.04
524.09	1519.56
524.45	1544.56
524.81	1569.53
525.17	1595.00
525.53	1621.01
525.89	1646.51
526.25	1672.47
526.61	1697.53
526.97	1722.99
527.33	1748.70
527.68	1774.25
528.04	1800.05
528.40	1825.58
528.76	1851.89
529.12	1877.27
529.48	1903.20
529.84	1928.38
530.20	1954.91
530.56	1982.40
530.91	2009.01
531.27	2035.76
531.63	2061.73
531.99	2087.99
532.35	2113.09
532.71	2137.88
533.07	2163.30
533.42	2187.98
533.78	2213.02
534.14	2238.66
534.50	2262.45
534.86	2286.71
535.21	2310.22
535.57	2334.94
535.93	2358.91
536.29	2382.28
536.65	2406.26
537.00	2429.51
537.36	2452.94
537.72	2475.00
538.08	2496.58
538.44	2517.84
538.79	2539.49
539.15	2560.29
539.51	2581.63
539.87	2604.14
540.22	2626.08
540.58	2647.59
540.94	2669.00
541.29	2688.85
541.65	2708.50
542.01	2729.67
542.37	2749.64
542.72	2768.68
543.08	2787.20
543.44	2806.20
543.79	2823.15
544.15	2840.90
544.51	2859.64
544.87	2876.86
545.22	2894.15
545.58	2911.42
545.94	2927.30
546.29	2942.99
546.65	2959.35
547.01	2974.47
547.36	2988.64
547.72	3002.81
548.07	3016.32
548.43	3029.87
548.79	3044.00
549.14	3057.17
549.50	3069.08
549.86	3080.98
550.21	3093.18
550.57	3105.32
550.92	3116.99
551.28	3128.77
551.64	3139.02
551.99	3148.94
552.35	3159.97
552.70	3170.20
553.06	3180.44
553.41	3191.40
553.77	3201.07
554.13	3210.47
554.48	3219.57
554.84	3228.39
555.19	3237.21
555.55	3245.28
555.90	3252.70
556.26	3260.27
556.61	3267.86
556.97	3274.90
557.32	3282.31
557.68	3289.43
558.03	3295.99
558.39	3302.55
558.74	3310.77
559.10	3317.93
559.45	3324.59
559.81	3331.02
560.16	3336.70
560.52	3341.70
560.87	3347.52
561.23	3352.06
561.58	3357.66
561.94	3362.25
562.29	3365.99
562.64	3369.30
563.00	3373.26
563.35	3378.69
563.71	3383.83
564.06	3388.50
564.42	3393.55
564.77	3397.78
565.12	3402.46
565.48	3406.62
565.83	3408.98
566.19	3411.06
566.54	3412.90
566.89	3414.72
567.25	3416.21
567.60	3418.52
567.96	3419.94
568.31	3420.58
568.66	3422.32
569.02	3422.90
569.37	3423.03
569.72	3423.87
570.08	3424.26
570.43	3423.98
570.78	3422.85
571.14	3420.09
571.49	3418.42
571.84	3417.56
572.20	3414.79
572.55	3412.18
572.90	3408.57
573.26	3406.70
573.61	3403.61
573.96	3400.29
574.31	3395.77
574.67	3390.60
575.02	3385.75
575.37	3381.71
575.72	3376.03
576.08	3371.24
576.43	3365.54
576.78	3360.43
577.13	3355.91
577.49	3351.03
577.84	3345.40
578.19	3339.58
578.54	3333.87
578.90	3326.80
579.25	3318.27
579.60	3311.21
579.95	3303.75
580.30	3296.20
580.66	3287.99
581.01	3279.81
581.36	3272.74
581.71	3266.40
582.06	3259.25
582.42	3251.19
582.77	3242.69
583.12	3234.92
583.47	3227.23
583.82	3219.91
584.17	3211.34
584.53	3202.80
584.88	3194.16
585.23	3186.09
585.58	3178.01
585.93	3170.10
586.28	3162.46
586.63	3155.13
586.98	3147.29
587.34	3139.17
587.69	3130.99
588.04	3123.10
588.39	3114.80
588.74	3104.79
589.09	3094.53
589.44	3084.80
589.79	3076.16
590.14	3067.49
590.49	3058.74
590.84	3048.77
591.19	3039.06
591.54	3028.20
591.89	3016.59
592.25	3006.55
592.60	2995.17
592.95	2983.54
593.30	2972.44
593.65	2961.20
594.00	2949.97
594.35	2939.28
594.70	2927.57
595.05	2917.10
595.40	2905.51
595.75	2894.72
596.10	2884.50
596.45	2874.70
596.80	2865.34
597.15	2854.83
597.50	2843.63
597.85	2833.39
598.19	2823.51
598.54	2813.16
598.89	2803.94
599.24	2795.46
599.59	2785.05
599.94	2775.47
600.29	2765.53
600.64	2754.81
600.99	2743.65
601.34	2733.44
601.69	2722.35
602.04	2712.26
602.39	2701.55
602.74	2691.82
603.08	2681.97
603.43	2672.22
603.78	2661.45
604.13	2650.16
604.48	2638.96
604.83	2628.60
605.18	2617.70
605.53	2605.51
605.87	2593.28
606.22	2582.14
606.57	2569.99
606.92	2558.62
607.27	2548.04
607.62	2537.44
607.96	2527.02
608.31	2516.88
608.66	2504.71
609.01	2492.75
609.36	2480.39
609.70	2467.26
610.05	2454.30
610.40	2441.94
610.75	2429.07
611.10	2416.73
611.44	2403.23
611.79	2391.44
612.14	2378.75
612.49	2364.93
612.83	2352.44
613.18	2339.86
613.53	2327.68
613.88	2314.83
614.22	2302.52
614.57	2288.85
614.92	2275.98
615.27	2263.43
615.61	2250.73
615.96	2238.37
616.31	2227.06
616.65	2215.95
617.00	2205.11
617.35	2193.71
617.70	2180.82
618.04	2168.72
618.39	2157.04
618.74	2146.54
619.08	2134.29
619.43	2122.63
619.78	2112.32
620.12	2100.89
620.47	2089.71
620.82	2077.88
621.16	2066.62
621.51	2054.90
621.85	2043.60
622.20	2031.09
622.55	2019.43
622.89	2008.06
623.24	1997.54
623.59	1985.97
623.93	1974.69
624.28	1963.45
624.62	1951.76
624.97	1941.19
625.32	1930.65
625.66	1919.50
626.01	1907.87
626.35	1896.97
626.70	1885.74
627.04	1874.71
627.39	1863.18
627.73	1852.03
628.08	1840.83
628.43	1829.77
628.77	1818.61
629.12	1807.33
629.46	1796.74
629.81	1784.83
630.15	1772.99
630.50	1761.00
630.84	1749.06
631.19	1736.71
631.53	1725.37
631.88	1713.70
632.22	1701.80
632.57	1690.45
632.91	1678.70
633.26	1667.43
633.60	1655.63
633.95	1644.05
634.29	1632.92
634.64	1622.87
634.98	1611.64
635.32	1601.20
635.67	1591.12
636.01	1580.67
636.36	1570.23
636.70	1560.37
637.05	1550.58
637.39	1541.11
637.73	1531.22
638.08	1522.26
638.42	1513.54
638.77	1503.64
639.11	1493.96
639.45	1484.54
639.80	1474.41
640.14	1464.95
640.49	1455.19
640.83	1445.50
641.17	1436.14
641.52	1426.06
641.86	1415.76
642.20	1406.70
642.55	1396.96
642.89	1387.20
643.23	1377.55
643.58	1368.84
643.92	1358.74
644.26	1349.12
644.61	1339.80
644.95	1330.24
645.29	1319.60
645.64	1309.04
645.98	1299.42
646.32	1290.51
646.66	1280.74
647.01	1271.31
647.35	1261.97
647.69	1252.65
648.04	1244.14
648.38	1234.62
648.72	1224.64
649.06	1215.30
649.41	1205.66
649.75	1195.87
650.09	1186.33
650.43	1177.17
650.78	1166.74
651.12	1157.70
651.46	1148.88
651.80	1139.81
652.14	1131.35
652.49	1123.06
652.83	1114.79
653.17	1105.63
653.51	1096.40
653.85	1087.49
654.20	1078.57
654.54	1069.50
654.88	1060.78
655.22	1051.52
655.56	1042.86
655.90	1035.04
656.25	1027.08
656.59	1018.62
656.93	1010.82
657.27	1002.66
657.61	994.21
657.95	986.87
658.29	979.07
658.64	970.78
658.98	962.30
659.32	953.90
659.66	945.84
660.00	937.77
660.34	930.10
660.68	922.61
661.02	915.08
661.36	908.05
661.70	900.78
662.05	893.73
662.39	886.87
662.73	879.95
663.07	872.74
663.41	865.61
663.75	859.00
664.09	851.83
664.43	844.87
664.77	838.29
665.11	831.58
665.45	824.99
665.79	818.57
666.13	812.41
666.47	805.92
666.81	799.60
667.15	793.08
667.49	787.07
667.83	780.92
668.17	774.73
668.51	768.15
668.85	762.07
669.19	756.00
669.53	750.17
669.87	744.05
670.21	738.58
670.55	733.03
670.89	727.63
671.23	722.47
671.57	717.18
671.91	711.86
672.25	706.35
672.58	701.01
672.92	695.68
673.26	690.67
673.60	685.78
673.94	680.93
674.28	676.44
674.62	671.99
674.96	667.29
675.30	662.88
675.64	658.27
675.97	653.80
676.31	649.48
676.65	644.79
676.99	640.78
677.33	635.97
677.67	631.56
678.01	627.02
678.34	622.51
678.68	618.10
679.02	613.68
679.36	609.71
679.70	605.53
680.04	601.51
680.37	597.26
680.71	593.15
681.05	589.27
681.39	585.31
681.73	581.27
682.06	577.40
682.40	573.51
682.74	570.05
683.08	566.32
683.42	562.30
683.75	558.51
684.09	554.53
684.43	551.03
684.77	547.24
685.10	543.55
685.44	539.86
685.78	536.30
686.12	532.86
686.45	529.26
686.79	525.69
687.13	522.23
687.46	518.67
687.80	515.29
688.14	511.67
688.48	508.38
688.81	504.78
689.15	501.44
689.49	498.29
689.82	494.94
690.16	491.67
690.50	488.73
690.83	485.76
691.17	482.76
691.51	479.81
691.84	477.05
692.18	474.13
692.52	471.29
692.85	468.41
693.19	465.53
693.52	462.73
693.86	459.90
694.20	457.15
694.53	454.54
694.87	451.77
695.21	449.10
695.54	446.34
695.88	443.67
696.21	441.03
696.55	438.28
696.88	435.80
697.22	433.28
697.56	430.78
697.89	428.17
698.23	425.73
698.56	423.21
698.90	420.63
699.23	418.04
699.57	415.71
699.90	413.26
700.24	410.88
700.58	408.51
700.91	406.30
701.25	404.14
701.58	401.91
701.92	399.72
702.25	397.63
702.59	395.42
702.92	393.38
703.26	391.40
703.59	389.59
703.93	387.69
704.26	385.65
704.60	383.65
704.93	381.80
705.26	379.89
705.60	378.06
705.93	376.30
706.27	374.73
706.60	373.01
706.94	371.40
707.27	369.60
707.61	367.69
707.94	366.02
708.27	364.42
708.61	362.80
708.94	361.12
709.28	359.54
709.61	357.91
709.94	356.56
710.28	355.01
710.61	353.32
710.95	351.66
711.28	350.21
711.61	348.69
711.95	347.18
712.28	345.74
712.61	344.32
712.95	342.72
713.28	341.26
713.61	339.77
713.95	338.40
714.28	337.05
714.61	335.83
714.95	334.54
715.28	332.90
715.61	331.43
715.95	330.09
716.28	328.79
716.61	327.65
716.95	326.21
717.28	325.07
717.61	323.91
717.94	322.70
718.28	321.48
718.61	320.41
718.94	319.26
719.27	318.08
719.61	317.01
719.94	316.02
720.27	315.08
720.60	314.00
720.94	312.91
721.27	312.00
721.60	311.14
721.93	310.22
722.27	309.48
722.60	308.54
722.93	307.74
723.26	306.76
723.59	305.90
723.93	305.01
724.26	304.07
724.59	303.13
724.92	302.36
725.25	301.61
725.59	300.60
725.92	299.86
726.25	299.05
726.58	298.19
726.91	297.36
727.24	296.46
727.57	295.80
727.91	295.01
728.24	294.13
728.57	293.32
728.90	292.58
729.23	291.83
729.56	291.36
729.89	290.63
730.22	289.93
730.55	289.11
730.89	288.37
731.22	287.58
731.55	286.96
731.88	286.20
732.21	285.46
732.54	284.78
732.87	284.18
733.20	283.54
733.53	283.01
733.86	282.57
734.19	282.02
734.52	281.36
734.85	280.91
735.18	280.37
735.51	279.71
735.84	279.16
736.17	278.60
736.50	277.76
736.83	277.44
737.16	276.94
737.49	276.36
737.82	275.92
738.15	275.57
738.48	275.00
738.81	274.50
739.14	274.02
739.47	273.58
739.80	273.02
740.13	272.63
740.46	272.04
740.79	271.34
741.12	270.74
741.45	270.31
741.78	269.74
742.11	269.27
742.44	268.82
742.77	268.25
743.10	267.80
743.43	267.39
743.75	266.70
744.08	266.49
744.41	266.03
744.74	265.60
745.07	265.03
745.40	264.68
745.73	264.24
746.06	263.81
746.39	263.39
746.71	262.84
747.04	262.37
747.37	262.00
747.70	261.72
748.03	261.34
748.36	260.98
748.68	260.66
749.01	260.24
749.34	259.96
749.67	259.66
750.00	259.26
750.33	259.00
750.65	258.72
750.98	258.10
751.31	257.87
751.64	257.48
751.97	257.22
752.29	256.84
752.62	256.42
752.95	255.99
753.28	255.63
753.60	255.33
753.93	254.95
754.26	254.54
754.59	254.14
754.91	253.74
755.24	253.37
755.57	253.08
755.90	252.70
756.22	252.34
756.55	251.92
756.88	251.58
757.20	251.21
757.53	250.88
757.86	250.55
758.19	250.24
758.51	249.91
758.84	249.54
759.17	249.24
759.49	248.99
759.82	248.76
760.15	248.58
760.47	248.34
760.80	248.08
761.13	247.94
761.45	247.62
761.78	247.39
762.11	247.17
762.43	246.92
762.76	246.83
763.08	246.55
763.41	246.40
763.74	246.19
764.06	245.94
764.39	245.68
764.71	245.53
765.04	245.28
765.37	245.10
765.69	244.88
766.02	244.70
766.34	244.60
766.67	244.40
767.00	244.31
767.32	244.18
767.65	244.15
767.97	243.91
768.30	243.88
768.62	243.74
768.95	243.65
769.27	243.37
769.60	243.20
769.92	243.03
770.25	242.88
770.57	242.74
770.90	242.65
771.22	242.56
771.55	242.41
771.87	242.37
772.20	242.25
772.52	242.28
772.85	242.38
773.17	242.18
773.50	242.10
773.82	241.82
774.15	241.62
774.47	241.41
774.80	241.30
775.12	241.16
775.45	241.11
775.77	240.84
776.09	240.80
776.42	240.68
776.74	240.68
777.07	240.44
777.39	240.27
777.72	240.10
778.04	240.02
778.36	239.89
778.69	239.71
779.01	239.58
779.33	239.39
779.66	239.11
779.98	239.09
780.31	238.93
780.63	238.95
780.95	238.95
781.28	238.73
781.60	238.65
781.92	238.46
782.25	238.30
782.57	238.24
782.89	238.07
783.22	237.92
783.54	237.76
783.86	237.82
784.19	237.80
784.51	237.75
784.83	237.64
785.16	237.49
785.48	237.29
