SpectraSuite Data File
++++++++++++++++++++++++++++++++++++
Date: Fri Feb 01 14:35:50 EST 2013
User: group
Dark Spectrum Present: No
Reference Spectrum Present: No
Number of Sampled Component Spectra: 1
Spectrometers: USB2E7196
Integration Time (usec): 70000 (USB2E7196)
Spectra Averaged: 10 (USB2E7196)
Boxcar Smoothing: 10 (USB2E7196)
Correct for Electrical Dark: No (USB2E7196)
Strobe/Lamp Enabled: No (USB2E7196)
Correct for Detector Non-linearity: No (USB2E7196)
Correct for Stray Light: No (USB2E7196)
Number of Pixels in Processed Spectrum: 2048
>>>>>Begin Processed Spectral Data<<<<<
339.09	0.00
339.48	215.40
339.86	218.30
340.24	219.70
340.63	223.40
341.01	223.90
341.39	223.50
341.78	226.10
342.16	226.40
342.54	226.50
342.93	215.25
343.31	226.16
343.69	226.76
344.07	227.19
344.46	227.61
344.84	227.84
345.22	228.06
345.60	228.37
345.99	228.39
346.37	228.52
346.75	228.67
347.13	228.74
347.52	228.85
347.90	228.91
348.28	228.92
348.66	228.97
349.05	228.98
349.43	229.04
349.81	229.02
350.19	229.00
350.57	228.90
350.96	228.90
351.34	229.00
351.72	229.08
352.10	229.23
352.48	229.27
352.87	229.37
353.25	229.54
353.63	229.53
354.01	229.65
354.39	229.81
354.77	229.85
355.15	229.93
355.54	230.06
355.92	230.00
356.30	230.04
356.68	230.24
357.06	230.32
357.44	230.29
357.82	230.43
358.20	230.60
358.58	230.68
358.97	230.76
359.35	230.77
359.73	230.89
360.11	230.93
360.49	230.95
360.87	230.92
361.25	230.84
361.63	230.90
362.01	231.00
362.39	230.88
362.77	230.91
363.15	230.88
363.53	230.84
363.91	230.90
364.29	230.98
364.67	230.66
365.05	230.74
365.43	230.78
365.81	230.78
366.19	230.90
366.57	230.95
366.95	230.89
367.33	230.81
367.71	230.75
368.09	230.70
368.47	230.63
368.85	230.58
369.23	230.60
369.61	230.48
369.99	230.39
370.37	230.33
370.75	230.32
371.13	230.22
371.51	230.12
371.89	230.14
372.27	229.99
372.65	229.98
373.03	229.78
373.41	229.62
373.78	229.50
374.16	229.26
374.54	229.10
374.92	229.00
375.30	229.00
375.68	228.73
376.06	228.60
376.44	228.58
376.82	228.50
377.19	228.47
377.57	228.41
377.95	228.28
378.33	228.22
378.71	228.08
379.09	228.09
379.47	227.92
379.84	227.76
380.22	227.78
380.60	227.68
380.98	227.63
381.36	227.63
381.73	227.54
382.11	227.50
382.49	227.44
382.87	227.36
383.25	227.28
383.62	227.53
384.00	227.44
384.38	227.43
384.76	227.40
385.13	227.34
385.51	227.31
385.89	227.30
386.27	227.16
386.64	227.13
387.02	227.06
387.40	227.08
387.78	227.06
388.15	226.97
388.53	227.00
388.91	226.89
389.29	226.95
389.66	227.07
390.04	227.03
390.42	226.99
390.79	227.02
391.17	227.01
391.55	226.83
391.92	226.90
392.30	226.91
392.68	226.95
393.05	226.99
393.43	227.04
393.81	226.96
394.18	227.00
394.56	226.96
394.94	227.02
395.31	227.04
395.69	227.13
396.06	227.23
396.44	227.30
396.82	227.46
397.19	227.53
397.57	227.56
397.95	227.66
398.32	227.77
398.70	227.84
399.07	228.02
399.45	228.16
399.82	228.20
400.20	228.24
400.58	228.39
400.95	228.36
401.33	228.55
401.70	228.97
402.08	229.22
402.45	229.45
402.83	229.58
403.20	229.79
403.58	230.00
403.95	230.21
404.33	230.43
404.71	230.60
405.08	230.88
405.46	231.05
405.83	231.38
406.21	231.65
406.58	231.96
406.96	232.15
407.33	232.44
407.70	232.79
408.08	233.30
408.45	233.69
408.83	234.15
409.20	234.51
409.58	234.84
409.95	235.37
410.33	235.97
410.70	236.53
411.08	237.18
411.45	237.90
411.82	238.57
412.20	239.35
412.57	240.29
412.95	241.04
413.32	241.88
413.69	242.84
414.07	243.75
414.44	244.74
414.82	245.85
415.19	247.17
415.56	248.53
415.94	249.72
416.31	251.13
416.68	252.52
417.06	254.21
417.43	255.84
417.81	257.62
418.18	259.36
418.55	261.30
418.93	263.30
419.30	265.37
419.67	267.62
420.04	269.86
420.42	272.28
420.79	275.02
421.16	277.92
421.54	280.71
421.91	283.77
422.28	286.91
422.66	290.38
423.03	293.53
423.40	296.85
423.77	300.56
424.15	304.31
424.52	308.10
424.89	312.26
425.26	316.17
425.64	319.96
426.01	324.00
426.38	328.34
426.75	332.77
427.13	337.20
427.50	341.81
427.87	346.90
428.24	351.80
428.61	356.53
428.99	361.69
429.36	367.34
429.73	372.90
430.10	378.40
430.47	383.79
430.85	389.70
431.22	395.89
431.59	402.41
431.96	408.50
432.33	415.49
432.70	421.91
433.08	429.94
433.45	437.26
433.82	444.71
434.19	452.89
434.56	460.73
434.93	468.36
435.30	476.09
435.68	484.38
436.05	492.78
436.42	501.03
436.79	508.49
437.16	516.39
437.53	524.62
437.90	533.23
438.27	541.48
438.64	549.84
439.01	557.71
439.38	564.65
439.75	571.52
440.13	579.22
440.50	586.61
440.87	592.68
441.24	599.25
441.61	606.26
441.98	611.49
442.35	617.67
442.72	624.11
443.09	630.25
443.46	634.32
443.83	637.00
444.20	639.35
444.57	643.00
444.94	645.16
445.31	647.47
445.68	649.42
446.05	650.81
446.42	650.93
446.79	650.91
447.16	651.16
447.53	651.40
447.90	649.46
448.27	647.64
448.64	643.96
449.01	641.58
449.37	637.08
449.74	632.65
450.11	627.11
450.48	621.02
450.85	614.64
451.22	609.20
451.59	604.29
451.96	599.51
452.33	592.71
452.70	586.72
453.07	579.35
453.43	571.78
453.80	564.39
454.17	557.15
454.54	550.44
454.91	542.80
455.28	535.67
455.65	528.90
456.02	521.97
456.38	516.10
456.75	508.86
457.12	502.67
457.49	496.42
457.86	490.50
458.23	485.28
458.59	479.70
458.96	473.84
459.33	468.61
459.70	463.62
460.07	459.45
460.43	454.60
460.80	449.89
461.17	445.78
461.54	441.73
461.91	437.80
462.27	433.74
462.64	430.22
463.01	426.38
463.38	422.64
463.74	418.85
464.11	415.85
464.48	412.99
464.85	409.82
465.21	407.64
465.58	405.12
465.95	401.96
466.32	399.32
466.68	396.81
467.05	394.32
467.42	391.59
467.78	388.78
468.15	386.16
468.52	384.39
468.88	382.01
469.25	379.65
469.62	377.91
469.98	375.90
470.35	373.98
470.72	372.12
471.08	370.27
471.45	368.55
471.82	366.70
472.18	364.77
472.55	363.32
472.92	361.60
473.28	360.13
473.65	358.70
474.02	357.27
474.38	355.99
474.75	354.75
475.11	353.69
475.48	352.85
475.85	352.03
476.21	351.28
476.58	350.42
476.94	349.92
477.31	349.18
477.67	348.42
478.04	347.81
478.41	347.13
478.77	346.79
479.14	346.46
479.50	346.12
479.87	346.09
480.23	345.92
480.60	345.56
480.96	345.38
481.33	345.33
481.69	345.31
482.06	345.26
482.42	345.19
482.79	345.19
483.15	345.25
483.52	345.50
483.88	345.54
484.25	345.82
484.61	346.08
484.98	346.35
485.34	347.03
485.71	347.67
486.07	348.43
486.44	348.84
486.80	349.54
487.17	350.37
487.53	350.99
487.90	351.96
488.26	353.08
488.62	354.15
488.99	355.25
489.35	356.32
489.72	357.66
490.08	358.92
490.44	360.19
490.81	361.62
491.17	362.86
491.54	364.27
491.90	365.62
492.26	367.16
492.63	368.77
492.99	370.22
493.36	371.90
493.72	373.72
494.08	375.39
494.45	376.98
494.81	378.96
495.17	380.90
495.54	382.80
495.90	384.66
496.26	386.49
496.63	388.48
496.99	390.60
497.35	392.62
497.72	394.90
498.08	397.10
498.44	399.18
498.80	401.71
499.17	403.92
499.53	406.24
499.89	408.50
500.26	410.90
500.62	413.17
500.98	415.42
501.34	417.57
501.71	419.85
502.07	422.21
502.43	424.33
502.79	426.47
503.16	428.61
503.52	430.75
503.88	433.02
504.24	435.10
504.60	437.18
504.97	439.21
505.33	441.15
505.69	443.36
506.05	445.40
506.41	447.09
506.78	448.87
507.14	450.57
507.50	452.23
507.86	453.69
508.22	455.48
508.59	457.10
508.95	458.85
509.31	460.54
509.67	462.12
510.03	463.60
510.39	465.22
510.75	466.53
511.12	467.93
511.48	469.00
511.84	470.29
512.20	471.56
512.56	472.77
512.92	473.99
513.28	474.99
513.64	476.00
514.00	476.93
514.37	477.89
514.73	478.85
515.09	479.68
515.45	480.55
515.81	481.15
516.17	481.99
516.53	482.50
516.89	483.20
517.25	483.82
517.61	484.53
517.97	485.02
518.33	485.66
518.69	486.10
519.05	486.88
519.41	487.52
519.77	488.08
520.13	488.74
520.49	489.12
520.85	489.51
521.21	489.99
521.57	490.50
521.93	491.09
522.29	491.81
522.65	492.60
523.01	493.12
523.37	493.64
523.73	494.26
524.09	494.91
524.45	495.51
524.81	496.34
525.17	496.86
525.53	497.61
525.89	498.35
526.25	499.30
526.61	500.08
526.97	500.77
527.33	501.50
527.68	502.47
528.04	503.39
528.40	504.43
528.76	505.71
529.12	507.10
529.48	508.32
529.84	509.39
530.20	510.76
530.56	512.48
530.91	514.19
531.27	515.75
531.63	517.28
531.99	519.08
532.35	520.66
532.71	522.49
533.07	524.35
533.42	526.46
533.78	528.30
534.14	530.18
534.50	532.19
534.86	534.28
535.21	536.19
535.57	538.57
535.93	540.72
536.29	543.00
536.65	545.19
537.00	547.55
537.36	550.18
537.72	552.49
538.08	555.00
538.44	557.55
538.79	559.90
539.15	562.46
539.51	565.03
539.87	567.73
540.22	570.74
540.58	573.63
540.94	576.43
541.29	579.48
541.65	582.53
542.01	585.95
542.37	589.22
542.72	592.33
543.08	595.61
543.44	599.23
543.79	602.22
544.15	605.52
544.51	608.99
544.87	612.41
545.22	616.04
545.58	619.34
545.94	622.59
546.29	626.13
546.65	629.71
547.01	633.20
547.36	636.84
547.72	639.99
548.07	643.41
548.43	646.82
548.79	650.37
549.14	653.87
549.50	657.13
549.86	660.54
550.21	664.32
550.57	667.92
550.92	671.23
551.28	674.99
551.64	678.76
551.99	682.32
552.35	685.72
552.70	689.28
553.06	692.81
553.41	696.73
553.77	700.56
554.13	704.30
554.48	707.99
554.84	711.58
555.19	715.40
555.55	719.15
555.90	722.81
556.26	726.31
556.61	729.98
556.97	733.64
557.32	737.45
557.68	741.19
558.03	744.69
558.39	748.10
558.74	751.93
559.10	755.41
559.45	758.95
559.81	762.86
560.16	766.38
560.52	770.10
560.87	773.60
561.23	776.94
561.58	780.62
561.94	784.14
562.29	787.61
562.64	791.02
563.00	794.36
563.35	797.85
563.71	801.64
564.06	805.03
564.42	808.42
564.77	811.71
565.12	814.99
565.48	818.11
565.83	821.51
566.19	824.65
566.54	827.90
566.89	831.03
567.25	833.90
567.60	837.07
567.96	840.07
568.31	842.76
568.66	845.46
569.02	848.16
569.37	850.95
569.72	853.56
570.08	856.12
570.43	858.61
570.78	861.02
571.14	862.99
571.49	865.33
571.84	867.88
572.20	869.92
572.55	871.80
572.90	873.82
573.26	875.73
573.61	877.34
573.96	878.86
574.31	880.45
574.67	881.68
575.02	882.85
575.37	884.02
575.72	885.20
576.08	886.63
576.43	887.71
576.78	888.90
577.13	890.38
577.49	891.43
577.84	892.64
578.19	893.70
578.54	894.84
578.90	895.69
579.25	895.87
579.60	896.64
579.95	897.16
580.30	897.59
580.66	898.02
581.01	898.50
581.36	899.02
581.71	899.23
582.06	899.96
582.42	900.20
582.77	900.42
583.12	900.81
583.47	901.09
583.82	901.12
584.17	900.75
584.53	900.55
584.88	900.58
585.23	900.60
585.58	900.42
585.93	900.09
586.28	900.10
586.63	900.22
586.98	900.23
587.34	899.89
587.69	899.94
588.04	899.67
588.39	899.54
588.74	898.76
589.09	898.34
589.44	897.28
589.79	897.11
590.14	896.81
590.49	896.04
590.84	894.95
591.19	894.73
591.54	893.91
591.89	892.29
592.25	891.41
592.60	889.95
592.95	888.74
593.30	887.23
593.65	885.76
594.00	884.40
594.35	883.35
594.70	881.89
595.05	880.44
595.40	878.94
595.75	877.35
596.10	876.40
596.45	875.07
596.80	874.18
597.15	872.64
597.50	871.11
597.85	869.99
598.19	869.01
598.54	867.47
598.89	866.08
599.24	865.30
599.59	863.72
599.94	862.47
600.29	860.97
600.64	859.82
600.99	858.37
601.34	856.80
601.69	854.53
602.04	853.08
602.39	851.13
602.74	849.96
603.08	848.40
603.43	846.52
603.78	844.97
604.13	843.13
604.48	841.28
604.83	839.41
605.18	837.35
605.53	835.00
605.87	832.67
606.22	830.81
606.57	828.81
606.92	826.61
607.27	824.58
607.62	822.85
607.96	820.95
608.31	819.01
608.66	817.05
609.01	814.69
609.36	812.17
609.70	809.65
610.05	806.84
610.40	804.59
610.75	802.40
611.10	799.50
611.44	796.74
611.79	793.95
612.14	791.36
612.49	788.28
612.83	785.64
613.18	782.91
613.53	780.47
613.88	777.60
614.22	775.06
614.57	772.14
614.92	769.10
615.27	766.32
615.61	763.37
615.96	760.46
616.31	758.15
616.65	755.97
617.00	753.76
617.35	751.15
617.70	748.24
618.04	745.10
618.39	742.66
618.74	740.13
619.08	737.59
619.43	734.84
619.78	732.55
620.12	730.06
620.47	727.39
620.82	724.28
621.16	721.50
621.51	718.79
621.85	716.14
622.20	713.49
622.55	710.74
622.89	708.03
623.24	705.36
623.59	702.69
623.93	700.10
624.28	697.57
624.62	695.34
624.97	692.88
625.32	690.51
625.66	688.19
626.01	685.70
626.35	683.08
626.70	680.40
627.04	678.16
627.39	675.47
627.73	672.95
628.08	670.86
628.43	668.44
628.77	665.81
629.12	663.19
629.46	660.52
629.81	657.58
630.15	654.67
630.50	651.97
630.84	649.15
631.19	646.23
631.53	643.23
631.88	639.90
632.22	636.75
632.57	634.22
632.91	631.31
633.26	628.59
633.60	625.74
633.95	623.13
634.29	620.25
634.64	617.90
634.98	615.20
635.32	612.47
635.67	610.17
636.01	607.67
636.36	605.09
636.70	602.53
637.05	600.40
637.39	598.32
637.73	595.78
638.08	593.70
638.42	591.26
638.77	589.11
639.11	586.97
639.45	584.78
639.80	582.23
640.14	579.81
640.49	577.38
640.83	575.20
641.17	573.02
641.52	570.77
641.86	568.21
642.20	566.11
642.55	563.62
642.89	561.06
643.23	558.83
643.58	556.98
643.92	554.75
644.26	552.46
644.61	550.31
644.95	548.29
645.29	545.62
645.64	543.27
645.98	540.88
646.32	538.76
646.66	536.37
647.01	534.03
647.35	531.92
647.69	529.80
648.04	527.64
648.38	525.24
648.72	522.57
649.06	520.20
649.41	517.64
649.75	515.37
650.09	512.97
650.43	510.36
650.78	507.67
651.12	505.23
651.46	502.75
651.80	500.18
652.14	497.70
652.49	495.56
652.83	493.34
653.17	490.92
653.51	488.35
653.85	486.15
654.20	483.75
654.54	481.21
654.88	478.80
655.22	476.20
655.56	473.79
655.90	471.77
656.25	469.64
656.59	467.52
656.93	465.25
657.27	463.11
657.61	461.06
657.95	459.05
658.29	457.22
658.64	455.16
658.98	452.99
659.32	450.76
659.66	448.58
660.00	446.62
660.34	444.64
660.68	442.62
661.02	440.66
661.36	438.79
661.70	437.05
662.05	435.32
662.39	433.55
662.73	431.87
663.07	430.06
663.41	428.25
663.75	426.39
664.09	424.68
664.43	422.88
664.77	421.40
665.11	419.53
665.45	417.72
665.79	415.99
666.13	414.31
666.47	412.74
666.81	411.10
667.15	409.31
667.49	407.62
667.83	406.14
668.17	404.36
668.51	402.63
668.85	400.92
669.19	399.14
669.53	397.51
669.87	395.72
670.21	394.34
670.55	392.69
670.89	391.47
671.23	390.01
671.57	388.54
671.91	386.96
672.25	385.52
672.58	384.02
672.92	382.49
673.26	381.26
673.60	379.90
673.94	378.44
674.28	377.34
674.62	376.19
674.96	374.87
675.30	373.70
675.64	372.59
675.97	371.40
676.31	370.25
676.65	369.11
676.99	368.05
677.33	366.61
677.67	365.50
678.01	364.07
678.34	362.68
678.68	361.48
679.02	360.18
679.36	358.97
679.70	357.89
680.04	356.73
680.37	355.42
680.71	354.29
681.05	353.20
681.39	351.99
681.73	350.71
682.06	349.55
682.40	348.55
682.74	347.53
683.08	346.28
683.42	345.06
683.75	344.09
684.09	342.95
684.43	341.83
684.77	340.74
685.10	339.61
685.44	338.51
685.78	337.50
686.12	336.37
686.45	335.33
686.79	334.01
687.13	333.02
687.46	332.13
687.80	331.08
688.14	330.07
688.48	328.96
688.81	328.01
689.15	327.09
689.49	325.92
689.82	324.84
690.16	323.94
690.50	322.96
690.83	321.77
691.17	320.80
691.51	319.85
691.84	319.02
692.18	318.05
692.52	317.20
692.85	316.25
693.19	315.48
693.52	314.57
693.86	313.87
694.20	313.02
694.53	312.02
694.87	311.12
695.21	310.20
695.54	309.27
695.88	308.19
696.21	307.36
696.55	306.61
696.88	305.76
697.22	304.89
697.56	304.03
697.89	303.27
698.23	302.48
698.56	301.62
698.90	300.71
699.23	299.85
699.57	299.18
699.90	298.28
700.24	297.39
700.58	296.63
700.91	295.84
701.25	295.24
701.58	294.60
701.92	293.93
702.25	293.35
702.59	292.67
702.92	292.10
703.26	291.37
703.59	290.70
703.93	290.20
704.26	289.59
704.60	288.91
704.93	288.28
705.26	287.53
705.60	286.97
705.93	286.41
706.27	286.09
706.60	285.43
706.94	285.00
707.27	284.44
707.61	283.82
707.94	283.25
708.27	282.46
708.61	281.93
708.94	281.38
709.28	280.77
709.61	280.31
709.94	279.81
710.28	279.17
710.61	278.65
710.95	277.92
711.28	277.44
711.61	276.97
711.95	276.48
712.28	276.08
712.61	275.54
712.95	275.03
713.28	274.58
713.61	274.04
713.95	273.48
714.28	273.00
714.61	272.59
714.95	272.07
715.28	271.74
715.61	271.18
715.95	270.73
716.28	270.26
716.61	269.76
716.95	269.39
717.28	268.92
717.61	268.41
717.94	268.04
718.28	267.69
718.61	267.29
718.94	266.76
719.27	266.34
719.61	266.04
719.94	265.58
720.27	264.98
720.60	264.64
720.94	264.21
721.27	263.88
721.60	263.53
721.93	263.29
722.27	262.94
722.60	262.71
722.93	262.32
723.26	261.97
723.59	261.57
723.93	261.21
724.26	260.92
724.59	260.70
724.92	260.30
725.25	259.92
725.59	259.54
725.92	259.37
726.25	259.06
726.58	258.78
726.91	258.65
727.24	258.33
727.57	258.03
727.91	257.77
728.24	257.46
728.57	257.09
728.90	256.68
729.23	256.30
729.56	255.94
729.89	255.71
730.22	255.39
730.55	255.20
730.89	254.87
731.22	254.65
731.55	254.32
731.88	254.17
732.21	253.90
732.54	253.67
732.87	253.40
733.20	253.14
733.53	252.88
733.86	252.60
734.19	252.44
734.52	252.19
734.85	252.09
735.18	251.78
735.51	251.62
735.84	251.38
736.17	251.17
736.50	250.85
736.83	250.84
737.16	250.70
737.49	250.47
737.82	250.27
738.15	250.08
738.48	249.76
738.81	249.50
739.14	249.13
739.47	248.87
739.80	248.62
740.13	248.31
740.46	247.97
740.79	247.59
741.12	247.24
741.45	247.05
741.78	246.64
742.11	246.54
742.44	246.29
742.77	246.19
743.10	245.95
743.43	245.79
743.75	245.36
744.08	245.32
744.41	245.08
744.74	244.81
745.07	244.49
745.40	244.36
745.73	244.25
746.06	244.12
746.39	243.95
746.71	243.80
747.04	243.69
747.37	243.54
747.70	243.46
748.03	243.36
748.36	243.22
748.68	243.11
749.01	242.90
749.34	242.70
749.67	242.50
750.00	242.36
750.33	242.35
750.65	242.26
750.98	241.96
751.31	241.83
751.64	241.78
751.97	241.80
752.29	241.71
752.62	241.44
752.95	241.25
753.28	241.12
753.60	240.92
753.93	240.83
754.26	240.76
754.59	240.55
754.91	240.38
755.24	240.20
755.57	240.05
755.90	239.85
756.22	239.83
756.55	239.69
756.88	239.53
757.20	239.37
757.53	239.12
757.86	239.03
758.19	238.96
758.51	238.77
758.84	238.67
759.17	238.46
759.49	238.41
759.82	238.58
760.15	238.54
760.47	238.43
760.80	238.35
761.13	238.22
761.45	238.22
761.78	238.19
762.11	238.13
762.43	238.05
762.76	238.03
763.08	237.93
763.41	237.88
763.74	237.90
764.06	237.64
764.39	237.58
764.71	237.42
765.04	237.33
765.37	237.25
765.69	237.12
766.02	237.08
766.34	236.92
766.67	236.70
767.00	236.60
767.32	236.61
767.65	236.58
767.97	236.52
768.30	236.41
768.62	236.24
768.95	236.18
769.27	236.24
769.60	236.15
769.92	235.93
770.25	235.75
770.57	235.60
770.90	235.70
771.22	235.60
771.55	235.51
771.87	235.41
772.20	235.36
772.52	235.26
772.85	235.41
773.17	235.35
773.50	235.17
773.82	235.18
774.15	235.09
774.47	234.89
774.80	234.79
775.12	234.65
775.45	234.68
775.77	234.55
776.09	234.31
776.42	234.28
776.74	234.37
777.07	234.32
777.39	234.19
777.72	234.01
778.04	233.99
778.36	233.89
778.69	233.80
779.01	233.75
779.33	233.66
779.66	233.33
779.98	233.25
780.31	233.28
780.63	233.17
780.95	233.15
781.28	233.11
781.60	233.07
781.92	233.06
782.25	232.88
782.57	232.84
782.89	232.77
783.22	232.61
783.54	232.51
783.86	232.52
784.19	232.49
784.51	232.47
784.83	232.40
785.16	232.43
785.48	232.42
785.80	232.41
786.12	232.32
786.45	232.32
786.77	232.30
787.09	232.21
787.42	232.10
787.74	232.06
788.06	232.01
788.38	231.96
788.71	231.82
789.03	231.83
789.35	231.78
789.67	231.77
789.99	231.86
790.32	231.76
790.64	231.77
790.96	231.94
791.28	231.83
791.61	231.84
791.93	231.74
792.25	231.67
792.57	231.66
792.89	231.72
793.21	231.73
793.54	231.76
793.86	231.70
794.18	231.76
