SpectraSuite Data File
++++++++++++++++++++++++++++++++++++
Date: Fri Feb 01 14:37:09 EST 2013
User: group
Dark Spectrum Present: No
Reference Spectrum Present: No
Number of Sampled Component Spectra: 1
Spectrometers: USB2E7196
Integration Time (usec): 70000 (USB2E7196)
Spectra Averaged: 10 (USB2E7196)
Boxcar Smoothing: 10 (USB2E7196)
Correct for Electrical Dark: No (USB2E7196)
Strobe/Lamp Enabled: No (USB2E7196)
Correct for Detector Non-linearity: No (USB2E7196)
Correct for Stray Light: No (USB2E7196)
Number of Pixels in Processed Spectrum: 2048
>>>>>Begin Processed Spectral Data<<<<<
339.09	0.00
339.48	216.40
339.86	217.30
340.24	218.40
340.63	221.30
341.01	224.60
341.39	222.50
341.78	223.30
342.16	225.30
342.54	226.00
342.93	214.42
343.31	225.21
343.69	225.76
344.07	226.22
344.46	226.59
344.84	226.91
345.22	227.09
345.60	227.30
345.99	227.56
346.37	227.71
346.75	227.84
347.13	227.91
347.52	227.97
347.90	228.07
348.28	228.07
348.66	228.05
349.05	227.89
349.43	228.04
349.81	228.22
350.19	228.11
350.57	228.24
350.96	228.19
351.34	228.28
351.72	228.28
352.10	228.40
352.48	228.47
352.87	228.60
353.25	228.55
353.63	228.70
354.01	228.66
354.39	228.65
354.77	228.78
355.15	228.85
355.54	228.89
355.92	228.88
356.30	228.99
356.68	229.16
357.06	229.35
357.44	229.34
357.82	229.40
358.20	229.51
358.58	229.57
358.97	229.61
359.35	229.70
359.73	229.82
360.11	229.92
360.49	230.06
360.87	229.96
361.25	230.21
361.63	230.24
362.01	230.44
362.39	230.48
362.77	230.47
363.15	230.48
363.53	230.55
363.91	230.69
364.29	230.60
364.67	230.52
365.05	230.53
365.43	230.59
365.81	230.53
366.19	230.68
366.57	230.69
366.95	230.69
367.33	230.64
367.71	230.70
368.09	230.60
368.47	230.59
368.85	230.65
369.23	230.54
369.61	230.53
369.99	230.48
370.37	230.45
370.75	230.46
371.13	230.36
371.51	230.22
371.89	230.09
372.27	230.12
372.65	230.00
373.03	229.88
373.41	229.77
373.78	229.78
374.16	229.61
374.54	229.55
374.92	229.60
375.30	229.51
375.68	229.30
376.06	229.22
376.44	229.12
376.82	228.98
377.19	228.83
377.57	228.70
377.95	228.65
378.33	228.59
378.71	228.42
379.09	228.40
379.47	228.38
379.84	228.23
380.22	228.19
380.60	228.18
380.98	228.14
381.36	228.00
381.73	227.76
382.11	227.66
382.49	227.60
382.87	227.42
383.25	227.39
383.62	227.51
384.00	227.46
384.38	227.41
384.76	227.45
385.13	227.59
385.51	227.47
385.89	227.27
386.27	227.17
386.64	227.23
387.02	227.23
387.40	227.21
387.78	227.27
388.15	227.22
388.53	227.08
388.91	227.02
389.29	227.01
389.66	227.16
390.04	227.17
390.42	227.15
390.79	227.09
391.17	227.17
391.55	227.00
391.92	226.94
392.30	226.93
392.68	226.87
393.05	226.72
393.43	226.81
393.81	226.92
394.18	226.88
394.56	226.79
394.94	226.89
395.31	226.83
395.69	226.85
396.06	226.84
396.44	226.81
396.82	226.79
397.19	226.94
397.57	226.85
397.95	226.94
398.32	226.90
398.70	227.04
399.07	227.10
399.45	227.30
399.82	227.38
400.20	227.41
400.58	227.58
400.95	227.68
401.33	227.78
401.70	227.98
402.08	228.18
402.45	228.31
402.83	228.44
403.20	228.67
403.58	228.80
403.95	229.10
404.33	229.40
404.71	229.69
405.08	229.98
405.46	230.25
405.83	230.50
406.21	230.83
406.58	231.00
406.96	231.24
407.33	231.40
407.70	231.72
408.08	232.25
408.45	232.50
408.83	232.87
409.20	233.18
409.58	233.45
409.95	233.82
410.33	234.19
410.70	234.47
411.08	234.86
411.45	235.40
411.82	235.79
412.20	236.48
412.57	237.10
412.95	237.40
413.32	238.04
413.69	238.69
414.07	239.34
414.44	240.20
414.82	241.06
415.19	242.04
415.56	243.02
415.94	243.78
416.31	244.92
416.68	245.91
417.06	247.13
417.43	248.31
417.81	249.79
418.18	251.20
418.55	252.67
418.93	254.24
419.30	255.82
419.67	257.47
420.04	259.12
420.42	260.92
420.79	263.21
421.16	265.32
421.54	267.47
421.91	269.78
422.28	272.19
422.66	274.58
423.03	276.89
423.40	279.26
423.77	282.02
424.15	284.65
424.52	287.48
424.89	290.52
425.26	293.46
425.64	296.20
426.01	299.16
426.38	302.48
426.75	305.77
427.13	309.13
427.50	312.63
427.87	316.20
428.24	319.79
428.61	323.16
428.99	326.96
429.36	331.17
429.73	335.25
430.10	339.20
430.47	343.39
430.85	347.66
431.22	352.08
431.59	356.89
431.96	361.54
432.33	366.64
432.70	371.62
433.08	377.42
433.45	382.82
433.82	388.28
434.19	394.20
434.56	399.97
434.93	405.42
435.30	410.96
435.68	417.19
436.05	423.24
436.42	429.17
436.79	434.66
437.16	440.35
437.53	446.40
437.90	452.63
438.27	458.53
438.64	464.79
439.01	470.76
439.38	475.94
439.75	480.88
440.13	486.48
440.50	491.72
440.87	496.12
441.24	500.66
441.61	505.80
441.98	509.53
442.35	513.97
442.72	518.55
443.09	522.96
443.46	525.64
443.83	527.53
444.20	529.44
444.57	531.98
444.94	533.43
445.31	535.03
445.68	536.28
446.05	537.30
446.42	537.20
446.79	537.00
447.16	536.88
447.53	537.15
447.90	535.55
448.27	533.84
448.64	531.11
449.01	529.56
449.37	526.10
449.74	522.79
450.11	518.61
450.48	514.08
450.85	509.59
451.22	505.72
451.59	502.28
451.96	498.78
452.33	493.68
452.70	489.22
453.07	483.76
453.43	478.27
453.80	472.86
454.17	467.64
454.54	462.77
454.91	457.14
455.28	451.58
455.65	446.68
456.02	441.79
456.38	437.61
456.75	432.22
457.12	427.63
457.49	423.18
457.86	418.91
458.23	415.24
458.59	410.90
458.96	406.61
459.33	402.62
459.70	398.70
460.07	395.63
460.43	392.10
460.80	388.66
461.17	385.70
461.54	382.44
461.91	379.60
462.27	376.53
462.64	374.10
463.01	371.30
463.38	368.51
463.74	365.62
464.11	363.30
464.48	361.16
464.85	358.83
465.21	356.98
465.58	355.03
465.95	352.63
466.32	350.84
466.68	349.06
467.05	347.27
467.42	345.33
467.78	343.39
468.15	341.50
468.52	339.92
468.88	338.03
469.25	336.40
469.62	334.90
469.98	333.33
470.35	331.83
470.72	330.44
471.08	328.98
471.45	327.72
471.82	326.26
472.18	324.87
472.55	323.87
472.92	322.60
473.28	321.53
473.65	320.30
474.02	319.13
474.38	318.06
474.75	317.17
475.11	316.15
475.48	315.37
475.85	314.64
476.21	314.04
476.58	313.37
476.94	312.94
477.31	312.40
477.67	311.93
478.04	311.40
478.41	311.03
478.77	310.77
479.14	310.30
479.50	309.93
479.87	309.67
480.23	309.37
480.60	309.15
480.96	308.80
481.33	308.88
481.69	308.74
482.06	308.61
482.42	308.36
482.79	308.31
483.15	308.26
483.52	308.32
483.88	308.23
484.25	308.26
484.61	308.25
484.98	308.29
485.34	308.38
485.71	308.57
486.07	308.72
486.44	308.86
486.80	309.29
487.17	309.66
487.53	309.94
487.90	310.44
488.26	310.83
488.62	311.30
488.99	311.66
489.35	312.13
489.72	312.69
490.08	313.33
490.44	314.12
490.81	314.87
491.17	315.46
491.54	316.24
491.90	317.01
492.26	317.83
492.63	318.72
492.99	319.50
493.36	320.27
493.72	321.19
494.08	322.02
494.45	323.00
494.81	323.90
495.17	324.77
495.54	325.73
495.90	326.78
496.26	327.70
496.63	328.80
496.99	329.80
497.35	330.83
497.72	331.84
498.08	332.69
498.44	333.69
498.80	334.72
499.17	335.73
499.53	336.62
499.89	337.60
500.26	338.35
500.62	339.37
500.98	340.44
501.34	341.22
501.71	342.19
502.07	342.93
502.43	343.81
502.79	344.63
503.16	345.36
503.52	346.05
503.88	346.81
504.24	347.41
504.60	348.02
504.97	348.64
505.33	349.15
505.69	350.02
506.05	350.63
506.41	351.13
506.78	351.61
507.14	352.09
507.50	352.51
507.86	353.10
508.22	353.44
508.59	353.72
508.95	354.20
509.31	354.51
509.67	354.75
510.03	355.07
510.39	355.38
510.75	355.72
511.12	355.90
511.48	356.07
511.84	356.30
512.20	356.44
512.56	356.58
512.92	356.83
513.28	356.76
513.64	356.68
514.00	356.81
514.37	356.83
514.73	356.88
515.09	356.84
515.45	356.69
515.81	356.77
516.17	356.79
516.53	356.64
516.89	356.60
517.25	356.70
517.61	356.74
517.97	356.90
518.33	356.84
518.69	356.94
519.05	357.05
519.41	357.26
519.77	357.60
520.13	357.87
520.49	357.90
520.85	358.17
521.21	358.32
521.57	358.84
521.93	359.27
522.29	359.76
522.65	360.20
523.01	360.85
523.37	361.29
523.73	362.08
524.09	362.74
524.45	363.38
524.81	364.25
525.17	365.05
525.53	365.92
525.89	366.86
526.25	367.87
526.61	368.82
526.97	370.00
527.33	371.17
527.68	372.53
528.04	374.07
528.40	375.43
528.76	377.20
529.12	378.56
529.48	380.39
529.84	382.18
530.20	383.94
530.56	385.95
530.91	388.15
531.27	390.04
531.63	392.23
531.99	394.57
532.35	396.87
532.71	399.40
533.07	401.89
533.42	404.69
533.78	407.35
534.14	410.07
534.50	412.73
534.86	415.64
535.21	418.48
535.57	421.44
535.93	424.67
536.29	427.70
536.65	431.06
537.00	434.13
537.36	437.38
537.72	440.97
538.08	444.39
538.44	447.78
538.79	451.45
539.15	454.93
539.51	458.58
539.87	462.28
540.22	465.82
540.58	469.71
540.94	473.53
541.29	477.35
541.65	481.45
542.01	485.58
542.37	489.70
542.72	493.76
543.08	497.79
543.44	501.91
543.79	506.01
544.15	510.43
544.51	515.02
544.87	519.49
545.22	523.70
545.58	528.18
545.94	532.33
546.29	536.76
546.65	541.39
547.01	545.78
547.36	550.24
547.72	555.00
548.07	559.66
548.43	563.92
548.79	568.54
549.14	572.98
549.50	577.29
549.86	581.63
550.21	586.24
550.57	590.81
550.92	595.25
551.28	599.95
551.64	604.22
551.99	608.43
552.35	612.88
552.70	617.65
553.06	622.10
553.41	626.75
553.77	631.21
554.13	635.77
554.48	640.61
554.84	644.94
555.19	649.28
555.55	653.81
555.90	658.40
556.26	662.87
556.61	667.38
556.97	671.77
557.32	676.37
557.68	680.68
558.03	685.26
558.39	689.82
558.74	694.37
559.10	698.70
559.45	703.16
559.81	707.69
560.16	711.73
560.52	715.91
560.87	720.40
561.23	724.51
561.58	728.93
561.94	732.99
562.29	737.18
562.64	741.25
563.00	745.08
563.35	749.22
563.71	753.29
564.06	757.38
564.42	761.40
564.77	765.29
565.12	769.43
565.48	773.25
565.83	776.90
566.19	780.61
566.54	784.32
566.89	788.10
567.25	791.60
567.60	795.56
567.96	799.58
568.31	802.97
568.66	806.63
569.02	809.76
569.37	812.94
569.72	816.29
570.08	819.70
570.43	822.89
570.78	825.91
571.14	828.65
571.49	831.60
571.84	834.70
572.20	837.60
572.55	839.95
572.90	842.50
573.26	845.10
573.61	847.44
573.96	849.95
574.31	852.10
574.67	854.22
575.02	855.98
575.37	857.51
575.72	859.32
576.08	861.15
576.43	863.01
576.78	864.79
577.13	866.83
577.49	868.29
577.84	869.60
578.19	871.02
578.54	872.48
578.90	873.80
579.25	874.72
579.60	875.46
579.95	876.39
580.30	877.43
580.66	878.30
581.01	879.32
581.36	879.99
581.71	880.92
582.06	881.64
582.42	882.43
582.77	883.15
583.12	883.77
583.47	884.09
583.82	884.70
584.17	884.91
584.53	884.95
584.88	885.10
585.23	885.84
585.58	886.27
585.93	886.62
586.28	886.85
586.63	887.36
586.98	887.77
587.34	888.27
587.69	888.30
588.04	888.67
588.39	888.81
588.74	888.41
589.09	887.97
589.44	887.57
589.79	887.44
590.14	887.20
590.49	887.10
590.84	886.96
591.19	886.32
591.54	885.92
591.89	884.94
592.25	884.61
592.60	883.42
592.95	882.66
593.30	881.85
593.65	880.89
594.00	879.91
594.35	879.37
594.70	878.20
595.05	877.54
595.40	876.14
595.75	874.88
596.10	874.14
596.45	873.44
596.80	872.72
597.15	871.73
597.50	870.59
597.85	869.48
598.19	868.59
598.54	867.83
598.89	866.68
599.24	866.13
599.59	864.94
599.94	864.13
600.29	862.78
600.64	861.42
600.99	860.06
601.34	858.68
601.69	856.92
602.04	855.55
602.39	853.90
602.74	852.74
603.08	851.31
603.43	850.12
603.78	848.56
604.13	846.83
604.48	845.11
604.83	843.60
605.18	842.15
605.53	840.02
605.87	837.84
606.22	836.55
606.57	834.62
606.92	832.65
607.27	830.89
607.62	829.18
607.96	827.72
608.31	826.05
608.66	824.21
609.01	822.25
609.36	820.08
609.70	817.94
610.05	815.60
610.40	813.71
610.75	811.30
611.10	808.93
611.44	806.57
611.79	804.43
612.14	802.13
612.49	799.26
612.83	796.90
613.18	794.70
613.53	792.21
613.88	789.67
614.22	787.40
614.57	784.50
614.92	781.70
615.27	779.13
615.61	776.42
615.96	773.69
616.31	771.44
616.65	769.75
617.00	767.20
617.35	764.88
617.70	762.01
618.04	759.53
618.39	756.86
618.74	754.70
619.08	751.74
619.43	749.20
619.78	746.76
620.12	744.23
620.47	741.68
620.82	738.82
621.16	736.28
621.51	733.90
621.85	731.57
622.20	729.18
622.55	726.66
622.89	724.35
623.24	722.07
623.59	719.51
623.93	716.68
624.28	714.27
624.62	711.97
624.97	709.71
625.32	707.30
625.66	705.01
626.01	702.43
626.35	700.19
626.70	697.59
627.04	695.19
627.39	692.68
627.73	690.00
628.08	687.48
628.43	685.05
628.77	682.34
629.12	679.58
629.46	676.99
629.81	674.10
630.15	671.21
630.50	668.37
630.84	665.44
631.19	662.28
631.53	659.63
631.88	656.45
632.22	653.48
632.57	650.83
632.91	648.02
633.26	645.10
633.60	642.03
633.95	639.32
634.29	636.76
634.64	634.22
634.98	631.74
635.32	629.33
635.67	626.86
636.01	624.28
636.36	621.64
636.70	619.19
637.05	616.70
637.39	614.47
637.73	611.91
638.08	609.74
638.42	607.57
638.77	605.15
639.11	602.69
639.45	600.19
639.80	597.59
640.14	595.16
640.49	592.70
640.83	590.48
641.17	588.35
641.52	585.74
641.86	583.27
642.20	580.87
642.55	578.19
642.89	575.77
643.23	573.40
643.58	571.36
643.92	568.89
644.26	566.51
644.61	564.25
644.95	562.02
645.29	559.27
645.64	556.59
645.98	553.91
646.32	551.88
646.66	549.60
647.01	547.21
647.35	544.86
647.69	542.75
648.04	540.50
648.38	537.80
648.72	535.45
649.06	533.00
649.41	530.42
649.75	527.97
650.09	525.39
650.43	522.95
650.78	520.18
651.12	517.61
651.46	515.19
651.80	512.52
652.14	510.12
652.49	507.90
652.83	505.79
653.17	503.56
653.51	501.12
653.85	498.70
654.20	496.17
654.54	493.73
654.88	491.10
655.22	488.75
655.56	486.28
655.90	484.04
656.25	481.94
656.59	479.94
656.93	477.91
657.27	475.80
657.61	473.31
657.95	471.31
658.29	469.21
658.64	467.20
658.98	465.01
659.32	462.82
659.66	460.57
660.00	458.44
660.34	456.37
660.68	454.10
661.02	451.97
661.36	450.16
661.70	448.25
662.05	446.45
662.39	444.50
662.73	442.85
663.07	441.04
663.41	439.20
663.75	437.14
664.09	435.24
664.43	433.31
664.77	431.69
665.11	430.00
665.45	428.33
665.79	426.39
666.13	424.65
666.47	422.99
666.81	421.22
667.15	419.34
667.49	417.67
667.83	416.09
668.17	414.47
668.51	412.63
668.85	410.97
669.19	409.25
669.53	407.45
669.87	405.62
670.21	403.84
670.55	402.13
670.89	400.80
671.23	399.23
671.57	397.73
671.91	396.05
672.25	394.33
672.58	392.78
672.92	391.31
673.26	389.82
673.60	388.41
673.94	387.06
674.28	385.75
674.62	384.33
674.96	382.80
675.30	381.40
675.64	380.10
675.97	378.77
676.31	377.38
676.65	376.21
676.99	375.03
677.33	373.57
677.67	372.21
678.01	370.59
678.34	369.38
678.68	367.85
679.02	366.47
679.36	365.20
679.70	363.90
680.04	362.51
680.37	361.16
680.71	359.70
681.05	358.39
681.39	357.14
681.73	355.92
682.06	354.83
682.40	353.66
682.74	352.53
683.08	351.26
683.42	350.00
683.75	348.77
684.09	347.43
684.43	346.29
684.77	345.11
685.10	344.11
685.44	342.72
685.78	341.77
686.12	340.72
686.45	339.57
686.79	338.40
687.13	337.43
687.46	336.40
687.80	335.35
688.14	334.23
688.48	333.21
688.81	332.03
689.15	330.90
689.49	329.85
689.82	328.80
690.16	327.63
690.50	326.65
690.83	325.56
691.17	324.63
691.51	323.70
691.84	322.71
692.18	321.50
692.52	320.58
692.85	319.54
693.19	318.66
693.52	317.76
693.86	316.83
694.20	315.88
694.53	314.90
694.87	313.99
695.21	313.03
695.54	311.96
695.88	311.03
696.21	310.00
696.55	309.18
696.88	308.17
697.22	307.31
697.56	306.52
697.89	305.77
698.23	304.90
698.56	304.06
698.90	303.26
699.23	302.46
699.57	301.79
699.90	300.98
700.24	300.12
700.58	299.21
700.91	298.41
701.25	297.78
701.58	297.11
701.92	296.50
702.25	295.86
702.59	295.20
702.92	294.60
703.26	293.96
703.59	293.23
703.93	292.87
704.26	292.34
704.60	291.71
704.93	290.96
705.26	290.24
705.60	289.64
705.93	288.98
706.27	288.44
706.60	287.76
706.94	287.21
707.27	286.61
707.61	286.14
707.94	285.59
708.27	284.97
708.61	284.31
708.94	283.69
709.28	283.04
709.61	282.58
709.94	282.02
710.28	281.60
710.61	281.04
710.95	280.35
711.28	280.00
711.61	279.46
711.95	279.04
712.28	278.53
712.61	277.91
712.95	277.46
713.28	276.99
713.61	276.41
713.95	275.90
714.28	275.37
714.61	274.88
714.95	274.41
715.28	273.83
715.61	273.24
715.95	272.73
716.28	272.35
716.61	271.91
716.95	271.25
717.28	270.65
717.61	270.10
717.94	269.55
718.28	268.87
718.61	268.33
718.94	267.81
719.27	267.41
719.61	267.05
719.94	266.57
720.27	266.12
720.60	265.71
720.94	265.31
721.27	264.98
721.60	264.57
721.93	264.17
722.27	263.80
722.60	263.57
722.93	263.14
723.26	262.75
723.59	262.15
723.93	261.91
724.26	261.78
724.59	261.52
724.92	261.19
725.25	260.96
725.59	260.76
725.92	260.45
726.25	260.12
726.58	259.85
726.91	259.50
727.24	259.12
727.57	258.85
727.91	258.42
728.24	257.99
728.57	257.63
728.90	257.41
729.23	257.10
729.56	256.92
729.89	256.59
730.22	256.23
730.55	255.96
730.89	255.60
731.22	255.16
731.55	254.86
731.88	254.57
732.21	254.10
732.54	253.67
732.87	253.38
733.20	253.10
733.53	252.80
733.86	252.55
734.19	252.36
734.52	252.04
734.85	252.00
735.18	251.77
735.51	251.68
735.84	251.36
736.17	251.13
736.50	250.73
736.83	250.73
737.16	250.59
737.49	250.47
737.82	250.37
738.15	250.16
738.48	249.88
738.81	249.54
739.14	249.40
739.47	249.17
739.80	248.92
740.13	248.81
740.46	248.45
740.79	248.25
741.12	248.10
741.45	247.96
741.78	247.59
742.11	247.49
742.44	247.16
742.77	246.91
743.10	246.74
743.43	246.55
743.75	246.25
744.08	246.24
744.41	246.08
744.74	245.81
745.07	245.57
745.40	245.46
745.73	245.47
746.06	245.35
746.39	245.21
746.71	245.08
747.04	244.88
747.37	244.82
747.70	244.64
748.03	244.39
748.36	244.28
748.68	244.23
749.01	244.00
749.34	243.87
749.67	243.77
750.00	243.59
750.33	243.55
750.65	243.39
750.98	242.97
751.31	242.78
751.64	242.72
751.97	242.67
752.29	242.51
752.62	242.32
752.95	242.11
753.28	242.00
753.60	241.81
753.93	241.74
754.26	241.62
754.59	241.54
754.91	241.41
755.24	241.19
755.57	241.02
755.90	240.83
756.22	240.68
756.55	240.43
756.88	240.22
757.20	240.05
757.53	239.82
757.86	239.74
758.19	239.67
758.51	239.50
758.84	239.31
759.17	239.14
759.49	239.05
759.82	239.02
760.15	238.90
760.47	238.79
760.80	238.50
761.13	238.48
761.45	238.26
761.78	238.13
762.11	238.02
762.43	237.91
762.76	237.90
763.08	237.82
763.41	237.81
763.74	237.69
764.06	237.55
764.39	237.55
764.71	237.48
765.04	237.30
765.37	237.20
765.69	237.16
766.02	237.17
766.34	236.95
766.67	236.72
767.00	236.61
767.32	236.66
767.65	236.81
767.97	236.49
768.30	236.46
768.62	236.38
768.95	236.24
769.27	235.96
769.60	235.88
769.92	235.80
770.25	235.65
770.57	235.53
770.90	235.38
771.22	235.22
771.55	235.07
771.87	235.03
772.20	234.86
772.52	234.92
772.85	234.92
773.17	234.85
773.50	234.83
773.82	234.74
774.15	234.48
774.47	234.13
774.80	234.17
775.12	234.06
775.45	233.86
775.77	233.94
776.09	234.02
776.42	233.87
776.74	233.81
777.07	233.72
777.39	233.62
777.72	233.63
778.04	233.59
778.36	233.51
778.69	233.37
779.01	233.40
779.33	233.16
779.66	232.97
779.98	232.86
780.31	232.73
780.63	232.79
780.95	232.86
781.28	232.90
781.60	232.79
781.92	232.71
782.25	232.74
782.57	232.58
782.89	232.45
783.22	232.41
783.54	232.30
783.86	232.28
784.19	232.36
784.51	232.38
784.83	232.29
785.16	232.33
785.48	232.46
785.80	232.39
786.12	232.43
786.45	232.35
786.77	232.46
787.09	232.58
787.42	232.55
787.74	232.41
788.06	232.46
788.38	232.50
788.71	232.51
789.03	232.55
789.35	232.77
789.67	232.78
789.99	232.80
790.32	232.75
790.64	232.76
790.96	232.82
791.28	232.71
791.61	232.75
791.93	232.67
792.25	232.57
792.57	232.80
792.89	232.60
793.21	232.55
793.54	232.57
793.86	232.50
794.18	232.45
