SpectraSuite Data File
++++++++++++++++++++++++++++++++++++
Date: Fri Feb 01 14:35:05 EST 2013
User: group
Dark Spectrum Present: No
Reference Spectrum Present: No
Number of Sampled Component Spectra: 1
Spectrometers: USB2E7196
Integration Time (usec): 70000 (USB2E7196)
Spectra Averaged: 10 (USB2E7196)
Boxcar Smoothing: 10 (USB2E7196)
Correct for Electrical Dark: No (USB2E7196)
Strobe/Lamp Enabled: No (USB2E7196)
Correct for Detector Non-linearity: No (USB2E7196)
Correct for Stray Light: No (USB2E7196)
Number of Pixels in Processed Spectrum: 2048
>>>>>Begin Processed Spectral Data<<<<<
339.09	0.00
339.48	217.30
339.86	217.60
340.24	219.10
340.63	220.90
341.01	224.20
341.39	223.10
341.78	222.50
342.16	225.80
342.54	226.70
342.93	214.60
343.31	225.49
343.69	225.98
344.07	226.47
344.46	226.85
344.84	227.16
345.22	227.33
345.60	227.56
345.99	227.90
346.37	228.07
346.75	228.17
347.13	228.19
347.52	228.26
347.90	228.32
348.28	228.31
348.66	228.41
349.05	228.45
349.43	228.49
349.81	228.53
350.19	228.51
350.57	228.67
350.96	228.80
351.34	228.87
351.72	228.97
352.10	229.08
352.48	229.20
352.87	229.33
353.25	229.42
353.63	229.48
354.01	229.41
354.39	229.50
354.77	229.45
355.15	229.62
355.54	229.67
355.92	229.64
356.30	229.72
356.68	229.94
357.06	230.03
357.44	229.98
357.82	230.05
358.20	230.20
358.58	230.20
358.97	230.28
359.35	230.33
359.73	230.36
360.11	230.41
360.49	230.55
360.87	230.65
361.25	230.70
361.63	230.87
362.01	230.98
362.39	230.92
362.77	231.07
363.15	231.03
363.53	231.10
363.91	231.22
364.29	231.20
364.67	230.98
365.05	230.99
365.43	231.10
365.81	231.04
366.19	231.04
366.57	231.16
366.95	231.08
367.33	231.04
367.71	231.05
368.09	230.93
368.47	230.79
368.85	230.73
369.23	230.74
369.61	230.57
369.99	230.61
370.37	230.56
370.75	230.58
371.13	230.53
371.51	230.44
371.89	230.31
372.27	230.22
372.65	230.17
373.03	230.08
373.41	229.96
373.78	229.85
374.16	229.81
374.54	229.66
374.92	229.61
375.30	229.60
375.68	229.51
376.06	229.58
376.44	229.53
376.82	229.42
377.19	229.34
377.57	229.27
377.95	229.11
378.33	229.04
378.71	228.84
379.09	228.73
379.47	228.75
379.84	228.62
380.22	228.55
380.60	228.40
380.98	228.29
381.36	228.27
381.73	228.24
382.11	228.17
382.49	228.17
382.87	228.12
383.25	228.08
383.62	228.26
384.00	228.10
384.38	228.02
384.76	228.01
385.13	227.99
385.51	227.98
385.89	227.93
386.27	227.87
386.64	227.90
387.02	227.88
387.40	227.79
387.78	227.84
388.15	227.83
388.53	227.86
388.91	227.88
389.29	227.77
389.66	227.75
390.04	227.64
390.42	227.63
390.79	227.61
391.17	227.46
391.55	227.21
391.92	227.17
392.30	227.21
392.68	227.08
393.05	227.10
393.43	227.01
393.81	227.04
394.18	227.13
394.56	227.14
394.94	227.28
395.31	227.26
395.69	227.43
396.06	227.49
396.44	227.54
396.82	227.61
397.19	227.86
397.57	227.91
397.95	228.07
398.32	228.06
398.70	228.13
399.07	228.42
399.45	228.53
399.82	228.64
400.20	228.80
400.58	229.07
400.95	229.10
401.33	229.36
401.70	229.68
402.08	229.82
402.45	229.94
402.83	230.11
403.20	230.34
403.58	230.46
403.95	230.70
404.33	230.95
404.71	231.16
405.08	231.45
405.46	231.85
405.83	232.13
406.21	232.50
406.58	232.91
406.96	233.03
407.33	233.44
407.70	233.90
408.08	234.39
408.45	234.75
408.83	235.35
409.20	235.79
409.58	236.19
409.95	236.72
410.33	237.38
410.70	237.85
411.08	238.62
411.45	239.36
411.82	240.09
412.20	241.00
412.57	242.11
412.95	242.85
413.32	243.77
413.69	244.78
414.07	245.81
414.44	246.99
414.82	248.40
415.19	249.87
415.56	251.38
415.94	252.88
416.31	254.80
416.68	256.54
417.06	258.56
417.43	260.43
417.81	262.63
418.18	264.95
418.55	267.42
418.93	269.84
419.30	272.43
419.67	275.36
420.04	278.15
420.42	281.09
420.79	284.49
421.16	287.93
421.54	291.41
421.91	295.08
422.28	298.80
422.66	302.79
423.03	306.61
423.40	310.74
423.77	315.10
424.15	319.38
424.52	323.90
424.89	328.83
425.26	333.68
425.64	338.20
426.01	343.16
426.38	348.44
426.75	353.73
427.13	359.19
427.50	364.78
427.87	370.76
428.24	376.55
428.61	382.24
428.99	388.44
429.36	395.41
429.73	402.15
430.10	408.63
430.47	415.37
430.85	422.40
431.22	429.58
431.59	437.26
431.96	444.67
432.33	452.95
432.70	460.99
433.08	470.31
433.45	479.12
433.82	487.90
434.19	497.65
434.56	507.18
434.93	516.15
435.30	525.29
435.68	535.20
436.05	545.01
436.42	554.79
436.79	563.74
437.16	573.36
437.53	583.30
437.90	593.49
438.27	603.32
438.64	613.79
439.01	623.41
439.38	632.04
439.75	640.31
440.13	649.77
440.50	658.62
440.87	665.90
441.24	673.68
441.61	682.05
441.98	688.26
442.35	695.67
442.72	703.27
443.09	710.71
443.46	715.72
443.83	719.12
444.20	722.46
444.57	726.93
444.94	729.14
445.31	731.68
445.68	734.04
446.05	735.63
446.42	735.62
446.79	735.61
447.16	735.36
447.53	735.55
447.90	733.20
448.27	730.80
448.64	726.75
449.01	724.20
449.37	718.80
449.74	713.48
450.11	706.77
450.48	699.51
450.85	691.81
451.22	685.30
451.59	679.35
451.96	673.41
452.33	664.98
452.70	657.79
453.07	649.02
453.43	640.24
453.80	631.64
454.17	622.97
454.54	614.85
454.91	606.21
455.28	597.56
455.65	589.25
456.02	580.82
456.38	573.92
456.75	565.01
457.12	557.65
457.49	550.27
457.86	543.32
458.23	537.18
458.59	530.37
458.96	523.45
459.33	517.28
459.70	511.23
460.07	506.42
460.43	500.75
460.80	495.42
461.17	490.50
461.54	485.50
461.91	480.83
462.27	475.88
462.64	471.65
463.01	467.17
463.38	462.54
463.74	458.12
464.11	454.30
464.48	450.88
464.85	447.14
465.21	444.35
465.58	441.24
465.95	437.49
466.32	434.45
466.68	431.27
467.05	428.29
467.42	425.16
467.78	421.83
468.15	418.70
468.52	416.20
468.88	413.12
469.25	410.34
469.62	408.16
469.98	406.03
470.35	403.71
470.72	401.64
471.08	399.60
471.45	397.74
471.82	395.60
472.18	393.36
472.55	391.62
472.92	389.71
473.28	387.88
473.65	386.37
474.02	384.76
474.38	383.46
474.75	382.27
475.11	380.88
475.48	379.99
475.85	379.12
476.21	378.26
476.58	377.60
476.94	377.08
477.31	376.26
477.67	375.38
478.04	374.65
478.41	374.21
478.77	373.99
479.14	373.46
479.50	373.17
479.87	373.20
480.23	373.18
480.60	372.94
480.96	372.90
481.33	373.09
481.69	373.24
482.06	373.20
482.42	373.19
482.79	373.42
483.15	373.75
483.52	374.22
483.88	374.53
484.25	374.88
484.61	375.25
484.98	375.83
485.34	376.64
485.71	377.67
486.07	378.40
486.44	379.11
486.80	380.19
487.17	381.24
487.53	382.46
487.90	383.80
488.26	385.43
488.62	387.03
488.99	388.29
489.35	389.75
489.72	391.56
490.08	393.34
490.44	395.05
490.81	396.87
491.17	398.79
491.54	400.95
491.90	403.00
492.26	405.31
492.63	407.52
492.99	409.72
493.36	412.01
493.72	414.62
494.08	417.13
494.45	420.00
494.81	422.93
495.17	425.70
495.54	428.52
495.90	431.16
496.26	434.01
496.63	436.94
496.99	439.99
497.35	443.01
497.72	446.24
498.08	449.51
498.44	452.74
498.80	456.22
499.17	459.68
499.53	463.12
499.89	466.34
500.26	469.58
500.62	472.90
500.98	476.28
501.34	479.62
501.71	483.15
502.07	486.47
502.43	489.82
502.79	492.90
503.16	496.34
503.52	499.88
503.88	503.15
504.24	506.51
504.60	509.86
504.97	513.33
505.33	516.65
505.69	520.33
506.05	523.74
506.41	526.72
506.78	529.77
507.14	532.90
507.50	536.05
507.86	539.42
508.22	542.58
508.59	545.65
508.95	548.58
509.31	551.63
509.67	554.37
510.03	557.28
510.39	560.43
510.75	563.10
511.12	565.58
511.48	568.30
511.84	571.02
512.20	573.74
512.56	576.31
512.92	578.86
513.28	580.99
513.64	583.09
514.00	585.46
514.37	587.70
514.73	589.99
515.09	592.32
515.45	594.20
515.81	596.37
516.17	598.37
516.53	600.41
516.89	602.13
517.25	604.00
517.61	605.80
517.97	607.35
518.33	609.01
518.69	610.76
519.05	612.33
519.41	614.02
519.77	615.65
520.13	617.12
520.49	618.49
520.85	620.11
521.21	621.70
521.57	623.15
521.93	624.56
522.29	626.09
522.65	627.39
523.01	628.80
523.37	629.95
523.73	631.23
524.09	632.37
524.45	633.53
524.81	634.92
525.17	636.17
525.53	637.54
525.89	639.01
526.25	640.56
526.61	641.70
526.97	643.21
527.33	644.53
527.68	646.15
528.04	647.40
528.40	648.57
528.76	650.35
529.12	651.94
529.48	653.56
529.84	654.63
530.20	656.33
530.56	658.34
530.91	660.53
531.27	662.39
531.63	664.48
531.99	666.49
532.35	668.17
532.71	669.78
533.07	671.84
533.42	673.82
533.78	675.82
534.14	678.25
534.50	679.93
534.86	682.07
535.21	683.85
535.57	686.39
535.93	688.73
536.29	690.82
536.65	692.97
537.00	694.96
537.36	697.67
537.72	699.92
538.08	702.03
538.44	703.96
538.79	706.35
539.15	708.70
539.51	711.26
539.87	714.14
540.22	717.01
540.58	719.93
540.94	722.26
541.29	724.72
541.65	727.26
542.01	730.46
542.37	733.09
542.72	735.96
543.08	738.78
543.44	741.69
543.79	744.22
544.15	747.23
544.51	750.69
544.87	753.87
545.22	756.79
545.58	759.79
545.94	762.60
546.29	765.64
546.65	768.46
547.01	771.25
547.36	774.09
547.72	776.93
548.07	779.55
548.43	782.59
548.79	785.58
549.14	788.57
549.50	791.11
549.86	794.14
550.21	797.25
550.57	800.05
550.92	803.02
551.28	806.12
551.64	808.85
551.99	811.56
552.35	814.33
552.70	817.50
553.06	820.71
553.41	823.89
553.77	826.95
554.13	829.92
554.48	833.12
554.84	836.13
555.19	839.35
555.55	842.62
555.90	845.46
556.26	848.55
556.61	851.58
556.97	854.49
557.32	857.48
557.68	860.19
558.03	863.17
558.39	865.77
558.74	868.85
559.10	871.76
559.45	874.73
559.81	877.82
560.16	880.63
560.52	883.28
560.87	886.18
561.23	888.74
561.58	891.80
561.94	894.45
562.29	897.09
562.64	899.56
563.00	901.85
563.35	904.84
563.71	907.77
564.06	910.44
564.42	913.29
564.77	915.94
565.12	918.86
565.48	921.66
565.83	924.31
566.19	926.75
566.54	929.12
566.89	931.67
567.25	933.71
567.60	936.27
567.96	938.57
568.31	941.08
568.66	943.38
569.02	945.21
569.37	947.24
569.72	949.15
570.08	951.19
570.43	953.07
570.78	954.67
571.14	956.19
571.49	957.81
571.84	959.78
572.20	961.20
572.55	962.42
572.90	963.81
573.26	965.18
573.61	966.41
573.96	967.70
574.31	968.30
574.67	969.12
575.02	969.40
575.37	970.00
575.72	970.10
576.08	970.64
576.43	971.20
576.78	971.99
577.13	972.52
577.49	972.91
577.84	973.30
578.19	973.63
578.54	973.72
578.90	973.86
579.25	973.32
579.60	973.14
579.95	972.79
580.30	972.22
580.66	971.92
581.01	971.54
581.36	971.20
581.71	971.13
582.06	970.79
582.42	970.40
582.77	969.88
583.12	969.48
583.47	969.16
583.82	968.70
584.17	967.54
584.53	967.07
584.88	966.25
585.23	965.58
585.58	964.92
585.93	964.05
586.28	963.24
586.63	962.53
586.98	961.77
587.34	960.93
587.69	959.89
588.04	958.93
588.39	958.28
588.74	956.91
589.09	955.39
589.44	953.99
589.79	952.80
590.14	951.81
590.49	950.46
590.84	948.76
591.19	947.57
591.54	946.01
591.89	944.20
592.25	942.92
592.60	940.69
592.95	938.57
593.30	936.74
593.65	934.69
594.00	932.50
594.35	931.13
594.70	929.30
595.05	927.67
595.40	925.59
595.75	923.01
596.10	921.07
596.45	919.45
596.80	918.10
597.15	916.38
597.50	914.37
597.85	912.83
598.19	911.13
598.54	909.22
598.89	907.45
599.24	905.77
599.59	903.30
599.94	901.77
600.29	899.99
600.64	897.81
600.99	895.70
601.34	893.92
601.69	891.15
602.04	888.97
602.39	886.66
602.74	884.51
603.08	882.76
603.43	880.88
603.78	878.77
604.13	876.08
604.48	873.70
604.83	871.39
605.18	868.98
605.53	866.21
605.87	863.48
606.22	861.14
606.57	858.20
606.92	856.16
607.27	853.90
607.62	851.91
607.96	849.83
608.31	847.53
608.66	844.90
609.01	842.11
609.36	839.34
609.70	836.29
610.05	833.46
610.40	830.50
610.75	827.67
611.10	824.60
611.44	821.55
611.79	818.74
612.14	815.52
612.49	812.13
612.83	809.28
613.18	806.41
613.53	803.36
613.88	800.45
614.22	797.22
614.57	793.91
614.92	790.47
615.27	787.26
615.61	783.99
615.96	780.87
616.31	778.16
616.65	775.50
617.00	772.75
617.35	770.07
617.70	767.15
618.04	763.93
618.39	760.99
618.74	758.26
619.08	755.07
619.43	752.41
619.78	749.82
620.12	746.97
620.47	743.75
620.82	740.38
621.16	737.23
621.51	734.32
621.85	731.44
622.20	728.32
622.55	725.43
622.89	722.67
623.24	720.05
623.59	717.29
623.93	714.44
624.28	711.60
624.62	708.80
624.97	705.97
625.32	703.43
625.66	700.59
626.01	697.78
626.35	694.95
626.70	692.01
627.04	689.10
627.39	686.23
627.73	683.45
628.08	681.10
628.43	678.54
628.77	675.64
629.12	672.83
629.46	670.20
629.81	666.93
630.15	663.96
630.50	660.93
630.84	657.68
631.19	654.50
631.53	651.52
631.88	648.21
632.22	645.06
632.57	642.11
632.91	639.13
633.26	636.36
633.60	633.35
633.95	630.43
634.29	627.62
634.64	625.21
634.98	622.69
635.32	620.02
635.67	617.48
636.01	614.87
636.36	612.00
636.70	609.51
637.05	607.19
637.39	604.73
637.73	601.92
638.08	599.91
638.42	597.55
638.77	595.14
639.11	592.80
639.45	590.33
639.80	587.69
640.14	585.28
640.49	582.56
640.83	580.06
641.17	577.62
641.52	575.02
641.86	572.31
642.20	569.81
642.55	567.26
642.89	564.90
643.23	562.39
643.58	560.32
643.92	557.68
644.26	555.17
644.61	552.93
644.95	550.70
645.29	547.88
645.64	545.29
645.98	542.99
646.32	540.57
646.66	538.09
647.01	535.79
647.35	533.41
647.69	531.07
648.04	529.20
648.38	526.73
648.72	524.27
649.06	521.62
649.41	519.10
649.75	516.55
650.09	513.88
650.43	511.30
650.78	508.46
651.12	505.95
651.46	503.67
651.80	501.40
652.14	499.11
652.49	496.93
652.83	494.84
653.17	492.28
653.51	489.84
653.85	487.54
654.20	485.16
654.54	482.73
654.88	480.35
655.22	477.67
655.56	475.46
655.90	473.27
656.25	471.19
656.59	469.02
656.93	466.95
657.27	464.94
657.61	462.78
657.95	460.92
658.29	458.79
658.64	456.66
658.98	454.26
659.32	452.03
659.66	449.82
660.00	447.60
660.34	445.71
660.68	443.94
661.02	442.08
661.36	440.11
661.70	438.26
662.05	436.56
662.39	434.84
662.73	433.01
663.07	431.34
663.41	429.53
663.75	427.56
664.09	425.69
664.43	423.82
664.77	422.20
665.11	420.45
665.45	418.77
665.79	417.03
666.13	415.21
666.47	413.68
666.81	411.86
667.15	410.06
667.49	408.34
667.83	406.64
668.17	404.86
668.51	403.28
668.85	401.64
669.19	400.01
669.53	398.27
669.87	396.62
670.21	394.90
670.55	393.48
670.89	392.23
671.23	390.88
671.57	389.32
671.91	387.82
672.25	386.38
672.58	385.08
672.92	383.68
673.26	382.37
673.60	381.06
673.94	379.90
674.28	378.74
674.62	377.59
674.96	376.17
675.30	375.10
675.64	373.75
675.97	372.48
676.31	371.15
676.65	369.97
676.99	368.85
677.33	367.46
677.67	366.13
678.01	364.79
678.34	363.45
678.68	362.24
679.02	361.12
679.36	359.99
679.70	358.51
680.04	357.28
680.37	356.03
680.71	354.72
681.05	353.58
681.39	352.44
681.73	351.15
682.06	350.22
682.40	348.98
682.74	347.93
683.08	346.94
683.42	345.75
683.75	344.68
684.09	343.41
684.43	342.43
684.77	341.26
685.10	340.11
685.44	338.92
685.78	337.92
686.12	336.85
686.45	335.56
686.79	334.63
687.13	333.59
687.46	332.45
687.80	331.39
688.14	330.23
688.48	329.09
688.81	328.12
689.15	326.95
689.49	325.84
689.82	324.79
690.16	323.62
690.50	322.71
690.83	321.67
691.17	320.59
691.51	319.69
691.84	318.90
692.18	318.04
692.52	317.07
692.85	316.20
693.19	315.22
693.52	314.38
693.86	313.41
694.20	312.60
694.53	311.81
694.87	310.86
695.21	310.00
695.54	309.03
695.88	308.01
696.21	307.01
696.55	306.20
696.88	305.38
697.22	304.51
697.56	303.70
697.89	302.80
698.23	302.12
698.56	301.25
698.90	300.34
699.23	299.40
699.57	298.61
699.90	297.71
700.24	296.88
700.58	296.10
700.91	295.50
701.25	294.78
701.58	294.12
701.92	293.40
702.25	292.60
702.59	292.04
702.92	291.39
703.26	290.87
703.59	290.27
703.93	289.74
704.26	289.09
704.60	288.48
704.93	287.93
705.26	287.28
705.60	286.70
705.93	286.10
706.27	285.59
706.60	285.14
706.94	284.51
707.27	283.94
707.61	283.43
707.94	282.73
708.27	282.09
708.61	281.39
708.94	281.00
709.28	280.51
709.61	279.96
709.94	279.46
710.28	278.90
710.61	278.36
710.95	277.64
711.28	277.30
711.61	276.64
711.95	276.20
712.28	275.62
712.61	275.10
712.95	274.74
713.28	274.29
713.61	273.74
713.95	273.32
714.28	272.80
714.61	272.21
714.95	271.84
715.28	271.38
715.61	270.95
715.95	270.49
716.28	270.05
716.61	269.63
716.95	269.23
717.28	268.80
717.61	268.37
717.94	268.06
718.28	267.49
718.61	267.10
718.94	266.70
719.27	266.42
719.61	266.00
719.94	265.44
720.27	264.98
720.60	264.55
720.94	264.15
721.27	263.79
721.60	263.57
721.93	263.19
722.27	262.81
722.60	262.51
722.93	262.12
723.26	261.76
723.59	261.37
723.93	261.14
724.26	260.90
724.59	260.56
724.92	260.15
725.25	259.91
725.59	259.73
725.92	259.40
726.25	259.05
726.58	258.82
726.91	258.62
727.24	258.42
727.57	258.22
727.91	257.94
728.24	257.74
728.57	257.31
728.90	257.06
729.23	256.80
729.56	256.64
729.89	256.37
730.22	256.22
730.55	255.98
730.89	255.61
731.22	255.30
731.55	255.05
731.88	254.80
732.21	254.47
732.54	254.05
732.87	253.71
733.20	253.39
733.53	253.15
733.86	252.94
734.19	252.67
734.52	252.47
734.85	252.39
735.18	252.12
735.51	251.98
735.84	251.75
736.17	251.56
736.50	251.19
736.83	251.13
737.16	250.76
737.49	250.59
737.82	250.31
738.15	250.03
738.48	249.71
738.81	249.52
739.14	249.34
739.47	249.12
739.80	248.95
740.13	248.79
740.46	248.41
740.79	248.08
741.12	247.77
741.45	247.51
741.78	247.25
742.11	247.11
742.44	246.79
742.77	246.58
743.10	246.30
743.43	246.07
743.75	245.67
744.08	245.82
744.41	245.56
744.74	245.40
745.07	245.19
745.40	245.02
745.73	244.89
746.06	244.73
746.39	244.65
746.71	244.34
747.04	244.13
747.37	244.05
747.70	243.91
748.03	243.73
748.36	243.60
748.68	243.32
749.01	243.12
749.34	243.01
749.67	242.89
750.00	242.74
750.33	242.69
750.65	242.53
750.98	242.00
751.31	241.90
751.64	241.70
751.97	241.66
752.29	241.64
752.62	241.45
752.95	241.28
753.28	241.00
753.60	240.96
753.93	240.89
754.26	240.70
754.59	240.50
754.91	240.47
755.24	240.33
755.57	240.19
755.90	240.03
756.22	240.01
756.55	239.83
756.88	239.73
757.20	239.47
757.53	239.33
757.86	239.22
758.19	239.07
758.51	238.93
758.84	238.66
759.17	238.45
759.49	238.30
759.82	238.29
760.15	238.29
760.47	238.11
760.80	237.90
761.13	237.96
761.45	237.83
761.78	237.62
762.11	237.57
762.43	237.52
762.76	237.45
763.08	237.31
763.41	237.21
763.74	237.08
764.06	237.06
764.39	237.05
764.71	237.02
765.04	236.94
765.37	236.91
765.69	236.89
766.02	236.99
766.34	236.95
766.67	236.86
767.00	236.86
767.32	236.93
767.65	236.99
767.97	236.78
768.30	236.71
768.62	236.70
768.95	236.54
769.27	236.40
769.60	236.34
769.92	236.28
770.25	236.14
770.57	236.10
770.90	235.93
771.22	235.82
771.55	235.81
771.87	235.67
772.20	235.55
772.52	235.70
772.85	235.69
773.17	235.61
773.50	235.48
773.82	235.31
774.15	235.13
774.47	235.02
774.80	235.01
775.12	234.97
775.45	234.88
775.77	234.80
776.09	234.80
776.42	234.72
776.74	234.71
777.07	234.62
777.39	234.59
777.72	234.55
778.04	234.48
778.36	234.40
778.69	234.33
779.01	234.34
779.33	233.95
779.66	233.66
779.98	233.54
780.31	233.34
780.63	233.44
780.95	233.40
781.28	233.23
781.60	233.04
781.92	233.00
782.25	232.87
782.57	232.84
782.89	232.71
783.22	232.54
783.54	232.36
783.86	232.32
784.19	232.16
784.51	232.20
784.83	232.16
785.16	232.04
785.48	232.00
785.80	231.89
786.12	231.97
786.45	231.91
786.77	231.95
787.09	231.89
787.42	231.63
787.74	231.57
788.06	231.64
788.38	231.67
788.71	231.64
789.03	231.57
789.35	231.52
789.67	231.38
789.99	231.40
790.32	231.38
790.64	231.42
790.96	231.57
791.28	231.44
791.61	231.37
791.93	231.33
792.25	231.25
792.57	231.35
792.89	231.21
793.21	231.17
793.54	231.07
793.86	231.19
794.18	231.30
