SpectraSuite Data File
++++++++++++++++++++++++++++++++++++
Date: Fri Feb 01 14:35:56 EST 2013
User: group
Dark Spectrum Present: No
Reference Spectrum Present: No
Number of Sampled Component Spectra: 1
Spectrometers: USB2E7196
Integration Time (usec): 70000 (USB2E7196)
Spectra Averaged: 10 (USB2E7196)
Boxcar Smoothing: 10 (USB2E7196)
Correct for Electrical Dark: No (USB2E7196)
Strobe/Lamp Enabled: No (USB2E7196)
Correct for Detector Non-linearity: No (USB2E7196)
Correct for Stray Light: No (USB2E7196)
Number of Pixels in Processed Spectrum: 2048
>>>>>Begin Processed Spectral Data<<<<<
339.09	0.00
339.48	217.30
339.86	216.00
340.24	218.90
340.63	219.70
341.01	224.50
341.39	221.90
341.78	225.20
342.16	224.90
342.54	225.40
342.93	214.72
343.31	225.55
343.69	226.12
344.07	226.72
344.46	227.09
344.84	227.48
345.22	227.65
345.60	227.95
345.99	228.15
346.37	228.43
346.75	228.52
347.13	228.41
347.52	228.46
347.90	228.52
348.28	228.56
348.66	228.53
349.05	228.56
349.43	228.64
349.81	228.62
350.19	228.72
350.57	228.68
350.96	228.70
351.34	228.80
351.72	228.73
352.10	228.65
352.48	228.71
352.87	228.83
353.25	228.93
353.63	228.99
354.01	228.97
354.39	228.92
354.77	229.06
355.15	229.27
355.54	229.31
355.92	229.37
356.30	229.42
356.68	229.67
357.06	229.66
357.44	229.66
357.82	229.64
358.20	229.67
358.58	229.80
358.97	229.89
359.35	229.93
359.73	230.07
360.11	230.22
360.49	230.37
360.87	230.36
361.25	230.36
361.63	230.40
362.01	230.40
362.39	230.41
362.77	230.34
363.15	230.29
363.53	230.33
363.91	230.30
364.29	230.29
364.67	230.09
365.05	230.12
365.43	230.17
365.81	230.20
366.19	230.24
366.57	230.31
366.95	230.33
367.33	230.21
367.71	230.15
368.09	230.18
368.47	230.06
368.85	230.03
369.23	230.00
369.61	229.88
369.99	229.91
370.37	229.93
370.75	230.02
371.13	229.93
371.51	229.78
371.89	229.72
372.27	229.66
372.65	229.62
373.03	229.58
373.41	229.42
373.78	229.32
374.16	229.22
374.54	229.05
374.92	228.93
375.30	228.98
375.68	228.90
376.06	228.78
376.44	228.71
376.82	228.56
377.19	228.46
377.57	228.36
377.95	228.29
378.33	228.14
378.71	227.85
379.09	227.70
379.47	227.75
379.84	227.63
380.22	227.47
380.60	227.36
380.98	227.23
381.36	227.23
381.73	227.16
382.11	227.07
382.49	226.99
382.87	226.87
383.25	226.73
383.62	226.90
384.00	226.77
384.38	226.82
384.76	226.79
385.13	226.83
385.51	226.81
385.89	226.73
386.27	226.65
386.64	226.75
387.02	226.82
387.40	226.66
387.78	226.59
388.15	226.69
388.53	226.69
388.91	226.72
389.29	226.68
389.66	226.69
390.04	226.54
390.42	226.57
390.79	226.54
391.17	226.59
391.55	226.45
391.92	226.51
392.30	226.45
392.68	226.53
393.05	226.59
393.43	226.63
393.81	226.77
394.18	226.82
394.56	226.86
394.94	227.00
395.31	227.06
395.69	227.26
396.06	227.32
396.44	227.35
396.82	227.43
397.19	227.58
397.57	227.65
397.95	227.87
398.32	228.00
398.70	228.15
399.07	228.28
399.45	228.28
399.82	228.35
400.20	228.42
400.58	228.49
400.95	228.51
401.33	228.70
401.70	228.87
402.08	229.07
402.45	229.18
402.83	229.33
403.20	229.54
403.58	229.65
403.95	229.85
404.33	230.05
404.71	230.26
405.08	230.57
405.46	230.78
405.83	231.12
406.21	231.31
406.58	231.68
406.96	232.03
407.33	232.45
407.70	232.85
408.08	233.42
408.45	233.81
408.83	234.27
409.20	234.70
409.58	234.98
409.95	235.50
410.33	236.13
410.70	236.66
411.08	237.29
411.45	237.85
411.82	238.52
412.20	239.28
412.57	240.16
412.95	240.82
413.32	241.80
413.69	242.58
414.07	243.48
414.44	244.48
414.82	245.50
415.19	246.72
415.56	247.99
415.94	249.24
416.31	250.67
416.68	252.08
417.06	253.66
417.43	255.27
417.81	257.00
418.18	258.83
418.55	260.70
418.93	262.70
419.30	264.91
419.67	267.08
420.04	269.44
420.42	271.82
420.79	274.55
421.16	277.17
421.54	280.04
421.91	283.01
422.28	286.08
422.66	289.27
423.03	292.44
423.40	295.76
423.77	299.19
424.15	302.73
424.52	306.50
424.89	310.52
425.26	314.54
425.64	318.30
426.01	322.32
426.38	326.61
426.75	330.83
427.13	335.34
427.50	340.00
427.87	344.87
428.24	349.68
428.61	354.36
428.99	359.46
429.36	365.11
429.73	370.50
430.10	375.81
430.47	381.40
430.85	387.00
431.22	392.90
431.59	399.36
431.96	405.58
432.33	412.42
432.70	418.88
433.08	426.44
433.45	433.50
433.82	440.66
434.19	448.75
434.56	456.60
434.93	464.00
435.30	471.37
435.68	479.43
436.05	487.46
436.42	495.45
436.79	502.87
437.16	510.50
437.53	518.88
437.90	527.20
438.27	535.14
438.64	543.57
439.01	551.55
439.38	558.40
439.75	565.12
440.13	572.71
440.50	580.03
440.87	586.14
441.24	592.51
441.61	599.67
441.98	604.66
442.35	610.81
442.72	616.89
443.09	622.87
443.46	626.89
443.83	629.42
444.20	631.91
444.57	635.18
444.94	637.25
445.31	639.31
445.68	641.28
446.05	642.81
446.42	642.95
446.79	643.03
447.16	642.96
447.53	643.19
447.90	641.19
448.27	639.02
448.64	635.42
449.01	633.39
449.37	628.61
449.74	624.17
450.11	618.68
450.48	612.77
450.85	606.68
451.22	601.36
451.59	596.70
451.96	592.10
452.33	585.52
452.70	579.60
453.07	572.26
453.43	564.84
453.80	557.70
454.17	550.69
454.54	543.74
454.91	536.40
455.28	529.26
455.65	522.52
456.02	515.77
456.38	510.11
456.75	502.87
457.12	496.89
457.49	491.01
457.86	485.28
458.23	480.34
458.59	474.70
458.96	469.02
459.33	463.92
459.70	458.77
460.07	454.66
460.43	449.91
460.80	445.36
461.17	441.41
461.54	437.16
461.91	433.13
462.27	429.34
462.64	426.08
463.01	422.31
463.38	418.68
463.74	415.14
464.11	412.08
464.48	409.13
464.85	405.96
465.21	403.58
465.58	400.86
465.95	397.71
466.32	395.26
466.68	392.58
467.05	390.09
467.42	387.47
467.78	385.00
468.15	382.50
468.52	380.72
468.88	378.27
469.25	376.05
469.62	374.27
469.98	372.08
470.35	370.25
470.72	368.49
471.08	366.55
471.45	364.94
471.82	363.19
472.18	361.35
472.55	360.02
472.92	358.35
473.28	356.98
473.65	355.64
474.02	354.28
474.38	353.14
474.75	352.10
475.11	350.91
475.48	349.85
475.85	349.08
476.21	348.25
476.58	347.49
476.94	346.91
477.31	346.16
477.67	345.54
478.04	344.76
478.41	344.25
478.77	343.99
479.14	343.59
479.50	343.28
479.87	343.19
480.23	343.00
480.60	342.73
480.96	342.45
481.33	342.44
481.69	342.46
482.06	342.47
482.42	342.31
482.79	342.48
483.15	342.78
483.52	343.03
483.88	343.19
484.25	343.44
484.61	343.69
484.98	344.01
485.34	344.59
485.71	345.20
486.07	345.75
486.44	346.20
486.80	346.95
487.17	347.57
487.53	348.44
487.90	349.34
488.26	350.42
488.62	351.49
488.99	352.33
489.35	353.32
489.72	354.38
490.08	355.69
490.44	356.94
490.81	358.13
491.17	359.47
491.54	360.80
491.90	362.13
492.26	363.54
492.63	365.20
492.99	366.69
493.36	368.32
493.72	370.00
494.08	371.66
494.45	373.37
494.81	375.31
495.17	377.00
495.54	378.81
495.90	380.55
496.26	382.38
496.63	384.26
496.99	386.32
497.35	388.48
497.72	390.61
498.08	392.55
498.44	394.64
498.80	396.76
499.17	398.91
499.53	401.22
499.89	403.48
500.26	405.40
500.62	407.33
500.98	409.45
501.34	411.56
501.71	413.68
502.07	415.65
502.43	417.52
502.79	419.50
503.16	421.54
503.52	423.56
503.88	425.36
504.24	427.51
504.60	429.48
504.97	431.34
505.33	432.96
505.69	434.92
506.05	436.74
506.41	438.35
506.78	439.98
507.14	441.45
507.50	443.02
507.86	444.89
508.22	446.65
508.59	448.14
508.95	449.60
509.31	451.13
509.67	452.51
510.03	453.94
510.39	455.32
510.75	456.40
511.12	457.72
511.48	459.08
511.84	460.10
512.20	461.12
512.56	462.10
512.92	463.13
513.28	464.18
513.64	465.00
514.00	465.82
514.37	466.83
514.73	467.62
515.09	468.27
515.45	468.81
515.81	469.44
516.17	470.13
516.53	470.83
516.89	471.36
517.25	471.92
517.61	472.48
517.97	473.05
518.33	473.53
518.69	474.03
519.05	474.53
519.41	475.05
519.77	475.63
520.13	476.01
520.49	476.67
520.85	476.92
521.21	477.47
521.57	478.27
521.93	478.58
522.29	479.24
522.65	479.65
523.01	480.05
523.37	480.45
523.73	480.93
524.09	481.43
524.45	481.98
524.81	482.50
525.17	483.24
525.53	484.05
525.89	484.97
526.25	485.60
526.61	486.39
526.97	487.35
527.33	488.08
527.68	489.40
528.04	490.18
528.40	491.30
528.76	492.54
529.12	493.64
529.48	494.94
529.84	496.11
530.20	497.72
530.56	499.50
530.91	501.30
531.27	503.02
531.63	504.63
531.99	506.34
532.35	508.19
532.71	509.83
533.07	511.60
533.42	513.58
533.78	515.81
534.14	517.86
534.50	519.83
534.86	522.11
535.21	523.95
535.57	526.28
535.93	528.68
536.29	531.13
536.65	533.47
537.00	535.87
537.36	538.30
537.72	540.97
538.08	543.28
538.44	545.85
538.79	548.26
539.15	550.80
539.51	553.69
539.87	556.63
540.22	559.55
540.58	562.65
540.94	565.58
541.29	568.42
541.65	571.42
542.01	574.64
542.37	577.85
542.72	581.14
543.08	584.29
543.44	587.44
543.79	590.23
544.15	593.52
544.51	597.37
544.87	600.98
545.22	604.39
545.58	607.95
545.94	611.30
546.29	614.98
546.65	618.66
547.01	622.26
547.36	625.77
547.72	629.35
548.07	632.81
548.43	636.61
548.79	640.05
549.14	643.75
549.50	647.04
549.86	650.39
550.21	654.15
550.57	657.99
550.92	661.62
551.28	665.60
551.64	669.24
551.99	672.66
552.35	676.16
552.70	679.85
553.06	683.63
553.41	687.23
553.77	691.07
554.13	694.90
554.48	698.57
554.84	702.14
555.19	705.80
555.55	709.54
555.90	712.92
556.26	716.69
556.61	720.22
556.97	724.15
557.32	728.09
557.68	731.41
558.03	734.90
558.39	738.51
558.74	742.14
559.10	745.79
559.45	749.29
559.81	753.29
560.16	756.78
560.52	760.34
560.87	764.10
561.23	767.46
561.58	771.16
561.94	774.67
562.29	778.14
562.64	781.59
563.00	784.96
563.35	788.64
563.71	792.38
564.06	795.89
564.42	798.99
564.77	802.34
565.12	805.93
565.48	809.57
565.83	813.04
566.19	816.33
566.54	819.41
566.89	822.54
567.25	825.36
567.60	828.73
567.96	832.00
568.31	835.09
568.66	837.99
569.02	840.60
569.37	843.02
569.72	845.70
570.08	848.49
570.43	851.05
570.78	853.55
571.14	855.65
571.49	858.12
571.84	860.82
572.20	862.84
572.55	864.80
572.90	866.78
573.26	868.98
573.61	870.72
573.96	872.80
574.31	874.25
574.67	875.76
575.02	876.62
575.37	877.77
575.72	878.80
576.08	880.29
576.43	881.61
576.78	883.22
577.13	884.79
577.49	885.78
577.84	886.79
578.19	887.69
578.54	888.81
578.90	889.56
579.25	890.04
579.60	890.99
579.95	891.94
580.30	892.23
580.66	892.58
581.01	893.11
581.36	893.32
581.71	893.89
582.06	894.44
582.42	895.12
582.77	895.60
583.12	896.07
583.47	896.30
583.82	896.62
584.17	896.50
584.53	896.59
584.88	896.84
585.23	896.91
585.58	896.84
585.93	896.57
586.28	896.63
586.63	896.80
586.98	896.56
587.34	896.20
587.69	896.03
588.04	895.77
588.39	895.71
588.74	895.08
589.09	894.62
589.44	894.02
589.79	893.66
590.14	893.05
590.49	892.46
590.84	891.68
591.19	890.67
591.54	889.48
591.89	888.07
592.25	887.24
592.60	885.86
592.95	884.79
593.30	883.69
593.65	882.39
594.00	881.21
594.35	880.32
594.70	878.84
595.05	877.54
595.40	876.10
595.75	874.37
596.10	873.30
596.45	872.17
596.80	871.06
597.15	869.46
597.50	867.64
597.85	866.23
598.19	864.86
598.54	863.73
598.89	862.68
599.24	861.58
599.59	859.75
599.94	858.57
600.29	857.16
600.64	855.64
600.99	853.74
601.34	851.85
601.69	849.60
602.04	848.03
602.39	846.49
602.74	845.04
603.08	843.56
603.43	841.99
603.78	840.43
604.13	838.42
604.48	836.73
604.83	835.17
605.18	833.14
605.53	831.09
605.87	828.79
606.22	826.76
606.57	824.50
606.92	822.83
607.27	820.88
607.62	818.99
607.96	817.03
608.31	815.33
608.66	813.09
609.01	811.00
609.36	808.75
609.70	806.16
610.05	803.45
610.40	801.28
610.75	798.80
611.10	796.07
611.44	793.32
611.79	791.02
612.14	788.45
612.49	785.65
612.83	782.98
613.18	780.49
613.53	778.02
613.88	775.60
614.22	772.74
614.57	770.05
614.92	767.25
615.27	764.55
615.61	761.85
615.96	759.30
616.31	756.71
616.65	754.51
617.00	752.34
617.35	749.64
617.70	746.74
618.04	743.94
618.39	741.22
618.74	738.68
619.08	735.82
619.43	733.22
619.78	730.88
620.12	728.48
620.47	725.84
620.82	723.01
621.16	720.52
621.51	717.93
621.85	715.27
622.20	712.48
622.55	709.94
622.89	707.03
623.24	704.88
623.59	702.50
623.93	700.04
624.28	697.34
624.62	695.21
624.97	692.95
625.32	690.59
625.66	688.24
626.01	685.81
626.35	683.21
626.70	680.67
627.04	678.24
627.39	675.42
627.73	672.90
628.08	670.68
628.43	667.90
628.77	665.54
629.12	663.02
629.46	660.49
629.81	657.66
630.15	655.20
630.50	652.34
630.84	649.53
631.19	646.62
631.53	643.76
631.88	640.78
632.22	637.74
632.57	635.00
632.91	632.23
633.26	629.62
633.60	627.09
633.95	624.72
634.29	621.96
634.64	619.65
634.98	616.89
635.32	614.20
635.67	611.79
636.01	609.08
636.36	606.45
636.70	604.01
637.05	601.77
637.39	599.31
637.73	596.67
638.08	594.67
638.42	592.29
638.77	590.29
639.11	587.93
639.45	585.59
639.80	583.22
640.14	580.77
640.49	578.50
640.83	575.86
641.17	573.29
641.52	570.89
641.86	568.47
642.20	566.13
642.55	563.60
642.89	561.19
643.23	558.81
643.58	556.75
643.92	554.25
644.26	551.94
644.61	549.64
644.95	547.43
645.29	544.41
645.64	541.76
645.98	539.21
646.32	536.88
646.66	534.58
647.01	532.34
647.35	530.03
647.69	527.77
648.04	525.68
648.38	523.21
648.72	520.76
649.06	518.26
649.41	515.91
649.75	513.73
650.09	511.36
650.43	508.94
650.78	506.30
651.12	504.14
651.46	501.85
651.80	499.74
652.14	497.60
652.49	495.63
652.83	493.55
653.17	491.18
653.51	488.89
653.85	486.62
654.20	484.03
654.54	481.77
654.88	479.26
655.22	476.76
655.56	474.50
655.90	472.31
656.25	470.20
656.59	468.26
656.93	466.11
657.27	464.12
657.61	462.05
657.95	460.09
658.29	457.90
658.64	455.72
658.98	453.48
659.32	451.26
659.66	449.14
660.00	447.16
660.34	445.17
660.68	443.24
661.02	441.17
661.36	439.31
661.70	437.40
662.05	435.65
662.39	434.06
662.73	432.27
663.07	430.70
663.41	429.00
663.75	427.11
664.09	425.31
664.43	423.46
664.77	421.79
665.11	420.12
665.45	418.44
665.79	416.76
666.13	415.12
666.47	413.41
666.81	411.71
667.15	409.85
667.49	408.20
667.83	406.55
668.17	404.76
668.51	403.16
668.85	401.60
669.19	400.10
669.53	398.43
669.87	396.93
670.21	395.35
670.55	393.77
670.89	392.39
671.23	391.01
671.57	389.51
671.91	387.90
672.25	386.35
672.58	385.00
672.92	383.61
673.26	382.22
673.60	380.88
673.94	379.68
674.28	378.47
674.62	377.30
674.96	376.04
675.30	374.94
675.64	373.65
675.97	372.36
676.31	371.17
676.65	369.86
676.99	368.61
677.33	367.24
677.67	365.98
678.01	364.57
678.34	363.21
678.68	362.00
679.02	360.90
679.36	359.77
679.70	358.47
680.04	357.21
680.37	355.99
680.71	354.83
681.05	353.46
681.39	352.26
681.73	350.98
682.06	349.81
682.40	348.73
682.74	347.84
683.08	346.81
683.42	345.60
683.75	344.51
684.09	343.35
684.43	342.36
684.77	341.15
685.10	340.09
685.44	339.10
685.78	338.00
686.12	336.90
686.45	335.58
686.79	334.45
687.13	333.39
687.46	332.28
687.80	331.13
688.14	330.09
688.48	329.03
688.81	327.93
689.15	326.88
689.49	325.83
689.82	324.66
690.16	323.53
690.50	322.47
690.83	321.53
691.17	320.45
691.51	319.41
691.84	318.53
692.18	317.55
692.52	316.50
692.85	315.43
693.19	314.63
693.52	313.90
693.86	312.97
694.20	312.04
694.53	311.28
694.87	310.43
695.21	309.57
695.54	308.73
695.88	307.75
696.21	306.85
696.55	305.95
696.88	305.11
697.22	304.38
697.56	303.56
697.89	302.66
698.23	301.99
698.56	301.21
698.90	300.48
699.23	299.64
699.57	298.96
699.90	298.26
700.24	297.38
700.58	296.47
700.91	295.82
701.25	295.24
701.58	294.53
701.92	293.89
702.25	293.24
702.59	292.51
702.92	292.08
703.26	291.44
703.59	290.84
703.93	290.40
704.26	289.81
704.60	289.17
704.93	288.60
705.26	287.82
705.60	287.24
705.93	286.70
706.27	286.15
706.60	285.62
706.94	285.07
707.27	284.53
707.61	284.07
707.94	283.50
708.27	282.87
708.61	282.27
708.94	281.70
709.28	281.14
709.61	280.61
709.94	280.03
710.28	279.43
710.61	279.00
710.95	278.22
711.28	277.69
711.61	277.06
711.95	276.60
712.28	276.10
712.61	275.65
712.95	275.20
713.28	274.90
713.61	274.41
713.95	273.97
714.28	273.48
714.61	273.00
714.95	272.57
715.28	272.03
715.61	271.47
715.95	271.10
716.28	270.70
716.61	270.37
716.95	269.85
717.28	269.55
717.61	269.15
717.94	268.78
718.28	268.29
718.61	267.96
718.94	267.58
719.27	267.29
719.61	266.81
719.94	266.33
720.27	265.71
720.60	265.28
720.94	264.91
721.27	264.52
721.60	264.12
721.93	263.69
722.27	263.46
722.60	263.19
722.93	262.81
723.26	262.40
723.59	262.00
723.93	261.71
724.26	261.40
724.59	260.96
724.92	260.68
725.25	260.37
725.59	259.99
725.92	259.48
726.25	259.15
726.58	258.76
726.91	258.41
727.24	258.19
727.57	257.87
727.91	257.42
728.24	257.15
728.57	256.84
728.90	256.60
729.23	256.19
729.56	255.95
729.89	255.74
730.22	255.40
730.55	254.98
730.89	254.70
731.22	254.35
731.55	253.97
731.88	253.71
732.21	253.42
732.54	253.17
732.87	252.95
733.20	252.71
733.53	252.50
733.86	252.24
734.19	252.06
734.52	251.79
734.85	251.74
735.18	251.37
735.51	251.16
735.84	250.95
736.17	250.74
736.50	250.44
736.83	250.25
737.16	249.94
737.49	249.83
737.82	249.66
738.15	249.42
738.48	249.18
738.81	248.90
739.14	248.62
739.47	248.37
739.80	248.25
740.13	247.94
740.46	247.77
740.79	247.54
741.12	247.20
741.45	246.91
741.78	246.62
742.11	246.51
742.44	246.28
742.77	246.10
743.10	245.87
743.43	245.62
743.75	245.30
744.08	245.40
744.41	245.15
744.74	245.03
745.07	244.84
745.40	244.72
745.73	244.61
746.06	244.47
746.39	244.29
746.71	244.07
747.04	243.99
747.37	243.80
747.70	243.70
748.03	243.61
748.36	243.58
748.68	243.30
749.01	243.18
749.34	243.05
749.67	242.81
750.00	242.68
750.33	242.72
750.65	242.61
750.98	242.37
751.31	242.24
751.64	241.95
751.97	241.95
752.29	241.89
752.62	241.80
752.95	241.71
753.28	241.60
753.60	241.37
753.93	241.28
754.26	241.13
754.59	240.87
754.91	240.68
755.24	240.52
755.57	240.44
755.90	240.29
756.22	240.11
756.55	239.96
756.88	239.81
757.20	239.54
757.53	239.43
757.86	239.31
758.19	239.24
758.51	239.09
758.84	238.96
759.17	238.82
759.49	238.62
759.82	238.62
760.15	238.57
760.47	238.52
760.80	238.35
761.13	238.30
761.45	238.20
761.78	238.25
762.11	238.02
762.43	237.99
762.76	237.90
763.08	237.91
763.41	237.76
763.74	237.70
764.06	237.52
764.39	237.43
764.71	237.25
765.04	236.97
765.37	236.87
765.69	236.63
766.02	236.46
766.34	236.36
766.67	236.12
767.00	235.97
767.32	236.03
767.65	236.12
767.97	235.94
768.30	235.91
768.62	235.67
768.95	235.56
769.27	235.44
769.60	235.37
769.92	235.13
770.25	235.12
770.57	235.01
770.90	235.02
771.22	234.86
771.55	234.79
771.87	234.84
772.20	234.77
772.52	234.88
772.85	235.09
773.17	234.93
773.50	234.85
773.82	234.77
774.15	234.54
774.47	234.22
774.80	234.16
775.12	233.96
775.45	233.90
775.77	233.97
776.09	233.93
776.42	233.77
776.74	233.84
777.07	233.68
777.39	233.66
777.72	233.57
778.04	233.44
778.36	233.38
778.69	233.33
779.01	233.25
779.33	233.08
779.66	232.72
779.98	232.81
780.31	232.78
780.63	232.78
780.95	232.86
781.28	232.79
781.60	232.79
781.92	232.90
782.25	232.86
782.57	232.76
782.89	232.70
783.22	232.72
783.54	232.62
783.86	232.58
784.19	232.36
784.51	232.37
784.83	232.38
785.16	232.32
785.48	232.27
785.80	232.37
786.12	232.37
786.45	232.33
786.77	232.22
787.09	232.09
787.42	232.09
787.74	231.99
788.06	231.98
788.38	231.97
788.71	231.82
789.03	231.83
789.35	231.81
789.67	231.75
789.99	231.64
790.32	231.58
790.64	231.55
790.96	231.78
791.28	231.68
791.61	231.70
791.93	231.66
792.25	231.73
792.57	231.72
792.89	231.59
793.21	231.71
793.54	231.68
793.86	231.67
794.18	231.71
