SpectraSuite Data File
++++++++++++++++++++++++++++++++++++
Date: Fri Feb 01 14:39:31 EST 2013
User: group
Dark Spectrum Present: No
Reference Spectrum Present: No
Number of Sampled Component Spectra: 1
Spectrometers: USB2E7196
Integration Time (usec): 70000 (USB2E7196)
Spectra Averaged: 10 (USB2E7196)
Boxcar Smoothing: 10 (USB2E7196)
Correct for Electrical Dark: No (USB2E7196)
Strobe/Lamp Enabled: No (USB2E7196)
Correct for Detector Non-linearity: No (USB2E7196)
Correct for Stray Light: No (USB2E7196)
Number of Pixels in Processed Spectrum: 2048
>>>>>Begin Processed Spectral Data<<<<<
339.09	0.00
339.48	216.90
339.86	218.50
340.24	220.70
340.63	219.20
341.01	224.40
341.39	223.70
341.78	224.40
342.16	226.40
342.54	228.50
342.93	215.45
343.31	226.30
343.69	226.83
344.07	227.32
344.46	227.63
344.84	228.10
345.22	228.26
345.60	228.49
345.99	228.65
346.37	228.79
346.75	228.80
347.13	228.82
347.52	228.75
347.90	228.90
348.28	228.76
348.66	228.78
349.05	228.62
349.43	228.62
349.81	228.64
350.19	228.57
350.57	228.52
350.96	228.48
351.34	228.57
351.72	228.63
352.10	228.61
352.48	228.69
352.87	228.70
353.25	228.70
353.63	228.75
354.01	228.82
354.39	228.82
354.77	228.80
355.15	228.97
355.54	229.04
355.92	229.10
356.30	229.27
356.68	229.48
357.06	229.56
357.44	229.60
357.82	229.64
358.20	229.62
358.58	229.62
358.97	229.71
359.35	229.86
359.73	229.80
360.11	229.82
360.49	229.86
360.87	229.81
361.25	229.91
361.63	229.94
362.01	229.95
362.39	230.01
362.77	230.03
363.15	230.01
363.53	229.94
363.91	229.96
364.29	229.89
364.67	229.70
365.05	229.70
365.43	229.71
365.81	229.73
366.19	229.85
366.57	229.86
366.95	229.87
367.33	229.67
367.71	229.71
368.09	229.80
368.47	229.76
368.85	229.70
369.23	229.66
369.61	229.56
369.99	229.56
370.37	229.38
370.75	229.49
371.13	229.37
371.51	229.33
371.89	229.25
372.27	229.14
372.65	229.10
373.03	229.07
373.41	229.00
373.78	228.87
374.16	228.64
374.54	228.56
374.92	228.34
375.30	228.25
375.68	228.10
376.06	227.95
376.44	227.80
376.82	227.81
377.19	227.68
377.57	227.60
377.95	227.49
378.33	227.49
378.71	227.18
379.09	227.18
379.47	227.11
379.84	226.93
380.22	226.79
380.60	226.71
380.98	226.53
381.36	226.37
381.73	226.22
382.11	226.24
382.49	226.14
382.87	226.20
383.25	226.15
383.62	226.35
384.00	226.25
384.38	226.34
384.76	226.30
385.13	226.44
385.51	226.42
385.89	226.31
386.27	226.29
386.64	226.33
387.02	226.21
387.40	226.19
387.78	226.19
388.15	226.19
388.53	226.11
388.91	226.14
389.29	226.16
389.66	226.32
390.04	226.25
390.42	226.32
390.79	226.21
391.17	226.28
391.55	226.09
391.92	226.16
392.30	226.07
392.68	226.07
393.05	226.11
393.43	226.09
393.81	226.22
394.18	226.20
394.56	226.25
394.94	226.26
395.31	226.27
395.69	226.44
396.06	226.52
396.44	226.68
396.82	226.72
397.19	226.87
397.57	226.82
397.95	226.99
398.32	226.97
398.70	227.09
399.07	227.16
399.45	227.20
399.82	227.30
400.20	227.47
400.58	227.55
400.95	227.47
401.33	227.67
401.70	227.84
402.08	227.90
402.45	227.99
402.83	228.23
403.20	228.47
403.58	228.60
403.95	228.82
404.33	228.93
404.71	229.12
405.08	229.36
405.46	229.45
405.83	229.60
406.21	229.87
406.58	230.17
406.96	230.34
407.33	230.64
407.70	230.75
408.08	231.09
408.45	231.43
408.83	231.67
409.20	231.91
409.58	232.08
409.95	232.41
410.33	232.77
410.70	232.98
411.08	233.26
411.45	233.51
411.82	233.74
412.20	234.08
412.57	234.43
412.95	234.66
413.32	235.17
413.69	235.60
414.07	235.97
414.44	236.19
414.82	236.61
415.19	237.17
415.56	237.73
415.94	238.10
416.31	238.66
416.68	239.23
417.06	239.97
417.43	240.67
417.81	241.39
418.18	242.01
418.55	242.77
418.93	243.52
419.30	244.44
419.67	245.39
420.04	246.31
420.42	247.27
420.79	248.59
421.16	249.75
421.54	251.00
421.91	252.23
422.28	253.68
422.66	255.05
423.03	256.36
423.40	257.76
423.77	259.33
424.15	260.70
424.52	262.21
424.89	263.82
425.26	265.36
425.64	266.98
426.01	268.80
426.38	270.56
426.75	272.32
427.13	274.20
427.50	276.16
427.87	278.05
428.24	280.05
428.61	281.82
428.99	283.89
429.36	285.96
429.73	288.13
430.10	290.24
430.47	292.50
430.85	294.73
431.22	297.12
431.59	299.73
431.96	302.24
432.33	305.10
432.70	307.67
433.08	310.80
433.45	313.70
433.82	316.41
434.19	319.56
434.56	322.68
434.93	325.47
435.30	328.38
435.68	331.78
436.05	334.90
436.42	337.99
436.79	340.88
437.16	344.00
437.53	347.20
437.90	350.25
438.27	353.41
438.64	356.64
439.01	359.74
439.38	362.30
439.75	364.68
440.13	367.49
440.50	370.33
440.87	372.44
441.24	374.71
441.61	377.26
441.98	379.16
442.35	381.37
442.72	383.63
443.09	385.68
443.46	386.94
443.83	387.91
444.20	388.64
444.57	389.72
444.94	390.29
445.31	390.90
445.68	391.78
446.05	392.00
446.42	391.64
446.79	391.37
447.16	391.04
447.53	391.14
447.90	390.10
448.27	388.86
448.64	387.42
449.01	386.42
449.37	384.47
449.74	382.49
450.11	380.25
450.48	377.65
450.85	375.03
451.22	372.77
451.59	370.65
451.96	368.71
452.33	365.94
452.70	363.40
453.07	360.42
453.43	357.17
453.80	354.13
454.17	351.32
454.54	348.42
454.91	345.49
455.28	342.36
455.65	339.62
456.02	337.11
456.38	334.75
456.75	331.67
457.12	329.30
457.49	326.81
457.86	324.40
458.23	322.42
458.59	320.20
458.96	317.84
459.33	315.71
459.70	313.62
460.07	311.95
460.43	309.98
460.80	308.13
461.17	306.58
461.54	304.88
461.91	303.30
462.27	301.71
462.64	300.27
463.01	298.88
463.38	297.46
463.74	295.77
464.11	294.37
464.48	293.24
464.85	291.97
465.21	291.06
465.58	289.88
465.95	288.59
466.32	287.48
466.68	286.42
467.05	285.41
467.42	284.30
467.78	283.16
468.15	282.16
468.52	281.34
468.88	280.20
469.25	279.26
469.62	278.49
469.98	277.65
470.35	276.72
470.72	275.88
471.08	275.00
471.45	274.25
471.82	273.51
472.18	272.72
472.55	271.93
472.92	271.13
473.28	270.59
473.65	269.90
474.02	269.30
474.38	268.72
474.75	268.26
475.11	267.64
475.48	267.13
475.85	266.69
476.21	266.20
476.58	265.89
476.94	265.60
477.31	265.15
477.67	264.79
478.04	264.50
478.41	264.18
478.77	263.99
479.14	263.63
479.50	263.38
479.87	263.19
480.23	263.05
480.60	262.81
480.96	262.42
481.33	262.30
481.69	262.17
482.06	262.00
482.42	261.77
482.79	261.70
483.15	261.63
483.52	261.56
483.88	261.39
484.25	261.19
484.61	261.07
484.98	260.95
485.34	260.92
485.71	260.97
486.07	261.00
486.44	260.84
486.80	260.88
487.17	260.85
487.53	260.95
487.90	261.12
488.26	261.31
488.62	261.60
488.99	261.64
489.35	261.76
489.72	261.97
490.08	262.07
490.44	262.22
490.81	262.42
491.17	262.51
491.54	262.78
491.90	263.12
492.26	263.38
492.63	263.72
492.99	263.90
493.36	264.11
493.72	264.39
494.08	264.81
494.45	265.21
494.81	265.66
495.17	265.83
495.54	266.16
495.90	266.51
496.26	266.83
496.63	267.35
496.99	267.68
497.35	268.05
497.72	268.59
498.08	269.14
498.44	269.69
498.80	270.40
499.17	271.08
499.53	271.58
499.89	272.21
500.26	272.81
500.62	273.52
500.98	274.38
501.34	275.10
501.71	275.86
502.07	276.60
502.43	277.24
502.79	278.09
503.16	278.99
503.52	279.89
503.88	280.90
504.24	281.90
504.60	283.12
504.97	284.42
505.33	285.56
505.69	286.84
506.05	288.05
506.41	289.33
506.78	290.62
507.14	292.05
507.50	293.61
507.86	295.34
508.22	297.01
508.59	298.44
508.95	300.32
509.31	302.21
509.67	304.16
510.03	306.18
510.39	308.45
510.75	310.57
511.12	312.74
511.48	314.88
511.84	317.16
512.20	319.60
512.56	322.08
512.92	324.82
513.28	327.40
513.64	330.18
514.00	333.08
514.37	336.20
514.73	339.35
515.09	342.43
515.45	345.59
515.81	348.93
516.17	352.40
516.53	355.77
516.89	359.27
517.25	363.04
517.61	366.99
517.97	370.80
518.33	374.70
518.69	378.98
519.05	383.41
519.41	387.69
519.77	392.30
520.13	397.00
520.49	401.45
520.85	406.23
521.21	411.13
521.57	416.12
521.93	421.11
522.29	426.17
522.65	431.45
523.01	436.75
523.37	442.14
523.73	447.61
524.09	453.25
524.45	458.82
524.81	464.54
525.17	470.45
525.53	476.48
525.89	482.58
526.25	488.82
526.61	494.93
526.97	501.21
527.33	507.31
527.68	513.81
528.04	520.43
528.40	526.97
528.76	533.73
529.12	540.52
529.48	547.28
529.84	554.38
530.20	561.40
530.56	568.81
530.91	576.07
531.27	583.71
531.63	591.21
531.99	598.84
532.35	606.32
532.71	613.81
533.07	621.59
533.42	629.56
533.78	636.91
534.14	644.82
534.50	652.60
534.86	660.70
535.21	668.16
535.57	676.24
535.93	684.25
536.29	692.28
536.65	700.38
537.00	708.73
537.36	716.75
537.72	724.75
538.08	732.58
538.44	740.89
538.79	748.89
539.15	756.88
539.51	765.01
539.87	773.21
540.22	781.27
540.58	789.39
540.94	797.32
541.29	805.92
541.65	813.97
542.01	822.68
542.37	830.95
542.72	839.17
543.08	847.23
543.44	855.58
543.79	863.41
544.15	871.32
544.51	879.35
544.87	887.34
545.22	895.57
545.58	903.34
545.94	910.79
546.29	918.44
546.65	925.96
547.01	933.41
547.36	940.77
547.72	948.36
548.07	956.02
548.43	963.04
548.79	970.13
549.14	977.43
549.50	984.04
549.86	990.81
550.21	998.00
550.57	1005.04
550.92	1011.88
551.28	1018.83
551.64	1025.65
551.99	1032.10
552.35	1039.10
552.70	1045.51
553.06	1052.60
553.41	1059.21
553.77	1066.13
554.13	1072.63
554.48	1079.30
554.84	1086.09
555.19	1092.51
555.55	1098.20
555.90	1104.73
556.26	1110.70
556.61	1116.62
556.97	1122.82
557.32	1128.76
557.68	1134.49
558.03	1140.36
558.39	1145.87
558.74	1151.77
559.10	1157.55
559.45	1163.08
559.81	1168.58
560.16	1174.09
560.52	1178.94
560.87	1184.62
561.23	1189.11
561.58	1194.33
561.94	1199.23
562.29	1203.80
562.64	1208.21
563.00	1213.21
563.35	1218.20
563.71	1223.22
564.06	1228.07
564.42	1232.76
564.77	1237.10
565.12	1241.93
565.48	1246.25
565.83	1250.54
566.19	1254.57
566.54	1258.35
566.89	1262.34
567.25	1266.24
567.60	1270.28
567.96	1274.20
568.31	1277.60
568.66	1281.37
569.02	1284.94
569.37	1288.13
569.72	1291.46
570.08	1294.61
570.43	1297.70
570.78	1300.31
571.14	1302.80
571.49	1305.27
571.84	1307.93
572.20	1310.54
572.55	1312.41
572.90	1314.31
573.26	1316.49
573.61	1318.44
573.96	1320.35
574.31	1321.38
574.67	1321.92
575.02	1322.74
575.37	1324.15
575.72	1324.90
576.08	1326.03
576.43	1326.80
576.78	1327.55
577.13	1328.64
577.49	1329.49
577.84	1329.79
578.19	1330.33
578.54	1330.40
578.90	1330.50
579.25	1330.07
579.60	1329.70
579.95	1329.40
580.30	1328.95
580.66	1328.24
581.01	1327.83
581.36	1327.26
581.71	1327.57
582.06	1327.41
582.42	1326.59
582.77	1325.44
583.12	1324.56
583.47	1323.64
583.82	1323.08
584.17	1321.96
584.53	1320.68
584.88	1319.68
585.23	1318.44
585.58	1317.33
585.93	1316.58
586.28	1315.92
586.63	1314.84
586.98	1313.59
587.34	1312.68
587.69	1311.42
588.04	1310.49
588.39	1309.00
588.74	1307.15
589.09	1305.27
589.44	1303.20
589.79	1301.70
590.14	1300.20
590.49	1298.50
590.84	1296.58
591.19	1294.38
591.54	1292.09
591.89	1289.52
592.25	1287.30
592.60	1284.90
592.95	1282.08
593.30	1279.07
593.65	1275.79
594.00	1273.44
594.35	1271.33
594.70	1268.15
595.05	1265.83
595.40	1262.81
595.75	1259.60
596.10	1256.89
596.45	1254.30
596.80	1252.30
597.15	1250.05
597.50	1247.21
597.85	1244.72
598.19	1242.21
598.54	1239.53
598.89	1237.18
599.24	1235.00
599.59	1232.25
599.94	1229.71
600.29	1227.02
600.64	1224.56
600.99	1221.54
601.34	1218.51
601.69	1215.32
602.04	1212.26
602.39	1209.15
602.74	1206.31
603.08	1203.90
603.43	1201.51
603.78	1198.39
604.13	1195.09
604.48	1191.68
604.83	1188.83
605.18	1185.36
605.53	1181.67
605.87	1177.66
606.22	1174.51
606.57	1170.61
606.92	1167.27
607.27	1164.23
607.62	1161.28
607.96	1157.68
608.31	1154.70
608.66	1150.81
609.01	1146.85
609.36	1143.30
609.70	1138.93
610.05	1134.75
610.40	1130.70
610.75	1126.07
611.10	1121.82
611.44	1117.18
611.79	1113.27
612.14	1108.77
612.49	1104.45
612.83	1100.15
613.18	1096.04
613.53	1091.63
613.88	1087.18
614.22	1082.60
614.57	1077.54
614.92	1072.62
615.27	1068.43
615.61	1063.79
615.96	1059.47
616.31	1055.51
616.65	1051.72
617.00	1047.90
617.35	1043.86
617.70	1039.22
618.04	1034.86
618.39	1030.55
618.74	1026.78
619.08	1021.95
619.43	1017.69
619.78	1013.41
620.12	1009.18
620.47	1005.12
620.82	1000.70
621.16	996.61
621.51	992.49
621.85	988.38
622.20	983.97
622.55	979.64
622.89	975.69
623.24	971.76
623.59	967.35
623.93	963.26
624.28	958.80
624.62	954.43
624.97	950.46
625.32	946.50
625.66	942.50
626.01	938.30
626.35	934.60
626.70	930.30
627.04	926.43
627.39	922.05
627.73	917.74
628.08	913.80
628.43	909.68
628.77	905.51
629.12	901.29
629.46	897.08
629.81	892.24
630.15	887.42
630.50	882.93
630.84	878.40
631.19	873.55
631.53	869.23
631.88	864.72
632.22	860.13
632.57	855.95
632.91	851.42
633.26	846.79
633.60	841.96
633.95	837.52
634.29	833.18
634.64	829.26
634.98	824.96
635.32	820.68
635.67	816.60
636.01	812.50
636.36	808.45
636.70	804.59
637.05	801.32
637.39	797.64
637.73	793.76
638.08	790.18
638.42	786.36
638.77	782.49
639.11	778.79
639.45	775.14
639.80	771.33
640.14	767.59
640.49	763.94
640.83	760.22
641.17	756.41
641.52	752.44
641.86	748.52
642.20	745.05
642.55	741.01
642.89	737.22
643.23	733.33
643.58	729.82
643.92	726.11
644.26	722.08
644.61	718.38
644.95	714.52
645.29	710.27
645.64	706.41
645.98	702.68
646.32	698.90
646.66	694.88
647.01	690.85
647.35	687.17
647.69	683.44
648.04	679.86
648.38	676.07
648.72	672.21
649.06	668.40
649.41	664.56
649.75	660.74
650.09	656.90
650.43	653.03
650.78	648.89
651.12	644.83
651.46	641.05
651.80	637.34
652.14	633.84
652.49	630.48
652.83	626.95
653.17	623.22
653.51	619.58
653.85	616.20
654.20	612.55
654.54	608.80
654.88	605.01
655.22	601.10
655.56	597.42
655.90	594.02
656.25	590.57
656.59	587.06
656.93	583.78
657.27	580.44
657.61	577.00
657.95	573.90
658.29	570.77
658.64	567.62
658.98	564.19
659.32	560.71
659.66	557.54
660.00	554.14
660.34	550.99
660.68	547.78
661.02	544.50
661.36	541.53
661.70	538.54
662.05	535.71
662.39	533.03
662.73	530.36
663.07	527.54
663.41	524.82
663.75	521.95
664.09	519.06
664.43	516.13
664.77	513.41
665.11	510.71
665.45	508.04
665.79	505.19
666.13	502.60
666.47	499.83
666.81	497.10
667.15	494.51
667.49	492.00
667.83	489.54
668.17	486.99
668.51	484.36
668.85	481.84
669.19	479.56
669.53	477.11
669.87	474.57
670.21	472.08
670.55	469.70
670.89	467.66
671.23	465.37
671.57	463.15
671.91	460.82
672.25	458.50
672.58	456.26
672.92	454.10
673.26	452.00
673.60	450.10
673.94	448.01
674.28	445.96
674.62	444.11
674.96	442.01
675.30	440.00
675.64	438.10
675.97	436.17
676.31	434.03
676.65	432.03
676.99	430.31
677.33	428.39
677.67	426.27
678.01	424.15
678.34	422.37
678.68	420.44
679.02	418.58
679.36	416.68
679.70	414.82
680.04	413.00
680.37	410.82
680.71	408.84
681.05	407.14
681.39	405.41
681.73	403.54
682.06	402.01
682.40	400.27
682.74	398.60
683.08	396.84
683.42	395.21
683.75	393.35
684.09	391.44
684.43	389.85
684.77	388.28
685.10	386.59
685.44	384.95
685.78	383.38
686.12	381.90
686.45	380.27
686.79	378.66
687.13	377.00
687.46	375.50
687.80	374.04
688.14	372.38
688.48	370.87
688.81	369.15
689.15	367.56
689.49	365.94
689.82	364.32
690.16	362.82
690.50	361.19
690.83	359.83
691.17	358.40
691.51	356.92
691.84	355.52
692.18	354.11
692.52	352.66
692.85	351.25
693.19	350.04
693.52	348.57
693.86	347.11
694.20	345.90
694.53	344.56
694.87	343.12
695.21	341.85
695.54	340.54
695.88	339.25
696.21	337.90
696.55	336.77
696.88	335.62
697.22	334.29
697.56	333.15
697.89	331.93
698.23	330.73
698.56	329.54
698.90	328.31
699.23	327.08
699.57	325.92
699.90	324.76
700.24	323.21
700.58	322.22
700.91	321.24
701.25	320.20
701.58	319.34
701.92	318.30
702.25	317.15
702.59	316.07
702.92	315.17
703.26	314.19
703.59	313.20
703.93	312.41
704.26	311.46
704.60	310.61
704.93	309.78
705.26	308.90
705.60	307.98
705.93	307.18
706.27	306.44
706.60	305.63
706.94	304.77
707.27	304.14
707.61	303.23
707.94	302.40
708.27	301.49
708.61	300.58
708.94	299.79
709.28	299.12
709.61	298.36
709.94	297.60
710.28	296.76
710.61	296.04
710.95	295.05
711.28	294.50
711.61	293.64
711.95	292.88
712.28	292.06
712.61	291.33
712.95	290.60
713.28	289.92
713.61	289.14
713.95	288.47
714.28	287.70
714.61	287.05
714.95	286.35
715.28	285.65
715.61	284.93
715.95	284.26
716.28	283.61
716.61	282.93
716.95	282.33
717.28	281.83
717.61	281.26
717.94	280.70
718.28	279.93
718.61	279.38
718.94	278.74
719.27	278.28
719.61	277.75
719.94	277.06
720.27	276.42
720.60	275.91
720.94	275.31
721.27	274.80
721.60	274.37
721.93	273.92
722.27	273.46
722.60	273.00
722.93	272.51
723.26	272.05
723.59	271.60
723.93	271.06
724.26	270.62
724.59	270.20
724.92	269.74
725.25	269.35
725.59	268.89
725.92	268.52
726.25	268.20
726.58	267.72
726.91	267.39
727.24	266.94
727.57	266.42
727.91	266.10
728.24	265.70
728.57	265.25
728.90	264.88
729.23	264.37
729.56	264.14
729.89	263.76
730.22	263.41
730.55	263.00
730.89	262.60
731.22	262.16
731.55	261.68
731.88	261.40
732.21	260.93
732.54	260.59
732.87	260.24
733.20	259.72
733.53	259.34
733.86	259.01
734.19	258.69
734.52	258.40
734.85	258.12
735.18	257.65
735.51	257.33
735.84	257.01
736.17	256.82
736.50	256.45
736.83	256.31
737.16	255.94
737.49	255.62
737.82	255.32
738.15	255.02
738.48	254.78
738.81	254.39
739.14	254.19
739.47	253.79
739.80	253.45
740.13	253.28
740.46	253.04
740.79	252.65
741.12	252.48
741.45	252.17
741.78	251.77
742.11	251.70
742.44	251.32
742.77	251.06
743.10	250.71
743.43	250.35
743.75	249.97
744.08	250.00
744.41	249.79
744.74	249.57
745.07	249.31
745.40	249.01
745.73	248.86
746.06	248.73
746.39	248.65
746.71	248.42
747.04	248.04
747.37	247.76
747.70	247.72
748.03	247.36
748.36	247.25
748.68	247.07
749.01	246.76
749.34	246.81
749.67	246.60
750.00	246.47
750.33	246.48
750.65	246.35
750.98	245.87
751.31	245.72
751.64	245.54
751.97	245.47
752.29	245.33
752.62	244.98
752.95	244.70
753.28	244.44
753.60	244.26
753.93	244.16
754.26	244.10
754.59	243.83
754.91	243.71
755.24	243.46
755.57	243.29
755.90	243.10
756.22	242.75
756.55	242.50
756.88	242.24
757.20	241.88
757.53	241.61
757.86	241.41
758.19	241.22
758.51	241.12
758.84	240.96
759.17	240.70
759.49	240.67
759.82	240.62
760.15	240.50
760.47	240.33
760.80	240.15
761.13	240.04
761.45	239.85
761.78	239.66
762.11	239.60
762.43	239.42
762.76	239.31
763.08	239.22
763.41	239.15
763.74	239.09
764.06	238.96
764.39	238.83
764.71	238.72
765.04	238.67
765.37	238.48
765.69	238.26
766.02	238.18
766.34	237.97
766.67	237.78
767.00	237.73
767.32	237.80
767.65	237.81
767.97	237.72
768.30	237.70
768.62	237.59
768.95	237.51
769.27	237.49
769.60	237.42
769.92	237.32
770.25	237.23
770.57	237.14
770.90	237.11
771.22	237.06
771.55	236.98
771.87	236.89
772.20	236.80
772.52	236.94
772.85	237.18
773.17	237.19
773.50	237.10
773.82	236.92
774.15	236.73
774.47	236.51
774.80	236.37
775.12	236.20
775.45	236.14
775.77	235.97
776.09	235.89
776.42	235.87
776.74	235.86
777.07	235.67
777.39	235.56
777.72	235.38
778.04	235.23
778.36	235.15
778.69	234.96
779.01	234.87
779.33	234.62
779.66	234.36
779.98	234.27
780.31	234.19
780.63	234.22
780.95	234.21
781.28	234.25
781.60	234.21
781.92	234.23
782.25	234.21
782.57	234.25
782.89	234.10
783.22	234.03
783.54	233.86
783.86	233.90
784.19	233.78
784.51	233.91
784.83	233.90
785.16	233.87
785.48	233.92
785.80	233.87
786.12	233.77
786.45	233.71
786.77	233.63
787.09	233.64
787.42	233.53
787.74	233.40
788.06	233.35
788.38	233.24
788.71	233.27
789.03	233.33
789.35	233.30
789.67	233.37
789.99	233.32
