SpectraSuite Data File
++++++++++++++++++++++++++++++++++++
Date: Fri Feb 01 14:37:14 EST 2013
User: group
Dark Spectrum Present: No
Reference Spectrum Present: No
Number of Sampled Component Spectra: 1
Spectrometers: USB2E7196
Integration Time (usec): 70000 (USB2E7196)
Spectra Averaged: 10 (USB2E7196)
Boxcar Smoothing: 10 (USB2E7196)
Correct for Electrical Dark: No (USB2E7196)
Strobe/Lamp Enabled: No (USB2E7196)
Correct for Detector Non-linearity: No (USB2E7196)
Correct for Stray Light: No (USB2E7196)
Number of Pixels in Processed Spectrum: 2048
>>>>>Begin Processed Spectral Data<<<<<
339.09	0.00
339.48	215.60
339.86	219.40
340.24	218.20
340.63	221.20
341.01	224.60
341.39	224.80
341.78	225.90
342.16	226.20
342.54	226.10
342.93	215.20
343.31	225.94
343.69	226.52
344.07	226.90
344.46	227.40
344.84	227.69
345.22	227.95
345.60	228.07
345.99	228.23
346.37	228.36
346.75	228.43
347.13	228.49
347.52	228.47
347.90	228.51
348.28	228.53
348.66	228.49
349.05	228.33
349.43	228.43
349.81	228.40
350.19	228.34
350.57	228.36
350.96	228.55
351.34	228.65
351.72	228.65
352.10	228.80
352.48	228.80
352.87	228.88
353.25	228.86
353.63	229.03
354.01	229.03
354.39	229.10
354.77	229.24
355.15	229.23
355.54	229.34
355.92	229.37
356.30	229.43
356.68	229.60
357.06	229.73
357.44	229.67
357.82	229.70
358.20	229.85
358.58	229.83
358.97	229.79
359.35	229.96
359.73	230.09
360.11	230.01
360.49	230.07
360.87	230.12
361.25	230.20
361.63	230.22
362.01	230.24
362.39	230.14
362.77	230.10
363.15	230.18
363.53	230.18
363.91	230.16
364.29	230.10
364.67	229.97
365.05	230.06
365.43	230.10
365.81	230.20
366.19	230.33
366.57	230.51
366.95	230.59
367.33	230.51
367.71	230.50
368.09	230.54
368.47	230.55
368.85	230.56
369.23	230.64
369.61	230.52
369.99	230.62
370.37	230.71
370.75	230.78
371.13	230.73
371.51	230.72
371.89	230.76
372.27	230.83
372.65	230.83
373.03	230.65
373.41	230.57
373.78	230.50
374.16	230.31
374.54	230.01
374.92	229.88
375.30	229.90
375.68	229.72
376.06	229.65
376.44	229.54
376.82	229.36
377.19	229.14
377.57	229.05
377.95	228.87
378.33	228.76
378.71	228.60
379.09	228.55
379.47	228.45
379.84	228.25
380.22	228.05
380.60	227.88
380.98	227.91
381.36	227.82
381.73	227.65
382.11	227.62
382.49	227.55
382.87	227.47
383.25	227.33
383.62	227.47
384.00	227.33
384.38	227.30
384.76	227.29
385.13	227.30
385.51	227.24
385.89	227.15
386.27	227.05
386.64	227.00
387.02	226.78
387.40	226.71
387.78	226.72
388.15	226.72
388.53	226.74
388.91	226.56
389.29	226.53
389.66	226.51
390.04	226.41
390.42	226.43
390.79	226.42
391.17	226.36
391.55	226.20
391.92	226.20
392.30	226.17
392.68	226.11
393.05	226.02
393.43	226.08
393.81	226.10
394.18	226.13
394.56	226.17
394.94	226.33
395.31	226.34
395.69	226.37
396.06	226.42
396.44	226.45
396.82	226.60
397.19	226.76
397.57	226.82
397.95	226.88
398.32	226.96
398.70	227.02
399.07	227.07
399.45	227.17
399.82	227.27
400.20	227.30
400.58	227.45
400.95	227.55
401.33	227.56
401.70	227.83
402.08	228.00
402.45	228.00
402.83	228.21
403.20	228.42
403.58	228.60
403.95	228.72
404.33	228.87
404.71	228.98
405.08	229.20
405.46	229.39
405.83	229.69
406.21	229.89
406.58	230.04
406.96	230.44
407.33	230.74
407.70	231.03
408.08	231.55
408.45	231.93
408.83	232.30
409.20	232.74
409.58	233.02
409.95	233.32
410.33	233.90
410.70	234.18
411.08	234.55
411.45	235.06
411.82	235.64
412.20	236.25
412.57	237.04
412.95	237.50
413.32	238.19
413.69	238.84
414.07	239.58
414.44	240.36
414.82	241.09
415.19	241.98
415.56	243.00
415.94	243.93
416.31	245.03
416.68	246.08
417.06	247.28
417.43	248.49
417.81	249.90
418.18	251.18
418.55	252.75
418.93	254.31
419.30	255.90
419.67	257.49
420.04	259.20
420.42	260.94
420.79	263.10
421.16	265.12
421.54	267.26
421.91	269.50
422.28	271.78
422.66	274.16
423.03	276.49
423.40	278.88
423.77	281.23
424.15	283.82
424.52	286.65
424.89	289.64
425.26	292.44
425.64	295.12
426.01	298.15
426.38	301.29
426.75	304.48
427.13	307.77
427.50	311.23
427.87	314.92
428.24	318.50
428.61	321.87
428.99	325.75
429.36	329.72
429.73	333.49
430.10	337.55
430.47	341.57
430.85	345.85
431.22	350.21
431.59	355.10
431.96	359.58
432.33	364.52
432.70	369.35
433.08	374.84
433.45	380.11
433.82	385.25
434.19	391.00
434.56	396.65
434.93	402.06
435.30	407.43
435.68	413.35
436.05	419.23
436.42	424.98
436.79	430.02
437.16	435.85
437.53	442.06
437.90	447.89
438.27	453.87
438.64	459.84
439.01	465.53
439.38	470.43
439.75	475.24
440.13	480.61
440.50	485.89
440.87	490.38
441.24	494.99
441.61	500.10
441.98	503.77
442.35	508.03
442.72	512.30
443.09	516.55
443.46	519.11
443.83	521.00
444.20	522.78
444.57	525.45
444.94	526.64
445.31	528.03
445.68	529.53
446.05	530.29
446.42	530.33
446.79	530.27
447.16	530.18
447.53	530.22
447.90	528.70
448.27	526.93
448.64	524.24
449.01	522.49
449.37	519.25
449.74	515.93
450.11	512.15
450.48	507.83
450.85	503.29
451.22	499.51
451.59	495.80
451.96	492.35
452.33	487.24
452.70	482.84
453.07	477.43
453.43	471.88
453.80	466.69
454.17	461.50
454.54	456.52
454.91	451.19
455.28	446.14
455.65	441.24
456.02	436.45
456.38	432.38
456.75	427.11
457.12	422.48
457.49	418.37
457.86	414.04
458.23	410.37
458.59	406.40
458.96	402.16
459.33	398.53
459.70	394.86
460.07	391.99
460.43	388.60
460.80	385.37
461.17	382.63
461.54	379.65
461.91	376.68
462.27	373.80
462.64	371.35
463.01	368.40
463.38	365.85
463.74	363.09
464.11	360.60
464.48	358.55
464.85	356.22
465.21	354.15
465.58	352.19
465.95	349.99
466.32	348.19
466.68	346.50
467.05	344.65
467.42	342.77
467.78	340.84
468.15	339.00
468.52	337.54
468.88	335.58
469.25	333.86
469.62	332.62
469.98	331.13
470.35	329.70
470.72	328.44
471.08	326.96
471.45	325.82
471.82	324.79
472.18	323.39
472.55	322.46
472.92	321.38
473.28	320.22
473.65	319.00
474.02	317.74
474.38	316.78
474.75	315.94
475.11	314.98
475.48	314.09
475.85	313.39
476.21	312.77
476.58	312.21
476.94	311.64
477.31	310.96
477.67	310.31
478.04	309.60
478.41	309.24
478.77	308.91
479.14	308.28
479.50	307.88
479.87	307.71
480.23	307.40
480.60	307.06
480.96	306.78
481.33	306.87
481.69	306.82
482.06	306.51
482.42	306.24
482.79	306.14
483.15	306.19
483.52	306.28
483.88	306.26
484.25	306.12
484.61	306.16
484.98	306.12
485.34	306.53
485.71	306.94
486.07	307.08
486.44	307.15
486.80	307.52
487.17	307.60
487.53	307.96
487.90	308.29
488.26	308.69
488.62	309.15
488.99	309.42
489.35	309.87
489.72	310.30
490.08	310.92
490.44	311.33
490.81	311.94
491.17	312.52
491.54	313.10
491.90	313.83
492.26	314.49
492.63	315.20
492.99	315.64
493.36	316.42
493.72	317.21
494.08	317.99
494.45	318.81
494.81	319.80
495.17	320.57
495.54	321.60
495.90	322.53
496.26	323.44
496.63	324.28
496.99	325.19
497.35	326.12
497.72	326.96
498.08	328.02
498.44	329.00
498.80	330.02
499.17	330.91
499.53	331.92
499.89	332.92
500.26	333.86
500.62	334.82
500.98	335.58
501.34	336.55
501.71	337.43
502.07	338.12
502.43	338.94
502.79	339.54
503.16	340.14
503.52	340.63
503.88	341.30
504.24	342.01
504.60	342.58
504.97	343.33
505.33	343.96
505.69	344.60
506.05	345.12
506.41	345.52
506.78	345.91
507.14	346.34
507.50	346.73
507.86	347.20
508.22	347.63
508.59	347.86
508.95	347.92
509.31	348.39
509.67	348.61
510.03	348.78
510.39	349.14
510.75	349.32
511.12	349.70
511.48	349.99
511.84	350.10
512.20	350.22
512.56	350.35
512.92	350.47
513.28	350.60
513.64	350.70
514.00	350.65
514.37	350.85
514.73	350.90
515.09	350.98
515.45	350.89
515.81	350.90
516.17	350.92
516.53	351.12
516.89	351.03
517.25	351.29
517.61	351.50
517.97	351.84
518.33	352.07
518.69	352.30
519.05	352.30
519.41	352.52
519.77	353.03
520.13	353.25
520.49	353.53
520.85	353.74
521.21	354.18
521.57	354.84
521.93	355.18
522.29	355.64
522.65	356.00
523.01	356.72
523.37	357.24
523.73	358.10
524.09	358.76
524.45	359.52
524.81	360.35
525.17	361.13
525.53	362.01
525.89	363.00
526.25	364.20
526.61	365.37
526.97	366.54
527.33	367.70
527.68	369.30
528.04	370.73
528.40	372.23
528.76	373.85
529.12	375.34
529.48	377.11
529.84	379.00
530.20	381.18
530.56	383.29
530.91	385.35
531.27	387.48
531.63	389.64
531.99	391.95
532.35	394.31
532.71	396.67
533.07	399.20
533.42	401.95
533.78	404.44
534.14	407.02
534.50	409.96
534.86	412.84
535.21	415.57
535.57	418.70
535.93	421.82
536.29	425.10
536.65	428.31
537.00	431.66
537.36	434.85
537.72	438.14
538.08	441.60
538.44	445.19
538.79	448.86
539.15	452.51
539.51	456.36
539.87	460.20
540.22	464.20
540.58	468.11
540.94	472.06
541.29	475.91
541.65	480.14
542.01	484.29
542.37	488.41
542.72	492.63
543.08	496.76
543.44	501.08
543.79	505.01
544.15	509.44
544.51	513.98
544.87	518.71
545.22	522.99
545.58	527.28
545.94	531.69
546.29	536.09
546.65	540.67
547.01	545.00
547.36	549.34
547.72	553.75
548.07	558.18
548.43	562.57
548.79	567.07
549.14	571.57
549.50	576.11
549.86	580.86
550.21	585.53
550.57	590.05
550.92	594.41
551.28	598.87
551.64	603.47
551.99	608.12
552.35	612.54
552.70	617.20
553.06	621.94
553.41	626.74
553.77	631.49
554.13	636.07
554.48	640.67
554.84	645.42
555.19	650.11
555.55	654.74
555.90	659.20
556.26	663.93
556.61	668.43
556.97	672.75
557.32	677.29
557.68	681.49
558.03	685.97
558.39	690.79
558.74	695.73
559.10	700.14
559.45	704.47
559.81	709.22
560.16	713.67
560.52	718.05
560.87	722.48
561.23	726.62
561.58	731.10
561.94	735.70
562.29	739.67
562.64	743.76
563.00	747.83
563.35	752.13
563.71	756.48
564.06	760.65
564.42	764.60
564.77	768.48
565.12	772.80
565.48	777.14
565.83	780.88
566.19	784.54
566.54	788.29
566.89	792.15
567.25	795.60
567.60	799.39
567.96	803.15
568.31	806.76
568.66	810.39
569.02	813.90
569.37	816.99
569.72	820.63
570.08	824.08
570.43	827.18
570.78	830.11
571.14	832.89
571.49	835.73
571.84	839.10
572.20	841.78
572.55	844.47
572.90	846.72
573.26	849.32
573.61	851.60
573.96	853.90
574.31	855.83
574.67	857.80
575.02	859.59
575.37	861.05
575.72	862.61
576.08	864.25
576.43	865.96
576.78	867.60
577.13	869.31
577.49	870.70
577.84	872.05
578.19	873.56
578.54	874.94
578.90	876.35
579.25	876.88
579.60	878.08
579.95	878.95
580.30	879.87
580.66	880.46
581.01	881.36
581.36	882.39
581.71	883.06
582.06	883.70
582.42	884.30
582.77	885.20
583.12	885.89
583.47	886.70
583.82	887.17
584.17	887.61
584.53	888.03
584.88	888.53
585.23	889.10
585.58	889.37
585.93	889.61
586.28	889.85
586.63	890.61
586.98	890.86
587.34	891.10
587.69	891.53
588.04	892.01
588.39	892.10
588.74	891.73
589.09	891.67
589.44	891.50
589.79	891.55
590.14	891.57
590.49	891.11
590.84	890.79
591.19	890.35
591.54	889.64
591.89	888.54
592.25	887.98
592.60	887.02
592.95	886.16
593.30	885.49
593.65	884.40
594.00	883.18
594.35	882.37
594.70	881.12
595.05	880.09
595.40	878.78
595.75	877.65
596.10	876.48
596.45	875.68
596.80	874.83
597.15	874.02
597.50	872.73
597.85	871.88
598.19	870.78
598.54	869.70
598.89	868.57
599.24	868.18
599.59	866.94
599.94	866.20
600.29	865.17
600.64	863.74
600.99	862.40
601.34	861.01
601.69	859.40
602.04	858.03
602.39	856.21
602.74	855.09
603.08	853.90
603.43	853.23
603.78	851.73
604.13	850.14
604.48	848.36
604.83	847.10
605.18	845.57
605.53	843.44
605.87	841.40
606.22	840.01
606.57	838.07
606.92	836.29
607.27	834.46
607.62	832.84
607.96	831.02
608.31	829.58
608.66	827.83
609.01	825.98
609.36	823.96
609.70	821.76
610.05	819.20
610.40	817.02
610.75	814.52
611.10	812.24
611.44	809.69
611.79	807.45
612.14	804.90
612.49	802.21
612.83	799.90
613.18	797.54
613.53	795.13
613.88	792.24
614.22	789.53
614.57	786.55
614.92	783.79
615.27	781.47
615.61	778.82
615.96	776.20
616.31	773.64
616.65	771.66
617.00	769.60
617.35	767.36
617.70	764.59
618.04	761.97
618.39	759.52
618.74	757.34
619.08	754.41
619.43	751.85
619.78	749.39
620.12	746.70
620.47	744.26
620.82	741.57
621.16	739.06
621.51	736.66
621.85	734.49
622.20	731.64
622.55	728.95
622.89	726.29
623.24	723.96
623.59	721.52
623.93	718.80
624.28	716.21
624.62	713.64
624.97	711.08
625.32	708.36
625.66	705.67
626.01	702.80
626.35	700.57
626.70	697.72
627.04	695.33
627.39	692.86
627.73	690.07
628.08	687.55
628.43	684.96
628.77	682.60
629.12	679.81
629.46	677.41
629.81	674.55
630.15	671.77
630.50	668.87
630.84	665.74
631.19	662.71
631.53	659.70
631.88	656.83
632.22	653.96
632.57	651.27
632.91	648.49
633.26	645.81
633.60	642.85
633.95	640.31
634.29	637.58
634.64	635.20
634.98	632.72
635.32	630.10
635.67	627.74
636.01	624.98
636.36	622.41
636.70	620.16
637.05	617.77
637.39	615.48
637.73	613.03
638.08	611.09
638.42	608.83
638.77	606.82
639.11	604.59
639.45	602.32
639.80	599.90
640.14	597.74
640.49	595.58
640.83	593.25
641.17	590.63
641.52	588.27
641.86	585.62
642.20	583.31
642.55	580.88
642.89	578.52
643.23	576.16
643.58	573.96
643.92	571.14
644.26	568.74
644.61	566.35
644.95	564.07
645.29	561.34
645.64	558.72
645.98	556.26
646.32	553.91
646.66	551.61
647.01	549.30
647.35	546.73
647.69	544.33
648.04	542.31
648.38	540.13
648.72	537.52
649.06	535.02
649.41	532.55
649.75	529.95
650.09	527.40
650.43	524.83
650.78	522.20
651.12	520.09
651.46	517.75
651.80	515.34
652.14	513.17
652.49	511.10
652.83	509.03
653.17	506.50
653.51	503.86
653.85	501.60
654.20	499.18
654.54	496.85
654.88	494.47
655.22	491.71
655.56	489.24
655.90	487.14
656.25	485.04
656.59	482.83
656.93	480.79
657.27	478.70
657.61	476.37
657.95	474.36
658.29	472.04
658.64	469.84
658.98	467.70
659.32	465.18
659.66	462.83
660.00	460.52
660.34	458.43
660.68	456.38
661.02	454.00
661.36	451.98
661.70	450.04
662.05	448.05
662.39	446.20
662.73	444.29
663.07	442.35
663.41	440.39
663.75	438.40
664.09	436.35
664.43	434.19
664.77	432.47
665.11	430.52
665.45	428.63
665.79	426.86
666.13	424.92
666.47	423.14
666.81	421.14
667.15	419.20
667.49	417.39
667.83	415.80
668.17	414.10
668.51	412.35
668.85	410.32
669.19	408.58
669.53	406.79
669.87	405.14
670.21	403.29
670.55	401.61
670.89	400.20
671.23	398.84
671.57	397.40
671.91	395.75
672.25	394.13
672.58	392.74
672.92	391.17
673.26	389.74
673.60	388.40
673.94	387.01
674.28	385.70
674.62	384.43
674.96	382.90
675.30	381.53
675.64	380.24
675.97	379.14
676.31	377.77
676.65	376.38
676.99	375.06
677.33	373.77
677.67	372.53
678.01	370.97
678.34	369.39
678.68	367.97
679.02	366.65
679.36	365.33
679.70	363.94
680.04	362.66
680.37	361.33
680.71	360.08
681.05	359.02
681.39	357.79
681.73	356.48
682.06	355.36
682.40	354.22
682.74	353.05
683.08	351.74
683.42	350.61
683.75	349.68
684.09	348.47
684.43	347.40
684.77	346.12
685.10	345.06
685.44	344.05
685.78	343.02
686.12	342.02
686.45	341.05
686.79	339.97
687.13	338.97
687.46	337.92
687.80	336.78
688.14	335.69
688.48	334.67
688.81	333.61
689.15	332.65
689.49	331.69
689.82	330.54
690.16	329.58
690.50	328.57
690.83	327.42
691.17	326.38
691.51	325.32
691.84	324.44
692.18	323.43
692.52	322.43
692.85	321.43
693.19	320.55
693.52	319.45
693.86	318.50
694.20	317.46
694.53	316.45
694.87	315.47
695.21	314.46
695.54	313.60
695.88	312.61
696.21	311.55
696.55	310.56
696.88	309.73
697.22	308.86
697.56	308.03
697.89	307.15
698.23	306.33
698.56	305.57
698.90	304.66
699.23	303.80
699.57	303.07
699.90	302.20
700.24	301.30
700.58	300.58
700.91	299.82
701.25	299.00
701.58	298.45
701.92	297.74
702.25	296.98
702.59	296.12
702.92	295.47
703.26	294.79
703.59	294.12
703.93	293.60
704.26	292.97
704.60	292.17
704.93	291.63
705.26	291.07
705.60	290.34
705.93	289.73
706.27	289.08
706.60	288.38
706.94	287.76
707.27	286.96
707.61	286.37
707.94	285.76
708.27	285.20
708.61	284.46
708.94	283.86
709.28	283.25
709.61	282.76
709.94	282.19
710.28	281.54
710.61	281.04
710.95	280.29
711.28	279.81
711.61	279.31
711.95	278.70
712.28	278.00
712.61	277.43
712.95	276.97
713.28	276.46
713.61	275.81
713.95	275.23
714.28	274.78
714.61	274.22
714.95	273.61
715.28	273.04
715.61	272.50
715.95	272.06
716.28	271.68
716.61	271.08
716.95	270.56
717.28	270.16
717.61	269.67
717.94	269.23
718.28	268.56
718.61	268.02
718.94	267.53
719.27	267.10
719.61	266.76
719.94	266.21
720.27	265.71
720.60	265.30
720.94	264.98
721.27	264.78
721.60	264.45
721.93	264.21
722.27	263.96
722.60	263.59
722.93	263.25
723.26	262.82
723.59	262.52
723.93	262.28
724.26	261.98
724.59	261.63
724.92	261.29
725.25	261.04
725.59	260.78
725.92	260.50
726.25	260.18
726.58	259.72
726.91	259.50
727.24	259.30
727.57	259.14
727.91	258.81
728.24	258.41
728.57	258.08
728.90	257.68
729.23	257.35
729.56	257.15
729.89	256.80
730.22	256.61
730.55	256.26
730.89	255.92
731.22	255.63
731.55	255.40
731.88	255.16
732.21	254.89
732.54	254.63
732.87	254.31
733.20	254.13
733.53	254.04
733.86	253.81
734.19	253.56
734.52	253.19
734.85	253.10
735.18	252.74
735.51	252.58
735.84	252.30
736.17	251.97
736.50	251.70
736.83	251.59
737.16	251.26
737.49	251.23
737.82	251.00
738.15	250.75
738.48	250.49
738.81	250.08
739.14	249.78
739.47	249.52
739.80	249.32
740.13	249.11
740.46	248.85
740.79	248.54
741.12	248.31
741.45	248.16
741.78	247.79
742.11	247.77
742.44	247.54
742.77	247.42
743.10	247.25
743.43	246.90
743.75	246.63
744.08	246.70
744.41	246.35
744.74	246.12
745.07	245.92
745.40	245.75
745.73	245.65
746.06	245.42
746.39	245.20
746.71	245.00
747.04	244.77
747.37	244.48
747.70	244.28
748.03	244.08
748.36	243.90
748.68	243.85
749.01	243.60
749.34	243.40
749.67	243.14
750.00	242.98
750.33	243.03
750.65	242.80
750.98	242.28
751.31	242.17
751.64	242.12
751.97	242.05
752.29	241.94
752.62	241.77
752.95	241.60
753.28	241.50
753.60	241.34
753.93	241.24
754.26	241.14
754.59	241.00
754.91	240.78
755.24	240.56
755.57	240.37
755.90	240.13
756.22	239.92
756.55	239.83
756.88	239.68
757.20	239.41
757.53	239.20
757.86	239.17
758.19	238.95
758.51	238.68
758.84	238.38
759.17	238.11
759.49	238.03
759.82	238.10
760.15	237.99
760.47	237.86
760.80	237.70
761.13	237.62
761.45	237.58
761.78	237.49
762.11	237.47
762.43	237.34
762.76	237.32
763.08	237.16
763.41	237.09
763.74	236.94
764.06	236.73
764.39	236.71
764.71	236.67
765.04	236.68
765.37	236.61
765.69	236.65
766.02	236.51
766.34	236.40
766.67	236.20
767.00	236.10
767.32	236.20
767.65	236.22
767.97	236.13
768.30	236.09
768.62	236.13
768.95	236.10
769.27	236.00
769.60	235.93
769.92	235.93
770.25	235.85
770.57	235.77
770.90	235.79
771.22	235.67
771.55	235.46
771.87	235.35
772.20	235.34
772.52	235.39
772.85	235.58
773.17	235.62
773.50	235.50
773.82	235.47
774.15	235.32
774.47	235.12
774.80	235.08
775.12	234.99
775.45	234.90
775.77	234.76
776.09	234.84
776.42	234.80
776.74	234.82
777.07	234.90
777.39	234.95
777.72	234.90
778.04	234.89
778.36	234.94
778.69	234.94
779.01	234.89
779.33	234.76
779.66	234.54
779.98	234.31
780.31	234.30
780.63	234.36
780.95	234.30
781.28	234.30
781.60	234.25
781.92	234.20
782.25	234.02
782.57	233.86
782.89	233.66
783.22	233.54
783.54	233.48
783.86	233.26
784.19	233.18
784.51	233.15
784.83	233.12
785.16	233.00
785.48	232.91
785.80	232.80
786.12	232.81
786.45	232.76
786.77	232.86
787.09	232.75
787.42	232.60
787.74	232.56
788.06	232.52
788.38	232.41
788.71	232.26
789.03	232.28
789.35	232.44
789.67	232.35
789.99	232.38
790.32	232.34
790.64	232.38
790.96	232.40
791.28	232.34
791.61	232.37
791.93	232.30
792.25	232.25
792.57	232.31
792.89	232.09
793.21	232.07
793.54	231.90
793.86	231.90
794.18	231.97
