SpectraSuite Data File
++++++++++++++++++++++++++++++++++++
Date: Fri Feb 01 14:36:35 EST 2013
User: group
Dark Spectrum Present: No
Reference Spectrum Present: No
Number of Sampled Component Spectra: 1
Spectrometers: USB2E7196
Integration Time (usec): 70000 (USB2E7196)
Spectra Averaged: 10 (USB2E7196)
Boxcar Smoothing: 10 (USB2E7196)
Correct for Electrical Dark: No (USB2E7196)
Strobe/Lamp Enabled: No (USB2E7196)
Correct for Detector Non-linearity: No (USB2E7196)
Correct for Stray Light: No (USB2E7196)
Number of Pixels in Processed Spectrum: 2048
>>>>>Begin Processed Spectral Data<<<<<
339.09	0.00
339.48	215.60
339.86	216.40
340.24	220.40
340.63	219.40
341.01	225.60
341.39	224.00
341.78	223.60
342.16	223.80
342.54	223.30
342.93	214.17
343.31	224.98
343.69	225.60
344.07	226.02
344.46	226.43
344.84	226.81
345.22	226.73
345.60	226.91
345.99	227.03
346.37	227.21
346.75	227.40
347.13	227.39
347.52	227.46
347.90	227.54
348.28	227.57
348.66	227.56
349.05	227.52
349.43	227.56
349.81	227.56
350.19	227.62
350.57	227.87
350.96	227.84
351.34	227.93
351.72	227.91
352.10	228.19
352.48	228.07
352.87	228.07
353.25	228.30
353.63	228.37
354.01	228.55
354.39	228.71
354.77	228.83
355.15	228.94
355.54	228.95
355.92	228.91
356.30	228.94
356.68	229.04
357.06	229.21
357.44	229.23
357.82	229.19
358.20	229.20
358.58	229.15
358.97	229.35
359.35	229.44
359.73	229.58
360.11	229.42
360.49	229.52
360.87	229.62
361.25	229.72
361.63	229.85
362.01	229.80
362.39	229.73
362.77	229.71
363.15	229.78
363.53	229.88
363.91	229.95
364.29	230.08
364.67	230.13
365.05	230.03
365.43	230.03
365.81	230.08
366.19	230.14
366.57	230.28
366.95	230.22
367.33	230.21
367.71	230.19
368.09	230.27
368.47	230.27
368.85	230.33
369.23	230.32
369.61	230.17
369.99	230.17
370.37	230.13
370.75	230.22
371.13	230.09
371.51	229.94
371.89	229.88
372.27	229.76
372.65	229.60
373.03	229.58
373.41	229.49
373.78	229.37
374.16	229.30
374.54	229.11
374.92	229.04
375.30	228.92
375.68	228.80
376.06	228.78
376.44	228.66
376.82	228.39
377.19	228.28
377.57	228.16
377.95	228.05
378.33	227.95
378.71	227.69
379.09	227.56
379.47	227.58
379.84	227.44
380.22	227.31
380.60	227.20
380.98	227.06
381.36	227.05
381.73	226.99
382.11	226.97
382.49	226.84
382.87	226.66
383.25	226.50
383.62	226.60
384.00	226.40
384.38	226.39
384.76	226.52
385.13	226.45
385.51	226.39
385.89	226.28
386.27	226.30
386.64	226.44
387.02	226.39
387.40	226.23
387.78	226.31
388.15	226.21
388.53	226.25
388.91	226.33
389.29	226.31
389.66	226.36
390.04	226.33
390.42	226.37
390.79	226.36
391.17	226.40
391.55	226.23
391.92	226.41
392.30	226.47
392.68	226.38
393.05	226.47
393.43	226.54
393.81	226.66
394.18	226.69
394.56	226.62
394.94	226.73
395.31	226.70
395.69	226.75
396.06	226.90
396.44	226.95
396.82	227.00
397.19	227.15
397.57	227.20
397.95	227.28
398.32	227.33
398.70	227.47
399.07	227.67
399.45	227.74
399.82	227.77
400.20	227.82
400.58	227.98
400.95	228.00
401.33	228.19
401.70	228.47
402.08	228.63
402.45	228.80
402.83	229.07
403.20	229.31
403.58	229.51
403.95	229.80
404.33	230.04
404.71	230.30
405.08	230.63
405.46	230.87
405.83	231.18
406.21	231.50
406.58	231.84
406.96	232.12
407.33	232.46
407.70	232.82
408.08	233.38
408.45	233.80
408.83	234.33
409.20	234.63
409.58	234.87
409.95	235.24
410.33	235.66
410.70	236.02
411.08	236.59
411.45	237.07
411.82	237.58
412.20	238.26
412.57	239.00
412.95	239.43
413.32	240.15
413.69	240.86
414.07	241.69
414.44	242.53
414.82	243.47
415.19	244.50
415.56	245.50
415.94	246.47
416.31	247.70
416.68	248.83
417.06	250.33
417.43	251.73
417.81	253.28
418.18	254.94
418.55	256.67
418.93	258.44
419.30	260.27
419.67	262.18
420.04	264.01
420.42	266.01
420.79	268.49
421.16	270.90
421.54	273.35
421.91	275.78
422.28	278.35
422.66	281.05
423.03	283.78
423.40	286.64
423.77	289.69
424.15	292.67
424.52	295.80
424.89	299.19
425.26	302.56
425.64	305.66
426.01	309.04
426.38	312.69
426.75	316.26
427.13	320.10
427.50	324.16
427.87	328.39
428.24	332.46
428.61	336.38
428.99	340.67
429.36	345.39
429.73	349.91
430.10	354.50
430.47	359.12
430.85	363.84
431.22	368.80
431.59	374.11
431.96	379.28
432.33	385.10
432.70	390.61
433.08	397.14
433.45	403.44
433.82	409.45
434.19	416.23
434.56	422.77
434.93	429.06
435.30	435.32
435.68	442.29
436.05	449.01
436.42	455.81
436.79	462.03
437.16	468.81
437.53	475.92
437.90	482.84
438.27	489.67
438.64	496.94
439.01	503.58
439.38	509.61
439.75	515.18
440.13	521.65
440.50	527.89
440.87	532.92
441.24	538.05
441.61	544.14
441.98	548.45
442.35	553.59
442.72	558.69
443.09	563.79
443.46	566.93
443.83	569.36
444.20	571.40
444.57	574.45
444.94	575.78
445.31	577.65
445.68	579.49
446.05	580.80
446.42	580.74
446.79	580.79
447.16	580.61
447.53	581.03
447.90	579.31
448.27	577.46
448.64	574.60
449.01	572.89
449.37	568.90
449.74	565.14
450.11	560.51
450.48	555.40
450.85	550.24
451.22	545.94
451.59	541.80
451.96	537.75
452.33	532.04
452.70	527.06
453.07	520.95
453.43	514.52
453.80	508.24
454.17	502.29
454.54	496.77
454.91	490.53
455.28	484.32
455.65	478.52
456.02	472.83
456.38	467.98
456.75	461.89
457.12	456.82
457.49	451.75
457.86	446.79
458.23	442.63
458.59	437.74
458.96	432.77
459.33	428.59
459.70	424.25
460.07	420.67
460.43	416.72
460.80	412.69
461.17	409.40
461.54	405.93
461.91	402.64
462.27	399.23
462.64	396.39
463.01	393.30
463.38	390.30
463.74	387.25
464.11	384.50
464.48	381.98
464.85	379.29
465.21	377.20
465.58	375.13
465.95	372.56
466.32	370.25
466.68	368.17
467.05	365.81
467.42	363.58
467.78	361.45
468.15	359.29
468.52	357.76
468.88	355.67
469.25	353.91
469.62	352.40
469.98	350.57
470.35	349.03
470.72	347.40
471.08	345.67
471.45	344.30
471.82	342.87
472.18	341.29
472.55	340.05
472.92	338.55
473.28	337.29
473.65	335.90
474.02	334.75
474.38	333.59
474.75	332.86
475.11	331.82
475.48	331.00
475.85	330.31
476.21	329.43
476.58	328.65
476.94	328.00
477.31	327.22
477.67	326.47
478.04	325.80
478.41	325.39
478.77	325.11
479.14	324.47
479.50	324.01
479.87	323.87
480.23	323.51
480.60	323.39
480.96	323.13
481.33	323.28
481.69	323.31
482.06	323.08
482.42	322.92
482.79	322.99
483.15	323.00
483.52	323.15
483.88	323.22
484.25	323.40
484.61	323.43
484.98	323.59
485.34	324.01
485.71	324.32
486.07	324.66
486.44	324.97
486.80	325.40
487.17	325.90
487.53	326.49
487.90	327.25
488.26	327.88
488.62	328.54
488.99	328.96
489.35	329.51
489.72	330.42
490.08	331.24
490.44	332.09
490.81	332.89
491.17	333.70
491.54	334.61
491.90	335.48
492.26	336.53
492.63	337.68
492.99	338.74
493.36	339.83
493.72	341.08
494.08	342.19
494.45	343.43
494.81	344.67
495.17	345.88
495.54	347.01
495.90	348.19
496.26	349.46
496.63	350.82
496.99	352.14
497.35	353.41
497.72	354.57
498.08	356.08
498.44	357.40
498.80	358.89
499.17	360.29
499.53	361.63
499.89	363.06
500.26	364.39
500.62	365.77
500.98	367.30
501.34	368.46
501.71	369.83
502.07	371.11
502.43	372.37
502.79	373.53
503.16	374.86
503.52	376.19
503.88	377.37
504.24	378.47
504.60	379.73
504.97	380.75
505.33	381.92
505.69	383.07
506.05	384.20
506.41	385.06
506.78	386.13
507.14	387.11
507.50	387.90
507.86	388.76
508.22	389.54
508.59	390.23
508.95	391.08
509.31	391.81
509.67	392.45
510.03	392.96
510.39	393.61
510.75	394.23
511.12	394.69
511.48	395.12
511.84	395.63
512.20	395.89
512.56	396.55
512.92	397.10
513.28	397.17
513.64	397.37
514.00	397.53
514.37	397.58
514.73	397.91
515.09	398.14
515.45	398.12
515.81	398.24
516.17	398.32
516.53	398.56
516.89	398.60
517.25	398.73
517.61	399.01
517.97	398.99
518.33	399.12
518.69	399.12
519.05	399.21
519.41	399.42
519.77	399.84
520.13	399.90
520.49	399.83
520.85	400.10
521.21	400.35
521.57	400.70
521.93	400.93
522.29	401.08
522.65	401.45
523.01	401.82
523.37	402.22
523.73	402.67
524.09	402.86
524.45	403.49
524.81	404.02
525.17	404.78
525.53	405.59
525.89	406.17
526.25	407.18
526.61	407.95
526.97	408.95
527.33	409.78
527.68	410.95
528.04	411.85
528.40	413.04
528.76	414.20
529.12	415.50
529.48	416.95
529.84	418.34
530.20	419.74
530.56	421.39
530.91	423.15
531.27	424.72
531.63	426.51
531.99	428.32
532.35	430.27
532.71	432.04
533.07	434.17
533.42	436.56
533.78	438.67
534.14	441.06
534.50	443.24
534.86	445.73
535.21	448.03
535.57	450.88
535.93	453.44
536.29	456.25
536.65	459.17
537.00	462.02
537.36	465.12
537.72	468.12
538.08	471.31
538.44	474.40
538.79	477.76
539.15	480.94
539.51	484.17
539.87	487.53
540.22	490.93
540.58	494.38
540.94	497.39
541.29	500.72
541.65	504.06
542.01	507.78
542.37	511.50
542.72	515.19
543.08	518.82
543.44	522.65
543.79	526.32
544.15	529.90
544.51	533.67
544.87	537.47
545.22	541.43
545.58	545.24
545.94	548.98
546.29	552.89
546.65	557.07
547.01	561.12
547.36	565.14
547.72	569.11
548.07	573.06
548.43	577.40
548.79	581.69
549.14	585.90
549.50	589.83
549.86	593.74
550.21	597.80
550.57	602.08
550.92	606.14
551.28	610.52
551.64	614.55
551.99	618.84
552.35	622.95
552.70	627.23
553.06	631.50
553.41	635.93
553.77	640.22
554.13	644.30
554.48	648.52
554.84	652.83
555.19	656.98
555.55	661.14
555.90	665.10
556.26	669.33
556.61	673.39
556.97	677.55
557.32	681.63
557.68	685.87
558.03	689.82
558.39	693.97
558.74	698.21
559.10	702.37
559.45	706.63
559.81	711.11
560.16	714.95
560.52	718.70
560.87	722.62
561.23	726.08
561.58	730.43
561.94	734.20
562.29	737.84
562.64	741.65
563.00	745.37
563.35	749.44
563.71	753.32
564.06	757.43
564.42	761.13
564.77	765.03
565.12	768.62
565.48	772.48
565.83	775.95
566.19	779.36
566.54	783.05
566.89	786.13
567.25	789.38
567.60	793.03
567.96	796.81
568.31	799.95
568.66	803.51
569.02	806.39
569.37	809.73
569.72	812.93
570.08	816.24
570.43	819.37
570.78	822.12
571.14	824.64
571.49	827.33
571.84	830.18
572.20	832.65
572.55	835.22
572.90	837.61
573.26	840.31
573.61	842.43
573.96	845.09
574.31	847.05
574.67	848.61
575.02	850.17
575.37	851.79
575.72	853.38
576.08	855.01
576.43	856.51
576.78	857.90
577.13	859.52
577.49	860.69
577.84	862.10
578.19	863.42
578.54	864.75
578.90	865.70
579.25	866.64
579.60	867.70
579.95	868.50
580.30	868.99
580.66	869.63
581.01	870.26
581.36	870.50
581.71	871.59
582.06	872.48
582.42	873.07
582.77	873.70
583.12	874.46
583.47	875.24
583.82	875.99
584.17	876.46
584.53	876.75
584.88	877.07
585.23	877.28
585.58	877.38
585.93	877.70
586.28	878.14
586.63	878.51
586.98	878.72
587.34	878.95
587.69	879.02
588.04	879.22
588.39	879.32
588.74	879.18
589.09	878.76
589.44	878.22
589.79	878.08
590.14	877.84
590.49	877.29
590.84	876.64
591.19	876.05
591.54	875.15
591.89	874.18
592.25	873.54
592.60	872.68
592.95	871.74
593.30	870.92
593.65	869.80
594.00	868.68
594.35	867.93
594.70	866.70
595.05	865.92
595.40	864.40
595.75	863.24
596.10	862.05
596.45	861.05
596.80	860.20
597.15	859.30
597.50	857.96
597.85	856.91
598.19	855.99
598.54	854.60
598.89	853.64
599.24	852.61
599.59	851.25
599.94	849.90
600.29	848.80
600.64	847.31
600.99	845.75
601.34	844.38
601.69	842.53
602.04	841.08
602.39	839.60
602.74	838.43
603.08	837.06
603.43	835.71
603.78	834.33
604.13	832.74
604.48	830.83
604.83	829.47
605.18	828.05
605.53	825.80
605.87	823.83
606.22	821.84
606.57	819.94
606.92	818.27
607.27	816.69
607.62	815.19
607.96	813.64
608.31	812.29
608.66	810.44
609.01	808.46
609.36	806.19
609.70	803.78
610.05	801.32
610.40	799.33
610.75	797.11
611.10	794.71
611.44	791.98
611.79	789.90
612.14	787.31
612.49	784.63
612.83	782.57
613.18	780.40
613.53	778.04
613.88	775.60
614.22	773.05
614.57	770.26
614.92	767.23
615.27	764.51
615.61	761.72
615.96	758.92
616.31	756.55
616.65	754.75
617.00	752.63
617.35	750.30
617.70	747.42
618.04	744.73
618.39	742.36
618.74	740.41
619.08	737.80
619.43	735.32
619.78	732.91
620.12	730.25
620.47	727.80
620.82	725.08
621.16	722.87
621.51	720.62
621.85	718.16
622.20	715.72
622.55	713.12
622.89	710.63
623.24	708.35
623.59	705.79
623.93	702.94
624.28	700.44
624.62	698.02
624.97	695.86
625.32	693.62
625.66	691.16
626.01	688.56
626.35	686.15
626.70	683.55
627.04	681.16
627.39	678.81
627.73	676.17
628.08	674.08
628.43	671.20
628.77	668.45
629.12	665.98
629.46	663.51
629.81	660.80
630.15	658.09
630.50	655.38
630.84	652.57
631.19	649.83
631.53	647.12
631.88	644.25
632.22	641.24
632.57	638.51
632.91	635.63
633.26	633.07
633.60	630.22
633.95	627.68
634.29	624.89
634.64	622.38
634.98	619.73
635.32	617.15
635.67	614.95
636.01	612.61
636.36	610.15
636.70	607.94
637.05	605.76
637.39	603.50
637.73	601.07
638.08	599.10
638.42	597.00
638.77	594.55
639.11	592.38
639.45	590.14
639.80	587.74
640.14	585.64
640.49	583.24
640.83	581.03
641.17	578.82
641.52	576.46
641.86	573.91
642.20	571.72
642.55	569.20
642.89	566.96
643.23	564.50
643.58	562.20
643.92	559.53
644.26	557.00
644.61	554.78
644.95	552.50
645.29	549.80
645.64	547.25
645.98	544.90
646.32	542.54
646.66	540.13
647.01	537.82
647.35	535.40
647.69	533.04
648.04	530.92
648.38	528.28
648.72	525.91
649.06	523.45
649.41	521.13
649.75	518.77
650.09	516.13
650.43	513.69
650.78	511.23
651.12	508.80
651.46	506.52
651.80	504.28
652.14	502.23
652.49	500.10
652.83	498.05
653.17	495.86
653.51	493.42
653.85	491.27
654.20	489.04
654.54	486.60
654.88	484.25
655.22	481.67
655.56	479.43
655.90	477.29
656.25	475.19
656.59	473.04
656.93	471.02
657.27	468.81
657.61	466.69
657.95	464.61
658.29	462.59
658.64	460.50
658.98	458.10
659.32	455.65
659.66	453.52
660.00	451.35
660.34	449.32
660.68	447.40
661.02	445.21
661.36	443.18
661.70	441.26
662.05	439.45
662.39	437.70
662.73	436.04
663.07	434.36
663.41	432.70
663.75	430.84
664.09	428.92
664.43	427.24
664.77	425.57
665.11	423.81
665.45	422.11
665.79	420.30
666.13	418.63
666.47	417.04
666.81	415.25
667.15	413.25
667.49	411.44
667.83	409.79
668.17	408.26
668.51	406.43
668.85	404.79
669.19	403.26
669.53	401.66
669.87	399.81
670.21	398.07
670.55	396.43
670.89	394.91
671.23	393.49
671.57	391.96
671.91	390.60
672.25	389.12
672.58	387.81
672.92	386.44
673.26	385.17
673.60	383.80
673.94	382.53
674.28	381.56
674.62	380.36
674.96	379.05
675.30	377.76
675.64	376.56
675.97	375.31
676.31	373.84
676.65	372.58
676.99	371.62
677.33	370.31
677.67	368.95
678.01	367.56
678.34	366.19
678.68	364.99
679.02	363.52
679.36	362.25
679.70	360.99
680.04	359.69
680.37	358.27
680.71	356.98
681.05	355.78
681.39	354.48
681.73	353.27
682.06	352.24
682.40	351.05
682.74	349.99
683.08	348.82
683.42	347.80
683.75	346.62
684.09	345.46
684.43	344.47
684.77	343.44
685.10	342.41
685.44	341.42
685.78	340.23
686.12	339.31
686.45	338.15
686.79	337.01
687.13	336.06
687.46	334.99
687.80	333.97
688.14	332.86
688.48	331.71
688.81	330.56
689.15	329.38
689.49	328.32
689.82	327.20
690.16	326.22
690.50	325.15
690.83	324.06
691.17	322.84
691.51	321.79
691.84	320.76
692.18	319.77
692.52	318.78
692.85	317.91
693.19	316.93
693.52	315.98
693.86	315.05
694.20	314.00
694.53	313.10
694.87	312.24
695.21	311.37
695.54	310.49
695.88	309.70
696.21	308.66
696.55	307.77
696.88	306.92
697.22	305.92
697.56	305.15
697.89	304.24
698.23	303.57
698.56	302.73
698.90	301.91
699.23	300.94
699.57	300.13
699.90	299.24
700.24	298.33
700.58	297.63
700.91	296.83
701.25	296.27
701.58	295.59
701.92	294.86
702.25	294.12
702.59	293.44
702.92	292.75
703.26	292.19
703.59	291.43
703.93	290.81
704.26	290.29
704.60	289.60
704.93	288.97
705.26	288.20
705.60	287.57
705.93	286.96
706.27	286.59
706.60	286.19
706.94	285.67
707.27	284.98
707.61	284.43
707.94	283.87
708.27	283.27
708.61	282.73
708.94	282.17
709.28	281.70
709.61	281.14
709.94	280.53
710.28	279.99
710.61	279.64
710.95	279.04
711.28	278.61
711.61	278.10
711.95	277.67
712.28	277.18
712.61	276.61
712.95	276.12
713.28	275.59
713.61	274.90
713.95	274.30
714.28	274.01
714.61	273.36
714.95	272.90
715.28	272.35
715.61	271.80
715.95	271.40
716.28	270.77
716.61	270.37
716.95	269.87
717.28	269.46
717.61	269.02
717.94	268.58
718.28	267.95
718.61	267.47
718.94	267.10
719.27	266.77
719.61	266.46
719.94	266.08
720.27	265.53
720.60	265.12
720.94	264.75
721.27	264.26
721.60	264.10
721.93	263.70
722.27	263.47
722.60	263.13
722.93	262.68
723.26	262.46
723.59	262.03
723.93	261.71
724.26	261.34
724.59	260.93
724.92	260.65
725.25	260.44
725.59	260.12
725.92	259.79
726.25	259.46
726.58	258.99
726.91	258.76
727.24	258.56
727.57	258.32
727.91	258.10
728.24	257.87
728.57	257.48
728.90	257.15
729.23	256.66
729.56	256.48
729.89	256.12
730.22	255.79
730.55	255.68
730.89	255.47
731.22	255.12
731.55	254.82
731.88	254.57
732.21	254.38
732.54	254.03
732.87	253.74
733.20	253.45
733.53	253.34
733.86	252.88
734.19	252.59
734.52	252.29
734.85	252.04
735.18	251.78
735.51	251.62
735.84	251.44
736.17	251.26
736.50	250.93
736.83	250.96
737.16	250.64
737.49	250.31
737.82	250.00
738.15	249.85
738.48	249.61
738.81	249.31
739.14	248.93
739.47	248.76
739.80	248.38
740.13	248.06
740.46	247.71
740.79	247.53
741.12	247.26
741.45	247.00
741.78	246.69
742.11	246.54
742.44	246.26
742.77	246.05
743.10	245.79
743.43	245.43
743.75	245.07
744.08	245.12
744.41	244.88
744.74	244.68
745.07	244.33
745.40	244.27
745.73	244.21
746.06	244.06
746.39	243.84
746.71	243.75
747.04	243.60
747.37	243.37
747.70	243.31
748.03	243.13
748.36	243.07
748.68	242.97
749.01	242.70
749.34	242.54
749.67	242.30
750.00	242.14
750.33	242.20
750.65	241.91
750.98	241.58
751.31	241.40
751.64	241.30
751.97	241.28
752.29	241.08
752.62	240.81
752.95	240.60
753.28	240.46
753.60	240.31
753.93	240.26
754.26	240.29
754.59	239.99
754.91	239.87
755.24	239.59
755.57	239.54
755.90	239.44
756.22	239.40
756.55	239.32
756.88	239.26
757.20	239.02
757.53	238.99
757.86	238.87
758.19	238.91
758.51	238.82
758.84	238.72
759.17	238.56
759.49	238.48
759.82	238.53
760.15	238.49
760.47	238.47
760.80	238.34
761.13	238.27
761.45	238.29
761.78	238.23
762.11	238.18
762.43	237.98
762.76	237.80
763.08	237.61
763.41	237.52
763.74	237.39
764.06	237.27
764.39	237.13
764.71	237.06
765.04	236.88
765.37	236.69
765.69	236.66
766.02	236.61
766.34	236.55
766.67	236.43
767.00	236.38
767.32	236.37
767.65	236.30
767.97	236.19
768.30	236.04
768.62	235.96
768.95	235.93
769.27	235.80
769.60	235.78
769.92	235.69
770.25	235.57
770.57	235.46
770.90	235.39
771.22	235.35
771.55	235.15
771.87	235.11
772.20	235.02
772.52	235.06
772.85	235.21
773.17	235.06
773.50	234.94
773.82	234.92
774.15	234.69
774.47	234.61
774.80	234.40
775.12	234.30
775.45	234.34
775.77	234.18
776.09	234.10
776.42	234.13
776.74	234.12
777.07	234.09
777.39	233.95
777.72	233.87
778.04	233.79
778.36	233.78
778.69	233.69
779.01	233.66
779.33	233.38
779.66	232.99
779.98	232.92
780.31	232.78
780.63	232.65
780.95	232.70
781.28	232.55
781.60	232.50
781.92	232.43
782.25	232.26
782.57	232.20
782.89	232.21
783.22	232.04
783.54	231.92
783.86	231.82
784.19	231.87
784.51	231.88
784.83	231.76
785.16	231.75
785.48	231.67
785.80	231.60
786.12	231.53
786.45	231.63
786.77	231.65
787.09	231.63
787.42	231.67
787.74	231.56
788.06	231.61
788.38	231.51
788.71	231.52
789.03	231.45
789.35	231.50
789.67	231.43
789.99	231.52
790.32	231.49
790.64	231.56
790.96	231.70
791.28	231.65
791.61	231.68
791.93	231.65
792.25	231.65
792.57	231.85
792.89	231.91
793.21	231.89
793.54	231.90
793.86	231.93
794.18	231.88
