SpectraSuite Data File
++++++++++++++++++++++++++++++++++++
Date: Fri Feb 01 14:41:14 EST 2013
User: group
Dark Spectrum Present: No
Reference Spectrum Present: No
Number of Sampled Component Spectra: 1
Spectrometers: USB2E7196
Integration Time (usec): 70000 (USB2E7196)
Spectra Averaged: 10 (USB2E7196)
Boxcar Smoothing: 10 (USB2E7196)
Correct for Electrical Dark: No (USB2E7196)
Strobe/Lamp Enabled: No (USB2E7196)
Correct for Detector Non-linearity: No (USB2E7196)
Correct for Stray Light: No (USB2E7196)
Number of Pixels in Processed Spectrum: 2048
>>>>>Begin Processed Spectral Data<<<<<
339.09	0.00
339.48	215.10
339.86	218.00
340.24	218.40
340.63	220.60
341.01	223.80
341.39	222.40
341.78	224.90
342.16	226.60
342.54	225.90
342.93	214.42
343.31	225.28
343.69	225.91
344.07	226.39
344.46	226.97
344.84	227.37
345.22	227.63
345.60	227.91
345.99	228.13
346.37	228.19
346.75	228.34
347.13	228.46
347.52	228.55
347.90	228.56
348.28	228.69
348.66	228.76
349.05	228.82
349.43	228.94
349.81	229.01
350.19	229.11
350.57	229.15
350.96	229.16
351.34	229.31
351.72	229.40
352.10	229.55
352.48	229.42
352.87	229.43
353.25	229.46
353.63	229.52
354.01	229.50
354.39	229.63
354.77	229.70
355.15	229.94
355.54	230.09
355.92	230.21
356.30	230.14
356.68	230.30
357.06	230.36
357.44	230.30
357.82	230.47
358.20	230.52
358.58	230.58
358.97	230.65
359.35	230.71
359.73	230.69
360.11	230.69
360.49	230.79
360.87	230.90
361.25	230.96
361.63	231.10
362.01	231.19
362.39	231.24
362.77	231.26
363.15	231.17
363.53	231.19
363.91	231.22
364.29	231.32
364.67	231.17
365.05	231.15
365.43	231.21
365.81	231.16
366.19	231.15
366.57	231.23
366.95	231.28
367.33	231.15
367.71	231.18
368.09	231.15
368.47	231.13
368.85	231.10
369.23	231.12
369.61	230.99
369.99	230.96
370.37	230.90
370.75	230.98
371.13	230.90
371.51	230.77
371.89	230.67
372.27	230.62
372.65	230.59
373.03	230.61
373.41	230.53
373.78	230.42
374.16	230.27
374.54	230.18
374.92	230.12
375.30	230.02
375.68	229.88
376.06	229.77
376.44	229.62
376.82	229.59
377.19	229.40
377.57	229.28
377.95	229.19
378.33	229.08
378.71	228.82
379.09	228.75
379.47	228.69
379.84	228.64
380.22	228.53
380.60	228.51
380.98	228.28
381.36	228.15
381.73	228.05
382.11	228.07
382.49	228.00
382.87	227.80
383.25	227.79
383.62	227.95
384.00	227.95
384.38	227.97
384.76	227.90
385.13	228.01
385.51	228.01
385.89	227.94
386.27	227.90
386.64	227.89
387.02	227.88
387.40	227.92
387.78	227.94
388.15	227.89
388.53	227.82
388.91	227.84
389.29	227.90
389.66	227.88
390.04	227.93
390.42	227.94
390.79	228.01
391.17	228.02
391.55	227.88
391.92	227.82
392.30	227.79
392.68	227.77
393.05	227.76
393.43	227.76
393.81	227.77
394.18	227.80
394.56	227.78
394.94	227.90
395.31	227.85
395.69	227.87
396.06	227.89
396.44	227.96
396.82	228.05
397.19	228.15
397.57	228.23
397.95	228.17
398.32	228.28
398.70	228.43
399.07	228.55
399.45	228.60
399.82	228.63
400.20	228.73
400.58	228.78
400.95	228.72
401.33	228.86
401.70	229.18
402.08	229.32
402.45	229.52
402.83	229.62
403.20	229.68
403.58	229.84
403.95	230.07
404.33	230.24
404.71	230.42
405.08	230.66
405.46	230.77
405.83	231.01
406.21	231.13
406.58	231.28
406.96	231.45
407.33	231.65
407.70	231.99
408.08	232.38
408.45	232.63
408.83	232.96
409.20	233.24
409.58	233.30
409.95	233.50
410.33	233.76
410.70	234.06
411.08	234.48
411.45	234.79
411.82	235.09
412.20	235.42
412.57	235.81
412.95	236.06
413.32	236.58
413.69	237.00
414.07	237.57
414.44	238.17
414.82	238.70
415.19	239.23
415.56	239.83
415.94	240.46
416.31	241.29
416.68	242.07
417.06	242.86
417.43	243.61
417.81	244.48
418.18	245.50
418.55	246.46
418.93	247.45
419.30	248.44
419.67	249.48
420.04	250.69
420.42	251.89
420.79	253.44
421.16	254.88
421.54	256.23
421.91	257.60
422.28	259.09
422.66	260.62
423.03	262.32
423.40	263.92
423.77	265.53
424.15	267.14
424.52	268.76
424.89	270.65
425.26	272.60
425.64	274.40
426.01	276.19
426.38	278.09
426.75	280.09
427.13	282.10
427.50	284.22
427.87	286.30
428.24	288.48
428.61	290.33
428.99	292.62
429.36	295.18
429.73	297.61
430.10	299.85
430.47	302.20
430.85	304.63
431.22	307.29
431.59	310.13
431.96	312.70
432.33	315.54
432.70	318.28
433.08	321.54
433.45	324.62
433.82	327.70
434.19	331.10
434.56	334.28
434.93	337.40
435.30	340.66
435.68	344.10
436.05	347.40
436.42	350.67
436.79	353.48
437.16	356.48
437.53	359.71
437.90	362.94
438.27	366.27
438.64	369.52
439.01	372.52
439.38	375.17
439.75	377.76
440.13	380.71
440.50	383.40
440.87	385.51
441.24	387.69
441.61	390.23
441.98	392.00
442.35	394.07
442.72	396.23
443.09	398.15
443.46	399.33
443.83	399.98
444.20	400.46
444.57	401.49
444.94	401.71
445.31	402.08
445.68	402.58
446.05	402.64
446.42	402.09
446.79	401.47
447.16	400.85
447.53	400.35
447.90	399.00
448.27	397.75
448.64	395.78
449.01	394.54
449.37	392.31
449.74	389.92
450.11	387.47
450.48	384.44
450.85	381.36
451.22	378.83
451.59	376.35
451.96	374.13
452.33	371.08
452.70	368.37
453.07	364.96
453.43	361.51
453.80	358.23
454.17	355.33
454.54	352.32
454.91	349.08
455.28	345.96
455.65	343.05
456.02	340.16
456.38	337.69
456.75	334.51
457.12	331.64
457.49	329.08
457.86	326.47
458.23	324.33
458.59	322.01
458.96	319.49
459.33	317.36
459.70	315.16
460.07	313.20
460.43	311.25
460.80	309.38
461.17	307.58
461.54	305.78
461.91	303.93
462.27	302.20
462.64	300.73
463.01	299.18
463.38	297.69
463.74	295.90
464.11	294.49
464.48	293.26
464.85	291.90
465.21	290.77
465.58	289.54
465.95	288.24
466.32	287.10
466.68	285.87
467.05	284.82
467.42	283.76
467.78	282.64
468.15	281.57
468.52	280.88
468.88	279.96
469.25	278.93
469.62	278.05
469.98	277.11
470.35	276.20
470.72	275.38
471.08	274.53
471.45	273.95
471.82	273.37
472.18	272.58
472.55	272.03
472.92	271.45
473.28	270.86
473.65	270.19
474.02	269.64
474.38	269.10
474.75	268.62
475.11	268.06
475.48	267.71
475.85	267.20
476.21	266.71
476.58	266.33
476.94	266.11
477.31	265.91
477.67	265.83
478.04	265.63
478.41	265.51
478.77	265.50
479.14	265.27
479.50	265.06
479.87	264.93
480.23	264.87
480.60	264.68
480.96	264.68
481.33	264.78
481.69	264.79
482.06	264.92
482.42	264.98
482.79	265.10
483.15	265.22
483.52	265.54
483.88	265.62
484.25	265.74
484.61	265.85
484.98	266.09
485.34	266.31
485.71	266.70
486.07	266.94
486.44	267.10
486.80	267.46
487.17	267.84
487.53	268.35
487.90	268.85
488.26	269.57
488.62	270.19
488.99	270.74
489.35	271.41
489.72	272.20
490.08	273.00
490.44	273.77
490.81	274.68
491.17	275.58
491.54	276.85
491.90	277.96
492.26	279.23
492.63	280.43
492.99	281.66
493.36	282.99
493.72	284.65
494.08	286.35
494.45	288.13
494.81	289.96
495.17	291.88
495.54	293.96
495.90	296.07
496.26	298.26
496.63	300.69
496.99	303.17
497.35	305.80
497.72	308.46
498.08	311.44
498.44	314.31
498.80	317.62
499.17	320.81
499.53	324.30
499.89	327.87
500.26	331.58
500.62	335.52
500.98	339.71
501.34	343.80
501.71	348.24
502.07	352.68
502.43	357.47
502.79	362.38
503.16	367.49
503.52	372.96
503.88	378.60
504.24	384.32
504.60	390.29
504.97	396.61
505.33	403.12
505.69	409.83
506.05	416.86
506.41	423.81
506.78	431.16
507.14	438.86
507.50	446.73
507.86	454.76
508.22	463.04
508.59	471.43
508.95	480.25
509.31	489.29
509.67	498.74
510.03	508.20
510.39	518.09
510.75	528.34
511.12	538.34
511.48	548.76
511.84	559.54
512.20	570.58
512.56	581.62
512.92	593.15
513.28	604.86
513.64	616.86
514.00	629.18
514.37	641.65
514.73	654.08
515.09	666.90
515.45	679.95
515.81	693.24
516.17	706.95
516.53	720.86
516.89	734.72
517.25	748.90
517.61	763.25
517.97	777.68
518.33	791.94
518.69	806.82
519.05	822.23
519.41	837.62
519.77	853.27
520.13	869.37
520.49	885.01
520.85	901.10
521.21	917.18
521.57	933.76
521.93	949.98
522.29	966.88
522.65	983.17
523.01	1000.13
523.37	1016.87
523.73	1033.81
524.09	1050.27
524.45	1067.28
524.81	1084.70
525.17	1102.43
525.53	1120.26
525.89	1138.31
526.25	1156.50
526.61	1173.91
526.97	1191.98
527.33	1210.16
527.68	1228.08
528.04	1246.26
528.40	1264.44
528.76	1283.06
529.12	1301.38
529.48	1319.93
529.84	1337.95
530.20	1357.05
530.56	1375.99
530.91	1395.43
531.27	1414.78
531.63	1434.45
531.99	1453.27
532.35	1471.65
532.71	1489.80
533.07	1508.70
533.42	1527.04
533.78	1545.09
534.14	1563.67
534.50	1581.10
534.86	1598.79
535.21	1616.58
535.57	1635.11
535.93	1653.05
536.29	1670.74
536.65	1688.56
537.00	1706.14
537.36	1724.18
537.72	1741.32
538.08	1757.79
538.44	1774.24
538.79	1790.09
539.15	1805.80
539.51	1822.61
539.87	1839.42
540.22	1855.97
540.58	1872.47
540.94	1888.56
541.29	1904.31
541.65	1919.96
542.01	1936.73
542.37	1952.50
542.72	1967.60
543.08	1982.20
543.44	1997.33
543.79	2010.96
544.15	2025.09
544.51	2039.93
544.87	2053.82
545.22	2067.53
545.58	2081.33
545.94	2094.03
546.29	2107.38
546.65	2120.28
547.01	2132.66
547.36	2144.65
547.72	2156.31
548.07	2167.65
548.43	2179.04
548.79	2190.07
549.14	2200.86
549.50	2210.62
549.86	2220.92
550.21	2231.22
550.57	2241.59
550.92	2251.40
551.28	2261.68
551.64	2270.70
551.99	2280.01
552.35	2288.96
552.70	2298.38
553.06	2307.62
553.41	2316.95
553.77	2325.89
554.13	2335.14
554.48	2343.63
554.84	2351.84
555.19	2360.16
555.55	2367.88
555.90	2375.04
556.26	2382.99
556.61	2390.66
556.97	2398.11
557.32	2405.16
557.68	2412.33
558.03	2419.02
558.39	2425.49
558.74	2433.01
559.10	2439.93
559.45	2445.90
559.81	2453.06
560.16	2458.65
560.52	2463.95
560.87	2470.13
561.23	2474.86
561.58	2479.93
561.94	2485.01
562.29	2489.59
562.64	2493.97
563.00	2497.90
563.35	2503.85
563.71	2509.11
564.06	2514.10
564.42	2518.76
564.77	2523.17
565.12	2527.74
565.48	2532.14
565.83	2535.50
566.19	2538.27
566.54	2541.26
566.89	2544.17
567.25	2546.57
567.60	2550.17
567.96	2553.20
568.31	2555.53
568.66	2558.18
569.02	2560.14
569.37	2561.68
569.72	2564.00
570.08	2565.58
570.43	2566.95
570.78	2566.86
571.14	2566.79
571.49	2566.56
571.84	2567.41
572.20	2567.20
572.55	2566.04
572.90	2564.81
573.26	2564.72
573.61	2564.28
573.96	2562.97
574.31	2560.71
574.67	2557.65
575.02	2554.30
575.37	2552.04
575.72	2548.42
576.08	2546.03
576.43	2543.32
576.78	2540.69
577.13	2537.72
577.49	2535.21
577.84	2532.62
578.19	2529.58
578.54	2526.11
578.90	2521.62
579.25	2516.20
579.60	2511.33
579.95	2506.85
580.30	2502.37
580.66	2496.94
581.01	2491.79
581.36	2487.51
581.71	2483.22
582.06	2479.03
582.42	2474.34
582.77	2469.29
583.12	2464.25
583.47	2459.20
583.82	2454.06
584.17	2448.47
584.53	2443.26
584.88	2437.79
585.23	2432.25
585.58	2427.07
585.93	2421.25
586.28	2416.82
586.63	2412.53
586.98	2408.18
587.34	2403.34
587.69	2397.85
588.04	2392.64
588.39	2387.40
588.74	2380.25
589.09	2373.80
589.44	2366.92
589.79	2360.85
590.14	2354.94
590.49	2348.82
590.84	2341.79
591.19	2335.40
591.54	2327.87
591.89	2319.67
592.25	2312.52
592.60	2304.21
592.95	2296.07
593.30	2288.22
593.65	2280.10
594.00	2271.86
594.35	2264.01
594.70	2255.69
595.05	2247.90
595.40	2239.58
595.75	2230.92
596.10	2224.20
596.45	2217.26
596.80	2210.77
597.15	2203.94
597.50	2196.12
597.85	2189.40
598.19	2182.58
598.54	2175.46
598.89	2169.28
599.24	2163.04
599.59	2156.24
599.94	2150.15
600.29	2143.19
600.64	2136.60
600.99	2128.68
601.34	2121.50
601.69	2113.89
602.04	2106.61
602.39	2099.28
602.74	2093.18
603.08	2086.61
603.43	2079.49
603.78	2072.13
604.13	2064.78
604.48	2056.98
604.83	2049.67
605.18	2042.10
605.53	2033.69
605.87	2024.53
606.22	2016.41
606.57	2008.26
606.92	1999.93
607.27	1991.81
607.62	1984.28
607.96	1976.35
608.31	1969.06
608.66	1960.71
609.01	1951.85
609.36	1943.06
609.70	1933.63
610.05	1923.60
610.40	1914.41
610.75	1905.03
611.10	1895.91
611.44	1886.02
611.79	1877.11
612.14	1867.36
612.49	1857.16
612.83	1847.61
613.18	1838.66
613.53	1829.42
613.88	1819.47
614.22	1809.42
614.57	1799.54
614.92	1790.04
615.27	1780.55
615.61	1771.09
615.96	1761.70
616.31	1753.09
616.65	1745.12
617.00	1737.07
617.35	1728.67
617.70	1719.70
618.04	1710.55
618.39	1701.52
618.74	1693.04
619.08	1683.37
619.43	1674.86
619.78	1666.84
620.12	1658.58
620.47	1650.04
620.82	1640.90
621.16	1632.82
621.51	1624.46
621.85	1615.84
622.20	1606.56
622.55	1597.69
622.89	1589.41
623.24	1581.17
623.59	1572.97
623.93	1563.94
624.28	1554.88
624.62	1546.19
624.97	1537.72
625.32	1529.77
625.66	1521.73
626.01	1513.40
626.35	1505.32
626.70	1496.67
627.04	1488.08
627.39	1479.35
627.73	1470.85
628.08	1462.64
628.43	1453.82
628.77	1445.48
629.12	1436.89
629.46	1428.54
629.81	1419.73
630.15	1410.46
630.50	1401.29
630.84	1391.56
631.19	1382.40
631.53	1373.94
631.88	1364.80
632.22	1356.00
632.57	1347.23
632.91	1337.95
633.26	1328.98
633.60	1320.00
633.95	1311.60
634.29	1303.13
634.64	1295.00
634.98	1286.54
635.32	1278.51
635.67	1270.81
636.01	1262.83
636.36	1254.82
636.70	1247.02
637.05	1239.48
637.39	1232.30
637.73	1225.14
638.08	1218.41
638.42	1211.42
638.77	1204.26
639.11	1196.95
639.45	1189.49
639.80	1181.70
640.14	1174.52
640.49	1167.34
640.83	1160.12
641.17	1152.71
641.52	1145.29
641.86	1137.62
642.20	1130.43
642.55	1122.90
642.89	1115.39
643.23	1107.86
643.58	1101.44
643.92	1094.09
644.26	1087.05
644.61	1080.29
644.95	1073.10
645.29	1065.41
645.64	1057.69
645.98	1050.26
646.32	1043.39
646.66	1036.01
647.01	1029.03
647.35	1022.16
647.69	1015.20
648.04	1008.53
648.38	1001.30
648.72	994.10
649.06	987.21
649.41	980.41
649.75	973.26
650.09	966.05
650.43	958.96
650.78	951.12
651.12	944.25
651.46	937.46
651.80	930.17
652.14	923.42
652.49	916.67
652.83	910.41
653.17	903.45
653.51	896.99
653.85	890.34
654.20	883.91
654.54	876.97
654.88	870.23
655.22	863.26
655.56	856.88
655.90	850.44
656.25	844.16
656.59	837.54
656.93	831.55
657.27	825.58
657.61	819.56
657.95	814.11
658.29	808.14
658.64	802.13
658.98	795.92
659.32	789.47
659.66	783.60
660.00	777.41
660.34	771.65
660.68	765.57
661.02	759.88
661.36	754.43
661.70	749.13
662.05	743.79
662.39	738.70
662.73	733.39
663.07	728.20
663.41	722.95
663.75	717.90
664.09	712.73
664.43	707.52
664.77	702.69
665.11	697.31
665.45	692.56
665.79	687.28
666.13	682.38
666.47	677.79
666.81	672.94
667.15	667.88
667.49	663.28
667.83	658.93
668.17	654.40
668.51	649.60
668.85	644.91
669.19	640.56
669.53	636.10
669.87	631.50
670.21	627.25
670.55	623.11
670.89	619.07
671.23	615.00
671.57	610.81
671.91	606.52
672.25	602.51
672.58	598.27
672.92	594.49
673.26	590.84
673.60	587.09
673.94	583.33
674.28	580.02
674.62	576.36
674.96	572.44
675.30	568.98
675.64	565.37
675.97	562.01
676.31	558.38
676.65	554.68
676.99	551.40
677.33	547.80
677.67	544.32
678.01	540.79
678.34	537.20
678.68	534.02
679.02	530.81
679.36	527.58
679.70	524.43
680.04	521.06
680.37	517.79
680.71	514.51
681.05	511.63
681.39	508.64
681.73	505.62
682.06	502.78
682.40	499.96
682.74	497.10
683.08	494.02
683.42	491.01
683.75	488.26
684.09	485.28
684.43	482.58
684.77	479.76
685.10	476.94
685.44	474.17
685.78	471.52
686.12	468.84
686.45	466.07
686.79	463.20
687.13	460.72
687.46	457.92
687.80	455.44
688.14	452.55
688.48	449.95
688.81	447.41
689.15	444.87
689.49	442.06
689.82	439.65
690.16	437.17
690.50	434.86
690.83	432.47
691.17	429.99
691.51	427.64
691.84	425.49
692.18	423.28
692.52	421.07
692.85	418.73
693.19	416.48
693.52	414.36
693.86	412.12
694.20	409.98
694.53	408.10
694.87	405.96
695.21	403.87
695.54	401.70
695.88	399.62
696.21	397.48
696.55	395.56
696.88	393.51
697.22	391.69
697.56	389.81
697.89	387.90
698.23	386.30
698.56	384.28
698.90	382.37
699.23	380.41
699.57	378.62
699.90	376.80
700.24	374.83
700.58	372.94
700.91	371.30
701.25	369.50
701.58	367.80
701.92	366.11
702.25	364.61
702.59	363.17
702.92	361.62
703.26	360.00
703.59	358.51
703.93	357.06
704.26	355.44
704.60	353.79
704.93	352.15
705.26	350.44
705.60	349.08
705.93	347.52
706.27	346.33
706.60	344.98
706.94	343.50
707.27	342.12
707.61	340.80
707.94	339.39
708.27	337.96
708.61	336.56
708.94	335.16
709.28	333.89
709.61	332.45
709.94	331.24
710.28	329.98
710.61	328.70
710.95	327.34
711.28	326.21
711.61	325.08
711.95	323.90
712.28	322.76
712.61	321.50
712.95	320.39
713.28	319.12
713.61	317.78
713.95	316.74
714.28	315.69
714.61	314.55
714.95	313.59
715.28	312.58
715.61	311.43
715.95	310.42
716.28	309.40
716.61	308.40
716.95	307.32
717.28	306.42
717.61	305.50
717.94	304.69
718.28	303.48
718.61	302.49
718.94	301.74
719.27	300.86
719.61	300.16
719.94	299.48
720.27	298.53
720.60	297.82
720.94	297.10
721.27	296.41
721.60	295.65
721.93	294.88
722.27	294.31
722.60	293.63
722.93	292.90
723.26	292.21
723.59	291.47
723.93	290.81
724.26	290.13
724.59	289.31
724.92	288.50
725.25	288.10
725.59	287.56
725.92	286.81
726.25	286.20
726.58	285.53
726.91	284.72
727.24	284.17
727.57	283.59
727.91	282.81
728.24	282.17
728.57	281.65
728.90	281.06
729.23	280.32
729.56	279.84
729.89	279.36
730.22	278.65
730.55	278.04
730.89	277.43
731.22	276.91
731.55	276.31
731.88	275.82
732.21	275.25
732.54	274.58
732.87	274.16
733.20	273.68
733.53	273.29
733.86	272.86
734.19	272.38
734.52	272.01
734.85	271.66
735.18	271.18
735.51	270.69
735.84	270.21
736.17	269.83
736.50	269.25
736.83	268.98
737.16	268.60
737.49	268.30
737.82	267.82
738.15	267.38
738.48	267.12
738.81	266.70
739.14	266.31
739.47	266.01
739.80	265.59
740.13	265.18
740.46	264.67
740.79	264.18
741.12	263.81
741.45	263.33
741.78	262.81
742.11	262.42
742.44	261.91
742.77	261.55
743.10	261.08
743.43	260.60
743.75	260.00
744.08	259.90
744.41	259.51
744.74	259.12
745.07	258.86
745.40	258.50
745.73	258.22
746.06	257.82
746.39	257.44
746.71	256.99
747.04	256.61
747.37	256.28
747.70	256.00
748.03	255.68
748.36	255.26
748.68	254.99
749.01	254.68
749.34	254.41
749.67	254.15
750.00	253.88
750.33	253.85
750.65	253.45
750.98	252.96
751.31	252.66
751.64	252.45
751.97	252.16
752.29	251.79
752.62	251.47
752.95	251.10
753.28	250.79
753.60	250.54
753.93	250.35
754.26	250.05
754.59	249.66
754.91	249.20
755.24	248.90
755.57	248.65
755.90	248.34
756.22	247.99
756.55	247.64
756.88	247.25
757.20	246.72
757.53	246.48
757.86	246.23
758.19	245.99
758.51	245.81
758.84	245.41
759.17	245.20
759.49	244.84
759.82	244.78
760.15	244.54
760.47	244.31
760.80	243.94
761.13	243.78
761.45	243.66
761.78	243.51
762.11	243.42
762.43	243.14
762.76	243.03
763.08	242.96
763.41	242.84
763.74	242.79
764.06	242.76
764.39	242.60
764.71	242.46
765.04	242.21
765.37	242.03
765.69	241.97
766.02	241.87
766.34	241.62
766.67	241.45
767.00	241.43
767.32	241.44
767.65	241.50
767.97	241.26
768.30	241.21
768.62	241.22
768.95	241.01
769.27	240.94
769.60	240.78
769.92	240.63
770.25	240.50
770.57	240.36
770.90	240.19
771.22	240.08
771.55	240.00
771.87	239.95
772.20	239.86
772.52	239.96
772.85	239.92
773.17	240.00
773.50	239.80
773.82	239.60
774.15	239.36
774.47	239.22
774.80	239.20
775.12	239.10
775.45	238.98
775.77	239.00
776.09	238.96
776.42	238.89
776.74	238.90
777.07	238.76
777.39	238.74
777.72	238.77
778.04	238.71
778.36	238.61
778.69	238.54
779.01	238.42
779.33	238.09
779.66	237.89
779.98	237.84
780.31	237.75
780.63	237.76
780.95	237.74
781.28	237.63
781.60	237.55
781.92	237.50
782.25	237.37
782.57	237.26
782.89	237.15
783.22	237.04
783.54	236.91
783.86	236.91
784.19	236.77
784.51	236.66
784.83	236.54
785.16	236.46
785.48	236.38
785.80	236.32
786.12	236.38
786.45	236.40
