SpectraSuite Data File
++++++++++++++++++++++++++++++++++++
Date: Fri Feb 01 14:37:32 EST 2013
User: group
Dark Spectrum Present: No
Reference Spectrum Present: No
Number of Sampled Component Spectra: 1
Spectrometers: USB2E7196
Integration Time (usec): 70000 (USB2E7196)
Spectra Averaged: 10 (USB2E7196)
Boxcar Smoothing: 10 (USB2E7196)
Correct for Electrical Dark: No (USB2E7196)
Strobe/Lamp Enabled: No (USB2E7196)
Correct for Detector Non-linearity: No (USB2E7196)
Correct for Stray Light: No (USB2E7196)
Number of Pixels in Processed Spectrum: 2048
>>>>>Begin Processed Spectral Data<<<<<
339.09	0.00
339.48	215.50
339.86	218.30
340.24	216.90
340.63	222.30
341.01	224.30
341.39	221.90
341.78	225.30
342.16	226.30
342.54	226.30
342.93	214.40
343.31	225.20
343.69	225.82
344.07	226.24
344.46	226.81
344.84	227.08
345.22	227.23
345.60	227.49
345.99	227.65
346.37	227.73
346.75	227.76
347.13	227.79
347.52	227.82
347.90	227.83
348.28	227.94
348.66	228.02
349.05	227.88
349.43	228.03
349.81	228.10
350.19	228.20
350.57	228.15
350.96	228.17
351.34	228.25
351.72	228.28
352.10	228.37
352.48	228.35
352.87	228.35
353.25	228.43
353.63	228.53
354.01	228.56
354.39	228.72
354.77	228.88
355.15	229.09
355.54	229.10
355.92	229.20
356.30	229.27
356.68	229.42
357.06	229.54
357.44	229.55
357.82	229.62
358.20	229.68
358.58	229.90
358.97	230.02
359.35	230.14
359.73	230.25
360.11	230.29
360.49	230.37
360.87	230.53
361.25	230.62
361.63	230.78
362.01	230.86
362.39	230.71
362.77	230.68
363.15	230.61
363.53	230.58
363.91	230.51
364.29	230.60
364.67	230.52
365.05	230.59
365.43	230.50
365.81	230.48
366.19	230.40
366.57	230.43
366.95	230.32
367.33	230.20
367.71	230.09
368.09	230.16
368.47	230.09
368.85	230.07
369.23	230.04
369.61	229.96
369.99	229.93
370.37	229.97
370.75	230.09
371.13	229.97
371.51	230.02
371.89	229.98
372.27	229.80
372.65	229.61
373.03	229.61
373.41	229.53
373.78	229.51
374.16	229.50
374.54	229.29
374.92	229.30
375.30	229.35
375.68	229.27
376.06	229.14
376.44	229.00
376.82	228.97
377.19	228.91
377.57	228.75
377.95	228.72
378.33	228.62
378.71	228.45
379.09	228.37
379.47	228.24
379.84	228.16
380.22	228.19
380.60	228.06
380.98	227.98
381.36	227.95
381.73	227.79
382.11	227.68
382.49	227.70
382.87	227.63
383.25	227.47
383.62	227.67
384.00	227.50
384.38	227.55
384.76	227.42
385.13	227.41
385.51	227.40
385.89	227.20
386.27	227.12
386.64	227.04
387.02	227.02
387.40	226.97
387.78	227.05
388.15	227.01
388.53	227.08
388.91	226.94
389.29	226.94
389.66	227.00
390.04	226.94
390.42	226.77
390.79	226.63
391.17	226.69
391.55	226.37
391.92	226.30
392.30	226.37
392.68	226.40
393.05	226.39
393.43	226.27
393.81	226.34
394.18	226.29
394.56	226.29
394.94	226.35
395.31	226.42
395.69	226.51
396.06	226.53
396.44	226.53
396.82	226.65
397.19	226.81
397.57	226.75
397.95	226.91
398.32	226.99
398.70	227.20
399.07	227.30
399.45	227.46
399.82	227.64
400.20	227.69
400.58	227.70
400.95	227.70
401.33	227.91
401.70	228.06
402.08	228.28
402.45	228.36
402.83	228.57
403.20	228.71
403.58	228.75
403.95	228.90
404.33	229.10
404.71	229.22
405.08	229.42
405.46	229.68
405.83	229.96
406.21	230.16
406.58	230.31
406.96	230.55
407.33	230.77
407.70	231.09
408.08	231.46
408.45	231.77
408.83	232.15
409.20	232.39
409.58	232.73
409.95	233.11
410.33	233.50
410.70	233.80
411.08	234.25
411.45	234.71
411.82	235.21
412.20	235.70
412.57	236.33
412.95	236.69
413.32	237.36
413.69	237.79
414.07	238.45
414.44	239.10
414.82	239.81
415.19	240.72
415.56	241.50
415.94	242.24
416.31	243.18
416.68	244.19
417.06	245.39
417.43	246.46
417.81	247.59
418.18	248.95
418.55	250.33
418.93	251.73
419.30	253.25
419.67	254.71
420.04	256.30
420.42	257.96
420.79	259.92
421.16	261.78
421.54	263.83
421.91	265.89
422.28	267.96
422.66	270.18
423.03	272.20
423.40	274.42
423.77	276.85
424.15	279.30
424.52	281.75
424.89	284.47
425.26	287.15
425.64	289.75
426.01	292.35
426.38	295.19
426.75	298.22
427.13	301.18
427.50	304.23
427.87	307.61
428.24	310.87
428.61	313.99
428.99	317.35
429.36	321.13
429.73	324.78
430.10	328.65
430.47	332.23
430.85	336.11
431.22	340.28
431.59	344.74
431.96	348.65
432.33	353.14
432.70	357.58
433.08	362.72
433.45	367.62
433.82	372.61
434.19	377.92
434.56	382.92
434.93	388.01
435.30	393.07
435.68	398.50
436.05	403.96
436.42	409.34
436.79	414.40
437.16	419.59
437.53	425.14
437.90	430.39
438.27	435.98
438.64	441.64
439.01	446.83
439.38	451.30
439.75	455.98
440.13	461.05
440.50	465.90
440.87	469.86
441.24	474.05
441.61	478.52
441.98	481.99
442.35	486.08
442.72	489.96
443.09	494.20
443.46	496.81
443.83	498.28
444.20	499.71
444.57	501.89
444.94	503.10
445.31	504.43
445.68	505.82
446.05	506.58
446.42	506.62
446.79	506.42
447.16	506.26
447.53	506.50
447.90	504.97
448.27	503.41
448.64	501.00
449.01	499.39
449.37	496.44
449.74	493.49
450.11	489.79
450.48	485.70
450.85	481.40
451.22	477.80
451.59	474.63
451.96	471.59
452.33	467.02
452.70	463.14
453.07	458.15
453.43	453.25
453.80	448.42
454.17	443.60
454.54	439.14
454.91	434.23
455.28	429.32
455.65	425.05
456.02	420.63
456.38	416.82
456.75	412.02
457.12	407.82
457.49	403.93
457.86	400.06
458.23	396.80
458.59	392.87
458.96	388.90
459.33	385.58
459.70	382.13
460.07	379.33
460.43	375.96
460.80	373.05
461.17	370.36
461.54	367.55
461.91	364.87
462.27	362.13
462.64	359.73
463.01	357.19
463.38	354.68
463.74	352.07
464.11	349.84
464.48	347.81
464.85	345.61
465.21	343.62
465.58	341.80
465.95	339.67
466.32	338.01
466.68	336.29
467.05	334.46
467.42	332.61
467.78	330.84
468.15	329.16
468.52	327.81
468.88	325.95
469.25	324.39
469.62	323.09
469.98	321.79
470.35	320.59
470.72	319.27
471.08	317.95
471.45	316.82
471.82	315.61
472.18	314.32
472.55	313.38
472.92	312.23
473.28	311.23
473.65	310.13
474.02	309.05
474.38	308.30
474.75	307.49
475.11	306.60
475.48	306.00
475.85	305.40
476.21	304.75
476.58	304.20
476.94	303.64
477.31	303.11
477.67	302.49
478.04	301.95
478.41	301.57
478.77	301.30
479.14	300.76
479.50	300.48
479.87	300.30
480.23	300.21
480.60	299.90
480.96	299.53
481.33	299.49
481.69	299.44
482.06	299.23
482.42	299.04
482.79	299.01
483.15	298.90
483.52	298.81
483.88	298.69
484.25	298.70
484.61	298.80
484.98	298.83
485.34	299.01
485.71	299.20
486.07	299.20
486.44	299.19
486.80	299.50
487.17	299.75
487.53	300.09
487.90	300.28
488.26	300.69
488.62	301.01
488.99	301.22
489.35	301.46
489.72	301.80
490.08	302.20
490.44	302.56
490.81	303.03
491.17	303.46
491.54	304.00
491.90	304.49
492.26	304.92
492.63	305.50
492.99	306.00
493.36	306.62
493.72	307.48
494.08	307.98
494.45	308.69
494.81	309.34
495.17	309.95
495.54	310.68
495.90	311.43
496.26	312.29
496.63	313.07
496.99	313.94
497.35	314.69
497.72	315.51
498.08	316.40
498.44	317.08
498.80	318.00
499.17	318.80
499.53	319.41
499.89	320.29
500.26	320.98
500.62	321.70
500.98	322.40
501.34	323.04
501.71	323.95
502.07	324.53
502.43	325.20
502.79	325.75
503.16	326.26
503.52	326.79
503.88	327.19
504.24	327.70
504.60	328.00
504.97	328.42
505.33	328.80
505.69	329.30
506.05	329.77
506.41	330.04
506.78	330.27
507.14	330.77
507.50	331.05
507.86	331.43
508.22	331.62
508.59	331.81
508.95	331.98
509.31	332.28
509.67	332.22
510.03	332.31
510.39	332.47
510.75	332.73
511.12	332.80
511.48	332.93
511.84	332.96
512.20	333.07
512.56	333.29
512.92	333.45
513.28	333.39
513.64	333.50
514.00	333.57
514.37	333.74
514.73	333.75
515.09	333.69
515.45	333.60
515.81	333.70
516.17	333.78
516.53	333.87
516.89	333.71
517.25	333.99
517.61	334.19
517.97	334.22
518.33	334.36
518.69	334.64
519.05	334.98
519.41	335.43
519.77	336.00
520.13	336.31
520.49	336.66
520.85	337.12
521.21	337.58
521.57	338.09
521.93	338.64
522.29	339.38
522.65	340.26
523.01	341.15
523.37	341.97
523.73	342.85
524.09	343.78
524.45	344.88
524.81	346.03
525.17	347.18
525.53	348.67
525.89	349.94
526.25	351.36
526.61	352.64
526.97	354.03
527.33	355.54
527.68	357.40
528.04	359.13
528.40	360.96
528.76	363.01
529.12	365.18
529.48	367.27
529.84	369.35
530.20	371.53
530.56	373.85
530.91	376.38
531.27	378.93
531.63	381.52
531.99	384.19
532.35	387.10
532.71	389.90
533.07	392.94
533.42	396.20
533.78	399.24
534.14	402.43
534.50	405.67
534.86	408.89
535.21	412.08
535.57	415.69
535.93	419.17
536.29	422.87
536.65	426.30
537.00	429.99
537.36	433.78
537.72	437.44
538.08	441.22
538.44	445.10
538.79	449.12
539.15	453.11
539.51	457.18
539.87	461.24
540.22	465.40
540.58	469.56
540.94	473.54
541.29	477.77
541.65	482.09
542.01	486.59
542.37	491.13
542.72	495.63
543.08	500.04
543.44	504.63
543.79	508.56
544.15	513.13
544.51	517.84
544.87	522.50
545.22	527.46
545.58	532.08
545.94	536.56
546.29	541.23
546.65	545.84
547.01	550.65
547.36	555.52
547.72	560.40
548.07	565.01
548.43	569.96
548.79	574.82
549.14	579.57
549.50	584.34
549.86	588.98
550.21	593.75
550.57	598.50
550.92	603.33
551.28	608.35
551.64	613.26
551.99	618.04
552.35	622.79
552.70	627.40
553.06	632.50
553.41	637.56
553.77	642.80
554.13	647.86
554.48	652.67
554.84	657.38
555.19	662.15
555.55	667.02
555.90	671.60
556.26	676.41
556.61	681.18
556.97	685.90
557.32	690.59
557.68	695.38
558.03	700.01
558.39	704.66
558.74	709.53
559.10	714.18
559.45	718.85
559.81	723.64
560.16	728.07
560.52	732.58
560.87	737.10
561.23	740.96
561.58	745.67
561.94	750.01
562.29	754.28
562.64	758.13
563.00	762.24
563.35	766.37
563.71	770.61
564.06	774.91
564.42	779.19
564.77	783.39
565.12	787.49
565.48	791.49
565.83	795.22
566.19	799.27
566.54	802.91
566.89	806.69
567.25	810.31
567.60	814.43
567.96	818.12
568.31	821.70
568.66	825.76
569.02	829.16
569.37	832.27
569.72	835.73
570.08	839.30
570.43	842.52
570.78	845.65
571.14	848.40
571.49	851.25
571.84	854.22
572.20	857.01
572.55	859.70
572.90	862.36
573.26	865.15
573.61	867.27
573.96	869.75
574.31	871.77
574.67	873.60
575.02	875.16
575.37	877.05
575.72	878.69
576.08	880.03
576.43	881.60
576.78	883.58
577.13	885.11
577.49	886.79
577.84	888.50
578.19	889.77
578.54	891.15
578.90	892.49
579.25	893.23
579.60	894.52
579.95	895.46
580.30	896.55
580.66	897.57
581.01	898.45
581.36	899.38
581.71	900.36
582.06	901.33
582.42	901.96
582.77	902.70
583.12	903.42
583.47	904.34
583.82	904.73
584.17	905.07
584.53	905.67
584.88	906.08
585.23	906.32
585.58	906.69
585.93	907.06
586.28	907.52
586.63	908.11
586.98	908.26
587.34	908.72
587.69	908.76
588.04	908.77
588.39	909.02
588.74	908.68
589.09	908.38
589.44	907.94
589.79	908.08
590.14	907.85
590.49	907.40
590.84	906.80
591.19	906.52
591.54	905.98
591.89	904.78
592.25	904.34
592.60	903.52
592.95	903.01
593.30	901.89
593.65	900.80
594.00	899.58
594.35	899.17
594.70	897.62
595.05	896.86
595.40	895.71
595.75	894.28
596.10	893.38
596.45	892.52
596.80	892.05
597.15	890.90
597.50	889.75
597.85	889.14
598.19	888.04
598.54	886.88
598.89	885.91
599.24	885.31
599.59	883.95
599.94	883.05
600.29	881.74
600.64	880.88
600.99	879.28
601.34	877.90
601.69	875.81
602.04	874.63
602.39	873.00
602.74	871.64
603.08	870.49
603.43	869.20
603.78	867.56
604.13	865.90
604.48	864.22
604.83	862.62
605.18	860.79
605.53	858.91
605.87	856.85
606.22	855.19
606.57	853.23
606.92	851.50
607.27	849.66
607.62	848.19
607.96	846.70
608.31	845.18
608.66	843.37
609.01	841.38
609.36	839.07
609.70	836.63
610.05	834.22
610.40	832.02
610.75	829.60
611.10	827.30
611.44	824.61
611.79	822.44
612.14	819.87
612.49	817.00
612.83	814.39
613.18	812.16
613.53	809.59
613.88	806.72
614.22	803.80
614.57	800.91
614.92	797.91
615.27	794.93
615.61	792.38
615.96	789.67
616.31	786.97
616.65	784.80
617.00	782.51
617.35	780.02
617.70	777.31
618.04	774.51
618.39	771.78
618.74	769.22
619.08	766.53
619.43	763.79
619.78	761.75
620.12	759.48
620.47	756.82
620.82	753.83
621.16	751.35
621.51	749.12
621.85	746.46
622.20	743.73
622.55	741.23
622.89	738.56
623.24	736.05
623.59	733.72
623.93	731.07
624.28	728.58
624.62	726.08
624.97	723.73
625.32	721.61
625.66	719.49
626.01	717.02
626.35	714.39
626.70	711.91
627.04	709.16
627.39	706.31
627.73	703.59
628.08	701.31
628.43	698.89
628.77	696.07
629.12	693.36
629.46	690.78
629.81	687.81
630.15	684.85
630.50	681.77
630.84	678.56
631.19	675.57
631.53	672.56
631.88	669.38
632.22	666.25
632.57	663.40
632.91	660.33
633.26	657.49
633.60	654.56
633.95	651.84
634.29	649.13
634.64	646.58
634.98	643.84
635.32	641.10
635.67	638.46
636.01	635.87
636.36	633.20
636.70	630.74
637.05	628.35
637.39	626.00
637.73	623.90
638.08	621.86
638.42	619.52
638.77	617.30
639.11	615.10
639.45	612.85
639.80	610.35
640.14	607.85
640.49	605.45
640.83	602.90
641.17	600.47
641.52	597.84
641.86	595.20
642.20	592.83
642.55	590.26
642.89	587.83
643.23	585.22
643.58	583.07
643.92	580.60
644.26	578.06
644.61	575.82
644.95	573.25
645.29	570.31
645.64	567.67
645.98	564.92
646.32	562.53
646.66	559.83
647.01	557.10
647.35	554.69
647.69	552.22
648.04	550.13
648.38	547.49
648.72	544.87
649.06	542.25
649.41	539.82
649.75	537.31
650.09	534.86
650.43	532.42
650.78	529.73
651.12	527.00
651.46	524.65
651.80	522.06
652.14	519.74
652.49	517.52
652.83	515.35
653.17	512.85
653.51	510.33
653.85	507.95
654.20	505.65
654.54	503.06
654.88	500.46
655.22	497.68
655.56	495.40
655.90	493.12
656.25	490.80
656.59	488.30
656.93	486.01
657.27	483.68
657.61	481.11
657.95	478.91
658.29	476.84
658.64	474.40
658.98	471.86
659.32	469.35
659.66	467.22
660.00	464.82
660.34	462.72
660.68	460.45
661.02	458.22
661.36	456.06
661.70	454.10
662.05	452.25
662.39	450.40
662.73	448.32
663.07	446.30
663.41	444.51
663.75	442.52
664.09	440.42
664.43	438.41
664.77	436.70
665.11	434.95
665.45	433.02
665.79	431.10
666.13	429.37
666.47	427.53
666.81	425.48
667.15	423.57
667.49	421.78
667.83	420.20
668.17	418.49
668.51	416.54
668.85	414.67
669.19	412.95
669.53	411.23
669.87	409.53
670.21	408.02
670.55	406.42
670.89	405.08
671.23	403.75
671.57	402.14
671.91	400.56
672.25	398.86
672.58	397.28
672.92	395.96
673.26	394.55
673.60	393.20
673.94	391.92
674.28	390.59
674.62	389.23
674.96	387.69
675.30	386.30
675.64	385.05
675.97	383.69
676.31	382.24
676.65	380.83
676.99	379.66
677.33	378.14
677.67	376.68
678.01	375.13
678.34	373.59
678.68	372.25
679.02	371.01
679.36	369.70
679.70	368.30
680.04	366.84
680.37	365.41
680.71	364.16
681.05	362.86
681.39	361.67
681.73	360.52
682.06	359.41
682.40	358.17
682.74	357.02
683.08	356.00
683.42	354.75
683.75	353.69
684.09	352.29
684.43	351.24
684.77	350.05
685.10	348.98
685.44	347.84
685.78	346.74
686.12	345.50
686.45	344.28
686.79	343.15
687.13	342.09
687.46	340.94
687.80	339.73
688.14	338.60
688.48	337.47
688.81	336.26
689.15	335.05
689.49	333.96
689.82	332.76
690.16	331.60
690.50	330.56
690.83	329.46
691.17	328.41
691.51	327.30
691.84	326.36
692.18	325.25
692.52	324.08
692.85	322.83
693.19	321.81
693.52	320.80
693.86	319.87
694.20	318.90
694.53	317.90
694.87	316.92
695.21	315.83
695.54	314.65
695.88	313.62
696.21	312.66
696.55	311.76
696.88	310.94
697.22	309.94
697.56	309.07
697.89	308.17
698.23	307.29
698.56	306.24
698.90	305.32
699.23	304.28
699.57	303.60
699.90	302.79
700.24	301.97
700.58	301.06
700.91	300.11
701.25	299.32
701.58	298.63
701.92	297.91
702.25	297.19
702.59	296.58
702.92	295.85
703.26	295.14
703.59	294.34
703.93	293.69
704.26	293.00
704.60	292.33
704.93	291.54
705.26	290.86
705.60	290.33
705.93	289.59
706.27	289.17
706.60	288.51
706.94	287.89
707.27	287.09
707.61	286.49
707.94	285.89
708.27	285.10
708.61	284.40
708.94	283.70
709.28	283.08
709.61	282.43
709.94	281.88
710.28	281.28
710.61	280.75
710.95	280.04
711.28	279.51
711.61	278.82
711.95	278.26
712.28	277.65
712.61	277.05
712.95	276.55
713.28	275.93
713.61	275.36
713.95	274.85
714.28	274.52
714.61	274.08
714.95	273.63
715.28	273.25
715.61	272.66
715.95	272.34
716.28	271.88
716.61	271.43
716.95	270.97
717.28	270.48
717.61	269.97
717.94	269.57
718.28	269.06
718.61	268.73
718.94	268.30
719.27	267.90
719.61	267.51
719.94	267.17
720.27	266.91
720.60	266.66
720.94	266.40
721.27	266.02
721.60	265.74
721.93	265.60
722.27	265.31
722.60	265.16
722.93	264.73
723.26	264.42
723.59	264.12
723.93	263.80
724.26	263.47
724.59	263.33
724.92	262.98
725.25	262.80
725.59	262.40
725.92	262.18
726.25	261.77
726.58	261.54
726.91	261.26
727.24	260.80
727.57	260.42
727.91	259.97
728.24	259.65
728.57	259.30
728.90	258.86
729.23	258.45
729.56	258.20
729.89	257.89
730.22	257.60
730.55	257.22
730.89	256.98
731.22	256.80
731.55	256.40
731.88	256.07
732.21	255.60
732.54	255.34
732.87	255.02
733.20	254.85
733.53	254.54
733.86	254.26
734.19	253.93
734.52	253.63
734.85	253.52
735.18	253.17
735.51	252.89
735.84	252.69
736.17	252.45
736.50	251.99
736.83	252.00
737.16	251.74
737.49	251.57
737.82	251.14
738.15	250.90
738.48	250.70
738.81	250.47
739.14	250.22
739.47	249.97
739.80	249.72
740.13	249.57
740.46	249.35
740.79	249.09
741.12	248.86
741.45	248.59
741.78	248.29
742.11	248.08
742.44	247.84
742.77	247.46
743.10	247.23
743.43	246.95
743.75	246.45
744.08	246.49
744.41	246.23
744.74	246.22
745.07	245.87
745.40	245.62
745.73	245.47
746.06	245.26
746.39	245.12
746.71	244.81
747.04	244.42
747.37	244.15
747.70	244.00
748.03	243.86
748.36	243.74
748.68	243.55
749.01	243.35
749.34	243.15
749.67	243.11
750.00	242.90
750.33	242.90
750.65	242.82
750.98	242.40
751.31	242.20
751.64	241.95
751.97	241.99
752.29	241.81
752.62	241.59
752.95	241.49
753.28	241.36
753.60	241.28
753.93	241.25
754.26	241.10
754.59	240.92
754.91	240.60
755.24	240.51
755.57	240.40
755.90	240.32
756.22	240.24
756.55	240.07
756.88	240.11
757.20	239.97
757.53	239.82
757.86	239.68
758.19	239.70
758.51	239.53
758.84	239.42
759.17	239.27
759.49	239.23
759.82	239.28
760.15	239.13
760.47	239.18
760.80	239.02
761.13	239.05
761.45	238.94
761.78	239.07
762.11	238.89
762.43	238.77
762.76	238.61
763.08	238.50
763.41	238.32
763.74	238.09
764.06	237.96
764.39	237.77
764.71	237.81
765.04	237.59
765.37	237.56
765.69	237.42
766.02	237.29
766.34	237.24
766.67	237.03
767.00	236.93
767.32	236.83
767.65	236.91
767.97	236.71
768.30	236.56
768.62	236.44
768.95	236.33
769.27	236.30
769.60	236.26
769.92	236.19
770.25	236.10
770.57	236.06
770.90	235.94
771.22	235.89
771.55	235.80
771.87	235.87
772.20	235.81
772.52	235.82
772.85	236.01
773.17	235.89
773.50	235.67
773.82	235.60
774.15	235.28
774.47	235.02
774.80	234.97
775.12	235.00
775.45	234.90
775.77	234.86
776.09	234.74
776.42	234.68
776.74	234.62
777.07	234.50
777.39	234.40
777.72	234.41
778.04	234.39
778.36	234.24
778.69	234.08
779.01	233.96
779.33	233.79
779.66	233.48
779.98	233.45
780.31	233.44
780.63	233.42
780.95	233.55
781.28	233.44
781.60	233.35
781.92	233.26
782.25	233.20
782.57	233.17
782.89	233.07
783.22	233.06
783.54	232.89
783.86	232.88
784.19	232.78
784.51	232.72
784.83	232.55
785.16	232.47
785.48	232.41
785.80	232.38
786.12	232.21
786.45	232.21
786.77	231.99
787.09	231.96
787.42	231.86
787.74	231.80
788.06	231.75
788.38	231.75
788.71	231.60
789.03	231.50
789.35	231.48
789.67	231.43
789.99	231.29
790.32	231.31
790.64	231.30
790.96	231.42
791.28	231.20
791.61	231.25
791.93	231.21
792.25	231.27
792.57	231.43
792.89	231.36
793.21	231.37
793.54	231.41
793.86	231.41
794.18	231.35
