SpectraSuite Data File
++++++++++++++++++++++++++++++++++++
Date: Fri Feb 01 14:41:04 EST 2013
User: group
Dark Spectrum Present: No
Reference Spectrum Present: No
Number of Sampled Component Spectra: 1
Spectrometers: USB2E7196
Integration Time (usec): 70000 (USB2E7196)
Spectra Averaged: 10 (USB2E7196)
Boxcar Smoothing: 10 (USB2E7196)
Correct for Electrical Dark: No (USB2E7196)
Strobe/Lamp Enabled: No (USB2E7196)
Correct for Detector Non-linearity: No (USB2E7196)
Correct for Stray Light: No (USB2E7196)
Number of Pixels in Processed Spectrum: 2048
>>>>>Begin Processed Spectral Data<<<<<
339.09	0.00
339.48	214.80
339.86	217.50
340.24	218.00
340.63	221.00
341.01	224.60
341.39	221.50
341.78	224.80
342.16	225.70
342.54	225.50
342.93	214.20
343.31	224.99
343.69	225.57
344.07	226.06
344.46	226.51
344.84	226.95
345.22	227.11
345.60	227.44
345.99	227.60
346.37	227.74
346.75	227.83
347.13	227.91
347.52	228.05
347.90	228.20
348.28	228.26
348.66	228.34
349.05	228.42
349.43	228.46
349.81	228.52
350.19	228.50
350.57	228.55
350.96	228.59
351.34	228.71
351.72	228.86
352.10	228.91
352.48	229.05
352.87	229.12
353.25	229.22
353.63	229.35
354.01	229.47
354.39	229.55
354.77	229.63
355.15	229.82
355.54	229.91
355.92	229.85
356.30	229.99
356.68	230.13
357.06	230.30
357.44	230.26
357.82	230.29
358.20	230.36
358.58	230.40
358.97	230.57
359.35	230.62
359.73	230.73
360.11	230.85
360.49	230.92
360.87	230.87
361.25	230.91
361.63	230.98
362.01	231.03
362.39	231.05
362.77	231.20
363.15	231.24
363.53	231.29
363.91	231.49
364.29	231.51
364.67	231.37
365.05	231.35
365.43	231.52
365.81	231.55
366.19	231.72
366.57	231.81
366.95	231.85
367.33	231.90
367.71	231.80
368.09	231.80
368.47	231.71
368.85	231.74
369.23	231.80
369.61	231.71
369.99	231.65
370.37	231.65
370.75	231.52
371.13	231.34
371.51	231.15
371.89	231.01
372.27	230.94
372.65	230.85
373.03	230.74
373.41	230.55
373.78	230.55
374.16	230.31
374.54	230.20
374.92	230.02
375.30	229.84
375.68	229.70
376.06	229.63
376.44	229.52
376.82	229.33
377.19	229.20
377.57	229.00
377.95	228.90
378.33	228.87
378.71	228.76
379.09	228.70
379.47	228.66
379.84	228.53
380.22	228.42
380.60	228.41
380.98	228.37
381.36	228.33
381.73	228.18
382.11	228.18
382.49	228.07
382.87	227.91
383.25	227.82
383.62	228.00
384.00	227.78
384.38	227.74
384.76	227.85
385.13	227.84
385.51	227.92
385.89	227.81
386.27	227.66
386.64	227.62
387.02	227.57
387.40	227.48
387.78	227.50
388.15	227.48
388.53	227.37
388.91	227.30
389.29	227.28
389.66	227.24
390.04	227.17
390.42	227.21
390.79	227.23
391.17	227.21
391.55	226.94
391.92	226.95
392.30	226.92
392.68	226.75
393.05	226.69
393.43	226.55
393.81	226.65
394.18	226.61
394.56	226.67
394.94	226.65
395.31	226.65
395.69	226.71
396.06	226.70
396.44	226.83
396.82	226.90
397.19	227.03
397.57	226.98
397.95	227.00
398.32	226.92
398.70	227.04
399.07	227.24
399.45	227.26
399.82	227.38
400.20	227.44
400.58	227.60
400.95	227.65
401.33	227.75
401.70	227.89
402.08	227.97
402.45	228.07
402.83	228.29
403.20	228.42
403.58	228.43
403.95	228.62
404.33	228.65
404.71	228.79
405.08	228.97
405.46	229.20
405.83	229.41
406.21	229.55
406.58	229.78
406.96	229.89
407.33	230.20
407.70	230.43
408.08	230.86
408.45	231.04
408.83	231.37
409.20	231.73
409.58	231.87
409.95	232.28
410.33	232.65
410.70	232.84
411.08	233.25
411.45	233.58
411.82	233.79
412.20	234.26
412.57	234.73
412.95	235.00
413.32	235.51
413.69	236.02
414.07	236.61
414.44	237.09
414.82	237.69
415.19	238.36
415.56	239.09
415.94	239.62
416.31	240.35
416.68	241.01
417.06	241.90
417.43	242.72
417.81	243.51
418.18	244.31
418.55	245.32
418.93	246.32
419.30	247.50
419.67	248.66
420.04	249.74
420.42	250.85
420.79	252.31
421.16	253.50
421.54	254.84
421.91	256.27
422.28	257.69
422.66	259.17
423.03	260.69
423.40	262.04
423.77	263.66
424.15	265.22
424.52	266.96
424.89	268.65
425.26	270.51
425.64	272.17
426.01	274.02
426.38	275.96
426.75	277.77
427.13	279.55
427.50	281.64
427.87	283.68
428.24	285.67
428.61	287.40
428.99	289.65
429.36	291.84
429.73	294.16
430.10	296.49
430.47	298.78
430.85	301.13
431.22	303.61
431.59	306.31
431.96	308.83
432.33	311.60
432.70	314.24
433.08	317.20
433.45	320.12
433.82	322.95
434.19	326.10
434.56	329.20
434.93	332.23
435.30	335.09
435.68	338.31
436.05	341.50
436.42	344.71
436.79	347.43
437.16	350.64
437.53	353.80
437.90	356.84
438.27	359.85
438.64	363.05
439.01	365.94
439.38	368.31
439.75	370.68
440.13	373.34
440.50	375.95
440.87	378.07
441.24	380.24
441.61	382.57
441.98	384.14
442.35	386.12
442.72	388.11
443.09	389.99
443.46	391.05
443.83	391.77
444.20	392.28
444.57	393.16
444.94	393.18
445.31	393.43
445.68	393.78
446.05	393.85
446.42	393.22
446.79	392.84
447.16	392.37
447.53	392.04
447.90	390.77
448.27	389.39
448.64	387.57
449.01	386.18
449.37	383.88
449.74	381.74
450.11	379.31
450.48	376.57
450.85	373.84
451.22	371.33
451.59	369.01
451.96	366.82
452.33	363.95
452.70	361.55
453.07	358.41
453.43	355.20
453.80	352.06
454.17	349.05
454.54	345.99
454.91	342.88
455.28	339.98
455.65	337.11
456.02	334.48
456.38	332.03
456.75	329.10
457.12	326.68
457.49	324.24
457.86	321.69
458.23	319.62
458.59	317.34
458.96	315.12
459.33	313.00
459.70	310.94
460.07	309.31
460.43	307.12
460.80	305.26
461.17	303.56
461.54	301.83
461.91	300.25
462.27	298.69
462.64	297.26
463.01	295.55
463.38	294.18
463.74	292.46
464.11	291.16
464.48	289.99
464.85	288.69
465.21	287.67
465.58	286.61
465.95	285.36
466.32	284.20
466.68	283.16
467.05	282.13
467.42	281.17
467.78	280.05
468.15	279.19
468.52	278.36
468.88	277.40
469.25	276.55
469.62	275.83
469.98	274.99
470.35	274.29
470.72	273.60
471.08	272.90
471.45	272.31
471.82	271.61
472.18	270.71
472.55	270.18
472.92	269.52
473.28	268.99
473.65	268.30
474.02	267.83
474.38	267.29
474.75	266.75
475.11	266.16
475.48	265.60
475.85	265.13
476.21	264.78
476.58	264.49
476.94	264.20
477.31	263.84
477.67	263.63
478.04	263.28
478.41	263.10
478.77	262.88
479.14	262.71
479.50	262.54
479.87	262.52
480.23	262.37
480.60	262.24
480.96	262.10
481.33	262.05
481.69	261.98
482.06	261.93
482.42	261.98
482.79	261.94
483.15	262.09
483.52	262.23
483.88	262.24
484.25	262.19
484.61	262.35
484.98	262.53
485.34	262.73
485.71	262.95
486.07	263.21
486.44	263.25
486.80	263.48
487.17	263.93
487.53	264.41
487.90	264.93
488.26	265.53
488.62	266.07
488.99	266.80
489.35	267.43
489.72	268.12
490.08	268.79
490.44	269.53
490.81	270.41
491.17	271.28
491.54	272.17
491.90	273.15
492.26	274.13
492.63	275.14
492.99	276.30
493.36	277.63
493.72	279.00
494.08	280.34
494.45	281.75
494.81	283.35
495.17	284.99
495.54	286.67
495.90	288.39
496.26	290.38
496.63	292.41
496.99	294.42
497.35	296.70
497.72	299.09
498.08	301.67
498.44	304.30
498.80	307.16
499.17	310.09
499.53	313.23
499.89	316.39
500.26	319.64
500.62	323.06
500.98	326.68
501.34	330.32
501.71	334.43
502.07	338.59
502.43	342.74
502.79	347.02
503.16	351.69
503.52	356.52
503.88	361.34
504.24	366.35
504.60	371.67
504.97	377.21
505.33	382.84
505.69	388.88
506.05	394.90
506.41	401.06
506.78	407.62
507.14	414.19
507.50	421.00
507.86	428.25
508.22	435.58
508.59	442.97
508.95	450.59
509.31	458.61
509.67	466.80
510.03	475.27
510.39	483.96
510.75	492.87
511.12	501.91
511.48	511.24
511.84	520.81
512.20	530.60
512.56	540.42
512.92	550.82
513.28	561.26
513.64	571.98
514.00	582.81
514.37	594.00
514.73	605.47
515.09	616.89
515.45	628.57
515.81	640.53
516.17	652.80
516.53	665.41
516.89	677.94
517.25	690.65
517.61	703.35
517.97	716.32
518.33	729.24
518.69	742.50
519.05	756.31
519.41	770.29
519.77	784.43
520.13	798.86
520.49	812.89
520.85	827.22
521.21	841.66
521.57	856.72
521.93	871.35
522.29	886.43
522.65	901.70
523.01	916.78
523.37	931.93
523.73	947.40
524.09	962.80
524.45	978.53
524.81	994.31
525.17	1010.55
525.53	1027.01
525.89	1043.37
526.25	1059.86
526.61	1075.74
526.97	1092.20
527.33	1108.44
527.68	1125.25
528.04	1141.85
528.40	1158.67
528.76	1176.16
529.12	1192.94
529.48	1209.92
529.84	1226.75
530.20	1244.13
530.56	1261.71
530.91	1279.44
531.27	1297.24
531.63	1314.60
531.99	1331.54
532.35	1348.37
532.71	1365.15
533.07	1382.67
533.42	1399.98
533.78	1417.18
534.14	1434.63
534.50	1450.68
534.86	1467.93
535.21	1484.15
535.57	1501.39
535.93	1518.20
536.29	1533.90
536.65	1550.40
537.00	1566.73
537.36	1583.19
537.72	1599.32
538.08	1615.16
538.44	1630.54
538.79	1645.67
539.15	1661.00
539.51	1676.75
539.87	1692.81
540.22	1708.45
540.58	1723.79
540.94	1738.58
541.29	1753.22
541.65	1767.62
542.01	1783.28
542.37	1797.79
542.72	1812.31
543.08	1826.36
543.44	1840.40
543.79	1854.26
544.15	1867.64
544.51	1881.65
544.87	1894.79
545.22	1907.78
545.58	1920.78
545.94	1933.15
546.29	1945.64
546.65	1957.91
547.01	1969.71
547.36	1981.10
547.72	1992.26
548.07	2003.01
548.43	2014.05
548.79	2025.12
549.14	2035.72
549.50	2045.56
549.86	2055.25
550.21	2065.14
550.57	2075.15
550.92	2084.90
551.28	2094.21
551.64	2103.16
551.99	2112.15
552.35	2120.75
552.70	2129.40
553.06	2138.04
553.41	2146.85
553.77	2155.20
554.13	2163.94
554.48	2172.77
554.84	2180.85
555.19	2189.02
555.55	2196.40
555.90	2203.60
556.26	2210.97
556.61	2218.53
556.97	2225.65
557.32	2233.30
557.68	2240.12
558.03	2246.74
558.39	2252.77
558.74	2260.40
559.10	2267.50
559.45	2273.60
559.81	2281.22
560.16	2286.90
560.52	2292.50
560.87	2298.88
561.23	2303.76
561.58	2308.77
561.94	2313.28
562.29	2317.97
562.64	2322.36
563.00	2327.08
563.35	2333.01
563.71	2338.37
564.06	2343.21
564.42	2348.16
564.77	2352.54
565.12	2357.34
565.48	2361.22
565.83	2364.82
566.19	2367.84
566.54	2370.67
566.89	2373.71
567.25	2375.46
567.60	2379.15
567.96	2382.20
568.31	2384.22
568.66	2386.55
569.02	2389.00
569.37	2391.16
569.72	2393.08
570.08	2394.71
570.43	2396.11
570.78	2396.08
571.14	2395.67
571.49	2396.14
571.84	2397.05
572.20	2396.15
572.55	2395.69
572.90	2395.37
573.26	2395.84
573.61	2395.36
573.96	2394.42
574.31	2393.08
574.67	2391.20
575.02	2389.01
575.37	2387.28
575.72	2384.53
576.08	2383.19
576.43	2380.34
576.78	2378.19
577.13	2376.41
577.49	2374.20
577.84	2371.75
578.19	2369.22
578.54	2366.48
578.90	2362.80
579.25	2358.28
579.60	2354.97
579.95	2350.86
580.30	2346.88
580.66	2342.12
581.01	2337.55
581.36	2333.62
581.71	2330.06
582.06	2326.52
582.42	2322.27
582.77	2317.27
583.12	2312.96
583.47	2308.97
583.82	2304.93
584.17	2300.03
584.53	2295.35
584.88	2290.73
585.23	2285.80
585.58	2281.02
585.93	2276.53
586.28	2271.81
586.63	2267.20
586.98	2262.48
587.34	2257.90
587.69	2253.16
588.04	2248.73
588.39	2243.60
588.74	2237.50
589.09	2231.20
589.44	2225.17
589.79	2219.54
590.14	2214.80
590.49	2209.39
590.84	2202.78
591.19	2196.65
591.54	2189.77
591.89	2181.95
592.25	2175.40
592.60	2168.27
592.95	2160.90
593.30	2153.44
593.65	2146.56
594.00	2139.29
594.35	2133.13
594.70	2125.38
595.05	2118.12
595.40	2110.11
595.75	2102.94
596.10	2097.05
596.45	2091.16
596.80	2085.13
597.15	2079.00
597.50	2071.74
597.85	2065.53
598.19	2059.36
598.54	2053.04
598.89	2047.08
599.24	2042.02
599.59	2035.68
599.94	2029.67
600.29	2023.59
600.64	2017.17
600.99	2009.68
601.34	2003.35
601.69	1996.02
602.04	1989.85
602.39	1982.98
602.74	1977.12
603.08	1971.07
603.43	1964.58
603.78	1957.50
604.13	1950.34
604.48	1942.96
604.83	1935.94
605.18	1928.68
605.53	1920.42
605.87	1912.29
606.22	1904.70
606.57	1896.54
606.92	1888.83
607.27	1881.41
607.62	1874.00
607.96	1866.66
608.31	1860.18
608.66	1852.31
609.01	1843.99
609.36	1835.22
609.70	1826.67
610.05	1817.68
610.40	1809.17
610.75	1800.17
611.10	1791.30
611.44	1782.10
611.79	1773.90
612.14	1764.98
612.49	1755.39
612.83	1746.70
613.18	1738.14
613.53	1729.56
613.88	1720.92
614.22	1712.27
614.57	1703.40
614.92	1694.60
615.27	1686.30
615.61	1677.37
615.96	1669.32
616.31	1661.29
616.65	1654.24
617.00	1646.60
617.35	1638.75
617.70	1629.96
618.04	1621.64
618.39	1613.03
618.74	1605.35
619.08	1596.58
619.43	1588.79
619.78	1581.20
620.12	1573.73
620.47	1565.82
620.82	1557.28
621.16	1549.01
621.51	1541.01
621.85	1532.87
622.20	1524.51
622.55	1516.20
622.89	1508.13
623.24	1499.96
623.59	1492.18
623.93	1484.01
624.28	1476.09
624.62	1468.08
624.97	1460.33
625.32	1452.51
625.66	1445.31
626.01	1436.99
626.35	1429.31
626.70	1421.25
627.04	1413.72
627.39	1405.36
627.73	1397.30
628.08	1389.70
628.43	1381.62
628.77	1373.77
629.12	1365.29
629.46	1357.43
629.81	1349.07
630.15	1340.77
630.50	1332.28
630.84	1323.46
631.19	1314.73
631.53	1306.51
631.88	1297.96
632.22	1289.40
632.57	1281.52
632.91	1273.00
633.26	1265.21
633.60	1256.91
633.95	1248.83
634.29	1240.70
634.64	1233.25
634.98	1225.43
635.32	1218.24
635.67	1211.29
636.01	1203.55
636.36	1196.47
636.70	1189.16
637.05	1181.95
637.39	1175.21
637.73	1168.30
638.08	1162.09
638.42	1155.63
638.77	1148.47
639.11	1141.87
639.45	1134.98
639.80	1127.68
640.14	1120.82
640.49	1114.00
640.83	1106.74
641.17	1099.86
641.52	1092.93
641.86	1086.10
642.20	1079.48
642.55	1072.21
642.89	1065.33
643.23	1058.31
643.58	1051.98
643.92	1045.25
644.26	1038.38
644.61	1031.78
644.95	1025.34
645.29	1017.63
645.64	1010.27
645.98	1003.48
646.32	996.89
646.66	990.48
647.01	983.96
647.35	977.59
647.69	970.90
648.04	964.98
648.38	958.40
648.72	951.45
649.06	944.51
649.41	937.86
649.75	931.23
650.09	924.32
650.43	918.03
650.78	910.93
651.12	904.27
651.46	898.06
651.80	891.45
652.14	884.85
652.49	878.95
652.83	872.89
653.17	866.51
653.51	859.88
653.85	853.77
654.20	847.38
654.54	840.94
654.88	834.61
655.22	827.91
655.56	821.52
655.90	815.89
656.25	810.06
656.59	804.22
656.93	798.43
657.27	792.86
657.61	786.58
657.95	781.13
658.29	775.62
658.64	769.70
658.98	763.90
659.32	758.16
659.66	752.64
660.00	746.95
660.34	741.21
660.68	735.92
661.02	730.53
661.36	725.39
661.70	720.25
662.05	715.18
662.39	710.40
662.73	705.59
663.07	700.83
663.41	696.04
663.75	691.13
664.09	686.42
664.43	681.37
664.77	677.05
665.11	672.52
665.45	667.80
665.79	663.30
666.13	658.68
666.47	654.00
666.81	649.35
667.15	644.65
667.49	640.68
667.83	636.37
668.17	631.90
668.51	627.60
668.85	623.18
669.19	619.11
669.53	614.85
669.87	610.55
670.21	606.30
670.55	602.28
670.89	598.49
671.23	594.75
671.57	591.01
671.91	587.03
672.25	583.02
672.58	579.19
672.92	575.56
673.26	571.85
673.60	568.29
673.94	564.76
674.28	561.64
674.62	558.20
674.96	554.88
675.30	551.55
675.64	548.28
675.97	545.06
676.31	541.90
676.65	538.64
676.99	535.75
677.33	532.43
677.67	529.05
678.01	525.73
678.34	522.37
678.68	519.24
679.02	516.10
679.36	513.06
679.70	510.18
680.04	507.05
680.37	504.04
680.71	501.16
681.05	498.41
681.39	495.57
681.73	492.65
682.06	489.95
682.40	487.47
682.74	484.66
683.08	481.89
683.42	478.87
683.75	476.21
684.09	473.28
684.43	470.54
684.77	467.97
685.10	465.30
685.44	462.77
685.78	460.13
686.12	457.65
686.45	455.15
686.79	452.53
687.13	450.19
687.46	447.67
687.80	445.26
688.14	442.51
688.48	440.14
688.81	437.59
689.15	435.14
689.49	432.50
689.82	430.17
690.16	427.99
690.50	426.08
690.83	423.83
691.17	421.71
691.51	419.71
691.84	417.60
692.18	415.46
692.52	413.21
692.85	411.14
693.19	409.02
693.52	406.89
693.86	404.78
694.20	402.73
694.53	400.75
694.87	398.72
695.21	396.86
695.54	394.74
695.88	392.84
696.21	390.71
696.55	388.80
696.88	386.84
697.22	384.99
697.56	382.89
697.89	380.89
698.23	379.08
698.56	377.12
698.90	375.39
699.23	373.41
699.57	371.60
699.90	369.85
700.24	367.97
700.58	366.15
700.91	364.60
701.25	363.03
701.58	361.53
701.92	359.73
702.25	358.13
702.59	356.54
702.92	355.07
703.26	353.70
703.59	352.14
703.93	350.94
704.26	349.35
704.60	347.87
704.93	346.44
705.26	344.92
705.60	343.60
705.93	342.21
706.27	341.03
706.60	339.73
706.94	338.46
707.27	337.28
707.61	336.09
707.94	334.76
708.27	333.32
708.61	331.96
708.94	330.84
709.28	329.60
709.61	328.49
709.94	327.31
710.28	326.00
710.61	325.03
710.95	323.46
711.28	322.50
711.61	321.35
711.95	320.30
712.28	319.05
712.61	317.89
712.95	316.67
713.28	315.70
713.61	314.47
713.95	313.32
714.28	312.22
714.61	311.10
714.95	310.12
715.28	309.03
715.61	308.14
715.95	307.20
716.28	306.31
716.61	305.39
716.95	304.45
717.28	303.61
717.61	302.61
717.94	301.88
718.28	300.74
718.61	299.89
718.94	298.96
719.27	298.29
719.61	297.47
719.94	296.76
720.27	295.79
720.60	295.19
720.94	294.37
721.27	293.66
721.60	293.07
721.93	292.30
722.27	291.74
722.60	290.96
722.93	290.31
723.26	289.63
723.59	288.81
723.93	288.18
724.26	287.45
724.59	286.73
724.92	286.12
725.25	285.50
725.59	284.85
725.92	284.37
726.25	283.73
726.58	283.07
726.91	282.53
727.24	282.00
727.57	281.24
727.91	280.81
728.24	280.29
728.57	279.71
728.90	279.28
729.23	278.65
729.56	278.21
729.89	277.60
730.22	277.03
730.55	276.53
730.89	275.99
731.22	275.44
731.55	274.96
731.88	274.32
732.21	273.83
732.54	273.30
732.87	272.67
733.20	272.10
733.53	271.65
733.86	271.15
734.19	270.70
734.52	270.36
734.85	269.92
735.18	269.42
735.51	268.95
735.84	268.36
736.17	267.87
736.50	267.39
736.83	267.10
737.16	266.68
737.49	266.27
737.82	265.85
738.15	265.50
738.48	265.03
738.81	264.75
739.14	264.31
739.47	263.98
739.80	263.60
740.13	263.21
740.46	262.82
740.79	262.43
741.12	262.00
741.45	261.63
741.78	261.14
742.11	260.67
742.44	260.25
742.77	259.98
743.10	259.63
743.43	259.12
743.75	258.63
744.08	258.42
744.41	258.09
744.74	257.69
745.07	257.34
745.40	257.18
745.73	256.84
746.06	256.67
746.39	256.29
746.71	256.01
747.04	255.70
747.37	255.40
747.70	255.14
748.03	254.79
748.36	254.39
748.68	254.05
749.01	253.73
749.34	253.49
749.67	253.10
750.00	252.75
750.33	252.64
750.65	252.38
750.98	251.94
751.31	251.68
751.64	251.44
751.97	251.11
752.29	250.75
752.62	250.43
752.95	250.15
753.28	249.85
753.60	249.52
753.93	249.39
754.26	249.17
754.59	248.76
754.91	248.48
755.24	248.30
755.57	248.13
755.90	248.02
756.22	247.76
756.55	247.65
756.88	247.43
757.20	247.10
757.53	246.82
757.86	246.62
758.19	246.40
758.51	246.20
758.84	246.07
759.17	245.85
759.49	245.71
759.82	245.56
760.15	245.38
760.47	245.21
760.80	244.90
761.13	244.77
761.45	244.62
761.78	244.59
762.11	244.35
762.43	244.15
762.76	243.89
763.08	243.78
763.41	243.49
763.74	243.38
764.06	243.22
764.39	243.02
764.71	242.86
765.04	242.74
765.37	242.70
765.69	242.50
766.02	242.38
766.34	242.14
766.67	241.86
767.00	241.83
767.32	241.77
767.65	241.71
767.97	241.56
768.30	241.36
768.62	241.02
768.95	240.94
769.27	240.82
769.60	240.76
769.92	240.60
770.25	240.49
770.57	240.30
770.90	240.25
771.22	240.12
771.55	239.97
771.87	239.64
772.20	239.37
772.52	239.49
772.85	239.40
773.17	239.32
773.50	239.20
773.82	239.01
774.15	238.87
774.47	238.63
774.80	238.37
775.12	238.35
775.45	238.32
775.77	238.16
776.09	237.91
776.42	237.83
776.74	237.69
777.07	237.58
777.39	237.56
777.72	237.34
778.04	237.20
778.36	237.10
778.69	237.16
779.01	237.08
779.33	236.68
779.66	236.53
779.98	236.32
780.31	236.20
780.63	236.24
780.95	236.30
781.28	236.14
781.60	236.17
781.92	236.05
782.25	236.08
782.57	236.04
782.89	235.97
783.22	235.85
783.54	235.80
783.86	235.60
784.19	235.41
784.51	235.36
784.83	235.37
785.16	235.28
785.48	235.24
785.80	235.12
786.12	235.16
786.45	235.09
786.77	235.18
