SpectraSuite Data File
++++++++++++++++++++++++++++++++++++
Date: Fri Feb 01 14:40:40 EST 2013
User: group
Dark Spectrum Present: No
Reference Spectrum Present: No
Number of Sampled Component Spectra: 1
Spectrometers: USB2E7196
Integration Time (usec): 70000 (USB2E7196)
Spectra Averaged: 10 (USB2E7196)
Boxcar Smoothing: 10 (USB2E7196)
Correct for Electrical Dark: No (USB2E7196)
Strobe/Lamp Enabled: No (USB2E7196)
Correct for Detector Non-linearity: No (USB2E7196)
Correct for Stray Light: No (USB2E7196)
Number of Pixels in Processed Spectrum: 2048
>>>>>Begin Processed Spectral Data<<<<<
339.09	0.00
339.48	216.40
339.86	217.40
340.24	218.80
340.63	218.60
341.01	225.00
341.39	221.80
341.78	223.80
342.16	226.30
342.54	225.00
342.93	214.70
343.31	225.53
343.69	226.10
344.07	226.56
344.46	226.91
344.84	227.35
345.22	227.50
345.60	227.83
345.99	227.98
346.37	228.08
346.75	228.26
347.13	228.31
347.52	228.44
347.90	228.59
348.28	228.53
348.66	228.60
349.05	228.62
349.43	228.55
349.81	228.60
350.19	228.54
350.57	228.62
350.96	228.65
351.34	228.78
351.72	228.83
352.10	228.91
352.48	229.12
352.87	229.20
353.25	229.22
353.63	229.28
354.01	229.36
354.39	229.43
354.77	229.50
355.15	229.56
355.54	229.56
355.92	229.58
356.30	229.70
356.68	229.86
357.06	229.80
357.44	229.95
357.82	230.02
358.20	230.12
358.58	230.21
358.97	230.16
359.35	230.18
359.73	230.25
360.11	230.36
360.49	230.33
360.87	230.36
361.25	230.44
361.63	230.45
362.01	230.64
362.39	230.70
362.77	230.73
363.15	230.77
363.53	230.78
363.91	230.80
364.29	230.91
364.67	230.75
365.05	230.89
365.43	230.90
365.81	230.87
366.19	230.89
366.57	230.91
366.95	230.86
367.33	230.83
367.71	230.75
368.09	230.73
368.47	230.71
368.85	230.68
369.23	230.66
369.61	230.67
369.99	230.55
370.37	230.54
370.75	230.59
371.13	230.43
371.51	230.33
371.89	230.29
372.27	230.21
372.65	230.22
373.03	230.09
373.41	229.97
373.78	229.91
374.16	229.80
374.54	229.65
374.92	229.68
375.30	229.62
375.68	229.62
376.06	229.59
376.44	229.50
376.82	229.50
377.19	229.40
377.57	229.30
377.95	229.17
378.33	229.02
378.71	228.76
379.09	228.78
379.47	228.79
379.84	228.67
380.22	228.56
380.60	228.37
380.98	228.23
381.36	228.14
381.73	228.05
382.11	228.08
382.49	227.98
382.87	227.90
383.25	227.78
383.62	227.84
384.00	227.65
384.38	227.65
384.76	227.56
385.13	227.65
385.51	227.61
385.89	227.62
386.27	227.60
386.64	227.62
387.02	227.52
387.40	227.48
387.78	227.57
388.15	227.46
388.53	227.45
388.91	227.49
389.29	227.60
389.66	227.61
390.04	227.42
390.42	227.43
390.79	227.44
391.17	227.40
391.55	227.34
391.92	227.43
392.30	227.43
392.68	227.36
393.05	227.28
393.43	227.22
393.81	227.20
394.18	227.23
394.56	227.30
394.94	227.42
395.31	227.54
395.69	227.63
396.06	227.76
396.44	227.86
396.82	227.82
397.19	227.87
397.57	227.90
397.95	228.07
398.32	228.09
398.70	228.15
399.07	228.35
399.45	228.20
399.82	228.24
400.20	228.31
400.58	228.47
400.95	228.49
401.33	228.63
401.70	228.88
402.08	228.90
402.45	228.98
402.83	229.10
403.20	229.13
403.58	229.19
403.95	229.37
404.33	229.47
404.71	229.66
405.08	229.83
405.46	229.94
405.83	230.08
406.21	230.28
406.58	230.45
406.96	230.64
407.33	231.00
407.70	231.22
408.08	231.55
408.45	231.81
408.83	232.04
409.20	232.20
409.58	232.26
409.95	232.58
410.33	232.87
410.70	233.08
411.08	233.25
411.45	233.41
411.82	233.64
412.20	234.01
412.57	234.44
412.95	234.72
413.32	235.20
413.69	235.51
414.07	235.96
414.44	236.39
414.82	236.78
415.19	237.29
415.56	237.78
415.94	238.31
416.31	238.92
416.68	239.61
417.06	240.36
417.43	241.12
417.81	241.93
418.18	242.71
418.55	243.55
418.93	244.55
419.30	245.35
419.67	246.29
420.04	247.22
420.42	248.28
420.79	249.53
421.16	250.70
421.54	252.01
421.91	253.27
422.28	254.49
422.66	255.89
423.03	257.26
423.40	258.65
423.77	260.00
424.15	261.42
424.52	263.00
424.89	264.65
425.26	266.19
425.64	267.57
426.01	269.20
426.38	270.79
426.75	272.40
427.13	274.36
427.50	276.22
427.87	278.11
428.24	279.89
428.61	281.59
428.99	283.48
429.36	285.60
429.73	287.64
430.10	289.87
430.47	291.89
430.85	293.87
431.22	296.15
431.59	298.65
431.96	300.96
432.33	303.34
432.70	305.83
433.08	308.65
433.45	311.28
433.82	313.97
434.19	316.99
434.56	319.96
434.93	322.71
435.30	325.37
435.68	328.43
436.05	331.30
436.42	334.22
436.79	336.88
437.16	339.66
437.53	342.53
437.90	345.29
438.27	348.23
438.64	351.22
439.01	353.87
439.38	356.06
439.75	358.13
440.13	360.71
440.50	363.00
440.87	364.92
441.24	366.97
441.61	368.97
441.98	370.58
442.35	372.32
442.72	374.03
443.09	375.91
443.46	376.74
443.83	377.40
444.20	377.82
444.57	378.67
444.94	379.04
445.31	379.42
445.68	379.92
446.05	379.95
446.42	379.49
446.79	379.09
447.16	378.67
447.53	378.58
447.90	377.49
448.27	376.49
448.64	374.81
449.01	373.66
449.37	371.84
449.74	369.86
450.11	367.61
450.48	365.23
450.85	362.61
451.22	360.50
451.59	358.38
451.96	356.29
452.33	353.60
452.70	351.07
453.07	348.13
453.43	345.04
453.80	342.25
454.17	339.53
454.54	336.90
454.91	334.10
455.28	331.22
455.65	328.56
456.02	326.11
456.38	323.93
456.75	321.20
457.12	318.81
457.49	316.60
457.86	314.39
458.23	312.54
458.59	310.27
458.96	308.18
459.33	306.39
459.70	304.70
460.07	303.12
460.43	301.36
460.80	299.83
461.17	298.46
461.54	296.88
461.91	295.44
462.27	293.97
462.64	292.58
463.01	291.26
463.38	290.00
463.74	288.29
464.11	287.11
464.48	286.06
464.85	284.95
465.21	284.03
465.58	282.99
465.95	281.69
466.32	280.80
466.68	279.88
467.05	278.83
467.42	277.72
467.78	276.69
468.15	275.71
468.52	274.96
468.88	273.93
469.25	273.05
469.62	272.38
469.98	271.61
470.35	271.00
470.72	270.27
471.08	269.48
471.45	268.95
471.82	268.36
472.18	267.68
472.55	267.13
472.92	266.29
473.28	265.86
473.65	265.28
474.02	264.76
474.38	264.18
474.75	263.78
475.11	263.28
475.48	262.89
475.85	262.55
476.21	262.03
476.58	261.62
476.94	261.24
477.31	260.85
477.67	260.38
478.04	259.97
478.41	259.74
478.77	259.58
479.14	259.23
479.50	258.86
479.87	258.60
480.23	258.42
480.60	258.30
480.96	257.99
481.33	257.89
481.69	257.68
482.06	257.60
482.42	257.52
482.79	257.49
483.15	257.44
483.52	257.39
483.88	257.37
484.25	257.28
484.61	257.29
484.98	257.27
485.34	257.46
485.71	257.64
486.07	257.68
486.44	257.60
486.80	257.84
487.17	258.11
487.53	258.43
487.90	258.69
488.26	259.02
488.62	259.39
488.99	259.72
489.35	260.20
489.72	260.50
490.08	260.79
490.44	261.30
490.81	261.85
491.17	262.39
491.54	262.91
491.90	263.65
492.26	264.27
492.63	264.96
492.99	265.70
493.36	266.59
493.72	267.49
494.08	268.47
494.45	269.42
494.81	270.40
495.17	271.53
495.54	272.71
495.90	274.00
496.26	275.32
496.63	276.80
496.99	278.29
497.35	279.97
497.72	281.72
498.08	283.30
498.44	284.95
498.80	286.95
499.17	289.05
499.53	291.13
499.89	293.39
500.26	295.80
500.62	298.17
500.98	300.62
501.34	303.29
501.71	306.14
502.07	309.08
502.43	312.20
502.79	315.24
503.16	318.54
503.52	321.91
503.88	325.30
504.24	328.87
504.60	332.60
504.97	336.48
505.33	340.46
505.69	344.75
506.05	349.15
506.41	353.55
506.78	358.11
507.14	362.97
507.50	368.01
507.86	373.13
508.22	378.45
508.59	383.72
508.95	389.50
509.31	395.24
509.67	401.15
510.03	407.22
510.39	413.61
510.75	420.07
511.12	426.46
511.48	433.27
511.84	440.22
512.20	447.29
512.56	454.76
512.92	462.25
513.28	470.12
513.64	478.25
514.00	486.30
514.37	494.52
514.73	502.96
515.09	511.44
515.45	520.25
515.81	529.13
516.17	538.50
516.53	547.67
516.89	557.06
517.25	566.75
517.61	576.49
517.97	586.21
518.33	595.83
518.69	606.21
519.05	616.68
519.41	627.31
519.77	638.32
520.13	649.23
520.49	660.10
520.85	671.01
521.21	681.96
521.57	693.36
521.93	704.65
522.29	716.38
522.65	728.18
523.01	739.72
523.37	751.54
523.73	763.33
524.09	775.46
524.45	788.06
524.81	800.61
525.17	813.38
525.53	826.23
525.89	839.30
526.25	852.31
526.61	864.94
526.97	878.10
527.33	891.01
527.68	903.99
528.04	917.41
528.40	931.08
528.76	944.72
529.12	958.70
529.48	972.65
529.84	985.99
530.20	999.64
530.56	1013.98
530.91	1028.76
531.27	1043.00
531.63	1056.90
531.99	1070.75
532.35	1084.23
532.71	1097.95
533.07	1112.19
533.42	1126.18
533.78	1140.05
534.14	1154.32
534.50	1167.85
534.86	1182.00
535.21	1195.83
535.57	1209.98
535.93	1223.96
536.29	1237.69
536.65	1251.31
537.00	1264.88
537.36	1278.90
537.72	1292.55
538.08	1306.22
538.44	1318.94
538.79	1332.34
539.15	1345.50
539.51	1358.97
539.87	1372.66
540.22	1385.64
540.58	1398.91
540.94	1412.16
541.29	1424.66
541.65	1437.21
542.01	1450.28
542.37	1462.90
542.72	1475.42
543.08	1487.60
543.44	1499.88
543.79	1511.63
544.15	1523.06
544.51	1535.47
544.87	1547.40
545.22	1558.91
545.58	1570.32
545.94	1581.00
546.29	1591.77
546.65	1602.78
547.01	1613.07
547.36	1623.18
547.72	1633.55
548.07	1643.37
548.43	1652.47
548.79	1662.53
549.14	1672.34
549.50	1681.45
549.86	1690.58
550.21	1699.64
550.57	1708.88
550.92	1717.86
551.28	1726.56
551.64	1735.60
551.99	1743.90
552.35	1752.04
552.70	1760.23
553.06	1767.94
553.41	1776.61
553.77	1784.83
554.13	1792.89
554.48	1801.08
554.84	1808.96
555.19	1816.48
555.55	1824.00
555.90	1831.79
556.26	1838.90
556.61	1845.93
556.97	1852.25
557.32	1859.01
557.68	1865.59
558.03	1871.80
558.39	1877.64
558.74	1884.74
559.10	1890.95
559.45	1896.87
559.81	1903.32
560.16	1909.09
560.52	1914.86
560.87	1920.93
561.23	1925.87
561.58	1931.20
561.94	1935.56
562.29	1940.13
562.64	1944.54
563.00	1948.97
563.35	1954.01
563.71	1959.14
564.06	1964.00
564.42	1969.01
564.77	1973.63
565.12	1978.67
565.48	1983.23
565.83	1987.17
566.19	1990.96
566.54	1994.35
566.89	1997.48
567.25	2000.34
567.60	2004.49
567.96	2007.64
568.31	2009.84
568.66	2012.85
569.02	2015.28
569.37	2017.74
569.72	2020.28
570.08	2022.57
570.43	2024.48
570.78	2026.01
571.14	2026.87
571.49	2027.87
571.84	2029.87
572.20	2030.47
572.55	2030.51
572.90	2030.42
573.26	2031.03
573.61	2030.98
573.96	2031.11
574.31	2030.56
574.67	2029.47
575.02	2027.97
575.37	2027.00
575.72	2025.69
576.08	2024.40
576.43	2023.27
576.78	2022.50
577.13	2021.75
577.49	2020.65
577.84	2019.06
578.19	2017.43
578.54	2015.86
578.90	2013.53
579.25	2010.47
579.60	2007.94
579.95	2005.46
580.30	2002.84
580.66	1999.53
581.01	1996.40
581.36	1993.68
581.71	1991.47
582.06	1989.36
582.42	1986.34
582.77	1983.20
583.12	1979.86
583.47	1976.87
583.82	1973.72
584.17	1970.31
584.53	1966.88
584.88	1963.75
585.23	1960.31
585.58	1956.89
585.93	1952.91
586.28	1949.99
586.63	1946.58
586.98	1943.12
587.34	1939.56
587.69	1936.10
588.04	1932.87
588.39	1929.34
588.74	1924.57
589.09	1920.08
589.44	1914.90
589.79	1910.85
590.14	1907.24
590.49	1903.17
590.84	1898.71
591.19	1893.76
591.54	1888.35
591.89	1882.37
592.25	1877.09
592.60	1871.33
592.95	1865.37
593.30	1860.24
593.65	1854.29
594.00	1848.81
594.35	1843.49
594.70	1837.52
595.05	1832.30
595.40	1826.16
595.75	1820.10
596.10	1814.94
596.45	1809.95
596.80	1805.40
597.15	1800.29
597.50	1794.22
597.85	1788.90
598.19	1784.31
598.54	1779.42
598.89	1774.66
599.24	1769.93
599.59	1764.89
599.94	1760.43
600.29	1755.42
600.64	1750.08
600.99	1744.09
601.34	1738.80
601.69	1733.41
602.04	1728.25
602.39	1722.36
602.74	1717.81
603.08	1713.17
603.43	1708.35
603.78	1702.72
604.13	1696.65
604.48	1690.45
604.83	1684.84
605.18	1679.72
605.53	1672.38
605.87	1665.57
606.22	1659.65
606.57	1653.58
606.92	1647.32
607.27	1641.38
607.62	1635.63
607.96	1629.87
608.31	1624.85
608.66	1618.22
609.01	1611.36
609.36	1604.00
609.70	1596.62
610.05	1589.16
610.40	1581.84
610.75	1574.27
611.10	1566.94
611.44	1559.18
611.79	1552.48
612.14	1545.25
612.49	1536.99
612.83	1530.26
613.18	1523.47
613.53	1516.12
613.88	1508.27
614.22	1501.25
614.57	1493.16
614.92	1485.53
615.27	1478.50
615.61	1470.54
615.96	1463.45
616.31	1456.72
616.65	1450.86
617.00	1444.63
617.35	1437.75
617.70	1430.58
618.04	1423.32
618.39	1416.42
618.74	1410.30
619.08	1402.80
619.43	1396.00
619.78	1389.91
620.12	1383.16
620.47	1376.33
620.82	1369.14
621.16	1362.74
621.51	1355.35
621.85	1348.83
622.20	1341.65
622.55	1334.32
622.89	1327.78
623.24	1321.06
623.59	1314.12
623.93	1307.21
624.28	1300.41
624.62	1293.68
624.97	1287.24
625.32	1281.09
625.66	1274.67
626.01	1268.18
626.35	1261.73
626.70	1255.08
627.04	1248.38
627.39	1241.41
627.73	1234.22
628.08	1227.75
628.43	1220.73
628.77	1214.14
629.12	1207.30
629.46	1200.80
629.81	1193.65
630.15	1186.47
630.50	1179.34
630.84	1172.27
631.19	1164.90
631.53	1157.90
631.88	1150.69
632.22	1143.40
632.57	1136.86
632.91	1129.92
633.26	1122.83
633.60	1115.79
633.95	1109.10
634.29	1102.49
634.64	1096.51
634.98	1090.27
635.32	1083.61
635.67	1077.48
636.01	1071.23
636.36	1064.73
636.70	1058.74
637.05	1052.86
637.39	1047.12
637.73	1041.59
638.08	1036.22
638.42	1030.79
638.77	1025.14
639.11	1019.47
639.45	1013.80
639.80	1007.39
640.14	1001.24
640.49	995.45
640.83	989.80
641.17	983.55
641.52	977.59
641.86	971.31
642.20	965.73
642.55	960.14
642.89	954.54
643.23	948.65
643.58	943.28
643.92	937.33
644.26	931.63
644.61	926.19
644.95	920.26
645.29	913.71
645.64	907.61
645.98	901.84
646.32	896.36
646.66	890.57
647.01	885.11
647.35	879.59
647.69	873.75
648.04	868.41
648.38	862.87
648.72	856.86
649.06	851.07
649.41	845.61
649.75	839.73
650.09	833.92
650.43	828.07
650.78	821.92
651.12	816.15
651.46	810.41
651.80	804.66
652.14	799.45
652.49	794.29
652.83	789.14
653.17	783.51
653.51	778.04
653.85	772.62
654.20	767.13
654.54	761.68
654.88	756.47
655.22	750.90
655.56	745.70
655.90	740.74
656.25	735.73
656.59	730.34
656.93	725.53
657.27	720.71
657.61	715.63
657.95	711.17
658.29	706.41
658.64	701.65
658.98	696.59
659.32	691.36
659.66	686.55
660.00	681.61
660.34	676.92
660.68	672.20
661.02	667.60
661.36	663.08
661.70	658.80
662.05	654.44
662.39	650.19
662.73	645.86
663.07	641.53
663.41	637.44
663.75	633.26
664.09	629.12
664.43	624.99
664.77	621.38
665.11	617.51
665.45	613.60
665.79	609.57
666.13	605.76
666.47	601.93
666.81	597.97
667.15	593.86
667.49	590.15
667.83	586.30
668.17	582.54
668.51	578.68
668.85	574.65
669.19	571.10
669.53	567.51
669.87	563.75
670.21	560.34
670.55	556.80
670.89	553.51
671.23	550.30
671.57	546.81
671.91	543.33
672.25	539.80
672.58	536.51
672.92	533.37
673.26	530.33
673.60	527.17
673.94	524.35
674.28	521.73
674.62	518.73
674.96	516.02
675.30	513.22
675.64	510.37
675.97	507.75
676.31	504.92
676.65	502.10
676.99	499.60
677.33	496.67
677.67	493.89
678.01	490.89
678.34	487.84
678.68	485.12
679.02	482.37
679.36	479.74
679.70	477.05
680.04	474.54
680.37	471.60
680.71	469.10
681.05	466.57
681.39	463.97
681.73	461.43
682.06	458.80
682.40	456.62
682.74	454.21
683.08	451.83
683.42	449.37
683.75	447.00
684.09	444.54
684.43	442.23
684.77	439.92
685.10	437.58
685.44	435.48
685.78	433.26
686.12	431.08
686.45	428.98
686.79	426.68
687.13	424.51
687.46	422.58
687.80	420.46
688.14	418.03
688.48	415.95
688.81	413.97
689.15	411.82
689.49	409.56
689.82	407.48
690.16	405.30
690.50	403.40
690.83	401.48
691.17	399.56
691.51	397.73
691.84	395.84
692.18	394.21
692.52	392.14
692.85	390.11
693.19	388.35
693.52	386.39
693.86	384.62
694.20	382.72
694.53	381.03
694.87	379.21
695.21	377.53
695.54	375.66
695.88	373.72
696.21	372.09
696.55	370.42
696.88	368.82
697.22	367.33
697.56	365.69
697.89	364.09
698.23	362.50
698.56	360.88
698.90	359.32
699.23	357.61
699.57	356.10
699.90	354.68
700.24	353.00
700.58	351.43
700.91	350.14
701.25	348.75
701.58	347.29
701.92	345.87
702.25	344.47
702.59	343.20
702.92	341.85
703.26	340.44
703.59	339.15
703.93	338.04
704.26	336.71
704.60	335.34
704.93	333.87
705.26	332.56
705.60	331.34
705.93	330.16
706.27	329.00
706.60	327.90
706.94	326.79
707.27	325.69
707.61	324.63
707.94	323.45
708.27	322.20
708.61	320.89
708.94	319.76
709.28	318.66
709.61	317.65
709.94	316.78
710.28	315.78
710.61	314.71
710.95	313.50
711.28	312.49
711.61	311.51
711.95	310.57
712.28	309.53
712.61	308.48
712.95	307.48
713.28	306.62
713.61	305.62
713.95	304.70
714.28	303.78
714.61	302.81
714.95	301.79
715.28	300.85
715.61	299.97
715.95	299.11
716.28	298.31
716.61	297.43
716.95	296.60
717.28	295.75
717.61	295.05
717.94	294.16
718.28	293.30
718.61	292.52
718.94	291.77
719.27	291.13
719.61	290.40
719.94	289.62
720.27	288.70
720.60	287.95
720.94	287.20
721.27	286.56
721.60	286.01
721.93	285.50
722.27	284.99
722.60	284.45
722.93	283.80
723.26	283.16
723.59	282.52
723.93	281.86
724.26	281.34
724.59	280.57
724.92	280.13
725.25	279.74
725.59	279.02
725.92	278.47
726.25	277.94
726.58	277.41
726.91	277.01
727.24	276.65
727.57	276.23
727.91	275.73
728.24	275.21
728.57	274.68
728.90	274.10
729.23	273.60
729.56	273.19
729.89	272.77
730.22	272.29
730.55	271.77
730.89	271.29
731.22	270.75
731.55	270.38
731.88	269.90
732.21	269.38
732.54	269.10
732.87	268.80
733.20	268.33
733.53	267.98
733.86	267.62
734.19	267.07
734.52	266.56
734.85	266.20
735.18	265.75
735.51	265.37
735.84	265.15
736.17	264.72
736.50	264.27
736.83	264.10
737.16	263.73
737.49	263.42
737.82	262.93
738.15	262.63
738.48	262.29
738.81	261.84
739.14	261.48
739.47	261.11
739.80	260.63
740.13	260.19
740.46	259.76
740.79	259.32
741.12	259.12
741.45	258.81
741.78	258.39
742.11	258.08
742.44	257.58
742.77	257.14
743.10	256.85
743.43	256.44
743.75	255.82
744.08	255.73
744.41	255.39
744.74	255.17
745.07	254.83
745.40	254.56
745.73	254.40
746.06	254.13
746.39	253.88
746.71	253.61
747.04	253.35
747.37	252.99
747.70	252.68
748.03	252.30
748.36	252.10
748.68	251.90
749.01	251.57
749.34	251.35
749.67	251.10
750.00	250.88
750.33	250.78
750.65	250.62
750.98	250.25
751.31	249.96
751.64	249.71
751.97	249.60
752.29	249.28
752.62	249.00
752.95	248.71
753.28	248.48
753.60	248.28
753.93	248.17
754.26	248.08
754.59	247.80
754.91	247.56
755.24	247.34
755.57	247.02
755.90	246.89
756.22	246.65
756.55	246.41
756.88	246.11
757.20	245.84
757.53	245.60
757.86	245.47
758.19	245.26
758.51	245.05
758.84	244.81
759.17	244.69
759.49	244.44
759.82	244.28
760.15	244.12
760.47	243.93
760.80	243.70
761.13	243.54
761.45	243.37
761.78	243.18
762.11	243.00
762.43	242.93
762.76	242.68
763.08	242.59
763.41	242.43
763.74	242.34
764.06	242.07
764.39	241.94
764.71	241.58
765.04	241.51
765.37	241.38
765.69	241.20
766.02	240.93
766.34	240.84
766.67	240.72
767.00	240.55
767.32	240.49
767.65	240.44
767.97	240.24
768.30	240.15
768.62	240.01
768.95	239.90
769.27	239.63
769.60	239.50
769.92	239.37
770.25	239.19
770.57	238.97
770.90	238.86
771.22	238.60
771.55	238.55
771.87	238.42
772.20	238.25
772.52	238.25
772.85	238.37
773.17	238.24
773.50	238.22
773.82	238.06
774.15	237.87
774.47	237.59
774.80	237.50
775.12	237.38
775.45	237.37
775.77	237.24
776.09	237.17
776.42	237.14
776.74	237.18
777.07	237.04
777.39	237.01
777.72	237.05
778.04	237.03
778.36	236.97
778.69	236.89
779.01	237.03
779.33	236.82
779.66	236.48
779.98	236.34
780.31	236.17
780.63	236.26
780.95	236.21
781.28	236.13
781.60	236.03
781.92	235.94
782.25	235.78
782.57	235.75
782.89	235.77
783.22	235.70
783.54	235.52
783.86	235.57
784.19	235.57
784.51	235.48
784.83	235.47
785.16	235.37
785.48	235.28
785.80	235.04
786.12	234.95
786.45	235.00
786.77	234.92
787.09	234.99
787.42	234.75
