SpectraSuite Data File
++++++++++++++++++++++++++++++++++++
Date: Fri Feb 01 14:36:24 EST 2013
User: group
Dark Spectrum Present: No
Reference Spectrum Present: No
Number of Sampled Component Spectra: 1
Spectrometers: USB2E7196
Integration Time (usec): 70000 (USB2E7196)
Spectra Averaged: 10 (USB2E7196)
Boxcar Smoothing: 10 (USB2E7196)
Correct for Electrical Dark: No (USB2E7196)
Strobe/Lamp Enabled: No (USB2E7196)
Correct for Detector Non-linearity: No (USB2E7196)
Correct for Stray Light: No (USB2E7196)
Number of Pixels in Processed Spectrum: 2048
>>>>>Begin Processed Spectral Data<<<<<
339.09	0.00
339.48	214.30
339.86	216.40
340.24	219.20
340.63	219.30
341.01	222.80
341.39	223.50
341.78	225.10
342.16	227.50
342.54	226.60
342.93	214.45
343.31	225.28
343.69	225.99
344.07	226.41
344.46	226.87
344.84	227.20
345.22	227.46
345.60	227.79
345.99	227.96
346.37	228.04
346.75	228.11
347.13	228.08
347.52	228.10
347.90	228.32
348.28	228.40
348.66	228.51
349.05	228.70
349.43	228.65
349.81	228.64
350.19	228.69
350.57	228.78
350.96	228.79
351.34	228.95
351.72	228.89
352.10	229.02
352.48	229.03
352.87	229.25
353.25	229.36
353.63	229.39
354.01	229.40
354.39	229.42
354.77	229.52
355.15	229.67
355.54	229.69
355.92	229.60
356.30	229.65
356.68	229.73
357.06	229.67
357.44	229.63
357.82	229.69
358.20	229.79
358.58	229.94
358.97	230.00
359.35	230.04
359.73	230.22
360.11	230.33
360.49	230.39
360.87	230.33
361.25	230.32
361.63	230.40
362.01	230.40
362.39	230.40
362.77	230.44
363.15	230.47
363.53	230.49
363.91	230.50
364.29	230.58
364.67	230.47
365.05	230.48
365.43	230.63
365.81	230.66
366.19	230.77
366.57	230.77
366.95	230.64
367.33	230.63
367.71	230.54
368.09	230.55
368.47	230.54
368.85	230.44
369.23	230.38
369.61	230.16
369.99	230.28
370.37	230.34
370.75	230.31
371.13	230.26
371.51	230.21
371.89	230.14
372.27	229.96
372.65	229.91
373.03	229.82
373.41	229.81
373.78	229.71
374.16	229.48
374.54	229.17
374.92	229.15
375.30	228.99
375.68	228.81
376.06	228.64
376.44	228.55
376.82	228.57
377.19	228.58
377.57	228.55
377.95	228.39
378.33	228.21
378.71	228.08
379.09	227.95
379.47	227.91
379.84	227.84
380.22	227.81
380.60	227.72
380.98	227.68
381.36	227.50
381.73	227.43
382.11	227.37
382.49	227.41
382.87	227.33
383.25	227.22
383.62	227.36
384.00	227.32
384.38	227.15
384.76	227.15
385.13	227.09
385.51	227.00
385.89	226.95
386.27	226.91
386.64	226.80
387.02	226.70
387.40	226.62
387.78	226.61
388.15	226.60
388.53	226.58
388.91	226.56
389.29	226.57
389.66	226.49
390.04	226.40
390.42	226.30
390.79	226.31
391.17	226.37
391.55	226.11
391.92	226.13
392.30	226.25
392.68	226.16
393.05	226.12
393.43	226.17
393.81	226.09
394.18	226.10
394.56	226.20
394.94	226.38
395.31	226.47
395.69	226.61
396.06	226.77
396.44	226.83
396.82	226.88
397.19	226.98
397.57	227.10
397.95	227.24
398.32	227.36
398.70	227.55
399.07	227.72
399.45	227.89
399.82	228.06
400.20	228.25
400.58	228.38
400.95	228.54
401.33	228.64
401.70	228.96
402.08	229.09
402.45	229.24
402.83	229.49
403.20	229.59
403.58	229.74
403.95	229.88
404.33	230.00
404.71	230.20
405.08	230.60
405.46	230.87
405.83	231.11
406.21	231.46
406.58	231.60
406.96	231.86
407.33	232.27
407.70	232.56
408.08	233.03
408.45	233.44
408.83	233.89
409.20	234.34
409.58	234.72
409.95	235.26
410.33	235.84
410.70	236.21
411.08	236.85
411.45	237.38
411.82	237.93
412.20	238.66
412.57	239.44
412.95	239.97
413.32	240.64
413.69	241.52
414.07	242.26
414.44	243.23
414.82	244.22
415.19	245.26
415.56	246.49
415.94	247.50
416.31	248.80
416.68	250.07
417.06	251.51
417.43	252.83
417.81	254.43
418.18	256.08
418.55	257.77
418.93	259.73
419.30	261.61
419.67	263.71
420.04	265.72
420.42	267.80
420.79	270.33
421.16	272.90
421.54	275.27
421.91	277.92
422.28	280.64
422.66	283.48
423.03	286.31
423.40	289.13
423.77	292.33
424.15	295.46
424.52	298.80
424.89	302.49
425.26	306.14
425.64	309.41
426.01	312.93
426.38	316.75
426.75	320.55
427.13	324.48
427.50	328.55
427.87	332.89
428.24	337.32
428.61	341.40
428.99	345.82
429.36	350.78
429.73	355.57
430.10	360.35
430.47	365.24
430.85	370.37
431.22	375.76
431.59	381.28
431.96	386.80
432.33	392.70
432.70	398.31
433.08	405.05
433.45	411.35
433.82	417.73
434.19	424.70
434.56	431.52
434.93	438.19
435.30	444.58
435.68	451.92
436.05	459.03
436.42	466.07
436.79	472.66
437.16	479.83
437.53	487.39
437.90	494.69
438.27	501.86
438.64	509.22
439.01	515.98
439.38	522.30
439.75	528.40
440.13	535.02
440.50	541.58
440.87	546.80
441.24	552.43
441.61	558.53
441.98	563.21
442.35	568.74
442.72	574.21
443.09	579.61
443.46	583.21
443.83	585.53
444.20	587.89
444.57	590.97
444.94	592.56
445.31	594.20
445.68	595.93
446.05	597.10
446.42	597.12
446.79	597.23
447.16	596.88
447.53	596.86
447.90	595.16
448.27	593.21
448.64	590.23
449.01	588.37
449.37	584.34
449.74	580.54
450.11	575.53
450.48	570.23
450.85	564.98
451.22	560.10
451.59	555.78
451.96	551.50
452.33	545.57
452.70	540.33
453.07	533.85
453.43	527.55
453.80	521.14
454.17	514.89
454.54	509.09
454.91	502.70
455.28	496.23
455.65	490.29
456.02	484.38
456.38	479.29
456.75	472.83
457.12	467.54
457.49	462.03
457.86	456.86
458.23	452.43
458.59	447.39
458.96	442.37
459.33	438.04
459.70	433.59
460.07	429.87
460.43	425.72
460.80	421.77
461.17	418.10
461.54	414.46
461.91	410.90
462.27	407.08
462.64	404.19
463.01	400.95
463.38	397.70
463.74	394.35
464.11	391.55
464.48	389.04
464.85	386.27
465.21	384.20
465.58	381.86
465.95	378.97
466.32	376.70
466.68	374.49
467.05	372.13
467.42	369.74
467.78	367.41
468.15	365.08
468.52	363.37
468.88	361.11
469.25	359.07
469.62	357.50
469.98	355.91
470.35	354.10
470.72	352.59
471.08	351.06
471.45	349.73
471.82	348.16
472.18	346.49
472.55	345.13
472.92	343.61
473.28	342.24
473.65	341.00
474.02	339.61
474.38	338.39
474.75	337.25
475.11	336.26
475.48	335.44
475.85	334.57
476.21	333.73
476.58	332.96
476.94	332.42
477.31	331.74
477.67	331.00
478.04	330.37
478.41	329.91
478.77	329.49
479.14	328.91
479.50	328.54
479.87	328.38
480.23	328.24
480.60	327.96
480.96	327.69
481.33	327.61
481.69	327.59
482.06	327.48
482.42	327.37
482.79	327.37
483.15	327.43
483.52	327.68
483.88	327.74
484.25	327.81
484.61	328.01
484.98	328.27
485.34	328.76
485.71	329.28
486.07	329.54
486.44	329.98
486.80	330.42
487.17	330.94
487.53	331.56
487.90	332.18
488.26	332.81
488.62	333.63
488.99	334.40
489.35	335.20
489.72	336.09
490.08	337.08
490.44	337.80
490.81	338.76
491.17	339.72
491.54	340.89
491.90	342.02
492.26	343.16
492.63	344.40
492.99	345.41
493.36	346.61
493.72	348.01
494.08	349.24
494.45	350.77
494.81	352.11
495.17	353.35
495.54	354.78
495.90	356.32
496.26	357.76
496.63	359.16
496.99	360.67
497.35	362.21
497.72	363.75
498.08	365.38
498.44	366.99
498.80	368.61
499.17	370.09
499.53	371.78
499.89	373.40
500.26	374.86
500.62	376.47
500.98	378.02
501.34	379.52
501.71	380.99
502.07	382.29
502.43	383.62
502.79	385.18
503.16	386.60
503.52	388.06
503.88	389.40
504.24	390.82
504.60	392.24
504.97	393.54
505.33	394.95
505.69	396.50
506.05	397.65
506.41	398.69
506.78	399.87
507.14	400.79
507.50	401.71
507.86	402.75
508.22	403.82
508.59	404.71
508.95	405.57
509.31	406.58
509.67	407.53
510.03	408.54
510.39	409.32
510.75	410.05
511.12	410.72
511.48	411.50
511.84	412.00
512.20	412.43
512.56	412.88
512.92	413.28
513.28	413.70
513.64	414.16
514.00	414.66
514.37	414.99
514.73	415.44
515.09	415.90
515.45	416.20
515.81	416.57
516.17	416.95
516.53	417.31
516.89	417.47
517.25	417.53
517.61	417.72
517.97	417.85
518.33	417.97
518.69	418.18
519.05	418.30
519.41	418.58
519.77	419.07
520.13	419.34
520.49	419.66
520.85	419.80
521.21	420.09
521.57	420.46
521.93	420.70
522.29	421.02
522.65	421.35
523.01	421.69
523.37	421.73
523.73	422.10
524.09	422.59
524.45	423.04
524.81	423.63
525.17	424.40
525.53	425.08
525.89	425.83
526.25	426.60
526.61	427.38
526.97	428.24
527.33	429.07
527.68	430.25
528.04	431.14
528.40	432.17
528.76	433.18
529.12	434.43
529.48	435.95
529.84	437.26
530.20	438.51
530.56	440.08
530.91	441.82
531.27	443.70
531.63	445.34
531.99	446.95
532.35	448.94
532.71	450.65
533.07	452.69
533.42	454.80
533.78	456.81
534.14	459.05
534.50	461.40
534.86	463.72
535.21	465.79
535.57	468.27
535.93	470.86
536.29	473.68
536.65	476.24
537.00	478.60
537.36	481.37
537.72	484.27
538.08	487.11
538.44	490.04
538.79	492.68
539.15	495.60
539.51	498.91
539.87	502.00
540.22	505.27
540.58	508.70
540.94	511.81
541.29	515.27
541.65	518.54
542.01	522.10
542.37	525.49
542.72	529.23
543.08	532.84
543.44	536.36
543.79	539.78
544.15	543.62
544.51	547.77
544.87	551.59
545.22	555.42
545.58	559.50
545.94	563.18
546.29	566.98
546.65	570.80
547.01	574.73
547.36	578.60
547.72	582.54
548.07	586.19
548.43	590.21
548.79	594.30
549.14	598.25
549.50	601.93
549.86	605.71
550.21	609.61
550.57	613.68
550.92	617.87
551.28	621.91
551.64	625.84
551.99	629.91
552.35	633.97
552.70	637.93
553.06	641.84
553.41	646.12
553.77	650.28
554.13	654.25
554.48	658.22
554.84	662.28
555.19	666.23
555.55	670.57
555.90	674.55
556.26	678.38
556.61	682.30
556.97	686.31
557.32	690.52
557.68	694.52
558.03	698.47
558.39	702.54
558.74	706.53
559.10	710.31
559.45	714.11
559.81	718.30
560.16	722.03
560.52	725.80
560.87	729.77
561.23	733.56
561.58	737.70
561.94	741.52
562.29	745.32
562.64	748.89
563.00	752.12
563.35	755.78
563.71	759.70
564.06	763.71
564.42	767.30
564.77	771.14
565.12	774.66
565.48	778.42
565.83	781.72
566.19	785.32
566.54	788.64
566.89	791.74
567.25	794.94
567.60	798.76
567.96	802.27
568.31	805.63
568.66	808.73
569.02	811.70
569.37	814.55
569.72	817.78
570.08	820.84
570.43	823.94
570.78	826.77
571.14	829.17
571.49	831.68
571.84	834.97
572.20	837.30
572.55	839.82
572.90	841.94
573.26	844.40
573.61	846.79
573.96	848.99
574.31	850.94
574.67	852.65
575.02	853.97
575.37	855.53
575.72	856.57
576.08	858.43
576.43	859.86
576.78	861.57
577.13	862.92
577.49	864.38
577.84	865.76
578.19	867.20
578.54	868.58
578.90	869.75
579.25	870.10
579.60	870.98
579.95	871.83
580.30	872.57
580.66	873.34
581.01	873.85
581.36	874.70
581.71	875.73
582.06	876.37
582.42	877.02
582.77	877.45
583.12	878.00
583.47	878.40
583.82	879.20
584.17	879.48
584.53	879.52
584.88	879.89
585.23	879.86
585.58	879.74
585.93	879.84
586.28	879.97
586.63	880.18
586.98	880.43
587.34	880.53
587.69	880.60
588.04	880.27
588.39	880.13
588.74	879.49
589.09	879.01
589.44	878.68
589.79	878.37
590.14	878.32
590.49	877.99
590.84	877.43
591.19	876.68
591.54	875.85
591.89	874.98
592.25	874.09
592.60	873.23
592.95	872.42
593.30	871.51
593.65	870.52
594.00	869.34
594.35	868.68
594.70	867.34
595.05	866.33
595.40	865.24
595.75	863.92
596.10	863.01
596.45	861.98
596.80	861.18
597.15	859.92
597.50	858.55
597.85	857.36
598.19	856.41
598.54	855.30
598.89	854.22
599.24	853.42
599.59	852.05
599.94	851.25
600.29	849.89
600.64	848.54
600.99	846.79
601.34	845.52
601.69	843.52
602.04	842.08
602.39	840.50
602.74	839.00
603.08	837.63
603.43	836.58
603.78	835.20
604.13	833.31
604.48	831.84
604.83	830.38
605.18	828.80
605.53	826.55
605.87	824.27
606.22	822.57
606.57	820.63
606.92	818.84
607.27	817.11
607.62	815.61
607.96	813.94
608.31	812.49
608.66	810.48
609.01	808.30
609.36	806.10
609.70	803.62
610.05	801.40
610.40	799.31
610.75	796.80
611.10	794.22
611.44	791.64
611.79	789.49
612.14	786.78
612.49	784.00
612.83	781.59
613.18	779.39
613.53	776.90
613.88	774.20
614.22	771.67
614.57	768.67
614.92	765.87
615.27	763.22
615.61	760.48
615.96	757.79
616.31	755.59
616.65	753.52
617.00	751.13
617.35	748.68
617.70	745.93
618.04	743.19
618.39	740.76
618.74	738.37
619.08	735.58
619.43	732.88
619.78	730.51
620.12	728.17
620.47	725.52
620.82	722.96
621.16	720.44
621.51	718.06
621.85	715.50
622.20	713.00
622.55	710.29
622.89	707.86
623.24	705.70
623.59	703.18
623.93	700.80
624.28	698.48
624.62	696.07
624.97	693.86
625.32	691.60
625.66	689.30
626.01	687.00
626.35	684.58
626.70	682.27
627.04	680.03
627.39	677.52
627.73	675.10
628.08	672.57
628.43	670.07
628.77	667.52
629.12	664.85
629.46	662.27
629.81	659.46
630.15	656.58
630.50	653.74
630.84	650.80
631.19	647.69
631.53	644.99
631.88	642.13
632.22	639.00
632.57	636.44
632.91	633.46
633.26	630.64
633.60	627.83
633.95	625.21
634.29	622.54
634.64	620.01
634.98	617.26
635.32	614.80
635.67	612.52
636.01	610.00
636.36	607.68
636.70	605.28
637.05	602.97
637.39	600.83
637.73	598.43
638.08	596.18
638.42	593.97
638.77	591.80
639.11	589.42
639.45	587.05
639.80	584.43
640.14	582.13
640.49	579.79
640.83	577.39
641.17	575.07
641.52	572.64
641.86	570.18
642.20	568.04
642.55	565.69
642.89	563.17
643.23	560.78
643.58	558.66
643.92	556.09
644.26	553.85
644.61	551.49
644.95	549.15
645.29	546.73
645.64	544.18
645.98	541.70
646.32	539.48
646.66	537.38
647.01	535.10
647.35	532.90
647.69	530.60
648.04	528.52
648.38	526.14
648.72	523.68
649.06	521.29
649.41	518.86
649.75	516.26
650.09	513.98
650.43	511.72
650.78	509.06
651.12	506.80
651.46	504.55
651.80	502.40
652.14	500.28
652.49	498.08
652.83	495.99
653.17	493.72
653.51	491.38
653.85	489.12
654.20	486.71
654.54	484.35
654.88	482.10
655.22	479.75
655.56	477.44
655.90	475.40
656.25	473.34
656.59	471.42
656.93	469.55
657.27	467.29
657.61	464.97
657.95	463.08
658.29	460.98
658.64	458.85
658.98	456.43
659.32	454.14
659.66	452.17
660.00	450.18
660.34	448.06
660.68	446.07
661.02	443.90
661.36	442.13
661.70	440.23
662.05	438.37
662.39	436.58
662.73	434.92
663.07	433.24
663.41	431.45
663.75	429.38
664.09	427.38
664.43	425.60
664.77	424.00
665.11	422.28
665.45	420.70
665.79	418.97
666.13	417.42
666.47	415.76
666.81	413.97
667.15	412.14
667.49	410.52
667.83	408.94
668.17	407.38
668.51	405.62
668.85	403.77
669.19	402.20
669.53	400.56
669.87	398.74
670.21	397.08
670.55	395.47
670.89	394.20
671.23	392.77
671.57	391.33
671.91	389.76
672.25	388.16
672.58	386.67
672.92	385.18
673.26	383.74
673.60	382.50
673.94	381.11
674.28	379.84
674.62	378.67
674.96	377.20
675.30	375.96
675.64	374.77
675.97	373.62
676.31	372.21
676.65	370.82
676.99	369.70
677.33	368.34
677.67	367.10
678.01	365.65
678.34	364.34
678.68	363.09
679.02	361.88
679.36	360.77
679.70	359.56
680.04	358.28
680.37	356.83
680.71	355.35
681.05	354.22
681.39	353.07
681.73	351.76
682.06	350.72
682.40	349.52
682.74	348.39
683.08	347.28
683.42	346.15
683.75	345.05
684.09	343.81
684.43	342.61
684.77	341.37
685.10	340.31
685.44	339.21
685.78	338.04
686.12	336.87
686.45	335.62
686.79	334.43
687.13	333.46
687.46	332.62
687.80	331.72
688.14	330.54
688.48	329.39
688.81	328.39
689.15	327.39
689.49	326.38
689.82	325.38
690.16	324.40
690.50	323.50
690.83	322.56
691.17	321.52
691.51	320.63
691.84	319.86
692.18	318.81
692.52	317.82
692.85	317.02
693.19	316.20
693.52	315.24
693.86	314.31
694.20	313.40
694.53	312.43
694.87	311.49
695.21	310.50
695.54	309.59
695.88	308.49
696.21	307.53
696.55	306.68
696.88	305.75
697.22	304.86
697.56	304.04
697.89	303.14
698.23	302.44
698.56	301.72
698.90	300.91
699.23	300.17
699.57	299.44
699.90	298.66
700.24	297.81
700.58	297.11
700.91	296.43
701.25	295.81
701.58	295.14
701.92	294.50
702.25	293.85
702.59	293.28
702.92	292.69
703.26	292.17
703.59	291.51
703.93	291.02
704.26	290.39
704.60	289.88
704.93	289.36
705.26	288.83
705.60	288.11
705.93	287.45
706.27	287.02
706.60	286.64
706.94	286.01
707.27	285.34
707.61	284.80
707.94	284.30
708.27	283.65
708.61	283.08
708.94	282.55
709.28	282.15
709.61	281.63
709.94	281.18
710.28	280.59
710.61	280.02
710.95	279.33
711.28	278.95
711.61	278.28
711.95	277.70
712.28	276.97
712.61	276.38
712.95	275.94
713.28	275.38
713.61	274.68
713.95	274.09
714.28	273.75
714.61	273.33
714.95	272.86
715.28	272.37
715.61	271.85
715.95	271.29
716.28	270.65
716.61	270.18
716.95	269.73
717.28	269.26
717.61	268.79
717.94	268.39
718.28	267.76
718.61	267.23
718.94	266.85
719.27	266.53
719.61	266.20
719.94	265.79
720.27	265.24
720.60	264.88
720.94	264.58
721.27	264.07
721.60	263.69
721.93	263.22
722.27	262.99
722.60	262.74
722.93	262.33
723.26	262.02
723.59	261.75
723.93	261.38
724.26	260.93
724.59	260.62
724.92	260.22
725.25	259.97
725.59	259.70
725.92	259.36
726.25	259.08
726.58	258.80
726.91	258.46
727.24	258.17
727.57	257.90
727.91	257.54
728.24	257.40
728.57	257.10
728.90	256.79
729.23	256.40
729.56	256.20
729.89	256.04
730.22	255.76
730.55	255.53
730.89	255.21
731.22	255.04
731.55	254.77
731.88	254.51
732.21	254.20
732.54	253.89
732.87	253.66
733.20	253.41
733.53	253.15
733.86	252.96
734.19	252.62
734.52	252.44
734.85	252.34
735.18	252.04
735.51	251.86
735.84	251.68
736.17	251.41
736.50	251.00
736.83	250.98
737.16	250.70
737.49	250.45
737.82	250.32
738.15	250.14
738.48	250.02
738.81	249.81
739.14	249.60
739.47	249.42
739.80	249.17
740.13	248.99
740.46	248.71
740.79	248.46
741.12	248.37
741.45	248.16
741.78	247.80
742.11	247.62
742.44	247.27
742.77	247.10
743.10	246.94
743.43	246.63
743.75	246.12
744.08	246.32
744.41	246.05
744.74	245.78
745.07	245.58
745.40	245.28
745.73	245.30
746.06	245.15
746.39	245.00
746.71	244.95
747.04	244.74
747.37	244.60
747.70	244.46
748.03	244.29
748.36	244.16
748.68	244.04
749.01	243.80
749.34	243.69
749.67	243.52
750.00	243.30
750.33	243.29
750.65	243.27
750.98	242.81
751.31	242.64
751.64	242.49
751.97	242.44
752.29	242.41
752.62	242.06
752.95	241.88
753.28	241.77
753.60	241.60
753.93	241.43
754.26	241.27
754.59	241.14
754.91	241.00
755.24	240.81
755.57	240.62
755.90	240.59
756.22	240.48
756.55	240.30
756.88	240.13
757.20	239.97
757.53	239.75
757.86	239.56
758.19	239.33
758.51	239.20
758.84	238.92
759.17	238.78
759.49	238.70
759.82	238.74
760.15	238.59
760.47	238.47
760.80	238.30
761.13	238.27
761.45	237.97
761.78	237.92
762.11	237.78
762.43	237.80
762.76	237.61
763.08	237.45
763.41	237.35
763.74	237.27
764.06	237.16
764.39	237.18
764.71	237.16
765.04	237.16
765.37	237.18
765.69	237.04
766.02	236.90
766.34	236.70
766.67	236.48
767.00	236.49
767.32	236.50
767.65	236.60
767.97	236.48
768.30	236.48
768.62	236.38
768.95	236.25
769.27	236.17
769.60	236.15
769.92	236.13
770.25	236.10
770.57	236.07
770.90	236.09
771.22	235.96
771.55	235.97
771.87	235.93
772.20	235.75
772.52	235.90
772.85	236.06
773.17	236.16
773.50	236.15
773.82	236.00
774.15	235.81
774.47	235.66
774.80	235.59
775.12	235.52
775.45	235.54
775.77	235.52
776.09	235.46
776.42	235.38
776.74	235.32
777.07	235.26
777.39	235.20
777.72	235.05
778.04	235.00
778.36	234.91
778.69	234.92
779.01	234.95
779.33	234.80
779.66	234.57
779.98	234.44
780.31	234.33
780.63	234.48
780.95	234.50
781.28	234.39
781.60	234.34
781.92	234.24
782.25	234.10
782.57	234.05
782.89	233.88
783.22	233.86
783.54	233.79
783.86	233.68
784.19	233.60
784.51	233.60
784.83	233.46
785.16	233.39
785.48	233.34
785.80	233.27
786.12	233.17
786.45	233.07
786.77	233.05
787.09	232.94
787.42	232.73
787.74	232.65
788.06	232.66
788.38	232.60
788.71	232.62
789.03	232.57
789.35	232.57
789.67	232.50
789.99	232.41
790.32	232.36
790.64	232.31
790.96	232.49
791.28	232.38
791.61	232.24
791.93	232.15
792.25	232.02
792.57	232.08
792.89	232.05
793.21	231.93
793.54	231.75
793.86	231.80
794.18	231.63
