SpectraSuite Data File
++++++++++++++++++++++++++++++++++++
Date: Fri Feb 01 14:38:41 EST 2013
User: group
Dark Spectrum Present: No
Reference Spectrum Present: No
Number of Sampled Component Spectra: 1
Spectrometers: USB2E7196
Integration Time (usec): 70000 (USB2E7196)
Spectra Averaged: 10 (USB2E7196)
Boxcar Smoothing: 10 (USB2E7196)
Correct for Electrical Dark: No (USB2E7196)
Strobe/Lamp Enabled: No (USB2E7196)
Correct for Detector Non-linearity: No (USB2E7196)
Correct for Stray Light: No (USB2E7196)
Number of Pixels in Processed Spectrum: 2048
>>>>>Begin Processed Spectral Data<<<<<
339.09	0.00
339.48	215.80
339.86	216.50
340.24	216.80
340.63	218.80
341.01	226.00
341.39	222.20
341.78	224.60
342.16	224.60
342.54	225.80
342.93	213.97
343.31	224.82
343.69	225.46
344.07	225.90
344.46	226.54
344.84	226.87
345.22	227.00
345.60	227.36
345.99	227.55
346.37	227.71
346.75	227.88
347.13	227.97
347.52	227.96
347.90	228.04
348.28	227.99
348.66	228.06
349.05	228.12
349.43	228.15
349.81	228.18
350.19	228.20
350.57	228.22
350.96	228.25
351.34	228.19
351.72	228.17
352.10	228.32
352.48	228.28
352.87	228.44
353.25	228.48
353.63	228.44
354.01	228.42
354.39	228.47
354.77	228.47
355.15	228.64
355.54	228.79
355.92	228.83
356.30	228.97
356.68	229.21
357.06	229.33
357.44	229.25
357.82	229.35
358.20	229.53
358.58	229.60
358.97	229.69
359.35	229.94
359.73	230.03
360.11	230.11
360.49	230.10
360.87	230.24
361.25	230.29
361.63	230.39
362.01	230.50
362.39	230.45
362.77	230.57
363.15	230.48
363.53	230.43
363.91	230.44
364.29	230.50
364.67	230.32
365.05	230.24
365.43	230.46
365.81	230.53
366.19	230.52
366.57	230.60
366.95	230.63
367.33	230.57
367.71	230.51
368.09	230.51
368.47	230.52
368.85	230.45
369.23	230.52
369.61	230.42
369.99	230.48
370.37	230.58
370.75	230.53
371.13	230.46
371.51	230.40
371.89	230.30
372.27	230.22
372.65	230.15
373.03	230.14
373.41	229.95
373.78	229.82
374.16	229.59
374.54	229.50
374.92	229.35
375.30	229.30
375.68	229.17
376.06	229.02
376.44	228.92
376.82	228.76
377.19	228.65
377.57	228.69
377.95	228.46
378.33	228.41
378.71	228.25
379.09	228.22
379.47	228.19
379.84	228.18
380.22	228.14
380.60	228.00
380.98	227.90
381.36	227.80
381.73	227.68
382.11	227.81
382.49	227.71
382.87	227.54
383.25	227.35
383.62	227.50
384.00	227.44
384.38	227.34
384.76	227.40
385.13	227.30
385.51	227.15
385.89	227.04
386.27	226.86
386.64	226.83
387.02	226.70
387.40	226.61
387.78	226.48
388.15	226.32
388.53	226.27
388.91	226.25
389.29	226.30
389.66	226.25
390.04	226.02
390.42	226.01
390.79	226.05
391.17	226.01
391.55	225.92
391.92	225.95
392.30	225.97
392.68	225.94
393.05	225.98
393.43	225.91
393.81	226.03
394.18	226.12
394.56	226.16
394.94	226.29
395.31	226.30
395.69	226.40
396.06	226.54
396.44	226.63
396.82	226.54
397.19	226.66
397.57	226.80
397.95	226.90
398.32	226.94
398.70	227.00
399.07	227.21
399.45	227.17
399.82	227.20
400.20	227.35
400.58	227.33
400.95	227.34
401.33	227.50
401.70	227.63
402.08	227.74
402.45	227.73
402.83	227.89
403.20	228.11
403.58	228.19
403.95	228.35
404.33	228.51
404.71	228.77
405.08	229.08
405.46	229.15
405.83	229.39
406.21	229.56
406.58	229.83
406.96	230.00
407.33	230.29
407.70	230.58
408.08	230.86
408.45	231.16
408.83	231.54
409.20	231.73
409.58	232.02
409.95	232.34
410.33	232.80
410.70	232.97
411.08	233.23
411.45	233.53
411.82	233.90
412.20	234.35
412.57	234.84
412.95	235.03
413.32	235.55
413.69	235.96
414.07	236.51
414.44	236.91
414.82	237.39
415.19	237.94
415.56	238.52
415.94	239.16
416.31	239.93
416.68	240.58
417.06	241.40
417.43	242.11
417.81	242.96
418.18	243.76
418.55	244.78
418.93	245.81
419.30	246.97
419.67	247.96
420.04	249.04
420.42	250.25
420.79	251.75
421.16	253.13
421.54	254.60
421.91	255.93
422.28	257.56
422.66	259.28
423.03	261.04
423.40	262.54
423.77	264.22
424.15	266.04
424.52	267.85
424.89	269.93
425.26	271.93
425.64	273.76
426.01	275.74
426.38	277.89
426.75	280.14
427.13	282.33
427.50	284.66
427.87	287.09
428.24	289.46
428.61	291.65
428.99	294.10
429.36	296.80
429.73	299.52
430.10	302.24
430.47	304.91
430.85	307.46
431.22	310.47
431.59	313.61
431.96	316.48
432.33	319.69
432.70	322.84
433.08	326.53
433.45	330.04
433.82	333.63
434.19	337.42
434.56	341.10
434.93	344.63
435.30	348.20
435.68	352.20
436.05	356.01
436.42	359.85
436.79	363.40
437.16	367.20
437.53	371.04
437.90	374.91
438.27	378.80
438.64	382.89
439.01	386.60
439.38	389.87
439.75	393.03
440.13	396.67
440.50	400.12
440.87	402.87
441.24	405.70
441.61	408.90
441.98	411.20
442.35	413.90
442.72	416.73
443.09	419.43
443.46	420.87
443.83	422.07
444.20	423.20
444.57	424.58
444.94	425.35
445.31	426.20
445.68	427.10
446.05	427.44
446.42	427.23
446.79	427.08
447.16	426.82
447.53	426.73
447.90	425.57
448.27	424.31
448.64	422.51
449.01	421.33
449.37	419.00
449.74	416.80
450.11	414.19
450.48	411.08
450.85	407.95
451.22	405.32
451.59	402.79
451.96	400.21
452.33	397.08
452.70	394.02
453.07	390.45
453.43	386.67
453.80	383.18
454.17	379.67
454.54	376.34
454.91	372.70
455.28	369.19
455.65	365.84
456.02	362.64
456.38	359.80
456.75	356.40
457.12	353.31
457.49	350.30
457.86	347.40
458.23	345.02
458.59	342.42
458.96	339.77
459.33	337.35
459.70	334.88
460.07	332.89
460.43	330.62
460.80	328.47
461.17	326.54
461.54	324.48
461.91	322.70
462.27	320.76
462.64	319.07
463.01	317.12
463.38	315.32
463.74	313.47
464.11	311.92
464.48	310.36
464.85	308.84
465.21	307.65
465.58	306.32
465.95	304.78
466.32	303.54
466.68	302.23
467.05	300.89
467.42	299.62
467.78	298.21
468.15	296.91
468.52	295.92
468.88	294.69
469.25	293.66
469.62	292.60
469.98	291.58
470.35	290.65
470.72	289.76
471.08	288.77
471.45	287.81
471.82	286.92
472.18	286.00
472.55	285.38
472.92	284.57
473.28	283.79
473.65	282.96
474.02	282.20
474.38	281.59
474.75	280.89
475.11	280.27
475.48	279.72
475.85	279.23
476.21	278.67
476.58	278.08
476.94	277.47
477.31	277.03
477.67	276.60
478.04	276.22
478.41	276.02
478.77	275.99
479.14	275.56
479.50	275.21
479.87	274.99
480.23	274.62
480.60	274.30
480.96	274.00
481.33	273.84
481.69	273.63
482.06	273.38
482.42	273.26
482.79	273.05
483.15	272.99
483.52	272.94
483.88	272.95
484.25	272.89
484.61	272.88
484.98	272.90
485.34	272.92
485.71	272.87
486.07	272.82
486.44	272.59
486.80	272.74
487.17	272.72
487.53	272.80
487.90	273.02
488.26	273.22
488.62	273.34
488.99	273.41
489.35	273.45
489.72	273.66
490.08	273.79
490.44	273.90
490.81	274.00
491.17	274.05
491.54	274.10
491.90	274.33
492.26	274.56
492.63	274.72
492.99	274.87
493.36	275.14
493.72	275.38
494.08	275.70
494.45	276.04
494.81	276.40
495.17	276.70
495.54	277.00
495.90	277.27
496.26	277.65
496.63	277.98
496.99	278.35
497.35	278.65
497.72	279.06
498.08	279.46
498.44	279.85
498.80	280.33
499.17	280.80
499.53	281.13
499.89	281.53
500.26	281.82
500.62	282.29
500.98	282.73
501.34	283.03
501.71	283.50
502.07	283.74
502.43	284.11
502.79	284.42
503.16	284.70
503.52	285.18
503.88	285.45
504.24	285.93
504.60	286.34
504.97	286.77
505.33	287.18
505.69	287.72
506.05	288.22
506.41	288.59
506.78	289.16
507.14	289.60
507.50	290.02
507.86	290.66
508.22	291.16
508.59	291.68
508.95	292.27
509.31	292.87
509.67	293.52
510.03	294.28
510.39	295.09
510.75	295.94
511.12	296.55
511.48	297.39
511.84	298.23
512.20	299.11
512.56	299.88
512.92	300.88
513.28	301.70
513.64	302.63
514.00	303.73
514.37	304.72
514.73	305.96
515.09	307.29
515.45	308.44
515.81	309.73
516.17	311.15
516.53	312.63
516.89	314.11
517.25	315.75
517.61	317.39
517.97	319.04
518.33	320.85
518.69	322.80
519.05	324.77
519.41	326.76
519.77	328.93
520.13	331.24
520.49	333.25
520.85	335.70
521.21	338.26
521.57	340.72
521.93	343.28
522.29	345.87
522.65	348.57
523.01	351.36
523.37	354.10
523.73	356.95
524.09	359.92
524.45	362.80
524.81	365.89
525.17	369.06
525.53	372.40
525.89	375.74
526.25	379.11
526.61	382.55
526.97	386.24
527.33	390.00
527.68	394.00
528.04	397.94
528.40	401.87
528.76	405.71
529.12	409.91
529.48	414.17
529.84	418.40
530.20	422.91
530.56	427.64
530.91	432.60
531.27	437.20
531.63	442.16
531.99	447.08
532.35	451.86
532.71	456.80
533.07	461.99
533.42	467.15
533.78	472.44
534.14	477.75
534.50	483.01
534.86	488.27
535.21	493.63
535.57	499.59
535.93	505.26
536.29	511.19
536.65	516.84
537.00	522.55
537.36	528.42
537.72	534.17
538.08	539.84
538.44	545.45
538.79	551.56
539.15	557.43
539.51	563.54
539.87	569.62
540.22	575.71
540.58	581.96
540.94	588.03
541.29	594.12
541.65	600.30
542.01	606.49
542.37	612.86
542.72	618.90
543.08	624.70
543.44	630.99
543.79	636.93
544.15	643.10
544.51	649.45
544.87	655.83
545.22	662.05
545.58	668.38
545.94	674.55
546.29	680.52
546.65	686.85
547.01	692.81
547.36	699.06
547.72	705.34
548.07	711.43
548.43	717.61
548.79	723.59
549.14	729.57
549.50	735.64
549.86	741.43
550.21	747.38
550.57	753.52
550.92	759.44
551.28	765.57
551.64	771.55
551.99	777.44
552.35	783.34
552.70	789.02
553.06	795.01
553.41	800.90
553.77	807.02
554.13	812.61
554.48	818.71
554.84	824.54
555.19	829.97
555.55	835.19
555.90	840.37
556.26	846.05
556.61	851.84
556.97	857.30
557.32	862.84
557.68	868.29
558.03	873.66
558.39	879.08
558.74	884.59
559.10	889.93
559.45	895.06
559.81	900.30
560.16	905.40
560.52	910.28
560.87	915.47
561.23	920.14
561.58	924.93
561.94	929.69
562.29	934.08
562.64	938.78
563.00	943.56
563.35	948.47
563.71	953.17
564.06	957.58
564.42	962.02
564.77	966.77
565.12	971.57
565.48	975.96
565.83	979.88
566.19	983.91
566.54	987.76
566.89	991.80
567.25	995.90
567.60	1000.09
567.96	1004.15
568.31	1007.61
568.66	1011.43
569.02	1014.92
569.37	1018.10
569.72	1021.83
570.08	1025.24
570.43	1028.66
570.78	1031.83
571.14	1034.44
571.49	1037.41
571.84	1040.48
572.20	1042.69
572.55	1044.85
572.90	1047.20
573.26	1049.57
573.61	1051.50
573.96	1053.68
574.31	1055.41
574.67	1056.58
575.02	1058.15
575.37	1059.84
575.72	1061.25
576.08	1062.51
576.43	1064.25
576.78	1066.10
577.13	1067.43
577.49	1068.90
577.84	1069.80
578.19	1070.70
578.54	1071.79
578.90	1072.67
579.25	1073.00
579.60	1074.07
579.95	1074.50
580.30	1075.00
580.66	1075.62
581.01	1076.10
581.36	1076.55
581.71	1077.26
582.06	1077.80
582.42	1077.84
582.77	1077.78
583.12	1077.96
583.47	1078.40
583.82	1078.54
584.17	1078.05
584.53	1077.96
584.88	1077.77
585.23	1077.79
585.58	1077.72
585.93	1077.68
586.28	1077.49
586.63	1077.80
586.98	1077.46
587.34	1077.25
587.69	1076.88
588.04	1076.43
588.39	1076.20
588.74	1075.58
589.09	1074.55
589.44	1073.83
589.79	1073.26
590.14	1072.86
590.49	1071.91
590.84	1070.89
591.19	1069.83
591.54	1068.63
591.89	1067.02
592.25	1065.99
592.60	1064.20
592.95	1062.36
593.30	1061.04
593.65	1059.30
594.00	1057.33
594.35	1055.98
594.70	1054.19
595.05	1052.54
595.40	1050.70
595.75	1048.48
596.10	1046.77
596.45	1045.70
596.80	1044.07
597.15	1042.37
597.50	1040.16
597.85	1038.67
598.19	1036.98
598.54	1035.16
598.89	1033.58
599.24	1032.42
599.59	1030.20
599.94	1029.02
600.29	1027.26
600.64	1025.02
600.99	1022.89
601.34	1021.07
601.69	1018.81
602.04	1017.21
602.39	1015.07
602.74	1013.36
603.08	1011.80
603.43	1010.09
603.78	1007.40
604.13	1005.39
604.48	1003.29
604.83	1001.14
605.18	999.01
605.53	996.30
605.87	993.47
606.22	991.19
606.57	988.59
606.92	986.19
607.27	983.58
607.62	981.92
607.96	979.80
608.31	977.78
608.66	975.07
609.01	971.97
609.36	968.80
609.70	965.81
610.05	962.49
610.40	959.45
610.75	956.08
611.10	953.21
611.44	949.65
611.79	946.43
612.14	943.32
612.49	939.62
612.83	936.39
613.18	933.43
613.53	930.12
613.88	926.56
614.22	923.19
614.57	919.60
614.92	915.63
615.27	912.16
615.61	908.48
615.96	905.13
616.31	902.13
616.65	899.63
617.00	896.27
617.35	893.38
617.70	890.21
618.04	887.01
618.39	883.55
618.74	880.56
619.08	877.19
619.43	874.09
619.78	871.15
620.12	868.16
620.47	865.14
620.82	861.64
621.16	858.44
621.51	855.46
621.85	852.29
622.20	848.98
622.55	845.74
622.89	842.51
623.24	839.28
623.59	836.24
623.93	832.49
624.28	829.60
624.62	826.40
624.97	823.15
625.32	819.97
625.66	817.04
626.01	813.85
626.35	810.70
626.70	807.23
627.04	803.93
627.39	800.40
627.73	796.98
628.08	793.84
628.43	790.68
628.77	787.37
629.12	783.90
629.46	780.62
629.81	776.96
630.15	773.41
630.50	770.11
630.84	766.02
631.19	762.45
631.53	759.06
631.88	755.10
632.22	751.27
632.57	747.92
632.91	744.37
633.26	740.74
633.60	736.92
633.95	733.70
634.29	730.56
634.64	727.25
634.98	723.72
635.32	720.65
635.67	717.41
636.01	713.90
636.36	710.64
636.70	707.30
637.05	704.25
637.39	701.25
637.73	698.06
638.08	695.52
638.42	692.69
638.77	689.55
639.11	686.71
639.45	683.73
639.80	680.62
640.14	677.65
640.49	674.68
640.83	671.98
641.17	668.64
641.52	665.46
641.86	662.66
642.20	659.68
642.55	656.55
642.89	653.60
643.23	650.68
643.58	647.87
643.92	645.10
644.26	642.16
644.61	639.39
644.95	636.25
645.29	632.73
645.64	629.36
645.98	626.30
646.32	623.42
646.66	620.53
647.01	617.37
647.35	614.54
647.69	611.57
648.04	608.83
648.38	605.77
648.72	602.43
649.06	599.13
649.41	595.99
649.75	592.68
650.09	589.39
650.43	586.31
650.78	583.04
651.12	579.84
651.46	576.75
651.80	573.71
652.14	570.85
652.49	568.09
652.83	565.33
653.17	562.24
653.51	559.28
653.85	556.26
654.20	553.31
654.54	549.92
654.88	546.95
655.22	543.50
655.56	540.42
655.90	537.59
656.25	534.97
656.59	532.18
656.93	529.59
657.27	527.01
657.61	524.04
657.95	521.44
658.29	518.77
658.64	516.19
658.98	513.23
659.32	510.32
659.66	507.75
660.00	505.07
660.34	502.50
660.68	499.64
661.02	496.79
661.36	494.24
661.70	491.82
662.05	489.46
662.39	487.31
662.73	485.24
663.07	483.14
663.41	480.70
663.75	478.53
664.09	476.02
664.43	473.56
664.77	471.49
665.11	469.22
665.45	466.95
665.79	464.72
666.13	462.52
666.47	460.39
666.81	458.09
667.15	455.66
667.49	453.51
667.83	451.59
668.17	449.60
668.51	447.47
668.85	445.39
669.19	443.40
669.53	441.36
669.87	438.98
670.21	436.81
670.55	434.79
670.89	432.86
671.23	431.14
671.57	429.05
671.91	427.02
672.25	425.18
672.58	423.26
672.92	421.26
673.26	419.44
673.60	417.71
673.94	416.09
674.28	414.60
674.62	412.87
674.96	411.08
675.30	409.41
675.64	407.88
675.97	406.26
676.31	404.55
676.65	402.77
676.99	401.39
677.33	399.68
677.67	398.13
678.01	396.29
678.34	394.44
678.68	393.00
679.02	391.41
679.36	389.80
679.70	388.32
680.04	386.68
680.37	385.09
680.71	383.51
681.05	381.98
681.39	380.55
681.73	379.06
682.06	377.71
682.40	376.45
682.74	374.98
683.08	373.57
683.42	372.01
683.75	370.64
684.09	369.14
684.43	367.78
684.77	366.26
685.10	364.99
685.44	363.76
685.78	362.37
686.12	360.91
686.45	359.63
686.79	358.24
687.13	357.12
687.46	355.79
687.80	354.54
688.14	353.07
688.48	351.75
688.81	350.44
689.15	349.09
689.49	347.66
689.82	346.40
690.16	344.99
690.50	343.76
690.83	342.67
691.17	341.56
691.51	340.46
691.84	339.46
692.18	338.35
692.52	337.16
692.85	336.01
693.19	334.96
693.52	333.67
693.86	332.48
694.20	331.14
694.53	330.09
694.87	328.86
695.21	327.75
695.54	326.60
695.88	325.44
696.21	324.22
696.55	323.18
696.88	322.13
697.22	321.07
697.56	320.10
697.89	318.92
698.23	317.80
698.56	316.75
698.90	315.70
699.23	314.54
699.57	313.53
699.90	312.48
700.24	311.52
700.58	310.62
700.91	309.74
701.25	309.05
701.58	308.14
701.92	307.32
702.25	306.59
702.59	305.59
702.92	304.70
703.26	304.00
703.59	303.05
703.93	302.28
704.26	301.50
704.60	300.71
704.93	299.94
705.26	299.16
705.60	298.52
705.93	297.79
706.27	297.04
706.60	296.29
706.94	295.57
707.27	294.78
707.61	294.14
707.94	293.37
708.27	292.46
708.61	291.67
708.94	290.92
709.28	290.23
709.61	289.63
709.94	289.03
710.28	288.41
710.61	287.90
710.95	287.08
711.28	286.55
711.61	285.86
711.95	285.16
712.28	284.41
712.61	283.65
712.95	282.90
713.28	282.28
713.61	281.69
713.95	281.17
714.28	280.63
714.61	279.96
714.95	279.42
715.28	278.93
715.61	278.40
715.95	277.80
716.28	277.20
716.61	276.68
716.95	276.09
717.28	275.48
717.61	274.93
717.94	274.49
718.28	273.85
718.61	273.30
718.94	272.83
719.27	272.40
719.61	271.94
719.94	271.54
720.27	271.10
720.60	270.60
720.94	270.18
721.27	269.75
721.60	269.34
721.93	268.89
722.27	268.38
722.60	267.98
722.93	267.64
723.26	267.20
723.59	266.77
723.93	266.38
724.26	265.96
724.59	265.54
724.92	265.10
725.25	264.71
725.59	264.41
725.92	264.04
726.25	263.72
726.58	263.29
726.91	262.87
727.24	262.52
727.57	262.20
727.91	261.74
728.24	261.32
728.57	260.95
728.90	260.59
729.23	260.17
729.56	259.87
729.89	259.41
730.22	259.02
730.55	258.68
730.89	258.38
731.22	258.06
731.55	257.72
731.88	257.36
732.21	257.01
732.54	256.64
732.87	256.29
733.20	255.92
733.53	255.67
733.86	255.32
734.19	255.02
734.52	254.68
734.85	254.49
735.18	254.20
735.51	253.89
735.84	253.69
736.17	253.52
736.50	253.21
736.83	253.23
737.16	252.98
737.49	252.71
737.82	252.41
738.15	252.16
738.48	251.95
738.81	251.71
739.14	251.43
739.47	251.15
739.80	251.01
740.13	250.87
740.46	250.63
740.79	250.40
741.12	250.18
741.45	249.86
741.78	249.55
742.11	249.31
742.44	249.13
742.77	248.91
743.10	248.68
743.43	248.42
743.75	248.05
744.08	248.07
744.41	247.81
744.74	247.64
745.07	247.40
745.40	247.17
745.73	247.10
746.06	247.03
746.39	246.86
746.71	246.65
747.04	246.41
747.37	246.22
747.70	246.07
748.03	245.90
748.36	245.83
748.68	245.66
749.01	245.44
749.34	245.30
749.67	245.07
750.00	244.97
750.33	244.91
750.65	244.68
750.98	244.27
751.31	244.06
751.64	244.00
751.97	243.90
752.29	243.73
752.62	243.41
752.95	243.19
753.28	242.98
753.60	242.87
753.93	242.73
754.26	242.52
754.59	242.34
754.91	242.06
755.24	241.90
755.57	241.64
755.90	241.59
756.22	241.31
756.55	241.18
756.88	240.93
757.20	240.71
757.53	240.64
757.86	240.56
758.19	240.49
758.51	240.23
758.84	239.90
759.17	239.69
759.49	239.59
759.82	239.49
760.15	239.39
760.47	239.14
760.80	239.01
761.13	239.00
761.45	238.81
761.78	238.72
762.11	238.65
762.43	238.59
762.76	238.37
763.08	238.34
763.41	238.15
763.74	238.02
764.06	237.87
764.39	237.75
764.71	237.70
765.04	237.54
765.37	237.51
765.69	237.46
766.02	237.36
766.34	237.29
766.67	237.21
767.00	237.09
767.32	237.13
767.65	237.17
767.97	236.95
768.30	236.89
768.62	236.81
768.95	236.52
769.27	236.45
769.60	236.47
769.92	236.30
770.25	236.33
770.57	236.21
770.90	236.05
771.22	235.89
771.55	235.73
771.87	235.64
772.20	235.48
772.52	235.52
772.85	235.71
773.17	235.55
773.50	235.32
773.82	235.18
774.15	234.91
774.47	234.56
774.80	234.55
775.12	234.49
775.45	234.38
775.77	234.41
776.09	234.30
776.42	234.26
776.74	234.32
777.07	234.19
777.39	234.09
777.72	234.03
778.04	233.89
778.36	233.81
778.69	233.82
779.01	233.80
779.33	233.63
779.66	233.31
779.98	233.33
780.31	233.45
780.63	233.54
780.95	233.57
781.28	233.53
781.60	233.31
781.92	233.35
782.25	233.35
782.57	233.30
782.89	233.29
783.22	233.13
783.54	232.98
783.86	232.84
784.19	232.91
784.51	232.98
784.83	233.00
785.16	232.94
785.48	232.91
785.80	232.89
786.12	232.90
786.45	232.89
786.77	232.81
787.09	232.74
787.42	232.63
787.74	232.66
788.06	232.67
788.38	232.76
788.71	232.63
789.03	232.52
789.35	232.50
789.67	232.39
789.99	232.45
790.32	232.41
790.64	232.39
790.96	232.38
791.28	232.28
791.61	232.16
791.93	232.20
