SpectraSuite Data File
++++++++++++++++++++++++++++++++++++
Date: Fri Feb 01 14:38:54 EST 2013
User: group
Dark Spectrum Present: No
Reference Spectrum Present: No
Number of Sampled Component Spectra: 1
Spectrometers: USB2E7196
Integration Time (usec): 70000 (USB2E7196)
Spectra Averaged: 10 (USB2E7196)
Boxcar Smoothing: 10 (USB2E7196)
Correct for Electrical Dark: No (USB2E7196)
Strobe/Lamp Enabled: No (USB2E7196)
Correct for Detector Non-linearity: No (USB2E7196)
Correct for Stray Light: No (USB2E7196)
Number of Pixels in Processed Spectrum: 2048
>>>>>Begin Processed Spectral Data<<<<<
339.09	0.00
339.48	216.20
339.86	218.60
340.24	219.50
340.63	221.60
341.01	224.40
341.39	223.40
341.78	223.00
342.16	228.00
342.54	227.10
342.93	214.82
343.31	225.67
343.69	226.18
344.07	226.58
344.46	227.06
344.84	227.29
345.22	227.50
345.60	227.76
345.99	228.00
346.37	227.95
346.75	227.90
347.13	227.88
347.52	227.89
347.90	227.90
348.28	227.84
348.66	227.96
349.05	227.90
349.43	227.90
349.81	227.87
350.19	227.82
350.57	227.90
350.96	228.01
351.34	228.01
351.72	228.07
352.10	228.20
352.48	228.11
352.87	228.23
353.25	228.21
353.63	228.14
354.01	228.23
354.39	228.35
354.77	228.37
355.15	228.50
355.54	228.49
355.92	228.63
356.30	228.62
356.68	228.79
357.06	228.94
357.44	229.03
357.82	229.12
358.20	229.19
358.58	229.26
358.97	229.19
359.35	229.30
359.73	229.38
360.11	229.43
360.49	229.50
360.87	229.50
361.25	229.64
361.63	229.79
362.01	229.75
362.39	229.71
362.77	229.89
363.15	229.79
363.53	229.75
363.91	229.80
364.29	229.83
364.67	229.78
365.05	229.76
365.43	229.76
365.81	229.76
366.19	229.81
366.57	229.87
366.95	229.86
367.33	229.84
367.71	229.86
368.09	229.81
368.47	229.74
368.85	229.79
369.23	229.80
369.61	229.68
369.99	229.76
370.37	229.83
370.75	229.84
371.13	229.89
371.51	229.78
371.89	229.65
372.27	229.65
372.65	229.49
373.03	229.41
373.41	229.33
373.78	229.25
374.16	229.04
374.54	228.96
374.92	228.89
375.30	228.70
375.68	228.52
376.06	228.44
376.44	228.37
376.82	228.24
377.19	228.13
377.57	228.05
377.95	227.86
378.33	227.73
378.71	227.54
379.09	227.47
379.47	227.53
379.84	227.45
380.22	227.40
380.60	227.30
380.98	227.11
381.36	227.06
381.73	226.92
382.11	226.93
382.49	226.79
382.87	226.56
383.25	226.65
383.62	226.79
384.00	226.69
384.38	226.64
384.76	226.66
385.13	226.63
385.51	226.64
385.89	226.55
386.27	226.49
386.64	226.42
387.02	226.43
387.40	226.36
387.78	226.32
388.15	226.24
388.53	226.27
388.91	226.36
389.29	226.28
389.66	226.30
390.04	226.18
390.42	226.18
390.79	226.24
391.17	226.21
391.55	225.98
391.92	225.91
392.30	225.99
392.68	225.92
393.05	225.88
393.43	225.90
393.81	225.91
394.18	225.88
394.56	225.92
394.94	225.99
395.31	225.99
395.69	226.00
396.06	226.12
396.44	226.08
396.82	226.09
397.19	226.28
397.57	226.33
397.95	226.52
398.32	226.56
398.70	226.79
399.07	226.94
399.45	227.10
399.82	227.23
400.20	227.35
400.58	227.39
400.95	227.39
401.33	227.51
401.70	227.78
402.08	228.01
402.45	228.23
402.83	228.40
403.20	228.56
403.58	228.79
403.95	228.89
404.33	229.07
404.71	229.30
405.08	229.56
405.46	229.86
405.83	230.04
406.21	230.34
406.58	230.60
406.96	230.61
407.33	230.89
407.70	231.16
408.08	231.47
408.45	231.81
408.83	232.22
409.20	232.45
409.58	232.70
409.95	233.00
410.33	233.29
410.70	233.37
411.08	233.74
411.45	234.03
411.82	234.42
412.20	234.82
412.57	235.29
412.95	235.46
413.32	235.80
413.69	236.33
414.07	236.75
414.44	237.13
414.82	237.56
415.19	238.24
415.56	238.84
415.94	239.55
416.31	240.22
416.68	240.84
417.06	241.70
417.43	242.35
417.81	243.12
418.18	243.91
418.55	244.85
418.93	245.77
419.30	246.79
419.67	247.76
420.04	248.83
420.42	250.03
420.79	251.42
421.16	252.76
421.54	254.05
421.91	255.47
422.28	256.96
422.66	258.63
423.03	260.06
423.40	261.52
423.77	262.99
424.15	264.65
424.52	266.30
424.89	268.05
425.26	269.89
425.64	271.66
426.01	273.53
426.38	275.69
426.75	277.70
427.13	279.77
427.50	281.96
427.87	284.27
428.24	286.25
428.61	288.38
428.99	290.67
429.36	293.20
429.73	295.71
430.10	298.04
430.47	300.40
430.85	302.98
431.22	305.86
431.59	308.85
431.96	311.66
432.33	314.75
432.70	317.80
433.08	321.40
433.45	324.62
433.82	327.98
434.19	331.61
434.56	335.27
434.93	338.63
435.30	342.04
435.68	345.73
436.05	349.62
436.42	353.06
436.79	356.44
437.16	359.90
437.53	363.69
437.90	367.41
438.27	371.39
438.64	375.11
439.01	378.47
439.38	381.48
439.75	384.26
440.13	387.73
440.50	390.98
440.87	393.46
441.24	396.14
441.61	399.08
441.98	401.02
442.35	403.41
442.72	406.04
443.09	408.68
443.46	410.25
443.83	411.14
444.20	412.31
444.57	413.70
444.94	414.52
445.31	415.25
445.68	416.22
446.05	416.40
446.42	416.31
446.79	416.10
447.16	415.93
447.53	416.02
447.90	414.88
448.27	413.66
448.64	412.11
449.01	411.18
449.37	409.00
449.74	407.00
450.11	404.72
450.48	401.94
450.85	398.90
451.22	396.39
451.59	394.10
451.96	391.73
452.33	388.59
452.70	385.71
453.07	382.25
453.43	378.77
453.80	375.53
454.17	372.25
454.54	369.35
454.91	365.98
455.28	362.72
455.65	359.71
456.02	356.76
456.38	353.99
456.75	350.63
457.12	347.87
457.49	345.11
457.86	342.21
458.23	339.90
458.59	337.22
458.96	334.66
459.33	332.29
459.70	329.98
460.07	328.09
460.43	325.98
460.80	323.83
461.17	321.80
461.54	319.83
461.91	318.03
462.27	316.06
462.64	314.47
463.01	312.71
463.38	310.91
463.74	309.01
464.11	307.60
464.48	306.10
464.85	304.57
465.21	303.40
465.58	302.23
465.95	300.67
466.32	299.48
466.68	298.12
467.05	296.90
467.42	295.77
467.78	294.37
468.15	293.04
468.52	292.18
468.88	290.97
469.25	289.89
469.62	288.93
469.98	287.89
470.35	286.79
470.72	285.90
471.08	284.84
471.45	284.13
471.82	283.14
472.18	282.29
472.55	281.58
472.92	280.77
473.28	279.86
473.65	279.13
474.02	278.42
474.38	277.84
474.75	277.17
475.11	276.36
475.48	275.94
475.85	275.42
476.21	274.78
476.58	274.30
476.94	273.91
477.31	273.42
477.67	272.89
478.04	272.56
478.41	272.16
478.77	272.06
479.14	271.56
479.50	271.38
479.87	271.10
480.23	270.92
480.60	270.59
480.96	270.25
481.33	270.11
481.69	269.96
482.06	269.75
482.42	269.60
482.79	269.48
483.15	269.17
483.52	269.13
483.88	269.04
484.25	268.90
484.61	268.72
484.98	268.62
485.34	268.70
485.71	268.71
486.07	268.66
486.44	268.39
486.80	268.41
487.17	268.30
487.53	268.36
487.90	268.39
488.26	268.58
488.62	268.67
488.99	268.64
489.35	268.75
489.72	268.84
490.08	269.01
490.44	269.09
490.81	269.46
491.17	269.55
491.54	269.86
491.90	270.15
492.26	270.41
492.63	270.61
492.99	270.83
493.36	271.03
493.72	271.23
494.08	271.57
494.45	271.83
494.81	272.25
495.17	272.58
495.54	272.83
495.90	273.10
496.26	273.44
496.63	273.85
496.99	274.12
497.35	274.36
497.72	274.75
498.08	275.22
498.44	275.64
498.80	276.14
499.17	276.41
499.53	276.78
499.89	277.21
500.26	277.65
500.62	278.01
500.98	278.50
501.34	278.86
501.71	279.38
502.07	279.88
502.43	280.40
502.79	280.89
503.16	281.35
503.52	281.77
503.88	282.33
504.24	282.78
504.60	283.40
504.97	284.04
505.33	284.49
505.69	285.05
506.05	285.60
506.41	286.14
506.78	286.77
507.14	287.54
507.50	288.15
507.86	288.86
508.22	289.54
508.59	290.16
508.95	291.04
509.31	291.95
509.67	292.88
510.03	293.67
510.39	294.58
510.75	295.63
511.12	296.71
511.48	297.80
511.84	298.97
512.20	299.97
512.56	301.29
512.92	302.69
513.28	304.11
513.64	305.41
514.00	306.83
514.37	308.32
514.73	309.69
515.09	311.36
515.45	313.08
515.81	314.88
516.17	316.81
516.53	318.77
516.89	320.65
517.25	322.67
517.61	324.85
517.97	326.88
518.33	329.10
518.69	331.31
519.05	333.58
519.41	335.96
519.77	338.80
520.13	341.45
520.49	344.00
520.85	346.75
521.21	349.68
521.57	352.72
521.93	355.76
522.29	359.00
522.65	361.99
523.01	365.20
523.37	368.55
523.73	371.93
524.09	375.49
524.45	379.10
524.81	382.73
525.17	386.62
525.53	390.74
525.89	394.83
526.25	399.10
526.61	403.31
526.97	407.58
527.33	411.73
527.68	416.27
528.04	420.93
528.40	425.57
528.76	430.40
529.12	435.24
529.48	440.29
529.84	445.05
530.20	450.31
530.56	455.49
530.91	460.72
531.27	466.16
531.63	471.66
531.99	477.16
532.35	482.66
532.71	487.93
533.07	493.61
533.42	499.34
533.78	505.17
534.14	511.08
534.50	516.83
534.86	522.88
535.21	528.54
535.57	534.59
535.93	540.77
536.29	546.87
536.65	552.92
537.00	559.10
537.36	565.69
537.72	571.99
538.08	578.30
538.44	584.72
538.79	591.27
539.15	597.73
539.51	604.34
539.87	611.04
540.22	617.88
540.58	624.51
540.94	631.24
541.29	637.71
541.65	644.20
542.01	651.33
542.37	658.15
542.72	665.08
543.08	671.86
543.44	678.48
543.79	685.02
544.15	691.87
544.51	698.91
544.87	705.60
545.22	712.26
545.58	718.96
545.94	725.53
546.29	732.01
546.65	738.50
547.01	745.03
547.36	751.55
547.72	757.68
548.07	764.12
548.43	770.38
548.79	776.79
549.14	783.24
549.50	789.21
549.86	795.38
550.21	801.41
550.57	807.68
550.92	813.97
551.28	820.04
551.64	826.16
551.99	831.89
552.35	837.89
552.70	844.06
553.06	849.94
553.41	856.08
553.77	862.00
554.13	867.85
554.48	873.79
554.84	879.49
555.19	885.37
555.55	891.23
555.90	896.56
556.26	902.36
556.61	908.11
556.97	913.52
557.32	919.10
557.68	924.85
558.03	930.54
558.39	936.13
558.74	941.87
559.10	947.00
559.45	952.54
559.81	958.11
560.16	963.28
560.52	968.50
560.87	973.77
561.23	978.61
561.58	984.00
561.94	988.84
562.29	993.69
562.64	998.15
563.00	1002.52
563.35	1007.86
563.71	1012.89
564.06	1017.65
564.42	1022.34
564.77	1026.74
565.12	1031.03
565.48	1035.13
565.83	1039.09
566.19	1043.04
566.54	1047.35
566.89	1050.90
567.25	1054.59
567.60	1058.60
567.96	1062.69
568.31	1066.29
568.66	1070.07
569.02	1073.22
569.37	1076.10
569.72	1079.53
570.08	1083.21
570.43	1086.35
570.78	1088.97
571.14	1091.21
571.49	1093.68
571.84	1096.86
572.20	1099.44
572.55	1102.12
572.90	1104.41
573.26	1106.99
573.61	1109.12
573.96	1111.11
574.31	1113.09
574.67	1114.53
575.02	1115.85
575.37	1117.30
575.72	1118.44
576.08	1120.17
576.43	1121.48
576.78	1123.18
577.13	1124.41
577.49	1125.48
577.84	1126.43
578.19	1127.48
578.54	1128.30
578.90	1129.26
579.25	1129.75
579.60	1130.17
579.95	1130.37
580.30	1130.77
580.66	1130.66
581.01	1130.87
581.36	1131.00
581.71	1131.53
582.06	1131.99
582.42	1132.19
582.77	1131.81
583.12	1131.85
583.47	1131.61
583.82	1131.57
584.17	1131.20
584.53	1130.87
584.88	1130.90
585.23	1130.84
585.58	1130.66
585.93	1130.54
586.28	1130.00
586.63	1129.31
586.98	1129.20
587.34	1129.12
587.69	1128.65
588.04	1128.14
588.39	1128.05
588.74	1127.08
589.09	1125.67
589.44	1124.35
589.79	1123.56
590.14	1123.16
590.49	1122.00
590.84	1120.89
591.19	1119.80
591.54	1118.30
591.89	1116.30
592.25	1114.70
592.60	1112.68
592.95	1110.45
593.30	1108.35
593.65	1106.58
594.00	1104.83
594.35	1103.36
594.70	1101.02
595.05	1099.10
595.40	1097.25
595.75	1094.51
596.10	1093.03
596.45	1091.57
596.80	1090.28
597.15	1088.33
597.50	1086.25
597.85	1084.65
598.19	1082.88
598.54	1080.93
598.89	1079.03
599.24	1077.81
599.59	1075.72
599.94	1074.35
600.29	1072.35
600.64	1070.48
600.99	1068.17
601.34	1065.95
601.69	1063.43
602.04	1061.39
602.39	1059.27
602.74	1057.10
603.08	1055.18
603.43	1052.91
603.78	1050.69
604.13	1048.10
604.48	1045.64
604.83	1042.85
605.18	1040.62
605.53	1037.55
605.87	1034.55
606.22	1032.39
606.57	1029.86
606.92	1027.39
607.27	1024.88
607.62	1022.80
607.96	1020.44
608.31	1017.97
608.66	1015.20
609.01	1011.87
609.36	1008.77
609.70	1005.10
610.05	1001.72
610.40	998.60
610.75	995.21
611.10	991.73
611.44	987.84
611.79	984.50
612.14	981.24
612.49	976.91
612.83	973.44
613.18	970.33
613.53	966.85
613.88	962.73
614.22	958.69
614.57	954.50
614.92	950.61
615.27	946.87
615.61	943.10
615.96	939.36
616.31	935.98
616.65	932.96
617.00	929.80
617.35	926.75
617.70	923.18
618.04	919.48
618.39	916.00
618.74	912.95
619.08	909.29
619.43	905.96
619.78	902.97
620.12	899.62
620.47	895.77
620.82	891.64
621.16	888.30
621.51	885.14
621.85	881.77
622.20	878.10
622.55	874.43
622.89	871.12
623.24	867.76
623.59	864.40
623.93	860.53
624.28	857.08
624.62	853.46
624.97	850.20
625.32	847.06
625.66	843.74
626.01	840.33
626.35	836.81
626.70	833.42
627.04	829.84
627.39	826.21
627.73	822.75
628.08	819.71
628.43	816.31
628.77	812.84
629.12	809.35
629.46	805.90
629.81	802.27
630.15	798.58
630.50	794.90
630.84	790.84
631.19	787.16
631.53	783.60
631.88	779.67
632.22	775.64
632.57	772.04
632.91	767.95
633.26	764.26
633.60	760.77
633.95	757.06
634.29	753.63
634.64	750.34
634.98	746.94
635.32	743.75
635.67	740.29
636.01	736.83
636.36	733.44
636.70	730.17
637.05	727.11
637.39	723.92
637.73	720.76
638.08	717.90
638.42	714.71
638.77	711.58
639.11	708.24
639.45	705.09
639.80	701.62
640.14	698.75
640.49	695.46
640.83	692.20
641.17	688.86
641.52	685.70
641.86	682.15
642.20	678.94
642.55	675.42
642.89	672.19
643.23	668.93
643.58	665.76
643.92	662.40
644.26	659.10
644.61	656.07
644.95	653.00
645.29	649.51
645.64	646.17
645.98	642.78
646.32	639.63
646.66	636.40
647.01	633.22
647.35	629.97
647.69	626.99
648.04	624.19
648.38	621.13
648.72	617.60
649.06	614.62
649.41	611.43
649.75	608.05
650.09	605.01
650.43	601.65
650.78	598.23
651.12	595.08
651.46	591.88
651.80	588.65
652.14	585.27
652.49	582.50
652.83	579.59
653.17	576.42
653.51	573.51
653.85	570.65
654.20	567.53
654.54	564.30
654.88	561.15
655.22	557.67
655.56	554.47
655.90	551.60
656.25	548.57
656.59	545.53
656.93	542.77
657.27	539.82
657.61	536.93
657.95	534.36
658.29	531.50
658.64	528.64
658.98	525.55
659.32	522.65
659.66	519.82
660.00	516.95
660.34	514.20
660.68	511.44
661.02	508.45
661.36	505.87
661.70	503.30
662.05	500.65
662.39	498.40
662.73	495.91
663.07	493.54
663.41	490.95
663.75	488.46
664.09	486.05
664.43	483.50
664.77	481.09
665.11	478.56
665.45	476.19
665.79	473.70
666.13	471.44
666.47	469.33
666.81	466.79
667.15	464.31
667.49	462.10
667.83	459.87
668.17	457.74
668.51	455.38
668.85	453.19
669.19	451.02
669.53	448.69
669.87	446.41
670.21	444.12
670.55	442.12
670.89	440.33
671.23	438.37
671.57	436.50
671.91	434.60
672.25	432.67
672.58	430.77
672.92	428.98
673.26	427.18
673.60	425.28
673.94	423.54
674.28	421.99
674.62	420.26
674.96	418.38
675.30	416.60
675.64	414.94
675.97	413.26
676.31	411.75
676.65	410.04
676.99	408.52
677.33	406.75
677.67	405.11
678.01	403.15
678.34	401.30
678.68	399.59
679.02	397.97
679.36	396.35
679.70	394.72
680.04	393.06
680.37	391.33
680.71	389.81
681.05	388.31
681.39	386.68
681.73	385.17
682.06	383.79
682.40	382.38
682.74	380.89
683.08	379.43
683.42	377.65
683.75	376.21
684.09	374.78
684.43	373.45
684.77	371.84
685.10	370.50
685.44	369.13
685.78	367.62
686.12	366.15
686.45	364.56
686.79	363.23
687.13	362.00
687.46	360.68
687.80	359.20
688.14	357.63
688.48	356.20
688.81	354.76
689.15	353.43
689.49	352.09
689.82	350.88
690.16	349.58
690.50	348.48
690.83	347.10
691.17	345.70
691.51	344.46
691.84	343.26
692.18	342.08
692.52	340.72
692.85	339.52
693.19	338.35
693.52	337.30
693.86	336.00
694.20	334.66
694.53	333.37
694.87	332.19
695.21	331.09
695.54	329.99
695.88	328.70
696.21	327.39
696.55	326.30
696.88	325.11
697.22	323.87
697.56	322.72
697.89	321.52
698.23	320.40
698.56	319.40
698.90	318.46
699.23	317.30
699.57	316.27
699.90	315.20
700.24	314.20
700.58	313.19
700.91	312.23
701.25	311.41
701.58	310.54
701.92	309.67
702.25	308.84
702.59	307.91
702.92	307.18
703.26	306.33
703.59	305.34
703.93	304.69
704.26	303.87
704.60	303.04
704.93	302.21
705.26	301.48
705.60	300.53
705.93	299.69
706.27	298.86
706.60	298.17
706.94	297.53
707.27	296.68
707.61	295.87
707.94	295.26
708.27	294.30
708.61	293.47
708.94	292.67
709.28	292.06
709.61	291.34
709.94	290.74
710.28	290.02
710.61	289.47
710.95	288.45
711.28	287.90
711.61	287.18
711.95	286.72
712.28	286.00
712.61	285.45
712.95	284.84
713.28	284.40
713.61	283.70
713.95	282.89
714.28	282.27
714.61	281.74
714.95	281.04
715.28	280.50
715.61	279.90
715.95	279.44
716.28	278.80
716.61	278.28
716.95	277.69
717.28	277.17
717.61	276.61
717.94	276.20
718.28	275.61
718.61	275.20
718.94	274.59
719.27	274.19
719.61	273.74
719.94	273.20
720.27	272.59
720.60	272.09
720.94	271.80
721.27	271.43
721.60	270.96
721.93	270.60
722.27	270.32
722.60	270.00
722.93	269.55
723.26	269.14
723.59	268.68
723.93	268.25
724.26	267.86
724.59	267.44
724.92	267.00
725.25	266.64
725.59	266.11
725.92	265.75
726.25	265.30
726.58	264.86
726.91	264.57
727.24	264.30
727.57	264.06
727.91	263.59
728.24	263.21
728.57	262.94
728.90	262.58
729.23	262.10
729.56	261.84
729.89	261.46
730.22	261.03
730.55	260.70
730.89	260.26
731.22	259.97
731.55	259.59
731.88	259.27
732.21	258.92
732.54	258.60
732.87	258.20
733.20	257.90
733.53	257.59
733.86	257.23
734.19	256.85
734.52	256.57
734.85	256.43
735.18	256.04
735.51	255.70
735.84	255.38
736.17	255.20
736.50	254.81
736.83	254.80
737.16	254.53
737.49	254.18
737.82	253.75
738.15	253.42
738.48	253.13
738.81	252.80
739.14	252.47
739.47	252.25
739.80	251.92
740.13	251.60
740.46	251.26
740.79	251.01
741.12	250.75
741.45	250.30
741.78	249.82
742.11	249.58
742.44	249.34
742.77	249.03
743.10	248.67
743.43	248.46
743.75	247.93
744.08	247.91
744.41	247.79
744.74	247.77
745.07	247.54
745.40	247.34
745.73	247.25
746.06	247.08
746.39	246.85
746.71	246.80
747.04	246.47
747.37	246.37
747.70	246.16
748.03	245.96
748.36	245.83
748.68	245.73
749.01	245.54
749.34	245.27
749.67	245.21
750.00	245.10
750.33	244.99
750.65	244.72
750.98	244.31
751.31	244.12
751.64	244.03
751.97	244.01
752.29	243.80
752.62	243.51
752.95	243.31
753.28	243.09
753.60	242.87
753.93	242.87
754.26	242.61
754.59	242.47
754.91	242.34
755.24	242.16
755.57	241.99
755.90	241.82
756.22	241.74
756.55	241.39
756.88	241.20
757.20	240.99
757.53	240.91
757.86	240.78
758.19	240.63
758.51	240.49
758.84	240.28
759.17	240.15
759.49	240.03
759.82	240.06
760.15	240.02
760.47	239.81
760.80	239.68
761.13	239.63
761.45	239.43
761.78	239.21
762.11	239.29
762.43	239.17
762.76	239.12
763.08	239.02
763.41	239.02
763.74	238.99
764.06	238.83
764.39	238.74
764.71	238.63
765.04	238.48
765.37	238.28
765.69	238.19
766.02	238.15
766.34	238.02
766.67	237.81
767.00	237.70
767.32	237.84
767.65	237.87
767.97	237.82
768.30	237.83
768.62	237.86
768.95	237.60
769.27	237.44
769.60	237.40
769.92	237.19
770.25	237.12
770.57	236.97
770.90	236.93
771.22	236.80
771.55	236.78
771.87	236.78
772.20	236.67
772.52	236.63
772.85	236.77
773.17	236.66
773.50	236.54
773.82	236.38
774.15	236.12
774.47	235.88
774.80	235.67
775.12	235.41
775.45	235.29
775.77	235.27
776.09	235.27
776.42	235.11
776.74	235.12
777.07	234.95
777.39	234.92
777.72	234.72
778.04	234.61
778.36	234.43
778.69	234.31
779.01	234.22
779.33	234.00
779.66	233.66
779.98	233.63
780.31	233.51
780.63	233.57
780.95	233.45
781.28	233.45
781.60	233.44
781.92	233.50
782.25	233.37
782.57	233.24
782.89	233.10
783.22	233.06
783.54	232.98
783.86	232.98
784.19	232.81
784.51	232.89
784.83	232.88
785.16	232.83
785.48	232.71
785.80	232.65
786.12	232.67
786.45	232.58
786.77	232.45
787.09	232.48
787.42	232.35
787.74	232.37
788.06	232.30
788.38	232.16
788.71	232.06
789.03	231.93
789.35	231.89
789.67	231.90
789.99	231.89
790.32	231.81
790.64	231.77
790.96	231.93
791.28	231.76
