SpectraSuite Data File
++++++++++++++++++++++++++++++++++++
Date: Fri Feb 01 14:37:06 EST 2013
User: group
Dark Spectrum Present: No
Reference Spectrum Present: No
Number of Sampled Component Spectra: 1
Spectrometers: USB2E7196
Integration Time (usec): 70000 (USB2E7196)
Spectra Averaged: 10 (USB2E7196)
Boxcar Smoothing: 10 (USB2E7196)
Correct for Electrical Dark: No (USB2E7196)
Strobe/Lamp Enabled: No (USB2E7196)
Correct for Detector Non-linearity: No (USB2E7196)
Correct for Stray Light: No (USB2E7196)
Number of Pixels in Processed Spectrum: 2048
>>>>>Begin Processed Spectral Data<<<<<
339.09	0.00
339.48	216.90
339.86	217.90
340.24	218.00
340.63	218.40
341.01	225.20
341.39	223.30
341.78	224.10
342.16	227.60
342.54	226.20
342.93	214.42
343.31	225.33
343.69	225.86
344.07	226.30
344.46	226.81
344.84	227.28
345.22	227.37
345.60	227.58
345.99	227.77
346.37	227.69
346.75	227.70
347.13	227.68
347.52	227.69
347.90	227.81
348.28	227.80
348.66	227.94
349.05	227.95
349.43	228.07
349.81	228.18
350.19	228.22
350.57	228.18
350.96	228.17
351.34	228.16
351.72	228.15
352.10	228.28
352.48	228.29
352.87	228.30
353.25	228.42
353.63	228.53
354.01	228.60
354.39	228.79
354.77	228.88
355.15	229.08
355.54	229.25
355.92	229.28
356.30	229.46
356.68	229.66
357.06	229.56
357.44	229.54
357.82	229.53
358.20	229.62
358.58	229.67
358.97	229.79
359.35	229.96
359.73	230.12
360.11	230.10
360.49	230.22
360.87	230.31
361.25	230.39
361.63	230.43
362.01	230.40
362.39	230.36
362.77	230.47
363.15	230.42
363.53	230.40
363.91	230.43
364.29	230.44
364.67	230.30
365.05	230.41
365.43	230.46
365.81	230.49
366.19	230.54
366.57	230.68
366.95	230.63
367.33	230.49
367.71	230.47
368.09	230.56
368.47	230.49
368.85	230.45
369.23	230.39
369.61	230.48
369.99	230.53
370.37	230.55
370.75	230.57
371.13	230.53
371.51	230.45
371.89	230.43
372.27	230.30
372.65	230.32
373.03	230.28
373.41	230.25
373.78	230.15
374.16	230.02
374.54	229.89
374.92	229.80
375.30	229.79
375.68	229.62
376.06	229.57
376.44	229.48
376.82	229.37
377.19	229.32
377.57	229.01
377.95	228.88
378.33	228.75
378.71	228.59
379.09	228.48
379.47	228.44
379.84	228.35
380.22	228.23
380.60	228.10
380.98	227.94
381.36	227.86
381.73	227.66
382.11	227.66
382.49	227.58
382.87	227.50
383.25	227.32
383.62	227.49
384.00	227.34
384.38	227.20
384.76	227.20
385.13	227.21
385.51	227.21
385.89	227.23
386.27	227.26
386.64	227.28
387.02	227.20
387.40	227.05
387.78	226.93
388.15	226.95
388.53	226.88
388.91	226.84
389.29	226.80
389.66	226.96
390.04	226.84
390.42	226.83
390.79	226.76
391.17	226.76
391.55	226.67
391.92	226.60
392.30	226.56
392.68	226.56
393.05	226.54
393.43	226.62
393.81	226.62
394.18	226.58
394.56	226.56
394.94	226.70
395.31	226.77
395.69	226.83
396.06	226.92
396.44	226.96
396.82	226.99
397.19	227.14
397.57	227.07
397.95	227.19
398.32	227.18
398.70	227.43
399.07	227.63
399.45	227.53
399.82	227.61
400.20	227.79
400.58	227.86
400.95	227.91
401.33	228.01
401.70	228.22
402.08	228.39
402.45	228.47
402.83	228.57
403.20	228.83
403.58	229.03
403.95	229.17
404.33	229.39
404.71	229.63
405.08	229.93
405.46	230.18
405.83	230.49
406.21	230.83
406.58	231.05
406.96	231.27
407.33	231.64
407.70	232.05
408.08	232.60
408.45	232.98
408.83	233.37
409.20	233.75
409.58	234.12
409.95	234.58
410.33	235.14
410.70	235.58
411.08	236.11
411.45	236.60
411.82	237.14
412.20	237.74
412.57	238.41
412.95	238.83
413.32	239.60
413.69	240.20
414.07	240.97
414.44	241.86
414.82	242.77
415.19	243.67
415.56	244.60
415.94	245.51
416.31	246.74
416.68	247.79
417.06	249.02
417.43	250.13
417.81	251.50
418.18	252.80
418.55	254.36
418.93	255.80
419.30	257.49
419.67	259.24
420.04	261.05
420.42	262.88
420.79	265.03
421.16	267.06
421.54	269.23
421.91	271.38
422.28	273.69
422.66	276.21
423.03	278.78
423.40	281.31
423.77	284.03
424.15	286.79
424.52	289.75
424.89	292.81
425.26	295.81
425.64	298.49
426.01	301.60
426.38	304.79
426.75	308.08
427.13	311.54
427.50	315.04
427.87	318.74
428.24	322.54
428.61	326.07
428.99	330.04
429.36	334.35
429.73	338.54
430.10	342.69
430.47	346.70
430.85	350.82
431.22	355.58
431.59	360.30
431.96	364.67
432.33	369.73
432.70	374.49
433.08	380.32
433.45	385.80
433.82	391.19
434.19	397.21
434.56	403.23
434.93	408.92
435.30	414.56
435.68	420.43
436.05	426.29
436.42	432.22
436.79	437.71
437.16	443.45
437.53	449.49
437.90	455.55
438.27	461.58
438.64	468.03
439.01	473.77
439.38	479.02
439.75	484.18
440.13	489.70
440.50	495.40
440.87	499.90
441.24	504.58
441.61	509.80
441.98	513.77
442.35	518.14
442.72	522.51
443.09	526.89
443.46	529.96
443.83	532.01
444.20	533.96
444.57	536.39
444.94	537.87
445.31	539.45
445.68	540.92
446.05	542.11
446.42	542.18
446.79	542.18
447.16	541.99
447.53	542.01
447.90	540.70
448.27	539.02
448.64	536.37
449.01	534.79
449.37	531.34
449.74	527.79
450.11	523.73
450.48	519.10
450.85	514.34
451.22	510.38
451.59	506.70
451.96	503.05
452.33	498.08
452.70	493.70
453.07	488.22
453.43	482.41
453.80	476.90
454.17	471.47
454.54	466.34
454.91	460.80
455.28	455.55
455.65	450.35
456.02	445.18
456.38	440.99
456.75	435.50
457.12	430.88
457.49	426.44
457.86	422.13
458.23	418.34
458.59	414.20
458.96	409.99
459.33	406.20
459.70	402.26
460.07	399.25
460.43	395.62
460.80	392.25
461.17	389.50
461.54	386.36
461.91	383.25
462.27	380.16
462.64	377.62
463.01	374.70
463.38	371.98
463.74	369.07
464.11	366.61
464.48	364.60
464.85	362.33
465.21	360.47
465.58	358.34
465.95	356.08
466.32	354.14
466.68	352.06
467.05	350.06
467.42	348.21
467.78	346.06
468.15	344.16
468.52	342.68
468.88	340.71
469.25	339.00
469.62	337.80
469.98	336.34
470.35	334.83
470.72	333.47
471.08	331.96
471.45	330.88
471.82	329.50
472.18	328.01
472.55	326.79
472.92	325.51
473.28	324.37
473.65	323.24
474.02	322.10
474.38	321.10
474.75	320.24
475.11	319.40
475.48	318.61
475.85	317.80
476.21	317.16
476.58	316.59
476.94	315.94
477.31	315.28
477.67	314.52
478.04	313.89
478.41	313.42
478.77	313.14
479.14	312.49
479.50	312.00
479.87	311.72
480.23	311.41
480.60	311.13
480.96	310.82
481.33	310.72
481.69	310.57
482.06	310.40
482.42	310.32
482.79	310.13
483.15	310.13
483.52	310.30
483.88	310.11
484.25	310.12
484.61	310.22
484.98	310.32
485.34	310.59
485.71	310.96
486.07	311.13
486.44	311.24
486.80	311.73
487.17	312.17
487.53	312.49
487.90	313.04
488.26	313.52
488.62	314.01
488.99	314.36
489.35	314.87
489.72	315.57
490.08	316.08
490.44	316.57
490.81	317.26
491.17	317.71
491.54	318.64
491.90	319.37
492.26	320.25
492.63	320.90
492.99	321.68
493.36	322.58
493.72	323.67
494.08	324.63
494.45	325.49
494.81	326.42
495.17	327.34
495.54	328.24
495.90	329.22
496.26	330.12
496.63	331.26
496.99	332.36
497.35	333.25
497.72	334.39
498.08	335.54
498.44	336.58
498.80	337.85
499.17	338.79
499.53	339.65
499.89	340.55
500.26	341.54
500.62	342.48
500.98	343.43
501.34	344.24
501.71	345.15
502.07	346.14
502.43	347.08
502.79	348.06
503.16	348.99
503.52	349.73
503.88	350.66
504.24	351.37
504.60	352.06
504.97	352.93
505.33	353.65
505.69	354.50
506.05	355.25
506.41	355.88
506.78	356.33
507.14	357.07
507.50	357.57
507.86	358.17
508.22	358.71
508.59	359.01
508.95	359.36
509.31	359.84
509.67	360.08
510.03	360.40
510.39	360.70
510.75	360.90
511.12	361.24
511.48	361.53
511.84	361.66
512.20	361.74
512.56	361.80
512.92	361.87
513.28	361.91
513.64	361.90
514.00	361.89
514.37	362.00
514.73	361.87
515.09	361.91
515.45	361.85
515.81	361.75
516.17	361.83
516.53	361.93
516.89	361.94
517.25	362.05
517.61	362.07
517.97	361.99
518.33	362.12
518.69	362.17
519.05	362.26
519.41	362.50
519.77	362.90
520.13	363.25
520.49	363.45
520.85	363.60
521.21	363.96
521.57	364.36
521.93	364.79
522.29	365.36
522.65	365.80
523.01	366.34
523.37	366.94
523.73	367.57
524.09	368.19
524.45	368.72
524.81	369.36
525.17	370.25
525.53	371.21
525.89	372.22
526.25	373.19
526.61	374.20
526.97	375.40
527.33	376.49
527.68	377.84
528.04	379.18
528.40	380.63
528.76	382.07
529.12	383.68
529.48	385.38
529.84	386.96
530.20	388.79
530.56	390.66
530.91	392.70
531.27	394.71
531.63	396.69
531.99	398.82
532.35	401.05
532.71	403.31
533.07	405.72
533.42	408.32
533.78	410.81
534.14	413.43
534.50	415.95
534.86	418.59
535.21	421.05
535.57	423.92
535.93	426.83
536.29	429.96
536.65	432.87
537.00	435.93
537.36	439.20
537.72	442.40
538.08	445.73
538.44	448.95
538.79	452.36
539.15	455.93
539.51	459.77
539.87	463.48
540.22	467.14
540.58	470.91
540.94	474.54
541.29	478.40
541.65	482.12
542.01	486.19
542.37	490.22
542.72	494.27
543.08	498.21
543.44	502.36
543.79	506.29
544.15	510.47
544.51	514.89
544.87	519.25
545.22	523.72
545.58	528.05
545.94	532.31
546.29	536.71
546.65	541.00
547.01	545.33
547.36	549.74
547.72	553.90
548.07	558.40
548.43	562.88
548.79	567.33
549.14	571.75
549.50	576.13
549.86	580.80
550.21	585.43
550.57	590.06
550.92	594.44
551.28	598.99
551.64	603.62
551.99	607.96
552.35	612.30
552.70	616.64
553.06	621.25
553.41	625.81
553.77	630.46
554.13	634.91
554.48	639.37
554.84	643.91
555.19	648.60
555.55	653.02
555.90	657.17
556.26	661.53
556.61	666.07
556.97	670.48
557.32	674.76
557.68	678.98
558.03	683.30
558.39	687.60
558.74	692.12
559.10	696.56
559.45	700.90
559.81	705.29
560.16	709.24
560.52	713.41
560.87	717.87
561.23	722.01
561.58	726.62
561.94	730.66
562.29	734.59
562.64	738.60
563.00	742.57
563.35	746.98
563.71	751.26
564.06	755.52
564.42	759.62
564.77	763.55
565.12	767.60
565.48	771.60
565.83	775.51
566.19	779.36
566.54	782.94
566.89	786.58
567.25	790.25
567.60	794.21
567.96	797.84
568.31	801.35
568.66	804.57
569.02	807.64
569.37	810.82
569.72	814.30
570.08	817.44
570.43	820.62
570.78	823.27
571.14	826.12
571.49	828.62
571.84	831.50
572.20	834.37
572.55	837.11
572.90	839.52
573.26	842.18
573.61	844.49
573.96	846.80
574.31	848.85
574.67	850.53
575.02	852.50
575.37	854.30
575.72	855.89
576.08	857.95
576.43	859.77
576.78	861.69
577.13	863.26
577.49	865.17
577.84	866.78
578.19	868.48
578.54	869.74
578.90	871.27
579.25	872.11
579.60	873.09
579.95	874.34
580.30	875.46
580.66	876.27
581.01	876.88
581.36	877.73
581.71	878.55
582.06	879.49
582.42	879.96
582.77	880.36
583.12	880.94
583.47	881.29
583.82	881.94
584.17	882.46
584.53	882.68
584.88	882.76
585.23	882.78
585.58	883.00
585.93	883.37
586.28	883.79
586.63	884.19
586.98	884.43
587.34	884.39
587.69	884.55
588.04	884.82
588.39	884.91
588.74	884.28
589.09	884.19
589.44	884.07
589.79	884.11
590.14	884.53
590.49	884.50
590.84	884.09
591.19	883.75
591.54	883.03
591.89	882.45
592.25	882.01
592.60	881.40
592.95	880.37
593.30	879.53
593.65	878.46
594.00	877.40
594.35	876.90
594.70	875.79
595.05	874.71
595.40	873.37
595.75	872.08
596.10	871.34
596.45	870.61
596.80	869.97
597.15	869.13
597.50	867.50
597.85	866.37
598.19	865.67
598.54	864.41
598.89	863.46
599.24	862.73
599.59	861.50
599.94	860.25
600.29	859.16
600.64	857.81
600.99	856.19
601.34	855.19
601.69	853.42
602.04	852.16
602.39	850.63
602.74	849.45
603.08	848.37
603.43	847.20
603.78	845.50
604.13	843.50
604.48	842.01
604.83	840.53
605.18	838.95
605.53	837.09
605.87	835.20
606.22	833.48
606.57	831.51
606.92	829.59
607.27	828.21
607.62	826.88
607.96	825.14
608.31	823.72
608.66	821.69
609.01	819.66
609.36	817.28
609.70	815.17
610.05	812.73
610.40	810.52
610.75	808.13
611.10	805.81
611.44	803.47
611.79	801.16
612.14	798.76
612.49	795.90
612.83	793.22
613.18	790.67
613.53	788.30
613.88	785.64
614.22	783.17
614.57	780.27
614.92	777.43
615.27	775.04
615.61	772.15
615.96	769.52
616.31	767.13
616.65	765.27
617.00	763.10
617.35	760.87
617.70	758.19
618.04	755.66
618.39	753.15
618.74	750.93
619.08	747.97
619.43	745.76
619.78	743.75
620.12	741.29
620.47	738.75
620.82	735.76
621.16	733.38
621.51	731.10
621.85	728.80
622.20	725.96
622.55	723.38
622.89	721.09
623.24	718.71
623.59	716.17
623.93	713.30
624.28	710.53
624.62	708.20
624.97	706.08
625.32	703.80
625.66	701.38
626.01	698.80
626.35	696.31
626.70	693.80
627.04	691.08
627.39	688.55
627.73	686.14
628.08	683.79
628.43	681.17
628.77	678.52
629.12	675.62
629.46	673.45
629.81	670.35
630.15	667.64
630.50	665.08
630.84	662.23
631.19	659.38
631.53	656.72
631.88	653.71
632.22	650.51
632.57	647.72
632.91	645.10
633.26	642.53
633.60	639.91
633.95	636.99
634.29	634.56
634.64	632.17
634.98	629.45
635.32	627.15
635.67	624.74
636.01	622.08
636.36	619.70
636.70	617.30
637.05	615.22
637.39	612.85
637.73	610.35
638.08	608.08
638.42	606.02
638.77	603.95
639.11	601.56
639.45	599.58
639.80	597.16
640.14	594.91
640.49	592.65
640.83	590.38
641.17	588.23
641.52	585.74
641.86	583.27
642.20	581.15
642.55	578.50
642.89	576.07
643.23	573.81
643.58	571.51
643.92	569.06
644.26	566.59
644.61	564.22
644.95	561.79
645.29	559.22
645.64	556.60
645.98	554.04
646.32	551.80
646.66	549.23
647.01	546.95
647.35	544.51
647.69	542.00
648.04	539.72
648.38	537.24
648.72	534.82
649.06	532.33
649.41	529.75
649.75	527.27
650.09	524.80
650.43	522.38
650.78	519.79
651.12	517.23
651.46	515.05
651.80	512.75
652.14	510.44
652.49	508.17
652.83	505.91
653.17	503.50
653.51	501.00
653.85	498.67
654.20	496.14
654.54	493.58
654.88	491.07
655.22	488.40
655.56	486.05
655.90	483.67
656.25	481.30
656.59	479.01
656.93	476.89
657.27	474.60
657.61	472.12
657.95	470.09
658.29	467.91
658.64	465.52
658.98	463.19
659.32	460.86
659.66	458.73
660.00	456.44
660.34	454.36
660.68	452.31
661.02	450.29
661.36	448.27
661.70	446.38
662.05	444.43
662.39	442.73
662.73	440.79
663.07	438.95
663.41	437.12
663.75	435.33
664.09	433.41
664.43	431.49
664.77	429.94
665.11	428.07
665.45	426.23
665.79	424.55
666.13	422.91
666.47	421.19
666.81	419.37
667.15	417.63
667.49	415.67
667.83	414.06
668.17	412.21
668.51	410.36
668.85	408.73
669.19	407.10
669.53	405.39
669.87	403.51
670.21	401.85
670.55	400.09
670.89	398.56
671.23	396.99
671.57	395.58
671.91	393.90
672.25	392.18
672.58	390.79
672.92	389.24
673.26	387.75
673.60	386.31
673.94	384.85
674.28	383.69
674.62	382.50
674.96	380.96
675.30	379.70
675.64	378.46
675.97	377.11
676.31	375.74
676.65	374.44
676.99	373.50
677.33	372.18
677.67	371.00
678.01	369.60
678.34	368.37
678.68	367.05
679.02	365.85
679.36	364.76
679.70	363.47
680.04	362.30
680.37	360.91
680.71	359.70
681.05	358.49
681.39	357.25
681.73	356.04
682.06	354.91
682.40	353.78
682.74	352.72
683.08	351.51
683.42	350.29
683.75	349.05
684.09	347.66
684.43	346.61
684.77	345.53
685.10	344.48
685.44	343.30
685.78	342.22
686.12	341.10
686.45	339.91
686.79	338.82
687.13	337.78
687.46	336.85
687.80	335.90
688.14	334.79
688.48	333.70
688.81	332.58
689.15	331.66
689.49	330.48
689.82	329.40
690.16	328.28
690.50	327.31
690.83	326.30
691.17	325.27
691.51	324.17
691.84	323.10
692.18	322.03
692.52	321.00
692.85	320.00
693.19	319.07
693.52	318.19
693.86	317.09
694.20	316.03
694.53	314.94
694.87	313.69
695.21	312.78
695.54	311.85
695.88	310.88
696.21	309.75
696.55	308.92
696.88	307.91
697.22	307.02
697.56	306.20
697.89	305.34
698.23	304.37
698.56	303.49
698.90	302.63
699.23	301.72
699.57	300.93
699.90	300.09
700.24	299.12
700.58	298.29
700.91	297.55
701.25	296.82
701.58	296.11
701.92	295.54
702.25	294.78
702.59	293.98
702.92	293.21
703.26	292.63
703.59	292.00
703.93	291.57
704.26	291.02
704.60	290.30
704.93	289.66
705.26	289.02
705.60	288.55
705.93	287.97
706.27	287.46
706.60	286.82
706.94	286.30
707.27	285.70
707.61	285.15
707.94	284.52
708.27	283.94
708.61	283.29
708.94	282.73
709.28	282.28
709.61	281.73
709.94	281.28
710.28	280.69
710.61	280.19
710.95	279.37
711.28	278.72
711.61	278.21
711.95	277.75
712.28	277.28
712.61	276.64
712.95	276.20
713.28	275.73
713.61	275.29
713.95	274.73
714.28	274.33
714.61	273.85
714.95	273.49
715.28	272.98
715.61	272.47
715.95	271.99
716.28	271.51
716.61	271.05
716.95	270.56
717.28	270.16
717.61	269.67
717.94	269.42
718.28	268.96
718.61	268.47
718.94	268.10
719.27	267.84
719.61	267.53
719.94	267.20
720.27	266.76
720.60	266.40
720.94	266.13
721.27	265.83
721.60	265.62
721.93	265.20
722.27	264.99
722.60	264.74
722.93	264.39
723.26	264.07
723.59	263.71
723.93	263.55
724.26	263.19
724.59	262.75
724.92	262.41
725.25	262.23
725.59	261.93
725.92	261.58
726.25	261.20
726.58	260.85
726.91	260.51
727.24	260.24
727.57	259.98
727.91	259.63
728.24	259.23
728.57	258.74
728.90	258.57
729.23	258.06
729.56	257.80
729.89	257.54
730.22	257.27
730.55	256.88
730.89	256.63
731.22	256.33
731.55	256.13
731.88	255.77
732.21	255.43
732.54	255.03
732.87	254.74
733.20	254.48
733.53	254.22
733.86	253.88
734.19	253.62
734.52	253.32
734.85	253.18
735.18	252.91
735.51	252.65
735.84	252.31
736.17	252.06
736.50	251.79
736.83	251.76
737.16	251.43
737.49	251.23
737.82	250.81
738.15	250.53
738.48	250.30
738.81	250.00
739.14	249.81
739.47	249.73
739.80	249.44
740.13	249.32
740.46	248.94
740.79	248.64
741.12	248.36
741.45	248.10
741.78	247.63
742.11	247.38
742.44	247.20
742.77	246.94
743.10	246.75
743.43	246.46
743.75	245.96
744.08	246.04
744.41	245.87
744.74	245.58
745.07	245.31
745.40	245.11
745.73	245.04
746.06	244.82
746.39	244.65
746.71	244.39
747.04	244.13
747.37	243.95
747.70	243.82
748.03	243.71
748.36	243.53
748.68	243.48
749.01	243.23
749.34	242.95
749.67	242.85
750.00	242.68
750.33	242.75
750.65	242.62
750.98	242.15
751.31	242.04
751.64	241.90
751.97	241.93
752.29	241.73
752.62	241.66
752.95	241.48
753.28	241.25
753.60	241.19
753.93	241.12
754.26	241.10
754.59	240.91
754.91	240.74
755.24	240.65
755.57	240.55
755.90	240.55
756.22	240.53
756.55	240.26
756.88	240.15
757.20	239.88
757.53	239.76
757.86	239.75
758.19	239.68
758.51	239.66
758.84	239.51
759.17	239.42
759.49	239.22
759.82	239.20
760.15	239.17
760.47	239.11
760.80	238.90
761.13	238.85
761.45	238.82
761.78	238.76
762.11	238.76
762.43	238.67
762.76	238.56
763.08	238.60
763.41	238.62
763.74	238.54
764.06	238.52
764.39	238.44
764.71	238.32
765.04	238.16
765.37	238.10
765.69	238.00
766.02	237.97
766.34	237.87
766.67	237.70
767.00	237.70
767.32	237.71
767.65	237.74
767.97	237.66
768.30	237.63
768.62	237.50
768.95	237.34
769.27	237.17
769.60	237.13
769.92	236.88
770.25	236.82
770.57	236.78
770.90	236.66
771.22	236.54
771.55	236.51
771.87	236.43
772.20	236.27
772.52	236.29
772.85	236.43
773.17	236.31
773.50	236.29
773.82	236.13
774.15	236.01
774.47	235.85
774.80	235.84
775.12	235.74
775.45	235.64
775.77	235.58
776.09	235.62
776.42	235.53
776.74	235.54
777.07	235.40
777.39	235.23
777.72	235.09
778.04	235.10
778.36	234.97
778.69	234.94
779.01	234.85
779.33	234.69
779.66	234.31
779.98	234.18
780.31	234.10
780.63	234.04
780.95	233.88
781.28	233.71
781.60	233.54
781.92	233.44
782.25	233.32
782.57	233.22
782.89	233.05
783.22	232.92
783.54	232.84
783.86	232.70
784.19	232.60
784.51	232.60
784.83	232.43
785.16	232.34
785.48	232.27
785.80	232.33
786.12	232.25
786.45	232.14
786.77	232.13
787.09	231.99
787.42	231.92
787.74	231.86
788.06	231.83
788.38	231.71
788.71	231.57
789.03	231.53
789.35	231.48
789.67	231.36
789.99	231.37
790.32	231.21
790.64	231.28
790.96	231.45
791.28	231.23
791.61	231.17
791.93	231.13
792.25	231.08
792.57	231.15
792.89	231.15
793.21	231.17
793.54	231.20
793.86	231.17
794.18	231.17
