SpectraSuite Data File
++++++++++++++++++++++++++++++++++++
Date: Fri Feb 01 14:41:32 EST 2013
User: group
Dark Spectrum Present: No
Reference Spectrum Present: No
Number of Sampled Component Spectra: 1
Spectrometers: USB2E7196
Integration Time (usec): 70000 (USB2E7196)
Spectra Averaged: 10 (USB2E7196)
Boxcar Smoothing: 10 (USB2E7196)
Correct for Electrical Dark: No (USB2E7196)
Strobe/Lamp Enabled: No (USB2E7196)
Correct for Detector Non-linearity: No (USB2E7196)
Correct for Stray Light: No (USB2E7196)
Number of Pixels in Processed Spectrum: 2048
>>>>>Begin Processed Spectral Data<<<<<
339.09	0.00
339.48	216.40
339.86	216.20
340.24	217.50
340.63	220.20
341.01	225.00
341.39	224.10
341.78	225.60
342.16	225.20
342.54	227.10
342.93	214.96
343.31	225.71
343.69	226.20
344.07	226.68
344.46	227.20
344.84	227.57
345.22	227.70
345.60	227.93
345.99	228.07
346.37	228.27
346.75	228.35
347.13	228.40
347.52	228.32
347.90	228.39
348.28	228.46
348.66	228.57
349.05	228.47
349.43	228.49
349.81	228.54
350.19	228.57
350.57	228.61
350.96	228.77
351.34	228.88
351.72	229.04
352.10	229.13
352.48	229.14
352.87	229.13
353.25	229.20
353.63	229.23
354.01	229.30
354.39	229.32
354.77	229.37
355.15	229.43
355.54	229.56
355.92	229.57
356.30	229.63
356.68	229.83
357.06	229.89
357.44	229.83
357.82	229.84
358.20	229.96
358.58	230.10
358.97	230.18
359.35	230.44
359.73	230.52
360.11	230.60
360.49	230.69
360.87	230.79
361.25	230.86
361.63	230.91
362.01	230.89
362.39	230.77
362.77	230.83
363.15	230.96
363.53	230.95
363.91	230.98
364.29	231.02
364.67	230.89
365.05	230.93
365.43	231.05
365.81	231.10
366.19	231.12
366.57	231.10
366.95	230.90
367.33	230.77
367.71	230.76
368.09	230.81
368.47	230.88
368.85	230.95
369.23	230.92
369.61	230.96
369.99	231.03
370.37	231.13
370.75	231.16
371.13	231.01
371.51	230.94
371.89	230.90
372.27	230.79
372.65	230.67
373.03	230.52
373.41	230.40
373.78	230.28
374.16	230.15
374.54	229.95
374.92	229.90
375.30	229.83
375.68	229.65
376.06	229.55
376.44	229.38
376.82	229.24
377.19	229.15
377.57	228.95
377.95	228.73
378.33	228.68
378.71	228.48
379.09	228.50
379.47	228.34
379.84	228.28
380.22	228.19
380.60	228.19
380.98	228.21
381.36	228.11
381.73	227.99
382.11	228.00
382.49	228.02
382.87	227.97
383.25	227.92
383.62	228.03
384.00	227.93
384.38	227.89
384.76	227.93
385.13	227.97
385.51	227.90
385.89	227.95
386.27	227.90
386.64	227.79
387.02	227.66
387.40	227.74
387.78	227.65
388.15	227.72
388.53	227.55
388.91	227.55
389.29	227.57
389.66	227.64
390.04	227.58
390.42	227.63
390.79	227.67
391.17	227.57
391.55	227.42
391.92	227.52
392.30	227.53
392.68	227.46
393.05	227.41
393.43	227.46
393.81	227.53
394.18	227.58
394.56	227.69
394.94	227.82
395.31	227.80
395.69	228.00
396.06	228.02
396.44	228.18
396.82	228.15
397.19	228.35
397.57	228.38
397.95	228.46
398.32	228.43
398.70	228.50
399.07	228.63
399.45	228.82
399.82	228.82
400.20	228.97
400.58	228.97
400.95	229.16
401.33	229.33
401.70	229.48
402.08	229.53
402.45	229.72
402.83	229.80
403.20	229.92
403.58	229.98
403.95	230.10
404.33	230.24
404.71	230.47
405.08	230.71
405.46	231.01
405.83	231.19
406.21	231.39
406.58	231.63
406.96	231.86
407.33	231.98
407.70	232.25
408.08	232.63
408.45	233.01
408.83	233.28
409.20	233.52
409.58	233.70
409.95	234.08
410.33	234.45
410.70	234.76
411.08	235.20
411.45	235.67
411.82	236.06
412.20	236.57
412.57	237.12
412.95	237.47
413.32	237.94
413.69	238.46
414.07	239.02
414.44	239.60
414.82	240.17
415.19	240.86
415.56	241.54
415.94	242.31
416.31	243.18
416.68	243.98
417.06	245.01
417.43	246.02
417.81	247.00
418.18	247.97
418.55	249.16
418.93	250.19
419.30	251.27
419.67	252.45
420.04	253.67
420.42	254.76
420.79	256.25
421.16	257.76
421.54	259.26
421.91	260.83
422.28	262.43
422.66	264.18
423.03	266.09
423.40	267.79
423.77	269.41
424.15	271.10
424.52	273.12
424.89	275.19
425.26	277.02
425.64	278.93
426.01	280.96
426.38	282.97
426.75	285.15
427.13	287.40
427.50	289.85
427.87	292.29
428.24	294.75
428.61	297.01
428.99	299.50
429.36	302.28
429.73	304.87
430.10	307.53
430.47	310.15
430.85	312.73
431.22	315.77
431.59	318.85
431.96	321.85
432.33	324.85
432.70	327.92
433.08	331.68
433.45	335.06
433.82	338.35
434.19	342.10
434.56	345.88
434.93	349.24
435.30	352.65
435.68	356.44
436.05	360.08
436.42	363.54
436.79	366.79
437.16	370.11
437.53	373.89
437.90	377.48
438.27	381.08
438.64	384.71
439.01	387.96
439.38	390.92
439.75	393.70
440.13	396.93
440.50	399.97
440.87	402.40
441.24	404.82
441.61	407.69
441.98	409.63
442.35	411.68
442.72	414.15
443.09	416.34
443.46	417.42
443.83	418.22
444.20	418.91
444.57	419.99
444.94	420.47
445.31	420.95
445.68	421.39
446.05	421.47
446.42	420.90
446.79	420.34
447.16	419.66
447.53	419.19
447.90	417.73
448.27	415.95
448.64	413.74
449.01	412.34
449.37	409.74
449.74	407.23
450.11	404.49
450.48	401.25
450.85	397.98
451.22	395.33
451.59	392.74
451.96	390.29
452.33	386.88
452.70	383.74
453.07	379.98
453.43	376.17
453.80	372.66
454.17	369.21
454.54	365.97
454.91	362.43
455.28	358.91
455.65	355.62
456.02	352.74
456.38	349.95
456.75	346.43
457.12	343.54
457.49	340.72
457.86	338.00
458.23	335.58
458.59	332.96
458.96	330.20
459.33	327.82
459.70	325.37
460.07	323.39
460.43	321.13
460.80	319.07
461.17	317.31
461.54	315.30
461.91	313.34
462.27	311.32
462.64	309.60
463.01	307.91
463.38	306.30
463.74	304.37
464.11	302.77
464.48	301.42
464.85	300.00
465.21	298.74
465.58	297.39
465.95	295.85
466.32	294.67
466.68	293.37
467.05	292.08
467.42	290.82
467.78	289.54
468.15	288.39
468.52	287.38
468.88	286.16
469.25	285.10
469.62	284.34
469.98	283.42
470.35	282.67
470.72	281.87
471.08	280.77
471.45	280.03
471.82	279.26
472.18	278.45
472.55	277.63
472.92	276.97
473.28	276.31
473.65	275.72
474.02	274.97
474.38	274.45
474.75	273.93
475.11	273.40
475.48	272.91
475.85	272.46
476.21	272.10
476.58	271.79
476.94	271.45
477.31	271.03
477.67	270.69
478.04	270.35
478.41	270.08
478.77	270.12
479.14	269.73
479.50	269.69
479.87	269.57
480.23	269.54
480.60	269.41
480.96	269.20
481.33	269.15
481.69	269.19
482.06	269.32
482.42	269.36
482.79	269.59
483.15	269.75
483.52	270.08
483.88	270.22
484.25	270.26
484.61	270.45
484.98	270.78
485.34	271.27
485.71	271.70
486.07	272.27
486.44	272.61
486.80	273.29
487.17	273.80
487.53	274.56
487.90	275.34
488.26	276.21
488.62	277.24
488.99	278.18
489.35	279.16
489.72	280.26
490.08	281.31
490.44	282.36
490.81	283.74
491.17	284.95
491.54	286.40
491.90	288.05
492.26	289.76
492.63	291.48
492.99	293.30
493.36	295.20
493.72	297.25
494.08	299.24
494.45	301.59
494.81	303.92
495.17	306.23
495.54	308.81
495.90	311.45
496.26	314.24
496.63	317.22
496.99	320.37
497.35	323.53
497.72	327.06
498.08	330.65
498.44	334.25
498.80	338.30
499.17	342.34
499.53	346.50
499.89	350.99
500.26	355.66
500.62	360.40
500.98	365.62
501.34	370.70
501.71	376.38
502.07	381.91
502.43	387.92
502.79	394.15
503.16	400.64
503.52	407.10
503.88	413.83
504.24	421.02
504.60	428.45
504.97	436.21
505.33	444.14
505.69	452.53
506.05	461.08
506.41	469.66
506.78	478.60
507.14	487.98
507.50	497.36
507.86	507.25
508.22	517.41
508.59	527.50
508.95	538.23
509.31	549.17
509.67	560.56
510.03	571.93
510.39	583.81
510.75	595.80
511.12	608.09
511.48	620.81
511.84	633.77
512.20	646.82
512.56	660.28
512.92	673.93
513.28	688.10
513.64	702.49
514.00	717.12
514.37	732.27
514.73	747.27
515.09	762.83
515.45	778.51
515.81	794.33
516.17	810.80
516.53	827.28
516.89	843.89
517.25	860.71
517.61	877.83
517.97	894.65
518.33	912.17
518.69	930.14
519.05	948.11
519.41	966.19
519.77	985.05
520.13	1004.03
520.49	1023.05
520.85	1041.66
521.21	1060.31
521.57	1080.07
521.93	1099.02
522.29	1119.02
522.65	1138.49
523.01	1157.82
523.37	1177.02
523.73	1196.78
524.09	1216.12
524.45	1236.30
524.81	1256.45
525.17	1277.00
525.53	1298.23
525.89	1318.76
526.25	1339.41
526.61	1359.91
526.97	1380.90
527.33	1401.60
527.68	1422.38
528.04	1442.86
528.40	1463.82
528.76	1485.30
529.12	1506.36
529.48	1527.48
529.84	1548.01
530.20	1569.53
530.56	1591.67
530.91	1614.09
531.27	1635.50
531.63	1657.41
531.99	1678.87
532.35	1699.80
532.71	1720.23
533.07	1741.23
533.42	1762.23
533.78	1783.24
534.14	1804.19
534.50	1824.09
534.86	1844.10
535.21	1863.45
535.57	1883.74
535.93	1904.03
536.29	1923.96
536.65	1943.65
537.00	1963.67
537.36	1983.38
537.72	2002.17
538.08	2020.84
538.44	2038.76
538.79	2057.40
539.15	2075.32
539.51	2093.30
539.87	2112.21
540.22	2130.85
540.58	2149.00
540.94	2166.74
541.29	2183.93
541.65	2200.83
542.01	2218.90
542.37	2236.41
542.72	2253.81
543.08	2270.60
543.44	2287.20
543.79	2302.60
544.15	2317.70
544.51	2333.74
544.87	2349.58
545.22	2365.00
545.58	2379.88
545.94	2394.35
546.29	2408.61
546.65	2422.75
547.01	2436.54
547.36	2448.88
547.72	2461.71
548.07	2473.83
548.43	2485.83
548.79	2497.66
549.14	2509.77
549.50	2520.80
549.86	2531.36
550.21	2542.11
550.57	2552.98
550.92	2563.33
551.28	2573.82
551.64	2584.03
551.99	2593.40
552.35	2602.84
552.70	2612.39
553.06	2621.77
553.41	2631.63
553.77	2640.53
554.13	2649.89
554.48	2659.03
554.84	2667.78
555.19	2676.68
555.55	2685.50
555.90	2693.00
556.26	2701.04
556.61	2708.55
556.97	2715.39
557.32	2723.08
557.68	2729.90
558.03	2736.96
558.39	2743.14
558.74	2750.97
559.10	2758.00
559.45	2764.76
559.81	2771.70
560.16	2777.31
560.52	2782.50
560.87	2788.63
561.23	2793.68
561.58	2798.75
561.94	2803.05
562.29	2807.69
562.64	2811.17
563.00	2814.89
563.35	2820.54
563.71	2825.55
564.06	2830.30
564.42	2835.33
564.77	2839.51
565.12	2843.95
565.48	2847.60
565.83	2851.01
566.19	2853.52
566.54	2855.88
566.89	2857.76
567.25	2859.40
567.60	2862.56
567.96	2865.26
568.31	2866.28
568.66	2868.04
569.02	2869.65
569.37	2870.70
569.72	2871.77
570.08	2872.74
570.43	2873.78
570.78	2873.55
571.14	2872.57
571.49	2872.07
571.84	2872.15
572.20	2870.32
572.55	2868.80
572.90	2866.83
573.26	2865.65
573.61	2863.86
573.96	2862.14
574.31	2859.66
574.67	2856.23
575.02	2852.36
575.37	2849.00
575.72	2845.24
576.08	2841.89
576.43	2838.17
576.78	2835.00
577.13	2831.98
577.49	2829.03
577.84	2824.52
578.19	2820.04
578.54	2815.96
578.90	2810.61
579.25	2804.36
579.60	2799.70
579.95	2794.13
580.30	2788.43
580.66	2782.71
581.01	2776.03
581.36	2769.91
581.71	2765.00
582.06	2759.96
582.42	2753.90
582.77	2747.88
583.12	2741.85
583.47	2736.33
583.82	2730.48
584.17	2724.00
584.53	2717.28
584.88	2710.15
585.23	2703.85
585.58	2698.17
585.93	2691.24
586.28	2685.84
586.63	2679.85
586.98	2674.12
587.34	2668.18
587.69	2662.22
588.04	2655.94
588.39	2650.20
588.74	2642.55
589.09	2634.51
589.44	2626.09
589.79	2619.29
590.14	2612.32
590.49	2605.44
590.84	2597.33
591.19	2589.41
591.54	2580.84
591.89	2571.56
592.25	2563.60
592.60	2554.34
592.95	2544.65
593.30	2536.00
593.65	2526.13
594.00	2517.03
594.35	2508.26
594.70	2498.80
595.05	2490.07
595.40	2480.15
595.75	2470.75
596.10	2463.14
596.45	2455.31
596.80	2448.56
597.15	2439.96
597.50	2430.91
597.85	2422.37
598.19	2414.61
598.54	2406.39
598.89	2398.28
599.24	2391.66
599.59	2383.34
599.94	2375.81
600.29	2367.81
600.64	2359.85
600.99	2351.02
601.34	2342.66
601.69	2333.10
602.04	2324.91
602.39	2316.50
602.74	2309.47
603.08	2301.27
603.43	2292.60
603.78	2283.91
604.13	2274.23
604.48	2265.54
604.83	2257.16
605.18	2248.63
605.53	2238.65
605.87	2228.40
606.22	2219.35
606.57	2209.44
606.92	2200.17
607.27	2191.12
607.62	2181.91
607.96	2172.73
608.31	2164.45
608.66	2154.41
609.01	2144.94
609.36	2134.39
609.70	2123.29
610.05	2111.96
610.40	2101.82
610.75	2091.32
611.10	2080.49
611.44	2068.94
611.79	2058.60
612.14	2047.78
612.49	2035.93
612.83	2025.09
613.18	2014.80
613.53	2004.56
613.88	1993.25
614.22	1982.74
614.57	1971.52
614.92	1961.10
615.27	1950.92
615.61	1940.39
615.96	1930.66
616.31	1920.79
616.65	1911.99
617.00	1902.26
617.35	1892.72
617.70	1882.18
618.04	1871.91
618.39	1862.13
618.74	1853.07
619.08	1842.77
619.43	1833.02
619.78	1824.25
620.12	1814.71
620.47	1804.80
620.82	1794.49
621.16	1785.18
621.51	1775.52
621.85	1765.98
622.20	1755.84
622.55	1746.08
622.89	1736.31
623.24	1726.83
623.59	1717.49
623.93	1707.78
624.28	1698.39
624.62	1688.25
624.97	1679.68
625.32	1671.09
625.66	1661.68
626.01	1652.65
626.35	1643.37
626.70	1633.98
627.04	1624.57
627.39	1614.90
627.73	1605.68
628.08	1596.70
628.43	1587.11
628.77	1577.37
629.12	1567.73
629.46	1558.40
629.81	1548.02
630.15	1537.82
630.50	1528.03
630.84	1517.38
631.19	1507.17
631.53	1497.55
631.88	1487.69
632.22	1477.29
632.57	1467.58
632.91	1457.83
633.26	1447.94
633.60	1437.94
633.95	1428.74
634.29	1419.33
634.64	1410.73
634.98	1401.61
635.32	1393.08
635.67	1385.15
636.01	1376.56
636.36	1367.65
636.70	1359.16
637.05	1351.28
637.39	1343.29
637.73	1334.93
638.08	1327.57
638.42	1319.74
638.77	1311.65
639.11	1303.69
639.45	1295.59
639.80	1287.06
640.14	1278.78
640.49	1270.78
640.83	1262.82
641.17	1254.20
641.52	1246.00
641.86	1237.52
642.20	1229.67
642.55	1221.19
642.89	1212.62
643.23	1204.35
643.58	1196.85
643.92	1188.30
644.26	1179.71
644.61	1172.27
644.95	1164.24
645.29	1155.27
645.64	1146.69
645.98	1138.76
646.32	1130.97
646.66	1122.80
647.01	1114.82
647.35	1107.05
647.69	1099.22
648.04	1091.96
648.38	1084.09
648.72	1075.84
649.06	1067.81
649.41	1059.68
649.75	1051.31
650.09	1043.06
650.43	1034.92
650.78	1026.46
651.12	1018.88
651.46	1011.44
651.80	1003.51
652.14	995.84
652.49	988.54
652.83	981.33
653.17	973.57
653.51	966.01
653.85	958.79
654.20	951.06
654.54	943.50
654.88	935.88
655.22	927.92
655.56	920.51
655.90	913.45
656.25	906.47
656.59	899.52
656.93	892.91
657.27	886.22
657.61	879.32
657.95	872.99
658.29	866.14
658.64	859.27
658.98	852.05
659.32	845.14
659.66	838.45
660.00	831.70
660.34	825.15
660.68	818.63
661.02	811.98
661.36	805.95
661.70	799.86
662.05	794.00
662.39	788.28
662.73	782.38
663.07	776.56
663.41	770.83
663.75	765.28
664.09	759.33
664.43	753.60
664.77	748.31
665.11	742.67
665.45	737.41
665.79	732.07
666.13	726.62
666.47	721.25
666.81	715.79
667.15	710.30
667.49	705.30
667.83	700.29
668.17	695.12
668.51	689.87
668.85	684.88
669.19	680.03
669.53	675.08
669.87	670.07
670.21	665.38
670.55	660.76
670.89	656.27
671.23	651.80
671.57	647.51
671.91	643.02
672.25	638.67
672.58	634.25
672.92	629.68
673.26	625.70
673.60	621.61
673.94	617.89
674.28	614.17
674.62	610.19
674.96	606.45
675.30	602.93
675.64	599.09
675.97	595.41
676.31	591.60
676.65	587.80
676.99	584.20
677.33	580.36
677.67	576.44
678.01	572.41
678.34	568.59
678.68	564.69
679.02	560.80
679.36	557.16
679.70	553.61
680.04	550.16
680.37	546.65
680.71	543.23
681.05	539.80
681.39	536.44
681.73	533.15
682.06	529.76
682.40	526.51
682.74	523.39
683.08	520.19
683.42	516.92
683.75	513.87
684.09	510.73
684.43	507.52
684.77	504.45
685.10	501.15
685.44	498.11
685.78	495.00
686.12	492.12
686.45	489.22
686.79	486.22
687.13	483.51
687.46	480.46
687.80	477.50
688.14	474.55
688.48	471.75
688.81	468.74
689.15	465.96
689.49	463.11
689.82	460.39
690.16	457.48
690.50	454.73
690.83	452.10
691.17	449.37
691.51	446.91
691.84	444.42
692.18	442.05
692.52	439.67
692.85	437.27
693.19	434.89
693.52	432.36
693.86	429.82
694.20	427.18
694.53	424.97
694.87	422.60
695.21	420.11
695.54	417.69
695.88	415.42
696.21	413.07
696.55	410.71
696.88	408.45
697.22	406.24
697.56	404.28
697.89	402.12
698.23	400.08
698.56	397.89
698.90	395.72
699.23	393.60
699.57	391.44
699.90	389.32
700.24	387.17
700.58	385.09
700.91	383.31
701.25	381.45
701.58	379.55
701.92	377.70
702.25	375.92
702.59	374.12
702.92	372.32
703.26	370.55
703.59	368.92
703.93	367.40
704.26	365.63
704.60	363.67
704.93	361.89
705.26	360.15
705.60	358.59
705.93	357.10
706.27	355.72
706.60	354.45
706.94	353.08
707.27	351.57
707.61	350.10
707.94	348.70
708.27	347.18
708.61	345.60
708.94	344.27
709.28	343.01
709.61	341.63
709.94	340.30
710.28	338.90
710.61	337.58
710.95	335.92
711.28	334.84
711.61	333.63
711.95	332.35
712.28	331.17
712.61	329.89
712.95	328.52
713.28	327.26
713.61	325.77
713.95	324.58
714.28	323.43
714.61	322.24
714.95	321.05
715.28	319.98
715.61	318.74
715.95	317.57
716.28	316.37
716.61	315.25
716.95	314.09
717.28	313.24
717.61	312.30
717.94	311.35
718.28	310.20
718.61	309.23
718.94	308.35
719.27	307.32
719.61	306.48
719.94	305.73
720.27	304.65
720.60	303.75
720.94	302.82
721.27	302.02
721.60	301.06
721.93	300.23
722.27	299.55
722.60	298.96
722.93	298.10
723.26	297.43
723.59	296.72
723.93	296.07
724.26	295.11
724.59	294.23
724.92	293.60
725.25	292.95
725.59	292.22
725.92	291.42
726.25	290.80
726.58	290.04
726.91	289.20
727.24	288.67
727.57	287.99
727.91	287.32
728.24	286.66
728.57	286.16
728.90	285.49
729.23	284.76
729.56	284.05
729.89	283.44
730.22	282.68
730.55	282.01
730.89	281.39
731.22	280.83
731.55	280.21
731.88	279.53
732.21	278.97
732.54	278.40
732.87	277.82
733.20	277.20
733.53	276.71
733.86	276.29
734.19	275.58
734.52	275.09
734.85	274.62
735.18	274.00
735.51	273.49
735.84	272.92
736.17	272.44
736.50	271.91
736.83	271.57
737.16	271.23
737.49	270.73
737.82	270.15
738.15	269.84
738.48	269.46
738.81	268.93
739.14	268.42
739.47	268.06
739.80	267.55
740.13	267.12
740.46	266.57
740.79	265.98
741.12	265.60
741.45	265.11
741.78	264.60
742.11	264.23
742.44	263.70
742.77	263.28
743.10	262.80
743.43	262.36
743.75	261.76
744.08	261.63
744.41	261.20
744.74	260.79
745.07	260.26
745.40	259.87
745.73	259.60
746.06	259.17
746.39	258.69
746.71	258.39
747.04	257.99
747.37	257.70
747.70	257.54
748.03	257.27
748.36	256.94
748.68	256.66
749.01	256.26
749.34	256.03
749.67	255.76
750.00	255.49
750.33	255.30
750.65	255.10
750.98	254.52
751.31	254.29
751.64	254.12
751.97	253.99
752.29	253.66
752.62	253.44
752.95	253.31
753.28	253.03
753.60	252.73
753.93	252.51
754.26	252.22
754.59	251.76
754.91	251.48
755.24	251.30
755.57	250.99
755.90	250.79
756.22	250.51
756.55	250.23
756.88	249.95
757.20	249.56
757.53	249.27
757.86	248.94
758.19	248.73
758.51	248.49
758.84	248.09
759.17	247.88
759.49	247.58
759.82	247.30
760.15	247.09
760.47	246.94
760.80	246.81
761.13	246.65
761.45	246.51
761.78	246.24
762.11	246.05
762.43	245.85
762.76	245.61
763.08	245.32
763.41	245.12
763.74	245.02
764.06	244.96
764.39	244.75
764.71	244.68
765.04	244.41
765.37	244.33
765.69	244.19
766.02	243.90
766.34	243.70
766.67	243.50
767.00	243.40
767.32	243.27
767.65	243.19
767.97	242.93
768.30	242.79
768.62	242.68
768.95	242.57
769.27	242.38
769.60	242.29
769.92	242.19
770.25	242.06
770.57	241.81
770.90	241.57
771.22	241.41
771.55	241.24
771.87	241.21
772.20	240.91
772.52	240.90
772.85	241.11
773.17	241.00
773.50	240.85
773.82	240.57
774.15	240.40
774.47	240.10
774.80	239.99
775.12	239.81
775.45	239.62
775.77	239.46
776.09	239.43
776.42	239.23
776.74	239.19
777.07	239.03
777.39	238.96
777.72	238.78
778.04	238.67
778.36	238.49
778.69	238.31
779.01	238.23
779.33	238.01
779.66	237.59
779.98	237.48
780.31	237.48
780.63	237.52
780.95	237.38
781.28	237.29
781.60	237.24
781.92	237.06
782.25	236.98
782.57	236.82
782.89	236.51
783.22	236.40
783.54	236.24
783.86	236.05
784.19	235.91
784.51	235.99
784.83	235.97
785.16	235.92
785.48	235.86
785.80	235.79
786.12	235.63
