SpectraSuite Data File
++++++++++++++++++++++++++++++++++++
Date: Fri Feb 01 14:34:18 EST 2013
User: group
Dark Spectrum Present: No
Reference Spectrum Present: No
Number of Sampled Component Spectra: 1
Spectrometers: USB2E7196
Integration Time (usec): 70000 (USB2E7196)
Spectra Averaged: 10 (USB2E7196)
Boxcar Smoothing: 10 (USB2E7196)
Correct for Electrical Dark: No (USB2E7196)
Strobe/Lamp Enabled: No (USB2E7196)
Correct for Detector Non-linearity: No (USB2E7196)
Correct for Stray Light: No (USB2E7196)
Number of Pixels in Processed Spectrum: 2048
>>>>>Begin Processed Spectral Data<<<<<
339.09	0.00
339.48	214.20
339.86	219.30
340.24	219.80
340.63	218.90
341.01	225.40
341.39	224.30
341.78	225.20
342.16	226.40
342.54	224.10
342.93	214.77
343.31	225.70
343.69	226.37
344.07	226.75
344.46	227.16
344.84	227.64
345.22	227.69
345.60	227.88
345.99	228.06
346.37	228.23
346.75	228.42
347.13	228.43
347.52	228.34
347.90	228.53
348.28	228.48
348.66	228.50
349.05	228.38
349.43	228.42
349.81	228.47
350.19	228.50
350.57	228.63
350.96	228.70
351.34	228.70
351.72	228.77
352.10	228.95
352.48	229.00
352.87	229.10
353.25	229.28
353.63	229.41
354.01	229.51
354.39	229.49
354.77	229.54
355.15	229.72
355.54	229.83
355.92	229.88
356.30	230.00
356.68	230.17
357.06	230.29
357.44	230.27
357.82	230.45
358.20	230.56
358.58	230.55
358.97	230.64
359.35	230.80
359.73	230.88
360.11	230.89
360.49	230.96
360.87	230.96
361.25	230.99
361.63	231.02
362.01	230.91
362.39	230.99
362.77	231.08
363.15	231.08
363.53	231.15
363.91	231.20
364.29	231.16
364.67	231.10
365.05	231.17
365.43	231.30
365.81	231.16
366.19	231.23
366.57	231.41
366.95	231.43
367.33	231.26
367.71	231.17
368.09	231.19
368.47	231.24
368.85	231.15
369.23	231.21
369.61	231.07
369.99	231.20
370.37	231.25
370.75	231.17
371.13	231.05
371.51	230.99
371.89	230.98
372.27	231.02
372.65	230.87
373.03	230.68
373.41	230.58
373.78	230.52
374.16	230.29
374.54	230.00
374.92	229.84
375.30	229.76
375.68	229.69
376.06	229.61
376.44	229.46
376.82	229.40
377.19	229.23
377.57	229.22
377.95	229.08
378.33	228.87
378.71	228.75
379.09	228.77
379.47	228.67
379.84	228.55
380.22	228.40
380.60	228.37
380.98	228.39
381.36	228.22
381.73	228.10
382.11	228.11
382.49	228.09
382.87	228.04
383.25	228.02
383.62	228.23
384.00	228.05
384.38	227.94
384.76	227.95
385.13	227.96
385.51	227.92
385.89	227.80
386.27	227.77
386.64	227.82
387.02	227.69
387.40	227.62
387.78	227.50
388.15	227.47
388.53	227.33
388.91	227.22
389.29	227.26
389.66	227.23
390.04	227.14
390.42	227.15
390.79	227.12
391.17	227.15
391.55	226.87
391.92	226.97
392.30	226.98
392.68	226.88
393.05	226.85
393.43	226.76
393.81	226.90
394.18	226.86
394.56	226.80
394.94	226.90
395.31	226.91
395.69	227.05
396.06	227.13
396.44	227.34
396.82	227.48
397.19	227.65
397.57	227.68
397.95	227.82
398.32	227.89
398.70	228.00
399.07	228.06
399.45	228.17
399.82	228.29
400.20	228.45
400.58	228.56
400.95	228.71
401.33	229.02
401.70	229.29
402.08	229.60
402.45	230.00
402.83	230.30
403.20	230.62
403.58	230.91
403.95	231.24
404.33	231.52
404.71	231.87
405.08	232.25
405.46	232.66
405.83	233.01
406.21	233.39
406.58	233.87
406.96	234.37
407.33	234.94
407.70	235.46
408.08	236.15
408.45	236.84
408.83	237.50
409.20	238.10
409.58	238.67
409.95	239.37
410.33	240.03
410.70	240.70
411.08	241.55
411.45	242.41
411.82	243.40
412.20	244.50
412.57	245.71
412.95	246.75
413.32	248.03
413.69	249.27
414.07	250.67
414.44	252.12
414.82	253.62
415.19	255.34
415.56	257.09
415.94	259.02
416.31	261.16
416.68	263.18
417.06	265.53
417.43	267.73
417.81	270.26
418.18	272.76
418.55	275.61
418.93	278.42
419.30	281.37
419.67	284.53
420.04	287.71
420.42	291.05
420.79	295.00
421.16	299.06
421.54	303.10
421.91	307.20
422.28	311.68
422.66	316.30
423.03	320.78
423.40	325.54
423.77	330.46
424.15	335.48
424.52	340.70
424.89	346.41
425.26	352.06
425.64	357.28
426.01	363.27
426.38	369.34
426.75	375.42
427.13	381.79
427.50	388.39
427.87	395.27
428.24	402.24
428.61	408.79
428.99	415.95
429.36	424.11
429.73	431.91
430.10	439.44
430.47	447.30
430.85	455.26
431.22	463.68
431.59	472.62
431.96	481.28
432.33	490.98
432.70	500.20
433.08	510.96
433.45	521.17
433.82	531.22
434.19	542.49
434.56	553.87
434.93	564.63
435.30	575.08
435.68	586.84
436.05	598.59
436.42	610.06
436.79	620.50
437.16	631.44
437.53	643.56
437.90	655.28
438.27	666.77
438.64	679.16
439.01	690.36
439.38	700.51
439.75	710.34
440.13	721.30
440.50	731.73
440.87	740.58
441.24	749.83
441.61	759.87
441.98	767.22
442.35	775.71
442.72	784.64
443.09	793.43
443.46	798.94
443.83	802.66
444.20	806.35
444.57	811.47
444.94	814.37
445.31	817.18
445.68	819.99
446.05	822.25
446.42	822.39
446.79	822.38
447.16	822.13
447.53	822.44
447.90	819.47
448.27	816.52
448.64	811.52
449.01	808.31
449.37	801.59
449.74	795.51
450.11	787.88
450.48	779.17
450.85	770.35
451.22	763.15
451.59	756.00
451.96	749.22
452.33	739.75
452.70	731.30
453.07	720.67
453.43	710.29
453.80	699.88
454.17	689.55
454.54	680.17
454.91	669.93
455.28	659.65
455.65	650.34
456.02	640.58
456.38	632.61
456.75	622.24
457.12	614.01
457.49	605.52
457.86	597.37
458.23	590.20
458.59	582.42
458.96	574.24
459.33	567.20
459.70	560.06
460.07	554.31
460.43	547.71
460.80	541.47
461.17	535.85
461.54	529.91
461.91	524.63
462.27	518.83
462.64	514.04
463.01	508.76
463.38	503.50
463.74	498.57
464.11	493.94
464.48	490.04
464.85	485.60
465.21	482.10
465.58	478.34
465.95	473.87
466.32	470.10
466.68	466.63
467.05	463.24
467.42	459.82
467.78	455.97
468.15	452.47
468.52	449.82
468.88	446.34
469.25	443.30
469.62	440.63
469.98	438.03
470.35	435.35
470.72	432.82
471.08	430.34
471.45	428.22
471.82	425.82
472.18	423.40
472.55	421.56
472.92	419.32
473.28	417.44
473.65	415.84
474.02	414.15
474.38	412.44
474.75	410.92
475.11	409.18
475.48	408.09
475.85	407.14
476.21	406.22
476.58	405.42
476.94	404.73
477.31	404.08
477.67	403.17
478.04	402.51
478.41	402.17
478.77	401.78
479.14	401.19
479.50	401.17
479.87	401.10
480.23	400.93
480.60	400.67
480.96	400.55
481.33	400.69
481.69	400.65
482.06	400.80
482.42	400.85
482.79	401.20
483.15	401.68
483.52	402.31
483.88	402.84
484.25	403.40
484.61	404.16
484.98	404.79
485.34	405.93
485.71	407.13
486.07	408.20
486.44	409.34
486.80	410.72
487.17	411.95
487.53	413.57
487.90	415.41
488.26	417.62
488.62	419.61
488.99	421.50
489.35	423.62
489.72	425.86
490.08	428.32
490.44	430.73
490.81	433.20
491.17	435.53
491.54	438.39
491.90	441.11
492.26	443.93
492.63	446.93
492.99	450.10
493.36	453.26
493.72	456.87
494.08	460.18
494.45	463.77
494.81	467.46
495.17	470.95
495.54	474.72
495.90	478.33
496.26	482.10
496.63	486.01
496.99	490.19
497.35	494.44
497.72	498.49
498.08	502.78
498.44	507.20
498.80	511.94
499.17	516.27
499.53	520.92
499.89	525.73
500.26	530.48
500.62	535.18
500.98	540.09
501.34	544.58
501.71	549.69
502.07	554.61
502.43	559.53
502.79	564.76
503.16	569.80
503.52	574.94
503.88	579.79
504.24	584.97
504.60	590.07
504.97	595.20
505.33	600.56
505.69	606.08
506.05	611.36
506.41	616.30
506.78	621.41
507.14	626.41
507.50	631.45
507.86	636.47
508.22	641.42
508.59	646.12
508.95	651.04
509.31	655.87
509.67	660.70
510.03	665.37
510.39	670.07
510.75	674.70
511.12	679.47
511.48	684.30
511.84	688.75
512.20	693.14
512.56	697.48
512.92	701.68
513.28	705.73
513.64	709.55
514.00	713.35
514.37	717.41
514.73	721.51
515.09	725.14
515.45	729.03
515.81	732.87
516.17	736.70
516.53	740.63
516.89	743.92
517.25	747.40
517.61	751.04
517.97	754.19
518.33	757.25
518.69	760.16
519.05	763.19
519.41	766.37
519.77	769.62
520.13	772.57
520.49	775.44
520.85	778.27
521.21	781.00
521.57	784.18
521.93	786.87
522.29	789.78
522.65	792.23
523.01	794.48
523.37	796.69
523.73	799.04
524.09	801.29
524.45	803.76
524.81	805.86
525.17	808.23
525.53	810.64
525.89	813.01
526.25	815.46
526.61	817.78
526.97	819.81
527.33	821.77
527.68	824.13
528.04	826.23
528.40	828.55
528.76	831.22
529.12	833.50
529.48	835.64
529.84	837.29
530.20	839.96
530.56	842.48
530.91	845.18
531.27	847.73
531.63	849.89
531.99	852.44
532.35	854.85
532.71	856.99
533.07	859.58
533.42	862.00
533.78	864.31
534.14	866.80
534.50	869.21
534.86	871.91
535.21	873.81
535.57	876.51
535.93	878.63
536.29	880.80
536.65	883.02
537.00	885.35
537.36	887.87
537.72	890.12
538.08	892.56
538.44	894.53
538.79	896.65
539.15	898.66
539.51	900.93
539.87	903.50
540.22	906.06
540.58	908.60
540.94	910.84
541.29	913.01
541.65	915.25
542.01	917.86
542.37	920.12
542.72	922.82
543.08	925.18
543.44	927.86
543.79	929.83
544.15	932.38
544.51	935.32
544.87	938.02
545.22	940.39
545.58	942.88
545.94	945.23
546.29	947.79
546.65	950.26
547.01	952.58
547.36	954.67
547.72	956.67
548.07	958.78
548.43	960.95
548.79	963.55
549.14	965.72
549.50	968.05
549.86	970.20
550.21	972.35
550.57	974.58
550.92	976.80
551.28	979.06
551.64	981.07
551.99	983.15
552.35	985.24
552.70	987.87
553.06	990.05
553.41	992.52
553.77	994.79
554.13	997.33
554.48	999.66
554.84	1002.06
555.19	1004.76
555.55	1006.86
555.90	1009.39
556.26	1011.30
556.61	1013.50
556.97	1015.52
557.32	1017.86
557.68	1020.03
558.03	1022.06
558.39	1023.93
558.74	1026.55
559.10	1028.81
559.45	1030.54
559.81	1033.03
560.16	1034.63
560.52	1036.40
560.87	1038.27
561.23	1039.97
561.58	1042.30
561.94	1044.01
562.29	1045.67
562.64	1046.87
563.00	1048.51
563.35	1050.46
563.71	1052.50
564.06	1054.67
564.42	1056.36
564.77	1058.14
565.12	1059.98
565.48	1061.96
565.83	1063.60
566.19	1065.36
566.54	1066.73
566.89	1068.43
567.25	1069.66
567.60	1071.26
567.96	1072.68
568.31	1073.98
568.66	1075.22
569.02	1076.07
569.37	1077.23
569.72	1078.55
570.08	1079.57
570.43	1080.52
570.78	1081.06
571.14	1081.41
571.49	1081.80
571.84	1083.05
572.20	1083.41
572.55	1083.88
572.90	1083.69
573.26	1084.11
573.61	1083.85
573.96	1083.83
574.31	1083.67
574.67	1082.86
575.02	1082.63
575.37	1082.43
575.72	1081.80
576.08	1081.68
576.43	1081.00
576.78	1080.52
577.13	1080.15
577.49	1080.09
577.84	1079.83
578.19	1079.31
578.54	1078.76
578.90	1077.73
579.25	1076.08
579.60	1075.21
579.95	1074.08
580.30	1073.46
580.66	1072.08
581.01	1071.20
581.36	1070.14
581.71	1068.87
582.06	1068.22
582.42	1066.73
582.77	1065.32
583.12	1064.10
583.47	1062.48
583.82	1061.17
584.17	1059.70
584.53	1058.06
584.88	1056.51
585.23	1054.49
585.58	1052.84
585.93	1051.48
586.28	1050.26
586.63	1049.16
586.98	1047.42
587.34	1045.84
587.69	1044.21
588.04	1042.79
588.39	1041.01
588.74	1038.88
589.09	1037.01
589.44	1034.67
589.79	1032.83
590.14	1031.13
590.49	1029.15
590.84	1027.20
591.19	1025.27
591.54	1022.77
591.89	1019.77
592.25	1017.36
592.60	1014.94
592.95	1012.18
593.30	1009.48
593.65	1006.73
594.00	1003.79
594.35	1001.75
594.70	999.06
595.05	996.22
595.40	993.33
595.75	990.47
596.10	988.32
596.45	985.87
596.80	984.00
597.15	981.67
597.50	978.86
597.85	976.59
598.19	974.24
598.54	971.81
598.89	969.33
599.24	967.43
599.59	965.09
599.94	962.59
600.29	960.00
600.64	957.47
600.99	954.75
601.34	952.10
601.69	949.17
602.04	946.45
602.39	943.67
602.74	941.15
603.08	938.65
603.43	936.02
603.78	933.16
604.13	930.12
604.48	927.15
604.83	924.57
605.18	921.68
605.53	918.23
605.87	914.99
606.22	912.13
606.57	909.16
606.92	906.15
607.27	903.24
607.62	900.75
607.96	898.10
608.31	895.47
608.66	892.43
609.01	888.93
609.36	885.60
609.70	881.84
610.05	878.54
610.40	875.33
610.75	871.80
611.10	868.38
611.44	864.54
611.79	861.22
612.14	857.48
612.49	853.43
612.83	850.10
613.18	846.76
613.53	843.63
613.88	839.84
614.22	836.13
614.57	832.61
614.92	829.01
615.27	825.29
615.61	821.27
615.96	817.85
616.31	814.74
616.65	811.81
617.00	809.02
617.35	805.49
617.70	801.90
618.04	798.37
618.39	795.11
618.74	792.27
619.08	788.68
619.43	785.39
619.78	782.46
620.12	779.05
620.47	775.63
620.82	771.83
621.16	768.57
621.51	765.46
621.85	762.06
622.20	758.58
622.55	755.37
622.89	752.44
623.24	749.02
623.59	745.75
623.93	742.27
624.28	739.13
624.62	735.78
624.97	732.62
625.32	729.42
625.66	726.22
626.01	722.84
626.35	719.72
626.70	716.60
627.04	713.45
627.39	710.12
627.73	706.81
628.08	703.87
628.43	700.74
628.77	697.35
629.12	694.28
629.46	691.26
629.81	687.90
630.15	684.44
630.50	681.26
630.84	677.54
631.19	674.09
631.53	670.79
631.88	667.70
632.22	664.21
632.57	661.21
632.91	657.88
633.26	654.32
633.60	651.15
633.95	647.96
634.29	644.98
634.64	642.18
634.98	639.10
635.32	636.21
635.67	633.50
636.01	630.64
636.36	627.62
636.70	624.70
637.05	621.74
637.39	619.18
637.73	616.60
638.08	614.28
638.42	611.74
638.77	608.90
639.11	606.14
639.45	603.66
639.80	600.85
640.14	598.37
640.49	596.09
640.83	593.31
641.17	590.84
641.52	588.10
641.86	585.59
642.20	583.03
642.55	580.17
642.89	577.51
643.23	574.90
643.58	572.41
643.92	569.70
644.26	567.29
644.61	564.78
644.95	562.41
645.29	559.59
645.64	556.89
645.98	554.30
646.32	551.89
646.66	549.30
647.01	546.81
647.35	544.49
647.69	542.02
648.04	539.63
648.38	536.73
648.72	534.10
649.06	531.46
649.41	529.05
649.75	526.29
650.09	523.62
650.43	521.12
650.78	518.58
651.12	516.00
651.46	513.53
651.80	510.93
652.14	508.15
652.49	505.87
652.83	503.66
653.17	501.31
653.51	498.79
653.85	496.51
654.20	494.21
654.54	491.32
654.88	488.76
655.22	486.21
655.56	483.99
655.90	481.74
656.25	479.33
656.59	477.13
656.93	475.31
657.27	473.07
657.61	470.54
657.95	468.43
658.29	466.28
658.64	464.00
658.98	461.73
659.32	459.43
659.66	457.17
660.00	454.84
660.34	452.78
660.68	450.72
661.02	448.40
661.36	446.13
661.70	444.44
662.05	442.68
662.39	441.01
662.73	439.08
663.07	437.27
663.41	435.51
663.75	433.44
664.09	431.36
664.43	429.41
664.77	427.82
665.11	425.86
665.45	424.20
665.79	422.47
666.13	420.82
666.47	419.02
666.81	417.12
667.15	415.24
667.49	413.19
667.83	411.60
668.17	409.87
668.51	408.13
668.85	406.25
669.19	404.53
669.53	402.55
669.87	400.90
670.21	399.15
670.55	397.53
670.89	396.13
671.23	394.61
671.57	393.14
671.91	391.49
672.25	389.96
672.58	388.43
672.92	386.88
673.26	385.30
673.60	384.05
673.94	382.70
674.28	381.42
674.62	380.34
674.96	378.90
675.30	377.65
675.64	376.32
675.97	375.06
676.31	373.71
676.65	372.59
676.99	371.38
677.33	370.02
677.67	368.67
678.01	367.20
678.34	365.93
678.68	364.65
679.02	363.45
679.36	362.24
679.70	360.94
680.04	359.65
680.37	358.33
680.71	357.07
681.05	355.91
681.39	354.67
681.73	353.37
682.06	352.15
682.40	350.97
682.74	349.83
683.08	348.77
683.42	347.51
683.75	346.35
684.09	345.29
684.43	344.19
684.77	343.12
685.10	341.89
685.44	340.77
685.78	339.67
686.12	338.61
686.45	337.42
686.79	336.34
687.13	335.37
687.46	334.51
687.80	333.43
688.14	332.34
688.48	331.39
688.81	330.37
689.15	329.37
689.49	328.29
689.82	327.22
690.16	326.12
690.50	325.12
690.83	324.11
691.17	322.96
691.51	321.98
691.84	321.04
692.18	320.17
692.52	319.24
692.85	318.25
693.19	317.22
693.52	316.29
693.86	315.39
694.20	314.42
694.53	313.36
694.87	312.48
695.21	311.53
695.54	310.68
695.88	309.76
696.21	308.83
696.55	307.90
696.88	307.10
697.22	306.23
697.56	305.34
697.89	304.50
698.23	303.62
698.56	302.69
698.90	301.78
699.23	300.93
699.57	300.10
699.90	299.36
700.24	298.56
700.58	297.91
700.91	296.98
701.25	296.24
701.58	295.64
701.92	295.02
702.25	294.27
702.59	293.59
702.92	292.90
703.26	292.25
703.59	291.70
703.93	291.14
704.26	290.45
704.60	289.91
704.93	289.16
705.26	288.55
705.60	287.99
705.93	287.27
706.27	286.76
706.60	286.22
706.94	285.63
707.27	285.00
707.61	284.35
707.94	283.92
708.27	283.30
708.61	282.56
708.94	281.92
709.28	281.52
709.61	280.87
709.94	280.39
710.28	279.76
710.61	279.21
710.95	278.57
711.28	278.14
711.61	277.70
711.95	277.14
712.28	276.64
712.61	276.08
712.95	275.72
713.28	275.27
713.61	274.64
713.95	274.15
714.28	273.69
714.61	273.23
714.95	272.68
715.28	272.18
715.61	271.74
715.95	271.17
716.28	270.61
716.61	270.16
716.95	269.64
717.28	269.26
717.61	268.74
717.94	268.26
718.28	267.71
718.61	267.22
718.94	266.91
719.27	266.53
719.61	266.19
719.94	265.78
720.27	265.19
720.60	264.82
720.94	264.32
721.27	263.99
721.60	263.67
721.93	263.37
722.27	262.96
722.60	262.60
722.93	262.21
723.26	261.80
723.59	261.38
723.93	261.03
724.26	260.72
724.59	260.43
724.92	260.08
725.25	259.83
725.59	259.47
725.92	259.10
726.25	258.65
726.58	258.36
726.91	258.05
727.24	257.95
727.57	257.66
727.91	257.36
728.24	256.97
728.57	256.65
728.90	256.31
729.23	256.04
729.56	255.85
729.89	255.67
730.22	255.46
730.55	255.24
730.89	254.90
731.22	254.50
731.55	254.18
731.88	253.90
732.21	253.56
732.54	253.14
732.87	252.90
733.20	252.72
733.53	252.45
733.86	252.23
734.19	251.77
734.52	251.63
734.85	251.62
735.18	251.41
735.51	251.20
735.84	250.92
736.17	250.87
736.50	250.51
736.83	250.46
737.16	250.30
737.49	250.03
737.82	249.87
738.15	249.81
738.48	249.59
738.81	249.44
739.14	249.20
739.47	249.04
739.80	248.90
740.13	248.74
740.46	248.45
740.79	248.10
741.12	247.94
741.45	247.65
741.78	247.35
742.11	247.23
742.44	247.00
742.77	246.90
743.10	246.55
743.43	246.38
743.75	245.96
744.08	246.00
744.41	245.95
744.74	245.74
745.07	245.52
745.40	245.48
745.73	245.31
746.06	245.15
746.39	245.00
746.71	244.77
747.04	244.53
747.37	244.47
747.70	244.40
748.03	244.27
748.36	244.14
748.68	243.92
749.01	243.80
749.34	243.55
749.67	243.44
750.00	243.25
750.33	243.36
750.65	243.29
750.98	242.88
751.31	242.66
751.64	242.57
751.97	242.46
752.29	242.27
752.62	242.16
752.95	242.12
753.28	242.05
753.60	241.94
753.93	241.82
754.26	241.65
754.59	241.51
754.91	241.35
755.24	241.27
755.57	241.10
755.90	240.92
756.22	240.80
756.55	240.53
756.88	240.52
757.20	240.14
757.53	239.93
757.86	239.82
758.19	239.73
758.51	239.65
758.84	239.53
759.17	239.45
759.49	239.29
759.82	239.19
760.15	239.07
760.47	238.98
760.80	238.89
761.13	238.83
761.45	238.66
761.78	238.58
762.11	238.60
762.43	238.53
762.76	238.38
763.08	238.30
763.41	238.24
763.74	238.10
764.06	238.08
764.39	237.96
764.71	237.95
765.04	237.87
765.37	237.70
765.69	237.51
766.02	237.41
766.34	237.25
766.67	237.18
767.00	237.12
767.32	237.14
767.65	237.17
767.97	237.15
768.30	237.13
768.62	237.00
768.95	236.70
769.27	236.56
769.60	236.60
769.92	236.49
770.25	236.33
770.57	236.13
770.90	235.98
771.22	235.82
771.55	235.56
771.87	235.45
772.20	235.37
772.52	235.46
772.85	235.50
773.17	235.49
773.50	235.29
773.82	235.17
774.15	234.92
774.47	234.71
774.80	234.51
775.12	234.33
775.45	234.20
775.77	234.14
776.09	234.14
776.42	233.98
776.74	233.97
777.07	233.87
777.39	233.89
777.72	233.83
778.04	233.76
778.36	233.66
778.69	233.61
779.01	233.52
779.33	233.32
779.66	233.01
779.98	232.91
780.31	232.82
780.63	232.81
780.95	232.78
781.28	232.65
781.60	232.69
781.92	232.61
782.25	232.58
782.57	232.48
782.89	232.41
783.22	232.36
783.54	232.22
783.86	232.31
784.19	232.22
784.51	232.20
784.83	232.15
785.16	232.14
785.48	232.06
785.80	231.96
786.12	231.87
786.45	231.90
786.77	231.91
787.09	231.89
787.42	231.74
787.74	231.73
788.06	231.64
788.38	231.42
788.71	231.40
789.03	231.41
789.35	231.46
789.67	231.38
789.99	231.40
790.32	231.46
790.64	231.40
790.96	231.58
791.28	231.45
791.61	231.46
791.93	231.45
