SpectraSuite Data File
++++++++++++++++++++++++++++++++++++
Date: Fri Feb 01 14:39:44 EST 2013
User: group
Dark Spectrum Present: No
Reference Spectrum Present: No
Number of Sampled Component Spectra: 1
Spectrometers: USB2E7196
Integration Time (usec): 70000 (USB2E7196)
Spectra Averaged: 10 (USB2E7196)
Boxcar Smoothing: 10 (USB2E7196)
Correct for Electrical Dark: No (USB2E7196)
Strobe/Lamp Enabled: No (USB2E7196)
Correct for Detector Non-linearity: No (USB2E7196)
Correct for Stray Light: No (USB2E7196)
Number of Pixels in Processed Spectrum: 2048
>>>>>Begin Processed Spectral Data<<<<<
339.09	0.00
339.48	216.20
339.86	218.00
340.24	218.80
340.63	220.20
341.01	224.40
341.39	224.70
341.78	224.70
342.16	225.00
342.54	226.10
342.93	214.88
343.31	225.80
343.69	226.44
344.07	226.94
344.46	227.42
344.84	227.85
345.22	228.02
345.60	228.24
345.99	228.39
346.37	228.64
346.75	228.70
347.13	228.78
347.52	228.84
347.90	228.87
348.28	228.85
348.66	228.91
349.05	228.83
349.43	228.88
349.81	228.87
350.19	228.88
350.57	228.93
350.96	229.07
351.34	229.18
351.72	229.16
352.10	229.15
352.48	229.17
352.87	229.22
353.25	229.36
353.63	229.33
354.01	229.44
354.39	229.45
354.77	229.55
355.15	229.60
355.54	229.66
355.92	229.76
356.30	229.79
356.68	229.99
357.06	230.00
357.44	230.01
357.82	230.11
358.20	230.21
358.58	230.28
358.97	230.39
359.35	230.36
359.73	230.35
360.11	230.50
360.49	230.61
360.87	230.54
361.25	230.56
361.63	230.68
362.01	230.61
362.39	230.60
362.77	230.64
363.15	230.67
363.53	230.57
363.91	230.56
364.29	230.50
364.67	230.31
365.05	230.39
365.43	230.42
365.81	230.36
366.19	230.41
366.57	230.35
366.95	230.36
367.33	230.31
367.71	230.35
368.09	230.31
368.47	230.27
368.85	230.33
369.23	230.30
369.61	230.18
369.99	230.26
370.37	230.26
370.75	230.33
371.13	230.19
371.51	230.11
371.89	230.06
372.27	230.09
372.65	230.00
373.03	230.02
373.41	229.87
373.78	229.77
374.16	229.67
374.54	229.57
374.92	229.38
375.30	229.28
375.68	229.15
376.06	229.01
376.44	228.86
376.82	228.69
377.19	228.60
377.57	228.61
377.95	228.52
378.33	228.31
378.71	228.08
379.09	228.09
379.47	228.03
379.84	228.00
380.22	227.86
380.60	227.73
380.98	227.62
381.36	227.56
381.73	227.45
382.11	227.35
382.49	227.40
382.87	227.35
383.25	227.27
383.62	227.40
384.00	227.36
384.38	227.24
384.76	227.22
385.13	227.18
385.51	227.05
385.89	226.96
386.27	226.97
386.64	226.98
387.02	226.82
387.40	226.75
387.78	226.66
388.15	226.63
388.53	226.74
388.91	226.57
389.29	226.59
389.66	226.56
390.04	226.51
390.42	226.48
390.79	226.48
391.17	226.50
391.55	226.38
391.92	226.37
392.30	226.50
392.68	226.53
393.05	226.53
393.43	226.59
393.81	226.57
394.18	226.55
394.56	226.48
394.94	226.63
395.31	226.62
395.69	226.66
396.06	226.80
396.44	226.79
396.82	226.90
397.19	226.97
397.57	227.10
397.95	227.15
398.32	227.25
398.70	227.30
399.07	227.38
399.45	227.39
399.82	227.49
400.20	227.53
400.58	227.63
400.95	227.65
401.33	227.74
401.70	228.01
402.08	228.12
402.45	228.32
402.83	228.43
403.20	228.69
403.58	228.82
403.95	228.97
404.33	229.13
404.71	229.23
405.08	229.55
405.46	229.65
405.83	229.81
406.21	229.91
406.58	230.21
406.96	230.38
407.33	230.53
407.70	230.63
408.08	230.96
408.45	231.26
408.83	231.53
409.20	231.67
409.58	231.73
409.95	232.05
410.33	232.26
410.70	232.53
411.08	232.84
411.45	233.11
411.82	233.28
412.20	233.62
412.57	234.12
412.95	234.22
413.32	234.65
413.69	234.95
414.07	235.31
414.44	235.61
414.82	236.10
415.19	236.65
415.56	237.29
415.94	237.73
416.31	238.20
416.68	238.83
417.06	239.63
417.43	240.30
417.81	240.99
418.18	241.83
418.55	242.45
418.93	243.28
419.30	244.10
419.67	245.11
420.04	246.02
420.42	246.86
420.79	248.19
421.16	249.25
421.54	250.59
421.91	251.80
422.28	253.17
422.66	254.42
423.03	255.71
423.40	257.04
423.77	258.36
424.15	259.73
424.52	261.22
424.89	262.76
425.26	264.35
425.64	265.75
426.01	267.40
426.38	269.13
426.75	270.80
427.13	272.63
427.50	274.46
427.87	276.29
428.24	278.30
428.61	280.00
428.99	282.10
429.36	284.19
429.73	286.30
430.10	288.26
430.47	290.43
430.85	292.62
431.22	294.87
431.59	297.53
431.96	300.04
432.33	302.60
432.70	305.11
433.08	308.15
433.45	310.99
433.82	313.67
434.19	316.83
434.56	319.82
434.93	322.66
435.30	325.53
435.68	328.70
436.05	331.76
436.42	334.69
436.79	337.41
437.16	340.43
437.53	343.45
437.90	346.65
438.27	349.60
438.64	352.67
439.01	355.52
439.38	357.97
439.75	360.26
440.13	362.90
440.50	365.49
440.87	367.59
441.24	369.81
441.61	372.31
441.98	373.93
442.35	376.03
442.72	378.14
443.09	380.15
443.46	381.41
443.83	382.29
444.20	382.86
444.57	383.84
444.94	384.15
445.31	384.71
445.68	385.30
446.05	385.57
446.42	385.21
446.79	385.03
447.16	384.73
447.53	384.66
447.90	383.90
448.27	382.91
448.64	381.30
449.01	380.30
449.37	378.29
449.74	376.52
450.11	374.36
450.48	371.91
450.85	369.31
451.22	367.19
451.59	365.15
451.96	363.32
452.33	360.81
452.70	358.51
453.07	355.52
453.43	352.51
453.80	349.70
454.17	347.11
454.54	344.46
454.91	341.57
455.28	338.78
455.65	336.06
456.02	333.59
456.38	331.45
456.75	328.60
457.12	326.21
457.49	323.90
457.86	321.58
458.23	319.50
458.59	317.40
458.96	315.10
459.33	312.91
459.70	311.00
460.07	309.38
460.43	307.56
460.80	306.05
461.17	304.47
461.54	302.80
461.91	301.21
462.27	299.46
462.64	298.01
463.01	296.42
463.38	295.00
463.74	293.32
464.11	291.94
464.48	290.77
464.85	289.59
465.21	288.63
465.58	287.43
465.95	286.32
466.32	285.17
466.68	284.09
467.05	283.13
467.42	282.10
467.78	280.88
468.15	279.79
468.52	278.81
468.88	277.70
469.25	276.80
469.62	276.04
469.98	275.29
470.35	274.57
470.72	273.82
471.08	272.92
471.45	272.27
471.82	271.48
472.18	270.71
472.55	270.11
472.92	269.24
473.28	268.60
473.65	267.92
474.02	267.27
474.38	266.70
474.75	266.14
475.11	265.55
475.48	265.06
475.85	264.64
476.21	264.19
476.58	263.82
476.94	263.32
477.31	262.79
477.67	262.55
478.04	262.20
478.41	262.05
478.77	261.90
479.14	261.54
479.50	261.35
479.87	261.18
480.23	260.79
480.60	260.66
480.96	260.38
481.33	260.24
481.69	260.10
482.06	260.06
482.42	259.82
482.79	259.67
483.15	259.62
483.52	259.56
483.88	259.49
484.25	259.34
484.61	259.33
484.98	259.32
485.34	259.29
485.71	259.28
486.07	259.23
486.44	259.10
486.80	259.12
487.17	259.18
487.53	259.28
487.90	259.44
488.26	259.61
488.62	259.85
488.99	259.97
489.35	260.13
489.72	260.29
490.08	260.48
490.44	260.70
490.81	260.76
491.17	260.81
491.54	261.00
491.90	261.29
492.26	261.68
492.63	261.97
492.99	262.11
493.36	262.38
493.72	262.68
494.08	262.94
494.45	263.39
494.81	263.67
495.17	264.03
495.54	264.50
495.90	264.87
496.26	265.28
496.63	265.81
496.99	266.33
497.35	266.88
497.72	267.52
498.08	268.14
498.44	268.97
498.80	269.84
499.17	270.52
499.53	271.21
499.89	272.03
500.26	272.94
500.62	273.96
500.98	274.94
501.34	275.86
501.71	277.08
502.07	278.04
502.43	279.24
502.79	280.35
503.16	281.58
503.52	282.84
503.88	284.04
504.24	285.28
504.60	286.75
504.97	288.13
505.33	289.59
505.69	291.25
506.05	292.91
506.41	294.54
506.78	296.24
507.14	298.13
507.50	300.00
507.86	301.98
508.22	303.90
508.59	305.85
508.95	308.04
509.31	310.15
509.67	312.47
510.03	315.00
510.39	317.56
510.75	320.06
511.12	322.90
511.48	325.76
511.84	328.78
512.20	331.68
512.56	334.92
512.92	338.13
513.28	341.34
513.64	344.59
514.00	348.01
514.37	351.74
514.73	355.32
515.09	359.06
515.45	362.90
515.81	366.85
516.17	371.17
516.53	375.43
516.89	379.68
517.25	384.16
517.61	388.70
517.97	393.21
518.33	397.85
518.69	402.58
519.05	407.42
519.41	412.38
519.77	417.66
520.13	422.82
520.49	428.04
520.85	433.49
521.21	439.25
521.57	445.14
521.93	450.85
522.29	456.88
522.65	462.76
523.01	468.94
523.37	475.16
523.73	481.41
524.09	487.69
524.45	494.20
524.81	500.93
525.17	507.48
525.53	514.62
525.89	521.44
526.25	528.54
526.61	535.77
526.97	543.17
527.33	550.43
527.68	557.91
528.04	565.65
528.40	573.08
528.76	580.67
529.12	588.29
529.48	596.11
529.84	603.91
530.20	612.25
530.56	620.21
530.91	628.82
531.27	637.18
531.63	645.43
531.99	653.78
532.35	661.79
532.71	670.20
533.07	678.57
533.42	687.51
533.78	695.95
534.14	704.71
534.50	713.10
534.86	721.86
535.21	730.45
535.57	739.25
535.93	748.09
536.29	756.61
536.65	765.42
537.00	774.23
537.36	783.21
537.72	791.62
538.08	800.40
538.44	808.90
538.79	817.63
539.15	826.32
539.51	835.23
539.87	844.33
540.22	853.21
540.58	862.06
540.94	870.90
541.29	879.55
541.65	888.13
542.01	897.14
542.37	906.10
542.72	914.91
543.08	923.43
543.44	932.39
543.79	940.73
544.15	949.37
544.51	958.28
544.87	966.88
545.22	975.66
545.58	983.87
545.94	991.95
546.29	1000.04
546.65	1008.44
547.01	1016.45
547.36	1024.65
547.72	1032.60
548.07	1040.19
548.43	1047.74
548.79	1055.72
549.14	1063.20
549.50	1070.42
549.86	1077.33
550.21	1084.61
550.57	1092.24
550.92	1099.24
551.28	1106.65
551.64	1113.54
551.99	1120.51
552.35	1127.50
552.70	1134.27
553.06	1141.59
553.41	1148.75
553.77	1155.48
554.13	1162.17
554.48	1169.08
554.84	1175.80
555.19	1182.32
555.55	1189.13
555.90	1195.30
556.26	1201.39
556.61	1207.80
556.97	1213.72
557.32	1220.02
557.68	1226.21
558.03	1232.04
558.39	1237.95
558.74	1244.24
559.10	1250.20
559.45	1255.80
559.81	1261.56
560.16	1267.04
560.52	1272.31
560.87	1277.80
561.23	1283.00
561.58	1288.10
561.94	1292.83
562.29	1297.09
562.64	1301.74
563.00	1306.11
563.35	1310.96
563.71	1315.80
564.06	1320.60
564.42	1325.69
564.77	1330.18
565.12	1334.90
565.48	1339.34
565.83	1343.61
566.19	1347.77
566.54	1351.69
566.89	1355.40
567.25	1358.89
567.60	1362.95
567.96	1366.67
568.31	1370.00
568.66	1373.59
569.02	1377.09
569.37	1380.20
569.72	1383.77
570.08	1386.70
570.43	1389.85
570.78	1392.60
571.14	1394.61
571.49	1396.89
571.84	1399.66
572.20	1401.50
572.55	1402.96
572.90	1404.46
573.26	1406.38
573.61	1407.78
573.96	1409.37
574.31	1410.15
574.67	1410.90
575.02	1411.36
575.37	1411.98
575.72	1412.23
576.08	1412.75
576.43	1413.23
576.78	1413.94
577.13	1414.64
577.49	1415.30
577.84	1415.78
578.19	1415.93
578.54	1416.34
578.90	1416.15
579.25	1415.21
579.60	1415.26
579.95	1414.79
580.30	1414.06
580.66	1412.89
581.01	1411.77
581.36	1411.02
581.71	1410.82
582.06	1410.34
582.42	1409.45
582.77	1408.56
583.12	1407.79
583.47	1407.20
583.82	1406.50
584.17	1405.31
584.53	1404.00
584.88	1402.82
585.23	1400.74
585.58	1399.44
585.93	1397.98
586.28	1396.71
586.63	1395.36
586.98	1393.88
587.34	1392.67
587.69	1391.29
588.04	1389.93
588.39	1388.90
588.74	1386.73
589.09	1384.48
589.44	1382.32
589.79	1380.63
590.14	1378.90
590.49	1376.50
590.84	1373.85
591.19	1371.39
591.54	1368.43
591.89	1364.85
592.25	1362.18
592.60	1359.50
592.95	1356.39
593.30	1353.16
593.65	1349.97
594.00	1346.78
594.35	1344.20
594.70	1340.53
595.05	1337.64
595.40	1334.36
595.75	1330.59
596.10	1327.57
596.45	1324.94
596.80	1322.35
597.15	1319.29
597.50	1315.80
597.85	1313.26
598.19	1310.30
598.54	1307.31
598.89	1304.67
599.24	1302.42
599.59	1299.17
599.94	1296.26
600.29	1293.37
600.64	1290.82
600.99	1287.55
601.34	1284.79
601.69	1281.02
602.04	1277.94
602.39	1274.62
602.74	1271.80
603.08	1268.88
603.43	1266.43
603.78	1263.15
604.13	1259.15
604.48	1255.49
604.83	1252.00
605.18	1248.60
605.53	1244.71
605.87	1240.43
606.22	1236.86
606.57	1232.93
606.92	1228.93
607.27	1225.52
607.62	1222.20
607.96	1218.37
608.31	1214.58
608.66	1210.10
609.01	1205.88
609.36	1201.42
609.70	1196.64
610.05	1191.59
610.40	1187.26
610.75	1182.04
611.10	1177.03
611.44	1172.44
611.79	1168.17
612.14	1163.82
612.49	1158.32
612.83	1153.57
613.18	1148.97
613.53	1144.00
613.88	1138.83
614.22	1134.28
614.57	1129.17
614.92	1123.81
615.27	1119.20
615.61	1114.40
615.96	1109.66
616.31	1105.02
616.65	1100.86
617.00	1096.88
617.35	1092.84
617.70	1087.90
618.04	1083.00
618.39	1078.43
618.74	1074.31
619.08	1069.54
619.43	1064.79
619.78	1060.75
620.12	1056.41
620.47	1051.85
620.82	1047.17
621.16	1042.90
621.51	1038.32
621.85	1033.94
622.20	1029.08
622.55	1024.28
622.89	1019.80
623.24	1015.50
623.59	1011.20
623.93	1006.64
624.28	1001.68
624.62	997.05
624.97	992.90
625.32	988.95
625.66	984.71
626.01	979.90
626.35	975.04
626.70	970.51
627.04	966.26
627.39	961.56
627.73	956.82
628.08	952.61
628.43	948.24
628.77	943.81
629.12	938.84
629.46	934.64
629.81	929.84
630.15	925.01
630.50	920.36
630.84	915.24
631.19	910.43
631.53	905.80
631.88	900.88
632.22	895.77
632.57	891.09
632.91	886.40
633.26	881.74
633.60	877.12
633.95	872.50
634.29	867.55
634.64	863.26
634.98	858.86
635.32	854.68
635.67	850.41
636.01	845.96
636.36	841.79
636.70	837.67
637.05	833.67
637.39	829.69
637.73	825.50
638.08	822.03
638.42	818.27
638.77	814.37
639.11	810.57
639.45	806.61
639.80	802.30
640.14	798.24
640.49	794.21
640.83	790.23
641.17	786.28
641.52	782.26
641.86	777.94
642.20	774.06
642.55	769.48
642.89	765.37
643.23	761.21
643.58	757.40
643.92	752.91
644.26	748.80
644.61	744.84
644.95	741.04
645.29	736.33
645.64	731.94
645.98	728.14
646.32	724.09
646.66	719.95
647.01	715.97
647.35	711.99
647.69	707.98
648.04	704.12
648.38	699.97
648.72	695.91
649.06	692.01
649.41	687.93
649.75	683.75
650.09	679.44
650.43	675.51
650.78	671.15
651.12	667.19
651.46	663.15
651.80	659.19
652.14	655.07
652.49	651.55
652.83	648.00
653.17	643.80
653.51	639.59
653.85	635.84
654.20	631.95
654.54	628.00
654.88	624.23
655.22	620.35
655.56	616.35
655.90	612.55
656.25	608.71
656.59	605.11
656.93	601.79
657.27	598.55
657.61	594.73
657.95	591.60
658.29	588.22
658.64	584.66
658.98	581.17
659.32	577.59
659.66	574.03
660.00	570.38
660.34	567.03
660.68	563.80
661.02	560.48
661.36	557.38
661.70	554.12
662.05	551.07
662.39	548.18
662.73	545.33
663.07	542.49
663.41	539.80
663.75	536.80
664.09	533.58
664.43	530.49
664.77	527.90
665.11	524.80
665.45	521.91
665.79	519.18
666.13	516.29
666.47	513.41
666.81	510.42
667.15	507.40
667.49	504.60
667.83	502.04
668.17	499.22
668.51	496.45
668.85	493.85
669.19	491.36
669.53	488.65
669.87	485.83
670.21	483.28
670.55	480.66
670.89	478.30
671.23	476.22
671.57	473.76
671.91	471.37
672.25	468.92
672.58	466.70
672.92	464.23
673.26	461.98
673.60	459.94
673.94	458.00
674.28	456.03
674.62	454.01
674.96	451.90
675.30	449.95
675.64	447.74
675.97	445.75
676.31	443.57
676.65	441.40
676.99	439.79
677.33	437.65
677.67	435.57
678.01	433.39
678.34	431.16
678.68	429.10
679.02	426.91
679.36	425.02
679.70	422.99
680.04	421.07
680.37	418.94
680.71	416.88
681.05	414.84
681.39	412.97
681.73	411.07
682.06	409.18
682.40	407.44
682.74	405.60
683.08	403.79
683.42	401.91
683.75	400.27
684.09	398.17
684.43	396.39
684.77	394.63
685.10	392.78
685.44	391.08
685.78	389.40
686.12	387.79
686.45	386.02
686.79	384.37
687.13	382.80
687.46	381.26
687.80	379.70
688.14	378.08
688.48	376.61
688.81	374.84
689.15	373.26
689.49	371.61
689.82	370.11
690.16	368.50
690.50	367.04
690.83	365.45
691.17	364.08
691.51	362.57
691.84	361.03
692.18	359.58
692.52	358.10
692.85	356.67
693.19	355.30
693.52	353.95
693.86	352.50
694.20	351.03
694.53	349.78
694.87	348.38
695.21	346.94
695.54	345.37
695.88	344.12
696.21	342.59
696.55	341.14
696.88	339.72
697.22	338.51
697.56	337.00
697.89	335.69
698.23	334.41
698.56	333.24
698.90	332.06
699.23	330.74
699.57	329.61
699.90	328.30
700.24	327.00
700.58	325.74
700.91	324.65
701.25	323.52
701.58	322.34
701.92	321.25
702.25	320.13
702.59	319.05
702.92	318.01
703.26	317.19
703.59	316.21
703.93	315.44
704.26	314.42
704.60	313.61
704.93	312.61
705.26	311.52
705.60	310.62
705.93	309.71
706.27	309.08
706.60	308.21
706.94	307.56
707.27	306.58
707.61	305.82
707.94	304.78
708.27	303.93
708.61	303.10
708.94	302.20
709.28	301.49
709.61	300.83
709.94	300.08
710.28	299.28
710.61	298.70
710.95	297.67
711.28	296.96
711.61	296.10
711.95	295.41
712.28	294.90
712.61	293.93
712.95	293.21
713.28	292.47
713.61	291.62
713.95	290.77
714.28	290.30
714.61	289.59
714.95	288.96
715.28	288.22
715.61	287.39
715.95	286.78
716.28	286.14
716.61	285.35
716.95	284.57
717.28	283.87
717.61	283.09
717.94	282.62
718.28	281.84
718.61	281.21
718.94	280.59
719.27	279.80
719.61	279.34
719.94	278.75
720.27	278.13
720.60	277.52
720.94	276.99
721.27	276.23
721.60	275.74
721.93	275.22
722.27	274.86
722.60	274.48
722.93	274.05
723.26	273.55
723.59	273.16
723.93	272.87
724.26	272.25
724.59	271.81
724.92	271.28
725.25	270.84
725.59	270.38
725.92	269.90
726.25	269.57
726.58	269.10
726.91	268.68
727.24	268.23
727.57	267.74
727.91	267.29
728.24	266.90
728.57	266.42
728.90	266.12
729.23	265.69
729.56	265.27
729.89	264.75
730.22	264.30
730.55	263.74
730.89	263.31
731.22	263.05
731.55	262.63
731.88	262.16
732.21	261.71
732.54	261.35
732.87	261.00
733.20	260.54
733.53	260.20
733.86	259.82
734.19	259.58
734.52	259.48
734.85	259.25
735.18	258.93
735.51	258.54
735.84	258.10
736.17	257.70
736.50	257.25
736.83	257.13
737.16	256.81
737.49	256.57
737.82	256.14
738.15	255.76
738.48	255.50
738.81	255.25
739.14	255.00
739.47	254.60
739.80	254.24
740.13	254.07
740.46	253.70
740.79	253.45
741.12	253.01
741.45	252.50
741.78	252.11
742.11	251.90
742.44	251.59
742.77	251.42
743.10	251.13
743.43	250.90
743.75	250.45
744.08	250.45
744.41	250.22
744.74	249.90
745.07	249.74
745.40	249.51
745.73	249.37
746.06	249.17
746.39	249.07
746.71	248.96
747.04	248.63
747.37	248.47
747.70	248.20
748.03	248.00
748.36	247.99
748.68	247.80
749.01	247.53
749.34	247.42
749.67	247.20
750.00	247.12
750.33	247.00
750.65	246.81
750.98	246.42
751.31	246.27
751.64	246.20
751.97	246.08
752.29	245.82
752.62	245.62
752.95	245.45
753.28	245.23
753.60	245.01
753.93	244.88
754.26	244.76
754.59	244.56
754.91	244.40
755.24	244.18
755.57	244.10
755.90	243.90
756.22	243.73
756.55	243.44
756.88	243.23
757.20	243.00
757.53	242.73
757.86	242.53
758.19	242.43
758.51	242.21
758.84	242.01
759.17	241.86
759.49	241.70
759.82	241.64
760.15	241.66
760.47	241.54
760.80	241.27
761.13	241.21
761.45	241.03
761.78	240.77
762.11	240.63
762.43	240.47
762.76	240.25
763.08	240.13
763.41	239.99
763.74	239.82
764.06	239.74
764.39	239.63
764.71	239.57
765.04	239.36
765.37	239.23
765.69	239.15
766.02	239.00
766.34	238.84
766.67	238.68
767.00	238.48
767.32	238.38
767.65	238.47
767.97	238.20
768.30	238.12
768.62	238.20
768.95	238.09
769.27	237.87
769.60	237.92
769.92	237.80
770.25	237.80
770.57	237.67
770.90	237.55
771.22	237.50
771.55	237.33
771.87	237.20
772.20	237.20
772.52	237.17
772.85	237.31
773.17	237.15
773.50	236.95
773.82	236.88
774.15	236.69
774.47	236.41
774.80	236.32
775.12	236.28
775.45	236.10
775.77	235.93
776.09	235.90
776.42	235.81
776.74	235.77
777.07	235.59
777.39	235.49
777.72	235.30
778.04	235.28
778.36	235.22
778.69	235.16
779.01	235.03
779.33	234.73
779.66	234.48
779.98	234.41
780.31	234.34
780.63	234.19
780.95	234.10
781.28	234.09
781.60	234.04
781.92	233.90
782.25	233.90
782.57	233.90
782.89	233.84
783.22	233.74
783.54	233.64
783.86	233.66
784.19	233.70
784.51	233.70
784.83	233.58
785.16	233.53
785.48	233.56
785.80	233.49
786.12	233.50
786.45	233.44
786.77	233.31
787.09	233.28
787.42	233.30
787.74	233.35
788.06	233.27
788.38	233.20
788.71	233.16
789.03	233.11
789.35	233.13
