SpectraSuite Data File
++++++++++++++++++++++++++++++++++++
Date: Fri Feb 01 14:37:45 EST 2013
User: group
Dark Spectrum Present: No
Reference Spectrum Present: No
Number of Sampled Component Spectra: 1
Spectrometers: USB2E7196
Integration Time (usec): 70000 (USB2E7196)
Spectra Averaged: 10 (USB2E7196)
Boxcar Smoothing: 10 (USB2E7196)
Correct for Electrical Dark: No (USB2E7196)
Strobe/Lamp Enabled: No (USB2E7196)
Correct for Detector Non-linearity: No (USB2E7196)
Correct for Stray Light: No (USB2E7196)
Number of Pixels in Processed Spectrum: 2048
>>>>>Begin Processed Spectral Data<<<<<
339.09	0.00
339.48	216.90
339.86	215.40
340.24	217.20
340.63	219.50
341.01	223.20
341.39	221.30
341.78	223.70
342.16	222.50
342.54	224.60
342.93	213.52
343.31	224.28
343.69	224.64
344.07	225.13
344.46	225.51
344.84	225.86
345.22	226.03
345.60	226.34
345.99	226.56
346.37	226.80
346.75	226.92
347.13	226.88
347.52	226.96
347.90	227.04
348.28	227.19
348.66	227.20
349.05	227.08
349.43	227.13
349.81	227.10
350.19	227.10
350.57	227.24
350.96	227.28
351.34	227.45
351.72	227.67
352.10	227.88
352.48	228.03
352.87	228.12
353.25	228.20
353.63	228.29
354.01	228.25
354.39	228.40
354.77	228.47
355.15	228.69
355.54	228.82
355.92	228.90
356.30	228.87
356.68	229.07
357.06	229.13
357.44	229.23
357.82	229.35
358.20	229.48
358.58	229.61
358.97	229.81
359.35	229.90
359.73	229.99
360.11	230.03
360.49	230.13
360.87	230.20
361.25	230.36
361.63	230.55
362.01	230.69
362.39	230.73
362.77	230.76
363.15	230.76
363.53	230.82
363.91	230.84
364.29	231.00
364.67	230.81
365.05	230.93
365.43	231.01
365.81	231.00
366.19	231.08
366.57	231.08
366.95	231.03
367.33	231.00
367.71	231.01
368.09	231.02
368.47	231.06
368.85	231.03
369.23	230.99
369.61	230.87
369.99	230.93
370.37	230.91
370.75	231.10
371.13	231.02
371.51	230.94
371.89	230.84
372.27	230.72
372.65	230.74
373.03	230.63
373.41	230.59
373.78	230.48
374.16	230.26
374.54	230.08
374.92	230.05
375.30	229.87
375.68	229.72
376.06	229.57
376.44	229.38
376.82	229.32
377.19	229.22
377.57	229.11
377.95	228.97
378.33	228.76
378.71	228.41
379.09	228.32
379.47	228.25
379.84	228.18
380.22	228.05
380.60	227.89
380.98	227.78
381.36	227.67
381.73	227.59
382.11	227.67
382.49	227.68
382.87	227.46
383.25	227.40
383.62	227.60
384.00	227.50
384.38	227.45
384.76	227.37
385.13	227.41
385.51	227.31
385.89	227.27
386.27	227.24
386.64	227.28
387.02	227.21
387.40	227.15
387.78	227.13
388.15	227.08
388.53	227.06
388.91	227.12
389.29	227.05
389.66	227.05
390.04	226.91
390.42	226.95
390.79	227.00
391.17	227.00
391.55	226.67
391.92	226.63
392.30	226.63
392.68	226.62
393.05	226.62
393.43	226.66
393.81	226.62
394.18	226.63
394.56	226.66
394.94	226.77
395.31	226.79
395.69	226.84
396.06	226.89
396.44	226.99
396.82	226.91
397.19	227.08
397.57	227.11
397.95	227.22
398.32	227.13
398.70	227.25
399.07	227.34
399.45	227.54
399.82	227.69
400.20	227.77
400.58	227.89
400.95	227.79
401.33	227.93
401.70	228.17
402.08	228.37
402.45	228.52
402.83	228.60
403.20	228.67
403.58	228.80
403.95	229.04
404.33	229.09
404.71	229.22
405.08	229.38
405.46	229.57
405.83	229.72
406.21	230.01
406.58	230.22
406.96	230.43
407.33	230.51
407.70	230.87
408.08	231.25
408.45	231.48
408.83	231.88
409.20	232.12
409.58	232.27
409.95	232.59
410.33	232.99
410.70	233.44
411.08	233.99
411.45	234.43
411.82	234.81
412.20	235.34
412.57	236.05
412.95	236.57
413.32	237.13
413.69	237.72
414.07	238.26
414.44	238.87
414.82	239.54
415.19	240.52
415.56	241.34
415.94	242.05
416.31	243.06
416.68	243.96
417.06	245.01
417.43	246.12
417.81	247.36
418.18	248.47
418.55	249.71
418.93	250.88
419.30	252.20
419.67	253.60
420.04	255.14
420.42	256.54
420.79	258.24
421.16	260.11
421.54	262.06
421.91	263.97
422.28	265.96
422.66	268.21
423.03	270.25
423.40	272.17
423.77	274.55
424.15	276.73
424.52	279.10
424.89	281.61
425.26	283.98
425.64	286.19
426.01	288.72
426.38	291.41
426.75	294.20
427.13	297.06
427.50	300.10
427.87	303.11
428.24	306.40
428.61	309.34
428.99	312.53
429.36	316.00
429.73	319.45
430.10	322.91
430.47	326.34
430.85	329.82
431.22	333.59
431.59	337.63
431.96	341.41
432.33	345.64
432.70	349.90
433.08	354.71
433.45	359.21
433.82	363.77
434.19	368.67
434.56	373.52
434.93	378.14
435.30	382.66
435.68	387.85
436.05	392.80
436.42	397.64
436.79	402.07
437.16	406.90
437.53	412.07
437.90	416.94
438.27	421.91
438.64	427.15
439.01	432.10
439.38	436.26
439.75	440.41
440.13	445.10
440.50	449.66
440.87	453.23
441.24	457.10
441.61	461.31
441.98	464.47
442.35	468.10
442.72	471.85
443.09	475.64
443.46	477.90
443.83	479.51
444.20	481.12
444.57	483.24
444.94	484.47
445.31	485.60
445.68	487.00
446.05	487.91
446.42	487.73
446.79	487.67
447.16	487.65
447.53	487.86
447.90	486.49
448.27	484.94
448.64	482.82
449.01	481.48
449.37	478.42
449.74	475.65
450.11	472.40
450.48	468.53
450.85	464.60
451.22	461.40
451.59	458.22
451.96	455.20
452.33	450.90
452.70	446.84
453.07	442.19
453.43	437.46
453.80	432.72
454.17	428.40
454.54	424.10
454.91	419.54
455.28	414.97
455.65	410.91
456.02	406.88
456.38	403.37
456.75	398.81
457.12	395.17
457.49	391.45
457.86	387.80
458.23	384.80
458.59	381.23
458.96	377.58
459.33	374.30
459.70	371.12
460.07	368.80
460.43	365.99
460.80	363.28
461.17	360.67
461.54	358.10
461.91	355.67
462.27	353.16
462.64	350.82
463.01	348.34
463.38	345.94
463.74	343.28
464.11	341.16
464.48	339.30
464.85	337.39
465.21	335.82
465.58	334.06
465.95	331.97
466.32	330.37
466.68	328.68
467.05	327.19
467.42	325.49
467.78	323.69
468.15	321.99
468.52	320.73
468.88	319.20
469.25	317.70
469.62	316.45
469.98	315.20
470.35	313.94
470.72	312.79
471.08	311.56
471.45	310.51
471.82	309.41
472.18	308.12
472.55	307.12
472.92	305.99
473.28	304.84
473.65	303.84
474.02	302.83
474.38	302.05
474.75	301.16
475.11	300.34
475.48	299.60
475.85	298.98
476.21	298.25
476.58	297.78
476.94	297.20
477.31	296.61
477.67	296.10
478.04	295.58
478.41	295.28
478.77	294.91
479.14	294.53
479.50	294.23
479.87	293.99
480.23	293.71
480.60	293.46
480.96	293.23
481.33	293.11
481.69	292.95
482.06	292.76
482.42	292.56
482.79	292.42
483.15	292.35
483.52	292.34
483.88	292.25
484.25	291.96
484.61	291.89
484.98	291.84
485.34	292.02
485.71	292.23
486.07	292.27
486.44	292.30
486.80	292.39
487.17	292.51
487.53	292.79
487.90	293.03
488.26	293.31
488.62	293.66
488.99	293.93
489.35	294.12
489.72	294.46
490.08	295.00
490.44	295.38
490.81	295.78
491.17	296.22
491.54	296.78
491.90	297.38
492.26	297.91
492.63	298.49
492.99	298.66
493.36	299.03
493.72	299.51
494.08	299.99
494.45	300.62
494.81	301.25
495.17	301.80
495.54	302.24
495.90	302.83
496.26	303.42
496.63	304.10
496.99	304.74
497.35	305.34
497.72	305.74
498.08	306.30
498.44	306.80
498.80	307.46
499.17	307.97
499.53	308.55
499.89	309.22
500.26	309.80
500.62	310.54
500.98	311.22
501.34	311.87
501.71	312.58
502.07	313.04
502.43	313.53
502.79	314.03
503.16	314.54
503.52	314.85
503.88	315.15
504.24	315.44
504.60	315.84
504.97	316.16
505.33	316.57
505.69	317.13
506.05	317.58
506.41	317.84
506.78	318.19
507.14	318.38
507.50	318.62
507.86	318.88
508.22	318.97
508.59	319.16
508.95	319.27
509.31	319.37
509.67	319.48
510.03	319.54
510.39	319.70
510.75	319.85
511.12	320.01
511.48	320.15
511.84	320.38
512.20	320.58
512.56	320.84
512.92	320.99
513.28	320.89
513.64	320.90
514.00	320.99
514.37	321.01
514.73	321.13
515.09	321.29
515.45	321.57
515.81	321.84
516.17	322.05
516.53	322.23
516.89	322.45
517.25	322.93
517.61	323.38
517.97	323.70
518.33	324.13
518.69	324.58
519.05	325.12
519.41	325.71
519.77	326.30
520.13	326.79
520.49	327.57
520.85	328.48
521.21	329.31
521.57	330.10
521.93	331.09
522.29	332.23
522.65	333.20
523.01	334.08
523.37	335.11
523.73	336.34
524.09	337.66
524.45	338.80
524.81	340.13
525.17	341.54
525.53	343.10
525.89	344.63
526.25	346.24
526.61	348.05
526.97	349.87
527.33	351.77
527.68	353.92
528.04	355.88
528.40	357.90
528.76	360.12
529.12	362.65
529.48	365.03
529.84	367.30
530.20	369.79
530.56	372.62
530.91	375.43
531.27	378.20
531.63	381.12
531.99	384.32
532.35	387.35
532.71	390.30
533.07	393.55
533.42	397.07
533.78	400.65
534.14	403.98
534.50	407.36
534.86	411.00
535.21	414.52
535.57	418.37
535.93	422.28
536.29	426.28
536.65	430.25
537.00	434.12
537.36	438.40
537.72	442.56
538.08	446.64
538.44	450.96
538.79	455.40
539.15	459.70
539.51	463.94
539.87	468.49
540.22	473.17
540.58	477.72
540.94	482.21
541.29	486.81
541.65	491.52
542.01	496.57
542.37	501.46
542.72	506.25
543.08	511.07
543.44	516.05
543.79	520.78
544.15	525.60
544.51	530.67
544.87	535.81
545.22	540.84
545.58	545.81
545.94	550.66
546.29	555.49
546.65	560.59
547.01	565.97
547.36	571.01
547.72	576.20
548.07	581.31
548.43	586.48
548.79	591.40
549.14	596.38
549.50	601.15
549.86	606.07
550.21	611.29
550.57	616.37
550.92	621.10
551.28	626.17
551.64	631.33
551.99	636.78
552.35	641.66
552.70	646.70
553.06	651.70
553.41	657.05
553.77	662.09
554.13	667.04
554.48	671.82
554.84	676.87
555.19	681.73
555.55	686.68
555.90	691.55
556.26	696.49
556.61	701.34
556.97	706.27
557.32	710.92
557.68	715.54
558.03	720.38
558.39	725.21
558.74	730.04
559.10	734.48
559.45	738.75
559.81	743.61
560.16	748.07
560.52	752.82
560.87	757.09
561.23	761.61
561.58	766.29
561.94	770.76
562.29	774.94
562.64	779.17
563.00	783.51
563.35	787.93
563.71	792.58
564.06	797.06
564.42	801.06
564.77	805.48
565.12	809.78
565.48	814.02
565.83	818.16
566.19	822.15
566.54	825.95
566.89	829.88
567.25	833.57
567.60	837.74
567.96	841.35
568.31	845.26
568.66	848.73
569.02	852.10
569.37	855.60
569.72	858.89
570.08	862.24
570.43	865.41
570.78	868.29
571.14	871.08
571.49	874.00
571.84	877.29
572.20	879.91
572.55	882.56
572.90	884.93
573.26	887.42
573.61	889.90
573.96	892.40
574.31	894.38
574.67	896.00
575.02	897.81
575.37	900.01
575.72	901.58
576.08	903.60
576.43	905.33
576.78	906.84
577.13	908.89
577.49	910.67
577.84	912.25
578.19	913.82
578.54	914.97
578.90	916.29
579.25	917.08
579.60	918.48
579.95	919.31
580.30	919.99
580.66	920.84
581.01	921.34
581.36	922.33
581.71	923.39
582.06	924.52
582.42	924.94
582.77	925.13
583.12	925.77
583.47	926.51
583.82	927.20
584.17	927.68
584.53	927.90
584.88	928.15
585.23	928.55
585.58	928.64
585.93	929.03
586.28	929.18
586.63	929.86
586.98	929.91
587.34	930.18
587.69	930.61
588.04	930.82
588.39	931.22
588.74	930.83
589.09	930.62
589.44	930.06
589.79	930.01
590.14	930.13
590.49	929.65
590.84	928.96
591.19	928.53
591.54	927.71
591.89	927.04
592.25	926.42
592.60	925.34
592.95	924.53
593.30	923.48
593.65	922.52
594.00	921.35
594.35	920.82
594.70	919.40
595.05	918.14
595.40	916.92
595.75	915.50
596.10	914.52
596.45	913.55
596.80	913.08
597.15	911.97
597.50	910.54
597.85	909.41
598.19	908.41
598.54	907.16
598.89	906.25
599.24	905.25
599.59	903.89
599.94	902.71
600.29	901.40
600.64	899.91
600.99	898.33
601.34	896.80
601.69	894.54
602.04	893.48
602.39	892.06
602.74	890.72
603.08	889.58
603.43	888.16
603.78	886.37
604.13	884.47
604.48	882.96
604.83	881.27
605.18	879.76
605.53	877.62
605.87	875.68
606.22	873.82
606.57	871.60
606.92	869.59
607.27	867.80
607.62	866.09
607.96	864.59
608.31	862.77
608.66	860.63
609.01	858.61
609.36	856.16
609.70	853.75
610.05	851.20
610.40	848.80
610.75	846.20
611.10	843.67
611.44	840.93
611.79	838.39
612.14	835.92
612.49	833.06
612.83	830.72
613.18	827.89
613.53	825.47
613.88	822.57
614.22	819.77
614.57	816.81
614.92	814.07
615.27	811.34
615.61	808.70
615.96	806.00
616.31	803.48
616.65	801.34
617.00	798.87
617.35	796.40
617.70	793.37
618.04	790.80
618.39	788.27
618.74	785.78
619.08	782.99
619.43	780.31
619.78	777.87
620.12	775.02
620.47	772.47
620.82	769.51
621.16	767.08
621.51	764.70
621.85	762.10
622.20	759.09
622.55	756.34
622.89	753.52
623.24	750.79
623.59	748.37
623.93	745.80
624.28	743.13
624.62	740.52
624.97	738.20
625.32	735.78
625.66	733.28
626.01	730.67
626.35	728.18
626.70	725.58
627.04	723.20
627.39	720.54
627.73	717.71
628.08	715.12
628.43	712.32
628.77	709.62
629.12	706.62
629.46	704.07
629.81	701.17
630.15	698.32
630.50	695.61
630.84	692.46
631.19	688.94
631.53	685.76
631.88	682.67
632.22	679.47
632.57	676.63
632.91	673.54
633.26	670.57
633.60	667.23
633.95	664.34
634.29	661.35
634.64	658.65
634.98	655.84
635.32	652.97
635.67	650.69
636.01	647.84
636.36	645.37
636.70	642.64
637.05	639.99
637.39	637.47
637.73	635.09
638.08	632.69
638.42	630.55
638.77	628.42
639.11	625.76
639.45	623.34
639.80	620.41
640.14	617.82
640.49	615.32
640.83	613.15
641.17	610.56
641.52	607.72
641.86	604.95
642.20	602.68
642.55	600.09
642.89	597.24
643.23	594.77
643.58	592.49
643.92	589.79
644.26	587.21
644.61	584.58
644.95	581.76
645.29	578.79
645.64	575.89
645.98	573.30
646.32	570.88
646.66	568.20
647.01	565.72
647.35	563.31
647.69	560.57
648.04	557.99
648.38	555.33
648.72	552.84
649.06	550.29
649.41	547.65
649.75	545.00
650.09	542.30
650.43	539.62
650.78	536.57
651.12	534.00
651.46	531.46
651.80	529.05
652.14	526.61
652.49	524.26
652.83	522.04
653.17	519.21
653.51	516.64
653.85	514.20
654.20	511.65
654.54	509.02
654.88	506.52
655.22	503.78
655.56	501.34
655.90	498.82
656.25	496.44
656.59	494.08
656.93	491.90
657.27	489.51
657.61	486.88
657.95	484.85
658.29	482.65
658.64	480.38
658.98	477.96
659.32	475.54
659.66	473.36
660.00	470.80
660.34	468.70
660.68	466.23
661.02	463.89
661.36	461.90
661.70	459.76
662.05	457.86
662.39	455.98
662.73	454.08
663.07	452.22
663.41	450.23
663.75	448.10
664.09	446.00
664.43	444.11
664.77	442.44
665.11	440.49
665.45	438.68
665.79	436.69
666.13	434.83
666.47	432.97
666.81	430.91
667.15	429.05
667.49	427.38
667.83	425.86
668.17	423.94
668.51	421.92
668.85	420.10
669.19	418.30
669.53	416.37
669.87	414.31
670.21	412.47
670.55	410.66
670.89	409.18
671.23	407.61
671.57	405.99
671.91	404.25
672.25	402.51
672.58	400.95
672.92	399.41
673.26	397.90
673.60	396.35
673.94	394.91
674.28	393.74
674.62	392.31
674.96	390.74
675.30	389.61
675.64	388.27
675.97	386.80
676.31	385.38
676.65	384.08
676.99	383.09
677.33	381.67
677.67	380.35
678.01	378.66
678.34	377.18
678.68	375.88
679.02	374.62
679.36	373.38
679.70	371.92
680.04	370.60
680.37	369.17
680.71	367.92
681.05	366.57
681.39	365.03
681.73	363.52
682.06	362.36
682.40	361.13
682.74	359.76
683.08	358.69
683.42	357.52
683.75	356.30
684.09	354.85
684.43	353.60
684.77	352.39
685.10	351.27
685.44	350.07
685.78	348.77
686.12	347.59
686.45	346.40
686.79	345.21
687.13	344.01
687.46	342.85
687.80	341.53
688.14	340.40
688.48	339.38
688.81	338.31
689.15	337.20
689.49	335.93
689.82	334.89
690.16	333.60
690.50	332.39
690.83	331.21
691.17	330.02
691.51	328.97
691.84	327.89
692.18	326.78
692.52	325.67
692.85	324.61
693.19	323.45
693.52	322.43
693.86	321.50
694.20	320.43
694.53	319.50
694.87	318.53
695.21	317.52
695.54	316.42
695.88	315.32
696.21	314.30
696.55	313.36
696.88	312.48
697.22	311.68
697.56	310.79
697.89	309.93
698.23	309.04
698.56	308.20
698.90	307.26
699.23	306.25
699.57	305.39
699.90	304.50
700.24	303.68
700.58	302.74
700.91	301.89
701.25	301.19
701.58	300.42
701.92	299.62
702.25	298.80
702.59	298.08
702.92	297.38
703.26	296.64
703.59	295.95
703.93	295.25
704.26	294.46
704.60	293.73
704.93	292.99
705.26	292.27
705.60	291.53
705.93	290.93
706.27	290.46
706.60	289.89
706.94	289.40
707.27	288.67
707.61	288.17
707.94	287.52
708.27	286.76
708.61	286.12
708.94	285.50
709.28	284.99
709.61	284.28
709.94	283.62
710.28	283.04
710.61	282.40
710.95	281.69
711.28	281.36
711.61	280.80
711.95	280.20
712.28	279.62
712.61	279.01
712.95	278.59
713.28	278.11
713.61	277.54
713.95	276.80
714.28	276.29
714.61	275.64
714.95	275.06
715.28	274.60
715.61	273.96
715.95	273.46
716.28	273.03
716.61	272.60
716.95	272.12
717.28	271.67
717.61	271.17
717.94	270.75
718.28	270.10
718.61	269.50
718.94	269.18
719.27	268.78
719.61	268.44
719.94	267.90
720.27	267.39
720.60	267.02
720.94	266.72
721.27	266.46
721.60	266.11
721.93	265.83
722.27	265.49
722.60	265.20
722.93	264.89
723.26	264.50
723.59	264.24
723.93	263.90
724.26	263.48
724.59	263.17
724.92	262.88
725.25	262.55
725.59	262.33
725.92	261.96
726.25	261.70
726.58	261.47
726.91	261.18
727.24	260.84
727.57	260.51
727.91	260.12
728.24	259.75
728.57	259.37
728.90	258.96
729.23	258.62
729.56	258.38
729.89	258.05
730.22	257.64
730.55	257.34
730.89	257.09
731.22	256.70
731.55	256.48
731.88	256.21
732.21	255.93
732.54	255.59
732.87	255.25
733.20	254.87
733.53	254.44
733.86	254.28
734.19	254.04
734.52	253.87
734.85	253.78
735.18	253.45
735.51	253.32
735.84	253.11
736.17	252.92
736.50	252.52
736.83	252.47
737.16	252.25
737.49	251.81
737.82	251.62
738.15	251.44
738.48	251.07
738.81	250.70
739.14	250.44
739.47	250.20
739.80	249.99
740.13	249.80
740.46	249.59
740.79	249.18
741.12	248.95
741.45	248.58
741.78	248.20
742.11	248.10
742.44	247.84
742.77	247.60
743.10	247.30
743.43	247.12
743.75	246.72
744.08	246.80
744.41	246.61
744.74	246.31
745.07	246.08
745.40	246.03
745.73	245.98
746.06	245.78
746.39	245.59
746.71	245.32
747.04	245.29
747.37	245.03
747.70	244.81
748.03	244.59
748.36	244.37
748.68	244.15
749.01	243.94
749.34	243.76
749.67	243.58
750.00	243.42
750.33	243.42
750.65	243.30
750.98	242.84
751.31	242.69
751.64	242.52
751.97	242.44
752.29	242.30
752.62	241.93
752.95	241.78
753.28	241.73
753.60	241.55
753.93	241.18
754.26	241.04
754.59	240.91
754.91	240.72
755.24	240.59
755.57	240.51
755.90	240.33
756.22	240.14
756.55	240.04
756.88	239.88
757.20	239.66
757.53	239.42
757.86	239.32
758.19	239.24
758.51	239.15
758.84	239.04
759.17	238.88
759.49	238.85
759.82	238.77
760.15	238.58
760.47	238.49
760.80	238.49
761.13	238.43
761.45	238.41
761.78	238.42
762.11	238.40
762.43	238.35
762.76	238.35
763.08	238.26
763.41	238.19
763.74	238.16
764.06	238.02
764.39	238.00
764.71	237.98
765.04	237.89
765.37	237.85
765.69	237.78
766.02	237.65
766.34	237.61
766.67	237.52
767.00	237.59
767.32	237.70
767.65	237.69
767.97	237.68
768.30	237.56
768.62	237.39
768.95	237.27
769.27	237.10
769.60	236.94
769.92	236.86
770.25	236.72
770.57	236.62
770.90	236.62
771.22	236.53
771.55	236.48
771.87	236.52
772.20	236.34
772.52	236.33
772.85	236.41
773.17	236.32
773.50	236.23
773.82	236.03
774.15	235.75
774.47	235.53
774.80	235.36
775.12	235.19
775.45	235.16
775.77	235.09
776.09	235.06
776.42	234.95
776.74	234.91
777.07	234.81
777.39	234.68
777.72	234.47
778.04	234.41
778.36	234.21
778.69	234.10
779.01	234.06
779.33	233.86
779.66	233.68
779.98	233.62
780.31	233.54
780.63	233.58
780.95	233.70
781.28	233.54
781.60	233.46
781.92	233.46
782.25	233.28
782.57	233.15
782.89	232.96
783.22	232.86
783.54	232.81
783.86	232.72
784.19	232.65
784.51	232.66
784.83	232.60
785.16	232.48
785.48	232.30
785.80	232.23
786.12	232.20
786.45	232.06
786.77	232.01
787.09	231.95
787.42	231.76
787.74	231.63
788.06	231.70
788.38	231.63
788.71	231.63
789.03	231.67
789.35	231.68
789.67	231.70
789.99	231.69
790.32	231.66
790.64	231.68
790.96	231.73
791.28	231.58
791.61	231.57
791.93	231.53
792.25	231.50
792.57	231.58
792.89	231.47
793.21	231.39
793.54	231.27
793.86	231.16
794.18	231.21
