SpectraSuite Data File
++++++++++++++++++++++++++++++++++++
Date: Fri Feb 01 14:38:41 EST 2013
User: group
Dark Spectrum Present: No
Reference Spectrum Present: No
Number of Sampled Component Spectra: 1
Spectrometers: USB2E7196
Integration Time (usec): 70000 (USB2E7196)
Spectra Averaged: 10 (USB2E7196)
Boxcar Smoothing: 10 (USB2E7196)
Correct for Electrical Dark: No (USB2E7196)
Strobe/Lamp Enabled: No (USB2E7196)
Correct for Detector Non-linearity: No (USB2E7196)
Correct for Stray Light: No (USB2E7196)
Number of Pixels in Processed Spectrum: 2048
>>>>>Begin Processed Spectral Data<<<<<
339.09	0.00
339.48	216.80
339.86	217.50
340.24	220.20
340.63	220.30
341.01	222.90
341.39	223.40
341.78	224.70
342.16	227.30
342.54	228.00
342.93	214.85
343.31	225.70
343.69	226.10
344.07	226.58
344.46	226.92
344.84	227.33
345.22	227.50
345.60	227.72
345.99	227.81
346.37	227.85
346.75	227.85
347.13	227.85
347.52	227.78
347.90	227.81
348.28	227.84
348.66	227.88
349.05	227.80
349.43	227.74
349.81	227.69
350.19	227.81
350.57	227.78
350.96	227.93
351.34	227.98
351.72	228.11
352.10	228.10
352.48	228.15
352.87	228.18
353.25	228.33
353.63	228.35
354.01	228.42
354.39	228.51
354.77	228.60
355.15	228.68
355.54	228.78
355.92	228.77
356.30	228.83
356.68	228.99
357.06	228.98
357.44	229.10
357.82	229.11
358.20	229.15
358.58	229.19
358.97	229.22
359.35	229.33
359.73	229.50
360.11	229.64
360.49	229.67
360.87	229.73
361.25	229.70
361.63	229.86
362.01	229.94
362.39	229.96
362.77	230.01
363.15	230.05
363.53	230.15
363.91	230.12
364.29	230.16
364.67	229.95
365.05	230.04
365.43	230.02
365.81	230.15
366.19	230.24
366.57	230.43
366.95	230.37
367.33	230.16
367.71	230.01
368.09	230.00
368.47	229.98
368.85	229.94
369.23	230.00
369.61	229.90
369.99	229.93
370.37	229.95
370.75	230.04
371.13	229.92
371.51	229.82
371.89	229.83
372.27	229.82
372.65	229.83
373.03	229.82
373.41	229.75
373.78	229.73
374.16	229.62
374.54	229.43
374.92	229.40
375.30	229.56
375.68	229.59
376.06	229.50
376.44	229.44
376.82	229.38
377.19	229.30
377.57	229.22
377.95	229.05
378.33	228.84
378.71	228.58
379.09	228.58
379.47	228.57
379.84	228.53
380.22	228.34
380.60	228.23
380.98	228.07
381.36	228.00
381.73	227.83
382.11	227.74
382.49	227.78
382.87	227.67
383.25	227.46
383.62	227.63
384.00	227.64
384.38	227.58
384.76	227.62
385.13	227.59
385.51	227.47
385.89	227.43
386.27	227.49
386.64	227.53
387.02	227.56
387.40	227.42
387.78	227.30
388.15	227.26
388.53	227.25
388.91	227.11
389.29	227.12
389.66	227.15
390.04	227.04
390.42	226.99
390.79	227.08
391.17	227.12
391.55	226.85
391.92	226.65
392.30	226.63
392.68	226.50
393.05	226.52
393.43	226.56
393.81	226.57
394.18	226.51
394.56	226.48
394.94	226.42
395.31	226.43
395.69	226.56
396.06	226.60
396.44	226.68
396.82	226.77
397.19	226.78
397.57	226.89
397.95	227.04
398.32	226.96
398.70	226.86
399.07	226.91
399.45	226.82
399.82	227.00
400.20	227.06
400.58	227.10
400.95	227.18
401.33	227.34
401.70	227.52
402.08	227.70
402.45	227.86
402.83	228.06
403.20	228.17
403.58	228.17
403.95	228.32
404.33	228.38
404.71	228.60
405.08	228.97
405.46	228.97
405.83	229.11
406.21	229.31
406.58	229.55
406.96	229.73
407.33	230.12
407.70	230.30
408.08	230.68
408.45	230.98
408.83	231.09
409.20	231.29
409.58	231.46
409.95	231.66
410.33	231.90
410.70	232.11
411.08	232.40
411.45	232.83
411.82	233.17
412.20	233.67
412.57	234.11
412.95	234.29
413.32	234.76
413.69	235.18
414.07	235.78
414.44	236.25
414.82	236.82
415.19	237.43
415.56	238.14
415.94	238.69
416.31	239.36
416.68	240.06
417.06	240.95
417.43	241.79
417.81	242.67
418.18	243.62
418.55	244.63
418.93	245.70
419.30	246.78
419.67	247.86
420.04	248.92
420.42	249.99
420.79	251.50
421.16	252.85
421.54	254.35
421.91	255.79
422.28	257.46
422.66	259.07
423.03	260.64
423.40	262.18
423.77	263.91
424.15	265.78
424.52	267.70
424.89	269.65
425.26	271.50
425.64	273.33
426.01	275.25
426.38	277.31
426.75	279.57
427.13	281.81
427.50	284.16
427.87	286.72
428.24	289.10
428.61	291.30
428.99	293.82
429.36	296.67
429.73	299.17
430.10	301.85
430.47	304.59
430.85	307.38
431.22	310.34
431.59	313.56
431.96	316.38
432.33	319.70
432.70	322.92
433.08	326.74
433.45	330.30
433.82	333.81
434.19	337.65
434.56	341.32
434.93	344.89
435.30	348.53
435.68	352.32
436.05	356.26
436.42	360.09
436.79	363.59
437.16	367.22
437.53	371.41
437.90	375.15
438.27	379.02
438.64	382.96
439.01	386.61
439.38	389.91
439.75	393.18
440.13	396.71
440.50	399.98
440.87	402.68
441.24	405.67
441.61	408.78
441.98	411.20
442.35	414.03
442.72	416.90
443.09	419.59
443.46	421.20
443.83	422.31
444.20	423.39
444.57	424.93
444.94	425.66
445.31	426.52
445.68	427.54
446.05	427.97
446.42	427.82
446.79	427.81
447.16	427.41
447.53	427.39
447.90	426.01
448.27	424.97
448.64	423.26
449.01	422.15
449.37	419.94
449.74	417.56
450.11	414.89
450.48	411.63
450.85	408.48
451.22	405.99
451.59	403.52
451.96	401.19
452.33	397.95
452.70	394.94
453.07	391.14
453.43	387.35
453.80	383.70
454.17	380.16
454.54	376.73
454.91	373.17
455.28	369.70
455.65	366.69
456.02	363.50
456.38	360.60
456.75	356.96
457.12	354.11
457.49	351.27
457.86	348.26
458.23	345.87
458.59	343.16
458.96	340.30
459.33	337.95
459.70	335.34
460.07	333.35
460.43	331.10
460.80	328.89
461.17	326.90
461.54	324.91
461.91	323.24
462.27	321.30
462.64	319.60
463.01	317.52
463.38	315.68
463.74	313.67
464.11	312.18
464.48	310.70
464.85	308.96
465.21	307.64
465.58	306.27
465.95	304.66
466.32	303.39
466.68	302.20
467.05	300.78
467.42	299.40
467.78	298.03
468.15	296.71
468.52	295.67
468.88	294.41
469.25	293.34
469.62	292.25
469.98	291.24
470.35	290.28
470.72	289.55
471.08	288.51
471.45	287.59
471.82	286.62
472.18	285.69
472.55	285.03
472.92	284.18
473.28	283.52
473.65	282.80
474.02	281.95
474.38	281.28
474.75	280.70
475.11	280.19
475.48	279.54
475.85	279.08
476.21	278.63
476.58	278.32
476.94	277.87
477.31	277.34
477.67	276.93
478.04	276.59
478.41	276.23
478.77	276.17
479.14	275.72
479.50	275.40
479.87	275.13
480.23	274.91
480.60	274.75
480.96	274.46
481.33	274.41
481.69	274.29
482.06	274.06
482.42	273.89
482.79	273.71
483.15	273.65
483.52	273.57
483.88	273.44
484.25	273.34
484.61	273.22
484.98	273.15
485.34	273.13
485.71	273.14
486.07	273.11
486.44	273.00
486.80	273.26
487.17	273.32
487.53	273.43
487.90	273.50
488.26	273.52
488.62	273.65
488.99	273.77
489.35	273.94
489.72	274.07
490.08	274.26
490.44	274.47
490.81	274.60
491.17	274.78
491.54	275.00
491.90	275.04
492.26	275.21
492.63	275.56
492.99	275.69
493.36	275.84
493.72	276.10
494.08	276.26
494.45	276.46
494.81	276.84
495.17	277.14
495.54	277.47
495.90	277.91
496.26	278.20
496.63	278.48
496.99	278.79
497.35	279.13
497.72	279.47
498.08	279.71
498.44	280.04
498.80	280.40
499.17	280.70
499.53	281.15
499.89	281.60
500.26	281.84
500.62	282.20
500.98	282.78
501.34	283.18
501.71	283.52
502.07	283.86
502.43	284.03
502.79	284.23
503.16	284.54
503.52	284.81
503.88	285.18
504.24	285.57
504.60	285.95
504.97	286.29
505.33	286.71
505.69	287.23
506.05	287.89
506.41	288.22
506.78	288.79
507.14	289.17
507.50	289.71
507.86	290.30
508.22	290.90
508.59	291.40
508.95	291.91
509.31	292.72
509.67	293.41
510.03	294.11
510.39	294.85
510.75	295.53
511.12	296.23
511.48	297.10
511.84	297.84
512.20	298.63
512.56	299.63
512.92	300.59
513.28	301.59
513.64	302.36
514.00	303.52
514.37	304.59
514.73	305.83
515.09	306.99
515.45	308.21
515.81	309.53
516.17	310.82
516.53	312.31
516.89	313.76
517.25	315.27
517.61	317.11
517.97	318.74
518.33	320.43
518.69	322.31
519.05	324.12
519.41	326.27
519.77	328.56
520.13	330.72
520.49	332.94
520.85	335.10
521.21	337.57
521.57	340.00
521.93	342.50
522.29	345.08
522.65	347.73
523.01	350.44
523.37	353.26
523.73	356.28
524.09	359.34
524.45	362.37
524.81	365.58
525.17	368.84
525.53	372.30
525.89	375.93
526.25	379.58
526.61	383.07
526.97	386.78
527.33	390.59
527.68	394.68
528.04	398.69
528.40	402.84
528.76	407.14
529.12	411.49
529.48	415.88
529.84	420.21
530.20	424.74
530.56	429.47
530.91	434.33
531.27	439.03
531.63	443.65
531.99	448.69
532.35	453.64
532.71	458.66
533.07	463.96
533.42	469.14
533.78	474.48
534.14	480.04
534.50	485.41
534.86	490.70
535.21	495.99
535.57	501.59
535.93	507.32
536.29	513.05
536.65	518.88
537.00	524.65
537.36	530.63
537.72	536.48
538.08	542.21
538.44	547.78
538.79	553.80
539.15	559.92
539.51	565.91
539.87	572.21
540.22	578.42
540.58	584.64
540.94	590.77
541.29	596.80
541.65	602.97
542.01	609.43
542.37	615.82
542.72	622.08
543.08	628.21
543.44	634.41
543.79	640.29
544.15	646.35
544.51	652.71
544.87	659.06
545.22	665.41
545.58	671.81
545.94	678.41
546.29	684.77
546.65	691.19
547.01	697.30
547.36	703.29
547.72	709.40
548.07	715.39
548.43	721.50
548.79	727.60
549.14	733.51
549.50	739.00
549.86	744.78
550.21	750.68
550.57	756.96
550.92	762.94
551.28	769.12
551.64	775.10
551.99	781.00
552.35	786.47
552.70	792.23
553.06	798.12
553.41	803.89
553.77	809.50
554.13	814.90
554.48	820.68
554.84	826.41
555.19	831.92
555.55	837.62
555.90	843.02
556.26	848.48
556.61	853.95
556.97	859.40
557.32	864.79
557.68	870.01
558.03	875.19
558.39	880.46
558.74	885.76
559.10	891.25
559.45	896.49
559.81	902.19
560.16	907.24
560.52	912.03
560.87	916.96
561.23	921.80
561.58	926.87
561.94	931.69
562.29	936.16
562.64	940.50
563.00	944.91
563.35	949.84
563.71	954.81
564.06	959.64
564.42	964.20
564.77	968.70
565.12	973.29
565.48	977.55
565.83	981.71
566.19	985.88
566.54	989.51
566.89	993.38
567.25	997.31
567.60	1001.59
567.96	1005.62
568.31	1009.47
568.66	1013.25
569.02	1016.77
569.37	1020.04
569.72	1023.44
570.08	1026.97
570.43	1030.23
570.78	1033.20
571.14	1035.62
571.49	1038.32
571.84	1041.72
572.20	1044.34
572.55	1047.05
572.90	1049.23
573.26	1051.64
573.61	1054.11
573.96	1056.56
574.31	1058.40
574.67	1060.00
575.02	1061.38
575.37	1063.00
575.72	1064.20
576.08	1065.83
576.43	1067.04
576.78	1068.61
577.13	1070.52
577.49	1071.71
577.84	1073.01
578.19	1074.04
578.54	1075.24
578.90	1075.90
579.25	1076.01
579.60	1076.93
579.95	1077.51
580.30	1078.36
580.66	1078.60
581.01	1078.58
581.36	1078.85
581.71	1079.65
582.06	1080.05
582.42	1080.09
582.77	1080.19
583.12	1080.55
583.47	1080.44
583.82	1080.93
584.17	1080.75
584.53	1080.38
584.88	1080.57
585.23	1080.04
585.58	1079.81
585.93	1079.39
586.28	1079.53
586.63	1079.57
586.98	1079.19
587.34	1078.86
587.69	1078.50
588.04	1078.25
588.39	1078.34
588.74	1077.18
589.09	1076.03
589.44	1075.04
589.79	1075.00
590.14	1074.61
590.49	1073.47
590.84	1072.18
591.19	1071.21
591.54	1070.09
591.89	1068.50
592.25	1067.26
592.60	1065.76
592.95	1064.31
593.30	1062.82
593.65	1061.27
594.00	1059.48
594.35	1058.24
594.70	1056.18
595.05	1054.40
595.40	1052.65
595.75	1050.38
596.10	1048.83
596.45	1047.63
596.80	1046.24
597.15	1044.31
597.50	1042.38
597.85	1040.79
598.19	1039.71
598.54	1038.03
598.89	1036.21
599.24	1034.91
599.59	1033.10
599.94	1031.60
600.29	1030.02
600.64	1028.14
600.99	1025.75
601.34	1023.95
601.69	1021.49
602.04	1019.55
602.39	1017.63
602.74	1016.06
603.08	1014.36
603.43	1013.00
603.78	1010.79
604.13	1008.64
604.48	1006.01
604.83	1003.98
605.18	1002.08
605.53	999.28
605.87	996.44
606.22	994.23
606.57	991.69
606.92	989.26
607.27	987.12
607.62	984.60
607.96	982.56
608.31	980.52
608.66	977.59
609.01	974.81
609.36	972.07
609.70	968.96
610.05	965.43
610.40	962.19
610.75	959.00
611.10	955.77
611.44	952.22
611.79	949.45
612.14	945.82
612.49	941.92
612.83	938.82
613.18	935.64
613.53	932.11
613.88	928.31
614.22	924.90
614.57	921.10
614.92	917.59
615.27	914.05
615.61	910.39
615.96	907.21
616.31	904.17
616.65	901.22
617.00	898.17
617.35	895.10
617.70	891.66
618.04	888.04
618.39	884.81
618.74	881.74
619.08	878.26
619.43	875.21
619.78	872.30
620.12	868.94
620.47	865.63
620.82	862.18
621.16	859.04
621.51	855.60
621.85	852.46
622.20	848.90
622.55	845.59
622.89	842.31
623.24	839.17
623.59	836.00
623.93	832.63
624.28	829.29
624.62	826.09
624.97	823.21
625.32	820.01
625.66	816.45
626.01	813.05
626.35	809.78
626.70	806.42
627.04	803.27
627.39	799.87
627.73	796.57
628.08	793.64
628.43	790.36
628.77	787.22
629.12	784.08
629.46	780.82
629.81	776.85
630.15	773.28
630.50	769.72
630.84	765.87
631.19	762.04
631.53	758.48
631.88	754.62
632.22	750.74
632.57	747.31
632.91	743.89
633.26	740.33
633.60	736.59
633.95	733.05
634.29	729.45
634.64	726.35
634.98	722.83
635.32	719.48
635.67	716.66
636.01	713.28
636.36	709.88
636.70	706.85
637.05	703.99
637.39	700.98
637.73	697.80
638.08	695.09
638.42	692.57
638.77	689.60
639.11	686.71
639.45	683.69
639.80	680.83
640.14	677.90
640.49	675.10
640.83	672.42
641.17	669.60
641.52	666.77
641.86	663.45
642.20	660.80
642.55	657.68
642.89	654.27
643.23	651.04
643.58	648.14
643.92	644.99
644.26	642.23
644.61	639.52
644.95	636.71
645.29	633.27
645.64	629.90
645.98	626.83
646.32	624.10
646.66	621.23
647.01	618.05
647.35	615.19
647.69	612.15
648.04	609.16
648.38	605.87
648.72	602.63
649.06	599.86
649.41	596.45
649.75	593.38
650.09	590.31
650.43	587.33
650.78	584.00
651.12	580.89
651.46	577.78
651.80	574.44
652.14	571.32
652.49	568.40
652.83	565.65
653.17	562.53
653.51	559.32
653.85	556.28
654.20	553.24
654.54	550.23
654.88	547.19
655.22	544.05
655.56	540.94
655.90	538.12
656.25	535.16
656.59	532.57
656.93	529.94
657.27	527.16
657.61	524.36
657.95	521.88
658.29	519.25
658.64	516.56
658.98	514.06
659.32	511.28
659.66	508.90
660.00	506.06
660.34	503.45
660.68	500.76
661.02	498.17
661.36	495.79
661.70	493.07
662.05	490.78
662.39	488.54
662.73	486.43
663.07	484.17
663.41	481.82
663.75	479.22
664.09	476.84
664.43	474.62
664.77	472.43
665.11	470.11
665.45	467.83
665.79	465.60
666.13	463.27
666.47	461.27
666.81	458.92
667.15	456.51
667.49	454.39
667.83	452.41
668.17	450.27
668.51	447.85
668.85	445.61
669.19	443.51
669.53	441.34
669.87	439.16
670.21	436.92
670.55	435.02
670.89	433.23
671.23	431.20
671.57	429.21
671.91	427.24
672.25	425.11
672.58	423.20
672.92	421.31
673.26	419.58
673.60	417.76
673.94	415.95
674.28	414.50
674.62	412.78
674.96	411.05
675.30	409.39
675.64	407.94
675.97	406.50
676.31	404.77
676.65	403.06
676.99	401.60
677.33	399.98
677.67	398.21
678.01	396.60
678.34	394.99
678.68	393.52
679.02	391.92
679.36	390.46
679.70	388.91
680.04	387.20
680.37	385.50
680.71	383.78
681.05	382.37
681.39	380.76
681.73	379.38
682.06	377.84
682.40	376.59
682.74	375.11
683.08	373.80
683.42	372.42
683.75	370.96
684.09	369.47
684.43	368.16
684.77	366.86
685.10	365.40
685.44	364.13
685.78	362.70
686.12	361.41
686.45	360.10
686.79	358.76
687.13	357.51
687.46	356.26
687.80	355.14
688.14	353.67
688.48	352.33
688.81	350.92
689.15	349.73
689.49	348.20
689.82	347.00
690.16	345.60
690.50	344.45
690.83	343.36
691.17	342.14
691.51	340.90
691.84	339.76
692.18	338.48
692.52	337.17
692.85	336.20
693.19	335.16
693.52	333.97
693.86	332.78
694.20	331.85
694.53	330.69
694.87	329.44
695.21	328.29
695.54	327.20
695.88	326.21
696.21	325.04
696.55	324.12
696.88	323.10
697.22	322.07
697.56	320.98
697.89	319.84
698.23	318.83
698.56	317.79
698.90	316.56
699.23	315.57
699.57	314.66
699.90	313.57
700.24	312.39
700.58	311.45
700.91	310.63
701.25	309.68
701.58	308.90
701.92	308.13
702.25	307.38
702.59	306.56
702.92	305.69
703.26	304.85
703.59	303.84
703.93	303.06
704.26	302.29
704.60	301.40
704.93	300.60
705.26	299.78
705.60	299.02
705.93	298.39
706.27	297.78
706.60	297.07
706.94	296.35
707.27	295.70
707.61	295.01
707.94	294.26
708.27	293.50
708.61	292.76
708.94	292.02
709.28	291.32
709.61	290.60
709.94	289.93
710.28	289.31
710.61	288.75
710.95	287.90
711.28	287.29
711.61	286.71
711.95	286.10
712.28	285.46
712.61	284.90
712.95	284.22
713.28	283.54
713.61	282.89
713.95	282.15
714.28	281.55
714.61	280.94
714.95	280.36
715.28	279.79
715.61	279.07
715.95	278.40
716.28	277.76
716.61	277.24
716.95	276.59
717.28	276.01
717.61	275.43
717.94	274.96
718.28	274.31
718.61	273.70
718.94	273.17
719.27	272.65
719.61	272.09
719.94	271.63
720.27	271.14
720.60	270.61
720.94	270.17
721.27	269.75
721.60	269.37
721.93	268.92
722.27	268.44
722.60	268.15
722.93	267.78
723.26	267.49
723.59	267.08
723.93	266.73
724.26	266.23
724.59	265.70
724.92	265.21
725.25	264.92
725.59	264.57
725.92	264.30
726.25	263.95
726.58	263.60
726.91	263.23
727.24	262.89
727.57	262.67
727.91	262.24
728.24	261.98
728.57	261.49
728.90	261.06
729.23	260.63
729.56	260.29
729.89	259.90
730.22	259.50
730.55	259.15
730.89	258.78
731.22	258.57
731.55	258.44
731.88	258.15
732.21	257.80
732.54	257.54
732.87	257.10
733.20	256.70
733.53	256.40
733.86	256.17
734.19	255.83
734.52	255.40
734.85	255.35
735.18	255.02
735.51	254.79
735.84	254.61
736.17	254.39
736.50	254.08
736.83	254.17
737.16	253.94
737.49	253.71
737.82	253.49
738.15	253.24
738.48	252.93
738.81	252.77
739.14	252.56
739.47	252.27
739.80	252.11
740.13	252.08
740.46	251.80
740.79	251.40
741.12	251.21
741.45	251.03
741.78	250.58
742.11	250.34
742.44	250.12
742.77	249.89
743.10	249.71
743.43	249.42
743.75	248.89
744.08	248.94
744.41	248.62
744.74	248.40
745.07	248.19
745.40	248.01
745.73	247.83
746.06	247.50
746.39	247.21
746.71	246.86
747.04	246.54
747.37	246.35
747.70	246.26
748.03	245.98
748.36	245.79
748.68	245.66
749.01	245.39
749.34	245.18
749.67	245.05
750.00	244.88
750.33	244.96
750.65	244.78
750.98	244.31
751.31	244.21
751.64	244.01
751.97	243.90
752.29	243.68
752.62	243.35
752.95	243.27
753.28	243.20
753.60	243.04
753.93	242.90
754.26	242.75
754.59	242.57
754.91	242.41
755.24	242.22
755.57	242.02
755.90	241.81
756.22	241.63
756.55	241.42
756.88	241.19
757.20	240.89
757.53	240.61
757.86	240.43
758.19	240.28
758.51	240.19
758.84	239.90
759.17	239.72
759.49	239.65
759.82	239.54
760.15	239.32
760.47	239.31
760.80	239.13
761.13	239.08
761.45	238.91
761.78	238.78
762.11	238.70
762.43	238.63
762.76	238.50
763.08	238.41
763.41	238.26
763.74	238.20
764.06	237.95
764.39	237.95
764.71	237.82
765.04	237.62
765.37	237.50
765.69	237.43
766.02	237.36
766.34	237.14
766.67	236.89
767.00	236.81
767.32	236.70
767.65	236.65
767.97	236.50
768.30	236.41
768.62	236.33
768.95	236.30
769.27	236.12
769.60	236.02
769.92	235.93
770.25	235.88
770.57	235.74
770.90	235.67
771.22	235.60
771.55	235.48
771.87	235.46
772.20	235.30
772.52	235.40
772.85	235.54
773.17	235.52
773.50	235.39
773.82	235.30
774.15	235.10
774.47	234.97
774.80	234.87
775.12	234.72
775.45	234.70
775.77	234.53
776.09	234.47
776.42	234.42
776.74	234.31
777.07	234.25
777.39	234.19
777.72	234.14
778.04	233.98
778.36	234.01
778.69	233.87
779.01	233.81
779.33	233.49
779.66	233.22
779.98	233.20
780.31	233.30
780.63	233.27
780.95	233.33
781.28	233.19
781.60	233.04
781.92	233.00
782.25	232.90
782.57	232.84
782.89	232.85
783.22	232.73
783.54	232.69
783.86	232.59
784.19	232.43
784.51	232.37
784.83	232.36
785.16	232.22
785.48	232.20
785.80	232.08
786.12	232.17
786.45	232.10
786.77	232.02
787.09	231.90
787.42	231.88
787.74	231.82
788.06	231.86
788.38	231.88
788.71	231.87
789.03	231.79
789.35	231.75
789.67	231.60
789.99	231.70
790.32	231.62
790.64	231.65
790.96	231.79
791.28	231.75
791.61	231.72
791.93	231.67
