SpectraSuite Data File
++++++++++++++++++++++++++++++++++++
Date: Fri Feb 01 14:33:34 EST 2013
User: group
Dark Spectrum Present: No
Reference Spectrum Present: No
Number of Sampled Component Spectra: 1
Spectrometers: USB2E7196
Integration Time (usec): 70000 (USB2E7196)
Spectra Averaged: 10 (USB2E7196)
Boxcar Smoothing: 10 (USB2E7196)
Correct for Electrical Dark: No (USB2E7196)
Strobe/Lamp Enabled: No (USB2E7196)
Correct for Detector Non-linearity: No (USB2E7196)
Correct for Stray Light: No (USB2E7196)
Number of Pixels in Processed Spectrum: 2048
>>>>>Begin Processed Spectral Data<<<<<
339.09	0.00
339.48	215.70
339.86	217.90
340.24	219.20
340.63	220.20
341.01	224.40
341.39	222.10
341.78	223.50
342.16	223.20
342.54	225.60
342.93	213.94
343.31	224.78
343.69	225.25
344.07	225.67
344.46	226.04
344.84	226.46
345.22	226.65
345.60	227.00
345.99	227.25
346.37	227.46
346.75	227.60
347.13	227.76
347.52	227.90
347.90	228.06
348.28	227.99
348.66	228.12
349.05	228.11
349.43	228.18
349.81	228.26
350.19	228.39
350.57	228.57
350.96	228.76
351.34	228.84
351.72	229.02
352.10	229.28
352.48	229.40
352.87	229.41
353.25	229.49
353.63	229.51
354.01	229.61
354.39	229.74
354.77	229.80
355.15	229.86
355.54	229.94
355.92	230.09
356.30	230.33
356.68	230.50
357.06	230.70
357.44	230.71
357.82	230.81
358.20	230.89
358.58	230.87
358.97	230.85
359.35	231.06
359.73	231.17
360.11	231.12
360.49	231.18
360.87	231.20
361.25	231.27
361.63	231.35
362.01	231.37
362.39	231.41
362.77	231.42
363.15	231.48
363.53	231.48
363.91	231.38
364.29	231.27
364.67	231.13
365.05	231.08
365.43	231.16
365.81	231.11
366.19	231.07
366.57	231.09
366.95	231.15
367.33	231.05
367.71	231.05
368.09	231.10
368.47	231.03
368.85	231.05
369.23	231.05
369.61	230.99
369.99	231.02
370.37	231.00
370.75	230.99
371.13	230.87
371.51	230.80
371.89	230.77
372.27	230.70
372.65	230.69
373.03	230.60
373.41	230.36
373.78	230.26
374.16	230.17
374.54	230.01
374.92	229.83
375.30	229.58
375.68	229.33
376.06	229.27
376.44	229.19
376.82	229.11
377.19	228.97
377.57	228.81
377.95	228.68
378.33	228.50
378.71	228.43
379.09	228.33
379.47	228.30
379.84	228.26
380.22	228.18
380.60	228.05
380.98	228.00
381.36	227.91
381.73	227.88
382.11	227.71
382.49	227.73
382.87	227.77
383.25	227.84
383.62	228.12
384.00	227.95
384.38	227.91
384.76	227.89
385.13	227.95
385.51	228.00
385.89	227.90
386.27	227.94
386.64	227.85
387.02	227.80
387.40	227.78
387.78	227.74
388.15	227.78
388.53	227.85
388.91	227.82
389.29	227.90
389.66	227.90
390.04	228.06
390.42	228.09
390.79	228.01
391.17	227.99
391.55	227.76
391.92	227.79
392.30	227.91
392.68	227.91
393.05	227.86
393.43	227.98
393.81	228.02
394.18	228.06
394.56	228.20
394.94	228.37
395.31	228.37
395.69	228.51
396.06	228.59
396.44	228.68
396.82	228.70
397.19	228.96
397.57	229.10
397.95	229.17
398.32	229.14
398.70	229.34
399.07	229.55
399.45	229.72
399.82	229.90
400.20	229.99
400.58	230.27
400.95	230.45
401.33	230.66
401.70	231.00
402.08	231.27
402.45	231.48
402.83	231.73
403.20	232.03
403.58	232.42
403.95	232.82
404.33	233.09
404.71	233.54
405.08	234.00
405.46	234.35
405.83	234.90
406.21	235.40
406.58	235.90
406.96	236.40
407.33	236.89
407.70	237.52
408.08	238.34
408.45	238.88
408.83	239.63
409.20	240.24
409.58	240.89
409.95	241.72
410.33	242.73
410.70	243.63
411.08	244.67
411.45	245.55
411.82	246.61
412.20	247.93
412.57	249.31
412.95	250.44
413.32	251.87
413.69	253.24
414.07	254.81
414.44	256.61
414.82	258.34
415.19	260.42
415.56	262.49
415.94	264.59
416.31	267.00
416.68	269.35
417.06	272.10
417.43	274.77
417.81	277.74
418.18	280.64
418.55	283.97
418.93	287.36
419.30	290.99
419.67	294.79
420.04	298.47
420.42	302.40
420.79	306.91
421.16	311.61
421.54	316.22
421.91	321.04
422.28	326.12
422.66	331.67
423.03	336.97
423.40	342.66
423.77	348.76
424.15	354.89
424.52	361.21
424.89	368.00
425.26	374.70
425.64	380.94
426.01	387.91
426.38	395.13
426.75	402.33
427.13	409.87
427.50	417.74
427.87	425.94
428.24	434.19
428.61	442.14
428.99	450.70
429.36	460.32
429.73	469.90
430.10	478.94
430.47	488.22
430.85	497.96
431.22	508.08
431.59	518.69
431.96	529.11
432.33	540.51
432.70	551.38
433.08	564.48
433.45	576.77
433.82	588.70
434.19	602.31
434.56	615.51
434.93	628.10
435.30	640.88
435.68	654.79
436.05	668.50
436.42	682.21
436.79	694.61
437.16	707.81
437.53	721.75
437.90	736.03
438.27	749.66
438.64	763.89
439.01	777.08
439.38	788.89
439.75	800.28
440.13	813.32
440.50	825.87
440.87	835.88
441.24	846.67
441.61	858.97
441.98	867.87
442.35	878.57
442.72	889.36
443.09	899.42
443.46	906.46
443.83	911.14
444.20	915.63
444.57	921.79
444.94	925.46
445.31	929.21
445.68	932.39
446.05	935.05
446.42	935.68
446.79	935.43
447.16	935.17
447.53	935.56
447.90	932.30
448.27	928.85
448.64	923.36
449.01	919.94
449.37	912.25
449.74	904.74
450.11	895.27
450.48	884.97
450.85	874.70
451.22	865.81
451.59	857.67
451.96	849.47
452.33	838.10
452.70	827.93
453.07	815.33
453.43	802.97
453.80	790.79
454.17	778.44
454.54	767.34
454.91	755.32
455.28	743.46
455.65	732.32
456.02	720.70
456.38	710.89
456.75	698.53
457.12	688.24
457.49	677.97
457.86	668.08
458.23	659.50
458.59	649.91
458.96	640.04
459.33	631.49
459.70	623.02
460.07	616.21
460.43	608.30
460.80	600.70
461.17	593.88
461.54	586.89
461.91	580.49
462.27	573.90
462.64	568.04
463.01	561.58
463.38	555.30
463.74	549.39
464.11	544.03
464.48	539.17
464.85	533.88
465.21	530.08
465.58	525.98
465.95	520.99
466.32	516.69
466.68	512.61
467.05	508.47
467.42	504.20
467.78	499.78
468.15	495.59
468.52	492.43
468.88	488.60
469.25	484.92
469.62	482.02
469.98	478.88
470.35	475.95
470.72	472.95
471.08	469.81
471.45	467.30
471.82	464.68
472.18	461.82
472.55	459.54
472.92	456.95
473.28	454.76
473.65	452.58
474.02	450.57
474.38	448.70
474.75	447.20
475.11	445.55
475.48	444.15
475.85	443.01
476.21	442.19
476.58	441.28
476.94	440.45
477.31	439.40
477.67	438.43
478.04	437.80
478.41	437.50
478.77	437.27
479.14	436.79
479.50	436.63
479.87	436.75
480.23	436.89
480.60	436.82
480.96	436.83
481.33	437.31
481.69	437.69
482.06	438.14
482.42	438.24
482.79	438.72
483.15	439.56
483.52	440.54
483.88	441.20
484.25	441.89
484.61	442.98
484.98	444.20
485.34	445.73
485.71	447.40
486.07	448.96
486.44	450.59
486.80	452.45
487.17	454.41
487.53	456.62
487.90	458.94
488.26	461.35
488.62	463.88
488.99	466.29
489.35	469.00
489.72	471.83
490.08	475.07
490.44	478.34
490.81	481.67
491.17	485.05
491.54	488.98
491.90	492.66
492.26	496.57
492.63	500.60
492.99	504.70
493.36	508.82
493.72	513.47
494.08	518.01
494.45	522.72
494.81	527.60
495.17	532.55
495.54	537.64
495.90	542.90
496.26	548.27
496.63	553.71
496.99	559.48
497.35	565.59
497.72	571.42
498.08	577.41
498.44	583.58
498.80	590.13
499.17	596.45
499.53	603.00
499.89	609.53
500.26	615.94
500.62	622.54
500.98	629.56
501.34	636.37
501.71	643.41
502.07	650.63
502.43	657.56
502.79	664.63
503.16	671.86
503.52	679.31
503.88	686.35
504.24	693.56
504.60	700.85
504.97	708.09
505.33	715.69
505.69	723.49
506.05	731.04
506.41	738.31
506.78	745.61
507.14	753.12
507.50	760.84
507.86	768.54
508.22	776.31
508.59	783.69
508.95	791.35
509.31	798.79
509.67	806.50
510.03	814.02
510.39	821.45
510.75	829.14
511.12	836.44
511.48	843.86
511.84	851.66
512.20	859.04
512.56	866.41
512.92	873.79
513.28	880.84
513.64	887.69
514.00	894.40
514.37	901.26
514.73	907.89
515.09	914.31
515.45	921.00
515.81	927.48
516.17	933.97
516.53	940.22
516.89	946.37
517.25	952.13
517.61	958.24
517.97	964.04
518.33	969.28
518.69	974.76
519.05	980.40
519.41	985.91
519.77	991.51
520.13	996.64
520.49	1001.65
520.85	1006.51
521.21	1011.52
521.57	1016.69
521.93	1021.49
522.29	1026.77
522.65	1031.35
523.01	1035.49
523.37	1039.63
523.73	1043.88
524.09	1048.18
524.45	1052.60
524.81	1056.88
525.17	1061.34
525.53	1066.04
525.89	1070.49
526.25	1074.76
526.61	1078.73
526.97	1082.29
527.33	1085.79
527.68	1090.04
528.04	1093.62
528.40	1097.29
528.76	1101.40
529.12	1105.65
529.48	1109.55
529.84	1112.64
530.20	1116.66
530.56	1121.02
530.91	1125.29
531.27	1129.18
531.63	1132.59
531.99	1135.94
532.35	1139.12
532.71	1141.84
533.07	1144.83
533.42	1148.21
533.78	1151.21
534.14	1154.44
534.50	1157.19
534.86	1160.43
535.21	1163.13
535.57	1166.45
535.93	1169.37
536.29	1171.89
536.65	1174.00
537.00	1176.24
537.36	1179.47
537.72	1181.84
538.08	1184.17
538.44	1185.98
538.79	1188.39
539.15	1190.50
539.51	1192.94
539.87	1195.62
540.22	1198.26
540.58	1201.03
540.94	1203.20
541.29	1204.96
541.65	1207.19
542.01	1209.76
542.37	1211.94
542.72	1213.75
543.08	1215.73
543.44	1217.71
543.79	1219.47
544.15	1221.86
544.51	1224.44
544.87	1226.07
545.22	1228.01
545.58	1229.41
545.94	1230.58
546.29	1231.64
546.65	1232.94
547.01	1234.42
547.36	1235.48
547.72	1236.87
548.07	1237.38
548.43	1238.46
548.79	1239.99
549.14	1240.77
549.50	1241.60
549.86	1242.52
550.21	1243.60
550.57	1244.53
550.92	1245.39
551.28	1246.07
551.64	1246.40
551.99	1247.14
552.35	1247.71
552.70	1248.15
553.06	1249.33
553.41	1250.58
553.77	1251.53
554.13	1252.84
554.48	1253.70
554.84	1254.69
555.19	1255.48
555.55	1256.61
555.90	1257.10
556.26	1257.85
556.61	1258.73
556.97	1259.54
557.32	1259.90
557.68	1260.47
558.03	1260.95
558.39	1261.65
558.74	1262.86
559.10	1263.76
559.45	1264.28
559.81	1265.54
560.16	1266.11
560.52	1266.26
560.87	1267.11
561.23	1267.33
561.58	1267.89
561.94	1268.02
562.29	1268.35
562.64	1268.39
563.00	1268.58
563.35	1269.30
563.71	1270.01
564.06	1270.30
564.42	1270.57
564.77	1271.22
565.12	1271.71
565.48	1271.80
565.83	1271.66
566.19	1271.80
566.54	1271.63
566.89	1271.33
567.25	1270.65
567.60	1271.10
567.96	1270.84
568.31	1270.46
568.66	1270.82
569.02	1270.10
569.37	1269.71
569.72	1269.09
570.08	1268.50
570.43	1267.85
570.78	1266.83
571.14	1265.34
571.49	1264.40
571.84	1263.99
572.20	1263.02
572.55	1262.00
572.90	1260.70
573.26	1259.99
573.61	1258.23
573.96	1256.97
574.31	1255.22
574.67	1253.30
575.02	1251.48
575.37	1250.07
575.72	1248.00
576.08	1245.91
576.43	1243.92
576.78	1241.85
577.13	1240.26
577.49	1238.44
577.84	1236.32
578.19	1234.32
578.54	1232.90
578.90	1230.86
579.25	1227.75
579.60	1225.07
579.95	1222.30
580.30	1220.02
580.66	1217.13
581.01	1214.47
581.36	1211.85
581.71	1209.58
582.06	1207.38
582.42	1204.53
582.77	1201.58
583.12	1198.86
583.47	1196.08
583.82	1193.72
584.17	1191.15
584.53	1187.93
584.88	1185.22
585.23	1182.68
585.58	1179.98
585.93	1177.09
586.28	1174.52
586.63	1172.27
586.98	1169.54
587.34	1166.93
587.69	1164.28
588.04	1161.77
588.39	1159.43
588.74	1155.93
589.09	1152.83
589.44	1149.50
589.79	1146.41
590.14	1143.65
590.49	1140.84
590.84	1138.00
591.19	1135.07
591.54	1131.56
591.89	1128.08
592.25	1124.72
592.60	1120.81
592.95	1117.11
593.30	1113.29
593.65	1109.45
594.00	1105.57
594.35	1102.52
594.70	1098.59
595.05	1094.83
595.40	1090.89
595.75	1086.95
596.10	1083.78
596.45	1080.37
596.80	1077.24
597.15	1073.82
597.50	1070.31
597.85	1067.03
598.19	1063.60
598.54	1059.91
598.89	1056.72
599.24	1054.00
599.59	1050.39
599.94	1047.25
600.29	1043.77
600.64	1040.28
600.99	1036.68
601.34	1033.57
601.69	1029.42
602.04	1025.90
602.39	1022.37
602.74	1019.31
603.08	1015.90
603.43	1012.72
603.78	1009.06
604.13	1005.41
604.48	1001.87
604.83	998.19
605.18	994.56
605.53	990.40
605.87	986.30
606.22	982.79
606.57	978.82
606.92	975.25
607.27	971.54
607.62	968.30
607.96	964.81
608.31	961.33
608.66	957.40
609.01	953.50
609.36	949.56
609.70	945.12
610.05	940.58
610.40	936.64
610.75	932.34
611.10	928.04
611.44	923.63
611.79	919.42
612.14	915.43
612.49	910.86
612.83	906.60
613.18	902.63
613.53	898.27
613.88	893.47
614.22	889.28
614.57	884.76
614.92	880.35
615.27	875.91
615.61	871.26
615.96	867.00
616.31	863.06
616.65	859.29
617.00	855.86
617.35	852.14
617.70	847.81
618.04	843.54
618.39	839.74
618.74	835.91
619.08	831.77
619.43	827.51
619.78	823.81
620.12	820.04
620.47	815.96
620.82	811.95
621.16	808.43
621.51	804.41
621.85	800.63
622.20	796.36
622.55	792.53
622.89	789.12
623.24	785.51
623.59	781.96
623.93	778.31
624.28	774.43
624.62	770.86
624.97	767.37
625.32	763.87
625.66	760.49
626.01	757.08
626.35	753.76
626.70	750.28
627.04	746.76
627.39	743.16
627.73	739.79
628.08	736.30
628.43	732.74
628.77	729.35
629.12	725.58
629.46	722.32
629.81	718.89
630.15	715.10
630.50	711.31
630.84	707.43
631.19	703.46
631.53	699.80
631.88	695.83
632.22	692.05
632.57	688.63
632.91	684.87
633.26	681.16
633.60	677.26
633.95	673.71
634.29	670.08
634.64	666.83
634.98	663.31
635.32	660.23
635.67	657.32
636.01	654.10
636.36	651.15
636.70	647.99
637.05	644.92
637.39	642.00
637.73	639.04
638.08	636.31
638.42	633.54
638.77	630.60
639.11	627.73
639.45	625.00
639.80	622.14
640.14	619.50
640.49	616.62
640.83	614.05
641.17	611.34
641.52	608.58
641.86	605.61
642.20	602.95
642.55	599.91
642.89	596.87
643.23	594.10
643.58	591.48
643.92	588.51
644.26	585.63
644.61	582.78
644.95	580.08
645.29	577.10
645.64	574.17
645.98	571.34
646.32	568.60
646.66	565.77
647.01	562.82
647.35	559.72
647.69	557.11
648.04	554.39
648.38	551.55
648.72	548.76
649.06	545.89
649.41	543.26
649.75	540.34
650.09	537.36
650.43	534.48
650.78	531.30
651.12	528.49
651.46	525.79
651.80	523.18
652.14	520.59
652.49	517.94
652.83	515.58
653.17	512.97
653.51	510.30
653.85	507.57
654.20	505.09
654.54	502.53
654.88	499.48
655.22	496.72
655.56	494.24
655.90	491.68
656.25	489.39
656.59	486.77
656.93	484.52
657.27	482.41
657.61	479.71
657.95	477.65
658.29	475.38
658.64	473.04
658.98	470.60
659.32	467.98
659.66	465.72
660.00	463.20
660.34	460.99
660.68	458.74
661.02	456.45
661.36	454.14
661.70	452.00
662.05	450.14
662.39	448.19
662.73	446.00
663.07	444.19
663.41	442.00
663.75	439.86
664.09	437.74
664.43	435.62
664.77	433.86
665.11	432.05
665.45	430.24
665.79	428.26
666.13	426.30
666.47	424.49
666.81	422.40
667.15	420.50
667.49	418.59
667.83	416.97
668.17	415.33
668.51	413.58
668.85	411.71
669.19	410.07
669.53	408.23
669.87	406.32
670.21	404.37
670.55	402.89
670.89	401.53
671.23	400.10
671.57	398.52
671.91	396.92
672.25	395.26
672.58	393.62
672.92	392.20
673.26	390.79
673.60	389.56
673.94	388.13
674.28	386.80
674.62	385.46
674.96	383.90
675.30	382.47
675.64	381.06
675.97	379.77
676.31	378.26
676.65	376.90
676.99	375.81
677.33	374.44
677.67	372.98
678.01	371.50
678.34	370.03
678.68	368.66
679.02	367.35
679.36	366.05
679.70	364.82
680.04	363.37
680.37	362.04
680.71	360.59
681.05	359.27
681.39	358.03
681.73	356.87
682.06	355.76
682.40	354.53
682.74	353.49
683.08	352.35
683.42	351.15
683.75	350.02
684.09	348.70
684.43	347.64
684.77	346.38
685.10	345.27
685.44	344.22
685.78	343.16
686.12	342.02
686.45	340.83
686.79	339.69
687.13	338.68
687.46	337.65
687.80	336.55
688.14	335.49
688.48	334.42
688.81	333.23
689.15	332.18
689.49	331.15
689.82	329.95
690.16	328.76
690.50	327.82
690.83	326.82
691.17	325.79
691.51	324.76
691.84	323.86
692.18	322.78
692.52	321.58
692.85	320.54
693.19	319.59
693.52	318.58
693.86	317.65
694.20	316.71
694.53	315.69
694.87	314.72
695.21	313.82
695.54	312.86
695.88	312.00
696.21	311.09
696.55	310.21
696.88	309.28
697.22	308.53
697.56	307.60
697.89	306.67
698.23	305.87
698.56	305.00
698.90	304.21
699.23	303.31
699.57	302.50
699.90	301.66
700.24	300.75
700.58	300.00
700.91	299.18
701.25	298.54
701.58	297.87
701.92	297.21
702.25	296.51
702.59	295.83
702.92	295.10
703.26	294.37
703.59	293.68
703.93	293.13
704.26	292.37
704.60	291.68
704.93	291.04
705.26	290.34
705.60	289.73
705.93	289.04
706.27	288.47
706.60	287.96
706.94	287.43
707.27	286.91
707.61	286.34
707.94	285.76
708.27	284.99
708.61	284.30
708.94	283.63
709.28	282.93
709.61	282.30
709.94	281.67
710.28	280.99
710.61	280.40
710.95	279.79
711.28	279.35
711.61	278.85
711.95	278.47
712.28	278.00
712.61	277.35
712.95	276.98
713.28	276.52
713.61	275.88
713.95	275.30
714.28	274.81
714.61	274.23
714.95	273.57
715.28	273.10
715.61	272.62
715.95	272.00
716.28	271.68
716.61	271.25
716.95	270.80
717.28	270.35
717.61	269.90
717.94	269.39
718.28	268.88
718.61	268.38
718.94	267.80
719.27	267.39
719.61	267.13
719.94	266.55
720.27	266.06
720.60	265.74
720.94	265.42
721.27	265.11
721.60	264.89
721.93	264.69
722.27	264.35
722.60	264.03
722.93	263.92
723.26	263.52
723.59	263.09
723.93	262.78
724.26	262.50
724.59	262.14
724.92	261.87
725.25	261.58
725.59	261.36
725.92	261.10
726.25	260.69
726.58	260.36
726.91	260.15
727.24	259.82
727.57	259.43
727.91	259.04
728.24	258.62
728.57	258.21
728.90	257.91
729.23	257.55
729.56	257.30
729.89	256.86
730.22	256.57
730.55	256.32
730.89	256.16
731.22	255.88
731.55	255.55
731.88	255.26
732.21	254.87
732.54	254.50
732.87	254.13
733.20	253.80
733.53	253.38
733.86	252.97
734.19	252.70
734.52	252.59
734.85	252.43
735.18	252.23
735.51	252.10
735.84	251.90
736.17	251.68
736.50	251.44
736.83	251.37
737.16	251.06
737.49	250.84
737.82	250.40
738.15	250.19
738.48	250.00
738.81	249.83
739.14	249.65
739.47	249.47
739.80	249.32
740.13	249.20
740.46	248.96
740.79	248.79
741.12	248.62
741.45	248.19
741.78	247.88
742.11	247.68
742.44	247.39
742.77	247.14
743.10	246.90
743.43	246.64
743.75	246.30
744.08	246.41
744.41	246.24
744.74	246.12
745.07	245.94
745.40	245.70
745.73	245.60
746.06	245.37
746.39	245.24
746.71	245.03
747.04	244.89
747.37	244.75
747.70	244.65
748.03	244.48
748.36	244.50
748.68	244.32
749.01	244.12
749.34	243.90
749.67	243.76
750.00	243.65
750.33	243.56
750.65	243.37
750.98	242.91
751.31	242.79
751.64	242.62
751.97	242.45
752.29	242.38
752.62	242.10
752.95	241.99
753.28	241.81
753.60	241.66
753.93	241.49
754.26	241.32
754.59	241.15
754.91	241.00
755.24	240.81
755.57	240.73
755.90	240.63
756.22	240.52
756.55	240.32
756.88	240.20
757.20	240.00
757.53	239.85
757.86	239.73
758.19	239.58
758.51	239.45
758.84	239.29
759.17	239.30
759.49	239.23
759.82	239.21
760.15	239.16
760.47	239.19
760.80	239.12
761.13	239.14
761.45	238.95
761.78	238.86
762.11	238.79
762.43	238.66
762.76	238.56
763.08	238.48
763.41	238.50
763.74	238.26
764.06	238.16
764.39	238.12
764.71	238.14
765.04	238.05
765.37	237.97
765.69	237.88
766.02	237.72
766.34	237.61
766.67	237.44
767.00	237.36
767.32	237.20
767.65	237.15
767.97	237.08
768.30	237.08
768.62	236.96
768.95	236.90
769.27	236.80
769.60	236.78
769.92	236.66
770.25	236.45
770.57	236.48
770.90	236.35
771.22	236.25
771.55	236.07
771.87	235.99
772.20	235.93
772.52	236.03
772.85	236.02
773.17	235.91
773.50	235.88
773.82	235.71
774.15	235.60
774.47	235.46
774.80	235.41
775.12	235.20
775.45	235.09
775.77	234.97
776.09	234.90
776.42	234.60
776.74	234.62
777.07	234.72
777.39	234.61
777.72	234.65
778.04	234.64
778.36	234.65
778.69	234.56
779.01	234.51
779.33	234.27
779.66	234.05
779.98	233.96
780.31	233.83
780.63	233.92
780.95	233.88
781.28	233.82
781.60	233.69
781.92	233.82
782.25	233.80
782.57	233.76
782.89	233.68
783.22	233.80
783.54	233.69
783.86	233.57
784.19	233.56
784.51	233.42
784.83	233.25
785.16	233.20
785.48	233.10
785.80	232.97
786.12	232.96
786.45	232.90
786.77	232.88
787.09	232.76
787.42	232.61
787.74	232.60
788.06	232.51
788.38	232.48
788.71	232.30
789.03	232.25
