SpectraSuite Data File
++++++++++++++++++++++++++++++++++++
Date: Fri Feb 01 14:33:44 EST 2013
User: group
Dark Spectrum Present: No
Reference Spectrum Present: No
Number of Sampled Component Spectra: 1
Spectrometers: USB2E7196
Integration Time (usec): 70000 (USB2E7196)
Spectra Averaged: 10 (USB2E7196)
Boxcar Smoothing: 10 (USB2E7196)
Correct for Electrical Dark: No (USB2E7196)
Strobe/Lamp Enabled: No (USB2E7196)
Correct for Detector Non-linearity: No (USB2E7196)
Correct for Stray Light: No (USB2E7196)
Number of Pixels in Processed Spectrum: 2048
>>>>>Begin Processed Spectral Data<<<<<
339.09	0.00
339.48	217.00
339.86	218.30
340.24	219.50
340.63	220.30
341.01	223.90
341.39	223.90
341.78	223.60
342.16	225.50
342.54	227.10
342.93	214.74
343.31	225.53
343.69	226.00
344.07	226.40
344.46	226.79
344.84	227.20
345.22	227.42
345.60	227.60
345.99	227.81
346.37	227.91
346.75	227.97
347.13	228.10
347.52	228.18
347.90	228.28
348.28	228.29
348.66	228.42
349.05	228.40
349.43	228.34
349.81	228.48
350.19	228.51
350.57	228.65
350.96	228.54
351.34	228.68
351.72	228.77
352.10	228.90
352.48	228.97
352.87	229.02
353.25	229.10
353.63	229.20
354.01	229.36
354.39	229.50
354.77	229.64
355.15	229.72
355.54	229.83
355.92	229.81
356.30	229.91
356.68	230.03
357.06	230.03
357.44	229.96
357.82	229.99
358.20	230.00
358.58	229.99
358.97	230.11
359.35	230.18
359.73	230.25
360.11	230.30
360.49	230.37
360.87	230.34
361.25	230.45
361.63	230.59
362.01	230.61
362.39	230.54
362.77	230.54
363.15	230.46
363.53	230.50
363.91	230.52
364.29	230.49
364.67	230.29
365.05	230.28
365.43	230.43
365.81	230.47
366.19	230.54
366.57	230.61
366.95	230.64
367.33	230.63
367.71	230.57
368.09	230.53
368.47	230.53
368.85	230.54
369.23	230.38
369.61	230.25
369.99	230.26
370.37	230.38
370.75	230.52
371.13	230.48
371.51	230.35
371.89	230.31
372.27	230.31
372.65	230.35
373.03	230.38
373.41	230.24
373.78	230.17
374.16	230.12
374.54	230.07
374.92	229.94
375.30	229.81
375.68	229.79
376.06	229.74
376.44	229.64
376.82	229.58
377.19	229.65
377.57	229.52
377.95	229.31
378.33	229.12
378.71	228.93
379.09	228.88
379.47	228.80
379.84	228.73
380.22	228.61
380.60	228.44
380.98	228.36
381.36	228.35
381.73	228.30
382.11	228.28
382.49	228.14
382.87	228.17
383.25	228.11
383.62	228.24
384.00	228.13
384.38	228.10
384.76	228.11
385.13	228.03
385.51	228.06
385.89	228.12
386.27	228.11
386.64	228.00
387.02	227.96
387.40	227.97
387.78	227.90
388.15	227.88
388.53	227.92
388.91	227.98
389.29	228.00
389.66	228.00
390.04	227.95
390.42	228.05
390.79	227.93
391.17	228.02
391.55	227.86
391.92	227.89
392.30	227.91
392.68	227.93
393.05	227.97
393.43	227.95
393.81	227.97
394.18	228.03
394.56	228.09
394.94	228.21
395.31	228.36
395.69	228.49
396.06	228.54
396.44	228.53
396.82	228.51
397.19	228.71
397.57	228.86
397.95	229.06
398.32	228.97
398.70	229.15
399.07	229.28
399.45	229.45
399.82	229.60
400.20	229.67
400.58	229.78
400.95	229.88
401.33	230.07
401.70	230.36
402.08	230.51
402.45	230.70
402.83	231.08
403.20	231.24
403.58	231.45
403.95	231.90
404.33	232.23
404.71	232.55
405.08	232.98
405.46	233.19
405.83	233.54
406.21	234.03
406.58	234.48
406.96	234.96
407.33	235.39
407.70	235.99
408.08	236.92
408.45	237.59
408.83	238.28
409.20	239.01
409.58	239.69
409.95	240.57
410.33	241.48
410.70	242.24
411.08	243.19
411.45	244.26
411.82	245.17
412.20	246.33
412.57	247.72
412.95	248.77
413.32	250.23
413.69	251.66
414.07	253.18
414.44	254.84
414.82	256.50
415.19	258.43
415.56	260.34
415.94	262.21
416.31	264.60
416.68	266.97
417.06	269.55
417.43	271.95
417.81	274.84
418.18	277.59
418.55	280.68
418.93	283.94
419.30	287.35
419.67	290.97
420.04	294.75
420.42	298.52
420.79	302.92
421.16	307.28
421.54	311.66
421.91	316.32
422.28	321.26
422.66	326.44
423.03	331.35
423.40	336.72
423.77	342.44
424.15	348.02
424.52	354.00
424.89	360.34
425.26	366.57
425.64	372.35
426.01	378.86
426.38	385.55
426.75	392.46
427.13	399.51
427.50	406.95
427.87	414.60
428.24	422.35
428.61	429.76
428.99	437.67
429.36	446.63
429.73	455.29
430.10	463.81
430.47	472.70
430.85	481.93
431.22	491.42
431.59	501.13
431.96	510.84
432.33	521.42
432.70	532.02
433.08	544.21
433.45	555.79
433.82	567.14
434.19	579.87
434.56	592.39
434.93	604.27
435.30	616.11
435.68	629.46
436.05	642.27
436.42	655.31
436.79	667.35
437.16	680.00
437.53	693.50
437.90	706.77
438.27	719.73
438.64	733.25
439.01	745.80
439.38	757.28
439.75	768.12
440.13	780.54
440.50	792.28
440.87	802.01
441.24	811.93
441.61	823.50
441.98	831.93
442.35	841.61
442.72	851.59
443.09	861.25
443.46	867.34
443.83	871.86
444.20	875.85
444.57	881.35
444.94	884.32
445.31	887.52
445.68	890.80
446.05	893.17
446.42	893.31
446.79	893.37
447.16	893.35
447.53	893.76
447.90	890.67
448.27	887.10
448.64	881.59
449.01	878.50
449.37	871.00
449.74	863.90
450.11	855.04
450.48	845.49
450.85	835.73
451.22	827.50
451.59	819.72
451.96	812.22
452.33	801.41
452.70	792.42
453.07	780.64
453.43	768.89
453.80	757.10
454.17	746.14
454.54	735.31
454.91	723.56
455.28	712.25
455.65	701.60
456.02	690.67
456.38	681.71
456.75	670.14
457.12	660.78
457.49	651.32
457.86	642.48
458.23	634.50
458.59	625.50
458.96	616.44
459.33	608.63
459.70	600.70
460.07	594.60
460.43	586.84
460.80	579.77
461.17	573.44
461.54	567.06
461.91	560.77
462.27	554.61
462.64	549.35
463.01	543.50
463.38	537.58
463.74	532.26
464.11	527.18
464.48	522.62
464.85	517.43
465.21	513.58
465.58	509.39
465.95	504.51
466.32	500.58
466.68	496.53
467.05	492.45
467.42	488.35
467.78	484.19
468.15	480.17
468.52	477.28
468.88	473.41
469.25	469.85
469.62	467.02
469.98	464.05
470.35	461.18
470.72	458.32
471.08	455.39
471.45	452.87
471.82	450.42
472.18	447.70
472.55	445.86
472.92	443.62
473.28	441.50
473.65	439.44
474.02	437.53
474.38	435.83
474.75	434.42
475.11	432.89
475.48	431.54
475.85	430.45
476.21	429.50
476.58	428.60
476.94	427.77
477.31	426.83
477.67	425.90
478.04	425.11
478.41	424.53
478.77	424.40
479.14	423.84
479.50	423.48
479.87	423.57
480.23	423.70
480.60	423.45
480.96	423.46
481.33	423.80
481.69	424.04
482.06	424.23
482.42	424.08
482.79	424.21
483.15	424.92
483.52	425.83
483.88	426.43
484.25	427.23
484.61	428.27
484.98	429.24
485.34	430.55
485.71	432.15
486.07	433.76
486.44	435.00
486.80	436.66
487.17	438.46
487.53	440.29
487.90	442.18
488.26	444.50
488.62	446.70
488.99	448.89
489.35	451.33
489.72	454.02
490.08	457.10
490.44	460.06
490.81	462.80
491.17	465.46
491.54	468.76
491.90	471.99
492.26	475.54
492.63	479.17
492.99	482.87
493.36	486.75
493.72	490.69
494.08	494.69
494.45	498.98
494.81	503.45
495.17	507.79
495.54	512.48
495.90	517.03
496.26	521.85
496.63	526.93
496.99	532.03
497.35	537.26
497.72	542.46
498.08	547.80
498.44	553.57
498.80	559.80
499.17	565.56
499.53	571.40
499.89	577.22
500.26	583.05
500.62	588.85
500.98	594.87
501.34	600.97
501.71	607.38
502.07	613.44
502.43	619.72
502.79	626.22
503.16	632.67
503.52	639.11
503.88	645.36
504.24	651.86
504.60	658.41
504.97	664.91
505.33	671.69
505.69	678.72
506.05	685.46
506.41	691.75
506.78	698.15
507.14	704.69
507.50	711.33
507.86	718.08
508.22	725.07
508.59	731.38
508.95	738.09
509.31	744.54
509.67	751.32
510.03	757.77
510.39	764.04
510.75	770.28
511.12	776.75
511.48	783.07
511.84	789.29
512.20	795.44
512.56	801.81
512.92	807.85
513.28	813.77
513.64	819.56
514.00	825.38
514.37	831.23
514.73	836.93
515.09	842.30
515.45	847.58
515.81	852.52
516.17	858.14
516.53	863.43
516.89	868.63
517.25	873.59
517.61	878.45
517.97	883.33
518.33	887.82
518.69	892.08
519.05	896.79
519.41	901.39
519.77	906.11
520.13	910.23
520.49	914.30
520.85	918.10
521.21	922.25
521.57	926.25
521.93	930.12
522.29	934.25
522.65	937.74
523.01	941.30
523.37	944.84
523.73	948.12
524.09	951.37
524.45	954.87
524.81	958.24
525.17	961.94
525.53	965.44
525.89	968.95
526.25	972.69
526.61	975.72
526.97	978.96
527.33	981.73
527.68	985.17
528.04	988.19
528.40	991.63
528.76	994.61
529.12	997.88
529.48	1001.26
529.84	1003.70
530.20	1007.29
530.56	1010.87
530.91	1014.51
531.27	1017.95
531.63	1020.99
531.99	1024.05
532.35	1027.21
532.71	1029.60
533.07	1032.61
533.42	1035.44
533.78	1038.06
534.14	1040.99
534.50	1043.30
534.86	1046.14
535.21	1048.46
535.57	1051.33
535.93	1053.96
536.29	1056.60
536.65	1059.08
537.00	1061.11
537.36	1064.12
537.72	1066.45
538.08	1068.44
538.44	1070.62
538.79	1072.80
539.15	1074.80
539.51	1077.03
539.87	1079.19
540.22	1082.09
540.58	1084.70
540.94	1087.01
541.29	1089.23
541.65	1091.70
542.01	1094.70
542.37	1097.01
542.72	1099.12
543.08	1101.03
543.44	1102.90
543.79	1104.47
544.15	1106.66
544.51	1109.33
544.87	1111.56
545.22	1113.79
545.58	1116.10
545.94	1117.89
546.29	1119.65
546.65	1121.61
547.01	1123.46
547.36	1125.13
547.72	1126.53
548.07	1128.03
548.43	1129.86
548.79	1131.40
549.14	1132.90
549.50	1133.84
549.86	1135.21
550.21	1136.62
550.57	1138.60
550.92	1140.10
551.28	1142.11
551.64	1143.29
551.99	1144.70
552.35	1146.26
552.70	1147.80
553.06	1149.40
553.41	1150.81
553.77	1152.11
554.13	1153.68
554.48	1155.01
554.84	1156.69
555.19	1158.08
555.55	1159.30
555.90	1159.90
556.26	1161.70
556.61	1163.12
556.97	1164.24
557.32	1165.48
557.68	1166.87
558.03	1167.75
558.39	1168.86
558.74	1170.18
559.10	1171.44
559.45	1172.16
559.81	1173.37
560.16	1174.26
560.52	1175.19
560.87	1176.49
561.23	1177.68
561.58	1178.94
561.94	1179.88
562.29	1180.54
562.64	1181.10
563.00	1181.89
563.35	1183.51
563.71	1184.49
564.06	1185.26
564.42	1186.62
564.77	1187.68
565.12	1188.65
565.48	1189.69
565.83	1190.55
566.19	1191.30
566.54	1192.01
566.89	1192.78
567.25	1193.20
567.60	1193.87
567.96	1194.59
568.31	1194.85
568.66	1195.26
569.02	1195.43
569.37	1195.75
569.72	1195.91
570.08	1196.25
570.43	1196.38
570.78	1196.00
571.14	1195.61
571.49	1195.60
571.84	1195.58
572.20	1195.15
572.55	1194.68
572.90	1193.86
573.26	1193.16
573.61	1192.24
573.96	1191.81
574.31	1190.79
574.67	1189.20
575.02	1188.00
575.37	1186.60
575.72	1184.85
576.08	1183.56
576.43	1182.01
576.78	1180.70
577.13	1179.43
577.49	1178.05
577.84	1176.51
578.19	1175.41
578.54	1173.69
578.90	1171.78
579.25	1169.28
579.60	1167.47
579.95	1165.45
580.30	1163.51
580.66	1161.92
581.01	1159.81
581.36	1157.57
581.71	1155.45
582.06	1153.55
582.42	1151.35
582.77	1149.06
583.12	1147.38
583.47	1145.34
583.82	1143.61
584.17	1141.07
584.53	1138.78
584.88	1136.24
585.23	1133.91
585.58	1131.40
585.93	1129.23
586.28	1127.00
586.63	1125.33
586.98	1122.97
587.34	1120.94
587.69	1118.77
588.04	1116.50
588.39	1114.34
588.74	1111.40
589.09	1109.04
589.44	1106.31
589.79	1103.85
590.14	1101.58
590.49	1099.14
590.84	1096.42
591.19	1093.46
591.54	1090.47
591.89	1087.03
592.25	1084.48
592.60	1081.08
592.95	1077.85
593.30	1074.42
593.65	1071.03
594.00	1067.30
594.35	1064.80
594.70	1061.07
595.05	1057.87
595.40	1054.00
595.75	1050.66
596.10	1047.56
596.45	1044.61
596.80	1041.77
597.15	1038.76
597.50	1035.10
597.85	1031.97
598.19	1028.87
598.54	1025.93
598.89	1023.10
599.24	1020.72
599.59	1017.22
599.94	1014.56
600.29	1011.40
600.64	1008.45
600.99	1005.10
601.34	1002.02
601.69	997.80
602.04	994.85
602.39	991.53
602.74	988.62
603.08	985.43
603.43	982.45
603.78	979.16
604.13	975.67
604.48	972.09
604.83	969.02
605.18	965.71
605.53	961.92
605.87	958.04
606.22	954.49
606.57	950.70
606.92	947.66
607.27	944.23
607.62	941.08
607.96	937.91
608.31	934.91
608.66	931.42
609.01	928.01
609.36	924.02
609.70	919.99
610.05	916.06
610.40	912.17
610.75	908.41
611.10	904.54
611.44	900.34
611.79	896.69
612.14	892.64
612.49	888.25
612.83	884.44
613.18	880.68
613.53	877.08
613.88	873.01
614.22	869.27
614.57	865.15
614.92	861.03
615.27	856.73
615.61	852.50
615.96	848.60
616.31	844.86
616.65	841.75
617.00	838.41
617.35	834.68
617.70	830.87
618.04	826.58
618.39	822.50
618.74	819.05
619.08	814.96
619.43	811.29
619.78	807.69
620.12	804.00
620.47	800.19
620.82	796.01
621.16	792.60
621.51	788.71
621.85	785.11
622.20	781.50
622.55	777.93
622.89	774.34
623.24	770.91
623.59	767.51
623.93	763.81
624.28	760.23
624.62	756.80
624.97	753.50
625.32	750.51
625.66	747.41
626.01	744.03
626.35	740.68
626.70	737.35
627.04	734.41
627.39	730.91
627.73	727.72
628.08	724.83
628.43	721.25
628.77	717.93
629.12	714.25
629.46	710.89
629.81	707.35
630.15	703.83
630.50	700.36
630.84	696.82
631.19	693.03
631.53	689.55
631.88	685.87
632.22	682.00
632.57	678.67
632.91	675.19
633.26	671.88
633.60	668.52
633.95	665.41
634.29	661.97
634.64	659.10
634.98	655.81
635.32	652.61
635.67	649.73
636.01	646.69
636.36	643.77
636.70	640.69
637.05	637.69
637.39	635.04
637.73	632.12
638.08	629.38
638.42	626.72
638.77	623.95
639.11	621.28
639.45	618.72
639.80	615.79
640.14	612.84
640.49	610.00
640.83	607.27
641.17	604.24
641.52	601.15
641.86	597.93
642.20	595.26
642.55	592.30
642.89	589.60
643.23	586.54
643.58	584.18
643.92	581.24
644.26	578.95
644.61	576.26
644.95	573.57
645.29	570.53
645.64	567.65
645.98	564.83
646.32	562.15
646.66	559.23
647.01	556.35
647.35	553.79
647.69	551.16
648.04	548.71
648.38	545.85
648.72	543.19
649.06	540.68
649.41	537.84
649.75	535.03
650.09	532.22
650.43	529.65
650.78	526.62
651.12	524.04
651.46	521.25
651.80	518.73
652.14	516.10
652.49	513.56
652.83	511.13
653.17	508.69
653.51	506.11
653.85	503.81
654.20	501.33
654.54	498.68
654.88	496.08
655.22	493.28
655.56	490.83
655.90	488.35
656.25	485.85
656.59	483.52
656.93	481.26
657.27	478.93
657.61	476.60
657.95	474.45
658.29	472.28
658.64	469.90
658.98	467.31
659.32	464.93
659.66	462.76
660.00	460.46
660.34	458.12
660.68	455.93
661.02	453.53
661.36	451.41
661.70	449.21
662.05	447.35
662.39	445.35
662.73	443.33
663.07	441.72
663.41	439.78
663.75	437.80
664.09	435.79
664.43	433.81
664.77	431.88
665.11	429.85
665.45	427.83
665.79	425.88
666.13	424.04
666.47	422.04
666.81	420.05
667.15	418.16
667.49	416.38
667.83	414.75
668.17	413.00
668.51	411.19
668.85	409.43
669.19	407.60
669.53	405.76
669.87	404.00
670.21	402.03
670.55	400.35
670.89	398.72
671.23	397.21
671.57	395.65
671.91	393.98
672.25	392.59
672.58	391.10
672.92	389.52
673.26	388.05
673.60	386.69
673.94	385.24
674.28	383.90
674.62	382.61
674.96	381.13
675.30	379.86
675.64	378.50
675.97	377.21
676.31	375.75
676.65	374.47
676.99	373.34
677.33	371.94
677.67	370.64
678.01	369.28
678.34	367.98
678.68	366.67
679.02	365.48
679.36	364.06
679.70	362.76
680.04	361.43
680.37	360.07
680.71	358.98
681.05	357.92
681.39	356.70
681.73	355.37
682.06	354.13
682.40	352.89
682.74	351.83
683.08	350.80
683.42	349.68
683.75	348.58
684.09	347.45
684.43	346.44
684.77	345.20
685.10	344.16
685.44	343.14
685.78	342.04
686.12	340.98
686.45	339.85
686.79	338.76
687.13	337.77
687.46	336.78
687.80	335.54
688.14	334.40
688.48	333.42
688.81	332.30
689.15	331.31
689.49	330.20
689.82	329.24
690.16	328.15
690.50	327.28
690.83	326.31
691.17	325.09
691.51	324.08
691.84	323.24
692.18	322.25
692.52	321.14
692.85	320.20
693.19	319.25
693.52	318.32
693.86	317.36
694.20	316.59
694.53	315.71
694.87	314.87
695.21	313.88
695.54	312.95
695.88	311.97
696.21	311.06
696.55	310.27
696.88	309.30
697.22	308.39
697.56	307.50
697.89	306.55
698.23	305.90
698.56	305.10
698.90	304.35
699.23	303.50
699.57	302.62
699.90	301.70
700.24	300.87
700.58	300.10
700.91	299.28
701.25	298.46
701.58	297.77
701.92	297.14
702.25	296.34
702.59	295.50
702.92	294.88
703.26	294.19
703.59	293.49
703.93	292.95
704.26	292.18
704.60	291.44
704.93	290.78
705.26	290.13
705.60	289.47
705.93	288.67
706.27	288.05
706.60	287.50
706.94	287.05
707.27	286.33
707.61	285.79
707.94	285.19
708.27	284.50
708.61	283.69
708.94	283.03
709.28	282.63
709.61	282.15
709.94	281.58
710.28	280.95
710.61	280.47
710.95	279.72
711.28	279.30
711.61	278.68
711.95	278.18
712.28	277.59
712.61	276.95
712.95	276.58
713.28	276.09
713.61	275.47
713.95	274.83
714.28	274.28
714.61	273.69
714.95	273.20
715.28	272.67
715.61	272.28
715.95	271.76
716.28	271.22
716.61	270.71
716.95	270.17
717.28	269.72
717.61	269.13
717.94	268.65
718.28	268.16
718.61	267.76
718.94	267.48
719.27	267.06
719.61	266.71
719.94	266.23
720.27	265.71
720.60	265.36
720.94	264.96
721.27	264.68
721.60	264.33
721.93	263.98
722.27	263.75
722.60	263.48
722.93	263.20
723.26	262.84
723.59	262.50
723.93	262.19
724.26	261.94
724.59	261.67
724.92	261.28
725.25	261.08
725.59	260.72
725.92	260.30
726.25	259.97
726.58	259.65
726.91	259.34
727.24	259.08
727.57	258.86
727.91	258.57
728.24	258.29
728.57	257.99
728.90	257.79
729.23	257.34
729.56	257.07
729.89	256.61
730.22	256.40
730.55	256.07
730.89	255.86
731.22	255.53
731.55	255.27
731.88	255.11
732.21	254.74
732.54	254.48
732.87	254.09
733.20	253.78
733.53	253.53
733.86	253.27
734.19	252.98
734.52	252.73
734.85	252.47
735.18	252.17
735.51	251.97
735.84	251.65
736.17	251.58
736.50	251.24
736.83	251.35
737.16	251.06
737.49	250.89
737.82	250.58
738.15	250.33
738.48	250.09
738.81	249.83
739.14	249.60
739.47	249.36
739.80	249.16
740.13	248.93
740.46	248.71
740.79	248.42
741.12	248.17
741.45	247.87
741.78	247.60
742.11	247.46
742.44	247.16
742.77	246.91
743.10	246.54
743.43	246.27
743.75	245.68
744.08	245.69
744.41	245.47
744.74	245.20
745.07	244.97
745.40	244.81
745.73	244.74
746.06	244.52
746.39	244.28
746.71	244.13
747.04	243.93
747.37	243.72
747.70	243.52
748.03	243.34
748.36	243.23
748.68	243.07
749.01	242.88
749.34	242.80
749.67	242.65
750.00	242.56
750.33	242.54
750.65	242.56
750.98	242.13
751.31	241.95
751.64	241.87
751.97	241.85
752.29	241.63
752.62	241.23
752.95	241.16
753.28	241.13
753.60	240.98
753.93	240.91
754.26	240.81
754.59	240.66
754.91	240.49
755.24	240.37
755.57	240.22
755.90	240.00
756.22	239.76
756.55	239.61
756.88	239.55
757.20	239.29
757.53	239.08
757.86	239.04
758.19	238.93
758.51	238.93
758.84	238.58
759.17	238.55
759.49	238.63
759.82	238.58
760.15	238.49
760.47	238.40
760.80	238.28
761.13	238.16
761.45	238.19
761.78	238.17
762.11	238.14
762.43	238.04
762.76	238.03
763.08	237.98
763.41	237.93
763.74	237.77
764.06	237.72
764.39	237.67
764.71	237.60
765.04	237.57
765.37	237.48
765.69	237.53
766.02	237.38
766.34	237.33
766.67	237.22
767.00	237.12
767.32	237.18
767.65	237.15
767.97	237.07
768.30	236.94
768.62	236.91
768.95	236.74
769.27	236.71
769.60	236.61
769.92	236.55
770.25	236.48
770.57	236.35
770.90	236.36
771.22	236.23
771.55	236.13
771.87	236.13
772.20	236.02
772.52	236.18
772.85	236.37
773.17	236.21
773.50	236.18
773.82	236.07
774.15	235.91
774.47	235.84
774.80	235.71
775.12	235.67
775.45	235.56
775.77	235.55
776.09	235.41
776.42	235.39
776.74	235.33
777.07	235.22
777.39	235.20
777.72	235.11
778.04	235.02
778.36	234.91
778.69	234.76
779.01	234.67
779.33	234.41
779.66	234.17
779.98	234.00
780.31	233.80
780.63	233.85
780.95	233.76
781.28	233.70
781.60	233.68
781.92	233.59
782.25	233.44
782.57	233.36
782.89	233.39
783.22	233.32
783.54	233.27
783.86	233.15
784.19	233.14
784.51	233.02
784.83	232.89
785.16	232.79
785.48	232.69
785.80	232.65
786.12	232.57
786.45	232.53
786.77	232.61
787.09	232.60
787.42	232.49
787.74	232.40
788.06	232.29
788.38	232.18
788.71	232.11
789.03	232.03
789.35	231.96
789.67	231.82
789.99	231.70
