SpectraSuite Data File
++++++++++++++++++++++++++++++++++++
Date: Fri Feb 01 14:37:25 EST 2013
User: group
Dark Spectrum Present: No
Reference Spectrum Present: No
Number of Sampled Component Spectra: 1
Spectrometers: USB2E7196
Integration Time (usec): 70000 (USB2E7196)
Spectra Averaged: 10 (USB2E7196)
Boxcar Smoothing: 10 (USB2E7196)
Correct for Electrical Dark: No (USB2E7196)
Strobe/Lamp Enabled: No (USB2E7196)
Correct for Detector Non-linearity: No (USB2E7196)
Correct for Stray Light: No (USB2E7196)
Number of Pixels in Processed Spectrum: 2048
>>>>>Begin Processed Spectral Data<<<<<
339.09	0.00
339.48	216.80
339.86	219.10
340.24	218.30
340.63	219.20
341.01	225.30
341.39	223.90
341.78	224.20
342.16	225.80
342.54	227.50
342.93	214.79
343.31	225.71
343.69	226.31
344.07	226.69
344.46	227.15
344.84	227.53
345.22	227.70
345.60	228.01
345.99	228.25
346.37	228.34
346.75	228.35
347.13	228.49
347.52	228.50
347.90	228.68
348.28	228.61
348.66	228.60
349.05	228.53
349.43	228.57
349.81	228.70
350.19	228.71
350.57	228.80
350.96	228.90
351.34	228.93
351.72	228.98
352.10	229.10
352.48	229.13
352.87	229.30
353.25	229.35
353.63	229.25
354.01	229.25
354.39	229.32
354.77	229.37
355.15	229.37
355.54	229.47
355.92	229.42
356.30	229.54
356.68	229.77
357.06	229.84
357.44	229.90
357.82	229.91
358.20	230.04
358.58	230.10
358.97	230.25
359.35	230.30
359.73	230.32
360.11	230.35
360.49	230.43
360.87	230.47
361.25	230.51
361.63	230.64
362.01	230.74
362.39	230.73
362.77	230.76
363.15	230.88
363.53	230.89
363.91	230.77
364.29	230.69
364.67	230.50
365.05	230.46
365.43	230.48
365.81	230.56
366.19	230.60
366.57	230.70
366.95	230.45
367.33	230.37
367.71	230.34
368.09	230.32
368.47	230.23
368.85	230.10
369.23	230.05
369.61	229.86
369.99	229.80
370.37	229.80
370.75	229.79
371.13	229.56
371.51	229.39
371.89	229.40
372.27	229.39
372.65	229.35
373.03	229.38
373.41	229.27
373.78	229.12
374.16	228.96
374.54	228.71
374.92	228.70
375.30	228.66
375.68	228.55
376.06	228.50
376.44	228.42
376.82	228.43
377.19	228.35
377.57	228.39
377.95	228.29
378.33	228.10
378.71	228.00
379.09	227.98
379.47	227.99
379.84	227.90
380.22	227.73
380.60	227.52
380.98	227.48
381.36	227.46
381.73	227.30
382.11	227.20
382.49	227.18
382.87	227.06
383.25	226.91
383.62	226.99
384.00	226.83
384.38	226.77
384.76	226.64
385.13	226.66
385.51	226.51
385.89	226.47
386.27	226.49
386.64	226.40
387.02	226.38
387.40	226.35
387.78	226.34
388.15	226.40
388.53	226.44
388.91	226.28
389.29	226.16
389.66	226.31
390.04	226.28
390.42	226.30
390.79	226.33
391.17	226.43
391.55	226.25
391.92	226.30
392.30	226.31
392.68	226.33
393.05	226.26
393.43	226.37
393.81	226.40
394.18	226.37
394.56	226.52
394.94	226.50
395.31	226.39
395.69	226.49
396.06	226.49
396.44	226.56
396.82	226.57
397.19	226.73
397.57	226.67
397.95	226.68
398.32	226.59
398.70	226.79
399.07	226.87
399.45	226.86
399.82	226.92
400.20	227.04
400.58	227.13
400.95	227.23
401.33	227.41
401.70	227.65
402.08	227.94
402.45	228.10
402.83	228.34
403.20	228.69
403.58	228.88
403.95	229.13
404.33	229.37
404.71	229.70
405.08	229.93
405.46	230.14
405.83	230.53
406.21	230.84
406.58	231.01
406.96	231.29
407.33	231.66
407.70	231.92
408.08	232.29
408.45	232.61
408.83	232.87
409.20	233.12
409.58	233.33
409.95	233.63
410.33	234.04
410.70	234.43
411.08	234.83
411.45	235.25
411.82	235.71
412.20	236.20
412.57	236.77
412.95	237.32
413.32	238.04
413.69	238.65
414.07	239.33
414.44	240.00
414.82	240.65
415.19	241.53
415.56	242.40
415.94	243.30
416.31	244.30
416.68	245.42
417.06	246.53
417.43	247.60
417.81	248.85
418.18	250.12
418.55	251.44
418.93	252.83
419.30	254.36
419.67	255.85
420.04	257.41
420.42	259.01
420.79	260.95
421.16	262.83
421.54	264.88
421.91	266.95
422.28	269.27
422.66	271.55
423.03	273.83
423.40	276.01
423.77	278.44
424.15	280.91
424.52	283.48
424.89	286.29
425.26	288.96
425.64	291.50
426.01	294.33
426.38	297.36
426.75	300.43
427.13	303.46
427.50	306.68
427.87	310.02
428.24	313.47
428.61	316.57
428.99	320.21
429.36	323.96
429.73	327.61
430.10	331.12
430.47	334.89
430.85	338.94
431.22	343.28
431.59	347.87
431.96	352.20
432.33	356.80
432.70	361.26
433.08	366.67
433.45	371.59
433.82	376.40
434.19	381.77
434.56	387.19
434.93	392.36
435.30	397.53
435.68	403.17
436.05	408.69
436.42	414.26
436.79	419.24
437.16	424.70
437.53	430.62
437.90	436.52
438.27	442.30
438.64	447.90
439.01	453.22
439.38	457.76
439.75	462.29
440.13	467.74
440.50	472.88
440.87	477.00
441.24	481.40
441.61	486.26
441.98	489.71
442.35	493.74
442.72	497.96
443.09	502.10
443.46	504.79
443.83	506.71
444.20	508.54
444.57	510.86
444.94	512.16
445.31	513.48
445.68	514.88
446.05	515.77
446.42	515.82
446.79	515.98
447.16	515.89
447.53	516.03
447.90	514.56
448.27	513.05
448.64	510.81
449.01	509.44
449.37	506.27
449.74	503.30
450.11	499.40
450.48	495.34
450.85	491.19
451.22	487.68
451.59	484.25
451.96	480.56
452.33	475.87
452.70	471.73
453.07	466.62
453.43	461.14
453.80	455.91
454.17	450.91
454.54	446.16
454.91	441.18
455.28	436.21
455.65	431.46
456.02	426.87
456.38	422.79
456.75	417.78
457.12	413.57
457.49	409.42
457.86	405.39
458.23	401.80
458.59	397.75
458.96	393.85
459.33	390.40
459.70	387.16
460.07	384.39
460.43	381.03
460.80	377.96
461.17	375.38
461.54	372.59
461.91	369.93
462.27	366.96
462.64	364.45
463.01	361.71
463.38	359.13
463.74	356.48
464.11	354.23
464.48	352.20
464.85	350.06
465.21	348.32
465.58	346.58
465.95	344.37
466.32	342.45
466.68	340.31
467.05	338.50
467.42	336.58
467.78	334.68
468.15	332.89
468.52	331.37
468.88	329.46
469.25	327.83
469.62	326.35
469.98	325.01
470.35	323.72
470.72	322.51
471.08	321.12
471.45	319.90
471.82	318.48
472.18	316.90
472.55	315.87
472.92	314.82
473.28	313.78
473.65	312.60
474.02	311.64
474.38	310.80
474.75	309.81
475.11	308.89
475.48	308.17
475.85	307.63
476.21	307.13
476.58	306.60
476.94	306.09
477.31	305.62
477.67	305.01
478.04	304.38
478.41	304.00
478.77	303.79
479.14	303.25
479.50	303.06
479.87	302.86
480.23	302.43
480.60	301.88
480.96	301.61
481.33	301.65
481.69	301.64
482.06	301.58
482.42	301.38
482.79	301.38
483.15	301.35
483.52	301.34
483.88	301.26
484.25	301.25
484.61	301.22
484.98	301.25
485.34	301.53
485.71	301.93
486.07	302.11
486.44	302.14
486.80	302.49
487.17	302.71
487.53	303.24
487.90	303.74
488.26	304.29
488.62	304.79
488.99	305.20
489.35	305.56
489.72	305.95
490.08	306.51
490.44	307.02
490.81	307.62
491.17	308.09
491.54	308.74
491.90	309.45
492.26	310.27
492.63	310.94
492.99	311.47
493.36	312.03
493.72	312.66
494.08	313.40
494.45	314.21
494.81	315.01
495.17	315.56
495.54	316.12
495.90	316.93
496.26	317.58
496.63	318.45
496.99	319.15
497.35	319.99
497.72	320.95
498.08	321.80
498.44	322.46
498.80	323.34
499.17	324.07
499.53	324.83
499.89	325.61
500.26	326.40
500.62	327.15
500.98	327.93
501.34	328.74
501.71	329.50
502.07	330.00
502.43	330.50
502.79	331.17
503.16	331.82
503.52	332.33
503.88	332.74
504.24	333.16
504.60	333.74
504.97	334.07
505.33	334.39
505.69	334.87
506.05	335.34
506.41	335.50
506.78	335.73
507.14	336.04
507.50	336.27
507.86	336.53
508.22	336.72
508.59	336.91
508.95	337.01
509.31	337.21
509.67	337.46
510.03	337.71
510.39	337.86
510.75	337.97
511.12	338.05
511.48	338.21
511.84	338.27
512.20	338.26
512.56	338.45
512.92	338.54
513.28	338.45
513.64	338.40
514.00	338.63
514.37	338.76
514.73	338.70
515.09	338.68
515.45	338.70
515.81	338.83
516.17	338.97
516.53	338.91
516.89	338.93
517.25	339.09
517.61	339.34
517.97	339.50
518.33	339.75
518.69	340.02
519.05	340.25
519.41	340.58
519.77	341.07
520.13	341.40
520.49	341.72
520.85	342.25
521.21	342.71
521.57	343.12
521.93	343.66
522.29	344.31
522.65	345.00
523.01	345.68
523.37	346.38
523.73	347.17
524.09	348.16
524.45	349.09
524.81	350.02
525.17	351.07
525.53	352.20
525.89	353.49
526.25	354.81
526.61	356.18
526.97	357.40
527.33	358.80
527.68	360.52
528.04	362.37
528.40	364.03
528.76	365.97
529.12	368.07
529.48	370.00
529.84	372.10
530.20	374.10
530.56	376.50
530.91	378.92
531.27	381.35
531.63	383.93
531.99	386.52
532.35	389.10
532.71	391.60
533.07	394.51
533.42	397.38
533.78	400.21
534.14	403.28
534.50	406.52
534.86	409.73
535.21	412.81
535.57	415.92
535.93	419.25
536.29	422.69
536.65	426.13
537.00	429.58
537.36	433.27
537.72	436.95
538.08	440.73
538.44	444.41
538.79	448.15
539.15	451.86
539.51	455.94
539.87	460.02
540.22	464.20
540.58	468.40
540.94	472.37
541.29	476.57
541.65	480.72
542.01	485.16
542.37	489.42
542.72	493.87
543.08	498.31
543.44	502.80
543.79	507.02
544.15	511.53
544.51	516.38
544.87	520.99
545.22	525.61
545.58	530.14
545.94	534.64
546.29	539.30
546.65	544.00
547.01	548.37
547.36	553.00
547.72	557.70
548.07	562.26
548.43	566.89
548.79	571.61
549.14	576.08
549.50	580.55
549.86	585.10
550.21	589.72
550.57	594.61
550.92	599.34
551.28	604.14
551.64	609.08
551.99	613.85
552.35	618.51
552.70	623.27
553.06	627.96
553.41	632.65
553.77	637.40
554.13	642.09
554.48	647.03
554.84	651.89
555.19	656.38
555.55	661.20
555.90	666.01
556.26	670.55
556.61	675.36
556.97	679.98
557.32	684.64
557.68	689.28
558.03	693.53
558.39	698.03
558.74	702.80
559.10	707.10
559.45	711.26
559.81	715.91
560.16	720.38
560.52	724.78
560.87	729.46
561.23	733.80
561.58	738.47
561.94	742.75
562.29	746.84
562.64	751.05
563.00	755.09
563.35	759.51
563.71	763.66
564.06	767.99
564.42	772.13
564.77	776.19
565.12	780.16
565.48	784.38
565.83	788.30
566.19	792.02
566.54	795.83
566.89	799.78
567.25	803.21
567.60	807.10
567.96	810.94
568.31	814.45
568.66	818.01
569.02	821.36
569.37	824.66
569.72	827.93
570.08	831.25
570.43	834.36
570.78	837.04
571.14	840.20
571.49	843.10
571.84	846.18
572.20	848.77
572.55	851.50
572.90	854.06
573.26	856.85
573.61	859.35
573.96	861.61
574.31	863.74
574.67	865.83
575.02	867.80
575.37	869.79
575.72	871.52
576.08	873.40
576.43	874.83
576.78	876.60
577.13	878.52
577.49	880.44
577.84	882.11
578.19	883.90
578.54	885.35
578.90	886.63
579.25	887.72
579.60	889.14
579.95	890.20
580.30	891.27
580.66	892.02
581.01	892.70
581.36	893.64
581.71	894.63
582.06	895.68
582.42	896.41
582.77	896.90
583.12	897.67
583.47	898.36
583.82	899.23
584.17	899.75
584.53	900.13
584.88	900.46
585.23	900.70
585.58	900.77
585.93	900.86
586.28	901.15
586.63	901.51
586.98	901.77
587.34	902.13
587.69	902.23
588.04	902.56
588.39	902.92
588.74	902.65
589.09	902.46
589.44	902.26
589.79	901.87
590.14	901.95
590.49	901.63
590.84	901.21
591.19	900.98
591.54	900.26
591.89	899.08
592.25	898.53
592.60	897.80
592.95	897.20
593.30	896.31
593.65	895.47
594.00	894.57
594.35	894.13
594.70	892.76
595.05	891.90
595.40	890.47
595.75	889.17
596.10	888.33
596.45	887.29
596.80	886.34
597.15	885.25
597.50	883.64
597.85	882.72
598.19	881.62
598.54	880.42
598.89	879.44
599.24	878.83
599.59	877.53
599.94	876.50
600.29	875.26
600.64	874.21
600.99	872.54
601.34	871.01
601.69	869.00
602.04	867.79
602.39	866.27
602.74	865.31
603.08	864.28
603.43	863.09
603.78	861.67
604.13	860.01
604.48	858.54
604.83	857.14
605.18	855.56
605.53	853.57
605.87	851.20
606.22	849.35
606.57	847.47
606.92	845.77
607.27	844.34
607.62	842.54
607.96	840.67
608.31	839.06
608.66	836.95
609.01	834.99
609.36	832.68
609.70	830.22
610.05	827.57
610.40	825.06
610.75	822.54
611.10	820.07
611.44	817.09
611.79	814.80
612.14	812.48
612.49	809.56
612.83	807.24
613.18	805.00
613.53	802.65
613.88	799.89
614.22	797.15
614.57	793.87
614.92	790.98
615.27	788.65
615.61	785.88
615.96	783.38
616.31	780.74
616.65	778.88
617.00	776.49
617.35	774.23
617.70	771.56
618.04	768.72
618.39	766.40
618.74	764.29
619.08	761.44
619.43	758.76
619.78	756.29
620.12	753.65
620.47	751.28
620.82	748.39
621.16	745.89
621.51	743.52
621.85	741.33
622.20	738.94
622.55	736.07
622.89	733.83
623.24	731.34
623.59	728.89
623.93	726.21
624.28	723.76
624.62	720.90
624.97	718.46
625.32	716.21
625.66	713.68
626.01	711.41
626.35	708.98
626.70	706.52
627.04	704.29
627.39	701.63
627.73	698.94
628.08	696.70
628.43	694.30
628.77	691.57
629.12	688.78
629.46	686.19
629.81	683.55
630.15	680.60
630.50	677.70
630.84	674.82
631.19	671.64
631.53	668.71
631.88	666.04
632.22	663.00
632.57	660.39
632.91	657.42
633.26	654.40
633.60	651.59
633.95	648.71
634.29	645.86
634.64	643.40
634.98	640.57
635.32	637.93
635.67	635.48
636.01	632.90
636.36	630.18
636.70	627.66
637.05	625.01
637.39	622.71
637.73	620.37
638.08	618.42
638.42	616.35
638.77	614.11
639.11	611.52
639.45	609.25
639.80	606.51
640.14	604.15
640.49	601.68
640.83	599.14
641.17	596.75
641.52	594.23
641.86	591.67
642.20	589.39
642.55	586.81
642.89	584.17
643.23	581.68
643.58	579.30
643.92	576.75
644.26	574.25
644.61	571.86
644.95	569.39
645.29	566.46
645.64	563.50
645.98	560.81
646.32	558.66
646.66	556.20
647.01	553.77
647.35	551.33
647.69	548.97
648.04	546.79
648.38	544.30
648.72	541.80
649.06	539.25
649.41	536.83
649.75	534.23
650.09	531.70
650.43	529.04
650.78	526.50
651.12	523.86
651.46	521.62
651.80	519.08
652.14	516.78
652.49	514.49
652.83	512.26
653.17	509.94
653.51	507.52
653.85	505.18
654.20	502.75
654.54	500.29
654.88	497.70
655.22	495.02
655.56	492.43
655.90	490.04
656.25	487.80
656.59	485.46
656.93	483.28
657.27	481.00
657.61	478.68
657.95	476.50
658.29	474.36
658.64	471.97
658.98	469.67
659.32	467.27
659.66	464.98
660.00	462.72
660.34	460.59
660.68	458.27
661.02	456.12
661.36	454.23
661.70	452.15
662.05	450.17
662.39	448.29
662.73	446.46
663.07	444.72
663.41	442.85
663.75	441.01
664.09	439.09
664.43	437.16
664.77	435.37
665.11	433.54
665.45	431.83
665.79	430.06
666.13	428.20
666.47	426.46
666.81	424.50
667.15	422.86
667.49	421.03
667.83	419.45
668.17	417.60
668.51	415.50
668.85	413.82
669.19	412.22
669.53	410.64
669.87	409.04
670.21	407.31
670.55	405.57
670.89	404.07
671.23	402.47
671.57	401.08
671.91	399.54
672.25	398.00
672.58	396.40
672.92	394.90
673.26	393.41
673.60	391.92
673.94	390.61
674.28	389.08
674.62	387.81
674.96	386.26
675.30	384.89
675.64	383.86
675.97	382.49
676.31	381.12
676.65	379.76
676.99	378.44
677.33	376.97
677.67	375.62
678.01	374.03
678.34	372.57
678.68	371.12
679.02	369.71
679.36	368.23
679.70	366.86
680.04	365.43
680.37	364.15
680.71	362.83
681.05	361.62
681.39	360.47
681.73	359.10
682.06	357.95
682.40	356.93
682.74	355.46
683.08	354.27
683.42	352.97
683.75	351.74
684.09	350.45
684.43	349.27
684.77	348.07
685.10	347.02
685.44	345.98
685.78	344.78
686.12	343.67
686.45	342.63
686.79	341.60
687.13	340.58
687.46	339.45
687.80	338.39
688.14	337.14
688.48	335.89
688.81	334.76
689.15	333.66
689.49	332.35
689.82	331.25
690.16	330.09
690.50	329.10
690.83	328.00
691.17	326.85
691.51	325.87
691.84	324.94
692.18	323.77
692.52	322.66
692.85	321.67
693.19	320.73
693.52	319.69
693.86	318.61
694.20	317.62
694.53	316.67
694.87	315.68
695.21	314.73
695.54	313.76
695.88	312.86
696.21	311.88
696.55	310.90
696.88	309.99
697.22	309.09
697.56	308.22
697.89	307.32
698.23	306.50
698.56	305.59
698.90	304.62
699.23	303.68
699.57	302.83
699.90	302.00
700.24	301.06
700.58	300.28
700.91	299.45
701.25	298.72
701.58	297.96
701.92	297.13
702.25	296.50
702.59	295.91
702.92	295.19
703.26	294.53
703.59	293.97
703.93	293.51
704.26	292.85
704.60	292.18
704.93	291.46
705.26	290.79
705.60	290.15
705.93	289.53
706.27	289.15
706.60	288.60
706.94	287.98
707.27	287.23
707.61	286.70
707.94	286.19
708.27	285.52
708.61	284.90
708.94	284.42
709.28	283.71
709.61	283.08
709.94	282.51
710.28	281.83
710.61	281.30
710.95	280.55
711.28	280.12
711.61	279.50
711.95	278.98
712.28	278.42
712.61	277.88
712.95	277.40
713.28	276.79
713.61	276.25
713.95	275.67
714.28	275.25
714.61	274.66
714.95	274.10
715.28	273.56
715.61	273.04
715.95	272.59
716.28	272.21
716.61	271.73
716.95	271.24
717.28	270.70
717.61	270.13
717.94	269.68
718.28	269.04
718.61	268.64
718.94	268.25
719.27	267.95
719.61	267.60
719.94	267.14
720.27	266.60
720.60	266.18
720.94	265.70
721.27	265.46
721.60	265.07
721.93	264.81
722.27	264.59
722.60	264.14
722.93	263.74
723.26	263.40
723.59	263.00
723.93	262.72
724.26	262.50
724.59	262.06
724.92	261.68
725.25	261.46
725.59	261.09
725.92	260.71
726.25	260.22
726.58	259.86
726.91	259.46
727.24	259.26
727.57	258.98
727.91	258.74
728.24	258.29
728.57	258.02
728.90	257.60
729.23	257.10
729.56	256.90
729.89	256.51
730.22	256.01
730.55	255.76
730.89	255.50
731.22	255.18
731.55	255.06
731.88	254.74
732.21	254.39
732.54	254.01
732.87	253.79
733.20	253.56
733.53	253.25
733.86	253.06
734.19	252.70
734.52	252.36
734.85	252.23
735.18	252.01
735.51	251.68
735.84	251.43
736.17	251.22
736.50	250.85
736.83	250.75
737.16	250.61
737.49	250.25
737.82	249.93
738.15	249.64
738.48	249.32
738.81	249.16
739.14	248.86
739.47	248.62
739.80	248.36
740.13	248.07
740.46	247.62
740.79	247.39
741.12	247.21
741.45	247.00
741.78	246.75
742.11	246.51
742.44	246.35
742.77	246.13
743.10	245.89
743.43	245.86
743.75	245.54
744.08	245.57
744.41	245.45
744.74	245.24
745.07	245.02
745.40	244.90
745.73	244.72
746.06	244.60
746.39	244.49
746.71	244.30
747.04	244.22
747.37	244.25
747.70	244.13
748.03	243.96
748.36	243.82
748.68	243.60
749.01	243.47
749.34	243.24
749.67	243.16
750.00	243.08
750.33	243.06
750.65	242.98
750.98	242.68
751.31	242.50
751.64	242.37
751.97	242.47
752.29	242.24
752.62	242.06
752.95	241.97
753.28	241.92
753.60	241.80
753.93	241.64
754.26	241.54
754.59	241.31
754.91	241.24
755.24	241.20
755.57	241.18
755.90	241.00
756.22	240.92
756.55	240.80
756.88	240.67
757.20	240.46
757.53	240.33
757.86	240.10
758.19	240.02
758.51	239.78
758.84	239.58
759.17	239.55
759.49	239.59
759.82	239.46
760.15	239.22
760.47	239.10
760.80	239.03
761.13	238.92
761.45	238.84
761.78	238.77
762.11	238.55
762.43	238.33
762.76	238.26
763.08	238.19
763.41	238.10
763.74	238.13
764.06	237.84
764.39	237.65
764.71	237.70
765.04	237.57
765.37	237.57
765.69	237.47
766.02	237.44
766.34	237.21
766.67	237.19
767.00	237.20
767.32	237.15
767.65	237.12
767.97	237.01
768.30	236.91
768.62	236.75
768.95	236.67
769.27	236.56
769.60	236.44
769.92	236.33
770.25	236.17
770.57	235.93
770.90	235.92
771.22	235.89
771.55	235.78
771.87	235.75
772.20	235.73
772.52	235.72
772.85	235.76
773.17	235.65
773.50	235.53
773.82	235.43
774.15	235.33
774.47	235.15
774.80	235.03
775.12	234.96
775.45	234.91
775.77	234.82
776.09	234.72
776.42	234.72
776.74	234.72
777.07	234.61
777.39	234.54
777.72	234.43
778.04	234.34
778.36	234.21
778.69	234.21
779.01	234.12
779.33	233.81
779.66	233.57
779.98	233.56
780.31	233.43
780.63	233.40
780.95	233.38
781.28	233.25
781.60	233.20
781.92	233.15
782.25	233.11
782.57	233.11
782.89	233.15
783.22	233.13
783.54	232.98
783.86	232.96
784.19	232.91
784.51	232.96
784.83	232.89
785.16	232.81
785.48	232.63
785.80	232.55
786.12	232.68
786.45	232.50
786.77	232.38
787.09	232.34
787.42	232.23
787.74	232.18
788.06	232.19
788.38	232.14
788.71	232.10
789.03	232.00
789.35	231.95
789.67	231.82
789.99	231.74
790.32	231.76
790.64	231.79
790.96	231.96
791.28	231.91
791.61	231.92
791.93	231.93
792.25	231.95
792.57	232.05
792.89	231.85
793.21	232.00
793.54	232.01
793.86	231.97
794.18	232.00
