SpectraSuite Data File
++++++++++++++++++++++++++++++++++++
Date: Fri Feb 01 14:38:35 EST 2013
User: group
Dark Spectrum Present: No
Reference Spectrum Present: No
Number of Sampled Component Spectra: 1
Spectrometers: USB2E7196
Integration Time (usec): 70000 (USB2E7196)
Spectra Averaged: 10 (USB2E7196)
Boxcar Smoothing: 10 (USB2E7196)
Correct for Electrical Dark: No (USB2E7196)
Strobe/Lamp Enabled: No (USB2E7196)
Correct for Detector Non-linearity: No (USB2E7196)
Correct for Stray Light: No (USB2E7196)
Number of Pixels in Processed Spectrum: 2048
>>>>>Begin Processed Spectral Data<<<<<
339.09	0.00
339.48	215.80
339.86	215.90
340.24	219.50
340.63	220.30
341.01	224.10
341.39	223.00
341.78	225.10
342.16	224.80
342.54	225.20
342.93	214.84
343.31	225.66
343.69	226.19
344.07	226.78
344.46	227.08
344.84	227.46
345.22	227.74
345.60	227.98
345.99	228.14
346.37	228.34
346.75	228.56
347.13	228.62
347.52	228.57
347.90	228.73
348.28	228.71
348.66	228.71
349.05	228.65
349.43	228.60
349.81	228.70
350.19	228.78
350.57	228.84
350.96	228.84
351.34	228.97
351.72	229.09
352.10	229.06
352.48	229.27
352.87	229.27
353.25	229.22
353.63	229.38
354.01	229.40
354.39	229.44
354.77	229.43
355.15	229.52
355.54	229.55
355.92	229.52
356.30	229.67
356.68	229.80
357.06	229.90
357.44	230.01
357.82	230.01
358.20	230.00
358.58	230.01
358.97	229.97
359.35	230.00
359.73	230.02
360.11	230.15
360.49	230.14
360.87	230.16
361.25	230.20
361.63	230.23
362.01	230.30
362.39	230.34
362.77	230.36
363.15	230.30
363.53	230.38
363.91	230.33
364.29	230.29
364.67	230.14
365.05	230.13
365.43	230.13
365.81	230.10
366.19	230.23
366.57	230.21
366.95	230.19
367.33	230.18
367.71	230.23
368.09	230.20
368.47	230.23
368.85	230.26
369.23	230.25
369.61	230.10
369.99	230.09
370.37	230.06
370.75	230.09
371.13	230.06
371.51	229.87
371.89	229.80
372.27	229.70
372.65	229.71
373.03	229.64
373.41	229.47
373.78	229.35
374.16	229.22
374.54	229.17
374.92	229.16
375.30	229.06
375.68	228.90
376.06	228.70
376.44	228.47
376.82	228.34
377.19	228.26
377.57	228.21
377.95	228.03
378.33	227.84
378.71	227.54
379.09	227.56
379.47	227.57
379.84	227.50
380.22	227.40
380.60	227.26
380.98	227.20
381.36	227.10
381.73	226.97
382.11	226.98
382.49	226.78
382.87	226.70
383.25	226.60
383.62	226.72
384.00	226.75
384.38	226.79
384.76	226.87
385.13	226.90
385.51	226.71
385.89	226.74
386.27	226.73
386.64	226.82
387.02	226.65
387.40	226.49
387.78	226.44
388.15	226.45
388.53	226.47
388.91	226.38
389.29	226.35
389.66	226.47
390.04	226.37
390.42	226.51
390.79	226.44
391.17	226.40
391.55	226.12
391.92	226.16
392.30	226.10
392.68	226.02
393.05	225.93
393.43	226.06
393.81	226.12
394.18	226.14
394.56	226.11
394.94	226.20
395.31	226.34
395.69	226.50
396.06	226.67
396.44	226.70
396.82	226.79
397.19	226.99
397.57	226.99
397.95	227.06
398.32	227.08
398.70	227.21
399.07	227.39
399.45	227.57
399.82	227.68
400.20	227.86
400.58	227.95
400.95	228.08
401.33	228.21
401.70	228.30
402.08	228.45
402.45	228.76
402.83	228.94
403.20	229.06
403.58	229.13
403.95	229.26
404.33	229.38
404.71	229.47
405.08	229.68
405.46	229.85
405.83	230.10
406.21	230.21
406.58	230.47
406.96	230.64
407.33	230.90
407.70	231.08
408.08	231.51
408.45	231.79
408.83	232.01
409.20	232.19
409.58	232.50
409.95	232.77
410.33	232.95
410.70	233.30
411.08	233.63
411.45	233.96
411.82	234.20
412.20	234.66
412.57	235.30
412.95	235.62
413.32	236.12
413.69	236.43
414.07	237.01
414.44	237.56
414.82	238.00
415.19	238.56
415.56	239.19
415.94	239.65
416.31	240.33
416.68	241.11
417.06	241.98
417.43	242.75
417.81	243.67
418.18	244.60
418.55	245.50
418.93	246.62
419.30	247.71
419.67	248.92
420.04	250.01
420.42	251.13
420.79	252.51
421.16	253.89
421.54	255.42
421.91	256.85
422.28	258.30
422.66	260.07
423.03	261.74
423.40	263.44
423.77	265.33
424.15	267.21
424.52	269.05
424.89	271.05
425.26	273.00
425.64	274.87
426.01	276.84
426.38	278.94
426.75	280.95
427.13	283.23
427.50	285.52
427.87	288.02
428.24	290.45
428.61	292.90
428.99	295.57
429.36	298.35
429.73	301.14
430.10	303.81
430.47	306.50
430.85	309.30
431.22	312.21
431.59	315.41
431.96	318.44
432.33	321.91
432.70	325.20
433.08	328.91
433.45	332.46
433.82	336.08
434.19	339.99
434.56	343.98
434.93	347.60
435.30	351.27
435.68	355.37
436.05	359.23
436.42	363.10
436.79	366.54
437.16	370.36
437.53	374.47
437.90	378.52
438.27	382.61
438.64	386.81
439.01	390.61
439.38	393.85
439.75	397.12
440.13	400.70
440.50	404.25
440.87	407.23
441.24	410.24
441.61	413.56
441.98	416.06
442.35	419.06
442.72	422.18
443.09	425.09
443.46	426.77
443.83	428.10
444.20	429.21
444.57	430.97
444.94	431.82
445.31	432.71
445.68	433.65
446.05	434.04
446.42	433.85
446.79	433.79
447.16	433.51
447.53	433.45
447.90	432.37
448.27	431.21
448.64	429.39
449.01	428.26
449.37	425.97
449.74	423.72
450.11	420.82
450.48	417.55
450.85	414.33
451.22	411.73
451.59	409.35
451.96	406.91
452.33	403.32
452.70	400.29
453.07	396.58
453.43	392.75
453.80	389.20
454.17	385.66
454.54	382.32
454.91	378.68
455.28	375.18
455.65	371.62
456.02	368.30
456.38	365.43
456.75	361.70
457.12	358.75
457.49	355.70
457.86	352.70
458.23	350.18
458.59	347.29
458.96	344.43
459.33	341.62
459.70	339.00
460.07	336.93
460.43	334.50
460.80	332.20
461.17	330.20
461.54	328.00
461.91	325.97
462.27	323.75
462.64	322.09
463.01	320.06
463.38	318.39
463.74	316.38
464.11	314.59
464.48	313.25
464.85	311.40
465.21	310.17
465.58	308.80
465.95	307.25
466.32	306.00
466.68	304.64
467.05	303.32
467.42	301.91
467.78	300.54
468.15	299.18
468.52	298.19
468.88	296.78
469.25	295.60
469.62	294.68
469.98	293.70
470.35	292.58
470.72	291.54
471.08	290.43
471.45	289.63
471.82	288.72
472.18	287.67
472.55	287.07
472.92	286.08
473.28	285.14
473.65	284.34
474.02	283.55
474.38	282.74
474.75	282.05
475.11	281.41
475.48	280.88
475.85	280.30
476.21	279.61
476.58	279.17
476.94	278.72
477.31	278.16
477.67	277.75
478.04	277.40
478.41	277.14
478.77	276.96
479.14	276.56
479.50	276.28
479.87	276.03
480.23	275.71
480.60	275.52
480.96	275.37
481.33	275.20
481.69	275.00
482.06	274.90
482.42	274.81
482.79	274.77
483.15	274.63
483.52	274.72
483.88	274.68
484.25	274.68
484.61	274.68
484.98	274.64
485.34	274.63
485.71	274.70
486.07	274.71
486.44	274.63
486.80	274.58
487.17	274.66
487.53	274.78
487.90	274.87
488.26	275.06
488.62	275.27
488.99	275.35
489.35	275.50
489.72	275.68
490.08	275.99
490.44	276.03
490.81	276.30
491.17	276.50
491.54	276.75
491.90	276.92
492.26	277.18
492.63	277.35
492.99	277.55
493.36	277.77
493.72	278.06
494.08	278.22
494.45	278.61
494.81	278.95
495.17	279.34
495.54	279.64
495.90	279.86
496.26	280.17
496.63	280.48
496.99	280.82
497.35	281.15
497.72	281.50
498.08	281.91
498.44	282.28
498.80	282.65
499.17	283.01
499.53	283.41
499.89	283.80
500.26	284.11
500.62	284.44
500.98	284.83
501.34	285.20
501.71	285.75
502.07	286.06
502.43	286.44
502.79	286.68
503.16	287.01
503.52	287.33
503.88	287.71
504.24	288.01
504.60	288.44
504.97	288.71
505.33	288.98
505.69	289.40
506.05	289.81
506.41	290.07
506.78	290.48
507.14	290.77
507.50	291.15
507.86	291.65
508.22	292.11
508.59	292.51
508.95	293.03
509.31	293.58
509.67	294.00
510.03	294.47
510.39	295.10
510.75	295.58
511.12	296.20
511.48	296.79
511.84	297.60
512.20	298.16
512.56	298.93
512.92	299.86
513.28	300.63
513.64	301.49
514.00	302.43
514.37	303.33
514.73	304.37
515.09	305.46
515.45	306.56
515.81	307.62
516.17	308.76
516.53	309.86
516.89	310.99
517.25	312.52
517.61	314.05
517.97	315.51
518.33	317.14
518.69	318.74
519.05	320.46
519.41	322.19
519.77	324.21
520.13	326.19
520.49	327.97
520.85	330.06
521.21	332.12
521.57	334.42
521.93	336.67
522.29	339.10
522.65	341.44
523.01	343.91
523.37	346.55
523.73	349.35
524.09	351.98
524.45	354.81
524.81	357.51
525.17	360.60
525.53	363.62
525.89	366.97
526.25	370.27
526.61	373.44
526.97	376.89
527.33	380.38
527.68	384.23
528.04	387.99
528.40	391.78
528.76	395.72
529.12	399.45
529.48	403.50
529.84	407.58
530.20	411.82
530.56	416.14
530.91	420.65
531.27	425.08
531.63	429.86
531.99	434.52
532.35	439.36
532.71	443.79
533.07	448.69
533.42	453.59
533.78	458.62
534.14	463.93
534.50	468.98
534.86	474.33
535.21	479.21
535.57	484.69
535.93	490.21
536.29	495.75
536.65	501.49
537.00	507.02
537.36	512.74
537.72	518.32
538.08	524.03
538.44	529.60
538.79	535.47
539.15	541.10
539.51	546.97
539.87	553.00
540.22	559.19
540.58	565.12
540.94	571.03
541.29	577.03
541.65	582.96
542.01	589.08
542.37	594.99
542.72	601.08
543.08	607.06
543.44	613.06
543.79	618.86
544.15	624.80
544.51	630.86
544.87	637.03
545.22	643.07
545.58	649.31
545.94	655.35
546.29	661.35
546.65	667.48
547.01	673.50
547.36	679.30
547.72	685.38
548.07	691.32
548.43	697.14
548.79	702.74
549.14	708.52
549.50	714.24
549.86	719.83
550.21	725.76
550.57	731.36
550.92	737.04
551.28	742.75
551.64	748.56
551.99	754.49
552.35	759.96
552.70	765.83
553.06	771.53
553.41	777.11
553.77	782.79
554.13	788.51
554.48	794.02
554.84	799.56
555.19	804.74
555.55	810.32
555.90	815.87
556.26	821.35
556.61	826.64
556.97	831.77
557.32	837.20
557.68	842.23
558.03	847.62
558.39	852.87
558.74	858.17
559.10	863.23
559.45	868.12
559.81	873.45
560.16	878.13
560.52	882.86
560.87	887.83
561.23	892.30
561.58	896.97
561.94	901.75
562.29	906.25
562.64	911.03
563.00	915.28
563.35	919.94
563.71	924.79
564.06	929.59
564.42	934.31
564.77	938.73
565.12	943.32
565.48	947.84
565.83	952.01
566.19	956.20
566.54	960.40
566.89	964.44
567.25	968.12
567.60	972.51
567.96	976.68
568.31	980.55
568.66	984.43
569.02	988.08
569.37	991.46
569.72	995.03
570.08	998.05
570.43	1001.30
570.78	1004.37
571.14	1007.25
571.49	1010.01
571.84	1013.13
572.20	1015.61
572.55	1018.10
572.90	1020.18
573.26	1022.49
573.61	1024.90
573.96	1027.16
574.31	1029.11
574.67	1030.98
575.02	1032.41
575.37	1034.00
575.72	1035.44
576.08	1036.96
576.43	1038.57
576.78	1040.30
577.13	1041.89
577.49	1043.91
577.84	1045.55
578.19	1046.65
578.54	1047.56
578.90	1048.27
579.25	1048.64
579.60	1049.62
579.95	1050.20
580.30	1050.90
580.66	1051.67
581.01	1051.92
581.36	1052.45
581.71	1053.12
582.06	1053.57
582.42	1053.95
582.77	1053.92
583.12	1054.19
583.47	1054.72
583.82	1054.84
584.17	1054.75
584.53	1054.87
584.88	1054.49
585.23	1054.36
585.58	1054.15
585.93	1054.22
586.28	1054.17
586.63	1054.46
586.98	1054.42
587.34	1054.35
587.69	1054.24
588.04	1053.94
588.39	1053.97
588.74	1053.00
589.09	1052.30
589.44	1051.32
589.79	1050.81
590.14	1050.59
590.49	1049.96
590.84	1048.81
591.19	1047.92
591.54	1046.79
591.89	1045.20
592.25	1044.13
592.60	1042.90
592.95	1041.48
593.30	1040.11
593.65	1038.58
594.00	1036.81
594.35	1035.69
594.70	1033.75
595.05	1032.11
595.40	1030.11
595.75	1027.99
596.10	1026.80
596.45	1025.40
596.80	1024.42
597.15	1022.89
597.50	1020.88
597.85	1019.20
598.19	1017.70
598.54	1015.93
598.89	1014.51
599.24	1013.18
599.59	1011.47
599.94	1010.00
600.29	1008.34
600.64	1006.57
600.99	1004.60
601.34	1002.80
601.69	1000.47
602.04	998.87
602.39	997.02
602.74	995.51
603.08	993.87
603.43	991.95
603.78	989.74
604.13	987.74
604.48	985.40
604.83	983.41
605.18	981.21
605.53	978.81
605.87	976.07
606.22	973.82
606.57	971.20
606.92	968.63
607.27	966.14
607.62	963.98
607.96	961.58
608.31	959.56
608.66	957.23
609.01	954.48
609.36	951.71
609.70	948.65
610.05	945.40
610.40	942.63
610.75	939.28
611.10	936.30
611.44	932.92
611.79	930.31
612.14	927.26
612.49	923.69
612.83	920.42
613.18	917.57
613.53	914.14
613.88	910.80
614.22	907.80
614.57	904.04
614.92	900.61
615.27	897.27
615.61	893.87
615.96	890.51
616.31	887.44
616.65	884.44
617.00	881.45
617.35	878.52
617.70	875.04
618.04	871.93
618.39	868.92
618.74	865.87
619.08	862.21
619.43	859.03
619.78	856.26
620.12	853.18
620.47	850.15
620.82	846.65
621.16	843.94
621.51	840.60
621.85	837.78
622.20	834.55
622.55	831.32
622.89	827.98
623.24	824.81
623.59	821.88
623.93	818.91
624.28	815.95
624.62	812.93
624.97	809.95
625.32	807.13
625.66	803.85
626.01	800.71
626.35	797.69
626.70	794.38
627.04	791.48
627.39	788.44
627.73	785.36
628.08	782.44
628.43	778.89
628.77	775.85
629.12	772.37
629.46	769.12
629.81	765.55
630.15	762.41
630.50	759.14
630.84	755.55
631.19	751.92
631.53	748.42
631.88	744.87
632.22	741.32
632.57	737.88
632.91	734.60
633.26	731.19
633.60	727.86
633.95	724.53
634.29	721.24
634.64	718.19
634.98	714.74
635.32	711.65
635.67	708.92
636.01	705.91
636.36	702.92
636.70	699.87
637.05	697.27
637.39	694.56
637.73	691.35
638.08	688.50
638.42	685.80
638.77	682.82
639.11	679.98
639.45	677.06
639.80	673.94
640.14	670.93
640.49	667.86
640.83	664.67
641.17	661.95
641.52	658.78
641.86	655.44
642.20	652.65
642.55	649.50
642.89	646.20
643.23	642.95
643.58	639.90
643.92	636.79
644.26	633.67
644.61	630.70
644.95	627.91
645.29	624.74
645.64	621.46
645.98	618.50
646.32	615.40
646.66	612.43
647.01	609.53
647.35	606.75
647.69	603.92
648.04	601.35
648.38	598.22
648.72	595.19
649.06	592.23
649.41	589.19
649.75	586.27
650.09	583.19
650.43	580.20
650.78	577.11
651.12	574.20
651.46	571.32
651.80	568.23
652.14	565.39
652.49	562.65
652.83	559.92
653.17	556.76
653.51	553.93
653.85	550.98
654.20	548.07
654.54	544.79
654.88	541.84
655.22	538.50
655.56	535.32
655.90	532.60
656.25	529.73
656.59	526.89
656.93	524.24
657.27	521.59
657.61	518.84
657.95	516.48
658.29	513.99
658.64	511.39
658.98	508.72
659.32	505.81
659.66	503.06
660.00	500.35
660.34	497.85
660.68	495.08
661.02	492.45
661.36	489.92
661.70	487.61
662.05	485.40
662.39	483.25
662.73	481.09
663.07	478.82
663.41	476.57
663.75	474.25
664.09	471.93
664.43	469.68
664.77	467.46
665.11	465.10
665.45	462.80
665.79	460.62
666.13	458.43
666.47	456.34
666.81	454.11
667.15	451.78
667.49	449.75
667.83	448.03
668.17	446.04
668.51	443.91
668.85	441.80
669.19	439.73
669.53	437.74
669.87	435.86
670.21	434.01
670.55	432.09
670.89	430.41
671.23	428.56
671.57	426.71
671.91	424.97
672.25	422.94
672.58	421.14
672.92	419.21
673.26	417.45
673.60	415.78
673.94	414.02
674.28	412.54
674.62	410.92
674.96	409.01
675.30	407.47
675.64	406.04
675.97	404.40
676.31	402.68
676.65	401.06
676.99	399.55
677.33	397.64
677.67	396.10
678.01	394.21
678.34	392.64
678.68	391.11
679.02	389.44
679.36	388.09
679.70	386.43
680.04	384.96
680.37	383.12
680.71	381.45
681.05	380.08
681.39	378.56
681.73	377.00
682.06	375.72
682.40	374.22
682.74	372.71
683.08	371.58
683.42	370.21
683.75	368.72
684.09	367.21
684.43	365.96
684.77	364.57
685.10	363.35
685.44	361.90
685.78	360.43
686.12	359.10
686.45	357.71
686.79	356.53
687.13	355.13
687.46	353.98
687.80	352.77
688.14	351.30
688.48	350.10
688.81	348.86
689.15	347.48
689.49	346.39
689.82	345.07
690.16	343.65
690.50	342.29
690.83	341.19
691.17	339.88
691.51	338.71
691.84	337.59
692.18	336.31
692.52	335.06
692.85	333.94
693.19	332.73
693.52	331.57
693.86	330.33
694.20	329.28
694.53	328.16
694.87	327.01
695.21	326.03
695.54	324.79
695.88	323.57
696.21	322.47
696.55	321.29
696.88	320.30
697.22	319.13
697.56	318.24
697.89	317.14
698.23	316.28
698.56	315.16
698.90	314.07
699.23	313.08
699.57	312.10
699.90	311.22
700.24	310.22
700.58	309.34
700.91	308.43
701.25	307.57
701.58	306.83
701.92	305.97
702.25	305.17
702.59	304.31
702.92	303.66
703.26	302.85
703.59	302.04
703.93	301.47
704.26	300.75
704.60	300.04
704.93	299.33
705.26	298.43
705.60	297.80
705.93	297.07
706.27	296.52
706.60	295.97
706.94	295.19
707.27	294.48
707.61	293.69
707.94	293.14
708.27	292.31
708.61	291.55
708.94	290.91
709.28	290.14
709.61	289.69
709.94	289.06
710.28	288.50
710.61	287.84
710.95	286.92
711.28	286.48
711.61	285.65
711.95	285.10
712.28	284.54
712.61	284.00
712.95	283.46
713.28	282.87
713.61	282.28
713.95	281.78
714.28	281.28
714.61	280.74
714.95	280.09
715.28	279.59
715.61	279.04
715.95	278.53
716.28	278.11
716.61	277.51
716.95	276.93
717.28	276.40
717.61	275.94
717.94	275.42
718.28	274.80
718.61	274.34
718.94	273.71
719.27	273.23
719.61	272.58
719.94	272.15
720.27	271.55
720.60	271.05
720.94	270.59
721.27	270.12
721.60	269.75
721.93	269.38
722.27	269.10
722.60	268.73
722.93	268.29
723.26	267.88
723.59	267.47
723.93	267.09
724.26	266.67
724.59	266.20
724.92	265.88
725.25	265.48
725.59	265.16
725.92	264.87
726.25	264.44
726.58	264.17
726.91	263.76
727.24	263.44
727.57	263.04
727.91	262.61
728.24	262.32
728.57	261.91
728.90	261.46
729.23	261.05
729.56	260.77
729.89	260.35
730.22	259.90
730.55	259.53
730.89	259.10
731.22	258.69
731.55	258.31
731.88	257.92
732.21	257.65
732.54	257.24
732.87	256.95
733.20	256.60
733.53	256.18
733.86	255.93
734.19	255.60
734.52	255.34
734.85	255.19
735.18	254.76
735.51	254.55
735.84	254.31
736.17	253.96
736.50	253.59
736.83	253.55
737.16	253.24
737.49	253.03
737.82	252.80
738.15	252.53
738.48	252.24
738.81	251.95
739.14	251.57
739.47	251.32
739.80	251.02
740.13	250.81
740.46	250.63
740.79	250.33
741.12	250.09
741.45	249.75
741.78	249.45
742.11	249.28
742.44	248.88
742.77	248.61
743.10	248.41
743.43	248.21
743.75	247.81
744.08	247.84
744.41	247.61
744.74	247.25
745.07	247.01
745.40	246.89
745.73	246.75
746.06	246.68
746.39	246.49
746.71	246.27
747.04	246.16
747.37	245.96
747.70	245.81
748.03	245.54
748.36	245.48
748.68	245.24
749.01	245.01
749.34	244.98
749.67	244.83
750.00	244.68
750.33	244.58
750.65	244.44
750.98	244.07
751.31	243.93
751.64	243.89
751.97	243.91
752.29	243.72
752.62	243.59
752.95	243.26
753.28	243.13
753.60	243.02
753.93	242.93
754.26	242.77
754.59	242.55
754.91	242.50
755.24	242.25
755.57	242.16
755.90	242.10
756.22	241.89
756.55	241.73
756.88	241.57
757.20	241.34
757.53	241.10
757.86	241.04
758.19	240.85
758.51	240.77
758.84	240.49
759.17	240.33
759.49	240.17
759.82	240.20
760.15	240.05
760.47	239.90
760.80	239.68
761.13	239.56
761.45	239.34
761.78	239.23
762.11	239.16
762.43	239.08
762.76	238.98
763.08	238.91
763.41	238.76
763.74	238.65
764.06	238.52
764.39	238.42
764.71	238.23
765.04	238.04
765.37	237.85
765.69	237.72
766.02	237.64
766.34	237.38
766.67	237.26
767.00	237.16
767.32	237.12
767.65	237.08
767.97	236.95
768.30	236.96
768.62	236.80
768.95	236.60
769.27	236.45
769.60	236.27
769.92	236.08
770.25	235.94
770.57	235.71
770.90	235.58
771.22	235.44
771.55	235.28
771.87	235.27
772.20	235.18
772.52	235.40
772.85	235.50
773.17	235.44
773.50	235.25
773.82	235.13
774.15	234.98
774.47	234.85
774.80	234.67
775.12	234.48
775.45	234.35
775.77	234.23
776.09	234.10
776.42	234.09
776.74	234.09
777.07	234.04
777.39	233.99
777.72	233.86
778.04	233.81
778.36	233.76
778.69	233.61
779.01	233.60
779.33	233.26
779.66	232.96
779.98	232.96
780.31	232.81
780.63	232.91
780.95	232.80
781.28	232.58
781.60	232.50
781.92	232.40
782.25	232.36
782.57	232.36
782.89	232.14
783.22	232.03
783.54	231.88
783.86	231.85
784.19	231.81
784.51	231.79
784.83	231.72
785.16	231.70
785.48	231.73
785.80	231.62
786.12	231.54
786.45	231.55
786.77	231.52
787.09	231.56
787.42	231.46
787.74	231.52
788.06	231.63
788.38	231.61
788.71	231.60
789.03	231.60
789.35	231.70
789.67	231.81
789.99	231.89
790.32	231.95
790.64	231.98
790.96	232.17
791.28	232.10
791.61	232.20
791.93	232.25
792.25	232.16
