SpectraSuite Data File
++++++++++++++++++++++++++++++++++++
Date: Fri Feb 01 14:38:46 EST 2013
User: group
Dark Spectrum Present: No
Reference Spectrum Present: No
Number of Sampled Component Spectra: 1
Spectrometers: USB2E7196
Integration Time (usec): 70000 (USB2E7196)
Spectra Averaged: 10 (USB2E7196)
Boxcar Smoothing: 10 (USB2E7196)
Correct for Electrical Dark: No (USB2E7196)
Strobe/Lamp Enabled: No (USB2E7196)
Correct for Detector Non-linearity: No (USB2E7196)
Correct for Stray Light: No (USB2E7196)
Number of Pixels in Processed Spectrum: 2048
>>>>>Begin Processed Spectral Data<<<<<
339.09	0.00
339.48	215.70
339.86	219.10
340.24	218.40
340.63	218.90
341.01	222.20
341.39	221.20
341.78	224.10
342.16	225.10
342.54	226.70
342.93	214.22
343.31	225.01
343.69	225.61
344.07	226.05
344.46	226.49
344.84	226.90
345.22	227.18
345.60	227.50
345.99	227.67
346.37	227.87
346.75	227.86
347.13	227.79
347.52	227.78
347.90	227.86
348.28	227.85
348.66	227.84
349.05	227.80
349.43	227.89
349.81	227.92
350.19	227.93
350.57	228.02
350.96	228.01
351.34	228.05
351.72	228.14
352.10	228.12
352.48	228.09
352.87	228.10
353.25	228.16
353.63	228.23
354.01	228.35
354.39	228.33
354.77	228.40
355.15	228.69
355.54	228.83
355.92	228.85
356.30	228.86
356.68	229.07
357.06	229.34
357.44	229.39
357.82	229.41
358.20	229.47
358.58	229.45
358.97	229.62
359.35	229.88
359.73	229.90
360.11	230.01
360.49	230.11
360.87	230.21
361.25	230.27
361.63	230.29
362.01	230.29
362.39	230.41
362.77	230.52
363.15	230.47
363.53	230.54
363.91	230.63
364.29	230.74
364.67	230.59
365.05	230.38
365.43	230.30
365.81	230.32
366.19	230.35
366.57	230.36
366.95	230.35
367.33	230.24
367.71	230.26
368.09	230.27
368.47	230.42
368.85	230.43
369.23	230.41
369.61	230.43
369.99	230.47
370.37	230.43
370.75	230.55
371.13	230.51
371.51	230.43
371.89	230.33
372.27	230.30
372.65	230.31
373.03	230.30
373.41	230.20
373.78	230.24
374.16	230.10
374.54	230.05
374.92	229.90
375.30	229.80
375.68	229.66
376.06	229.51
376.44	229.30
376.82	229.29
377.19	229.21
377.57	229.08
377.95	228.88
378.33	228.72
378.71	228.47
379.09	228.42
379.47	228.37
379.84	228.21
380.22	228.14
380.60	228.01
380.98	227.85
381.36	227.79
381.73	227.64
382.11	227.53
382.49	227.54
382.87	227.36
383.25	227.30
383.62	227.47
384.00	227.47
384.38	227.38
384.76	227.29
385.13	227.23
385.51	227.14
385.89	227.05
386.27	226.99
386.64	227.00
387.02	226.97
387.40	226.80
387.78	226.75
388.15	226.59
388.53	226.56
388.91	226.64
389.29	226.64
389.66	226.64
390.04	226.52
390.42	226.45
390.79	226.51
391.17	226.46
391.55	226.15
391.92	226.09
392.30	226.08
392.68	225.93
393.05	225.94
393.43	225.97
393.81	226.04
394.18	226.00
394.56	225.97
394.94	225.97
395.31	225.99
395.69	226.09
396.06	226.10
396.44	226.11
396.82	226.01
397.19	226.08
397.57	226.12
397.95	226.25
398.32	226.25
398.70	226.39
399.07	226.54
399.45	226.64
399.82	226.67
400.20	226.74
400.58	226.92
400.95	226.88
401.33	226.94
401.70	227.22
402.08	227.42
402.45	227.50
402.83	227.74
403.20	227.95
403.58	228.06
403.95	228.27
404.33	228.37
404.71	228.54
405.08	228.89
405.46	229.02
405.83	229.25
406.21	229.40
406.58	229.51
406.96	229.66
407.33	229.84
407.70	230.15
408.08	230.56
408.45	230.70
408.83	231.10
409.20	231.41
409.58	231.50
409.95	231.76
410.33	232.04
410.70	232.18
411.08	232.50
411.45	232.84
411.82	233.27
412.20	233.73
412.57	234.30
412.95	234.63
413.32	235.26
413.69	235.71
414.07	236.35
414.44	236.98
414.82	237.58
415.19	238.31
415.56	238.93
415.94	239.50
416.31	240.37
416.68	241.09
417.06	241.92
417.43	242.78
417.81	243.60
418.18	244.50
418.55	245.52
418.93	246.48
419.30	247.57
419.67	248.66
420.04	249.80
420.42	250.95
420.79	252.35
421.16	253.50
421.54	254.94
421.91	256.43
422.28	257.94
422.66	259.57
423.03	261.26
423.40	262.88
423.77	264.59
424.15	266.34
424.52	268.14
424.89	270.15
425.26	272.00
425.64	273.80
426.01	275.92
426.38	277.98
426.75	280.08
427.13	282.21
427.50	284.45
427.87	286.74
428.24	289.02
428.61	291.14
428.99	293.68
429.36	296.27
429.73	298.70
430.10	301.17
430.47	303.73
430.85	306.32
431.22	309.12
431.59	312.18
431.96	315.01
432.33	318.12
432.70	321.10
433.08	324.72
433.45	328.14
433.82	331.40
434.19	335.14
434.56	338.75
434.93	342.33
435.30	345.79
435.68	349.66
436.05	353.46
436.42	357.04
436.79	360.48
437.16	364.19
437.53	368.06
437.90	371.94
438.27	375.52
438.64	379.32
439.01	382.97
439.38	386.16
439.75	389.25
440.13	392.94
440.50	396.14
440.87	398.73
441.24	401.54
441.61	404.68
441.98	406.98
442.35	409.70
442.72	412.49
443.09	415.17
443.46	416.77
443.83	417.74
444.20	418.99
444.57	420.32
444.94	421.15
445.31	422.06
445.68	423.04
446.05	423.64
446.42	423.39
446.79	423.15
447.16	422.89
447.53	422.80
447.90	421.40
448.27	420.40
448.64	418.74
449.01	417.70
449.37	415.48
449.74	413.16
450.11	410.66
450.48	407.40
450.85	404.18
451.22	401.71
451.59	399.47
451.96	397.10
452.33	393.94
452.70	390.98
453.07	387.41
453.43	383.56
453.80	380.15
454.17	376.92
454.54	373.62
454.91	370.06
455.28	366.70
455.65	363.62
456.02	360.62
456.38	357.98
456.75	354.41
457.12	351.37
457.49	348.60
457.86	345.67
458.23	343.60
458.59	341.07
458.96	338.24
459.33	335.81
459.70	333.48
460.07	331.52
460.43	329.22
460.80	327.02
461.17	325.13
461.54	323.05
461.91	321.14
462.27	319.30
462.64	317.76
463.01	315.73
463.38	313.98
463.74	311.93
464.11	310.25
464.48	308.88
464.85	307.54
465.21	306.31
465.58	305.00
465.95	303.34
466.32	302.08
466.68	300.90
467.05	299.59
467.42	298.20
467.78	296.80
468.15	295.50
468.52	294.58
468.88	293.50
469.25	292.35
469.62	291.52
469.98	290.48
470.35	289.46
470.72	288.66
471.08	287.78
471.45	287.02
471.82	286.15
472.18	285.19
472.55	284.37
472.92	283.38
473.28	282.58
473.65	281.77
474.02	281.06
474.38	280.32
474.75	279.71
475.11	279.07
475.48	278.62
475.85	278.09
476.21	277.51
476.58	276.92
476.94	276.49
477.31	275.86
477.67	275.40
478.04	274.96
478.41	274.64
478.77	274.42
479.14	273.95
479.50	273.62
479.87	273.44
480.23	273.23
480.60	273.10
480.96	272.90
481.33	272.71
481.69	272.41
482.06	272.17
482.42	271.98
482.79	271.77
483.15	271.47
483.52	271.55
483.88	271.40
484.25	271.25
484.61	271.20
484.98	271.14
485.34	271.22
485.71	271.23
486.07	271.14
486.44	270.93
486.80	270.98
487.17	271.00
487.53	271.17
487.90	271.16
488.26	271.29
488.62	271.45
488.99	271.53
489.35	271.66
489.72	271.84
490.08	272.01
490.44	272.25
490.81	272.55
491.17	272.61
491.54	272.84
491.90	273.20
492.26	273.36
492.63	273.61
492.99	273.65
493.36	273.88
493.72	274.19
494.08	274.43
494.45	274.68
494.81	275.15
495.17	275.37
495.54	275.66
495.90	276.02
496.26	276.27
496.63	276.50
496.99	276.79
497.35	277.06
497.72	277.41
498.08	277.68
498.44	278.04
498.80	278.48
499.17	278.73
499.53	278.98
499.89	279.40
500.26	279.85
500.62	280.42
500.98	280.91
501.34	281.30
501.71	281.74
502.07	282.20
502.43	282.46
502.79	282.80
503.16	283.24
503.52	283.62
503.88	284.07
504.24	284.70
504.60	285.30
504.97	285.91
505.33	286.30
505.69	287.04
506.05	287.51
506.41	288.03
506.78	288.68
507.14	289.27
507.50	289.94
507.86	290.50
508.22	291.02
508.59	291.59
508.95	292.27
509.31	293.09
509.67	293.95
510.03	294.79
510.39	295.63
510.75	296.54
511.12	297.45
511.48	298.33
511.84	299.33
512.20	300.17
512.56	301.12
512.92	302.29
513.28	303.27
513.64	304.43
514.00	305.52
514.37	306.80
514.73	308.18
515.09	309.49
515.45	310.81
515.81	312.41
516.17	313.89
516.53	315.52
516.89	317.06
517.25	318.58
517.61	320.45
517.97	322.30
518.33	324.21
518.69	326.16
519.05	328.27
519.41	330.37
519.77	332.80
520.13	335.23
520.49	337.70
520.85	339.92
521.21	342.58
521.57	345.32
521.93	347.99
522.29	350.80
522.65	353.60
523.01	356.64
523.37	359.46
523.73	362.56
524.09	365.73
524.45	368.98
524.81	372.25
525.17	375.67
525.53	379.00
525.89	382.54
526.25	386.24
526.61	389.90
526.97	393.62
527.33	397.57
527.68	401.73
528.04	405.70
528.40	410.09
528.76	414.37
529.12	418.78
529.48	423.20
529.84	427.71
530.20	432.49
530.56	437.30
530.91	442.25
531.27	447.30
531.63	452.17
531.99	457.23
532.35	462.39
532.71	467.51
533.07	472.91
533.42	478.41
533.78	483.86
534.14	489.30
534.50	494.80
534.86	500.44
535.21	505.65
535.57	511.61
535.93	517.36
536.29	523.18
536.65	529.16
537.00	534.99
537.36	540.81
537.72	546.73
538.08	552.92
538.44	558.89
538.79	564.91
539.15	571.16
539.51	577.44
539.87	583.73
540.22	590.13
540.58	596.70
540.94	602.91
541.29	609.16
541.65	615.59
542.01	622.17
542.37	628.60
542.72	635.40
543.08	641.71
543.44	648.19
543.79	654.42
544.15	660.86
544.51	667.56
544.87	674.20
545.22	680.59
545.58	686.90
545.94	693.17
546.29	699.63
546.65	706.01
547.01	712.26
547.36	718.58
547.72	724.63
548.07	730.73
548.43	736.82
548.79	743.10
549.14	749.24
549.50	755.24
549.86	761.16
550.21	767.01
550.57	773.06
550.92	778.94
551.28	785.06
551.64	790.98
551.99	796.70
552.35	802.77
552.70	808.71
553.06	814.47
553.41	820.53
553.77	826.37
554.13	832.31
554.48	838.20
554.84	843.90
555.19	849.75
555.55	855.61
555.90	861.49
556.26	867.25
556.61	872.86
556.97	878.52
557.32	883.81
557.68	889.46
558.03	894.85
558.39	900.48
558.74	906.10
559.10	911.25
559.45	916.60
559.81	921.71
560.16	926.65
560.52	931.64
560.87	936.78
561.23	941.60
561.58	946.39
561.94	951.25
562.29	955.88
562.64	960.41
563.00	964.63
563.35	969.45
563.71	974.10
564.06	978.62
564.42	982.93
564.77	987.57
565.12	991.60
565.48	995.84
565.83	999.58
566.19	1003.62
566.54	1007.63
566.89	1011.62
567.25	1015.40
567.60	1019.45
567.96	1023.33
568.31	1027.00
568.66	1030.72
569.02	1034.11
569.37	1037.22
569.72	1040.75
570.08	1044.04
570.43	1047.46
570.78	1050.38
571.14	1053.14
571.49	1056.07
571.84	1058.94
572.20	1061.31
572.55	1064.03
572.90	1066.44
573.26	1069.19
573.61	1071.14
573.96	1073.24
574.31	1075.08
574.67	1076.76
575.02	1078.27
575.37	1080.02
575.72	1081.20
576.08	1082.84
576.43	1084.21
576.78	1085.85
577.13	1087.03
577.49	1088.52
577.84	1089.81
578.19	1090.55
578.54	1091.47
578.90	1092.10
579.25	1092.60
579.60	1093.62
579.95	1094.14
580.30	1094.48
580.66	1094.51
581.01	1094.80
581.36	1095.20
581.71	1095.69
582.06	1095.76
582.42	1096.09
582.77	1096.08
583.12	1096.18
583.47	1096.06
583.82	1096.45
584.17	1096.00
584.53	1096.02
584.88	1095.64
585.23	1095.27
585.58	1095.31
585.93	1095.12
586.28	1095.31
586.63	1095.30
586.98	1095.20
587.34	1095.29
587.69	1095.03
588.04	1095.11
588.39	1094.95
588.74	1093.63
589.09	1092.58
589.44	1091.92
589.79	1091.30
590.14	1090.76
590.49	1090.07
590.84	1089.04
591.19	1088.00
591.54	1086.79
591.89	1085.26
592.25	1084.09
592.60	1082.29
592.95	1080.25
593.30	1078.35
593.65	1076.30
594.00	1074.34
594.35	1072.71
594.70	1070.37
595.05	1068.83
595.40	1066.79
595.75	1064.60
596.10	1063.55
596.45	1062.27
596.80	1061.01
597.15	1059.24
597.50	1056.96
597.85	1055.36
598.19	1053.69
598.54	1052.08
598.89	1050.52
599.24	1049.25
599.59	1047.57
599.94	1046.37
600.29	1044.62
600.64	1043.07
600.99	1040.87
601.34	1039.00
601.69	1036.37
602.04	1034.46
602.39	1032.14
602.74	1030.24
603.08	1028.69
603.43	1026.65
603.78	1024.25
604.13	1021.82
604.48	1019.60
604.83	1017.71
605.18	1015.47
605.53	1012.85
605.87	1009.54
606.22	1007.20
606.57	1004.39
606.92	1001.62
607.27	999.21
607.62	997.29
607.96	994.67
608.31	992.60
608.66	989.88
609.01	987.24
609.36	984.29
609.70	981.06
610.05	977.70
610.40	974.64
610.75	971.24
611.10	967.86
611.44	964.29
611.79	960.90
612.14	957.52
612.49	953.60
612.83	950.49
613.18	947.54
613.53	944.27
613.88	940.68
614.22	937.15
614.57	932.91
614.92	929.03
615.27	925.74
615.61	921.84
615.96	918.73
616.31	915.50
616.65	912.56
617.00	909.60
617.35	906.58
617.70	902.95
618.04	899.22
618.39	896.00
618.74	893.20
619.08	889.62
619.43	886.38
619.78	883.26
620.12	879.47
620.47	875.92
620.82	872.16
621.16	868.86
621.51	865.75
621.85	862.64
622.20	859.17
622.55	855.80
622.89	852.77
623.24	849.16
623.59	845.78
623.93	842.54
624.28	839.00
624.62	835.27
624.97	832.17
625.32	829.41
625.66	826.27
626.01	822.68
626.35	819.55
626.70	816.07
627.04	812.95
627.39	809.61
627.73	806.37
628.08	803.19
628.43	799.79
628.77	796.29
629.12	792.87
629.46	789.40
629.81	785.43
630.15	781.70
630.50	778.37
630.84	774.61
631.19	770.63
631.53	767.14
631.88	763.68
632.22	759.71
632.57	756.26
632.91	752.69
633.26	749.15
633.60	745.40
633.95	741.83
634.29	738.23
634.64	735.33
634.98	731.89
635.32	728.64
635.67	725.60
636.01	722.18
636.36	718.58
636.70	715.61
637.05	712.65
637.39	709.70
637.73	706.62
638.08	703.90
638.42	701.10
638.77	698.23
639.11	695.10
639.45	692.06
639.80	688.78
640.14	685.71
640.49	682.59
640.83	679.86
641.17	676.71
641.52	673.62
641.86	670.52
642.20	667.61
642.55	664.58
642.89	661.51
643.23	658.27
643.58	655.69
643.92	652.29
644.26	649.19
644.61	646.28
644.95	643.16
645.29	639.66
645.64	636.40
645.98	633.25
646.32	630.41
646.66	627.39
647.01	624.23
647.35	621.19
647.69	618.21
648.04	615.16
648.38	612.07
648.72	608.97
649.06	605.47
649.41	602.30
649.75	598.86
650.09	595.45
650.43	592.39
650.78	588.96
651.12	586.05
651.46	583.21
651.80	579.96
652.14	576.76
652.49	573.93
652.83	571.00
653.17	567.69
653.51	564.62
653.85	561.70
654.20	558.73
654.54	555.66
654.88	552.51
655.22	549.35
655.56	546.33
655.90	543.37
656.25	540.65
656.59	537.60
656.93	535.10
657.27	532.57
657.61	529.77
657.95	527.20
658.29	524.47
658.64	521.44
658.98	518.61
659.32	515.63
659.66	512.94
660.00	510.04
660.34	507.47
660.68	504.53
661.02	501.86
661.36	499.32
661.70	496.76
662.05	494.30
662.39	492.03
662.73	489.76
663.07	487.36
663.41	484.95
663.75	482.56
664.09	480.10
664.43	477.65
664.77	475.46
665.11	473.25
665.45	470.87
665.79	468.52
666.13	466.41
666.47	464.36
666.81	462.01
667.15	459.64
667.49	457.47
667.83	455.52
668.17	453.21
668.51	450.96
668.85	448.79
669.19	446.83
669.53	444.55
669.87	442.24
670.21	440.28
670.55	438.19
670.89	436.37
671.23	434.42
671.57	432.49
671.91	430.45
672.25	428.43
672.58	426.69
672.92	424.88
673.26	422.95
673.60	421.24
673.94	419.35
674.28	417.73
674.62	416.10
674.96	414.33
675.30	412.77
675.64	411.08
675.97	409.35
676.31	407.58
676.65	405.90
676.99	404.54
677.33	402.70
677.67	401.09
678.01	399.35
678.34	397.59
678.68	395.83
679.02	394.21
679.36	392.53
679.70	390.76
680.04	389.17
680.37	387.49
680.71	385.70
681.05	384.35
681.39	382.92
681.73	381.22
682.06	379.89
682.40	378.40
682.74	376.99
683.08	375.62
683.42	374.10
683.75	372.70
684.09	371.03
684.43	369.85
684.77	368.34
685.10	366.97
685.44	365.64
685.78	364.39
686.12	363.13
686.45	361.82
686.79	360.33
687.13	359.01
687.46	357.74
687.80	356.45
688.14	354.96
688.48	353.65
688.81	352.47
689.15	350.98
689.49	349.51
689.82	348.22
690.16	346.78
690.50	345.39
690.83	344.14
691.17	342.90
691.51	341.56
691.84	340.46
692.18	339.18
692.52	337.82
692.85	336.45
693.19	335.27
693.52	334.08
693.86	333.01
694.20	331.88
694.53	330.81
694.87	329.75
695.21	328.54
695.54	327.28
695.88	326.06
696.21	324.93
696.55	324.02
696.88	322.97
697.22	321.97
697.56	321.15
697.89	320.07
698.23	319.03
698.56	317.93
698.90	316.97
699.23	315.81
699.57	314.94
699.90	314.06
700.24	312.90
700.58	311.90
700.91	311.10
701.25	310.29
701.58	309.45
701.92	308.63
702.25	307.86
702.59	307.10
702.92	306.29
703.26	305.55
703.59	304.79
703.93	304.15
704.26	303.43
704.60	302.50
704.93	301.70
705.26	300.87
705.60	300.20
705.93	299.33
706.27	298.85
706.60	298.11
706.94	297.39
707.27	296.76
707.61	296.10
707.94	295.28
708.27	294.34
708.61	293.49
708.94	292.76
709.28	292.20
709.61	291.52
709.94	290.93
710.28	290.13
710.61	289.27
710.95	288.34
711.28	287.74
711.61	287.18
711.95	286.56
712.28	285.95
712.61	285.25
712.95	284.73
713.28	284.13
713.61	283.43
713.95	282.79
714.28	282.23
714.61	281.65
714.95	281.15
715.28	280.62
715.61	280.02
715.95	279.50
716.28	278.77
716.61	278.20
716.95	277.52
717.28	277.06
717.61	276.49
717.94	276.03
718.28	275.27
718.61	274.78
718.94	274.30
719.27	273.88
719.61	273.38
719.94	272.78
720.27	272.21
720.60	271.74
720.94	271.40
721.27	270.84
721.60	270.34
721.93	269.90
722.27	269.60
722.60	269.17
722.93	268.67
723.26	268.27
723.59	267.90
723.93	267.48
724.26	267.02
724.59	266.77
724.92	266.39
725.25	266.20
725.59	265.72
725.92	265.40
726.25	264.98
726.58	264.54
726.91	264.24
727.24	263.86
727.57	263.40
727.91	262.95
728.24	262.63
728.57	262.28
728.90	261.95
729.23	261.45
729.56	261.11
729.89	260.69
730.22	260.38
730.55	259.92
730.89	259.63
731.22	259.31
731.55	259.02
731.88	258.64
732.21	258.20
732.54	257.86
732.87	257.43
733.20	257.14
733.53	256.79
733.86	256.43
734.19	256.07
734.52	255.90
734.85	255.70
735.18	255.43
735.51	255.17
735.84	254.81
736.17	254.63
736.50	254.34
736.83	254.31
737.16	254.04
737.49	253.73
737.82	253.38
738.15	253.14
738.48	252.72
738.81	252.48
739.14	252.26
739.47	251.92
739.80	251.60
740.13	251.27
740.46	251.14
740.79	250.86
741.12	250.66
741.45	250.39
741.78	250.01
742.11	249.71
742.44	249.48
742.77	249.23
743.10	248.90
743.43	248.59
743.75	248.18
744.08	248.14
744.41	247.87
744.74	247.70
745.07	247.39
745.40	247.30
745.73	247.28
746.06	246.99
746.39	246.97
746.71	246.90
747.04	246.74
747.37	246.48
747.70	246.31
748.03	246.01
748.36	245.89
748.68	245.65
749.01	245.55
749.34	245.22
749.67	245.04
750.00	244.93
750.33	244.92
750.65	244.70
750.98	244.32
751.31	244.14
751.64	244.01
751.97	244.05
752.29	243.82
752.62	243.42
752.95	243.38
753.28	243.13
753.60	242.90
753.93	242.77
754.26	242.64
754.59	242.45
754.91	242.39
755.24	242.23
755.57	242.13
755.90	241.81
756.22	241.76
756.55	241.56
756.88	241.30
757.20	241.07
757.53	240.91
757.86	240.74
758.19	240.71
758.51	240.61
758.84	240.32
759.17	240.17
759.49	240.19
759.82	240.00
760.15	239.86
760.47	239.71
760.80	239.52
761.13	239.50
761.45	239.38
761.78	239.26
762.11	239.11
762.43	239.01
762.76	238.96
763.08	238.83
763.41	238.78
763.74	238.70
764.06	238.50
764.39	238.43
764.71	238.34
765.04	238.21
765.37	237.99
765.69	237.91
766.02	237.86
766.34	237.66
766.67	237.52
767.00	237.49
767.32	237.52
767.65	237.64
767.97	237.45
768.30	237.32
768.62	237.18
768.95	237.04
769.27	236.89
769.60	236.88
769.92	236.71
770.25	236.68
770.57	236.56
770.90	236.57
771.22	236.41
771.55	236.29
771.87	236.26
772.20	236.19
772.52	236.17
772.85	236.24
773.17	236.13
773.50	236.00
773.82	235.87
774.15	235.66
774.47	235.30
774.80	235.13
775.12	235.04
775.45	235.02
775.77	234.94
776.09	234.86
776.42	234.72
776.74	234.72
777.07	234.61
777.39	234.51
777.72	234.39
778.04	234.37
778.36	234.32
778.69	234.10
779.01	234.04
779.33	233.95
779.66	233.60
779.98	233.51
780.31	233.53
780.63	233.51
780.95	233.47
781.28	233.41
781.60	233.31
781.92	233.25
782.25	233.07
782.57	232.99
782.89	232.91
783.22	232.76
783.54	232.64
783.86	232.52
784.19	232.43
784.51	232.40
784.83	232.28
785.16	232.25
785.48	232.22
785.80	232.21
786.12	232.10
786.45	232.15
786.77	232.06
787.09	232.04
787.42	231.95
787.74	231.83
788.06	231.72
788.38	231.71
788.71	231.60
789.03	231.58
789.35	231.55
789.67	231.50
789.99	231.59
790.32	231.56
790.64	231.55
790.96	231.75
791.28	231.67
791.61	231.67
791.93	231.56
