SpectraSuite Data File
++++++++++++++++++++++++++++++++++++
Date: Fri Feb 01 14:41:24 EST 2013
User: group
Dark Spectrum Present: No
Reference Spectrum Present: No
Number of Sampled Component Spectra: 1
Spectrometers: USB2E7196
Integration Time (usec): 70000 (USB2E7196)
Spectra Averaged: 10 (USB2E7196)
Boxcar Smoothing: 10 (USB2E7196)
Correct for Electrical Dark: No (USB2E7196)
Strobe/Lamp Enabled: No (USB2E7196)
Correct for Detector Non-linearity: No (USB2E7196)
Correct for Stray Light: No (USB2E7196)
Number of Pixels in Processed Spectrum: 2048
>>>>>Begin Processed Spectral Data<<<<<
339.09	0.00
339.48	215.60
339.86	216.20
340.24	219.10
340.63	221.30
341.01	224.10
341.39	223.20
341.78	224.00
342.16	224.70
342.54	225.40
342.93	214.24
343.31	225.08
343.69	225.56
344.07	226.03
344.46	226.43
344.84	226.74
345.22	226.92
345.60	227.16
345.99	227.39
346.37	227.59
346.75	227.70
347.13	227.77
347.52	227.71
347.90	227.72
348.28	227.77
348.66	227.88
349.05	227.82
349.43	227.80
349.81	227.78
350.19	227.86
350.57	227.91
350.96	227.95
351.34	227.94
351.72	228.12
352.10	228.28
352.48	228.33
352.87	228.39
353.25	228.47
353.63	228.59
354.01	228.64
354.39	228.68
354.77	228.72
355.15	228.98
355.54	229.13
355.92	229.24
356.30	229.31
356.68	229.59
357.06	229.73
357.44	229.87
357.82	229.90
358.20	230.07
358.58	230.05
358.97	229.95
359.35	230.09
359.73	230.17
360.11	230.16
360.49	230.20
360.87	230.20
361.25	230.22
361.63	230.23
362.01	230.22
362.39	230.21
362.77	230.28
363.15	230.29
363.53	230.32
363.91	230.34
364.29	230.39
364.67	230.17
365.05	230.18
365.43	230.20
365.81	230.30
366.19	230.33
366.57	230.43
366.95	230.56
367.33	230.47
367.71	230.59
368.09	230.58
368.47	230.56
368.85	230.61
369.23	230.56
369.61	230.46
369.99	230.50
370.37	230.50
370.75	230.57
371.13	230.36
371.51	230.35
371.89	230.29
372.27	230.19
372.65	230.14
373.03	230.04
373.41	229.95
373.78	229.85
374.16	229.73
374.54	229.47
374.92	229.36
375.30	229.47
375.68	229.25
376.06	229.21
376.44	229.12
376.82	229.03
377.19	229.09
377.57	229.00
377.95	228.82
378.33	228.79
378.71	228.62
379.09	228.68
379.47	228.49
379.84	228.30
380.22	228.25
380.60	228.11
380.98	228.00
381.36	227.89
381.73	227.77
382.11	227.77
382.49	227.76
382.87	227.69
383.25	227.48
383.62	227.60
384.00	227.56
384.38	227.55
384.76	227.50
385.13	227.47
385.51	227.52
385.89	227.45
386.27	227.42
386.64	227.38
387.02	227.33
387.40	227.41
387.78	227.46
388.15	227.50
388.53	227.45
388.91	227.46
389.29	227.44
389.66	227.49
390.04	227.36
390.42	227.48
390.79	227.50
391.17	227.58
391.55	227.38
391.92	227.29
392.30	227.27
392.68	227.32
393.05	227.29
393.43	227.25
393.81	227.38
394.18	227.39
394.56	227.41
394.94	227.38
395.31	227.40
395.69	227.48
396.06	227.48
396.44	227.52
396.82	227.58
397.19	227.84
397.57	227.89
397.95	228.04
398.32	228.07
398.70	228.09
399.07	228.10
399.45	228.16
399.82	228.39
400.20	228.54
400.58	228.70
400.95	228.71
401.33	228.90
401.70	228.97
402.08	229.11
402.45	229.20
402.83	229.43
403.20	229.54
403.58	229.79
403.95	230.02
404.33	230.23
404.71	230.41
405.08	230.60
405.46	230.64
405.83	230.81
406.21	230.99
406.58	231.29
406.96	231.54
407.33	231.83
407.70	232.08
408.08	232.47
408.45	232.61
408.83	232.96
409.20	233.17
409.58	233.41
409.95	233.72
410.33	234.19
410.70	234.50
411.08	234.86
411.45	235.10
411.82	235.43
412.20	235.94
412.57	236.44
412.95	236.81
413.32	237.43
413.69	237.89
414.07	238.40
414.44	238.94
414.82	239.41
415.19	240.02
415.56	240.66
415.94	241.30
416.31	242.15
416.68	242.94
417.06	243.81
417.43	244.73
417.81	245.73
418.18	246.62
418.55	247.63
418.93	248.65
419.30	249.85
419.67	251.05
420.04	252.15
420.42	253.34
420.79	254.86
421.16	256.31
421.54	257.81
421.91	259.29
422.28	260.94
422.66	262.72
423.03	264.36
423.40	265.87
423.77	267.50
424.15	269.10
424.52	270.81
424.89	272.94
425.26	274.76
425.64	276.56
426.01	278.51
426.38	280.53
426.75	282.64
427.13	284.70
427.50	286.89
427.87	289.24
428.24	291.46
428.61	293.41
428.99	295.80
429.36	298.47
429.73	301.10
430.10	303.55
430.47	306.16
430.85	308.73
431.22	311.54
431.59	314.59
431.96	317.50
432.33	320.53
432.70	323.28
433.08	326.81
433.45	330.04
433.82	333.17
434.19	336.76
434.56	340.12
434.93	343.51
435.30	346.64
435.68	350.31
436.05	353.94
436.42	357.40
436.79	360.52
437.16	363.85
437.53	367.29
437.90	370.62
438.27	374.04
438.64	377.60
439.01	380.92
439.38	383.45
439.75	386.12
440.13	389.40
440.50	392.29
440.87	394.64
441.24	396.96
441.61	399.74
441.98	401.52
442.35	403.90
442.72	406.09
443.09	408.46
443.46	409.48
443.83	410.14
444.20	410.89
444.57	411.70
444.94	411.88
445.31	412.31
445.68	413.01
446.05	412.97
446.42	412.47
446.79	411.78
447.16	411.45
447.53	411.16
447.90	409.53
448.27	408.25
448.64	406.14
449.01	404.68
449.37	402.22
449.74	399.82
450.11	397.14
450.48	393.99
450.85	390.73
451.22	388.06
451.59	385.66
451.96	383.20
452.33	380.20
452.70	377.47
453.07	373.91
453.43	370.12
453.80	366.74
454.17	363.39
454.54	360.32
454.91	356.88
455.28	353.40
455.65	350.54
456.02	347.52
456.38	344.94
456.75	341.77
457.12	339.00
457.49	336.37
457.86	333.46
458.23	331.18
458.59	328.68
458.96	326.15
459.33	323.74
459.70	321.38
460.07	319.30
460.43	317.02
460.80	315.02
461.17	313.26
461.54	311.37
461.91	309.54
462.27	307.66
462.64	305.95
463.01	304.22
463.38	302.46
463.74	300.43
464.11	298.95
464.48	297.52
464.85	296.01
465.21	294.91
465.58	293.77
465.95	292.38
466.32	291.20
466.68	290.10
467.05	288.97
467.42	287.77
467.78	286.72
468.15	285.50
468.52	284.63
468.88	283.49
469.25	282.46
469.62	281.62
469.98	280.68
470.35	279.86
470.72	279.04
471.08	278.15
471.45	277.54
471.82	276.71
472.18	275.95
472.55	275.40
472.92	274.54
473.28	273.77
473.65	273.02
474.02	272.42
474.38	271.76
474.75	271.14
475.11	270.60
475.48	270.06
475.85	269.81
476.21	269.30
476.58	269.04
476.94	268.74
477.31	268.30
477.67	268.09
478.04	267.79
478.41	267.61
478.77	267.56
479.14	267.30
479.50	267.16
479.87	267.06
480.23	267.00
480.60	266.89
480.96	266.90
481.33	267.09
481.69	267.14
482.06	267.23
482.42	267.31
482.79	267.47
483.15	267.71
483.52	267.83
483.88	268.01
484.25	268.02
484.61	268.16
484.98	268.51
485.34	268.86
485.71	269.28
486.07	269.63
486.44	269.92
486.80	270.53
487.17	271.06
487.53	271.63
487.90	272.29
488.26	273.16
488.62	273.97
488.99	274.70
489.35	275.53
489.72	276.30
490.08	277.40
490.44	278.45
490.81	279.44
491.17	280.66
491.54	282.10
491.90	283.48
492.26	284.96
492.63	286.57
492.99	288.21
493.36	290.01
493.72	291.85
494.08	293.84
494.45	295.72
494.81	297.90
495.17	300.00
495.54	302.25
495.90	304.62
496.26	307.10
496.63	309.80
496.99	312.65
497.35	315.86
497.72	318.90
498.08	322.17
498.44	325.79
498.80	329.47
499.17	333.08
499.53	336.96
499.89	341.07
500.26	345.23
500.62	349.65
500.98	354.17
501.34	359.06
501.71	364.16
502.07	369.53
502.43	375.02
502.79	380.86
503.16	386.87
503.52	393.15
503.88	399.42
504.24	406.04
504.60	412.84
504.97	419.74
505.33	427.05
505.69	434.75
506.05	442.43
506.41	450.40
506.78	458.69
507.14	467.32
507.50	476.27
507.86	485.51
508.22	495.09
508.59	504.75
508.95	514.65
509.31	524.89
509.67	535.31
510.03	545.87
510.39	556.80
510.75	567.85
511.12	579.31
511.48	591.30
511.84	603.45
512.20	615.60
512.56	628.24
512.92	641.34
513.28	654.38
513.64	667.90
514.00	681.38
514.37	695.51
514.73	709.68
515.09	723.61
515.45	738.04
515.81	752.56
516.17	767.87
516.53	783.21
516.89	798.68
517.25	814.36
517.61	830.51
517.97	846.38
518.33	862.70
518.69	879.01
519.05	895.92
519.41	912.83
519.77	930.46
520.13	948.09
520.49	965.26
520.85	982.84
521.21	1000.62
521.57	1019.34
521.93	1037.36
522.29	1055.79
522.65	1074.36
523.01	1092.87
523.37	1111.41
523.73	1129.81
524.09	1148.42
524.45	1167.58
524.81	1186.97
525.17	1206.48
525.53	1226.45
525.89	1245.97
526.25	1265.70
526.61	1284.71
526.97	1304.41
527.33	1323.97
527.68	1343.86
528.04	1363.80
528.40	1383.80
528.76	1404.33
529.12	1424.49
529.48	1444.51
529.84	1464.22
530.20	1484.46
530.56	1505.26
530.91	1526.44
531.27	1547.48
531.63	1567.90
531.99	1588.10
532.35	1607.69
532.71	1627.08
533.07	1647.38
533.42	1666.93
533.78	1686.69
534.14	1706.80
534.50	1726.01
534.86	1745.48
535.21	1764.50
535.57	1784.30
535.93	1803.68
536.29	1822.03
536.65	1840.73
537.00	1859.28
537.36	1878.13
537.72	1896.31
538.08	1914.15
538.44	1931.40
538.79	1948.72
539.15	1966.20
539.51	1983.86
539.87	2001.94
540.22	2019.79
540.58	2036.99
540.94	2054.25
541.29	2070.75
541.65	2087.18
542.01	2104.56
542.37	2121.03
542.72	2136.94
543.08	2152.66
543.44	2168.40
543.79	2183.50
544.15	2198.32
544.51	2214.07
544.87	2229.29
545.22	2244.38
545.58	2258.51
545.94	2272.17
546.29	2285.58
546.65	2299.19
547.01	2312.31
547.36	2325.27
547.72	2337.60
548.07	2349.48
548.43	2361.22
548.79	2373.23
549.14	2384.90
549.50	2395.19
549.86	2406.05
550.21	2416.57
550.57	2427.44
550.92	2437.55
551.28	2447.50
551.64	2457.52
551.99	2467.45
552.35	2476.62
552.70	2485.90
553.06	2495.77
553.41	2505.88
553.77	2515.37
554.13	2524.44
554.48	2533.14
554.84	2541.17
555.19	2549.30
555.55	2557.16
555.90	2564.67
556.26	2572.41
556.61	2579.91
556.97	2587.29
557.32	2593.98
557.68	2601.28
558.03	2608.17
558.39	2615.25
558.74	2622.91
559.10	2629.49
559.45	2635.81
559.81	2643.25
560.16	2649.13
560.52	2654.49
560.87	2659.87
561.23	2664.63
561.58	2670.01
561.94	2674.56
562.29	2679.13
562.64	2683.46
563.00	2688.09
563.35	2693.59
563.71	2698.78
564.06	2703.56
564.42	2708.22
564.77	2713.20
565.12	2717.72
565.48	2721.25
565.83	2724.29
566.19	2727.45
566.54	2730.24
566.89	2732.03
567.25	2733.99
567.60	2736.87
567.96	2739.17
568.31	2740.78
568.66	2742.68
569.02	2744.09
569.37	2745.38
569.72	2747.02
570.08	2748.06
570.43	2748.59
570.78	2748.68
571.14	2747.99
571.49	2747.93
571.84	2748.69
572.20	2747.59
572.55	2746.31
572.90	2744.99
573.26	2744.21
573.61	2742.70
573.96	2741.31
574.31	2739.05
574.67	2736.07
575.02	2732.80
575.37	2730.11
575.72	2726.11
576.08	2723.47
576.43	2719.88
576.78	2716.57
577.13	2713.26
577.49	2710.19
577.84	2706.49
578.19	2702.78
578.54	2698.46
578.90	2693.27
579.25	2687.08
579.60	2682.09
579.95	2676.94
580.30	2671.22
580.66	2665.56
581.01	2659.64
581.36	2653.93
581.71	2648.91
582.06	2643.41
582.42	2637.69
582.77	2631.90
583.12	2626.92
583.47	2621.35
583.82	2616.49
584.17	2610.74
584.53	2604.72
584.88	2599.18
585.23	2593.03
585.58	2587.02
585.93	2581.26
586.28	2576.05
586.63	2571.00
586.98	2565.22
587.34	2559.45
587.69	2553.52
588.04	2547.52
588.39	2541.67
588.74	2534.29
589.09	2527.17
589.44	2519.74
589.79	2514.02
590.14	2507.62
590.49	2501.03
590.84	2493.66
591.19	2486.08
591.54	2477.50
591.89	2468.40
592.25	2460.05
592.60	2451.60
592.95	2442.68
593.30	2433.95
593.65	2425.19
594.00	2416.21
594.35	2408.21
594.70	2399.39
595.05	2391.28
595.40	2382.39
595.75	2373.31
596.10	2365.82
596.45	2358.25
596.80	2351.52
597.15	2343.27
597.50	2334.53
597.85	2326.60
598.19	2319.00
598.54	2311.14
598.89	2304.23
599.24	2297.82
599.59	2290.19
599.94	2282.99
600.29	2275.41
600.64	2267.86
600.99	2259.01
601.34	2251.01
601.69	2242.28
602.04	2234.48
602.39	2226.82
602.74	2219.58
603.08	2212.47
603.43	2204.80
603.78	2196.65
604.13	2187.34
604.48	2178.57
604.83	2170.37
605.18	2161.94
605.53	2152.88
605.87	2143.13
606.22	2134.19
606.57	2124.73
606.92	2115.95
607.27	2107.61
607.62	2099.20
607.96	2090.74
608.31	2082.73
608.66	2073.47
609.01	2063.94
609.36	2053.85
609.70	2043.24
610.05	2032.72
610.40	2023.10
610.75	2012.89
611.10	2003.08
611.44	1992.74
611.79	1983.28
612.14	1973.31
612.49	1962.04
612.83	1951.69
613.18	1941.72
613.53	1931.94
613.88	1921.90
614.22	1911.93
614.57	1901.36
614.92	1891.56
615.27	1881.53
615.61	1871.58
615.96	1861.84
616.31	1852.80
616.65	1844.59
617.00	1835.27
617.35	1826.42
617.70	1816.29
618.04	1806.50
618.39	1797.20
618.74	1788.61
619.08	1778.43
619.43	1769.45
619.78	1760.98
620.12	1751.97
620.47	1743.06
620.82	1733.40
621.16	1724.16
621.51	1714.93
621.85	1705.76
622.20	1695.87
622.55	1686.90
622.89	1677.87
623.24	1669.21
623.59	1660.28
623.93	1650.42
624.28	1641.42
624.62	1632.08
624.97	1623.30
625.32	1614.63
625.66	1605.68
626.01	1596.54
626.35	1587.51
626.70	1578.25
627.04	1569.36
627.39	1559.87
627.73	1550.72
628.08	1541.98
628.43	1532.98
628.77	1523.58
629.12	1514.15
629.46	1505.38
629.81	1495.57
630.15	1486.07
630.50	1476.39
630.84	1466.49
631.19	1457.06
631.53	1447.90
631.88	1437.91
632.22	1427.91
632.57	1418.88
632.91	1409.29
633.26	1400.05
633.60	1391.24
633.95	1381.98
634.29	1373.39
634.64	1364.82
634.98	1355.65
635.32	1347.24
635.67	1339.27
636.01	1331.07
636.36	1322.78
636.70	1314.33
637.05	1306.41
637.39	1298.20
637.73	1290.10
638.08	1282.82
638.42	1275.23
638.77	1267.78
639.11	1260.24
639.45	1252.52
639.80	1244.24
640.14	1236.47
640.49	1228.41
640.83	1220.27
641.17	1212.57
641.52	1204.30
641.86	1196.25
642.20	1188.96
642.55	1181.24
642.89	1173.09
643.23	1164.89
643.58	1157.28
643.92	1149.32
644.26	1141.27
644.61	1133.82
644.95	1126.24
645.29	1117.51
645.64	1109.24
645.98	1101.39
646.32	1093.73
646.66	1086.18
647.01	1078.46
647.35	1071.08
647.69	1063.90
648.04	1056.94
648.38	1048.99
648.72	1041.17
649.06	1033.63
649.41	1025.87
649.75	1017.85
650.09	1010.37
650.43	1002.91
650.78	994.91
651.12	987.40
651.46	980.58
651.80	973.30
652.14	966.16
652.49	959.64
652.83	953.02
653.17	945.66
653.51	938.37
653.85	931.32
654.20	924.28
654.54	916.65
654.88	909.38
655.22	901.80
655.56	894.81
655.90	888.05
656.25	881.22
656.59	874.49
656.93	868.03
657.27	861.30
657.61	854.40
657.95	848.31
658.29	842.04
658.64	835.26
658.98	828.72
659.32	821.86
659.66	815.50
660.00	808.87
660.34	802.25
660.68	796.21
661.02	789.90
661.36	784.01
661.70	778.28
662.05	772.52
662.39	766.98
662.73	761.56
663.07	756.14
663.41	750.76
663.75	745.44
664.09	739.80
664.43	734.44
664.77	729.24
665.11	724.07
665.45	718.89
665.79	713.60
666.13	708.35
666.47	703.46
666.81	697.91
667.15	692.68
667.49	687.84
667.83	683.06
668.17	678.43
668.51	673.34
668.85	668.60
669.19	664.03
669.53	659.38
669.87	654.39
670.21	649.88
670.55	645.70
670.89	641.35
671.23	637.02
671.57	632.63
671.91	628.32
672.25	623.87
672.58	619.49
672.92	615.28
673.26	611.23
673.60	607.10
673.94	603.32
674.28	599.80
674.62	596.17
674.96	592.30
675.30	588.37
675.64	584.65
675.97	580.88
676.31	576.86
676.65	572.97
676.99	569.62
677.33	565.80
677.67	561.75
678.01	558.00
678.34	554.42
678.68	550.92
679.02	547.63
679.36	544.20
679.70	540.90
680.04	537.56
680.37	534.07
680.71	530.85
681.05	527.92
681.39	524.64
681.73	521.61
682.06	518.51
682.40	515.62
682.74	512.64
683.08	509.54
683.42	506.48
683.75	503.39
684.09	500.44
684.43	497.45
684.77	494.50
685.10	491.50
685.44	488.54
685.78	485.73
686.12	482.70
686.45	479.80
686.79	477.13
687.13	474.47
687.46	471.61
687.80	468.77
688.14	465.59
688.48	462.88
688.81	459.76
689.15	457.00
689.49	454.28
689.82	451.78
690.16	449.20
690.50	446.88
690.83	444.47
691.17	441.83
691.51	439.51
691.84	437.09
692.18	434.67
692.52	432.17
692.85	429.57
693.19	427.15
693.52	424.82
693.86	422.26
694.20	419.86
694.53	417.67
694.87	415.33
695.21	413.03
695.54	410.70
695.88	408.53
696.21	406.22
696.55	404.10
696.88	401.72
697.22	399.48
697.56	397.32
697.89	395.19
698.23	393.00
698.56	390.82
698.90	388.97
699.23	386.73
699.57	384.69
699.90	382.86
700.24	381.00
700.58	379.16
700.91	377.36
701.25	375.54
701.58	373.68
701.92	372.03
702.25	370.34
702.59	368.72
702.92	367.10
703.26	365.64
703.59	363.89
703.93	362.58
704.26	361.13
704.60	359.49
704.93	357.99
705.26	356.50
705.60	355.03
705.93	353.60
706.27	352.37
706.60	351.17
706.94	349.78
707.27	348.29
707.61	346.89
707.94	345.59
708.27	344.01
708.61	342.72
708.94	341.40
709.28	340.19
709.61	338.84
709.94	337.73
710.28	336.37
710.61	335.08
710.95	333.67
711.28	332.46
711.61	331.22
711.95	329.95
712.28	328.70
712.61	327.42
712.95	326.20
713.28	325.10
713.61	323.79
713.95	322.44
714.28	321.31
714.61	320.07
714.95	318.96
715.28	317.90
715.61	316.73
715.95	315.69
716.28	314.64
716.61	313.56
716.95	312.46
717.28	311.57
717.61	310.60
717.94	309.49
718.28	308.40
718.61	307.43
718.94	306.49
719.27	305.50
719.61	304.73
719.94	303.70
720.27	302.69
720.60	301.87
720.94	301.06
721.27	300.17
721.60	299.45
721.93	298.65
722.27	297.93
722.60	297.12
722.93	296.21
723.26	295.44
723.59	294.54
723.93	293.70
724.26	292.84
724.59	292.04
724.92	291.37
725.25	290.71
725.59	290.02
725.92	289.24
726.25	288.54
726.58	287.76
726.91	287.13
727.24	286.57
727.57	285.93
727.91	285.29
728.24	284.70
728.57	283.95
728.90	283.20
729.23	282.47
729.56	281.96
729.89	281.37
730.22	280.69
730.55	280.13
730.89	279.53
731.22	278.84
731.55	278.24
731.88	277.62
732.21	277.00
732.54	276.36
732.87	275.87
733.20	275.37
733.53	274.85
733.86	274.39
734.19	273.80
734.52	273.21
734.85	272.85
735.18	272.28
735.51	271.74
735.84	271.30
736.17	270.81
736.50	270.21
736.83	269.95
737.16	269.41
737.49	268.98
737.82	268.48
738.15	268.11
738.48	267.63
738.81	267.26
739.14	266.89
739.47	266.56
739.80	266.13
740.13	265.83
740.46	265.37
740.79	264.88
741.12	264.45
741.45	264.08
741.78	263.50
742.11	263.11
742.44	262.80
742.77	262.45
743.10	262.12
743.43	261.69
743.75	261.08
744.08	261.00
744.41	260.68
744.74	260.37
745.07	259.99
745.40	259.78
745.73	259.39
746.06	258.95
746.39	258.52
746.71	258.08
747.04	257.65
747.37	257.29
747.70	256.88
748.03	256.48
748.36	256.08
748.68	255.87
749.01	255.58
749.34	255.20
749.67	254.86
750.00	254.56
750.33	254.48
750.65	254.27
750.98	253.64
751.31	253.27
751.64	253.06
751.97	252.86
752.29	252.51
752.62	252.22
752.95	252.00
753.28	251.75
753.60	251.53
753.93	251.27
754.26	250.99
754.59	250.85
754.91	250.66
755.24	250.50
755.57	250.17
755.90	249.94
756.22	249.80
756.55	249.50
756.88	249.21
757.20	248.81
757.53	248.48
757.86	248.40
758.19	248.20
758.51	247.94
758.84	247.66
759.17	247.45
759.49	247.18
759.82	247.00
760.15	246.77
760.47	246.60
760.80	246.41
761.13	246.28
761.45	246.04
761.78	245.78
762.11	245.56
762.43	245.38
762.76	245.15
763.08	245.00
763.41	244.82
763.74	244.72
764.06	244.55
764.39	244.41
764.71	244.14
765.04	244.00
765.37	243.71
765.69	243.50
766.02	243.22
766.34	243.05
766.67	242.79
767.00	242.70
767.32	242.67
767.65	242.63
767.97	242.47
768.30	242.31
768.62	242.21
768.95	242.13
769.27	241.93
769.60	241.85
769.92	241.56
770.25	241.40
770.57	241.20
770.90	241.04
771.22	240.78
771.55	240.68
771.87	240.41
772.20	240.38
772.52	240.36
772.85	240.54
773.17	240.39
773.50	240.33
773.82	240.04
774.15	239.80
774.47	239.38
774.80	239.20
775.12	238.94
775.45	238.71
775.77	238.49
776.09	238.35
776.42	238.11
776.74	238.08
777.07	237.91
777.39	237.76
777.72	237.59
778.04	237.57
778.36	237.32
778.69	237.29
779.01	237.10
779.33	236.78
779.66	236.41
779.98	236.26
780.31	236.02
780.63	236.11
780.95	235.95
781.28	235.96
781.60	235.84
781.92	235.84
782.25	235.79
782.57	235.68
782.89	235.58
783.22	235.51
783.54	235.35
783.86	235.32
784.19	235.15
784.51	235.14
784.83	235.02
785.16	234.99
785.48	234.93
785.80	234.89
786.12	234.91
786.45	234.91
