SpectraSuite Data File
++++++++++++++++++++++++++++++++++++
Date: Fri Feb 01 14:39:06 EST 2013
User: group
Dark Spectrum Present: No
Reference Spectrum Present: No
Number of Sampled Component Spectra: 1
Spectrometers: USB2E7196
Integration Time (usec): 70000 (USB2E7196)
Spectra Averaged: 10 (USB2E7196)
Boxcar Smoothing: 10 (USB2E7196)
Correct for Electrical Dark: No (USB2E7196)
Strobe/Lamp Enabled: No (USB2E7196)
Correct for Detector Non-linearity: No (USB2E7196)
Correct for Stray Light: No (USB2E7196)
Number of Pixels in Processed Spectrum: 2048
>>>>>Begin Processed Spectral Data<<<<<
339.09	0.00
339.48	217.60
339.86	219.20
340.24	217.90
340.63	219.90
341.01	223.30
341.39	224.10
341.78	223.90
342.16	227.50
342.54	226.20
342.93	215.11
343.31	225.92
343.69	226.42
344.07	226.86
344.46	227.42
344.84	227.87
345.22	228.13
345.60	228.37
345.99	228.58
346.37	228.59
346.75	228.72
347.13	228.78
347.52	228.79
347.90	228.91
348.28	228.80
348.66	228.76
349.05	228.71
349.43	228.75
349.81	228.80
350.19	228.81
350.57	228.83
350.96	228.81
351.34	228.91
351.72	228.96
352.10	229.11
352.48	229.16
352.87	229.21
353.25	229.20
353.63	229.27
354.01	229.39
354.39	229.60
354.77	229.65
355.15	229.71
355.54	229.78
355.92	229.90
356.30	229.88
356.68	230.08
357.06	230.31
357.44	230.37
357.82	230.35
358.20	230.41
358.58	230.39
358.97	230.61
359.35	230.69
359.73	230.87
360.11	230.87
360.49	230.83
360.87	230.81
361.25	230.96
361.63	231.05
362.01	231.14
362.39	230.99
362.77	230.97
363.15	230.99
363.53	230.84
363.91	230.74
364.29	230.90
364.67	230.69
365.05	230.70
365.43	230.74
365.81	230.67
366.19	230.78
366.57	230.90
366.95	230.73
367.33	230.72
367.71	230.64
368.09	230.52
368.47	230.59
368.85	230.59
369.23	230.58
369.61	230.46
369.99	230.27
370.37	230.35
370.75	230.45
371.13	230.40
371.51	230.49
371.89	230.49
372.27	230.39
372.65	230.32
373.03	230.13
373.41	230.06
373.78	230.07
374.16	229.87
374.54	229.70
374.92	229.70
375.30	229.62
375.68	229.41
376.06	229.38
376.44	229.15
376.82	229.04
377.19	228.83
377.57	228.64
377.95	228.49
378.33	228.30
378.71	228.15
379.09	228.05
379.47	228.00
379.84	227.90
380.22	227.81
380.60	227.72
380.98	227.67
381.36	227.57
381.73	227.52
382.11	227.47
382.49	227.49
382.87	227.34
383.25	227.16
383.62	227.30
384.00	227.15
384.38	227.15
384.76	227.12
385.13	227.28
385.51	227.30
385.89	227.32
386.27	227.30
386.64	227.22
387.02	227.13
387.40	226.99
387.78	226.98
388.15	226.94
388.53	227.00
388.91	226.91
389.29	226.79
389.66	226.74
390.04	226.64
390.42	226.58
390.79	226.62
391.17	226.67
391.55	226.55
391.92	226.65
392.30	226.69
392.68	226.62
393.05	226.49
393.43	226.52
393.81	226.55
394.18	226.61
394.56	226.68
394.94	226.79
395.31	226.80
395.69	226.85
396.06	226.88
396.44	227.00
396.82	227.13
397.19	227.39
397.57	227.40
397.95	227.54
398.32	227.57
398.70	227.59
399.07	227.74
399.45	227.77
399.82	227.84
400.20	227.90
400.58	228.09
400.95	228.14
401.33	228.30
401.70	228.60
402.08	228.66
402.45	228.79
402.83	228.98
403.20	229.17
403.58	229.26
403.95	229.48
404.33	229.63
404.71	229.77
405.08	230.07
405.46	230.32
405.83	230.51
406.21	230.79
406.58	231.04
406.96	231.22
407.33	231.47
407.70	231.65
408.08	232.08
408.45	232.31
408.83	232.64
409.20	232.73
409.58	232.72
409.95	233.01
410.33	233.20
410.70	233.41
411.08	233.76
411.45	234.10
411.82	234.36
412.20	234.56
412.57	235.02
412.95	235.10
413.32	235.51
413.69	235.98
414.07	236.37
414.44	236.87
414.82	237.34
415.19	237.83
415.56	238.45
415.94	238.75
416.31	239.46
416.68	240.01
417.06	240.84
417.43	241.65
417.81	242.41
418.18	243.35
418.55	244.20
418.93	245.14
419.30	246.02
419.67	246.99
420.04	248.08
420.42	248.96
420.79	250.33
421.16	251.63
421.54	252.95
421.91	254.29
422.28	255.59
422.66	257.07
423.03	258.61
423.40	259.99
423.77	261.64
424.15	263.10
424.52	264.78
424.89	266.61
425.26	268.25
425.64	269.96
426.01	271.65
426.38	273.55
426.75	275.36
427.13	277.33
427.50	279.39
427.87	281.61
428.24	283.83
428.61	285.81
428.99	287.92
429.36	290.13
429.73	292.45
430.10	294.80
430.47	297.18
430.85	299.50
431.22	302.10
431.59	305.05
431.96	307.75
432.33	310.72
432.70	313.35
433.08	316.70
433.45	319.82
433.82	323.08
434.19	326.60
434.56	330.13
434.93	333.37
435.30	336.46
435.68	339.93
436.05	343.43
436.42	346.85
436.79	350.03
437.16	353.52
437.53	357.10
437.90	360.70
438.27	364.23
438.64	367.83
439.01	371.29
439.38	374.13
439.75	376.81
440.13	379.86
440.50	383.03
440.87	385.72
441.24	388.30
441.61	390.94
441.98	392.97
442.35	395.39
442.72	397.95
443.09	400.64
443.46	402.03
443.83	402.99
444.20	403.94
444.57	405.25
444.94	406.03
445.31	406.76
445.68	407.47
446.05	407.88
446.42	407.82
446.79	407.60
447.16	407.47
447.53	407.50
447.90	406.56
448.27	405.53
448.64	403.83
449.01	402.81
449.37	400.82
449.74	398.80
450.11	396.32
450.48	393.62
450.85	390.73
451.22	388.47
451.59	386.30
451.96	384.28
452.33	381.33
452.70	378.67
453.07	375.34
453.43	372.00
453.80	368.70
454.17	365.64
454.54	362.67
454.91	359.40
455.28	356.21
455.65	353.24
456.02	350.37
456.38	347.80
456.75	344.52
457.12	341.86
457.49	339.23
457.86	336.59
458.23	334.25
458.59	331.77
458.96	329.21
459.33	326.92
459.70	324.48
460.07	322.74
460.43	320.49
460.80	318.52
461.17	316.79
461.54	314.92
461.91	312.96
462.27	311.19
462.64	309.58
463.01	307.89
463.38	306.31
463.74	304.61
464.11	303.05
464.48	301.71
464.85	300.27
465.21	299.10
465.58	297.83
465.95	296.46
466.32	295.29
466.68	294.03
467.05	292.80
467.42	291.55
467.78	290.08
468.15	288.94
468.52	288.02
468.88	286.80
469.25	285.73
469.62	284.91
469.98	283.81
470.35	282.97
470.72	282.14
471.08	281.13
471.45	280.29
471.82	279.55
472.18	278.66
472.55	277.86
472.92	277.01
473.28	276.35
473.65	275.56
474.02	274.79
474.38	274.15
474.75	273.68
475.11	273.09
475.48	272.65
475.85	272.09
476.21	271.62
476.58	271.08
476.94	270.59
477.31	270.12
477.67	269.70
478.04	269.13
478.41	268.73
478.77	268.57
479.14	268.16
479.50	267.82
479.87	267.64
480.23	267.45
480.60	267.20
480.96	266.85
481.33	266.77
481.69	266.48
482.06	266.30
482.42	266.05
482.79	266.00
483.15	265.80
483.52	265.65
483.88	265.52
484.25	265.57
484.61	265.50
484.98	265.48
485.34	265.48
485.71	265.60
486.07	265.62
486.44	265.46
486.80	265.45
487.17	265.49
487.53	265.59
487.90	265.69
488.26	265.84
488.62	265.99
488.99	266.03
489.35	266.23
489.72	266.43
490.08	266.55
490.44	266.61
490.81	266.86
491.17	267.15
491.54	267.34
491.90	267.37
492.26	267.57
492.63	267.80
492.99	267.97
493.36	268.11
493.72	268.36
494.08	268.67
494.45	268.91
494.81	269.19
495.17	269.40
495.54	269.70
495.90	270.03
496.26	270.40
496.63	270.70
496.99	271.12
497.35	271.45
497.72	271.93
498.08	272.37
498.44	272.80
498.80	273.20
499.17	273.66
499.53	274.27
499.89	274.81
500.26	275.30
500.62	275.79
500.98	276.33
501.34	276.87
501.71	277.41
502.07	278.05
502.43	278.66
502.79	279.15
503.16	279.65
503.52	280.14
503.88	280.73
504.24	281.46
504.60	282.10
504.97	282.72
505.33	283.37
505.69	284.20
506.05	284.97
506.41	285.69
506.78	286.37
507.14	287.13
507.50	288.01
507.86	288.90
508.22	289.86
508.59	290.88
508.95	291.87
509.31	292.84
509.67	293.99
510.03	295.03
510.39	296.41
510.75	297.87
511.12	299.17
511.48	300.57
511.84	301.92
512.20	303.34
512.56	304.97
512.92	306.72
513.28	308.34
513.64	310.09
514.00	311.92
514.37	313.83
514.73	315.74
515.09	317.68
515.45	319.69
515.81	321.95
516.17	324.17
516.53	326.51
516.89	328.95
517.25	331.40
517.61	334.14
517.97	336.67
518.33	339.22
518.69	341.94
519.05	344.81
519.41	347.78
519.77	350.99
520.13	354.03
520.49	357.04
520.85	360.26
521.21	363.71
521.57	367.12
521.93	370.66
522.29	374.41
522.65	378.16
523.01	381.87
523.37	385.68
523.73	389.73
524.09	393.75
524.45	397.80
524.81	401.98
525.17	406.23
525.53	410.82
525.89	415.51
526.25	420.25
526.61	424.91
526.97	429.70
527.33	434.51
527.68	439.61
528.04	444.69
528.40	449.76
528.76	455.00
529.12	460.36
529.48	465.81
529.84	471.19
530.20	476.93
530.56	482.78
530.91	488.67
531.27	494.37
531.63	500.32
531.99	506.55
532.35	512.64
532.71	518.53
533.07	524.54
533.42	530.88
533.78	537.37
534.14	543.70
534.50	549.97
534.86	556.48
535.21	562.90
535.57	569.67
535.93	576.40
536.29	583.04
536.65	589.88
537.00	596.62
537.36	603.30
537.72	609.97
538.08	616.69
538.44	623.53
538.79	630.66
539.15	637.38
539.51	644.36
539.87	651.40
540.22	658.70
540.58	666.02
540.94	672.80
541.29	679.70
541.65	686.79
542.01	694.20
542.37	701.47
542.72	708.67
543.08	715.57
543.44	722.87
543.79	729.58
544.15	736.42
544.51	743.84
544.87	751.36
545.22	758.47
545.58	765.55
545.94	772.29
546.29	778.98
546.65	785.80
547.01	792.66
547.36	799.57
547.72	806.43
548.07	813.18
548.43	820.09
548.79	826.80
549.14	833.37
549.50	839.74
549.86	845.92
550.21	852.15
550.57	858.76
550.92	865.06
551.28	871.63
551.64	878.14
551.99	884.05
552.35	890.00
552.70	896.14
553.06	902.62
553.41	909.16
553.77	915.38
554.13	921.71
554.48	927.53
554.84	933.47
555.19	939.14
555.55	945.07
555.90	950.64
556.26	956.37
556.61	962.19
556.97	967.69
557.32	973.36
557.68	979.14
558.03	984.37
558.39	990.01
558.74	995.68
559.10	1000.87
559.45	1006.58
559.81	1012.38
560.16	1017.61
560.52	1022.37
560.87	1027.44
561.23	1032.28
561.58	1037.37
561.94	1042.59
562.29	1047.26
562.64	1051.75
563.00	1056.22
563.35	1061.43
563.71	1066.13
564.06	1070.87
564.42	1075.56
564.77	1079.93
565.12	1084.66
565.48	1089.41
565.83	1093.22
566.19	1097.37
566.54	1101.59
566.89	1105.25
567.25	1108.95
567.60	1112.94
567.96	1116.93
568.31	1120.41
568.66	1124.28
569.02	1127.96
569.37	1130.83
569.72	1134.17
570.08	1137.63
570.43	1140.44
570.78	1143.04
571.14	1145.62
571.49	1148.10
571.84	1150.84
572.20	1153.29
572.55	1155.21
572.90	1157.30
573.26	1159.67
573.61	1161.76
573.96	1163.68
574.31	1165.01
574.67	1165.90
575.02	1167.12
575.37	1168.45
575.72	1169.33
576.08	1170.39
576.43	1171.09
576.78	1172.51
577.13	1173.86
577.49	1174.94
577.84	1176.21
578.19	1176.94
578.54	1177.72
578.90	1178.29
579.25	1178.41
579.60	1178.68
579.95	1179.17
580.30	1179.26
580.66	1179.28
581.01	1179.39
581.36	1179.68
581.71	1180.41
582.06	1181.05
582.42	1181.01
582.77	1180.66
583.12	1180.69
583.47	1180.75
583.82	1180.57
584.17	1180.20
584.53	1179.76
584.88	1179.53
585.23	1178.98
585.58	1178.45
585.93	1178.08
586.28	1177.93
586.63	1177.68
586.98	1177.62
587.34	1176.94
587.69	1176.54
588.04	1176.10
588.39	1175.26
588.74	1173.58
589.09	1172.23
589.44	1170.87
589.79	1169.74
590.14	1168.93
590.49	1167.87
590.84	1166.32
591.19	1165.04
591.54	1162.99
591.89	1160.64
592.25	1159.10
592.60	1156.97
592.95	1154.77
593.30	1152.46
593.65	1150.14
594.00	1148.18
594.35	1146.41
594.70	1144.39
595.05	1142.25
595.40	1139.83
595.75	1137.36
596.10	1135.68
596.45	1133.71
596.80	1131.90
597.15	1129.90
597.50	1127.63
597.85	1125.73
598.19	1123.91
598.54	1121.77
598.89	1120.25
599.24	1118.85
599.59	1116.26
599.94	1114.59
600.29	1112.77
600.64	1110.59
600.99	1108.22
601.34	1105.68
601.69	1102.63
602.04	1100.20
602.39	1097.39
602.74	1095.37
603.08	1093.48
603.43	1091.34
603.78	1088.93
604.13	1086.08
604.48	1083.62
604.83	1081.34
605.18	1078.62
605.53	1075.42
605.87	1072.42
606.22	1069.52
606.57	1066.65
606.92	1063.94
607.27	1060.91
607.62	1058.26
607.96	1055.67
608.31	1052.88
608.66	1049.89
609.01	1046.89
609.36	1043.14
609.70	1039.76
610.05	1035.87
610.40	1032.30
610.75	1028.35
611.10	1024.56
611.44	1020.95
611.79	1017.64
612.14	1013.62
612.49	1009.49
612.83	1005.68
613.18	1002.17
613.53	998.38
613.88	994.17
614.22	990.38
614.57	986.26
614.92	982.33
615.27	978.47
615.61	974.59
615.96	970.84
616.31	967.53
616.65	964.45
617.00	960.99
617.35	957.46
617.70	953.57
618.04	949.82
618.39	946.18
618.74	942.50
619.08	938.17
619.43	934.63
619.78	931.30
620.12	927.73
620.47	923.99
620.82	919.91
621.16	916.50
621.51	912.78
621.85	909.59
622.20	905.62
622.55	901.93
622.89	898.25
623.24	894.78
623.59	890.97
623.93	887.40
624.28	884.03
624.62	880.60
624.97	877.16
625.32	873.90
625.66	870.70
626.01	867.29
626.35	863.79
626.70	860.37
627.04	856.82
627.39	853.14
627.73	849.37
628.08	846.33
628.43	842.40
628.77	838.67
629.12	834.50
629.46	830.73
629.81	826.73
630.15	823.06
630.50	818.92
630.84	814.70
631.19	810.55
631.53	806.63
631.88	802.45
632.22	797.98
632.57	794.20
632.91	790.01
633.26	785.79
633.60	781.85
633.95	777.90
634.29	774.22
634.64	770.78
634.98	767.02
635.32	763.21
635.67	760.00
636.01	756.71
636.36	753.05
636.70	749.61
637.05	746.40
637.39	742.94
637.73	739.89
638.08	736.96
638.42	733.70
638.77	730.44
639.11	726.92
639.45	723.95
639.80	720.44
640.14	717.07
640.49	713.85
640.83	710.57
641.17	707.09
641.52	703.51
641.86	699.94
642.20	696.85
642.55	693.39
642.89	689.93
643.23	686.36
643.58	683.60
643.92	680.20
644.26	676.68
644.61	673.57
644.95	669.93
645.29	666.11
645.64	662.46
645.98	658.85
646.32	655.75
646.66	652.25
647.01	649.00
647.35	645.78
647.69	642.60
648.04	639.62
648.38	636.21
648.72	632.80
649.06	629.44
649.41	626.13
649.75	622.50
650.09	619.03
650.43	615.58
650.78	611.82
651.12	608.39
651.46	605.04
651.80	601.73
652.14	598.60
652.49	595.41
652.83	592.37
653.17	589.03
653.51	585.93
653.85	582.77
654.20	579.29
654.54	575.84
654.88	572.44
655.22	568.79
655.56	565.53
655.90	562.47
656.25	559.47
656.59	556.23
656.93	553.44
657.27	550.43
657.61	547.13
657.95	544.38
658.29	541.69
658.64	538.72
658.98	535.38
659.32	532.34
659.66	529.65
660.00	526.63
660.34	523.86
660.68	520.95
661.02	518.14
661.36	515.51
661.70	512.81
662.05	510.25
662.39	507.74
662.73	505.23
663.07	502.72
663.41	500.07
663.75	497.40
664.09	494.94
664.43	492.39
664.77	490.06
665.11	487.34
665.45	484.85
665.79	482.52
666.13	480.01
666.47	477.62
666.81	474.89
667.15	472.50
667.49	469.99
667.83	467.56
668.17	465.16
668.51	462.75
668.85	460.55
669.19	458.41
669.53	456.12
669.87	453.75
670.21	451.42
670.55	449.20
670.89	447.37
671.23	445.18
671.57	442.88
671.91	440.85
672.25	438.81
672.58	436.76
672.92	434.64
673.26	432.69
673.60	430.67
673.94	428.75
674.28	427.06
674.62	425.22
674.96	423.42
675.30	421.74
675.64	419.97
675.97	418.02
676.31	416.10
676.65	414.29
676.99	412.72
677.33	410.81
677.67	409.01
678.01	407.15
678.34	405.27
678.68	403.69
679.02	401.90
679.36	400.32
679.70	398.58
680.04	397.15
680.37	395.57
680.71	393.84
681.05	392.36
681.39	390.64
681.73	389.31
682.06	387.75
682.40	386.28
682.74	384.96
683.08	383.67
683.42	382.12
683.75	380.64
684.09	379.08
684.43	377.68
684.77	376.18
685.10	374.55
685.44	373.11
685.78	371.76
686.12	370.36
686.45	368.75
686.79	367.34
687.13	365.70
687.46	364.21
687.80	362.97
688.14	361.50
688.48	360.18
688.81	358.55
689.15	357.13
689.49	355.62
689.82	354.12
690.16	352.69
690.50	351.46
690.83	350.19
691.17	348.84
691.51	347.66
691.84	346.45
692.18	345.10
692.52	343.89
692.85	342.51
693.19	341.42
693.52	340.17
693.86	338.84
694.20	337.63
694.53	336.58
694.87	335.30
695.21	333.98
695.54	332.64
695.88	331.48
696.21	330.26
696.55	329.11
696.88	327.92
697.22	326.73
697.56	325.57
697.89	324.50
698.23	323.38
698.56	322.16
698.90	321.10
699.23	320.05
699.57	318.92
699.90	317.84
700.24	316.61
700.58	315.57
700.91	314.58
701.25	313.71
701.58	312.76
701.92	311.74
702.25	310.90
702.59	310.00
702.92	309.21
703.26	308.29
703.59	307.32
703.93	306.63
704.26	305.72
704.60	304.89
704.93	303.96
705.26	303.04
705.60	302.22
705.93	301.38
706.27	300.71
706.60	300.06
706.94	299.24
707.27	298.44
707.61	297.87
707.94	297.05
708.27	296.13
708.61	295.26
708.94	294.62
709.28	293.93
709.61	293.29
709.94	292.50
710.28	291.80
710.61	291.10
710.95	290.19
711.28	289.60
711.61	288.81
711.95	288.20
712.28	287.60
712.61	286.91
712.95	286.19
713.28	285.58
713.61	284.85
713.95	284.34
714.28	283.76
714.61	283.01
714.95	282.53
715.28	281.95
715.61	281.23
715.95	280.46
716.28	279.91
716.61	279.36
716.95	278.79
717.28	278.21
717.61	277.75
717.94	277.18
718.28	276.53
718.61	276.11
718.94	275.58
719.27	275.05
719.61	274.56
719.94	274.05
720.27	273.52
720.60	272.93
720.94	272.39
721.27	272.03
721.60	271.70
721.93	271.28
722.27	270.81
722.60	270.49
722.93	270.20
723.26	269.69
723.59	269.25
723.93	268.84
724.26	268.48
724.59	267.95
724.92	267.63
725.25	267.33
725.59	266.91
725.92	266.46
726.25	266.00
726.58	265.66
726.91	265.43
727.24	265.08
727.57	264.83
727.91	264.51
728.24	264.11
728.57	263.75
728.90	263.29
729.23	263.01
729.56	262.70
729.89	262.44
730.22	262.13
730.55	261.73
730.89	261.35
731.22	261.01
731.55	260.70
731.88	260.26
732.21	259.80
732.54	259.48
732.87	259.22
733.20	258.98
733.53	258.69
733.86	258.30
734.19	257.87
734.52	257.57
734.85	257.28
735.18	256.85
735.51	256.49
735.84	256.17
736.17	255.81
736.50	255.46
736.83	255.20
737.16	255.01
737.49	254.75
737.82	254.40
738.15	254.06
738.48	253.71
738.81	253.51
739.14	253.27
739.47	252.91
739.80	252.63
740.13	252.38
740.46	252.06
740.79	251.88
741.12	251.60
741.45	251.32
741.78	250.95
742.11	250.78
742.44	250.52
742.77	250.36
743.10	250.04
743.43	249.75
743.75	249.29
744.08	249.20
744.41	248.91
744.74	248.76
745.07	248.58
745.40	248.40
745.73	248.18
746.06	247.96
746.39	247.84
746.71	247.61
747.04	247.37
747.37	247.20
747.70	246.95
748.03	246.89
748.36	246.75
748.68	246.59
749.01	246.33
749.34	245.99
749.67	245.77
750.00	245.66
750.33	245.75
750.65	245.60
750.98	245.20
751.31	245.06
751.64	244.90
751.97	244.80
752.29	244.65
752.62	244.49
752.95	244.34
753.28	244.07
753.60	243.88
753.93	243.74
754.26	243.63
754.59	243.42
754.91	243.11
755.24	242.90
755.57	242.81
755.90	242.69
756.22	242.58
756.55	242.43
756.88	242.27
757.20	241.92
757.53	241.80
757.86	241.66
758.19	241.60
758.51	241.39
758.84	241.21
759.17	241.14
759.49	240.92
759.82	240.90
760.15	240.84
760.47	240.71
760.80	240.60
761.13	240.43
761.45	240.39
761.78	240.34
762.11	240.10
762.43	239.94
762.76	239.76
763.08	239.75
763.41	239.67
763.74	239.55
764.06	239.50
764.39	239.39
764.71	239.29
765.04	239.05
765.37	239.00
765.69	238.79
766.02	238.60
766.34	238.51
766.67	238.29
767.00	238.10
767.32	238.13
767.65	238.12
767.97	237.91
768.30	237.69
768.62	237.55
768.95	237.58
769.27	237.43
769.60	237.41
769.92	237.24
770.25	237.10
770.57	236.93
770.90	236.69
771.22	236.65
771.55	236.44
771.87	236.40
772.20	236.36
772.52	236.45
772.85	236.58
773.17	236.55
773.50	236.48
773.82	236.43
774.15	236.17
774.47	235.88
774.80	235.81
775.12	235.70
775.45	235.60
775.77	235.40
776.09	235.32
776.42	235.23
776.74	235.25
777.07	235.07
777.39	235.02
777.72	235.01
778.04	234.84
778.36	234.93
778.69	234.83
779.01	234.65
779.33	234.42
779.66	234.14
779.98	234.00
780.31	233.90
780.63	233.87
780.95	233.85
781.28	233.89
781.60	233.76
781.92	233.63
782.25	233.53
782.57	233.47
782.89	233.35
783.22	233.20
783.54	233.11
783.86	233.12
784.19	233.02
784.51	232.92
784.83	232.88
785.16	232.66
785.48	232.58
785.80	232.49
786.12	232.36
786.45	232.31
786.77	232.30
787.09	232.23
787.42	232.09
787.74	232.10
788.06	232.01
788.38	231.91
788.71	231.97
789.03	231.98
789.35	232.04
789.67	232.06
789.99	232.03
790.32	231.93
790.64	231.94
790.96	232.03
