SpectraSuite Data File
++++++++++++++++++++++++++++++++++++
Date: Fri Feb 01 14:36:21 EST 2013
User: group
Dark Spectrum Present: No
Reference Spectrum Present: No
Number of Sampled Component Spectra: 1
Spectrometers: USB2E7196
Integration Time (usec): 70000 (USB2E7196)
Spectra Averaged: 10 (USB2E7196)
Boxcar Smoothing: 10 (USB2E7196)
Correct for Electrical Dark: No (USB2E7196)
Strobe/Lamp Enabled: No (USB2E7196)
Correct for Detector Non-linearity: No (USB2E7196)
Correct for Stray Light: No (USB2E7196)
Number of Pixels in Processed Spectrum: 2048
>>>>>Begin Processed Spectral Data<<<<<
339.09	0.00
339.48	216.80
339.86	217.70
340.24	218.70
340.63	220.10
341.01	223.00
341.39	224.00
341.78	224.00
342.16	226.20
342.54	226.10
342.93	214.75
343.31	225.63
343.69	226.09
344.07	226.59
344.46	226.99
344.84	227.40
345.22	227.60
345.60	227.87
345.99	228.06
346.37	228.22
346.75	228.37
347.13	228.46
347.52	228.48
347.90	228.59
348.28	228.58
348.66	228.69
349.05	228.56
349.43	228.61
349.81	228.69
350.19	228.59
350.57	228.60
350.96	228.68
351.34	228.73
351.72	228.85
352.10	228.97
352.48	229.09
352.87	229.14
353.25	229.21
353.63	229.19
354.01	229.23
354.39	229.22
354.77	229.21
355.15	229.32
355.54	229.34
355.92	229.21
356.30	229.40
356.68	229.56
357.06	229.66
357.44	229.72
357.82	229.69
358.20	229.81
358.58	229.87
358.97	229.93
359.35	230.01
359.73	230.11
360.11	230.07
360.49	230.10
360.87	230.10
361.25	230.20
361.63	230.32
362.01	230.30
362.39	230.28
362.77	230.30
363.15	230.29
363.53	230.29
363.91	230.41
364.29	230.37
364.67	230.12
365.05	230.12
365.43	230.18
365.81	230.23
366.19	230.31
366.57	230.27
366.95	230.23
367.33	230.11
367.71	230.12
368.09	230.09
368.47	230.01
368.85	229.94
369.23	229.95
369.61	229.87
369.99	230.00
370.37	229.95
370.75	230.05
371.13	229.94
371.51	229.90
371.89	229.82
372.27	229.81
372.65	229.76
373.03	229.68
373.41	229.56
373.78	229.44
374.16	229.30
374.54	229.18
374.92	228.99
375.30	228.93
375.68	228.67
376.06	228.57
376.44	228.46
376.82	228.39
377.19	228.32
377.57	228.31
377.95	228.18
378.33	228.15
378.71	227.89
379.09	227.82
379.47	227.76
379.84	227.62
380.22	227.46
380.60	227.44
380.98	227.30
381.36	227.30
381.73	227.16
382.11	227.15
382.49	227.24
382.87	227.15
383.25	227.10
383.62	227.32
384.00	227.26
384.38	227.23
384.76	227.29
385.13	227.15
385.51	227.02
385.89	226.90
386.27	226.93
386.64	226.93
387.02	226.92
387.40	226.86
387.78	226.94
388.15	226.98
388.53	226.92
388.91	227.00
389.29	226.95
389.66	227.02
390.04	226.95
390.42	226.90
390.79	227.06
391.17	227.11
391.55	227.01
391.92	227.10
392.30	227.13
392.68	227.05
393.05	227.20
393.43	227.20
393.81	227.26
394.18	227.29
394.56	227.45
394.94	227.52
395.31	227.59
395.69	227.72
396.06	227.80
396.44	227.96
396.82	227.92
397.19	228.17
397.57	228.24
397.95	228.35
398.32	228.40
398.70	228.43
399.07	228.59
399.45	228.65
399.82	228.75
400.20	228.84
400.58	229.00
400.95	229.02
401.33	229.25
401.70	229.62
402.08	229.77
402.45	229.84
402.83	230.02
403.20	230.23
403.58	230.40
403.95	230.54
404.33	230.69
404.71	230.90
405.08	231.16
405.46	231.43
405.83	231.80
406.21	232.05
406.58	232.33
406.96	232.52
407.33	232.70
407.70	232.91
408.08	233.37
408.45	233.76
408.83	234.20
409.20	234.44
409.58	234.63
409.95	234.99
410.33	235.60
410.70	236.13
411.08	236.61
411.45	237.05
411.82	237.60
412.20	238.25
412.57	239.13
412.95	239.63
413.32	240.35
413.69	241.04
414.07	241.89
414.44	242.89
414.82	243.85
415.19	245.08
415.56	246.20
415.94	247.44
416.31	248.75
416.68	249.98
417.06	251.48
417.43	252.83
417.81	254.32
418.18	255.87
418.55	257.50
418.93	259.33
419.30	261.33
419.67	263.31
420.04	265.40
420.42	267.44
420.79	269.97
421.16	272.50
421.54	275.09
421.91	277.65
422.28	280.29
422.66	283.28
423.03	286.06
423.40	289.02
423.77	292.05
424.15	295.23
424.52	298.56
424.89	302.19
425.26	305.81
425.64	309.24
426.01	312.93
426.38	316.77
426.75	320.76
427.13	324.60
427.50	328.84
427.87	333.10
428.24	337.48
428.61	341.62
428.99	346.18
429.36	351.01
429.73	355.97
430.10	360.92
430.47	365.88
430.85	371.00
431.22	376.41
431.59	382.28
431.96	387.69
432.33	393.78
432.70	399.67
433.08	406.54
433.45	413.01
433.82	419.34
434.19	426.47
434.56	433.33
434.93	440.14
435.30	446.92
435.68	454.47
436.05	461.86
436.42	469.09
436.79	475.77
437.16	482.99
437.53	490.36
437.90	497.61
438.27	504.87
438.64	512.45
439.01	519.48
439.38	525.71
439.75	531.90
440.13	538.80
440.50	545.33
440.87	550.81
441.24	556.54
441.61	562.80
441.98	567.50
442.35	572.92
442.72	578.51
443.09	583.84
443.46	587.35
443.83	589.59
444.20	591.69
444.57	594.66
444.94	596.44
445.31	598.47
445.68	600.43
446.05	601.45
446.42	601.54
446.79	601.62
447.16	601.31
447.53	601.48
447.90	599.61
448.27	597.72
448.64	594.58
449.01	592.80
449.37	588.78
449.74	584.76
450.11	579.94
450.48	574.45
450.85	568.96
451.22	564.16
451.59	559.83
451.96	555.74
452.33	549.77
452.70	544.21
453.07	537.65
453.43	530.98
453.80	524.68
454.17	518.21
454.54	512.10
454.91	505.72
455.28	499.24
455.65	493.11
456.02	487.17
456.38	481.91
456.75	475.05
457.12	469.54
457.49	464.14
457.86	458.93
458.23	454.38
458.59	449.19
458.96	443.85
459.33	439.35
459.70	434.84
460.07	431.14
460.43	427.06
460.80	422.83
461.17	419.09
461.54	415.28
461.91	411.85
462.27	408.29
462.64	405.08
463.01	401.69
463.38	398.56
463.74	395.19
464.11	392.37
464.48	390.08
464.85	387.21
465.21	384.98
465.58	382.55
465.95	379.82
466.32	377.54
466.68	375.26
467.05	372.93
467.42	370.45
467.78	368.16
468.15	365.83
468.52	364.24
468.88	362.06
469.25	360.11
469.62	358.36
469.98	356.47
470.35	354.75
470.72	353.19
471.08	351.46
471.45	350.01
471.82	348.51
472.18	346.70
472.55	345.40
472.92	344.05
473.28	342.84
473.65	341.45
474.02	340.19
474.38	339.23
474.75	338.16
475.11	337.10
475.48	336.10
475.85	335.30
476.21	334.46
476.58	333.87
476.94	333.20
477.31	332.59
477.67	332.08
478.04	331.66
478.41	331.06
478.77	330.77
479.14	330.24
479.50	329.88
479.87	329.68
480.23	329.66
480.60	329.31
480.96	329.02
481.33	329.07
481.69	329.20
482.06	329.10
482.42	329.13
482.79	329.22
483.15	329.47
483.52	329.78
483.88	330.03
484.25	330.14
484.61	330.33
484.98	330.68
485.34	331.10
485.71	331.56
486.07	332.12
486.44	332.42
486.80	332.87
487.17	333.44
487.53	334.26
487.90	334.90
488.26	335.83
488.62	336.70
488.99	337.56
489.35	338.22
489.72	339.13
490.08	340.12
490.44	341.05
490.81	342.07
491.17	343.05
491.54	344.04
491.90	345.10
492.26	346.42
492.63	347.50
492.99	348.61
493.36	349.90
493.72	351.15
494.08	352.43
494.45	353.97
494.81	355.36
495.17	356.61
495.54	358.08
495.90	359.46
496.26	360.90
496.63	362.30
496.99	363.88
497.35	365.38
497.72	366.98
498.08	368.54
498.44	370.14
498.80	371.79
499.17	373.45
499.53	375.00
499.89	376.58
500.26	378.09
500.62	379.49
500.98	381.21
501.34	382.73
501.71	384.38
502.07	385.70
502.43	387.23
502.79	388.64
503.16	389.98
503.52	391.38
503.88	392.56
504.24	393.97
504.60	395.28
504.97	396.65
505.33	397.86
505.69	399.30
506.05	400.57
506.41	401.60
506.78	402.66
507.14	403.82
507.50	404.76
507.86	405.98
508.22	407.15
508.59	407.85
508.95	408.76
509.31	409.70
509.67	410.62
510.03	411.42
510.39	412.43
510.75	413.27
511.12	413.93
511.48	414.81
511.84	415.50
512.20	416.08
512.56	416.75
512.92	417.40
513.28	417.73
513.64	418.02
514.00	418.36
514.37	418.80
514.73	419.11
515.09	419.50
515.45	419.70
515.81	420.08
516.17	420.38
516.53	420.78
516.89	420.87
517.25	421.26
517.61	421.61
517.97	421.64
518.33	421.72
518.69	422.15
519.05	422.32
519.41	422.54
519.77	422.76
520.13	422.95
520.49	423.04
520.85	423.36
521.21	423.71
521.57	424.31
521.93	424.51
522.29	425.13
522.65	425.60
523.01	426.00
523.37	426.25
523.73	426.68
524.09	427.00
524.45	427.66
524.81	428.20
525.17	428.88
525.53	429.75
525.89	430.52
526.25	431.21
526.61	431.96
526.97	432.75
527.33	433.79
527.68	435.03
528.04	436.23
528.40	437.34
528.76	438.36
529.12	439.51
529.48	440.95
529.84	442.07
530.20	443.48
530.56	445.04
530.91	446.90
531.27	448.59
531.63	450.43
531.99	452.13
532.35	453.86
532.71	455.55
533.07	457.37
533.42	459.67
533.78	461.69
534.14	463.95
534.50	466.04
534.86	468.40
535.21	470.29
535.57	472.62
535.93	475.05
536.29	477.80
536.65	480.41
537.00	482.96
537.36	485.66
537.72	488.23
538.08	491.06
538.44	493.87
538.79	496.84
539.15	499.53
539.51	502.58
539.87	505.68
540.22	509.14
540.58	512.60
540.94	515.48
541.29	518.90
541.65	522.10
542.01	525.63
542.37	529.00
542.72	532.63
543.08	536.06
543.44	539.60
543.79	542.99
544.15	546.56
544.51	550.34
544.87	554.32
545.22	558.15
545.58	561.81
545.94	565.39
546.29	569.19
546.65	573.27
547.01	577.16
547.36	581.09
547.72	584.69
548.07	588.32
548.43	592.22
548.79	595.88
549.14	599.91
549.50	603.62
549.86	607.23
550.21	611.20
550.57	615.20
550.92	619.18
551.28	623.23
551.64	627.53
551.99	631.62
552.35	635.21
552.70	639.35
553.06	643.33
553.41	647.47
553.77	651.63
554.13	655.44
554.48	659.66
554.84	663.84
555.19	668.03
555.55	672.08
555.90	676.18
556.26	680.20
556.61	684.10
556.97	688.21
557.32	692.32
557.68	696.30
558.03	700.42
558.39	704.40
558.74	708.29
559.10	711.91
559.45	715.82
559.81	719.98
560.16	723.74
560.52	727.70
560.87	731.52
561.23	735.10
561.58	739.09
561.94	742.59
562.29	746.14
562.64	749.57
563.00	753.22
563.35	757.32
563.71	761.41
564.06	765.38
564.42	769.23
564.77	773.05
565.12	776.72
565.48	780.40
565.83	783.87
566.19	787.46
566.54	790.77
566.89	794.12
567.25	797.45
567.60	800.87
567.96	804.31
568.31	807.56
568.66	810.88
569.02	814.01
569.37	817.13
569.72	820.17
570.08	823.03
570.43	826.04
570.78	828.34
571.14	830.84
571.49	833.44
571.84	836.14
572.20	838.45
572.55	840.74
572.90	842.83
573.26	844.95
573.61	847.07
573.96	849.23
574.31	851.04
574.67	852.69
575.02	854.13
575.37	855.66
575.72	857.00
576.08	858.63
576.43	860.21
576.78	861.58
577.13	863.06
577.49	864.64
577.84	865.98
578.19	867.42
578.54	868.56
578.90	869.63
579.25	870.26
579.60	871.27
579.95	872.01
580.30	872.56
580.66	873.57
581.01	874.12
581.36	874.53
581.71	875.06
582.06	875.78
582.42	876.26
582.77	876.74
583.12	877.51
583.47	877.96
583.82	878.46
584.17	878.90
584.53	879.00
584.88	879.05
585.23	879.01
585.58	879.11
585.93	879.24
586.28	879.21
586.63	879.48
586.98	879.70
587.34	879.96
587.69	880.11
588.04	880.16
588.39	880.35
588.74	880.06
589.09	879.66
589.44	878.93
589.79	878.99
590.14	878.86
590.49	878.29
590.84	877.68
591.19	877.13
591.54	876.26
591.89	875.39
592.25	875.05
592.60	874.18
592.95	873.05
593.30	871.79
593.65	870.70
594.00	869.67
594.35	868.76
594.70	867.42
595.05	866.47
595.40	864.88
595.75	863.59
596.10	862.73
596.45	862.28
596.80	861.89
597.15	860.75
597.50	859.37
597.85	858.46
598.19	857.19
598.54	855.95
598.89	854.89
599.24	853.98
599.59	852.32
599.94	851.32
600.29	850.13
600.64	848.90
600.99	847.45
601.34	846.07
601.69	844.18
602.04	842.89
602.39	841.30
602.74	840.24
603.08	838.83
603.43	837.45
603.78	835.50
604.13	833.61
604.48	832.10
604.83	830.59
605.18	828.63
605.53	826.87
605.87	824.69
606.22	823.06
606.57	821.06
606.92	819.29
607.27	817.34
607.62	815.63
607.96	814.09
608.31	812.45
608.66	810.24
609.01	808.24
609.36	806.00
609.70	803.54
610.05	801.10
610.40	798.84
610.75	796.18
611.10	793.76
611.44	791.04
611.79	788.57
612.14	786.08
612.49	783.60
612.83	781.07
613.18	778.51
613.53	775.82
613.88	773.18
614.22	770.60
614.57	767.67
614.92	764.84
615.27	762.02
615.61	759.06
615.96	756.20
616.31	753.62
616.65	751.52
617.00	749.31
617.35	746.91
617.70	744.28
618.04	741.90
618.39	739.40
618.74	737.15
619.08	734.21
619.43	731.53
619.78	729.26
620.12	726.73
620.47	724.45
620.82	721.60
621.16	719.08
621.51	716.65
621.85	714.29
622.20	711.83
622.55	709.28
622.89	706.94
623.24	705.00
623.59	702.68
623.93	700.08
624.28	697.53
624.62	695.01
624.97	692.70
625.32	690.30
625.66	688.02
626.01	685.35
626.35	683.03
626.70	680.59
627.04	677.93
627.39	675.35
627.73	672.80
628.08	670.57
628.43	668.14
628.77	665.66
629.12	663.26
629.46	660.70
629.81	657.98
630.15	655.36
630.50	652.67
630.84	650.02
631.19	647.20
631.53	644.40
631.88	641.62
632.22	638.62
632.57	636.14
632.91	633.27
633.26	630.78
633.60	628.09
633.95	625.50
634.29	622.85
634.64	620.41
634.98	617.78
635.32	615.41
635.67	612.96
636.01	610.35
636.36	607.79
636.70	605.40
637.05	603.25
637.39	601.04
637.73	598.74
638.08	596.56
638.42	594.31
638.77	592.10
639.11	589.63
639.45	587.38
639.80	584.86
640.14	582.57
640.49	580.37
640.83	578.24
641.17	575.86
641.52	573.51
641.86	570.94
642.20	568.70
642.55	566.21
642.89	563.95
643.23	561.62
643.58	559.46
643.92	557.00
644.26	554.44
644.61	552.10
644.95	549.65
645.29	546.86
645.64	544.22
645.98	541.95
646.32	539.74
646.66	537.36
647.01	535.09
647.35	532.65
647.69	530.31
648.04	528.02
648.38	525.77
648.72	523.10
649.06	520.92
649.41	518.62
649.75	516.16
650.09	513.67
650.43	511.34
650.78	508.73
651.12	506.42
651.46	504.26
651.80	501.88
652.14	499.68
652.49	497.60
652.83	495.63
653.17	493.23
653.51	490.78
653.85	488.63
654.20	486.43
654.54	484.16
654.88	481.89
655.22	479.36
655.56	477.01
655.90	475.17
656.25	472.91
656.59	470.81
656.93	468.69
657.27	466.49
657.61	464.20
657.95	462.33
658.29	460.28
658.64	458.23
658.98	456.14
659.32	453.95
659.66	451.89
660.00	449.69
660.34	447.57
660.68	445.65
661.02	443.63
661.36	441.56
661.70	439.82
662.05	437.99
662.39	436.30
662.73	434.50
663.07	432.74
663.41	430.95
663.75	429.08
664.09	427.38
664.43	425.63
664.77	423.94
665.11	422.12
665.45	420.44
665.79	418.63
666.13	416.76
666.47	415.12
666.81	413.41
667.15	411.51
667.49	409.91
667.83	408.35
668.17	406.69
668.51	405.10
668.85	403.47
669.19	401.84
669.53	400.18
669.87	398.51
670.21	396.83
670.55	395.34
670.89	393.94
671.23	392.41
671.57	391.09
671.91	389.77
672.25	388.22
672.58	386.80
672.92	385.45
673.26	384.22
673.60	382.73
673.94	381.26
674.28	380.12
674.62	378.93
674.96	377.61
675.30	376.21
675.64	374.87
675.97	373.41
676.31	372.10
676.65	370.90
676.99	369.83
677.33	368.56
677.67	367.30
678.01	365.95
678.34	364.76
678.68	363.41
679.02	362.08
679.36	360.93
679.70	359.56
680.04	358.23
680.37	357.03
680.71	355.85
681.05	354.83
681.39	353.72
681.73	352.57
682.06	351.49
682.40	350.44
682.74	349.31
683.08	348.26
683.42	347.18
683.75	346.00
684.09	344.69
684.43	343.59
684.77	342.39
685.10	341.23
685.44	339.98
685.78	338.86
686.12	337.74
686.45	336.48
686.79	335.44
687.13	334.34
687.46	333.20
687.80	332.16
688.14	330.93
688.48	329.78
688.81	328.62
689.15	327.53
689.49	326.45
689.82	325.39
690.16	324.35
690.50	323.43
690.83	322.40
691.17	321.28
691.51	320.24
691.84	319.27
692.18	318.24
692.52	317.26
692.85	316.33
693.19	315.42
693.52	314.78
693.86	313.81
694.20	312.89
694.53	311.88
694.87	310.81
695.21	309.99
695.54	309.06
695.88	308.12
696.21	307.14
696.55	306.34
696.88	305.40
697.22	304.51
697.56	303.58
697.89	302.82
698.23	302.10
698.56	301.36
698.90	300.68
699.23	299.92
699.57	299.08
699.90	298.32
700.24	297.55
700.58	296.57
700.91	295.90
701.25	295.28
701.58	294.76
701.92	294.22
702.25	293.51
702.59	292.80
702.92	292.13
703.26	291.46
703.59	290.83
703.93	290.41
704.26	289.83
704.60	289.16
704.93	288.50
705.26	287.89
705.60	287.28
705.93	286.53
706.27	286.15
706.60	285.78
706.94	285.24
707.27	284.69
707.61	284.22
707.94	283.63
708.27	283.07
708.61	282.41
708.94	281.85
709.28	281.33
709.61	280.97
709.94	280.40
710.28	279.98
710.61	279.27
710.95	278.64
711.28	278.22
711.61	277.66
711.95	277.21
712.28	276.70
712.61	276.12
712.95	275.79
713.28	275.21
713.61	274.65
713.95	274.16
714.28	273.65
714.61	273.09
714.95	272.64
715.28	272.20
715.61	271.70
715.95	271.28
716.28	270.97
716.61	270.46
716.95	270.20
717.28	269.78
717.61	269.47
717.94	268.99
718.28	268.36
718.61	268.00
718.94	267.59
719.27	267.20
719.61	266.92
719.94	266.47
720.27	265.96
720.60	265.57
720.94	265.08
721.27	264.73
721.60	264.46
721.93	264.09
722.27	263.70
722.60	263.38
722.93	262.92
723.26	262.38
723.59	261.87
723.93	261.36
724.26	260.95
724.59	260.64
724.92	260.32
725.25	260.10
725.59	259.73
725.92	259.35
726.25	258.97
726.58	258.60
726.91	258.33
727.24	258.05
727.57	257.80
727.91	257.56
728.24	257.18
728.57	256.77
728.90	256.47
729.23	256.20
729.56	255.94
729.89	255.72
730.22	255.49
730.55	255.31
730.89	255.10
731.22	254.82
731.55	254.54
731.88	254.26
732.21	254.00
732.54	253.69
732.87	253.39
733.20	253.13
733.53	252.83
733.86	252.40
734.19	252.18
734.52	251.87
734.85	251.69
735.18	251.54
735.51	251.27
735.84	250.88
736.17	250.66
736.50	250.30
736.83	250.24
737.16	249.99
737.49	249.63
737.82	249.33
738.15	249.16
738.48	248.87
738.81	248.51
739.14	248.29
739.47	248.07
739.80	247.91
740.13	247.76
740.46	247.58
740.79	247.43
741.12	247.11
741.45	246.80
741.78	246.45
742.11	246.31
742.44	246.19
742.77	246.11
743.10	245.76
743.43	245.58
743.75	245.18
744.08	245.22
744.41	245.02
744.74	244.88
745.07	244.67
745.40	244.52
745.73	244.61
746.06	244.40
746.39	244.29
746.71	244.06
747.04	243.81
747.37	243.58
747.70	243.42
748.03	243.26
748.36	243.20
748.68	243.06
749.01	242.85
749.34	242.73
749.67	242.63
750.00	242.60
750.33	242.60
750.65	242.50
750.98	242.14
751.31	242.08
751.64	241.97
751.97	241.79
752.29	241.61
752.62	241.26
752.95	241.06
753.28	240.87
753.60	240.69
753.93	240.68
754.26	240.64
754.59	240.54
754.91	240.40
755.24	240.24
755.57	240.15
755.90	239.92
756.22	239.73
756.55	239.65
756.88	239.48
757.20	239.29
757.53	239.08
757.86	239.01
758.19	238.97
758.51	238.87
758.84	238.90
759.17	238.82
759.49	238.80
759.82	238.91
760.15	238.78
760.47	238.76
760.80	238.57
761.13	238.51
761.45	238.39
761.78	238.30
762.11	238.27
762.43	238.26
762.76	238.25
763.08	238.11
763.41	237.93
763.74	237.84
764.06	237.75
764.39	237.76
764.71	237.62
765.04	237.49
765.37	237.42
765.69	237.18
766.02	237.16
766.34	237.06
766.67	236.86
767.00	236.82
767.32	236.78
767.65	236.86
767.97	236.79
768.30	236.73
768.62	236.64
768.95	236.44
769.27	236.24
769.60	236.13
769.92	236.08
770.25	235.98
770.57	235.80
770.90	235.62
771.22	235.47
771.55	235.33
771.87	235.26
772.20	235.03
772.52	235.14
772.85	235.16
773.17	235.05
773.50	234.91
773.82	234.81
774.15	234.70
774.47	234.38
774.80	234.28
775.12	234.27
775.45	234.27
775.77	234.24
776.09	234.10
776.42	234.06
776.74	234.14
777.07	234.10
777.39	234.03
777.72	233.98
778.04	233.96
778.36	233.84
778.69	233.80
779.01	233.81
779.33	233.60
779.66	233.40
779.98	233.40
780.31	233.30
780.63	233.40
780.95	233.30
781.28	233.31
781.60	233.24
781.92	233.09
782.25	232.98
782.57	232.93
782.89	233.03
783.22	232.84
783.54	232.67
783.86	232.68
784.19	232.71
784.51	232.70
784.83	232.55
785.16	232.60
785.48	232.51
785.80	232.48
786.12	232.42
786.45	232.37
786.77	232.30
787.09	232.31
787.42	232.20
787.74	232.20
788.06	232.16
788.38	232.01
788.71	231.99
789.03	231.98
789.35	232.01
789.67	231.86
789.99	231.88
790.32	231.83
790.64	231.74
790.96	231.84
791.28	231.83
791.61	231.90
791.93	231.87
792.25	231.84
792.57	231.82
792.89	231.73
793.21	231.63
793.54	231.63
793.86	231.59
794.18	231.45
