SpectraSuite Data File
++++++++++++++++++++++++++++++++++++
Date: Fri Feb 01 14:37:58 EST 2013
User: group
Dark Spectrum Present: No
Reference Spectrum Present: No
Number of Sampled Component Spectra: 1
Spectrometers: USB2E7196
Integration Time (usec): 70000 (USB2E7196)
Spectra Averaged: 10 (USB2E7196)
Boxcar Smoothing: 10 (USB2E7196)
Correct for Electrical Dark: No (USB2E7196)
Strobe/Lamp Enabled: No (USB2E7196)
Correct for Detector Non-linearity: No (USB2E7196)
Correct for Stray Light: No (USB2E7196)
Number of Pixels in Processed Spectrum: 2048
>>>>>Begin Processed Spectral Data<<<<<
339.09	0.00
339.48	214.70
339.86	217.90
340.24	217.60
340.63	220.30
341.01	223.50
341.39	222.60
341.78	224.20
342.16	226.70
342.54	225.80
342.93	214.44
343.31	225.32
343.69	225.91
344.07	226.40
344.46	226.93
344.84	227.24
345.22	227.33
345.60	227.64
345.99	227.90
346.37	227.97
346.75	228.11
347.13	228.21
347.52	228.28
347.90	228.28
348.28	228.36
348.66	228.50
349.05	228.56
349.43	228.60
349.81	228.69
350.19	228.74
350.57	228.89
350.96	228.87
351.34	228.90
351.72	228.96
352.10	229.03
352.48	229.11
352.87	229.25
353.25	229.47
353.63	229.47
354.01	229.48
354.39	229.55
354.77	229.57
355.15	229.70
355.54	229.77
355.92	229.79
356.30	229.70
356.68	229.90
357.06	229.87
357.44	229.84
357.82	229.89
358.20	229.87
358.58	229.94
358.97	230.02
359.35	230.10
359.73	230.20
360.11	230.32
360.49	230.36
360.87	230.37
361.25	230.35
361.63	230.52
362.01	230.63
362.39	230.66
362.77	230.75
363.15	230.66
363.53	230.59
363.91	230.60
364.29	230.68
364.67	230.35
365.05	230.33
365.43	230.33
365.81	230.33
366.19	230.36
366.57	230.37
366.95	230.35
367.33	230.27
367.71	230.19
368.09	230.08
368.47	230.00
368.85	229.96
369.23	229.92
369.61	229.65
369.99	229.58
370.37	229.46
370.75	229.43
371.13	229.30
371.51	229.34
371.89	229.29
372.27	229.16
372.65	229.15
373.03	229.15
373.41	229.16
373.78	229.07
374.16	228.94
374.54	228.73
374.92	228.68
375.30	228.62
375.68	228.49
376.06	228.41
376.44	228.26
376.82	228.13
377.19	228.06
377.57	228.00
377.95	227.81
378.33	227.68
378.71	227.51
379.09	227.44
379.47	227.28
379.84	227.19
380.22	227.15
380.60	227.02
380.98	226.88
381.36	226.67
381.73	226.57
382.11	226.45
382.49	226.43
382.87	226.34
383.25	226.26
383.62	226.49
384.00	226.31
384.38	226.31
384.76	226.34
385.13	226.32
385.51	226.24
385.89	226.16
386.27	226.26
386.64	226.23
387.02	226.20
387.40	226.16
387.78	226.15
388.15	226.23
388.53	226.28
388.91	226.32
389.29	226.32
389.66	226.25
390.04	226.28
390.42	226.28
390.79	226.25
391.17	226.25
391.55	226.02
391.92	226.00
392.30	226.01
392.68	225.95
393.05	226.10
393.43	226.31
393.81	226.37
394.18	226.26
394.56	226.30
394.94	226.46
395.31	226.59
395.69	226.69
396.06	226.66
396.44	226.74
396.82	226.76
397.19	226.95
397.57	227.06
397.95	227.23
398.32	227.38
398.70	227.45
399.07	227.53
399.45	227.62
399.82	227.86
400.20	228.02
400.58	228.13
400.95	228.08
401.33	228.17
401.70	228.50
402.08	228.73
402.45	228.85
402.83	228.99
403.20	229.12
403.58	229.28
403.95	229.37
404.33	229.47
404.71	229.68
405.08	229.90
405.46	230.18
405.83	230.34
406.21	230.36
406.58	230.61
406.96	230.87
407.33	231.10
407.70	231.26
408.08	231.61
408.45	232.01
408.83	232.37
409.20	232.60
409.58	232.69
409.95	233.06
410.33	233.43
410.70	233.67
411.08	233.99
411.45	234.45
411.82	234.93
412.20	235.48
412.57	236.10
412.95	236.39
413.32	236.74
413.69	237.31
414.07	238.02
414.44	238.54
414.82	239.13
415.19	239.87
415.56	240.72
415.94	241.36
416.31	242.16
416.68	243.01
417.06	243.84
417.43	244.82
417.81	245.82
418.18	246.98
418.55	248.11
418.93	249.36
419.30	250.57
419.67	251.83
420.04	253.22
420.42	254.50
420.79	256.27
421.16	257.97
421.54	259.60
421.91	261.31
422.28	263.17
422.66	265.21
423.03	267.13
423.40	269.07
423.77	271.10
424.15	273.13
424.52	275.33
424.89	277.82
425.26	280.06
425.64	282.16
426.01	284.46
426.38	287.10
426.75	289.61
427.13	292.13
427.50	294.96
427.87	297.74
428.24	300.66
428.61	303.35
428.99	306.51
429.36	309.94
429.73	313.24
430.10	316.47
430.47	319.64
430.85	323.00
431.22	326.47
431.59	330.31
431.96	334.01
432.33	338.03
432.70	341.89
433.08	346.58
433.45	350.91
433.82	355.22
434.19	359.78
434.56	364.58
434.93	368.96
435.30	373.21
435.68	378.14
436.05	382.78
436.42	387.42
436.79	391.66
437.16	396.30
437.53	401.18
437.90	405.97
438.27	410.80
438.64	415.73
439.01	420.40
439.38	424.41
439.75	428.34
440.13	432.76
440.50	437.15
440.87	440.55
441.24	444.26
441.61	448.12
441.98	451.15
442.35	454.47
442.72	458.00
443.09	461.55
443.46	463.72
443.83	465.39
444.20	466.96
444.57	468.90
444.94	469.83
445.31	470.98
445.68	472.13
446.05	472.64
446.42	472.58
446.79	472.50
447.16	472.32
447.53	472.33
447.90	471.02
448.27	469.56
448.64	467.57
449.01	466.19
449.37	463.50
449.74	460.87
450.11	457.80
450.48	454.19
450.85	450.55
451.22	447.30
451.59	444.35
451.96	441.42
452.33	437.54
452.70	433.96
453.07	429.55
453.43	425.14
453.80	420.91
454.17	416.63
454.54	412.55
454.91	408.26
455.28	403.98
455.65	400.14
456.02	396.28
456.38	392.77
456.75	388.52
457.12	384.90
457.49	381.39
457.86	377.57
458.23	374.75
458.59	371.52
458.96	368.23
459.33	365.20
459.70	362.30
460.07	359.82
460.43	357.07
460.80	354.37
461.17	351.89
461.54	349.50
461.91	347.36
462.27	344.90
462.64	342.87
463.01	340.68
463.38	338.34
463.74	336.05
464.11	334.17
464.48	332.50
464.85	330.70
465.21	329.18
465.58	327.72
465.95	325.82
466.32	324.16
466.68	322.67
467.05	321.01
467.42	319.24
467.78	317.55
468.15	315.98
468.52	314.79
468.88	313.32
469.25	311.99
469.62	310.71
469.98	309.51
470.35	308.35
470.72	307.15
471.08	305.86
471.45	304.90
471.82	303.78
472.18	302.53
472.55	301.61
472.92	300.55
473.28	299.59
473.65	298.60
474.02	297.59
474.38	296.66
474.75	296.00
475.11	295.34
475.48	294.73
475.85	294.03
476.21	293.37
476.58	292.79
476.94	292.20
477.31	291.71
477.67	291.23
478.04	290.68
478.41	290.26
478.77	290.19
479.14	289.52
479.50	289.15
479.87	288.97
480.23	288.64
480.60	288.34
480.96	288.13
481.33	288.08
481.69	287.94
482.06	287.89
482.42	287.70
482.79	287.51
483.15	287.33
483.52	287.43
483.88	287.38
484.25	287.43
484.61	287.50
484.98	287.53
485.34	287.58
485.71	287.75
486.07	287.93
486.44	287.81
486.80	288.09
487.17	288.29
487.53	288.47
487.90	288.65
488.26	288.93
488.62	289.34
488.99	289.63
489.35	289.93
489.72	290.25
490.08	290.50
490.44	290.91
490.81	291.39
491.17	291.71
491.54	292.09
491.90	292.29
492.26	292.58
492.63	293.00
492.99	293.46
493.36	293.97
493.72	294.41
494.08	294.87
494.45	295.40
494.81	295.93
495.17	296.32
495.54	296.96
495.90	297.47
496.26	297.77
496.63	298.21
496.99	298.77
497.35	299.32
497.72	300.01
498.08	300.36
498.44	300.77
498.80	301.25
499.17	301.85
499.53	302.45
499.89	303.05
500.26	303.37
500.62	303.77
500.98	304.14
501.34	304.48
501.71	304.91
502.07	305.25
502.43	305.61
502.79	306.02
503.16	306.40
503.52	306.69
503.88	307.01
504.24	307.26
504.60	307.52
504.97	307.68
505.33	307.87
505.69	308.29
506.05	308.53
506.41	308.66
506.78	308.74
507.14	308.90
507.50	309.04
507.86	309.32
508.22	309.50
508.59	309.70
508.95	309.98
509.31	310.31
509.67	310.51
510.03	310.54
510.39	310.76
510.75	310.80
511.12	311.02
511.48	311.13
511.84	311.24
512.20	311.28
512.56	311.46
512.92	311.57
513.28	311.66
513.64	311.88
514.00	312.10
514.37	312.33
514.73	312.52
515.09	312.73
515.45	313.03
515.81	313.32
516.17	313.71
516.53	314.11
516.89	314.30
517.25	314.67
517.61	315.25
517.97	315.68
518.33	316.29
518.69	316.90
519.05	317.67
519.41	318.43
519.77	319.44
520.13	320.23
520.49	321.13
520.85	322.12
521.21	323.28
521.57	324.53
521.93	325.64
522.29	326.92
522.65	328.21
523.01	329.70
523.37	331.21
523.73	332.61
524.09	334.11
524.45	335.95
524.81	337.74
525.17	339.61
525.53	341.49
525.89	343.49
526.25	345.57
526.61	347.68
526.97	349.91
527.33	352.20
527.68	354.64
528.04	357.20
528.40	359.80
528.76	362.39
529.12	365.06
529.48	368.06
529.84	371.06
530.20	374.04
530.56	376.98
530.91	380.07
531.27	383.43
531.63	386.76
531.99	390.05
532.35	393.56
532.71	397.08
533.07	400.81
533.42	404.54
533.78	408.25
534.14	412.22
534.50	416.04
534.86	419.88
535.21	423.78
535.57	427.83
535.93	431.97
536.29	436.24
536.65	440.52
537.00	444.66
537.36	449.19
537.72	453.67
538.08	458.23
538.44	462.92
538.79	467.65
539.15	472.28
539.51	477.06
539.87	481.79
540.22	486.62
540.58	491.60
540.94	496.60
541.29	501.60
541.65	506.44
542.01	511.82
542.37	517.10
542.72	522.20
543.08	527.54
543.44	532.91
543.79	537.73
544.15	542.89
544.51	548.50
544.87	553.57
545.22	558.92
545.58	564.06
545.94	569.03
546.29	574.17
546.65	579.55
547.01	584.67
547.36	590.04
547.72	595.07
548.07	600.38
548.43	605.59
548.79	610.82
549.14	616.02
549.50	620.91
549.86	625.88
550.21	631.19
550.57	636.08
550.92	641.26
551.28	646.80
551.64	652.17
551.99	657.17
552.35	662.37
552.70	667.73
553.06	673.00
553.41	678.29
553.77	683.52
554.13	688.65
554.48	693.94
554.84	699.09
555.19	704.45
555.55	709.46
555.90	714.39
556.26	719.49
556.61	724.57
556.97	729.53
557.32	734.63
557.68	739.63
558.03	744.64
558.39	749.25
558.74	754.17
559.10	758.87
559.45	763.59
559.81	768.46
560.16	772.75
560.52	777.38
560.87	782.29
561.23	786.76
561.58	791.39
561.94	795.82
562.29	799.95
562.64	804.12
563.00	808.21
563.35	812.45
563.71	816.90
564.06	821.30
564.42	825.64
564.77	829.70
565.12	833.90
565.48	838.40
565.83	842.57
566.19	846.59
566.54	850.39
566.89	854.28
567.25	858.12
567.60	862.39
567.96	866.22
568.31	869.68
568.66	873.12
569.02	876.53
569.37	879.96
569.72	883.60
570.08	887.13
570.43	890.46
570.78	893.84
571.14	896.79
571.49	899.47
571.84	902.85
572.20	905.61
572.55	908.33
572.90	910.59
573.26	913.20
573.61	915.62
573.96	918.07
574.31	920.10
574.67	922.00
575.02	923.77
575.37	925.62
575.72	927.33
576.08	929.34
576.43	930.94
576.78	932.54
577.13	934.42
577.49	936.14
577.84	937.57
578.19	938.64
578.54	940.06
578.90	941.51
579.25	942.01
579.60	943.35
579.95	944.25
580.30	945.23
580.66	945.72
581.01	946.32
581.36	946.85
581.71	947.95
582.06	948.78
582.42	949.53
582.77	950.01
583.12	950.75
583.47	951.22
583.82	951.90
584.17	952.42
584.53	952.67
584.88	952.83
585.23	953.39
585.58	954.06
585.93	954.04
586.28	954.29
586.63	954.73
586.98	954.75
587.34	954.82
587.69	954.93
588.04	955.21
588.39	955.36
588.74	955.37
589.09	955.01
589.44	954.60
589.79	954.11
590.14	954.23
590.49	953.86
590.84	953.22
591.19	952.78
591.54	951.73
591.89	950.57
592.25	949.94
592.60	948.92
592.95	947.60
593.30	946.43
593.65	945.31
594.00	944.24
594.35	943.62
594.70	942.17
595.05	941.04
595.40	939.71
595.75	938.28
596.10	937.08
596.45	936.07
596.80	934.95
597.15	933.71
597.50	932.30
597.85	931.24
598.19	930.15
598.54	928.72
598.89	927.60
599.24	926.55
599.59	925.28
599.94	924.02
600.29	922.76
600.64	921.42
600.99	919.69
601.34	918.27
601.69	916.01
602.04	914.89
602.39	913.17
602.74	911.92
603.08	910.52
603.43	909.25
603.78	907.41
604.13	906.02
604.48	904.39
604.83	902.63
605.18	900.70
605.53	898.59
605.87	896.34
606.22	894.75
606.57	892.62
606.92	890.52
607.27	888.44
607.62	886.75
607.96	884.98
608.31	883.18
608.66	880.80
609.01	878.70
609.36	876.10
609.70	873.38
610.05	870.67
610.40	868.11
610.75	865.11
611.10	862.50
611.44	859.46
611.79	856.87
612.14	854.29
612.49	851.18
612.83	848.41
613.18	845.85
613.53	842.96
613.88	840.23
614.22	837.45
614.57	834.24
614.92	831.26
615.27	828.44
615.61	825.59
615.96	822.76
616.31	820.00
616.65	817.79
617.00	815.61
617.35	813.00
617.70	810.34
618.04	807.69
618.39	805.06
618.74	802.24
619.08	799.45
619.43	796.57
619.78	794.01
620.12	791.49
620.47	788.91
620.82	786.13
621.16	783.50
621.51	780.85
621.85	778.44
622.20	775.64
622.55	773.00
622.89	770.29
623.24	768.01
623.59	765.48
623.93	762.39
624.28	759.42
624.62	756.80
624.97	754.20
625.32	751.78
625.66	749.01
626.01	746.36
626.35	743.59
626.70	740.96
627.04	738.49
627.39	735.46
627.73	732.57
628.08	729.99
628.43	726.99
628.77	723.98
629.12	720.79
629.46	717.92
629.81	714.74
630.15	711.61
630.50	708.22
630.84	705.03
631.19	702.02
631.53	699.09
631.88	696.03
632.22	692.48
632.57	689.38
632.91	686.36
633.26	683.41
633.60	680.32
633.95	677.15
634.29	674.16
634.64	671.48
634.98	668.68
635.32	665.78
635.67	663.18
636.01	660.48
636.36	657.96
636.70	655.42
637.05	652.48
637.39	649.91
637.73	647.33
638.08	644.91
638.42	642.38
638.77	639.75
639.11	636.90
639.45	634.62
639.80	631.90
640.14	629.37
640.49	626.63
640.83	624.04
641.17	621.24
641.52	618.54
641.86	615.86
642.20	613.01
642.55	610.09
642.89	607.41
643.23	604.66
643.58	602.18
643.92	599.14
644.26	596.73
644.61	594.27
644.95	591.71
645.29	588.81
645.64	585.95
645.98	583.32
646.32	580.79
646.66	577.97
647.01	575.17
647.35	572.43
647.69	569.99
648.04	567.41
648.38	564.91
648.72	561.89
649.06	559.21
649.41	556.57
649.75	553.80
650.09	550.75
650.43	547.90
650.78	544.87
651.12	542.00
651.46	539.36
651.80	536.52
652.14	533.80
652.49	531.24
652.83	528.64
653.17	525.85
653.51	523.18
653.85	520.70
654.20	518.17
654.54	515.38
654.88	512.67
655.22	509.89
655.56	507.20
655.90	504.75
656.25	502.16
656.59	499.84
656.93	497.61
657.27	495.33
657.61	492.78
657.95	490.79
658.29	488.85
658.64	486.68
658.98	484.30
659.32	481.90
659.66	479.55
660.00	477.36
660.34	475.17
660.68	472.76
661.02	470.41
661.36	468.38
661.70	466.28
662.05	464.20
662.39	462.36
662.73	460.40
663.07	458.56
663.41	456.64
663.75	454.49
664.09	452.33
664.43	450.49
664.77	448.67
665.11	446.47
665.45	444.27
665.79	441.97
666.13	440.10
666.47	438.25
666.81	436.31
667.15	434.08
667.49	432.09
667.83	430.39
668.17	428.43
668.51	426.36
668.85	424.50
669.19	422.66
669.53	420.71
669.87	418.68
670.21	416.76
670.55	415.00
670.89	413.41
671.23	411.84
671.57	410.11
671.91	408.47
672.25	406.91
672.58	405.45
672.92	403.95
673.26	402.28
673.60	400.54
673.94	399.15
674.28	397.83
674.62	396.47
674.96	394.86
675.30	393.49
675.64	392.11
675.97	390.69
676.31	389.38
676.65	387.88
676.99	386.74
677.33	385.17
677.67	383.68
678.01	382.26
678.34	380.87
678.68	379.44
679.02	378.00
679.36	376.61
679.70	375.06
680.04	373.77
680.37	372.40
680.71	371.09
681.05	369.73
681.39	368.47
681.73	367.19
682.06	366.04
682.40	364.83
682.74	363.63
683.08	362.39
683.42	361.02
683.75	359.85
684.09	358.50
684.43	357.42
684.77	356.25
685.10	355.05
685.44	353.71
685.78	352.40
686.12	351.28
686.45	349.94
686.79	348.80
687.13	347.60
687.46	346.33
687.80	345.14
688.14	343.66
688.48	342.39
688.81	341.06
689.15	339.90
689.49	338.59
689.82	337.30
690.16	336.04
690.50	334.84
690.83	333.66
691.17	332.31
691.51	331.11
691.84	329.87
692.18	328.60
692.52	327.51
692.85	326.46
693.19	325.31
693.52	324.27
693.86	323.15
694.20	322.02
694.53	321.10
694.87	319.93
695.21	319.03
695.54	318.05
695.88	316.88
696.21	315.79
696.55	314.82
696.88	313.90
697.22	312.97
697.56	311.94
697.89	311.04
698.23	310.17
698.56	309.26
698.90	308.39
699.23	307.41
699.57	306.36
699.90	305.46
700.24	304.59
700.58	303.76
700.91	302.86
701.25	302.07
701.58	301.32
701.92	300.69
702.25	299.85
702.59	299.07
702.92	298.54
703.26	297.70
703.59	296.94
703.93	296.29
704.26	295.56
704.60	294.86
704.93	294.08
705.26	293.38
705.60	292.73
705.93	292.03
706.27	291.55
706.60	291.08
706.94	290.43
707.27	289.76
707.61	289.12
707.94	288.61
708.27	287.92
708.61	287.14
708.94	286.43
709.28	286.01
709.61	285.39
709.94	284.77
710.28	284.25
710.61	283.57
710.95	282.78
711.28	282.26
711.61	281.68
711.95	281.18
712.28	280.68
712.61	280.18
712.95	279.66
713.28	279.16
713.61	278.62
713.95	278.19
714.28	277.61
714.61	277.09
714.95	276.55
715.28	275.97
715.61	275.47
715.95	275.10
716.28	274.49
716.61	274.16
716.95	273.68
717.28	273.16
717.61	272.83
717.94	272.47
718.28	271.93
718.61	271.54
718.94	271.10
719.27	270.61
719.61	270.12
719.94	269.70
720.27	269.20
720.60	268.72
720.94	268.26
721.27	267.97
721.60	267.47
721.93	267.05
722.27	266.76
722.60	266.34
722.93	265.83
723.26	265.42
723.59	264.80
723.93	264.37
724.26	264.04
724.59	263.63
724.92	263.19
725.25	262.90
725.59	262.53
725.92	262.12
726.25	261.84
726.58	261.38
726.91	261.02
727.24	260.60
727.57	260.22
727.91	259.83
728.24	259.43
728.57	259.04
728.90	258.61
729.23	258.24
729.56	258.05
729.89	257.73
730.22	257.40
730.55	257.15
730.89	256.88
731.22	256.54
731.55	256.24
731.88	255.95
732.21	255.58
732.54	255.18
732.87	254.82
733.20	254.48
733.53	254.21
733.86	253.94
734.19	253.51
734.52	253.32
734.85	253.10
735.18	252.70
735.51	252.59
735.84	252.42
736.17	252.16
736.50	251.75
736.83	251.71
737.16	251.41
737.49	251.16
737.82	250.87
738.15	250.58
738.48	250.25
738.81	250.02
739.14	249.82
739.47	249.66
739.80	249.51
740.13	249.28
740.46	249.12
740.79	248.83
741.12	248.75
741.45	248.53
741.78	248.36
742.11	248.31
742.44	247.93
742.77	247.70
743.10	247.48
743.43	247.31
743.75	246.92
744.08	246.96
744.41	246.70
744.74	246.46
745.07	246.25
745.40	246.14
745.73	246.08
746.06	245.90
746.39	245.69
746.71	245.42
747.04	245.20
747.37	244.97
747.70	244.80
748.03	244.65
748.36	244.48
748.68	244.24
749.01	244.00
749.34	244.00
749.67	243.85
750.00	243.74
750.33	243.69
750.65	243.61
750.98	243.25
751.31	243.21
751.64	243.08
751.97	243.12
752.29	243.01
752.62	242.80
752.95	242.63
753.28	242.44
753.60	242.37
753.93	242.26
754.26	242.13
754.59	242.02
754.91	241.81
755.24	241.66
755.57	241.54
755.90	241.48
756.22	241.20
756.55	241.03
756.88	240.90
757.20	240.67
757.53	240.43
757.86	240.40
758.19	240.28
758.51	240.11
758.84	239.83
759.17	239.63
759.49	239.50
759.82	239.37
760.15	239.32
760.47	239.22
760.80	239.11
761.13	239.05
761.45	239.03
761.78	238.89
762.11	238.81
762.43	238.64
762.76	238.48
763.08	238.46
763.41	238.36
763.74	238.12
764.06	237.98
764.39	237.97
764.71	237.79
765.04	237.60
765.37	237.58
765.69	237.46
766.02	237.44
766.34	237.33
766.67	237.22
767.00	237.20
767.32	237.23
767.65	237.15
767.97	237.04
768.30	236.80
768.62	236.78
768.95	236.60
769.27	236.45
769.60	236.37
769.92	236.19
770.25	236.11
770.57	235.96
770.90	235.80
771.22	235.55
771.55	235.41
771.87	235.45
772.20	235.35
772.52	235.39
772.85	235.46
773.17	235.30
773.50	235.23
773.82	234.94
774.15	234.68
774.47	234.57
774.80	234.50
775.12	234.37
775.45	234.26
775.77	234.18
776.09	234.16
776.42	234.02
776.74	233.96
777.07	233.84
777.39	233.85
777.72	233.77
778.04	233.71
778.36	233.70
778.69	233.59
779.01	233.44
779.33	233.20
779.66	232.90
779.98	232.88
780.31	232.74
780.63	232.87
780.95	232.81
781.28	232.70
781.60	232.60
781.92	232.59
782.25	232.42
782.57	232.43
782.89	232.47
783.22	232.54
783.54	232.57
783.86	232.54
784.19	232.47
784.51	232.48
784.83	232.45
785.16	232.40
785.48	232.38
785.80	232.39
786.12	232.45
786.45	232.48
786.77	232.38
787.09	232.47
787.42	232.36
787.74	232.40
788.06	232.40
788.38	232.31
788.71	232.36
789.03	232.43
789.35	232.35
789.67	232.20
789.99	232.14
790.32	232.05
790.64	232.06
790.96	232.30
791.28	232.24
791.61	232.21
791.93	232.22
792.25	232.18
792.57	232.27
792.89	232.19
793.21	232.27
793.54	232.31
793.86	232.13
794.18	232.20
