SpectraSuite Data File
++++++++++++++++++++++++++++++++++++
Date: Fri Feb 01 14:35:58 EST 2013
User: group
Dark Spectrum Present: No
Reference Spectrum Present: No
Number of Sampled Component Spectra: 1
Spectrometers: USB2E7196
Integration Time (usec): 70000 (USB2E7196)
Spectra Averaged: 10 (USB2E7196)
Boxcar Smoothing: 10 (USB2E7196)
Correct for Electrical Dark: No (USB2E7196)
Strobe/Lamp Enabled: No (USB2E7196)
Correct for Detector Non-linearity: No (USB2E7196)
Correct for Stray Light: No (USB2E7196)
Number of Pixels in Processed Spectrum: 2048
>>>>>Begin Processed Spectral Data<<<<<
339.09	0.00
339.48	215.10
339.86	219.00
340.24	220.50
340.63	220.00
341.01	225.80
341.39	223.10
341.78	224.90
342.16	225.40
342.54	226.50
342.93	214.77
343.31	225.56
343.69	226.20
344.07	226.62
344.46	226.99
344.84	227.39
345.22	227.51
345.60	227.68
345.99	227.82
346.37	227.96
346.75	228.02
347.13	228.00
347.52	228.12
347.90	228.26
348.28	228.33
348.66	228.35
349.05	228.28
349.43	228.45
349.81	228.51
350.19	228.58
350.57	228.59
350.96	228.70
351.34	228.86
351.72	228.90
352.10	228.97
352.48	228.93
352.87	228.99
353.25	229.07
353.63	229.18
354.01	229.22
354.39	229.27
354.77	229.37
355.15	229.54
355.54	229.49
355.92	229.50
356.30	229.55
356.68	229.67
357.06	229.73
357.44	229.68
357.82	229.77
358.20	229.84
358.58	229.86
358.97	229.96
359.35	229.98
359.73	230.00
360.11	230.02
360.49	230.12
360.87	230.11
361.25	230.17
361.63	230.33
362.01	230.40
362.39	230.44
362.77	230.49
363.15	230.48
363.53	230.44
363.91	230.41
364.29	230.40
364.67	230.34
365.05	230.48
365.43	230.46
365.81	230.44
366.19	230.45
366.57	230.61
366.95	230.60
367.33	230.55
367.71	230.55
368.09	230.53
368.47	230.57
368.85	230.54
369.23	230.47
369.61	230.29
369.99	230.34
370.37	230.32
370.75	230.36
371.13	230.27
371.51	230.32
371.89	230.30
372.27	230.25
372.65	230.14
373.03	230.05
373.41	229.87
373.78	229.81
374.16	229.74
374.54	229.57
374.92	229.30
375.30	229.23
375.68	229.22
376.06	229.20
376.44	229.13
376.82	229.11
377.19	229.07
377.57	228.98
377.95	228.80
378.33	228.61
378.71	228.40
379.09	228.37
379.47	228.20
379.84	228.12
380.22	228.00
380.60	227.92
380.98	227.72
381.36	227.79
381.73	227.69
382.11	227.57
382.49	227.43
382.87	227.40
383.25	227.37
383.62	227.42
384.00	227.20
384.38	227.10
384.76	227.07
385.13	227.14
385.51	227.16
385.89	227.07
386.27	227.07
386.64	227.07
387.02	226.98
387.40	226.96
387.78	226.90
388.15	226.91
388.53	226.86
388.91	226.89
389.29	226.63
389.66	226.70
390.04	226.70
390.42	226.77
390.79	226.77
391.17	226.64
391.55	226.37
391.92	226.46
392.30	226.47
392.68	226.45
393.05	226.38
393.43	226.32
393.81	226.45
394.18	226.43
394.56	226.45
394.94	226.52
395.31	226.55
395.69	226.61
396.06	226.74
396.44	226.85
396.82	226.94
397.19	227.28
397.57	227.20
397.95	227.20
398.32	227.17
398.70	227.39
399.07	227.66
399.45	227.83
399.82	227.98
400.20	228.08
400.58	228.12
400.95	228.10
401.33	228.26
401.70	228.45
402.08	228.62
402.45	228.75
402.83	228.91
403.20	229.12
403.58	229.34
403.95	229.44
404.33	229.71
404.71	229.84
405.08	230.07
405.46	230.38
405.83	230.71
406.21	230.99
406.58	231.34
406.96	231.65
407.33	231.97
407.70	232.35
408.08	232.89
408.45	233.43
408.83	234.02
409.20	234.46
409.58	234.86
409.95	235.46
410.33	235.94
410.70	236.51
411.08	237.02
411.45	237.63
411.82	238.34
412.20	238.97
412.57	239.83
412.95	240.48
413.32	241.40
413.69	242.34
414.07	243.41
414.44	244.30
414.82	245.29
415.19	246.52
415.56	247.67
415.94	248.90
416.31	250.27
416.68	251.58
417.06	253.20
417.43	254.70
417.81	256.46
418.18	258.43
418.55	260.30
418.93	262.38
419.30	264.44
419.67	266.52
420.04	268.79
420.42	271.05
420.79	273.82
421.16	276.49
421.54	279.20
421.91	282.10
422.28	285.11
422.66	288.36
423.03	291.57
423.40	294.82
423.77	298.22
424.15	301.76
424.52	305.34
424.89	309.32
425.26	313.31
425.64	316.99
426.01	320.88
426.38	325.10
426.75	329.40
427.13	333.73
427.50	338.42
427.87	343.24
428.24	348.14
428.61	352.87
428.99	357.87
429.36	363.40
429.73	368.79
430.10	374.10
430.47	379.42
430.85	384.92
431.22	390.94
431.59	397.22
431.96	403.10
432.33	409.89
432.70	416.38
433.08	423.79
433.45	430.76
433.82	437.74
434.19	445.50
434.56	453.21
434.93	460.57
435.30	467.94
435.68	476.14
436.05	484.06
436.42	491.96
436.79	499.24
437.16	506.82
437.53	515.00
437.90	523.12
438.27	531.26
438.64	539.56
439.01	547.15
439.38	554.12
439.75	560.89
440.13	568.52
440.50	575.58
440.87	581.65
441.24	587.91
441.61	595.03
441.98	600.24
442.35	606.31
442.72	612.64
443.09	618.56
443.46	622.42
443.83	625.23
444.20	627.68
444.57	631.27
444.94	633.62
445.31	635.51
445.68	637.55
446.05	638.94
446.42	639.09
446.79	639.09
447.16	638.92
447.53	639.12
447.90	637.09
448.27	635.13
448.64	631.56
449.01	629.56
449.37	624.94
449.74	620.70
450.11	615.11
450.48	609.16
450.85	603.02
451.22	597.87
451.59	593.07
451.96	588.27
452.33	581.76
452.70	575.81
453.07	568.74
453.43	561.34
453.80	554.29
454.17	547.34
454.54	540.68
454.91	533.58
455.28	526.60
455.65	520.05
456.02	513.40
456.38	507.94
456.75	500.60
457.12	494.73
457.49	488.66
457.86	482.94
458.23	477.90
458.59	472.48
458.96	466.79
459.33	461.73
459.70	456.89
460.07	452.79
460.43	448.11
460.80	443.73
461.17	439.75
461.54	435.67
461.91	431.86
462.27	428.12
462.64	424.63
463.01	420.92
463.38	417.29
463.74	413.72
464.11	410.51
464.48	407.82
464.85	404.68
465.21	402.39
465.58	399.94
465.95	396.87
466.32	394.29
466.68	391.82
467.05	389.44
467.42	386.79
467.78	384.06
468.15	381.33
468.52	379.46
468.88	377.21
469.25	374.90
469.62	373.15
469.98	371.19
470.35	369.48
470.72	367.76
471.08	365.91
471.45	364.27
471.82	362.73
472.18	360.98
472.55	359.73
472.92	358.24
473.28	356.76
473.65	355.30
474.02	353.92
474.38	352.79
474.75	351.65
475.11	350.52
475.48	349.62
475.85	348.99
476.21	348.08
476.58	347.40
476.94	346.89
477.31	346.22
477.67	345.51
478.04	344.75
478.41	344.17
478.77	343.71
479.14	343.12
479.50	342.76
479.87	342.57
480.23	342.25
480.60	342.00
480.96	341.89
481.33	342.05
481.69	342.11
482.06	341.96
482.42	341.75
482.79	341.89
483.15	342.08
483.52	342.33
483.88	342.61
484.25	342.76
484.61	342.96
484.98	343.16
485.34	343.69
485.71	344.44
486.07	344.98
486.44	345.60
486.80	346.35
487.17	346.95
487.53	347.77
487.90	348.68
488.26	349.55
488.62	350.58
488.99	351.38
489.35	352.26
489.72	353.40
490.08	354.75
490.44	355.94
490.81	357.15
491.17	358.31
491.54	359.58
491.90	360.97
492.26	362.32
492.63	363.75
492.99	365.26
493.36	366.70
493.72	368.40
494.08	369.94
494.45	371.70
494.81	373.46
495.17	375.28
495.54	377.06
495.90	378.90
496.26	380.74
496.63	382.74
496.99	384.78
497.35	386.80
497.72	388.72
498.08	390.77
498.44	392.69
498.80	394.78
499.17	397.05
499.53	399.06
499.89	401.08
500.26	403.00
500.62	404.92
500.98	407.19
501.34	409.30
501.71	411.35
502.07	413.27
502.43	415.20
502.79	417.25
503.16	419.10
503.52	421.05
503.88	422.85
504.24	424.62
504.60	426.37
504.97	428.04
505.33	429.86
505.69	431.68
506.05	433.48
506.41	435.09
506.78	436.62
507.14	438.15
507.50	439.81
507.86	441.65
508.22	443.16
508.59	444.44
508.95	445.90
509.31	447.46
509.67	448.98
510.03	450.41
510.39	451.57
510.75	453.03
511.12	454.11
511.48	455.19
511.84	456.44
512.20	457.61
512.56	458.69
512.92	459.73
513.28	460.57
513.64	461.30
514.00	462.20
514.37	462.92
514.73	463.63
515.09	464.38
515.45	464.98
515.81	465.68
516.17	466.43
516.53	466.89
516.89	467.21
517.25	467.67
517.61	468.13
517.97	468.56
518.33	468.99
518.69	469.44
519.05	469.96
519.41	470.33
519.77	470.91
520.13	471.49
520.49	471.81
520.85	472.11
521.21	472.87
521.57	473.31
521.93	473.83
522.29	474.72
522.65	475.27
523.01	475.61
523.37	476.07
523.73	476.35
524.09	476.90
524.45	477.47
524.81	478.01
525.17	478.83
525.53	479.62
525.89	480.24
526.25	481.23
526.61	482.04
526.97	482.74
527.33	483.56
527.68	484.50
528.04	485.62
528.40	486.77
528.76	487.73
529.12	488.98
529.48	490.20
529.84	491.08
530.20	492.25
530.56	493.93
530.91	495.48
531.27	497.20
531.63	498.63
531.99	500.48
532.35	502.13
532.71	503.61
533.07	505.40
533.42	507.43
533.78	509.21
534.14	511.21
534.50	513.42
534.86	515.69
535.21	517.61
535.57	519.65
535.93	521.82
536.29	524.26
536.65	526.42
537.00	528.57
537.36	531.25
537.72	534.06
538.08	536.41
538.44	539.10
538.79	541.98
539.15	544.82
539.51	547.66
539.87	550.84
540.22	553.90
540.58	557.16
540.94	560.28
541.29	563.35
541.65	566.48
542.01	569.78
542.37	572.86
542.72	576.12
543.08	579.58
543.44	583.12
543.79	586.09
544.15	589.74
544.51	593.48
544.87	597.18
545.22	600.64
545.58	604.37
545.94	607.90
546.29	611.24
546.65	614.70
547.01	618.33
547.36	621.70
547.72	625.21
548.07	628.59
548.43	631.94
548.79	635.54
549.14	638.89
549.50	642.47
549.86	645.96
550.21	649.54
550.57	653.05
550.92	656.65
551.28	660.71
551.64	664.39
551.99	668.18
552.35	671.70
552.70	675.39
553.06	679.07
553.41	682.71
553.77	686.64
554.13	690.60
554.48	694.40
554.84	698.45
555.19	702.19
555.55	705.89
555.90	709.55
556.26	713.20
556.61	717.37
556.97	720.78
557.32	724.66
557.68	728.57
558.03	732.47
558.39	736.15
558.74	739.86
559.10	743.73
559.45	747.35
559.81	751.19
560.16	754.45
560.52	758.12
560.87	761.82
561.23	765.08
561.58	768.83
561.94	772.34
562.29	775.59
562.64	778.96
563.00	782.56
563.35	786.18
563.71	789.97
564.06	793.36
564.42	796.94
564.77	800.33
565.12	803.66
565.48	807.00
565.83	810.30
566.19	813.51
566.54	816.63
566.89	819.74
567.25	822.68
567.60	826.47
567.96	829.65
568.31	832.63
568.66	835.40
569.02	837.92
569.37	840.55
569.72	843.19
570.08	846.11
570.43	848.45
570.78	850.75
571.14	852.80
571.49	855.41
571.84	857.94
572.20	859.87
572.55	862.01
572.90	863.88
573.26	866.13
573.61	868.10
573.96	869.60
574.31	871.28
574.67	872.63
575.02	873.60
575.37	874.77
575.72	876.03
576.08	877.66
576.43	879.16
576.78	880.67
577.13	881.89
577.49	883.08
577.84	884.30
578.19	885.31
578.54	886.53
578.90	886.92
579.25	887.33
579.60	888.26
579.95	888.70
580.30	889.51
580.66	889.62
581.01	890.03
581.36	890.72
581.71	891.20
582.06	892.12
582.42	892.75
582.77	893.06
583.12	893.39
583.47	893.80
583.82	893.96
584.17	893.87
584.53	894.14
584.88	893.97
585.23	893.97
585.58	894.12
585.93	893.93
586.28	894.21
586.63	894.51
586.98	894.73
587.34	894.88
587.69	894.59
588.04	894.69
588.39	894.61
588.74	894.11
589.09	893.56
589.44	892.55
589.79	891.78
590.14	891.71
590.49	890.80
590.84	889.83
591.19	889.30
591.54	888.45
591.89	886.98
592.25	886.49
592.60	885.24
592.95	883.98
593.30	882.87
593.65	881.33
594.00	879.88
594.35	878.75
594.70	876.89
595.05	875.49
595.40	874.05
595.75	872.13
596.10	870.85
596.45	869.71
596.80	868.73
597.15	867.50
597.50	865.50
597.85	864.34
598.19	863.24
598.54	862.00
598.89	860.47
599.24	859.56
599.59	857.98
599.94	856.86
600.29	855.76
600.64	854.11
600.99	852.70
601.34	851.16
601.69	849.08
602.04	847.96
602.39	846.29
602.74	844.57
603.08	843.11
603.43	841.54
603.78	839.83
604.13	837.87
604.48	836.04
604.83	834.46
605.18	833.01
605.53	830.90
605.87	828.48
606.22	826.88
606.57	824.80
606.92	822.60
607.27	820.60
607.62	818.37
607.96	816.66
608.31	814.63
608.66	812.38
609.01	810.33
609.36	807.96
609.70	805.67
610.05	803.16
610.40	801.03
610.75	798.47
611.10	795.80
611.44	792.98
611.79	790.60
612.14	788.13
612.49	784.97
612.83	782.14
613.18	779.66
613.53	776.98
613.88	774.03
614.22	771.41
614.57	768.47
614.92	766.01
615.27	763.36
615.61	760.51
615.96	758.01
616.31	755.24
616.65	752.97
617.00	750.47
617.35	748.01
617.70	745.47
618.04	742.70
618.39	740.17
618.74	737.85
619.08	735.01
619.43	732.11
619.78	729.65
620.12	727.25
620.47	724.52
620.82	721.67
621.16	719.35
621.51	717.02
621.85	714.58
622.20	711.75
622.55	708.93
622.89	706.43
623.24	704.10
623.59	701.65
623.93	699.21
624.28	696.71
624.62	694.30
624.97	691.73
625.32	689.39
625.66	687.00
626.01	684.68
626.35	682.29
626.70	680.04
627.04	677.81
627.39	675.30
627.73	672.83
628.08	670.35
628.43	667.81
628.77	664.96
629.12	662.37
629.46	659.64
629.81	657.01
630.15	654.37
630.50	651.55
630.84	648.68
631.19	645.63
631.53	642.99
631.88	639.93
632.22	636.90
632.57	634.45
632.91	631.80
633.26	629.08
633.60	626.63
633.95	623.86
634.29	621.19
634.64	618.63
634.98	616.02
635.32	613.74
635.67	611.46
636.01	609.23
636.36	606.75
636.70	604.61
637.05	602.27
637.39	599.91
637.73	597.55
638.08	595.50
638.42	593.16
638.77	590.84
639.11	588.58
639.45	586.41
639.80	583.82
640.14	581.16
640.49	578.68
640.83	576.09
641.17	573.90
641.52	571.30
641.86	568.77
642.20	566.55
642.55	563.84
642.89	561.41
643.23	558.86
643.58	556.57
643.92	554.03
644.26	551.74
644.61	549.58
644.95	547.32
645.29	544.28
645.64	541.86
645.98	539.40
646.32	537.23
646.66	534.80
647.01	532.48
647.35	530.30
647.69	528.07
648.04	525.90
648.38	523.62
648.72	521.35
649.06	519.19
649.41	516.79
649.75	514.34
650.09	511.79
650.43	509.37
650.78	506.91
651.12	504.61
651.46	502.24
651.80	499.75
652.14	497.43
652.49	495.56
652.83	493.42
653.17	491.09
653.51	488.61
653.85	486.26
654.20	483.90
654.54	481.45
654.88	479.04
655.22	476.51
655.56	473.91
655.90	471.60
656.25	469.36
656.59	467.13
656.93	465.20
657.27	463.26
657.61	461.01
657.95	459.13
658.29	456.93
658.64	454.81
658.98	452.67
659.32	450.48
659.66	448.57
660.00	446.45
660.34	444.34
660.68	442.42
661.02	440.40
661.36	438.49
661.70	436.63
662.05	434.90
662.39	433.24
662.73	431.71
663.07	430.12
663.41	428.26
663.75	426.45
664.09	424.47
664.43	422.63
664.77	421.11
665.11	419.15
665.45	417.55
665.79	415.82
666.13	414.15
666.47	412.36
666.81	410.47
667.15	408.76
667.49	407.26
667.83	405.64
668.17	404.04
668.51	402.34
668.85	400.77
669.19	399.05
669.53	397.35
669.87	395.55
670.21	393.88
670.55	392.50
670.89	390.99
671.23	389.58
671.57	388.09
671.91	386.52
672.25	385.13
672.58	383.68
672.92	382.17
673.26	380.82
673.60	379.56
673.94	378.23
674.28	376.97
674.62	375.67
674.96	374.49
675.30	373.29
675.64	372.15
675.97	371.00
676.31	369.87
676.65	368.68
676.99	367.51
677.33	366.21
677.67	364.81
678.01	363.64
678.34	362.33
678.68	361.05
679.02	359.86
679.36	358.62
679.70	357.41
680.04	356.27
680.37	355.10
680.71	353.87
681.05	352.92
681.39	351.89
681.73	350.74
682.06	349.60
682.40	348.65
682.74	347.66
683.08	346.56
683.42	345.40
683.75	344.38
684.09	343.37
684.43	342.31
684.77	341.24
685.10	340.08
685.44	339.25
685.78	338.19
686.12	337.13
686.45	336.16
686.79	335.10
687.13	334.18
687.46	333.10
687.80	332.16
688.14	330.99
688.48	329.95
688.81	328.84
689.15	327.77
689.49	326.53
689.82	325.42
690.16	324.44
690.50	323.39
690.83	322.32
691.17	321.14
691.51	320.15
691.84	319.29
692.18	318.36
692.52	317.28
692.85	316.33
693.19	315.34
693.52	314.25
693.86	313.31
694.20	312.26
694.53	311.30
694.87	310.29
695.21	309.45
695.54	308.41
695.88	307.63
696.21	306.81
696.55	306.07
696.88	305.20
697.22	304.24
697.56	303.60
697.89	302.74
698.23	302.10
698.56	301.34
698.90	300.57
699.23	299.68
699.57	298.90
699.90	298.15
700.24	297.39
700.58	296.66
700.91	295.92
701.25	295.40
701.58	294.80
701.92	294.09
702.25	293.29
702.59	292.80
702.92	292.05
703.26	291.24
703.59	290.52
703.93	289.96
704.26	289.38
704.60	288.53
704.93	287.89
705.26	287.21
705.60	286.56
705.93	285.89
706.27	285.39
706.60	284.90
706.94	284.34
707.27	283.78
707.61	283.22
707.94	282.64
708.27	281.94
708.61	281.21
708.94	280.76
709.28	280.30
709.61	279.66
709.94	279.03
710.28	278.53
710.61	278.00
710.95	277.40
711.28	276.93
711.61	276.45
711.95	276.01
712.28	275.38
712.61	274.91
712.95	274.56
713.28	274.22
713.61	273.73
713.95	273.17
714.28	272.65
714.61	272.25
714.95	271.87
715.28	271.44
715.61	271.03
715.95	270.54
716.28	270.15
716.61	269.68
716.95	269.31
717.28	269.00
717.61	268.67
717.94	268.24
718.28	267.73
718.61	267.30
718.94	266.93
719.27	266.69
719.61	266.31
719.94	265.85
720.27	265.20
720.60	264.77
720.94	264.55
721.27	264.18
721.60	263.80
721.93	263.28
722.27	262.96
722.60	262.68
722.93	262.38
723.26	261.95
723.59	261.54
723.93	261.15
724.26	260.82
724.59	260.46
724.92	260.17
725.25	259.87
725.59	259.61
725.92	259.34
726.25	259.02
726.58	258.63
726.91	258.17
727.24	258.00
727.57	257.70
727.91	257.33
728.24	257.12
728.57	256.77
728.90	256.53
729.23	256.03
729.56	255.80
729.89	255.39
730.22	255.06
730.55	254.95
730.89	254.76
731.22	254.38
731.55	254.13
731.88	253.78
732.21	253.41
732.54	253.12
732.87	252.77
733.20	252.45
733.53	252.24
733.86	252.13
734.19	251.85
734.52	251.57
734.85	251.39
735.18	251.10
735.51	250.95
735.84	250.82
736.17	250.80
736.50	250.38
736.83	250.45
737.16	250.25
737.49	249.83
737.82	249.58
738.15	249.40
738.48	249.16
738.81	248.92
739.14	248.80
739.47	248.58
739.80	248.30
740.13	248.10
740.46	247.84
740.79	247.55
741.12	247.31
741.45	247.10
741.78	246.81
742.11	246.56
742.44	246.24
742.77	245.99
743.10	245.74
743.43	245.61
743.75	245.07
744.08	245.20
744.41	245.01
744.74	244.84
745.07	244.66
745.40	244.33
745.73	244.33
746.06	244.11
746.39	244.02
746.71	243.83
747.04	243.55
747.37	243.39
747.70	243.33
748.03	243.26
748.36	243.15
748.68	243.10
749.01	242.92
749.34	242.91
749.67	242.77
750.00	242.74
750.33	242.71
750.65	242.82
750.98	242.41
751.31	242.28
751.64	242.12
751.97	242.10
752.29	242.11
752.62	241.85
752.95	241.80
753.28	241.66
753.60	241.60
753.93	241.60
754.26	241.56
754.59	241.39
754.91	241.19
755.24	241.06
755.57	240.92
755.90	240.93
756.22	240.69
756.55	240.61
756.88	240.34
757.20	240.14
757.53	239.84
757.86	239.69
758.19	239.62
758.51	239.56
758.84	239.46
759.17	239.29
759.49	239.16
759.82	239.09
760.15	238.96
760.47	238.88
760.80	238.71
761.13	238.59
761.45	238.45
761.78	238.28
762.11	238.20
762.43	238.05
762.76	237.93
763.08	237.96
763.41	237.88
763.74	237.71
764.06	237.60
764.39	237.45
764.71	237.41
765.04	237.39
765.37	237.23
765.69	237.00
766.02	236.87
766.34	236.77
766.67	236.58
767.00	236.53
767.32	236.51
767.65	236.59
767.97	236.48
768.30	236.45
768.62	236.47
768.95	236.37
769.27	236.33
769.60	236.18
769.92	235.98
770.25	235.85
770.57	235.86
770.90	235.78
771.22	235.66
771.55	235.52
771.87	235.39
772.20	235.30
772.52	235.37
772.85	235.50
773.17	235.44
773.50	235.35
773.82	235.24
774.15	235.02
774.47	234.77
774.80	234.71
775.12	234.47
775.45	234.39
775.77	234.22
776.09	234.06
776.42	234.05
776.74	234.03
777.07	233.93
777.39	233.84
777.72	233.81
778.04	233.86
778.36	233.80
778.69	233.71
779.01	233.72
779.33	233.56
779.66	233.33
779.98	233.30
780.31	233.22
780.63	233.26
780.95	233.27
781.28	233.22
781.60	233.16
781.92	233.23
782.25	233.18
782.57	233.28
782.89	233.23
783.22	233.13
783.54	233.14
783.86	233.17
784.19	233.18
784.51	233.15
784.83	233.11
785.16	233.07
785.48	232.99
785.80	232.90
786.12	232.89
786.45	232.86
786.77	232.86
787.09	232.89
787.42	232.78
787.74	232.77
788.06	232.84
788.38	232.78
788.71	232.74
789.03	232.71
789.35	232.66
789.67	232.64
789.99	232.60
790.32	232.48
790.64	232.39
790.96	232.46
791.28	232.46
791.61	232.50
791.93	232.51
792.25	232.59
792.57	232.62
792.89	232.56
793.21	232.61
793.54	232.55
793.86	232.48
794.18	232.45
