SpectraSuite Data File
++++++++++++++++++++++++++++++++++++
Date: Fri Feb 01 14:36:57 EST 2013
User: group
Dark Spectrum Present: No
Reference Spectrum Present: No
Number of Sampled Component Spectra: 1
Spectrometers: USB2E7196
Integration Time (usec): 70000 (USB2E7196)
Spectra Averaged: 10 (USB2E7196)
Boxcar Smoothing: 10 (USB2E7196)
Correct for Electrical Dark: No (USB2E7196)
Strobe/Lamp Enabled: No (USB2E7196)
Correct for Detector Non-linearity: No (USB2E7196)
Correct for Stray Light: No (USB2E7196)
Number of Pixels in Processed Spectrum: 2048
>>>>>Begin Processed Spectral Data<<<<<
339.09	0.00
339.48	216.70
339.86	216.50
340.24	218.80
340.63	219.20
341.01	225.40
341.39	224.70
341.78	224.80
342.16	226.70
342.54	224.80
342.93	214.51
343.31	225.35
343.69	225.87
344.07	226.35
344.46	226.84
344.84	227.22
345.22	227.39
345.60	227.48
345.99	227.64
346.37	227.71
346.75	227.80
347.13	227.78
347.52	227.87
347.90	227.85
348.28	227.85
348.66	227.88
349.05	227.92
349.43	227.95
349.81	228.00
350.19	228.11
350.57	228.14
350.96	228.13
351.34	228.15
351.72	228.26
352.10	228.34
352.48	228.20
352.87	228.23
353.25	228.21
353.63	228.29
354.01	228.30
354.39	228.37
354.77	228.50
355.15	228.67
355.54	228.78
355.92	228.80
356.30	228.94
356.68	229.13
357.06	229.10
357.44	229.15
357.82	229.13
358.20	229.06
358.58	229.11
358.97	229.22
359.35	229.41
359.73	229.45
360.11	229.42
360.49	229.63
360.87	229.76
361.25	229.92
361.63	230.06
362.01	230.14
362.39	230.26
362.77	230.31
363.15	230.29
363.53	230.18
363.91	230.17
364.29	230.14
364.67	230.05
365.05	230.02
365.43	229.99
365.81	230.09
366.19	230.27
366.57	230.31
366.95	230.30
367.33	230.22
367.71	230.14
368.09	230.30
368.47	230.26
368.85	230.25
369.23	230.21
369.61	230.08
369.99	230.12
370.37	229.92
370.75	229.89
371.13	229.85
371.51	229.92
371.89	229.90
372.27	229.87
372.65	229.75
373.03	229.72
373.41	229.68
373.78	229.63
374.16	229.47
374.54	229.37
374.92	229.31
375.30	229.17
375.68	229.17
376.06	229.04
376.44	228.95
376.82	228.78
377.19	228.75
377.57	228.70
377.95	228.51
378.33	228.61
378.71	228.45
379.09	228.41
379.47	228.31
379.84	228.24
380.22	228.15
380.60	227.99
380.98	228.01
381.36	227.98
381.73	227.85
382.11	227.86
382.49	227.70
382.87	227.61
383.25	227.50
383.62	227.62
384.00	227.50
384.38	227.49
384.76	227.50
385.13	227.42
385.51	227.31
385.89	227.27
386.27	227.17
386.64	227.20
387.02	227.15
387.40	227.10
387.78	227.06
388.15	227.03
388.53	227.02
388.91	226.90
389.29	226.85
389.66	226.88
390.04	226.74
390.42	226.84
390.79	226.84
391.17	226.92
391.55	226.75
391.92	226.76
392.30	226.79
392.68	226.73
393.05	226.70
393.43	226.75
393.81	226.76
394.18	226.66
394.56	226.76
394.94	226.77
395.31	226.77
395.69	226.90
396.06	226.94
396.44	227.00
396.82	227.04
397.19	227.17
397.57	227.22
397.95	227.34
398.32	227.38
398.70	227.43
399.07	227.61
399.45	227.53
399.82	227.61
400.20	227.63
400.58	227.74
400.95	227.73
401.33	227.93
401.70	228.16
402.08	228.31
402.45	228.33
402.83	228.50
403.20	228.64
403.58	228.72
403.95	228.92
404.33	229.24
404.71	229.42
405.08	229.78
405.46	229.97
405.83	230.26
406.21	230.41
406.58	230.75
406.96	230.87
407.33	231.27
407.70	231.62
408.08	232.17
408.45	232.67
408.83	233.15
409.20	233.43
409.58	233.78
409.95	234.26
410.33	234.77
410.70	235.23
411.08	235.82
411.45	236.35
411.82	236.76
412.20	237.23
412.57	238.01
412.95	238.37
413.32	239.08
413.69	239.84
414.07	240.50
414.44	241.30
414.82	242.23
415.19	243.15
415.56	244.17
415.94	245.01
416.31	246.06
416.68	247.18
417.06	248.39
417.43	249.56
417.81	251.00
418.18	252.37
418.55	253.90
418.93	255.43
419.30	257.03
419.67	258.86
420.04	260.75
420.42	262.54
420.79	264.77
421.16	266.96
421.54	269.14
421.91	271.66
422.28	274.15
422.66	276.68
423.03	279.21
423.40	281.87
423.77	284.65
424.15	287.41
424.52	290.21
424.89	293.53
425.26	296.62
425.64	299.55
426.01	302.69
426.38	306.10
426.75	309.43
427.13	312.98
427.50	316.53
427.87	320.43
428.24	324.24
428.61	327.80
428.99	331.85
429.36	336.23
429.73	340.43
430.10	344.56
430.47	348.88
430.85	353.38
431.22	357.95
431.59	362.95
431.96	367.77
432.33	373.20
432.70	378.15
433.08	384.19
433.45	389.58
433.82	395.33
434.19	401.51
434.56	407.68
434.93	413.65
435.30	419.54
435.68	425.81
436.05	432.26
436.42	438.62
436.79	444.34
437.16	450.36
437.53	456.91
437.90	463.37
438.27	469.65
438.64	476.15
439.01	482.33
439.38	487.76
439.75	492.90
440.13	498.62
440.50	504.26
440.87	508.94
441.24	514.05
441.61	519.29
441.98	523.32
442.35	528.11
442.72	532.62
443.09	537.21
443.46	540.10
443.83	542.20
444.20	544.23
444.57	546.93
444.94	548.59
445.31	550.29
445.68	551.94
446.05	553.11
446.42	553.17
446.79	553.01
447.16	552.85
447.53	553.04
447.90	551.53
448.27	550.03
448.64	547.27
449.01	545.61
449.37	542.16
449.74	538.72
450.11	534.31
450.48	529.80
450.85	524.95
451.22	521.07
451.59	517.04
451.96	513.15
452.33	507.70
452.70	502.83
453.07	497.01
453.43	490.99
453.80	485.13
454.17	479.68
454.54	474.60
454.91	468.90
455.28	463.43
455.65	458.28
456.02	453.05
456.38	448.52
456.75	442.73
457.12	438.00
457.49	433.13
457.86	428.60
458.23	424.60
458.59	420.43
458.96	415.81
459.33	411.95
459.70	408.06
460.07	405.07
460.43	401.36
460.80	397.78
461.17	394.62
461.54	391.35
461.91	388.20
462.27	384.81
462.64	382.09
463.01	379.02
463.38	376.10
463.74	373.11
464.11	370.66
464.48	368.48
464.85	365.96
465.21	364.16
465.58	362.12
465.95	359.56
466.32	357.41
466.68	355.43
467.05	353.41
467.42	351.27
467.78	349.00
468.15	346.96
468.52	345.48
468.88	343.58
469.25	341.85
469.62	340.45
469.98	339.03
470.35	337.58
470.72	336.07
471.08	334.53
471.45	333.20
471.82	331.88
472.18	330.35
472.55	329.33
472.92	327.97
473.28	326.78
473.65	325.69
474.02	324.50
474.38	323.34
474.75	322.29
475.11	321.50
475.48	320.75
475.85	320.20
476.21	319.40
476.58	318.72
476.94	318.28
477.31	317.56
477.67	316.86
478.04	316.28
478.41	316.05
478.77	315.79
479.14	315.42
479.50	314.95
479.87	314.83
480.23	314.54
480.60	314.18
480.96	313.90
481.33	313.90
481.69	313.86
482.06	313.82
482.42	313.74
482.79	313.58
483.15	313.54
483.52	313.61
483.88	313.62
484.25	313.70
484.61	313.71
484.98	313.83
485.34	314.04
485.71	314.41
486.07	314.60
486.44	314.78
486.80	315.14
487.17	315.62
487.53	315.99
487.90	316.50
488.26	317.13
488.62	317.74
488.99	318.26
489.35	318.85
489.72	319.55
490.08	320.33
490.44	321.04
490.81	321.86
491.17	322.59
491.54	323.35
491.90	324.15
492.26	324.99
492.63	326.07
492.99	326.97
493.36	327.92
493.72	329.00
494.08	330.03
494.45	330.94
494.81	331.97
495.17	332.98
495.54	334.07
495.90	335.16
496.26	336.14
496.63	337.22
496.99	338.39
497.35	339.51
497.72	340.51
498.08	341.65
498.44	342.75
498.80	343.80
499.17	344.92
499.53	346.10
499.89	347.21
500.26	347.99
500.62	349.17
500.98	350.11
501.34	351.12
501.71	352.20
502.07	353.14
502.43	354.18
502.79	355.08
503.16	355.83
503.52	356.68
503.88	357.61
504.24	358.45
504.60	359.29
504.97	360.03
505.33	360.77
505.69	361.57
506.05	362.28
506.41	363.10
506.78	363.82
507.14	364.29
507.50	364.88
507.86	365.46
508.22	365.97
508.59	366.37
508.95	366.74
509.31	367.18
509.67	367.72
510.03	367.96
510.39	368.32
510.75	368.65
511.12	368.88
511.48	369.00
511.84	369.12
512.20	369.27
512.56	369.36
512.92	369.59
513.28	369.70
513.64	369.86
514.00	369.89
514.37	369.95
514.73	370.11
515.09	370.20
515.45	370.37
515.81	370.35
516.17	370.45
516.53	370.45
516.89	370.33
517.25	370.22
517.61	370.45
517.97	370.52
518.33	370.64
518.69	370.81
519.05	371.04
519.41	371.27
519.77	371.57
520.13	371.90
520.49	372.11
520.85	372.32
521.21	372.53
521.57	372.90
521.93	373.23
522.29	373.66
522.65	374.03
523.01	374.43
523.37	375.01
523.73	375.53
524.09	376.08
524.45	376.76
524.81	377.46
525.17	378.11
525.53	379.01
525.89	379.88
526.25	380.88
526.61	381.71
526.97	382.84
527.33	383.78
527.68	385.11
528.04	386.30
528.40	387.57
528.76	388.92
529.12	390.33
529.48	391.79
529.84	393.24
530.20	394.89
530.56	396.70
530.91	398.63
531.27	400.65
531.63	402.67
531.99	404.73
532.35	406.90
532.71	408.91
533.07	411.26
533.42	413.85
533.78	416.20
534.14	418.75
534.50	421.23
534.86	424.06
535.21	426.61
535.57	429.63
535.93	432.47
536.29	435.54
536.65	438.54
537.00	441.53
537.36	444.86
537.72	448.08
538.08	451.27
538.44	454.24
538.79	457.56
539.15	460.98
539.51	464.64
539.87	468.25
540.22	471.93
540.58	475.56
540.94	478.95
541.29	482.70
541.65	486.50
542.01	490.30
542.37	494.17
542.72	497.90
543.08	501.65
543.44	505.74
543.79	509.47
544.15	513.46
544.51	517.88
544.87	522.12
545.22	526.33
545.58	530.56
545.94	534.93
546.29	539.24
546.65	543.69
547.01	547.69
547.36	551.75
547.72	556.25
548.07	560.42
548.43	564.79
548.79	568.95
549.14	573.35
549.50	577.87
549.86	581.93
550.21	586.43
550.57	590.85
550.92	595.21
551.28	599.85
551.64	604.45
551.99	608.62
552.35	612.83
552.70	617.21
553.06	621.59
553.41	625.88
553.77	630.30
554.13	634.55
554.48	639.06
554.84	643.60
555.19	647.84
555.55	652.61
555.90	656.80
556.26	661.48
556.61	665.86
556.97	669.96
557.32	674.62
557.68	678.90
558.03	683.18
558.39	687.37
558.74	691.83
559.10	695.94
559.45	700.15
559.81	704.51
560.16	708.70
560.52	712.85
560.87	717.25
561.23	721.26
561.58	725.59
561.94	729.66
562.29	733.73
562.64	737.68
563.00	741.21
563.35	745.70
563.71	749.70
564.06	753.59
564.42	757.76
564.77	761.55
565.12	765.63
565.48	769.71
565.83	773.48
566.19	777.26
566.54	780.90
566.89	784.57
567.25	788.27
567.60	792.27
567.96	795.97
568.31	799.57
568.66	803.04
569.02	806.26
569.37	809.57
569.72	812.87
570.08	816.06
570.43	819.44
570.78	822.01
571.14	824.64
571.49	827.67
571.84	830.86
572.20	833.40
572.55	836.07
572.90	838.33
573.26	841.16
573.61	843.44
573.96	845.89
574.31	847.85
574.67	849.70
575.02	851.22
575.37	852.88
575.72	854.28
576.08	856.10
576.43	857.72
576.78	859.44
577.13	861.07
577.49	862.69
577.84	864.18
578.19	865.84
578.54	867.40
578.90	868.38
579.25	868.95
579.60	870.01
579.95	870.71
580.30	871.68
580.66	872.52
581.01	873.06
581.36	873.74
581.71	874.75
582.06	875.77
582.42	876.56
582.77	877.17
583.12	877.83
583.47	878.37
583.82	879.12
584.17	879.22
584.53	879.73
584.88	880.30
585.23	880.31
585.58	880.69
585.93	880.76
586.28	881.31
586.63	881.72
586.98	882.14
587.34	882.42
587.69	882.52
588.04	882.79
588.39	882.91
588.74	882.50
589.09	882.53
589.44	882.12
589.79	882.08
590.14	882.30
590.49	882.07
590.84	881.76
591.19	881.28
591.54	880.89
591.89	879.98
592.25	879.15
592.60	878.55
592.95	877.71
593.30	876.71
593.65	875.60
594.00	874.36
594.35	873.75
594.70	872.73
595.05	871.75
595.40	870.30
595.75	869.18
596.10	868.52
596.45	867.36
596.80	866.49
597.15	865.10
597.50	863.66
597.85	862.92
598.19	861.75
598.54	860.47
598.89	859.57
599.24	858.59
599.59	857.42
599.94	856.18
600.29	854.79
600.64	853.67
600.99	852.20
601.34	851.06
601.69	849.19
602.04	848.09
602.39	846.79
602.74	845.51
603.08	844.38
603.43	843.25
603.78	841.89
604.13	840.28
604.48	838.88
604.83	837.59
605.18	835.94
605.53	834.05
605.87	832.18
606.22	830.31
606.57	828.52
606.92	826.77
607.27	825.25
607.62	823.85
607.96	822.35
608.31	820.79
608.66	818.94
609.01	816.91
609.36	814.43
609.70	812.05
610.05	809.69
610.40	807.56
610.75	804.98
611.10	802.77
611.44	800.32
611.79	798.34
612.14	795.73
612.49	792.76
612.83	790.14
613.18	787.76
613.53	785.36
613.88	782.66
614.22	780.17
614.57	777.44
614.92	774.73
615.27	772.34
615.61	769.53
615.96	767.02
616.31	764.86
616.65	762.79
617.00	760.74
617.35	758.51
617.70	755.80
618.04	753.21
618.39	750.39
618.74	748.20
619.08	745.41
619.43	742.86
619.78	740.66
620.12	738.47
620.47	736.03
620.82	733.64
621.16	731.28
621.51	728.68
621.85	726.20
622.20	723.50
622.55	720.80
622.89	718.51
623.24	716.16
623.59	713.41
623.93	710.92
624.28	708.21
624.62	705.55
624.97	703.39
625.32	701.22
625.66	698.98
626.01	696.10
626.35	693.41
626.70	690.80
627.04	688.42
627.39	685.76
627.73	683.10
628.08	680.38
628.43	677.88
628.77	675.49
629.12	672.80
629.46	670.15
629.81	667.32
630.15	664.64
630.50	661.90
630.84	659.10
631.19	656.16
631.53	653.36
631.88	650.49
632.22	647.25
632.57	644.48
632.91	641.74
633.26	639.04
633.60	636.33
633.95	633.80
634.29	631.01
634.64	628.69
634.98	626.17
635.32	623.61
635.67	621.29
636.01	618.84
636.36	616.46
636.70	614.14
637.05	611.96
637.39	609.63
637.73	607.24
638.08	605.16
638.42	603.06
638.77	600.71
639.11	598.51
639.45	596.13
639.80	593.47
640.14	590.94
640.49	588.66
640.83	586.34
641.17	584.25
641.52	581.86
641.86	579.24
642.20	576.93
642.55	574.52
642.89	572.16
643.23	569.52
643.58	567.43
643.92	564.83
644.26	562.30
644.61	559.99
644.95	557.61
645.29	554.90
645.64	552.22
645.98	550.07
646.32	547.65
646.66	545.48
647.01	543.41
647.35	541.44
647.69	539.07
648.04	536.97
648.38	534.41
648.72	532.03
649.06	529.62
649.41	527.23
649.75	524.77
650.09	522.28
650.43	519.80
650.78	517.01
651.12	514.69
651.46	512.34
651.80	509.82
652.14	507.54
652.49	505.54
652.83	503.37
653.17	500.75
653.51	498.53
653.85	496.30
654.20	493.86
654.54	491.39
654.88	489.04
655.22	486.46
655.56	484.01
655.90	481.82
656.25	479.81
656.59	477.65
656.93	475.66
657.27	473.66
657.61	471.54
657.95	469.63
658.29	467.58
658.64	465.50
658.98	463.50
659.32	461.09
659.66	458.94
660.00	456.90
660.34	455.02
660.68	452.85
661.02	450.71
661.36	448.60
661.70	446.59
662.05	444.91
662.39	442.98
662.73	441.34
663.07	439.61
663.41	437.65
663.75	435.78
664.09	433.80
664.43	431.76
664.77	430.05
665.11	428.12
665.45	426.48
665.79	424.58
666.13	422.75
666.47	421.13
666.81	419.30
667.15	417.41
667.49	415.67
667.83	414.12
668.17	412.47
668.51	410.81
668.85	408.99
669.19	407.23
669.53	405.53
669.87	403.73
670.21	402.01
670.55	400.52
670.89	399.00
671.23	397.52
671.57	395.97
671.91	394.49
672.25	393.04
672.58	391.42
672.92	389.90
673.26	388.38
673.60	386.86
673.94	385.51
674.28	384.19
674.62	382.89
674.96	381.58
675.30	380.19
675.64	378.87
675.97	377.68
676.31	376.36
676.65	375.19
676.99	374.13
677.33	372.76
677.67	371.33
678.01	369.89
678.34	368.70
678.68	367.53
679.02	366.29
679.36	364.87
679.70	363.50
680.04	362.29
680.37	361.16
680.71	360.02
681.05	358.70
681.39	357.58
681.73	356.31
682.06	355.15
682.40	353.99
682.74	352.93
683.08	351.79
683.42	350.51
683.75	349.36
684.09	347.95
684.43	346.85
684.77	345.64
685.10	344.55
685.44	343.26
685.78	342.06
686.12	340.73
686.45	339.60
686.79	338.56
687.13	337.40
687.46	336.18
687.80	335.02
688.14	333.94
688.48	332.78
688.81	331.59
689.15	330.43
689.49	329.17
689.82	328.04
690.16	326.89
690.50	325.78
690.83	324.65
691.17	323.65
691.51	322.61
691.84	321.71
692.18	320.80
692.52	319.76
692.85	318.68
693.19	317.79
693.52	316.99
693.86	315.98
694.20	315.12
694.53	314.15
694.87	313.16
695.21	312.15
695.54	311.22
695.88	310.30
696.21	309.32
696.55	308.66
696.88	307.73
697.22	306.94
697.56	306.16
697.89	305.36
698.23	304.45
698.56	303.63
698.90	302.77
699.23	301.74
699.57	300.93
699.90	300.23
700.24	299.48
700.58	298.52
700.91	297.85
701.25	297.20
701.58	296.62
701.92	296.03
702.25	295.26
702.59	294.45
702.92	293.85
703.26	293.23
703.59	292.40
703.93	291.99
704.26	291.25
704.60	290.61
704.93	289.93
705.26	289.34
705.60	288.83
705.93	288.18
706.27	287.63
706.60	287.20
706.94	286.58
707.27	285.88
707.61	285.39
707.94	284.89
708.27	284.18
708.61	283.47
708.94	282.84
709.28	282.40
709.61	281.93
709.94	281.40
710.28	280.84
710.61	280.47
710.95	279.57
711.28	279.15
711.61	278.70
711.95	278.18
712.28	277.65
712.61	277.00
712.95	276.64
713.28	276.40
713.61	275.78
713.95	275.15
714.28	274.73
714.61	274.19
714.95	273.70
715.28	273.23
715.61	272.76
715.95	272.35
716.28	271.94
716.61	271.50
716.95	270.96
717.28	270.48
717.61	269.98
717.94	269.72
718.28	269.12
718.61	268.69
718.94	268.31
719.27	267.82
719.61	267.36
719.94	266.80
720.27	266.16
720.60	265.81
720.94	265.58
721.27	265.15
721.60	264.89
721.93	264.40
722.27	264.16
722.60	263.87
722.93	263.41
723.26	263.04
723.59	262.65
723.93	262.34
724.26	261.91
724.59	261.54
724.92	261.11
725.25	260.87
725.59	260.51
725.92	260.13
726.25	259.90
726.58	259.48
726.91	259.24
727.24	259.01
727.57	258.60
727.91	258.10
728.24	257.80
728.57	257.38
728.90	257.10
729.23	256.56
729.56	256.23
729.89	255.94
730.22	255.52
730.55	255.18
730.89	254.90
731.22	254.64
731.55	254.40
731.88	254.03
732.21	253.72
732.54	253.39
732.87	253.07
733.20	252.69
733.53	252.58
733.86	252.28
734.19	251.96
734.52	251.71
734.85	251.73
735.18	251.51
735.51	251.34
735.84	251.10
736.17	250.91
736.50	250.63
736.83	250.64
737.16	250.49
737.49	250.24
737.82	250.00
738.15	249.72
738.48	249.40
738.81	249.24
739.14	249.00
739.47	248.78
739.80	248.48
740.13	248.39
740.46	248.14
740.79	247.91
741.12	247.60
741.45	247.49
741.78	247.14
742.11	247.00
742.44	246.70
742.77	246.50
743.10	246.31
743.43	246.10
743.75	245.63
744.08	245.62
744.41	245.47
744.74	245.20
745.07	245.04
745.40	244.93
745.73	244.80
746.06	244.59
746.39	244.50
746.71	244.44
747.04	244.29
747.37	244.02
747.70	244.00
748.03	243.83
748.36	243.57
748.68	243.49
749.01	243.26
749.34	243.19
749.67	243.08
750.00	243.02
750.33	243.09
750.65	243.07
750.98	242.78
751.31	242.72
751.64	242.61
751.97	242.60
752.29	242.40
752.62	242.28
752.95	242.14
753.28	241.87
753.60	241.70
753.93	241.55
754.26	241.48
754.59	241.15
754.91	241.15
755.24	241.10
755.57	240.93
755.90	240.82
756.22	240.65
756.55	240.48
756.88	240.30
757.20	239.97
757.53	239.77
757.86	239.63
758.19	239.54
758.51	239.45
758.84	239.30
759.17	239.28
759.49	239.13
759.82	239.16
760.15	239.14
760.47	239.06
760.80	238.78
761.13	238.76
761.45	238.64
761.78	238.51
762.11	238.30
762.43	238.13
762.76	237.89
763.08	237.79
763.41	237.59
763.74	237.34
764.06	237.18
764.39	237.00
764.71	236.88
765.04	236.72
765.37	236.56
765.69	236.43
766.02	236.18
766.34	236.01
766.67	235.86
767.00	235.66
767.32	235.60
767.65	235.67
767.97	235.39
768.30	235.39
768.62	235.19
768.95	235.06
769.27	234.87
769.60	234.88
769.92	234.78
770.25	234.70
770.57	234.67
770.90	234.69
771.22	234.66
771.55	234.52
771.87	234.36
772.20	234.28
772.52	234.34
772.85	234.47
773.17	234.40
773.50	234.26
773.82	234.21
774.15	234.06
774.47	233.88
774.80	233.90
775.12	233.68
775.45	233.74
775.77	233.67
776.09	233.70
776.42	233.64
776.74	233.53
777.07	233.50
777.39	233.34
777.72	233.29
778.04	233.11
778.36	233.12
778.69	233.11
779.01	233.11
779.33	232.87
779.66	232.65
779.98	232.67
780.31	232.69
780.63	232.73
780.95	232.79
781.28	232.86
781.60	232.81
781.92	232.87
782.25	232.69
782.57	232.73
782.89	232.70
783.22	232.60
783.54	232.54
783.86	232.60
784.19	232.66
784.51	232.57
784.83	232.71
785.16	232.61
785.48	232.57
785.80	232.50
786.12	232.57
786.45	232.63
786.77	232.57
787.09	232.45
787.42	232.35
787.74	232.30
788.06	232.16
788.38	232.18
788.71	232.15
789.03	232.30
789.35	232.27
789.67	232.20
789.99	232.27
790.32	232.27
790.64	232.38
790.96	232.58
791.28	232.59
791.61	232.53
791.93	232.54
792.25	232.58
792.57	232.73
792.89	232.73
793.21	232.70
793.54	232.60
793.86	232.57
794.18	232.53
