SpectraSuite Data File
++++++++++++++++++++++++++++++++++++
Date: Fri Feb 01 14:35:17 EST 2013
User: group
Dark Spectrum Present: No
Reference Spectrum Present: No
Number of Sampled Component Spectra: 1
Spectrometers: USB2E7196
Integration Time (usec): 70000 (USB2E7196)
Spectra Averaged: 10 (USB2E7196)
Boxcar Smoothing: 10 (USB2E7196)
Correct for Electrical Dark: No (USB2E7196)
Strobe/Lamp Enabled: No (USB2E7196)
Correct for Detector Non-linearity: No (USB2E7196)
Correct for Stray Light: No (USB2E7196)
Number of Pixels in Processed Spectrum: 2048
>>>>>Begin Processed Spectral Data<<<<<
339.09	0.00
339.48	216.90
339.86	220.80
340.24	219.00
340.63	221.60
341.01	226.50
341.39	223.90
341.78	226.00
342.16	227.90
342.54	223.50
342.93	214.95
343.31	225.83
343.69	226.30
344.07	226.66
344.46	227.14
344.84	227.44
345.22	227.56
345.60	227.77
345.99	227.81
346.37	227.82
346.75	228.01
347.13	228.13
347.52	228.19
347.90	228.29
348.28	228.30
348.66	228.30
349.05	228.23
349.43	228.39
349.81	228.36
350.19	228.40
350.57	228.50
350.96	228.56
351.34	228.54
351.72	228.63
352.10	228.68
352.48	228.71
352.87	228.74
353.25	228.66
353.63	228.76
354.01	228.85
354.39	228.97
354.77	229.08
355.15	229.16
355.54	229.19
355.92	229.14
356.30	229.10
356.68	229.29
357.06	229.39
357.44	229.31
357.82	229.47
358.20	229.39
358.58	229.36
358.97	229.36
359.35	229.49
359.73	229.51
360.11	229.52
360.49	229.62
360.87	229.68
361.25	229.79
361.63	229.88
362.01	229.98
362.39	229.97
362.77	229.99
363.15	230.15
363.53	230.17
363.91	230.29
364.29	230.32
364.67	230.12
365.05	230.08
365.43	230.06
365.81	230.08
366.19	230.30
366.57	230.38
366.95	230.33
367.33	230.35
367.71	230.32
368.09	230.31
368.47	230.17
368.85	230.09
369.23	230.07
369.61	229.99
369.99	229.97
370.37	229.81
370.75	229.91
371.13	229.76
371.51	229.64
371.89	229.61
372.27	229.55
372.65	229.50
373.03	229.50
373.41	229.45
373.78	229.32
374.16	229.00
374.54	228.89
374.92	228.85
375.30	228.65
375.68	228.59
376.06	228.59
376.44	228.50
376.82	228.51
377.19	228.48
377.57	228.29
377.95	228.16
378.33	228.16
378.71	227.95
379.09	227.91
379.47	227.90
379.84	227.82
380.22	227.83
380.60	227.85
380.98	227.75
381.36	227.74
381.73	227.70
382.11	227.76
382.49	227.80
382.87	227.82
383.25	227.84
383.62	227.97
384.00	227.97
384.38	227.94
384.76	227.98
385.13	227.98
385.51	227.98
385.89	227.91
386.27	227.86
386.64	227.82
387.02	227.79
387.40	227.75
387.78	227.75
388.15	227.71
388.53	227.62
388.91	227.70
389.29	227.74
389.66	227.76
390.04	227.77
390.42	227.72
390.79	227.73
391.17	227.73
391.55	227.53
391.92	227.44
392.30	227.49
392.68	227.42
393.05	227.48
393.43	227.56
393.81	227.62
394.18	227.70
394.56	227.71
394.94	227.76
395.31	227.80
395.69	227.90
396.06	227.94
396.44	228.14
396.82	228.16
397.19	228.27
397.57	228.37
397.95	228.47
398.32	228.59
398.70	228.57
399.07	228.75
399.45	228.97
399.82	229.14
400.20	229.23
400.58	229.43
400.95	229.48
401.33	229.69
401.70	229.98
402.08	230.11
402.45	230.35
402.83	230.56
403.20	230.81
403.58	230.97
403.95	231.19
404.33	231.32
404.71	231.55
405.08	231.86
405.46	232.02
405.83	232.27
406.21	232.49
406.58	232.89
406.96	233.17
407.33	233.45
407.70	233.86
408.08	234.43
408.45	234.83
408.83	235.34
409.20	235.79
409.58	236.20
409.95	236.74
410.33	237.40
410.70	237.88
411.08	238.52
411.45	239.32
411.82	240.03
412.20	240.80
412.57	241.76
412.95	242.54
413.32	243.77
413.69	244.77
414.07	245.87
414.44	246.99
414.82	248.12
415.19	249.55
415.56	250.96
415.94	252.50
416.31	254.22
416.68	255.84
417.06	257.77
417.43	259.63
417.81	261.67
418.18	263.78
418.55	266.15
418.93	268.45
419.30	270.90
419.67	273.54
420.04	276.24
420.42	278.99
420.79	282.05
421.16	285.03
421.54	288.44
421.91	292.00
422.28	295.65
422.66	299.42
423.03	303.13
423.40	307.04
423.77	311.08
424.15	315.25
424.52	319.64
424.89	324.19
425.26	328.81
425.64	333.19
426.01	337.87
426.38	342.84
426.75	348.03
427.13	353.11
427.50	358.69
427.87	364.36
428.24	370.09
428.61	375.69
428.99	381.88
429.36	388.39
429.73	394.61
430.10	401.04
430.47	407.47
430.85	414.04
431.22	420.93
431.59	428.24
431.96	435.44
432.33	443.29
432.70	451.05
433.08	459.94
433.45	468.20
433.82	476.69
434.19	485.98
434.56	495.01
434.93	503.73
435.30	512.29
435.68	522.02
436.05	531.55
436.42	540.92
436.79	549.20
437.16	558.17
437.53	567.79
437.90	577.12
438.27	586.77
438.64	596.72
439.01	605.77
439.38	613.80
439.75	621.49
440.13	630.48
440.50	638.88
440.87	645.91
441.24	653.54
441.61	661.61
441.98	667.60
442.35	674.60
442.72	681.78
443.09	688.86
443.46	693.13
443.83	696.20
444.20	699.08
444.57	703.38
444.94	705.91
445.31	708.44
445.68	710.90
446.05	712.43
446.42	712.65
446.79	712.74
447.16	712.76
447.53	713.00
447.90	710.68
448.27	708.21
448.64	704.20
449.01	701.62
449.37	696.13
449.74	691.22
450.11	684.71
450.48	677.80
450.85	670.47
451.22	664.47
451.59	658.61
451.96	653.03
452.33	645.00
452.70	637.90
453.07	629.43
453.43	620.83
453.80	612.31
454.17	603.93
454.54	596.17
454.91	587.81
455.28	579.45
455.65	571.57
456.02	563.71
456.38	557.15
456.75	548.67
457.12	541.80
457.49	534.63
457.86	527.97
458.23	522.11
458.59	515.62
458.96	509.12
459.33	503.44
459.70	497.61
460.07	492.93
460.43	487.51
460.80	482.15
461.17	477.55
461.54	472.83
461.91	468.29
462.27	463.51
462.64	459.49
463.01	455.20
463.38	450.90
463.74	446.69
464.11	442.98
464.48	439.79
464.85	436.10
465.21	433.36
465.58	430.52
465.95	426.83
466.32	423.90
466.68	420.94
467.05	417.90
467.42	414.90
467.78	411.82
468.15	408.82
468.52	406.73
468.88	404.00
469.25	401.51
469.62	399.39
469.98	397.27
470.35	395.23
470.72	393.38
471.08	391.33
471.45	389.48
471.82	387.50
472.18	385.28
472.55	383.90
472.92	382.15
473.28	380.62
473.65	379.29
474.02	377.80
474.38	376.44
474.75	375.42
475.11	374.35
475.48	373.48
475.85	372.84
476.21	371.93
476.58	370.99
476.94	370.22
477.31	369.67
477.67	368.89
478.04	368.27
478.41	367.64
478.77	367.42
479.14	367.03
479.50	366.64
479.87	366.74
480.23	366.60
480.60	366.30
480.96	366.20
481.33	366.15
481.69	366.38
482.06	366.44
482.42	366.29
482.79	366.27
483.15	366.52
483.52	366.94
483.88	367.29
484.25	367.74
484.61	368.36
484.98	368.69
485.34	369.50
485.71	370.39
486.07	371.28
486.44	371.90
486.80	372.95
487.17	374.04
487.53	375.25
487.90	376.47
488.26	377.94
488.62	379.18
488.99	380.50
489.35	381.71
489.72	383.29
490.08	385.07
490.44	386.77
490.81	388.51
491.17	390.15
491.54	391.97
491.90	393.91
492.26	395.81
492.63	397.93
492.99	399.91
493.36	401.83
493.72	404.13
494.08	406.45
494.45	408.74
494.81	411.17
495.17	413.45
495.54	415.89
495.90	418.36
496.26	420.86
496.63	423.47
496.99	426.22
497.35	428.93
497.72	431.81
498.08	434.83
498.44	437.61
498.80	440.72
499.17	443.79
499.53	446.68
499.89	449.73
500.26	452.61
500.62	455.66
500.98	458.85
501.34	461.77
501.71	464.83
502.07	467.92
502.43	471.01
502.79	474.12
503.16	477.25
503.52	480.30
503.88	483.46
504.24	486.61
504.60	489.64
504.97	492.66
505.33	495.54
505.69	498.59
506.05	501.66
506.41	504.24
506.78	507.10
507.14	509.87
507.50	512.61
507.86	515.41
508.22	518.14
508.59	520.76
508.95	523.46
509.31	526.02
509.67	528.58
510.03	530.87
510.39	533.13
510.75	535.26
511.12	537.54
511.48	539.98
511.84	542.35
512.20	544.55
512.56	546.84
512.92	548.88
513.28	550.79
513.64	552.52
514.00	554.33
514.37	556.22
514.73	558.10
515.09	559.98
515.45	561.71
515.81	563.23
516.17	564.94
516.53	566.37
516.89	567.69
517.25	569.01
517.61	570.64
517.97	572.03
518.33	573.54
518.69	574.87
519.05	575.83
519.41	576.90
519.77	578.17
520.13	579.23
520.49	580.34
520.85	581.21
521.21	582.54
521.57	584.26
521.93	585.00
522.29	586.28
522.65	587.17
523.01	588.29
523.37	589.47
523.73	590.29
524.09	591.39
524.45	592.68
524.81	593.96
525.17	595.19
525.53	596.58
525.89	597.65
526.25	598.82
526.61	599.93
526.97	601.20
527.33	602.50
527.68	604.11
528.04	605.50
528.40	607.03
528.76	608.64
529.12	609.70
529.48	611.34
529.84	612.68
530.20	614.42
530.56	615.96
530.91	617.87
531.27	619.73
531.63	621.44
531.99	623.22
532.35	624.68
532.71	626.22
533.07	627.95
533.42	630.23
533.78	632.21
534.14	634.30
534.50	636.27
534.86	638.44
535.21	640.10
535.57	642.24
535.93	644.64
536.29	646.50
536.65	648.60
537.00	650.77
537.36	653.33
537.72	655.65
538.08	658.30
538.44	660.32
538.79	662.89
539.15	665.35
539.51	668.09
539.87	670.94
540.22	673.74
540.58	676.66
540.94	679.11
541.29	681.91
541.65	684.74
542.01	687.77
542.37	690.55
542.72	693.46
543.08	696.32
543.44	699.38
543.79	702.33
544.15	705.68
544.51	709.12
544.87	712.17
545.22	715.23
545.58	717.89
545.94	720.99
546.29	724.02
546.65	727.52
547.01	730.34
547.36	733.50
547.72	736.52
548.07	739.40
548.43	742.52
548.79	745.57
549.14	748.77
549.50	751.82
549.86	754.83
550.21	758.01
550.57	761.20
550.92	763.92
551.28	767.00
551.64	769.93
551.99	772.90
552.35	775.70
552.70	778.83
553.06	782.29
553.41	785.52
553.77	788.48
554.13	791.44
554.48	794.92
554.84	798.20
555.19	801.58
555.55	804.91
555.90	807.78
556.26	810.87
556.61	813.92
556.97	816.99
557.32	820.17
557.68	823.19
558.03	826.05
558.39	829.28
558.74	832.90
559.10	836.10
559.45	839.19
559.81	842.75
560.16	845.97
560.52	848.96
560.87	852.19
561.23	855.46
561.58	858.60
561.94	861.68
562.29	864.50
562.64	866.97
563.00	869.71
563.35	872.99
563.71	876.01
564.06	879.10
564.42	881.91
564.77	884.76
565.12	887.76
565.48	891.19
565.83	893.70
566.19	896.11
566.54	898.64
566.89	901.39
567.25	903.84
567.60	906.48
567.96	909.32
568.31	911.65
568.66	913.99
569.02	916.04
569.37	917.85
569.72	920.12
570.08	922.61
570.43	925.07
570.78	926.75
571.14	928.40
571.49	929.91
571.84	931.91
572.20	933.43
572.55	934.88
572.90	935.85
573.26	937.61
573.61	938.94
573.96	940.41
574.31	941.07
574.67	941.64
575.02	942.52
575.37	943.03
575.72	943.72
576.08	944.42
576.43	945.11
576.78	945.96
577.13	946.36
577.49	947.05
577.84	947.26
578.19	947.79
578.54	948.15
578.90	948.67
579.25	948.62
579.60	948.76
579.95	948.64
580.30	948.70
580.66	948.44
581.01	948.35
581.36	947.95
581.71	948.17
582.06	948.42
582.42	947.79
582.77	947.45
583.12	947.20
583.47	947.30
583.82	947.15
584.17	946.74
584.53	946.45
584.88	946.03
585.23	945.43
585.58	944.86
585.93	944.48
586.28	944.00
586.63	943.50
586.98	943.15
587.34	943.00
587.69	942.62
588.04	942.04
588.39	941.35
588.74	940.14
589.09	939.22
589.44	937.80
589.79	937.15
590.14	936.50
590.49	935.55
590.84	933.82
591.19	932.56
591.54	931.10
591.89	929.34
592.25	927.85
592.60	926.10
592.95	924.50
593.30	922.69
593.65	920.98
594.00	919.19
594.35	917.52
594.70	915.15
595.05	913.15
595.40	911.28
595.75	909.14
596.10	907.66
596.45	905.78
596.80	904.53
597.15	902.61
597.50	900.23
597.85	898.39
598.19	896.94
598.54	895.16
598.89	893.43
599.24	892.08
599.59	890.22
599.94	888.56
600.29	886.68
600.64	884.90
600.99	882.48
601.34	880.42
601.69	878.29
602.04	876.53
602.39	874.37
602.74	872.46
603.08	870.69
603.43	869.00
603.78	867.10
604.13	864.95
604.48	862.80
604.83	861.02
605.18	859.07
605.53	856.65
605.87	854.01
606.22	851.65
606.57	849.19
606.92	846.73
607.27	844.61
607.62	842.51
607.96	840.30
608.31	838.41
608.66	836.06
609.01	833.55
609.36	831.04
609.70	828.24
610.05	825.52
610.40	822.75
610.75	819.64
611.10	816.56
611.44	813.34
611.79	810.66
612.14	807.57
612.49	804.29
612.83	801.12
613.18	798.45
613.53	795.70
613.88	792.56
614.22	789.57
614.57	786.18
614.92	783.17
615.27	780.36
615.61	777.08
615.96	774.14
616.31	771.20
616.65	768.69
617.00	766.25
617.35	763.44
617.70	760.41
618.04	757.38
618.39	754.58
618.74	751.90
619.08	748.92
619.43	746.34
619.78	743.63
620.12	740.87
620.47	737.86
620.82	734.87
621.16	732.07
621.51	729.49
621.85	726.85
622.20	723.90
622.55	720.87
622.89	718.25
623.24	715.78
623.59	713.00
623.93	709.98
624.28	707.18
624.62	704.34
624.97	702.00
625.32	699.56
625.66	697.10
626.01	694.38
626.35	691.65
626.70	688.85
627.04	686.17
627.39	683.42
627.73	680.84
628.08	678.23
628.43	675.77
628.77	673.03
629.12	670.24
629.46	667.62
629.81	664.59
630.15	661.74
630.50	658.68
630.84	655.64
631.19	652.66
631.53	649.77
631.88	646.72
632.22	643.58
632.57	640.90
632.91	637.86
633.26	634.87
633.60	631.91
633.95	629.01
634.29	626.20
634.64	623.68
634.98	620.58
635.32	617.80
635.67	615.26
636.01	612.41
636.36	609.83
636.70	607.10
637.05	604.69
637.39	602.26
637.73	599.51
638.08	597.23
638.42	594.88
638.77	592.48
639.11	590.19
639.45	587.68
639.80	585.23
640.14	582.83
640.49	580.40
640.83	577.98
641.17	575.57
641.52	573.00
641.86	570.28
642.20	568.19
642.55	565.54
642.89	562.80
643.23	560.29
643.58	557.94
643.92	555.50
644.26	553.21
644.61	550.71
644.95	548.53
645.29	545.89
645.64	543.31
645.98	540.83
646.32	538.62
646.66	536.30
647.01	533.50
647.35	531.20
647.69	528.92
648.04	526.71
648.38	524.30
648.72	521.75
649.06	519.40
649.41	516.87
649.75	514.51
650.09	512.01
650.43	509.63
650.78	506.94
651.12	504.43
651.46	502.03
651.80	499.68
652.14	497.36
652.49	495.44
652.83	493.40
653.17	491.00
653.51	488.48
653.85	486.18
654.20	484.14
654.54	481.66
654.88	479.23
655.22	476.73
655.56	474.49
655.90	472.40
656.25	470.38
656.59	468.31
656.93	466.19
657.27	464.20
657.61	462.06
657.95	460.25
658.29	458.28
658.64	456.20
658.98	454.03
659.32	451.84
659.66	449.54
660.00	447.30
660.34	445.30
660.68	443.14
661.02	441.15
661.36	439.10
661.70	437.02
662.05	435.35
662.39	433.69
662.73	431.80
663.07	430.04
663.41	428.26
663.75	426.34
664.09	424.55
664.43	422.68
664.77	420.85
665.11	419.14
665.45	417.44
665.79	415.80
666.13	414.20
666.47	412.51
666.81	410.83
667.15	408.99
667.49	407.46
667.83	405.89
668.17	404.20
668.51	402.51
668.85	401.17
669.19	399.65
669.53	398.00
669.87	396.49
670.21	394.90
670.55	393.22
670.89	391.88
671.23	390.71
671.57	389.22
671.91	387.94
672.25	386.39
672.58	384.97
672.92	383.37
673.26	381.88
673.60	380.52
673.94	379.27
674.28	378.12
674.62	376.77
674.96	375.57
675.30	374.31
675.64	373.25
675.97	371.94
676.31	370.62
676.65	369.31
676.99	368.05
677.33	366.74
677.67	365.61
678.01	364.22
678.34	362.77
678.68	361.56
679.02	360.31
679.36	358.98
679.70	357.81
680.04	356.66
680.37	355.50
680.71	354.12
681.05	352.78
681.39	351.71
681.73	350.50
682.06	349.38
682.40	348.30
682.74	347.05
683.08	345.90
683.42	344.64
683.75	343.63
684.09	342.58
684.43	341.50
684.77	340.21
685.10	339.13
685.44	337.90
685.78	336.81
686.12	335.79
686.45	334.73
686.79	333.60
687.13	332.47
687.46	331.37
687.80	330.62
688.14	329.59
688.48	328.30
688.81	327.22
689.15	326.13
689.49	325.07
689.82	324.15
690.16	323.11
690.50	322.19
690.83	321.12
691.17	319.98
691.51	318.93
691.84	318.10
692.18	317.13
692.52	316.26
692.85	315.26
693.19	314.33
693.52	313.45
693.86	312.47
694.20	311.64
694.53	310.80
694.87	309.75
695.21	308.75
695.54	307.99
695.88	307.10
696.21	306.25
696.55	305.31
696.88	304.38
697.22	303.58
697.56	302.80
697.89	301.96
698.23	301.22
698.56	300.49
698.90	299.72
699.23	298.88
699.57	298.10
699.90	297.39
700.24	296.67
700.58	295.87
700.91	295.25
701.25	294.70
701.58	294.12
701.92	293.52
702.25	292.98
702.59	292.35
702.92	291.74
703.26	291.12
703.59	290.57
703.93	290.10
704.26	289.58
704.60	288.82
704.93	288.41
705.26	287.80
705.60	287.25
705.93	286.62
706.27	286.18
706.60	285.78
706.94	285.30
707.27	284.59
707.61	284.09
707.94	283.47
708.27	282.73
708.61	282.11
708.94	281.56
709.28	281.09
709.61	280.51
709.94	280.02
710.28	279.58
710.61	279.10
710.95	278.47
711.28	278.00
711.61	277.53
711.95	276.90
712.28	276.34
712.61	275.79
712.95	275.34
713.28	274.92
713.61	274.38
713.95	273.83
714.28	273.42
714.61	272.95
714.95	272.50
715.28	272.07
715.61	271.56
715.95	271.15
716.28	270.59
716.61	270.21
716.95	269.76
717.28	269.23
717.61	268.82
717.94	268.34
718.28	267.79
718.61	267.31
718.94	266.86
719.27	266.51
719.61	266.15
719.94	265.75
720.27	265.18
720.60	264.65
720.94	264.34
721.27	263.90
721.60	263.59
721.93	263.27
722.27	262.90
722.60	262.65
722.93	262.27
723.26	262.09
723.59	261.64
723.93	261.21
724.26	260.87
724.59	260.47
724.92	260.16
725.25	259.87
725.59	259.58
725.92	259.38
726.25	258.91
726.58	258.56
726.91	258.31
727.24	258.12
727.57	257.91
727.91	257.51
728.24	257.16
728.57	256.85
728.90	256.46
729.23	256.06
729.56	255.62
729.89	255.28
730.22	254.76
730.55	254.47
730.89	254.11
731.22	253.80
731.55	253.48
731.88	253.07
732.21	252.79
732.54	252.45
732.87	252.07
733.20	251.80
733.53	251.60
733.86	251.25
734.19	250.87
734.52	250.62
734.85	250.49
735.18	250.21
735.51	250.07
735.84	249.92
736.17	249.79
736.50	249.54
736.83	249.44
737.16	249.28
737.49	249.09
737.82	248.93
738.15	248.98
738.48	248.79
738.81	248.69
739.14	248.37
739.47	248.17
739.80	248.14
740.13	247.99
740.46	247.76
740.79	247.62
741.12	247.51
741.45	247.21
741.78	246.86
742.11	246.81
742.44	246.51
742.77	246.35
743.10	246.10
743.43	246.07
743.75	245.71
744.08	245.85
744.41	245.73
744.74	245.59
745.07	245.15
745.40	245.01
745.73	244.90
746.06	244.79
746.39	244.70
746.71	244.40
747.04	244.38
747.37	244.28
747.70	244.17
748.03	244.05
748.36	244.13
748.68	244.08
749.01	243.93
749.34	243.91
749.67	243.76
750.00	243.67
750.33	243.57
750.65	243.53
750.98	243.20
751.31	243.00
751.64	242.81
751.97	242.86
752.29	242.78
752.62	242.65
752.95	242.46
753.28	242.33
753.60	242.22
753.93	242.01
754.26	241.82
754.59	241.66
754.91	241.54
755.24	241.35
755.57	241.26
755.90	241.17
756.22	240.98
756.55	240.77
756.88	240.70
757.20	240.50
757.53	240.27
757.86	240.12
758.19	240.18
758.51	240.17
758.84	239.98
759.17	239.75
759.49	239.61
759.82	239.77
760.15	239.69
760.47	239.58
760.80	239.60
761.13	239.60
761.45	239.48
761.78	239.32
762.11	239.18
762.43	239.05
762.76	238.89
763.08	238.80
763.41	238.90
763.74	238.70
764.06	238.57
764.39	238.59
764.71	238.37
765.04	238.18
765.37	237.99
765.69	237.89
766.02	237.87
766.34	237.70
766.67	237.50
767.00	237.41
767.32	237.40
767.65	237.40
767.97	237.25
768.30	237.20
768.62	237.18
768.95	237.08
769.27	236.92
769.60	236.77
769.92	236.53
770.25	236.30
770.57	236.20
770.90	236.08
771.22	235.92
771.55	235.97
771.87	235.80
772.20	235.64
772.52	235.68
772.85	235.74
773.17	235.60
773.50	235.46
773.82	235.35
774.15	235.17
774.47	234.86
774.80	234.64
775.12	234.45
775.45	234.30
775.77	234.23
776.09	234.15
776.42	234.09
776.74	234.11
777.07	234.00
777.39	234.00
777.72	233.84
778.04	233.63
778.36	233.45
778.69	233.37
779.01	233.32
779.33	233.12
779.66	232.75
779.98	232.67
780.31	232.55
780.63	232.53
780.95	232.54
781.28	232.50
781.60	232.41
781.92	232.33
782.25	232.31
782.57	232.28
782.89	232.24
783.22	232.08
783.54	231.92
783.86	231.79
784.19	231.69
784.51	231.68
784.83	231.71
785.16	231.66
785.48	231.71
785.80	231.71
786.12	231.69
786.45	231.76
786.77	231.76
787.09	231.69
787.42	231.58
787.74	231.46
788.06	231.43
788.38	231.49
788.71	231.48
789.03	231.39
789.35	231.30
789.67	231.23
789.99	231.26
790.32	231.34
790.64	231.40
790.96	231.50
791.28	231.49
791.61	231.47
791.93	231.52
792.25	231.48
792.57	231.65
792.89	231.54
793.21	231.54
793.54	231.54
793.86	231.55
794.18	231.57
