SpectraSuite Data File
++++++++++++++++++++++++++++++++++++
Date: Fri Feb 01 14:40:08 EST 2013
User: group
Dark Spectrum Present: No
Reference Spectrum Present: No
Number of Sampled Component Spectra: 1
Spectrometers: USB2E7196
Integration Time (usec): 70000 (USB2E7196)
Spectra Averaged: 10 (USB2E7196)
Boxcar Smoothing: 10 (USB2E7196)
Correct for Electrical Dark: No (USB2E7196)
Strobe/Lamp Enabled: No (USB2E7196)
Correct for Detector Non-linearity: No (USB2E7196)
Correct for Stray Light: No (USB2E7196)
Number of Pixels in Processed Spectrum: 2048
>>>>>Begin Processed Spectral Data<<<<<
339.09	0.00
339.48	213.30
339.86	217.00
340.24	220.00
340.63	220.00
341.01	224.80
341.39	223.80
341.78	223.60
342.16	226.30
342.54	225.30
342.93	214.60
343.31	225.46
343.69	226.13
344.07	226.67
344.46	227.12
344.84	227.47
345.22	227.58
345.60	227.79
345.99	228.06
346.37	228.18
346.75	228.33
347.13	228.42
347.52	228.40
347.90	228.59
348.28	228.57
348.66	228.56
349.05	228.50
349.43	228.47
349.81	228.44
350.19	228.44
350.57	228.37
350.96	228.44
351.34	228.49
351.72	228.59
352.10	228.61
352.48	228.64
352.87	228.68
353.25	228.73
353.63	228.86
354.01	228.80
354.39	228.80
354.77	228.83
355.15	229.02
355.54	229.09
355.92	229.10
356.30	229.07
356.68	229.21
357.06	229.22
357.44	229.21
357.82	229.31
358.20	229.45
358.58	229.57
358.97	229.54
359.35	229.51
359.73	229.60
360.11	229.57
360.49	229.53
360.87	229.55
361.25	229.67
361.63	229.61
362.01	229.75
362.39	229.81
362.77	229.89
363.15	229.89
363.53	229.84
363.91	229.82
364.29	229.88
364.67	229.75
365.05	229.84
365.43	229.97
365.81	229.94
366.19	229.95
366.57	230.00
366.95	230.04
367.33	230.10
367.71	229.91
368.09	229.99
368.47	230.09
368.85	230.10
369.23	230.13
369.61	230.03
369.99	229.93
370.37	229.81
370.75	229.84
371.13	229.70
371.51	229.80
371.89	229.75
372.27	229.75
372.65	229.84
373.03	229.74
373.41	229.64
373.78	229.61
374.16	229.50
374.54	229.30
374.92	229.28
375.30	229.27
375.68	229.31
376.06	229.30
376.44	229.05
376.82	228.96
377.19	228.86
377.57	228.92
377.95	228.87
378.33	228.84
378.71	228.66
379.09	228.57
379.47	228.36
379.84	228.25
380.22	228.08
380.60	227.94
380.98	227.98
381.36	227.83
381.73	227.68
382.11	227.68
382.49	227.68
382.87	227.52
383.25	227.34
383.62	227.48
384.00	227.35
384.38	227.36
384.76	227.48
385.13	227.40
385.51	227.26
385.89	227.20
386.27	227.19
386.64	227.12
387.02	227.14
387.40	227.15
387.78	227.12
388.15	227.18
388.53	227.03
388.91	226.93
389.29	226.96
389.66	226.94
390.04	226.76
390.42	226.72
390.79	226.69
391.17	226.74
391.55	226.47
391.92	226.45
392.30	226.46
392.68	226.31
393.05	226.40
393.43	226.48
393.81	226.49
394.18	226.41
394.56	226.40
394.94	226.44
395.31	226.38
395.69	226.46
396.06	226.38
396.44	226.49
396.82	226.49
397.19	226.66
397.57	226.80
397.95	227.02
398.32	227.06
398.70	227.25
399.07	227.40
399.45	227.49
399.82	227.50
400.20	227.62
400.58	227.73
400.95	227.74
401.33	227.82
401.70	228.06
402.08	228.23
402.45	228.39
402.83	228.53
403.20	228.74
403.58	228.88
403.95	229.03
404.33	229.14
404.71	229.29
405.08	229.52
405.46	229.70
405.83	229.76
406.21	230.02
406.58	230.07
406.96	230.18
407.33	230.37
407.70	230.64
408.08	230.90
408.45	231.13
408.83	231.38
409.20	231.57
409.58	231.67
409.95	231.96
410.33	232.26
410.70	232.49
411.08	232.74
411.45	232.99
411.82	233.30
412.20	233.64
412.57	234.12
412.95	234.23
413.32	234.62
413.69	235.06
414.07	235.32
414.44	235.79
414.82	236.25
415.19	236.77
415.56	237.29
415.94	237.72
416.31	238.39
416.68	238.94
417.06	239.65
417.43	240.27
417.81	240.95
418.18	241.72
418.55	242.50
418.93	243.35
419.30	244.23
419.67	245.25
420.04	246.20
420.42	247.10
420.79	248.38
421.16	249.35
421.54	250.53
421.91	251.89
422.28	253.18
422.66	254.43
423.03	255.81
423.40	257.06
423.77	258.47
424.15	259.77
424.52	261.20
424.89	262.80
425.26	264.36
425.64	265.86
426.01	267.30
426.38	268.94
426.75	270.60
427.13	272.23
427.50	273.90
427.87	275.69
428.24	277.50
428.61	279.10
428.99	281.13
429.36	283.14
429.73	285.01
430.10	287.00
430.47	288.96
430.85	290.94
431.22	293.19
431.59	295.74
431.96	297.98
432.33	300.43
432.70	302.73
433.08	305.54
433.45	308.16
433.82	310.83
434.19	313.79
434.56	316.61
434.93	319.32
435.30	321.98
435.68	324.90
436.05	327.86
436.42	330.66
436.79	333.30
437.16	336.17
437.53	339.01
437.90	341.88
438.27	344.93
438.64	347.86
439.01	350.60
439.38	352.67
439.75	354.93
440.13	357.44
440.50	359.88
440.87	361.79
441.24	363.77
441.61	365.95
441.98	367.40
442.35	369.22
442.72	371.12
443.09	373.17
443.46	374.28
443.83	374.86
444.20	375.46
444.57	376.16
444.94	376.34
445.31	376.88
445.68	377.55
446.05	377.61
446.42	377.33
446.79	376.97
447.16	376.70
447.53	376.50
447.90	375.56
448.27	374.52
448.64	373.06
449.01	372.00
449.37	370.10
449.74	368.35
450.11	366.19
450.48	363.92
450.85	361.45
451.22	359.38
451.59	357.41
451.96	355.46
452.33	352.91
452.70	350.60
453.07	347.80
453.43	344.70
453.80	341.92
454.17	339.23
454.54	336.61
454.91	333.87
455.28	331.14
455.65	328.59
456.02	326.20
456.38	323.96
456.75	321.25
457.12	319.09
457.49	316.82
457.86	314.62
458.23	312.73
458.59	310.54
458.96	308.35
459.33	306.35
459.70	304.57
460.07	303.08
460.43	301.30
460.80	299.61
461.17	298.09
461.54	296.47
461.91	294.94
462.27	293.44
462.64	292.11
463.01	290.76
463.38	289.50
463.74	287.94
464.11	286.69
464.48	285.59
464.85	284.29
465.21	283.38
465.58	282.40
465.95	281.11
466.32	280.16
466.68	279.24
467.05	278.37
467.42	277.48
467.78	276.39
468.15	275.41
468.52	274.75
468.88	273.87
469.25	273.01
469.62	272.32
469.98	271.55
470.35	270.74
470.72	269.88
471.08	269.10
471.45	268.46
471.82	267.94
472.18	267.24
472.55	266.74
472.92	266.02
473.28	265.41
473.65	264.90
474.02	264.20
474.38	263.62
474.75	263.06
475.11	262.40
475.48	262.05
475.85	261.67
476.21	261.27
476.58	260.83
476.94	260.54
477.31	260.20
477.67	259.84
478.04	259.62
478.41	259.30
478.77	259.17
479.14	258.74
479.50	258.42
479.87	258.27
480.23	258.04
480.60	257.91
480.96	257.76
481.33	257.59
481.69	257.45
482.06	257.42
482.42	257.30
482.79	257.17
483.15	257.11
483.52	257.15
483.88	257.01
484.25	256.95
484.61	256.79
484.98	256.72
485.34	256.82
485.71	256.76
486.07	256.90
486.44	256.61
486.80	256.80
487.17	256.84
487.53	256.98
487.90	257.06
488.26	257.26
488.62	257.23
488.99	257.38
489.35	257.53
489.72	257.77
490.08	258.04
490.44	258.33
490.81	258.57
491.17	258.79
491.54	259.07
491.90	259.33
492.26	259.72
492.63	260.19
492.99	260.63
493.36	261.15
493.72	261.67
494.08	262.35
494.45	262.89
494.81	263.61
495.17	264.16
495.54	264.92
495.90	265.51
496.26	266.34
496.63	267.09
496.99	268.03
497.35	268.81
497.72	269.78
498.08	270.82
498.44	271.85
498.80	272.92
499.17	274.07
499.53	275.34
499.89	276.70
500.26	277.86
500.62	279.09
500.98	280.60
501.34	282.10
501.71	283.64
502.07	285.25
502.43	286.79
502.79	288.50
503.16	290.29
503.52	292.27
503.88	294.21
504.24	296.33
504.60	298.39
504.97	300.73
505.33	302.92
505.69	305.35
506.05	307.95
506.41	310.60
506.78	313.35
507.14	316.16
507.50	319.06
507.86	322.26
508.22	325.61
508.59	328.82
508.95	332.20
509.31	335.77
509.67	339.43
510.03	343.25
510.39	347.23
510.75	351.18
511.12	355.26
511.48	359.60
511.84	363.89
512.20	368.39
512.56	373.04
512.92	378.09
513.28	382.98
513.64	388.08
514.00	393.17
514.37	398.47
514.73	403.83
515.09	409.18
515.45	414.70
515.81	420.24
516.17	426.21
516.53	432.26
516.89	438.46
517.25	444.70
517.61	451.10
517.97	457.42
518.33	463.94
518.69	470.66
519.05	477.62
519.41	484.72
519.77	491.97
520.13	499.23
520.49	506.33
520.85	513.87
521.21	521.28
521.57	529.12
521.93	536.73
522.29	544.76
522.65	552.71
523.01	560.71
523.37	569.05
523.73	577.08
524.09	585.31
524.45	593.88
524.81	602.68
525.17	611.45
525.53	620.44
525.89	629.72
526.25	638.87
526.61	647.80
526.97	657.20
527.33	666.62
527.68	676.38
528.04	686.06
528.40	695.46
528.76	705.35
529.12	715.19
529.48	725.32
529.84	734.90
530.20	745.24
530.56	755.75
530.91	766.01
531.27	776.81
531.63	787.59
531.99	797.76
532.35	807.95
532.71	818.19
533.07	828.71
533.42	839.09
533.78	849.49
534.14	860.48
534.50	870.72
534.86	881.22
535.21	891.46
535.57	902.33
535.93	913.48
536.29	924.10
536.65	934.64
537.00	945.04
537.36	956.20
537.72	966.68
538.08	976.90
538.44	987.36
538.79	997.52
539.15	1007.76
539.51	1018.45
539.87	1029.22
540.22	1039.77
540.58	1050.25
540.94	1060.52
541.29	1071.11
541.65	1081.23
542.01	1091.88
542.37	1102.33
542.72	1112.13
543.08	1121.85
543.44	1131.60
543.79	1141.21
544.15	1150.95
544.51	1161.32
544.87	1171.08
545.22	1180.74
545.58	1190.37
545.94	1199.62
546.29	1208.97
546.65	1217.96
547.01	1226.80
547.36	1235.76
547.72	1244.70
548.07	1253.51
548.43	1261.98
548.79	1270.14
549.14	1278.26
549.50	1286.50
549.86	1294.32
550.21	1302.69
550.57	1310.93
550.92	1319.07
551.28	1326.97
551.64	1334.78
551.99	1341.93
552.35	1349.29
552.70	1356.93
553.06	1364.76
553.41	1372.32
553.77	1380.21
554.13	1387.48
554.48	1394.75
554.84	1401.78
555.19	1408.52
555.55	1415.58
555.90	1422.30
556.26	1429.04
556.61	1435.73
556.97	1441.70
557.32	1448.23
557.68	1454.28
558.03	1460.51
558.39	1466.27
558.74	1472.79
559.10	1479.11
559.45	1485.31
559.81	1491.47
560.16	1496.74
560.52	1502.22
560.87	1507.98
561.23	1512.31
561.58	1517.85
561.94	1522.85
562.29	1527.43
562.64	1532.11
563.00	1536.60
563.35	1542.01
563.71	1547.30
564.06	1552.20
564.42	1557.16
564.77	1561.44
565.12	1566.29
565.48	1570.84
565.83	1574.88
566.19	1578.68
566.54	1582.20
566.89	1585.96
567.25	1589.07
567.60	1593.34
567.96	1596.87
568.31	1599.81
568.66	1603.61
569.02	1606.74
569.37	1609.73
569.72	1612.69
570.08	1615.58
570.43	1618.19
570.78	1620.28
571.14	1621.62
571.49	1623.35
571.84	1625.87
572.20	1627.60
572.55	1628.87
572.90	1629.80
573.26	1631.58
573.61	1632.87
573.96	1633.65
574.31	1633.78
574.67	1634.43
575.02	1634.16
575.37	1634.30
575.72	1634.31
576.08	1634.36
576.43	1633.95
576.78	1633.86
577.13	1634.02
577.49	1633.88
577.84	1633.35
578.19	1633.00
578.54	1632.50
578.90	1631.67
579.25	1629.80
579.60	1628.66
579.95	1627.42
580.30	1625.97
580.66	1623.97
581.01	1621.78
581.36	1620.72
581.71	1619.47
582.06	1617.75
582.42	1615.95
582.77	1613.64
583.12	1611.70
583.47	1609.76
583.82	1608.27
584.17	1605.88
584.53	1603.65
584.88	1601.60
585.23	1599.34
585.58	1597.02
585.93	1594.81
586.28	1592.52
586.63	1590.60
586.98	1588.65
587.34	1586.56
587.69	1584.34
588.04	1581.99
588.39	1580.21
588.74	1576.75
589.09	1574.01
589.44	1570.85
589.79	1568.60
590.14	1566.37
590.49	1563.35
590.84	1559.95
591.19	1556.66
591.54	1553.11
591.89	1548.91
592.25	1545.53
592.60	1541.55
592.95	1537.51
593.30	1533.64
593.65	1529.83
594.00	1525.99
594.35	1522.53
594.70	1518.04
595.05	1514.17
595.40	1510.06
595.75	1505.68
596.10	1502.57
596.45	1498.74
596.80	1495.76
597.15	1491.78
597.50	1487.85
597.85	1484.49
598.19	1481.22
598.54	1477.58
598.89	1474.37
599.24	1471.34
599.59	1467.68
599.94	1464.55
600.29	1460.79
600.64	1457.08
600.99	1452.91
601.34	1448.71
601.69	1444.11
602.04	1440.40
602.39	1436.36
602.74	1432.91
603.08	1429.63
603.43	1425.87
603.78	1421.81
604.13	1417.50
604.48	1413.27
604.83	1408.94
605.18	1404.46
605.53	1399.40
605.87	1394.21
606.22	1389.73
606.57	1385.08
606.92	1379.97
607.27	1375.27
607.62	1370.91
607.96	1366.90
608.31	1362.51
608.66	1357.52
609.01	1352.51
609.36	1347.22
609.70	1341.31
610.05	1335.48
610.40	1329.50
610.75	1323.59
611.10	1317.88
611.44	1311.88
611.79	1306.50
612.14	1300.78
612.49	1294.52
612.83	1289.00
613.18	1283.53
613.53	1277.99
613.88	1272.00
614.22	1266.55
614.57	1260.28
614.92	1254.32
615.27	1248.15
615.61	1242.29
615.96	1236.80
616.31	1231.61
616.65	1227.12
617.00	1222.45
617.35	1217.21
617.70	1211.60
618.04	1205.61
618.39	1200.27
618.74	1195.11
619.08	1189.51
619.43	1184.12
619.78	1179.19
620.12	1173.88
620.47	1168.39
620.82	1162.39
621.16	1157.30
621.51	1151.96
621.85	1146.90
622.20	1141.42
622.55	1135.95
622.89	1130.67
623.24	1125.62
623.59	1120.03
623.93	1114.29
624.28	1109.00
624.62	1103.41
624.97	1098.21
625.32	1093.47
625.66	1088.19
626.01	1082.65
626.35	1077.02
626.70	1071.49
627.04	1066.32
627.39	1060.72
627.73	1055.51
628.08	1050.70
628.43	1045.05
628.77	1039.59
629.12	1034.12
629.46	1028.61
629.81	1023.17
630.15	1017.52
630.50	1011.81
630.84	1006.21
631.19	1000.07
631.53	994.27
631.88	988.90
632.22	983.16
632.57	977.64
632.91	972.16
633.26	966.74
633.60	961.40
633.95	956.09
634.29	950.87
634.64	945.81
634.98	940.40
635.32	935.20
635.67	930.50
636.01	925.33
636.36	920.27
636.70	915.58
637.05	910.76
637.39	906.24
637.73	901.41
638.08	897.12
638.42	892.86
638.77	888.31
639.11	883.47
639.45	879.00
639.80	874.25
640.14	869.82
640.49	865.16
640.83	860.27
641.17	855.47
641.52	850.73
641.86	845.84
642.20	841.29
642.55	836.53
642.89	831.71
643.23	827.29
643.58	823.04
643.92	818.50
644.26	813.73
644.61	809.27
644.95	804.62
645.29	799.19
645.64	794.24
645.98	789.47
646.32	785.07
646.66	780.49
647.01	775.76
647.35	771.14
647.69	766.74
648.04	762.67
648.38	758.35
648.72	753.49
649.06	748.94
649.41	744.58
649.75	739.83
650.09	735.06
650.43	730.18
650.78	725.20
651.12	720.28
651.46	715.92
651.80	711.31
652.14	707.13
652.49	703.10
652.83	698.97
653.17	694.37
653.51	689.94
653.85	685.69
654.20	681.33
654.54	676.72
654.88	672.21
655.22	667.51
655.56	662.96
655.90	658.98
656.25	654.92
656.59	650.70
656.93	646.56
657.27	642.60
657.61	638.58
657.95	634.64
658.29	630.81
658.64	626.63
658.98	622.48
659.32	618.17
659.66	614.16
660.00	610.18
660.34	606.31
660.68	602.41
661.02	598.35
661.36	594.71
661.70	591.13
662.05	587.67
662.39	584.35
662.73	580.89
663.07	577.30
663.41	573.99
663.75	570.48
664.09	567.07
664.43	563.70
664.77	560.24
665.11	556.97
665.45	553.77
665.79	550.61
666.13	547.39
666.47	544.20
666.81	541.04
667.15	537.65
667.49	534.64
667.83	531.65
668.17	528.59
668.51	525.42
668.85	522.31
669.19	519.31
669.53	516.28
669.87	513.16
670.21	510.32
670.55	507.25
670.89	504.63
671.23	502.10
671.57	499.48
671.91	497.02
672.25	494.30
672.58	491.52
672.92	488.83
673.26	486.29
673.60	483.90
673.94	481.30
674.28	479.07
674.62	476.79
674.96	474.32
675.30	471.97
675.64	469.63
675.97	467.39
676.31	464.97
676.65	462.59
676.99	460.63
677.33	458.22
677.67	455.97
678.01	453.31
678.34	450.90
678.68	448.57
679.02	446.17
679.36	444.09
679.70	441.96
680.04	439.83
680.37	437.52
680.71	435.25
681.05	433.26
681.39	431.10
681.73	428.89
682.06	426.99
682.40	424.99
682.74	423.06
683.08	421.00
683.42	419.04
683.75	417.00
684.09	414.93
684.43	412.91
684.77	410.96
685.10	409.10
685.44	407.23
685.78	405.36
686.12	403.53
686.45	401.56
686.79	399.77
687.13	397.95
687.46	396.21
687.80	394.50
688.14	392.59
688.48	390.92
688.81	389.21
689.15	387.41
689.49	385.63
689.82	383.75
690.16	381.90
690.50	380.22
690.83	378.66
691.17	376.89
691.51	375.25
691.84	373.80
692.18	372.33
692.52	370.66
692.85	368.90
693.19	367.41
693.52	365.80
693.86	364.10
694.20	362.41
694.53	360.91
694.87	359.28
695.21	357.71
695.54	356.05
695.88	354.30
696.21	352.63
696.55	351.20
696.88	349.86
697.22	348.63
697.56	347.25
697.89	345.81
698.23	344.46
698.56	343.24
698.90	341.73
699.23	340.25
699.57	338.86
699.90	337.55
700.24	336.19
700.58	334.90
700.91	333.60
701.25	332.55
701.58	331.34
701.92	330.23
702.25	329.13
702.59	328.11
702.92	327.13
703.26	326.12
703.59	324.98
703.93	324.00
704.26	322.77
704.60	321.55
704.93	320.37
705.26	319.35
705.60	318.32
705.93	317.33
706.27	316.42
706.60	315.61
706.94	314.65
707.27	313.53
707.61	312.61
707.94	311.68
708.27	310.56
708.61	309.55
708.94	308.67
709.28	307.70
709.61	306.74
709.94	306.00
710.28	305.08
710.61	304.15
710.95	303.10
711.28	302.50
711.61	301.65
711.95	300.92
712.28	300.08
712.61	299.11
712.95	298.38
713.28	297.65
713.61	296.79
713.95	296.02
714.28	295.41
714.61	294.55
714.95	293.86
715.28	293.17
715.61	292.46
715.95	291.66
716.28	290.97
716.61	290.23
716.95	289.49
717.28	288.82
717.61	288.21
717.94	287.51
718.28	286.58
718.61	285.89
718.94	285.16
719.27	284.42
719.61	283.80
719.94	283.09
720.27	282.22
720.60	281.52
720.94	280.92
721.27	280.30
721.60	279.87
721.93	279.32
722.27	278.72
722.60	278.16
722.93	277.56
723.26	277.01
723.59	276.33
723.93	275.75
724.26	275.24
724.59	274.72
724.92	274.22
725.25	273.78
725.59	273.36
725.92	272.93
726.25	272.54
726.58	272.16
726.91	271.63
727.24	271.32
727.57	270.98
727.91	270.49
728.24	269.94
728.57	269.22
728.90	268.77
729.23	268.20
729.56	267.89
729.89	267.40
730.22	266.91
730.55	266.56
730.89	266.21
731.22	265.82
731.55	265.28
731.88	264.83
732.21	264.49
732.54	263.98
732.87	263.65
733.20	263.17
733.53	262.78
733.86	262.51
734.19	262.10
734.52	261.68
734.85	261.42
735.18	260.99
735.51	260.79
735.84	260.32
736.17	260.14
736.50	259.66
736.83	259.59
737.16	259.25
737.49	258.90
737.82	258.50
738.15	258.16
738.48	257.96
738.81	257.69
739.14	257.27
739.47	256.99
739.80	256.54
740.13	256.31
740.46	256.00
740.79	255.64
741.12	255.30
741.45	254.98
741.78	254.56
742.11	254.39
742.44	254.08
742.77	253.97
743.10	253.55
743.43	253.30
743.75	252.75
744.08	252.82
744.41	252.61
744.74	252.23
745.07	251.82
745.40	251.52
745.73	251.39
746.06	251.20
746.39	250.96
746.71	250.88
747.04	250.76
747.37	250.50
747.70	250.21
748.03	249.99
748.36	249.79
748.68	249.67
749.01	249.41
749.34	249.30
749.67	249.04
750.00	248.92
750.33	248.79
750.65	248.62
750.98	248.19
751.31	247.95
751.64	247.88
751.97	247.92
752.29	247.71
752.62	247.43
752.95	247.22
753.28	246.99
753.60	246.72
753.93	246.49
754.26	246.30
754.59	246.09
754.91	246.04
755.24	245.87
755.57	245.62
755.90	245.52
756.22	245.25
756.55	245.14
756.88	245.04
757.20	244.76
757.53	244.70
757.86	244.54
758.19	244.37
758.51	244.15
758.84	243.81
759.17	243.66
759.49	243.54
759.82	243.54
760.15	243.50
760.47	243.32
760.80	243.02
761.13	242.82
761.45	242.69
761.78	242.44
762.11	242.22
762.43	242.14
762.76	241.94
763.08	241.83
763.41	241.56
763.74	241.28
764.06	241.17
764.39	240.86
764.71	240.68
765.04	240.50
765.37	240.28
765.69	240.15
766.02	239.90
766.34	239.72
766.67	239.36
767.00	239.20
767.32	239.11
767.65	239.15
767.97	239.11
768.30	238.93
768.62	238.75
768.95	238.57
769.27	238.35
769.60	238.26
769.92	238.08
770.25	237.90
770.57	237.77
770.90	237.55
771.22	237.40
771.55	237.22
771.87	237.16
772.20	237.09
772.52	237.20
772.85	237.44
773.17	237.28
773.50	237.11
773.82	236.94
774.15	236.76
774.47	236.48
774.80	236.27
775.12	236.28
775.45	236.20
775.77	236.11
776.09	235.96
776.42	235.88
776.74	235.82
777.07	235.77
777.39	235.81
777.72	235.78
778.04	235.79
778.36	235.77
778.69	235.67
779.01	235.63
779.33	235.26
779.66	234.94
779.98	234.89
780.31	234.91
780.63	234.86
780.95	234.86
781.28	234.89
781.60	234.89
781.92	234.81
782.25	234.77
782.57	234.76
782.89	234.64
783.22	234.52
783.54	234.47
783.86	234.43
784.19	234.28
784.51	234.21
784.83	234.11
785.16	234.02
785.48	234.02
785.80	233.96
786.12	233.93
786.45	233.91
786.77	233.86
787.09	233.90
787.42	233.89
787.74	233.80
788.06	233.69
788.38	233.60
788.71	233.53
