SpectraSuite Data File
++++++++++++++++++++++++++++++++++++
Date: Fri Feb 01 14:41:03 EST 2013
User: group
Dark Spectrum Present: No
Reference Spectrum Present: No
Number of Sampled Component Spectra: 1
Spectrometers: USB2E7196
Integration Time (usec): 70000 (USB2E7196)
Spectra Averaged: 10 (USB2E7196)
Boxcar Smoothing: 10 (USB2E7196)
Correct for Electrical Dark: No (USB2E7196)
Strobe/Lamp Enabled: No (USB2E7196)
Correct for Detector Non-linearity: No (USB2E7196)
Correct for Stray Light: No (USB2E7196)
Number of Pixels in Processed Spectrum: 2048
>>>>>Begin Processed Spectral Data<<<<<
339.09	0.00
339.48	216.10
339.86	216.60
340.24	220.10
340.63	220.60
341.01	224.50
341.39	224.60
341.78	224.00
342.16	226.00
342.54	226.30
342.93	214.73
343.31	225.61
343.69	226.21
344.07	226.72
344.46	227.12
344.84	227.55
345.22	227.58
345.60	227.80
345.99	228.03
346.37	228.14
346.75	228.16
347.13	228.26
347.52	228.30
347.90	228.34
348.28	228.36
348.66	228.38
349.05	228.39
349.43	228.47
349.81	228.55
350.19	228.56
350.57	228.65
350.96	228.77
351.34	228.77
351.72	228.78
352.10	228.90
352.48	228.99
352.87	228.96
353.25	229.14
353.63	229.27
354.01	229.32
354.39	229.40
354.77	229.54
355.15	229.73
355.54	229.77
355.92	229.82
356.30	229.92
356.68	230.05
357.06	230.11
357.44	230.10
357.82	230.11
358.20	230.22
358.58	230.28
358.97	230.35
359.35	230.50
359.73	230.61
360.11	230.58
360.49	230.64
360.87	230.80
361.25	230.84
361.63	230.87
362.01	230.90
362.39	230.88
362.77	230.85
363.15	230.89
363.53	230.98
363.91	231.00
364.29	230.87
364.67	230.78
365.05	230.80
365.43	230.94
365.81	231.05
366.19	231.08
366.57	231.09
366.95	231.15
367.33	231.07
367.71	230.99
368.09	231.06
368.47	230.99
368.85	230.86
369.23	230.87
369.61	230.71
369.99	230.74
370.37	230.83
370.75	230.89
371.13	230.66
371.51	230.50
371.89	230.38
372.27	230.40
372.65	230.20
373.03	230.11
373.41	229.96
373.78	229.87
374.16	229.63
374.54	229.48
374.92	229.28
375.30	229.17
375.68	229.10
376.06	229.00
376.44	228.91
376.82	228.80
377.19	228.72
377.57	228.64
377.95	228.55
378.33	228.40
378.71	228.13
379.09	228.05
379.47	228.03
379.84	227.98
380.22	227.80
380.60	227.78
380.98	227.61
381.36	227.50
381.73	227.35
382.11	227.29
382.49	227.27
382.87	227.25
383.25	227.20
383.62	227.30
384.00	227.21
384.38	227.10
384.76	227.09
385.13	227.17
385.51	227.13
385.89	227.00
386.27	226.89
386.64	226.93
387.02	226.80
387.40	226.78
387.78	226.71
388.15	226.74
388.53	226.71
388.91	226.68
389.29	226.63
389.66	226.63
390.04	226.71
390.42	226.77
390.79	226.90
391.17	226.89
391.55	226.79
391.92	226.78
392.30	226.77
392.68	226.79
393.05	226.80
393.43	226.84
393.81	226.88
394.18	226.89
394.56	227.00
394.94	227.22
395.31	227.32
395.69	227.34
396.06	227.47
396.44	227.47
396.82	227.62
397.19	227.86
397.57	227.92
397.95	227.99
398.32	227.97
398.70	227.94
399.07	228.12
399.45	228.12
399.82	228.26
400.20	228.48
400.58	228.64
400.95	228.62
401.33	228.80
401.70	229.02
402.08	229.17
402.45	229.18
402.83	229.32
403.20	229.38
403.58	229.58
403.95	229.71
404.33	230.01
404.71	230.17
405.08	230.39
405.46	230.53
405.83	230.70
406.21	230.90
406.58	231.08
406.96	231.27
407.33	231.54
407.70	231.80
408.08	232.13
408.45	232.30
408.83	232.57
409.20	232.73
409.58	232.90
409.95	233.26
410.33	233.60
410.70	233.90
411.08	234.15
411.45	234.49
411.82	234.87
412.20	235.28
412.57	235.80
412.95	236.00
413.32	236.34
413.69	236.72
414.07	237.21
414.44	237.62
414.82	238.12
415.19	238.75
415.56	239.30
415.94	239.83
416.31	240.51
416.68	241.17
417.06	241.91
417.43	242.70
417.81	243.52
418.18	244.46
418.55	245.29
418.93	246.20
419.30	247.21
419.67	248.08
420.04	249.12
420.42	250.09
420.79	251.44
421.16	252.90
421.54	254.23
421.91	255.51
422.28	256.88
422.66	258.28
423.03	259.74
423.40	261.09
423.77	262.59
424.15	264.13
424.52	265.81
424.89	267.71
425.26	269.35
425.64	270.88
426.01	272.60
426.38	274.45
426.75	276.52
427.13	278.32
427.50	280.49
427.87	282.53
428.24	284.59
428.61	286.41
428.99	288.52
429.36	290.86
429.73	293.19
430.10	295.45
430.47	297.69
430.85	299.91
431.22	302.39
431.59	305.14
431.96	307.80
432.33	310.56
432.70	313.11
433.08	316.13
433.45	319.15
433.82	322.05
434.19	325.18
434.56	328.21
434.93	331.12
435.30	333.87
435.68	337.06
436.05	340.10
436.42	343.16
436.79	345.93
437.16	348.92
437.53	352.14
437.90	355.27
438.27	358.22
438.64	361.43
439.01	364.34
439.38	366.68
439.75	368.91
440.13	371.58
440.50	374.20
440.87	376.27
441.24	378.29
441.61	380.62
441.98	382.29
442.35	384.13
442.72	386.14
443.09	388.07
443.46	389.16
443.83	389.89
444.20	390.53
444.57	391.37
444.94	391.47
445.31	391.70
445.68	392.13
446.05	392.28
446.42	391.61
446.79	391.13
447.16	390.65
447.53	390.28
447.90	388.97
448.27	387.57
448.64	385.89
449.01	384.64
449.37	382.38
449.74	380.28
450.11	377.88
450.48	375.15
450.85	372.40
451.22	369.90
451.59	367.60
451.96	365.40
452.33	362.59
452.70	360.21
453.07	357.15
453.43	354.01
453.80	350.97
454.17	348.03
454.54	345.23
454.91	342.08
455.28	339.10
455.65	336.28
456.02	333.72
456.38	331.34
456.75	328.36
457.12	325.93
457.49	323.47
457.86	321.00
458.23	319.10
458.59	316.93
458.96	314.78
459.33	312.87
459.70	310.79
460.07	309.11
460.43	307.10
460.80	305.20
461.17	303.54
461.54	302.04
461.91	300.48
462.27	298.83
462.64	297.57
463.01	296.18
463.38	294.78
463.74	293.07
464.11	291.72
464.48	290.66
464.85	289.42
465.21	288.40
465.58	287.36
465.95	286.01
466.32	284.91
466.68	283.82
467.05	282.67
467.42	281.65
467.78	280.47
468.15	279.43
468.52	278.62
468.88	277.49
469.25	276.47
469.62	275.81
469.98	275.04
470.35	274.28
470.72	273.39
471.08	272.54
471.45	271.92
471.82	271.28
472.18	270.45
472.55	269.80
472.92	269.19
473.28	268.60
473.65	267.98
474.02	267.31
474.38	266.69
474.75	266.19
475.11	265.61
475.48	265.21
475.85	264.90
476.21	264.53
476.58	264.30
476.94	264.05
477.31	263.65
477.67	263.32
478.04	263.05
478.41	262.81
478.77	262.77
479.14	262.49
479.50	262.30
479.87	262.24
480.23	262.23
480.60	262.06
480.96	261.88
481.33	261.92
481.69	261.91
482.06	261.99
482.42	262.02
482.79	262.09
483.15	262.18
483.52	262.27
483.88	262.26
484.25	262.34
484.61	262.41
484.98	262.58
485.34	262.76
485.71	262.94
486.07	263.21
486.44	263.39
486.80	263.67
487.17	264.03
487.53	264.36
487.90	264.68
488.26	265.28
488.62	265.84
488.99	266.29
489.35	266.88
489.72	267.50
490.08	268.24
490.44	269.00
490.81	269.79
491.17	270.62
491.54	271.56
491.90	272.47
492.26	273.47
492.63	274.53
492.99	275.66
493.36	276.88
493.72	278.24
494.08	279.50
494.45	280.93
494.81	282.49
495.17	284.12
495.54	285.78
495.90	287.39
496.26	289.31
496.63	291.20
496.99	293.34
497.35	295.53
497.72	297.75
498.08	300.15
498.44	302.68
498.80	305.41
499.17	308.30
499.53	311.21
499.89	314.22
500.26	317.48
500.62	320.92
500.98	324.46
501.34	328.20
501.71	332.20
502.07	336.35
502.43	340.41
502.79	344.83
503.16	349.40
503.52	354.10
503.88	358.83
504.24	364.01
504.60	369.20
504.97	374.67
505.33	380.46
505.69	386.52
506.05	392.65
506.41	398.70
506.78	405.21
507.14	411.72
507.50	418.65
507.86	425.71
508.22	432.80
508.59	440.26
508.95	447.87
509.31	455.77
509.67	463.71
510.03	471.99
510.39	480.45
510.75	489.21
511.12	498.12
511.48	507.73
511.84	517.11
512.20	526.88
512.56	536.57
512.92	546.43
513.28	556.50
513.64	566.80
514.00	577.56
514.37	588.17
514.73	599.28
515.09	610.37
515.45	621.76
515.81	633.62
516.17	645.79
516.53	658.04
516.89	670.23
517.25	682.71
517.61	695.27
517.97	707.87
518.33	720.69
518.69	733.71
519.05	746.90
519.41	760.68
519.77	774.63
520.13	788.86
520.49	803.10
520.85	817.32
521.21	831.68
521.57	846.64
521.93	861.40
522.29	876.57
522.65	891.61
523.01	906.24
523.37	921.07
523.73	936.07
524.09	951.36
524.45	966.72
524.81	982.53
525.17	998.71
525.53	1014.93
525.89	1031.29
526.25	1048.05
526.61	1063.86
526.97	1080.24
527.33	1096.30
527.68	1112.70
528.04	1128.88
528.40	1145.31
528.76	1162.36
529.12	1178.68
529.48	1195.62
529.84	1211.95
530.20	1229.15
530.56	1246.89
530.91	1264.59
531.27	1281.96
531.63	1298.97
531.99	1316.47
532.35	1332.91
532.71	1349.11
533.07	1366.08
533.42	1382.59
533.78	1399.24
534.14	1416.11
534.50	1431.97
534.86	1448.78
535.21	1464.93
535.57	1481.91
535.93	1498.37
536.29	1514.51
536.65	1531.23
537.00	1546.90
537.36	1563.78
537.72	1579.57
538.08	1595.20
538.44	1610.25
538.79	1625.68
539.15	1640.79
539.51	1656.37
539.87	1672.42
540.22	1688.17
540.58	1703.83
540.94	1719.07
541.29	1733.65
541.65	1748.83
542.01	1764.57
542.37	1779.25
542.72	1793.48
543.08	1807.59
543.44	1821.96
543.79	1834.99
544.15	1848.38
544.51	1862.69
544.87	1875.79
545.22	1888.98
545.58	1902.09
545.94	1914.23
546.29	1926.69
546.65	1939.24
547.01	1950.62
547.36	1962.09
547.72	1973.25
548.07	1983.95
548.43	1995.01
548.79	2005.63
549.14	2015.48
549.50	2025.17
549.86	2034.56
550.21	2044.89
550.57	2054.63
550.92	2064.36
551.28	2074.19
551.64	2083.41
551.99	2092.23
552.35	2100.85
552.70	2109.71
553.06	2118.63
553.41	2128.39
553.77	2136.48
554.13	2144.67
554.48	2153.32
554.84	2161.17
555.19	2169.14
555.55	2176.96
555.90	2184.12
556.26	2191.69
556.61	2199.50
556.97	2205.99
557.32	2213.34
557.68	2219.85
558.03	2226.28
558.39	2232.53
558.74	2240.00
559.10	2246.24
559.45	2252.82
559.81	2259.58
560.16	2265.17
560.52	2270.36
560.87	2275.74
561.23	2281.25
561.58	2286.86
561.94	2291.80
562.29	2296.35
562.64	2300.82
563.00	2305.39
563.35	2310.52
563.71	2315.58
564.06	2320.40
564.42	2325.37
564.77	2329.50
565.12	2334.16
565.48	2338.64
565.83	2341.98
566.19	2344.95
566.54	2347.93
566.89	2350.31
567.25	2352.81
567.60	2356.28
567.96	2359.02
568.31	2361.40
568.66	2363.59
569.02	2365.77
569.37	2367.38
569.72	2369.80
570.08	2371.60
570.43	2372.62
570.78	2373.40
571.14	2374.07
571.49	2374.53
571.84	2375.63
572.20	2375.57
572.55	2375.37
572.90	2374.45
573.26	2374.70
573.61	2374.31
573.96	2374.04
574.31	2372.58
574.67	2370.71
575.02	2368.70
575.37	2367.34
575.72	2364.62
576.08	2362.79
576.43	2360.54
576.78	2358.88
577.13	2356.84
577.49	2354.82
577.84	2352.62
578.19	2350.21
578.54	2346.86
578.90	2343.37
579.25	2339.33
579.60	2335.68
579.95	2331.44
580.30	2327.56
580.66	2323.22
581.01	2318.79
581.36	2314.55
581.71	2311.48
582.06	2307.57
582.42	2303.07
582.77	2298.15
583.12	2294.30
583.47	2290.26
583.82	2285.77
584.17	2280.66
584.53	2275.90
584.88	2271.18
585.23	2266.26
585.58	2261.73
585.93	2256.95
586.28	2252.41
586.63	2248.05
586.98	2244.19
587.34	2240.02
587.69	2235.50
588.04	2230.52
588.39	2225.67
588.74	2219.79
589.09	2213.68
589.44	2207.87
589.79	2202.61
590.14	2197.75
590.49	2192.57
590.84	2186.46
591.19	2180.82
591.54	2173.93
591.89	2166.58
592.25	2160.49
592.60	2153.14
592.95	2145.77
593.30	2138.93
593.65	2131.98
594.00	2124.97
594.35	2118.70
594.70	2110.86
595.05	2103.72
595.40	2096.66
595.75	2089.30
596.10	2083.09
596.45	2077.20
596.80	2071.22
597.15	2064.67
597.50	2057.40
597.85	2050.50
598.19	2044.08
598.54	2037.33
598.89	2031.70
599.24	2026.89
599.59	2019.89
599.94	2014.56
600.29	2008.37
600.64	2001.93
600.99	1994.37
601.34	1987.67
601.69	1979.90
602.04	1973.62
602.39	1967.15
602.74	1961.28
603.08	1955.13
603.43	1948.92
603.78	1941.74
604.13	1934.75
604.48	1927.53
604.83	1920.76
605.18	1914.20
605.53	1906.27
605.87	1898.19
606.22	1890.74
606.57	1882.30
606.92	1875.15
607.27	1868.04
607.62	1861.02
607.96	1854.34
608.31	1848.06
608.66	1840.38
609.01	1832.40
609.36	1824.10
609.70	1815.40
610.05	1806.40
610.40	1797.99
610.75	1788.80
611.10	1780.39
611.44	1771.25
611.79	1763.41
612.14	1755.10
612.49	1745.42
612.83	1736.92
613.18	1728.93
613.53	1720.66
613.88	1711.51
614.22	1702.40
614.57	1692.70
614.92	1683.72
615.27	1675.09
615.61	1665.82
615.96	1657.03
616.31	1648.93
616.65	1641.80
617.00	1633.81
617.35	1625.78
617.70	1617.32
618.04	1609.18
618.39	1601.03
618.74	1593.73
619.08	1584.89
619.43	1576.52
619.78	1569.12
620.12	1561.38
620.47	1552.97
620.82	1544.31
621.16	1536.79
621.51	1529.02
621.85	1521.17
622.20	1512.69
622.55	1504.34
622.89	1496.90
623.24	1489.44
623.59	1481.70
623.93	1473.57
624.28	1466.17
624.62	1458.12
624.97	1450.55
625.32	1442.91
625.66	1435.51
626.01	1427.59
626.35	1419.68
626.70	1411.80
627.04	1403.53
627.39	1395.63
627.73	1387.86
628.08	1380.22
628.43	1372.50
628.77	1364.62
629.12	1356.55
629.46	1349.12
629.81	1340.89
630.15	1332.23
630.50	1323.66
630.84	1315.32
631.19	1306.53
631.53	1298.26
631.88	1289.95
632.22	1281.60
632.57	1273.91
632.91	1265.22
633.26	1256.65
633.60	1248.59
633.95	1240.53
634.29	1233.20
634.64	1225.53
634.98	1217.41
635.32	1209.96
635.67	1202.61
636.01	1195.47
636.36	1188.13
636.70	1180.72
637.05	1173.50
637.39	1167.07
637.73	1160.44
638.08	1153.93
638.42	1147.77
638.77	1140.93
639.11	1134.56
639.45	1127.70
639.80	1120.60
640.14	1113.90
640.49	1107.38
640.83	1100.47
641.17	1093.99
641.52	1086.64
641.86	1079.90
642.20	1073.74
642.55	1067.03
642.89	1059.94
643.23	1052.81
643.58	1046.87
643.92	1039.92
644.26	1033.19
644.61	1026.58
644.95	1019.86
645.29	1012.27
645.64	1004.89
645.98	998.24
646.32	991.58
646.66	984.79
647.01	978.12
647.35	971.56
647.69	964.98
648.04	959.13
648.38	952.26
648.72	945.58
649.06	939.02
649.41	932.38
649.75	925.62
650.09	919.13
650.43	912.74
650.78	905.60
651.12	899.22
651.46	892.84
651.80	886.50
652.14	880.31
652.49	874.46
652.83	868.57
653.17	862.15
653.51	855.67
653.85	849.79
654.20	843.52
654.54	837.28
654.88	831.13
655.22	824.38
655.56	818.17
655.90	812.49
656.25	806.51
656.59	800.66
656.93	794.94
657.27	789.28
657.61	783.30
657.95	777.82
658.29	772.24
658.64	766.72
658.98	760.77
659.32	754.67
659.66	748.98
660.00	743.37
660.34	737.93
660.68	732.60
661.02	726.99
661.36	721.80
661.70	716.61
662.05	711.66
662.39	707.04
662.73	702.38
663.07	697.44
663.41	692.64
663.75	687.96
664.09	683.18
664.43	678.42
664.77	673.87
665.11	669.30
665.45	664.74
665.79	660.03
666.13	655.44
666.47	651.12
666.81	646.66
667.15	642.09
667.49	637.74
667.83	633.38
668.17	629.28
668.51	624.79
668.85	620.52
669.19	616.34
669.53	612.18
669.87	607.95
670.21	603.96
670.55	599.77
670.89	595.80
671.23	592.05
671.57	588.29
671.91	584.51
672.25	580.57
672.58	576.84
672.92	573.18
673.26	569.67
673.60	566.24
673.94	562.82
674.28	559.67
674.62	556.23
674.96	553.00
675.30	549.89
675.64	546.74
675.97	543.57
676.31	540.10
676.65	536.70
676.99	533.67
677.33	530.51
677.67	527.40
678.01	524.05
678.34	520.93
678.68	517.83
679.02	514.75
679.36	511.93
679.70	508.98
680.04	506.07
680.37	503.07
680.71	500.26
681.05	497.41
681.39	494.45
681.73	491.65
682.06	488.82
682.40	485.96
682.74	483.32
683.08	480.43
683.42	477.87
683.75	475.41
684.09	472.65
684.43	469.98
684.77	467.37
685.10	464.90
685.44	462.13
685.78	459.48
686.12	456.96
686.45	454.28
686.79	451.69
687.13	449.34
687.46	446.95
687.80	444.28
688.14	441.71
688.48	439.31
688.81	436.73
689.15	434.50
689.49	431.97
689.82	429.60
690.16	427.34
690.50	425.17
690.83	422.77
691.17	420.50
691.51	418.30
691.84	416.26
692.18	414.05
692.52	411.76
692.85	409.70
693.19	407.64
693.52	405.63
693.86	403.47
694.20	401.32
694.53	399.21
694.87	397.19
695.21	395.21
695.54	393.22
695.88	391.47
696.21	389.54
696.55	387.63
696.88	385.62
697.22	383.77
697.56	381.80
697.89	379.87
698.23	377.93
698.56	376.15
698.90	374.25
699.23	372.32
699.57	370.63
699.90	368.86
700.24	366.92
700.58	365.23
700.91	363.64
701.25	362.00
701.58	360.44
701.92	358.90
702.25	357.45
702.59	355.87
702.92	354.32
703.26	352.64
703.59	351.31
703.93	350.01
704.26	348.57
704.60	346.99
704.93	345.64
705.26	344.28
705.60	342.89
705.93	341.52
706.27	340.24
706.60	338.93
706.94	337.54
707.27	336.40
707.61	334.90
707.94	333.56
708.27	332.22
708.61	330.89
708.94	329.58
709.28	328.36
709.61	327.23
709.94	326.04
710.28	324.84
710.61	323.64
710.95	322.25
711.28	321.19
711.61	320.12
711.95	319.07
712.28	317.94
712.61	316.77
712.95	315.72
713.28	314.64
713.61	313.68
713.95	312.71
714.28	311.62
714.61	310.69
714.95	309.76
715.28	308.72
715.61	307.64
715.95	306.82
716.28	305.86
716.61	304.89
716.95	303.83
717.28	303.00
717.61	302.01
717.94	301.29
718.28	300.36
718.61	299.52
718.94	298.65
719.27	297.89
719.61	297.30
719.94	296.50
720.27	295.75
720.60	294.91
720.94	294.19
721.27	293.47
721.60	292.78
721.93	292.08
722.27	291.53
722.60	290.84
722.93	290.05
723.26	289.33
723.59	288.60
723.93	288.04
724.26	287.37
724.59	286.77
724.92	286.08
725.25	285.53
725.59	285.00
725.92	284.47
726.25	283.80
726.58	283.12
726.91	282.49
727.24	281.95
727.57	281.48
727.91	280.84
728.24	280.44
728.57	279.92
728.90	279.35
729.23	278.70
729.56	278.29
729.89	277.69
730.22	277.17
730.55	276.66
730.89	276.18
731.22	275.68
731.55	275.07
731.88	274.55
732.21	273.88
732.54	273.23
732.87	272.73
733.20	272.31
733.53	271.80
733.86	271.40
734.19	270.89
734.52	270.38
734.85	270.07
735.18	269.49
735.51	269.15
735.84	268.68
736.17	268.30
736.50	267.73
736.83	267.46
737.16	267.02
737.49	266.64
737.82	266.32
738.15	265.70
738.48	265.26
738.81	264.86
739.14	264.50
739.47	264.14
739.80	263.68
740.13	263.30
740.46	262.84
740.79	262.38
741.12	261.93
741.45	261.59
741.78	261.08
742.11	260.84
742.44	260.23
742.77	259.90
743.10	259.46
743.43	259.10
743.75	258.67
744.08	258.54
744.41	258.14
744.74	257.68
745.07	257.55
745.40	257.34
745.73	257.12
746.06	256.90
746.39	256.57
746.71	256.17
747.04	255.86
747.37	255.58
747.70	255.36
748.03	255.06
748.36	254.71
748.68	254.40
749.01	253.89
749.34	253.69
749.67	253.35
750.00	253.05
750.33	252.91
750.65	252.65
750.98	252.18
751.31	251.90
751.64	251.58
751.97	251.31
752.29	250.92
752.62	250.48
752.95	250.09
753.28	249.83
753.60	249.61
753.93	249.30
754.26	248.94
754.59	248.62
754.91	248.31
755.24	247.99
755.57	247.76
755.90	247.55
756.22	247.31
756.55	247.07
756.88	246.79
757.20	246.39
757.53	246.08
757.86	245.78
758.19	245.60
758.51	245.46
758.84	245.11
759.17	245.01
759.49	244.80
759.82	244.57
760.15	244.50
760.47	244.43
760.80	244.25
761.13	244.18
761.45	243.91
761.78	243.82
762.11	243.75
762.43	243.57
762.76	243.37
763.08	243.14
763.41	243.00
763.74	242.97
764.06	242.88
764.39	242.75
764.71	242.61
765.04	242.36
765.37	242.20
765.69	242.12
766.02	241.88
766.34	241.82
766.67	241.84
767.00	241.60
767.32	241.49
767.65	241.42
767.97	241.29
768.30	241.25
768.62	241.10
768.95	241.00
769.27	240.79
769.60	240.67
769.92	240.59
770.25	240.49
770.57	240.29
770.90	240.23
771.22	240.14
771.55	240.08
771.87	240.05
772.20	239.91
772.52	239.97
772.85	240.10
773.17	239.94
773.50	239.65
773.82	239.62
774.15	239.36
774.47	239.25
774.80	239.17
775.12	239.06
775.45	239.03
775.77	238.91
776.09	238.80
776.42	238.72
776.74	238.72
777.07	238.60
777.39	238.46
777.72	238.31
778.04	238.30
778.36	238.06
778.69	238.00
779.01	237.98
779.33	237.74
779.66	237.47
779.98	237.46
780.31	237.52
780.63	237.52
780.95	237.48
781.28	237.29
781.60	237.23
781.92	237.01
782.25	236.84
782.57	236.64
782.89	236.73
783.22	236.62
783.54	236.62
783.86	236.53
784.19	236.51
784.51	236.38
784.83	236.16
785.16	236.10
785.48	235.92
785.80	235.79
786.12	235.70
786.45	235.50
786.77	235.34
