SpectraSuite Data File
++++++++++++++++++++++++++++++++++++
Date: Fri Feb 01 14:39:09 EST 2013
User: group
Dark Spectrum Present: No
Reference Spectrum Present: No
Number of Sampled Component Spectra: 1
Spectrometers: USB2E7196
Integration Time (usec): 70000 (USB2E7196)
Spectra Averaged: 10 (USB2E7196)
Boxcar Smoothing: 10 (USB2E7196)
Correct for Electrical Dark: No (USB2E7196)
Strobe/Lamp Enabled: No (USB2E7196)
Correct for Detector Non-linearity: No (USB2E7196)
Correct for Stray Light: No (USB2E7196)
Number of Pixels in Processed Spectrum: 2048
>>>>>Begin Processed Spectral Data<<<<<
339.09	0.00
339.48	216.20
339.86	218.30
340.24	219.30
340.63	221.80
341.01	225.50
341.39	224.40
341.78	223.60
342.16	229.40
342.54	227.60
342.93	215.14
343.31	226.01
343.69	226.63
344.07	227.08
344.46	227.50
344.84	227.77
345.22	227.87
345.60	228.03
345.99	228.20
346.37	228.11
346.75	228.03
347.13	228.13
347.52	228.02
347.90	228.07
348.28	228.15
348.66	228.29
349.05	228.15
349.43	228.13
349.81	228.13
350.19	228.07
350.57	228.04
350.96	228.17
351.34	228.18
351.72	228.10
352.10	228.13
352.48	228.18
352.87	228.21
353.25	228.23
353.63	228.30
354.01	228.25
354.39	228.31
354.77	228.38
355.15	228.51
355.54	228.59
355.92	228.56
356.30	228.67
356.68	228.82
357.06	228.90
357.44	228.97
357.82	228.95
358.20	229.00
358.58	229.12
358.97	229.09
359.35	229.20
359.73	229.28
360.11	229.40
360.49	229.44
360.87	229.61
361.25	229.64
361.63	229.75
362.01	229.89
362.39	229.99
362.77	230.10
363.15	230.13
363.53	230.12
363.91	230.25
364.29	230.17
364.67	229.99
365.05	230.07
365.43	230.03
365.81	230.10
366.19	230.12
366.57	230.15
366.95	230.13
367.33	230.05
367.71	230.02
368.09	229.92
368.47	229.92
368.85	229.82
369.23	229.90
369.61	229.83
369.99	229.86
370.37	229.77
370.75	229.81
371.13	229.73
371.51	229.73
371.89	229.66
372.27	229.66
372.65	229.60
373.03	229.49
373.41	229.43
373.78	229.40
374.16	229.30
374.54	229.28
374.92	229.24
375.30	229.24
375.68	229.16
376.06	229.11
376.44	228.98
376.82	228.92
377.19	228.74
377.57	228.62
377.95	228.51
378.33	228.48
378.71	228.33
379.09	228.21
379.47	228.09
379.84	227.98
380.22	227.87
380.60	227.75
380.98	227.66
381.36	227.59
381.73	227.42
382.11	227.38
382.49	227.17
382.87	227.10
383.25	226.93
383.62	227.10
384.00	227.00
384.38	226.89
384.76	226.86
385.13	226.99
385.51	226.89
385.89	226.88
386.27	226.79
386.64	226.69
387.02	226.65
387.40	226.56
387.78	226.59
388.15	226.59
388.53	226.69
388.91	226.67
389.29	226.60
389.66	226.71
390.04	226.71
390.42	226.81
390.79	226.75
391.17	226.80
391.55	226.62
391.92	226.62
392.30	226.67
392.68	226.62
393.05	226.66
393.43	226.73
393.81	226.78
394.18	226.80
394.56	226.85
394.94	227.05
395.31	227.05
395.69	227.07
396.06	227.14
396.44	227.06
396.82	227.09
397.19	227.33
397.57	227.31
397.95	227.29
398.32	227.30
398.70	227.42
399.07	227.51
399.45	227.59
399.82	227.68
400.20	227.74
400.58	227.88
400.95	227.85
401.33	227.97
401.70	228.14
402.08	228.25
402.45	228.23
402.83	228.24
403.20	228.42
403.58	228.45
403.95	228.54
404.33	228.73
404.71	228.85
405.08	229.00
405.46	229.17
405.83	229.33
406.21	229.47
406.58	229.62
406.96	229.84
407.33	230.03
407.70	230.22
408.08	230.64
408.45	230.87
408.83	231.10
409.20	231.34
409.58	231.43
409.95	231.70
410.33	232.14
410.70	232.37
411.08	232.68
411.45	233.11
411.82	233.46
412.20	233.88
412.57	234.37
412.95	234.60
413.32	235.00
413.69	235.49
414.07	235.97
414.44	236.53
414.82	236.98
415.19	237.57
415.56	238.19
415.94	238.71
416.31	239.34
416.68	240.04
417.06	240.85
417.43	241.66
417.81	242.51
418.18	243.39
418.55	244.36
418.93	245.35
419.30	246.25
419.67	247.22
420.04	248.24
420.42	249.42
420.79	250.78
421.16	252.00
421.54	253.44
421.91	254.71
422.28	256.04
422.66	257.59
423.03	259.06
423.40	260.49
423.77	262.09
424.15	263.75
424.52	265.36
424.89	266.94
425.26	268.52
425.64	270.15
426.01	271.92
426.38	273.62
426.75	275.45
427.13	277.60
427.50	279.66
427.87	281.80
428.24	283.85
428.61	285.92
428.99	288.25
429.36	290.57
429.73	293.06
430.10	295.51
430.47	297.82
430.85	300.32
431.22	303.09
431.59	305.89
431.96	308.40
432.33	311.27
432.70	314.19
433.08	317.67
433.45	320.79
433.82	324.03
434.19	327.60
434.56	331.03
434.93	334.14
435.30	337.41
435.68	340.94
436.05	344.34
436.42	347.73
436.79	350.92
437.16	354.22
437.53	357.67
437.90	361.20
438.27	364.66
438.64	368.01
439.01	371.10
439.38	373.76
439.75	376.57
440.13	379.59
440.50	382.59
440.87	384.93
441.24	387.46
441.61	390.07
441.98	392.12
442.35	394.63
442.72	396.99
443.09	399.38
443.46	400.77
443.83	401.68
444.20	402.35
444.57	403.49
444.94	404.08
445.31	404.80
445.68	405.33
446.05	405.73
446.42	405.73
446.79	405.57
447.16	405.38
447.53	405.26
447.90	404.38
448.27	403.15
448.64	401.46
449.01	400.41
449.37	398.31
449.74	396.28
450.11	393.69
450.48	391.01
450.85	388.14
451.22	385.71
451.59	383.46
451.96	381.30
452.33	378.34
452.70	375.65
453.07	372.39
453.43	369.10
453.80	365.89
454.17	362.68
454.54	359.74
454.91	356.55
455.28	353.42
455.65	350.52
456.02	347.90
456.38	345.54
456.75	342.28
457.12	339.67
457.49	336.97
457.86	334.40
458.23	332.21
458.59	329.83
458.96	327.42
459.33	325.20
459.70	323.14
460.07	321.32
460.43	319.32
460.80	317.30
461.17	315.50
461.54	313.67
461.91	311.92
462.27	310.14
462.64	308.68
463.01	307.09
463.38	305.46
463.74	303.52
464.11	302.06
464.48	300.92
464.85	299.47
465.21	298.30
465.58	297.21
465.95	295.77
466.32	294.53
466.68	293.26
467.05	292.14
467.42	290.92
467.78	289.72
468.15	288.51
468.52	287.73
468.88	286.63
469.25	285.60
469.62	284.79
469.98	283.82
470.35	282.95
470.72	282.08
471.08	281.08
471.45	280.40
471.82	279.57
472.18	278.57
472.55	277.86
472.92	277.14
473.28	276.29
473.65	275.60
474.02	274.92
474.38	274.37
474.75	273.78
475.11	273.12
475.48	272.65
475.85	272.16
476.21	271.59
476.58	271.16
476.94	270.67
477.31	270.16
477.67	269.74
478.04	269.25
478.41	268.85
478.77	268.73
479.14	268.32
479.50	267.90
479.87	267.72
480.23	267.50
480.60	267.19
480.96	267.01
481.33	266.90
481.69	266.66
482.06	266.46
482.42	266.20
482.79	266.06
483.15	265.84
483.52	265.79
483.88	265.64
484.25	265.39
484.61	265.19
484.98	265.14
485.34	265.15
485.71	265.10
486.07	265.08
486.44	264.90
486.80	264.85
487.17	264.91
487.53	264.93
487.90	264.97
488.26	265.20
488.62	265.30
488.99	265.24
489.35	265.34
489.72	265.50
490.08	265.68
490.44	265.98
490.81	266.29
491.17	266.30
491.54	266.41
491.90	266.64
492.26	267.00
492.63	267.04
492.99	267.17
493.36	267.51
493.72	267.75
494.08	268.11
494.45	268.48
494.81	268.76
495.17	269.09
495.54	269.48
495.90	269.74
496.26	269.92
496.63	270.33
496.99	270.76
497.35	271.11
497.72	271.50
498.08	271.77
498.44	272.11
498.80	272.61
499.17	273.15
499.53	273.62
499.89	274.20
500.26	274.75
500.62	275.26
500.98	275.76
501.34	276.29
501.71	276.72
502.07	277.34
502.43	277.88
502.79	278.35
503.16	278.91
503.52	279.46
503.88	280.13
504.24	280.77
504.60	281.46
504.97	282.20
505.33	283.01
505.69	283.87
506.05	284.62
506.41	285.42
506.78	286.21
507.14	287.21
507.50	288.07
507.86	289.23
508.22	290.43
508.59	291.42
508.95	292.60
509.31	293.94
509.67	295.16
510.03	296.50
510.39	297.83
510.75	299.20
511.12	300.61
511.48	302.14
511.84	303.62
512.20	305.10
512.56	306.81
512.92	308.48
513.28	310.39
513.64	312.35
514.00	314.34
514.37	316.40
514.73	318.50
515.09	320.50
515.45	322.71
515.81	324.83
516.17	327.21
516.53	329.67
516.89	332.10
517.25	334.74
517.61	337.48
517.97	340.24
518.33	342.99
518.69	345.90
519.05	348.99
519.41	352.18
519.77	355.51
520.13	358.77
520.49	362.15
520.85	365.56
521.21	369.05
521.57	372.68
521.93	376.30
522.29	380.16
522.65	384.11
523.01	388.10
523.37	392.14
523.73	396.34
524.09	400.40
524.45	404.70
524.81	409.00
525.17	413.61
525.53	418.27
525.89	423.07
526.25	428.02
526.61	432.88
526.97	437.84
527.33	442.97
527.68	448.13
528.04	453.27
528.40	458.50
528.76	463.94
529.12	469.52
529.48	475.38
529.84	480.78
530.20	486.73
530.56	492.77
530.91	498.89
531.27	504.86
531.63	511.12
531.99	517.29
532.35	523.52
532.71	529.53
533.07	535.89
533.42	542.43
533.78	548.77
534.14	555.35
534.50	561.69
534.86	568.35
535.21	574.90
535.57	581.70
535.93	588.40
536.29	595.32
536.65	602.19
537.00	608.89
537.36	616.04
537.72	622.73
538.08	629.32
538.44	636.29
538.79	643.51
539.15	650.36
539.51	657.62
539.87	664.78
540.22	672.04
540.58	679.46
540.94	686.56
541.29	693.81
541.65	700.94
542.01	708.72
542.37	715.84
542.72	723.18
543.08	730.37
543.44	737.95
543.79	744.85
544.15	752.04
544.51	759.49
544.87	766.63
545.22	774.02
545.58	781.40
545.94	788.10
546.29	794.88
546.65	801.90
547.01	808.56
547.36	815.52
547.72	822.39
548.07	829.29
548.43	835.94
548.79	842.64
549.14	849.34
549.50	855.50
549.86	862.03
550.21	868.40
550.57	875.17
550.92	881.31
551.28	887.84
551.64	894.41
551.99	900.70
552.35	906.87
552.70	913.18
553.06	919.62
553.41	926.20
553.77	932.51
554.13	938.46
554.48	944.88
554.84	950.74
555.19	956.92
555.55	962.89
555.90	968.61
556.26	974.86
556.61	980.42
556.97	986.03
557.32	991.78
557.68	997.56
558.03	1003.25
558.39	1008.70
558.74	1014.34
559.10	1019.45
559.45	1024.91
559.81	1030.97
560.16	1035.82
560.52	1040.66
560.87	1045.42
561.23	1050.27
561.58	1055.77
561.94	1060.42
562.29	1065.29
562.64	1069.67
563.00	1073.91
563.35	1079.08
563.71	1083.90
564.06	1088.77
564.42	1093.36
564.77	1097.83
565.12	1102.41
565.48	1106.86
565.83	1111.13
566.19	1115.43
566.54	1119.52
566.89	1123.45
567.25	1126.77
567.60	1131.05
567.96	1135.00
568.31	1139.28
568.66	1143.15
569.02	1146.47
569.37	1149.78
569.72	1153.16
570.08	1156.57
570.43	1159.92
570.78	1162.42
571.14	1164.34
571.49	1167.25
571.84	1170.41
572.20	1172.93
572.55	1175.32
572.90	1177.33
573.26	1179.87
573.61	1181.92
573.96	1183.78
574.31	1185.30
574.67	1186.88
575.02	1187.99
575.37	1189.44
575.72	1190.04
576.08	1191.11
576.43	1192.33
576.78	1193.25
577.13	1194.29
577.49	1195.35
577.84	1196.03
578.19	1196.90
578.54	1197.94
578.90	1198.07
579.25	1198.26
579.60	1198.53
579.95	1198.44
580.30	1198.45
580.66	1198.24
581.01	1197.87
581.36	1198.16
581.71	1198.53
582.06	1198.51
582.42	1198.70
582.77	1198.43
583.12	1198.63
583.47	1198.81
583.82	1198.24
584.17	1198.23
584.53	1198.20
584.88	1197.72
585.23	1197.14
585.58	1196.65
585.93	1195.81
586.28	1195.03
586.63	1194.32
586.98	1194.07
587.34	1193.61
587.69	1192.98
588.04	1192.22
588.39	1191.68
588.74	1190.10
589.09	1188.55
589.44	1187.22
589.79	1186.00
590.14	1184.91
590.49	1183.47
590.84	1181.62
591.19	1180.52
591.54	1178.49
591.89	1175.97
592.25	1174.18
592.60	1172.09
592.95	1169.99
593.30	1168.10
593.65	1166.29
594.00	1164.44
594.35	1162.34
594.70	1159.70
595.05	1157.47
595.40	1155.11
595.75	1152.73
596.10	1150.67
596.45	1148.92
596.80	1147.14
597.15	1145.04
597.50	1142.64
597.85	1140.51
598.19	1138.72
598.54	1136.46
598.89	1134.63
599.24	1132.92
599.59	1130.56
599.94	1128.86
600.29	1126.64
600.64	1124.50
600.99	1121.99
601.34	1119.39
601.69	1116.64
602.04	1114.45
602.39	1111.88
602.74	1109.73
603.08	1107.48
603.43	1105.59
603.78	1102.81
604.13	1099.97
604.48	1097.04
604.83	1094.38
605.18	1091.91
605.53	1088.52
605.87	1085.45
606.22	1082.72
606.57	1079.78
606.92	1077.03
607.27	1074.14
607.62	1071.58
607.96	1068.79
608.31	1066.28
608.66	1063.19
609.01	1059.94
609.36	1056.18
609.70	1052.28
610.05	1048.83
610.40	1045.17
610.75	1041.27
611.10	1037.85
611.44	1033.95
611.79	1030.66
612.14	1026.96
612.49	1022.66
612.83	1018.86
613.18	1015.08
613.53	1010.92
613.88	1006.77
614.22	1002.64
614.57	998.25
614.92	994.00
615.27	990.03
615.61	985.75
615.96	981.97
616.31	978.46
616.65	975.37
617.00	972.39
617.35	968.75
617.70	964.96
618.04	961.05
618.39	957.06
618.74	953.27
619.08	949.12
619.43	945.70
619.78	942.44
620.12	938.90
620.47	935.29
620.82	931.59
621.16	928.14
621.51	924.62
621.85	921.24
622.20	917.47
622.55	913.81
622.89	910.38
623.24	906.65
623.59	902.70
623.93	899.00
624.28	895.00
624.62	890.96
624.97	887.50
625.32	884.16
625.66	880.57
626.01	877.07
626.35	873.48
626.70	869.48
627.04	865.70
627.39	861.72
627.73	857.79
628.08	854.29
628.43	850.35
628.77	846.65
629.12	842.55
629.46	838.80
629.81	834.44
630.15	830.16
630.50	826.16
630.84	821.94
631.19	817.71
631.53	813.69
631.88	809.53
632.22	805.11
632.57	801.12
632.91	797.06
633.26	793.20
633.60	789.28
633.95	785.41
634.29	781.52
634.64	777.96
634.98	774.15
635.32	770.44
635.67	767.06
636.01	763.36
636.36	759.68
636.70	756.33
637.05	752.93
637.39	749.71
637.73	746.34
638.08	743.40
638.42	740.29
638.77	737.26
639.11	733.88
639.45	730.59
639.80	727.21
640.14	723.74
640.49	720.11
640.83	716.48
641.17	713.06
641.52	709.30
641.86	705.70
642.20	702.74
642.55	699.23
642.89	695.75
643.23	692.04
643.58	689.02
643.92	685.20
644.26	681.98
644.61	678.69
644.95	675.22
645.29	671.29
645.64	667.50
645.98	663.95
646.32	660.78
646.66	657.40
647.01	653.73
647.35	650.51
647.69	647.41
648.04	644.46
648.38	640.77
648.72	637.37
649.06	634.04
649.41	630.37
649.75	626.74
650.09	623.10
650.43	619.86
650.78	616.17
651.12	612.95
651.46	609.44
651.80	606.03
652.14	602.68
652.49	599.49
652.83	596.47
653.17	593.27
653.51	589.77
653.85	586.66
654.20	583.52
654.54	580.13
654.88	576.70
655.22	572.97
655.56	569.64
655.90	566.52
656.25	563.49
656.59	560.29
656.93	557.26
657.27	554.29
657.61	551.06
657.95	548.28
658.29	545.12
658.64	542.20
658.98	539.03
659.32	535.77
659.66	532.90
660.00	529.94
660.34	526.73
660.68	523.93
661.02	520.76
661.36	517.97
661.70	515.24
662.05	512.71
662.39	510.49
662.73	508.17
663.07	505.80
663.41	503.05
663.75	500.40
664.09	497.86
664.43	495.22
664.77	492.94
665.11	490.42
665.45	488.01
665.79	485.45
666.13	482.99
666.47	480.70
666.81	478.04
667.15	475.54
667.49	473.21
667.83	470.98
668.17	468.55
668.51	466.05
668.85	463.69
669.19	461.32
669.53	458.86
669.87	456.36
670.21	454.07
670.55	452.08
670.89	449.98
671.23	447.90
671.57	446.07
671.91	443.88
672.25	441.65
672.58	439.75
672.92	437.71
673.26	435.86
673.60	433.89
673.94	431.96
674.28	430.13
674.62	428.31
674.96	426.39
675.30	424.79
675.64	422.81
675.97	421.06
676.31	419.18
676.65	417.38
676.99	415.71
677.33	413.79
677.67	411.69
678.01	409.85
678.34	408.07
678.68	406.17
679.02	404.25
679.36	402.56
679.70	400.81
680.04	399.07
680.37	397.37
680.71	395.70
681.05	394.27
681.39	392.54
681.73	390.84
682.06	389.20
682.40	387.59
682.74	386.20
683.08	384.74
683.42	383.20
683.75	381.67
684.09	380.09
684.43	378.60
684.77	377.33
685.10	375.82
685.44	374.29
685.78	372.63
686.12	371.23
686.45	369.64
686.79	368.05
687.13	366.78
687.46	365.20
687.80	363.89
688.14	362.42
688.48	361.16
688.81	359.81
689.15	358.36
689.49	356.85
689.82	355.29
690.16	353.80
690.50	352.48
690.83	351.04
691.17	349.68
691.51	348.43
691.84	347.12
692.18	345.81
692.52	344.45
692.85	343.25
693.19	342.00
693.52	340.68
693.86	339.53
694.20	338.21
694.53	337.12
694.87	335.91
695.21	334.58
695.54	333.30
695.88	332.05
696.21	330.98
696.55	329.84
696.88	328.88
697.22	327.70
697.56	326.56
697.89	325.51
698.23	324.42
698.56	323.33
698.90	322.23
699.23	321.09
699.57	320.09
699.90	318.95
700.24	317.92
700.58	317.06
700.91	316.02
701.25	315.10
701.58	314.07
701.92	313.10
702.25	312.11
702.59	311.11
702.92	310.21
703.26	309.20
703.59	308.39
703.93	307.59
704.26	306.75
704.60	305.86
704.93	304.90
705.26	304.06
705.60	303.22
705.93	302.48
706.27	301.79
706.60	301.07
706.94	300.47
707.27	299.62
707.61	298.85
707.94	298.09
708.27	297.12
708.61	296.26
708.94	295.51
709.28	294.84
709.61	294.32
709.94	293.60
710.28	292.90
710.61	292.11
710.95	291.31
711.28	290.71
711.61	290.01
711.95	289.40
712.28	288.77
712.61	288.04
712.95	287.42
713.28	286.74
713.61	285.97
713.95	285.16
714.28	284.58
714.61	283.82
714.95	283.29
715.28	282.78
715.61	282.14
715.95	281.50
716.28	280.94
716.61	280.24
716.95	279.64
717.28	279.19
717.61	278.69
717.94	278.04
718.28	277.33
718.61	276.67
718.94	276.11
719.27	275.54
719.61	275.13
719.94	274.52
720.27	273.87
720.60	273.36
720.94	272.91
721.27	272.58
721.60	272.28
721.93	271.68
722.27	271.24
722.60	270.90
722.93	270.43
723.26	269.95
723.59	269.41
723.93	268.92
724.26	268.36
724.59	267.94
724.92	267.56
725.25	267.26
725.59	267.00
725.92	266.78
726.25	266.23
726.58	265.73
726.91	265.43
727.24	265.23
727.57	264.90
727.91	264.44
728.24	263.89
728.57	263.46
728.90	263.20
729.23	262.77
729.56	262.52
729.89	262.06
730.22	261.72
730.55	261.26
730.89	261.01
731.22	260.73
731.55	260.40
731.88	260.07
732.21	259.64
732.54	259.22
732.87	258.74
733.20	258.56
733.53	258.20
733.86	257.82
734.19	257.36
734.52	257.06
734.85	256.89
735.18	256.59
735.51	256.34
735.84	255.90
736.17	255.65
736.50	255.18
736.83	255.10
737.16	254.78
737.49	254.65
737.82	254.30
738.15	253.90
738.48	253.44
738.81	253.05
739.14	252.69
739.47	252.45
739.80	252.14
740.13	251.88
740.46	251.64
740.79	251.26
741.12	251.15
741.45	250.86
741.78	250.47
742.11	250.32
742.44	249.91
742.77	249.83
743.10	249.53
743.43	249.23
743.75	248.76
744.08	248.81
744.41	248.51
744.74	248.31
745.07	248.09
745.40	248.03
745.73	247.87
746.06	247.68
746.39	247.43
746.71	247.26
747.04	246.99
747.37	246.62
747.70	246.47
748.03	246.12
748.36	245.97
748.68	245.83
749.01	245.53
749.34	245.37
749.67	245.14
750.00	244.89
750.33	244.89
750.65	244.79
750.98	244.27
751.31	244.04
751.64	243.75
751.97	243.61
752.29	243.36
752.62	243.13
752.95	243.01
753.28	242.89
753.60	242.78
753.93	242.64
754.26	242.53
754.59	242.36
754.91	242.16
755.24	241.93
755.57	241.75
755.90	241.46
756.22	241.36
756.55	241.19
756.88	241.20
757.20	240.87
757.53	240.68
757.86	240.63
758.19	240.48
758.51	240.41
758.84	240.28
759.17	240.30
759.49	240.22
759.82	240.19
760.15	240.01
760.47	239.83
760.80	239.68
761.13	239.73
761.45	239.57
761.78	239.54
762.11	239.43
762.43	239.28
762.76	239.29
763.08	239.15
763.41	238.96
763.74	238.74
764.06	238.74
764.39	238.62
764.71	238.55
765.04	238.56
765.37	238.36
765.69	238.20
766.02	237.98
766.34	237.86
766.67	237.69
767.00	237.64
767.32	237.68
767.65	237.66
767.97	237.49
768.30	237.34
768.62	237.25
768.95	237.14
769.27	237.11
769.60	237.09
769.92	236.97
770.25	236.93
770.57	236.85
770.90	236.79
771.22	236.73
771.55	236.56
771.87	236.40
772.20	236.39
772.52	236.52
772.85	236.76
773.17	236.86
773.50	236.74
773.82	236.58
774.15	236.40
774.47	236.20
774.80	236.14
775.12	236.00
775.45	235.88
775.77	235.95
776.09	235.86
776.42	235.71
776.74	235.64
777.07	235.46
777.39	235.34
777.72	235.20
778.04	235.11
778.36	235.00
778.69	234.95
779.01	234.85
779.33	234.60
779.66	234.21
779.98	233.93
780.31	233.79
780.63	233.84
780.95	233.78
781.28	233.80
781.60	233.70
781.92	233.75
782.25	233.71
782.57	233.50
782.89	233.34
783.22	233.28
783.54	233.06
783.86	233.14
784.19	233.06
784.51	232.98
784.83	232.82
785.16	232.78
785.48	232.67
785.80	232.62
786.12	232.60
786.45	232.61
786.77	232.51
787.09	232.49
787.42	232.38
787.74	232.31
788.06	232.28
788.38	232.31
788.71	232.27
789.03	232.21
789.35	232.23
789.67	232.20
789.99	232.17
790.32	232.21
790.64	232.10
790.96	232.20
