SpectraSuite Data File
++++++++++++++++++++++++++++++++++++
Date: Fri Feb 01 17:33:39 EST 2013
User: group
Dark Spectrum Present: No
Reference Spectrum Present: No
Number of Sampled Component Spectra: 1
Spectrometers: USB2E7196
Integration Time (usec): 35000 (USB2E7196)
Spectra Averaged: 100 (USB2E7196)
Boxcar Smoothing: 10 (USB2E7196)
Correct for Electrical Dark: No (USB2E7196)
Strobe/Lamp Enabled: No (USB2E7196)
Correct for Detector Non-linearity: No (USB2E7196)
Correct for Stray Light: No (USB2E7196)
Number of Pixels in Processed Spectrum: 2048
>>>>>Begin Processed Spectral Data<<<<<
339.09	0.00
339.48	212.89
339.86	214.41
340.24	215.51
340.63	216.74
341.01	219.33
341.39	219.63
341.78	221.01
342.16	221.43
342.54	222.66
342.93	211.14
343.31	221.82
343.69	222.35
344.07	222.79
344.46	223.22
344.84	223.60
345.22	223.86
345.60	224.09
345.99	224.28
346.37	224.46
346.75	224.56
347.13	224.64
347.52	224.66
347.90	224.75
348.28	224.78
348.66	224.82
349.05	224.81
349.43	224.85
349.81	224.90
350.19	224.96
350.57	225.00
350.96	225.06
351.34	225.14
351.72	225.24
352.10	225.35
352.48	225.42
352.87	225.51
353.25	225.60
353.63	225.72
354.01	225.81
354.39	225.89
354.77	225.99
355.15	226.11
355.54	226.21
355.92	226.22
356.30	226.32
356.68	226.48
357.06	226.56
357.44	226.63
357.82	226.69
358.20	226.79
358.58	226.85
358.97	226.94
359.35	227.03
359.73	227.12
360.11	227.20
360.49	227.26
360.87	227.31
361.25	227.36
361.63	227.44
362.01	227.50
362.39	227.53
362.77	227.58
363.15	227.58
363.53	227.62
363.91	227.68
364.29	227.70
364.67	227.62
365.05	227.65
365.43	227.69
365.81	227.74
366.19	227.80
366.57	227.88
366.95	227.91
367.33	227.87
367.71	227.86
368.09	227.88
368.47	227.88
368.85	227.86
369.23	227.87
369.61	227.79
369.99	227.75
370.37	227.72
370.75	227.73
371.13	227.67
371.51	227.62
371.89	227.55
372.27	227.52
372.65	227.47
373.03	227.44
373.41	227.37
373.78	227.31
374.16	227.17
374.54	227.07
374.92	226.96
375.30	226.88
375.68	226.79
376.06	226.72
376.44	226.64
376.82	226.55
377.19	226.45
377.57	226.41
377.95	226.33
378.33	226.28
378.71	226.19
379.09	226.16
379.47	226.12
379.84	226.10
380.22	225.99
380.60	225.94
380.98	225.85
381.36	225.79
381.73	225.70
382.11	225.67
382.49	225.61
382.87	225.57
383.25	225.55
383.62	225.60
384.00	225.54
384.38	225.49
384.76	225.47
385.13	225.46
385.51	225.41
385.89	225.34
386.27	225.28
386.64	225.25
387.02	225.19
387.40	225.12
387.78	225.04
388.15	225.05
388.53	225.01
388.91	224.99
389.29	224.95
389.66	224.95
390.04	224.92
390.42	224.91
390.79	224.88
391.17	224.83
391.55	224.70
391.92	224.67
392.30	224.67
392.68	224.63
393.05	224.61
393.43	224.57
393.81	224.55
394.18	224.53
394.56	224.52
394.94	224.56
395.31	224.55
395.69	224.60
396.06	224.57
396.44	224.58
396.82	224.59
397.19	224.67
397.57	224.67
397.95	224.69
398.32	224.70
398.70	224.75
399.07	224.85
399.45	224.92
399.82	224.97
400.20	225.02
400.58	225.11
400.95	225.13
401.33	225.23
401.70	225.39
402.08	225.50
402.45	225.56
402.83	225.67
403.20	225.78
403.58	225.84
403.95	225.99
404.33	226.12
404.71	226.23
405.08	226.36
405.46	226.51
405.83	226.63
406.21	226.73
406.58	226.87
406.96	227.00
407.33	227.14
407.70	227.32
408.08	227.55
408.45	227.74
408.83	227.96
409.20	228.15
409.58	228.35
409.95	228.60
410.33	228.88
410.70	229.14
411.08	229.44
411.45	229.77
411.82	230.09
412.20	230.43
412.57	230.84
412.95	231.18
413.32	231.58
413.69	232.03
414.07	232.51
414.44	232.98
414.82	233.48
415.19	234.05
415.56	234.61
415.94	235.19
416.31	235.88
416.68	236.53
417.06	237.29
417.43	238.00
417.81	238.79
418.18	239.61
418.55	240.50
418.93	241.41
419.30	242.34
419.67	243.31
420.04	244.37
420.42	245.42
420.79	246.66
421.16	247.89
421.54	249.15
421.91	250.44
422.28	251.76
422.66	253.17
423.03	254.52
423.40	255.91
423.77	257.40
424.15	258.88
424.52	260.46
424.89	262.17
425.26	263.81
425.64	265.31
426.01	266.97
426.38	268.68
426.75	270.45
427.13	272.26
427.50	274.11
427.87	276.05
428.24	277.96
428.61	279.79
428.99	281.77
429.36	283.96
429.73	286.07
430.10	288.19
430.47	290.33
430.85	292.58
431.22	294.93
431.59	297.43
431.96	299.78
432.33	302.35
432.70	304.80
433.08	307.71
433.45	310.48
433.82	313.22
434.19	316.20
434.56	319.12
434.93	321.91
435.30	324.66
435.68	327.64
436.05	330.63
436.42	333.56
436.79	336.21
437.16	339.02
437.53	341.99
437.90	344.92
438.27	347.78
438.64	350.69
439.01	353.39
439.38	355.70
439.75	357.96
440.13	360.59
440.50	363.03
440.87	364.97
441.24	367.01
441.61	369.29
441.98	370.87
442.35	372.73
442.72	374.68
443.09	376.58
443.46	377.64
443.83	378.27
444.20	378.82
444.57	379.72
444.94	380.00
445.31	380.39
445.68	380.79
446.05	380.88
446.42	380.54
446.79	380.13
447.16	379.67
447.53	379.32
447.90	378.12
448.27	376.95
448.64	375.33
449.01	374.13
449.37	372.05
449.74	370.11
450.11	367.77
450.48	365.22
450.85	362.54
451.22	360.34
451.59	358.22
451.96	356.18
452.33	353.45
452.70	351.00
453.07	348.04
453.43	345.02
453.80	342.14
454.17	339.33
454.54	336.66
454.91	333.83
455.28	331.04
455.65	328.40
456.02	325.83
456.38	323.54
456.75	320.79
457.12	318.46
457.49	316.11
457.86	313.86
458.23	311.91
458.59	309.82
458.96	307.62
459.33	305.72
459.70	303.77
460.07	302.24
460.43	300.44
460.80	298.80
461.17	297.27
461.54	295.73
461.91	294.26
462.27	292.75
462.64	291.47
463.01	290.12
463.38	288.78
463.74	287.37
464.11	286.19
464.48	285.10
464.85	283.88
465.21	283.03
465.58	282.07
465.95	280.93
466.32	279.98
466.68	279.05
467.05	278.09
467.42	277.22
467.78	276.21
468.15	275.31
468.52	274.60
468.88	273.71
469.25	272.91
469.62	272.25
469.98	271.57
470.35	270.93
470.72	270.27
471.08	269.62
471.45	269.07
471.82	268.50
472.18	267.91
472.55	267.53
472.92	266.96
473.28	266.50
473.65	266.05
474.02	265.61
474.38	265.22
474.75	264.88
475.11	264.53
475.48	264.28
475.85	264.05
476.21	263.80
476.58	263.66
476.94	263.52
477.31	263.36
477.67	263.21
478.04	263.08
478.41	263.05
478.77	263.11
479.14	263.06
479.50	263.07
479.87	263.13
480.23	263.18
480.60	263.25
480.96	263.34
481.33	263.52
481.69	263.72
482.06	263.89
482.42	264.09
482.79	264.31
483.15	264.59
483.52	264.95
483.88	265.31
484.25	265.67
484.61	266.07
484.98	266.46
485.34	267.02
485.71	267.59
486.07	268.19
486.44	268.72
486.80	269.40
487.17	270.13
487.53	270.93
487.90	271.78
488.26	272.72
488.62	273.68
488.99	274.66
489.35	275.67
489.72	276.83
490.08	278.01
490.44	279.20
490.81	280.53
491.17	281.89
491.54	283.35
491.90	284.91
492.26	286.56
492.63	288.33
492.99	290.08
493.36	291.97
493.72	293.98
494.08	296.06
494.45	298.28
494.81	300.62
495.17	303.05
495.54	305.59
495.90	308.23
496.26	311.02
496.63	313.96
496.99	317.06
497.35	320.27
497.72	323.65
498.08	327.21
498.44	330.89
498.80	334.76
499.17	338.74
499.53	342.85
499.89	347.10
500.26	351.52
500.62	356.18
500.98	361.08
501.34	366.13
501.71	371.36
502.07	376.73
502.43	382.28
502.79	388.05
503.16	393.97
503.52	400.19
503.88	406.44
504.24	412.94
504.60	419.69
504.97	426.71
505.33	433.91
505.69	441.50
506.05	449.09
506.41	456.82
506.78	464.86
507.14	473.18
507.50	481.78
507.86	490.64
508.22	499.67
508.59	508.70
508.95	518.02
509.31	527.62
509.67	537.49
510.03	547.54
510.39	557.85
510.75	568.40
511.12	579.02
511.48	590.11
511.84	601.29
512.20	612.59
512.56	624.33
512.92	636.23
513.28	648.24
513.64	660.43
514.00	672.80
514.37	685.45
514.73	698.08
515.09	710.75
515.45	723.60
515.81	736.82
516.17	750.40
516.53	764.19
516.89	777.99
517.25	791.84
517.61	805.81
517.97	819.84
518.33	833.94
518.69	848.33
519.05	862.88
519.41	877.58
519.77	892.59
520.13	907.46
520.49	922.40
520.85	937.33
521.21	952.57
521.57	968.31
521.93	983.52
522.29	999.45
522.65	1015.23
523.01	1030.96
523.37	1046.53
523.73	1062.19
524.09	1077.73
524.45	1093.48
524.81	1109.49
525.17	1125.76
525.53	1142.10
525.89	1158.47
526.25	1174.82
526.61	1190.64
526.97	1206.93
527.33	1222.99
527.68	1239.05
528.04	1255.04
528.40	1270.96
528.76	1287.55
529.12	1303.67
529.48	1320.24
529.84	1335.73
530.20	1351.91
530.56	1368.38
530.91	1385.21
531.27	1401.49
531.63	1417.63
531.99	1433.81
532.35	1449.40
532.71	1464.96
533.07	1480.98
533.42	1496.39
533.78	1512.04
534.14	1527.97
534.50	1542.96
534.86	1558.40
535.21	1573.30
535.57	1588.78
535.93	1604.11
536.29	1618.54
536.65	1633.36
537.00	1647.44
537.36	1662.54
537.72	1676.66
538.08	1690.90
538.44	1704.51
538.79	1718.19
539.15	1731.39
539.51	1744.75
539.87	1758.79
540.22	1772.17
540.58	1785.48
540.94	1798.68
541.29	1811.22
541.65	1823.64
542.01	1836.61
542.37	1848.76
542.72	1861.02
543.08	1872.73
543.44	1884.81
543.79	1896.03
544.15	1906.90
544.51	1918.50
544.87	1929.30
545.22	1940.17
545.58	1950.34
545.94	1960.08
546.29	1969.95
546.65	1980.09
547.01	1989.57
547.36	1998.48
547.72	2007.10
548.07	2015.24
548.43	2023.41
548.79	2031.51
549.14	2039.34
549.50	2046.78
549.86	2054.43
550.21	2061.88
550.57	2069.26
550.92	2076.14
551.28	2083.43
551.64	2090.71
551.99	2097.67
552.35	2104.15
552.70	2110.64
553.06	2116.92
553.41	2123.58
553.77	2129.82
554.13	2136.02
554.48	2142.44
554.84	2148.28
555.19	2153.62
555.55	2159.00
555.90	2163.84
556.26	2169.29
556.61	2174.29
556.97	2179.13
557.32	2183.92
557.68	2188.53
558.03	2193.13
558.39	2197.16
558.74	2202.04
559.10	2206.30
559.45	2210.12
559.81	2214.66
560.16	2218.72
560.52	2222.36
560.87	2226.07
561.23	2229.17
561.58	2232.40
561.94	2235.28
562.29	2237.83
562.64	2241.38
563.00	2244.39
563.35	2248.30
563.71	2251.75
564.06	2255.32
564.42	2258.60
564.77	2261.57
565.12	2264.47
565.48	2266.90
565.83	2269.28
566.19	2271.11
566.54	2272.41
566.89	2274.07
567.25	2275.32
567.60	2277.06
567.96	2279.21
568.31	2280.51
568.66	2282.17
569.02	2283.29
569.37	2284.17
569.72	2285.64
570.08	2286.13
570.43	2286.48
570.78	2286.41
571.14	2285.36
571.49	2284.37
571.84	2284.32
572.20	2283.59
572.55	2282.73
572.90	2281.52
573.26	2280.63
573.61	2279.20
573.96	2277.87
574.31	2275.44
574.67	2272.78
575.02	2269.59
575.37	2266.66
575.72	2263.44
576.08	2260.27
576.43	2257.20
576.78	2253.96
577.13	2250.83
577.49	2247.93
577.84	2244.97
578.19	2241.52
578.54	2238.36
578.90	2234.75
579.25	2229.57
579.60	2224.97
579.95	2220.39
580.30	2215.76
580.66	2210.88
581.01	2206.24
581.36	2201.67
581.71	2197.88
582.06	2193.88
582.42	2189.80
582.77	2184.77
583.12	2180.46
583.47	2176.35
583.82	2171.92
584.17	2167.02
584.53	2162.10
584.88	2156.93
585.23	2151.57
585.58	2146.50
585.93	2141.16
586.28	2136.40
586.63	2131.82
586.98	2126.99
587.34	2122.53
587.69	2117.74
588.04	2112.96
588.39	2107.65
588.74	2101.39
589.09	2095.46
589.44	2088.98
589.79	2082.97
590.14	2077.64
590.49	2071.25
590.84	2064.88
591.19	2058.95
591.54	2052.66
591.89	2045.64
592.25	2039.14
592.60	2032.10
592.95	2024.80
593.30	2017.70
593.65	2010.36
594.00	2003.30
594.35	1996.24
594.70	1988.23
595.05	1981.39
595.40	1974.16
595.75	1966.83
596.10	1960.90
596.45	1954.41
596.80	1948.25
597.15	1942.01
597.50	1935.29
597.85	1928.92
598.19	1922.55
598.54	1915.79
598.89	1909.17
599.24	1903.26
599.59	1896.74
599.94	1890.51
600.29	1884.26
600.64	1877.65
600.99	1870.49
601.34	1863.92
601.69	1857.08
602.04	1850.54
602.39	1843.28
602.74	1836.61
603.08	1830.03
603.43	1823.35
603.78	1816.00
604.13	1808.76
604.48	1801.61
604.83	1794.74
605.18	1788.01
605.53	1779.98
605.87	1771.89
606.22	1764.76
606.57	1756.83
606.92	1749.32
607.27	1742.37
607.62	1735.51
607.96	1728.49
608.31	1721.99
608.66	1714.45
609.01	1706.88
609.36	1699.29
609.70	1691.30
610.05	1683.24
610.40	1675.65
610.75	1667.41
611.10	1659.87
611.44	1651.54
611.79	1643.41
612.14	1634.64
612.49	1625.41
612.83	1617.06
613.18	1608.92
613.53	1600.83
613.88	1592.36
614.22	1584.15
614.57	1575.32
614.92	1567.19
615.27	1559.73
615.61	1551.30
615.96	1543.14
616.31	1535.32
616.65	1527.87
617.00	1520.28
617.35	1512.36
617.70	1503.86
618.04	1495.15
618.39	1486.72
618.74	1479.07
619.08	1470.67
619.43	1463.01
619.78	1455.95
620.12	1448.68
620.47	1441.09
620.82	1432.76
621.16	1425.13
621.51	1417.34
621.85	1409.58
622.20	1400.94
622.55	1392.38
622.89	1384.44
623.24	1376.57
623.59	1369.08
623.93	1361.42
624.28	1354.05
624.62	1346.58
624.97	1339.25
625.32	1332.39
625.66	1325.26
626.01	1317.99
626.35	1310.66
626.70	1302.75
627.04	1295.05
627.39	1287.13
627.73	1279.62
628.08	1272.63
628.43	1265.46
628.77	1258.22
629.12	1250.72
629.46	1243.54
629.81	1235.85
630.15	1228.41
630.50	1221.09
630.84	1212.91
631.19	1204.85
631.53	1197.20
631.88	1189.46
632.22	1181.82
632.57	1174.43
632.91	1166.79
633.26	1159.36
633.60	1151.75
633.95	1144.52
634.29	1137.27
634.64	1130.50
634.98	1123.10
635.32	1115.91
635.67	1109.06
636.01	1102.20
636.36	1095.39
636.70	1088.78
637.05	1082.20
637.39	1075.74
637.73	1069.12
638.08	1063.14
638.42	1057.11
638.77	1050.64
639.11	1044.16
639.45	1037.68
639.80	1031.00
640.14	1024.58
640.49	1018.03
640.83	1011.64
641.17	1005.48
641.52	999.11
641.86	992.55
642.20	986.58
642.55	980.10
642.89	973.65
643.23	966.98
643.58	961.06
643.92	954.78
644.26	948.68
644.61	942.53
644.95	936.53
645.29	929.99
645.64	923.24
645.98	916.81
646.32	910.82
646.66	904.78
647.01	898.97
647.35	893.26
647.69	887.26
648.04	881.70
648.38	875.84
648.72	869.88
649.06	863.81
649.41	857.92
649.75	852.03
650.09	846.12
650.43	840.39
650.78	834.17
651.12	828.22
651.46	822.48
651.80	816.82
652.14	811.33
652.49	805.87
652.83	800.70
653.17	795.19
653.51	789.51
653.85	784.09
654.20	778.46
654.54	772.41
654.88	766.69
655.22	760.71
655.56	754.96
655.90	749.44
656.25	744.35
656.59	738.96
656.93	733.87
657.27	728.69
657.61	723.20
657.95	718.16
658.29	713.11
658.64	707.80
658.98	702.34
659.32	696.88
659.66	691.71
660.00	686.44
660.34	681.39
660.68	676.40
661.02	671.31
661.36	666.56
661.70	662.05
662.05	657.71
662.39	653.50
662.73	649.07
663.07	644.69
663.41	640.16
663.75	635.70
664.09	631.03
664.43	626.58
664.77	622.51
665.11	618.25
665.45	613.96
665.79	609.92
666.13	605.89
666.47	601.76
666.81	597.61
667.15	593.34
667.49	589.37
667.83	585.50
668.17	581.56
668.51	577.47
668.85	573.47
669.19	569.53
669.53	565.66
669.87	561.77
670.21	558.02
670.55	554.34
670.89	550.90
671.23	547.48
671.57	543.91
671.91	540.34
672.25	536.75
672.58	533.35
672.92	529.89
673.26	526.68
673.60	523.46
673.94	520.36
674.28	517.50
674.62	514.58
674.96	511.50
675.30	508.58
675.64	505.60
675.97	502.71
676.31	499.80
676.65	496.83
676.99	494.12
677.33	491.22
677.67	488.36
678.01	485.30
678.34	482.38
678.68	479.47
679.02	476.66
679.36	473.86
679.70	471.09
680.04	468.30
680.37	465.37
680.71	462.57
681.05	459.83
681.39	457.04
681.73	454.35
682.06	451.76
682.40	449.20
682.74	446.68
683.08	444.11
683.42	441.52
683.75	439.03
684.09	436.40
684.43	433.94
684.77	431.43
685.10	429.02
685.44	426.60
685.78	424.30
686.12	422.03
686.45	419.73
686.79	417.44
687.13	415.23
687.46	413.09
687.80	410.90
688.14	408.64
688.48	406.58
688.81	404.27
689.15	402.08
689.49	399.89
689.82	397.76
690.16	395.64
690.50	393.65
690.83	391.60
691.17	389.61
691.51	387.66
691.84	385.81
692.18	383.89
692.52	381.98
692.85	380.02
693.19	378.05
693.52	376.19
693.86	374.26
694.20	372.44
694.53	370.63
694.87	368.81
695.21	367.09
695.54	365.20
695.88	363.47
696.21	361.73
696.55	360.03
696.88	358.33
697.22	356.63
697.56	354.97
697.89	353.36
698.23	351.72
698.56	350.11
698.90	348.50
699.23	346.86
699.57	345.24
699.90	343.67
700.24	342.11
700.58	340.58
700.91	339.10
701.25	337.64
701.58	336.25
701.92	334.84
702.25	333.43
702.59	332.08
702.92	330.74
703.26	329.39
703.59	328.09
703.93	326.90
704.26	325.65
704.60	324.35
704.93	323.05
705.26	321.77
705.60	320.56
705.93	319.38
706.27	318.31
706.60	317.24
706.94	316.16
707.27	315.06
707.61	313.95
707.94	312.91
708.27	311.81
708.61	310.70
708.94	309.70
709.28	308.69
709.61	307.71
709.94	306.72
710.28	305.73
710.61	304.74
710.95	303.59
711.28	302.67
711.61	301.72
711.95	300.80
712.28	299.87
712.61	298.84
712.95	297.88
713.28	296.97
713.61	296.06
713.95	295.14
714.28	294.25
714.61	293.37
714.95	292.50
715.28	291.64
715.61	290.75
715.95	289.83
716.28	288.94
716.61	288.05
716.95	287.22
717.28	286.46
717.61	285.66
717.94	284.95
718.28	284.14
718.61	283.39
718.94	282.66
719.27	282.00
719.61	281.37
719.94	280.70
720.27	279.96
720.60	279.25
720.94	278.62
721.27	278.01
721.60	277.40
721.93	276.79
722.27	276.20
722.60	275.63
722.93	275.08
723.26	274.54
723.59	273.98
723.93	273.42
724.26	272.85
724.59	272.27
724.92	271.72
725.25	271.20
725.59	270.68
725.92	270.15
726.25	269.60
726.58	269.10
726.91	268.61
727.24	268.11
727.57	267.64
727.91	267.12
728.24	266.61
728.57	266.11
728.90	265.64
729.23	265.16
729.56	264.72
729.89	264.22
730.22	263.72
730.55	263.29
730.89	262.85
731.22	262.37
731.55	261.95
731.88	261.56
732.21	261.09
732.54	260.66
732.87	260.24
733.20	259.85
733.53	259.44
733.86	259.10
734.19	258.71
734.52	258.32
734.85	258.01
735.18	257.66
735.51	257.30
735.84	256.92
736.17	256.58
736.50	256.17
736.83	255.94
737.16	255.64
737.49	255.30
737.82	254.95
738.15	254.59
738.48	254.24
738.81	253.87
739.14	253.56
739.47	253.25
739.80	252.92
740.13	252.60
740.46	252.27
740.79	251.86
741.12	251.57
741.45	251.28
741.78	250.94
742.11	250.62
742.44	250.28
742.77	250.03
743.10	249.72
743.43	249.42
743.75	249.01
744.08	248.81
744.41	248.50
744.74	248.22
745.07	247.99
745.40	247.74
745.73	247.48
746.06	247.22
746.39	246.94
746.71	246.65
747.04	246.37
747.37	246.09
747.70	245.85
748.03	245.61
748.36	245.38
748.68	245.11
749.01	244.86
749.34	244.63
749.67	244.37
750.00	244.13
750.33	243.97
750.65	243.76
750.98	243.41
751.31	243.20
751.64	242.96
751.97	242.77
752.29	242.55
752.62	242.31
752.95	242.07
753.28	241.82
753.60	241.64
753.93	241.45
754.26	241.25
754.59	241.03
754.91	240.79
755.24	240.55
755.57	240.37
755.90	240.20
756.22	240.01
756.55	239.79
756.88	239.58
757.20	239.37
757.53	239.17
757.86	238.99
758.19	238.83
758.51	238.66
758.84	238.43
759.17	238.27
759.49	238.11
759.82	237.99
760.15	237.87
760.47	237.71
760.80	237.54
761.13	237.45
761.45	237.30
761.78	237.12
762.11	236.99
762.43	236.83
762.76	236.69
763.08	236.57
763.41	236.45
763.74	236.31
764.06	236.16
764.39	236.01
764.71	235.88
765.04	235.75
765.37	235.62
765.69	235.50
766.02	235.35
766.34	235.25
766.67	235.09
767.00	234.96
767.32	234.91
767.65	234.84
767.97	234.70
768.30	234.58
768.62	234.49
768.95	234.37
769.27	234.27
769.60	234.16
769.92	234.03
770.25	233.91
770.57	233.78
770.90	233.66
771.22	233.59
771.55	233.50
771.87	233.42
772.20	233.33
772.52	233.33
772.85	233.33
773.17	233.21
773.50	233.14
773.82	233.06
774.15	232.92
774.47	232.78
774.80	232.70
775.12	232.65
775.45	232.56
775.77	232.49
776.09	232.42
776.42	232.35
776.74	232.30
777.07	232.25
777.39	232.18
777.72	232.10
778.04	232.03
778.36	231.92
778.69	231.84
779.01	231.76
779.33	231.63
779.66	231.46
779.98	231.38
780.31	231.32
780.63	231.26
780.95	231.19
781.28	231.15
781.60	231.06
781.92	230.99
782.25	230.94
782.57	230.86
782.89	230.78
783.22	230.69
783.54	230.61
783.86	230.55
784.19	230.50
784.51	230.47
784.83	230.39
785.16	230.34
785.48	230.27
785.80	230.21
786.12	230.11
786.45	230.08
786.77	230.05
787.09	229.97
