SpectraSuite Data File
++++++++++++++++++++++++++++++++++++
Date: Fri Feb 01 16:00:30 EST 2013
User: group
Dark Spectrum Present: No
Reference Spectrum Present: No
Number of Sampled Component Spectra: 1
Spectrometers: USB2E7196
Integration Time (usec): 35000 (USB2E7196)
Spectra Averaged: 100 (USB2E7196)
Boxcar Smoothing: 10 (USB2E7196)
Correct for Electrical Dark: No (USB2E7196)
Strobe/Lamp Enabled: No (USB2E7196)
Correct for Detector Non-linearity: No (USB2E7196)
Correct for Stray Light: No (USB2E7196)
Number of Pixels in Processed Spectrum: 2048
>>>>>Begin Processed Spectral Data<<<<<
339.09	0.00
339.48	214.54
339.86	216.29
340.24	217.66
340.63	219.78
341.01	222.52
341.39	221.18
341.78	223.01
342.16	223.98
342.54	224.82
342.93	213.18
343.31	223.94
343.69	224.50
344.07	224.96
344.46	225.41
344.84	225.76
345.22	225.95
345.60	226.22
345.99	226.42
346.37	226.57
346.75	226.68
347.13	226.75
347.52	226.81
347.90	226.94
348.28	226.96
348.66	227.00
349.05	227.00
349.43	227.01
349.81	227.07
350.19	227.14
350.57	227.21
350.96	227.27
351.34	227.36
351.72	227.43
352.10	227.54
352.48	227.57
352.87	227.63
353.25	227.72
353.63	227.79
354.01	227.84
354.39	227.89
354.77	227.96
355.15	228.08
355.54	228.14
355.92	228.13
356.30	228.20
356.68	228.33
357.06	228.38
357.44	228.44
357.82	228.48
358.20	228.51
358.58	228.55
358.97	228.60
359.35	228.67
359.73	228.73
360.11	228.75
360.49	228.83
360.87	228.84
361.25	228.88
361.63	228.94
362.01	228.97
362.39	229.02
362.77	229.05
363.15	229.07
363.53	229.09
363.91	229.14
364.29	229.14
364.67	229.07
365.05	229.09
365.43	229.12
365.81	229.13
366.19	229.18
366.57	229.20
366.95	229.15
367.33	229.11
367.71	229.09
368.09	229.10
368.47	229.05
368.85	229.03
369.23	229.02
369.61	228.95
369.99	228.95
370.37	228.93
370.75	228.93
371.13	228.83
371.51	228.74
371.89	228.67
372.27	228.62
372.65	228.57
373.03	228.49
373.41	228.42
373.78	228.35
374.16	228.23
374.54	228.13
374.92	228.12
375.30	228.07
375.68	227.99
376.06	227.93
376.44	227.86
376.82	227.81
377.19	227.73
377.57	227.67
377.95	227.53
378.33	227.43
378.71	227.28
379.09	227.24
379.47	227.18
379.84	227.12
380.22	227.04
380.60	226.95
380.98	226.91
381.36	226.88
381.73	226.80
382.11	226.78
382.49	226.74
382.87	226.65
383.25	226.60
383.62	226.69
384.00	226.62
384.38	226.58
384.76	226.52
385.13	226.51
385.51	226.49
385.89	226.46
386.27	226.43
386.64	226.40
387.02	226.35
387.40	226.34
387.78	226.33
388.15	226.35
388.53	226.33
388.91	226.33
389.29	226.29
389.66	226.32
390.04	226.25
390.42	226.26
390.79	226.27
391.17	226.24
391.55	226.11
391.92	226.12
392.30	226.13
392.68	226.13
393.05	226.13
393.43	226.13
393.81	226.19
394.18	226.16
394.56	226.22
394.94	226.28
395.31	226.30
395.69	226.37
396.06	226.40
396.44	226.44
396.82	226.46
397.19	226.54
397.57	226.60
397.95	226.67
398.32	226.71
398.70	226.77
399.07	226.87
399.45	226.93
399.82	226.99
400.20	227.07
400.58	227.15
400.95	227.21
401.33	227.32
401.70	227.46
402.08	227.59
402.45	227.66
402.83	227.76
403.20	227.91
403.58	227.98
403.95	228.10
404.33	228.22
404.71	228.34
405.08	228.51
405.46	228.63
405.83	228.77
406.21	228.91
406.58	229.09
406.96	229.25
407.33	229.41
407.70	229.60
408.08	229.86
408.45	230.08
408.83	230.28
409.20	230.52
409.58	230.67
409.95	230.94
410.33	231.20
410.70	231.44
411.08	231.71
411.45	232.01
411.82	232.30
412.20	232.63
412.57	233.03
412.95	233.29
413.32	233.71
413.69	234.13
414.07	234.53
414.44	234.97
414.82	235.46
415.19	236.01
415.56	236.59
415.94	237.11
416.31	237.72
416.68	238.35
417.06	239.06
417.43	239.73
417.81	240.50
418.18	241.31
418.55	242.15
418.93	242.99
419.30	243.88
419.67	244.82
420.04	245.79
420.42	246.78
420.79	247.97
421.16	249.08
421.54	250.24
421.91	251.47
422.28	252.70
422.66	254.00
423.03	255.28
423.40	256.59
423.77	258.03
424.15	259.46
424.52	260.95
424.89	262.54
425.26	264.12
425.64	265.54
426.01	267.14
426.38	268.77
426.75	270.43
427.13	272.17
427.50	273.99
427.87	275.86
428.24	277.74
428.61	279.50
428.99	281.46
429.36	283.60
429.73	285.67
430.10	287.76
430.47	289.81
430.85	291.93
431.22	294.16
431.59	296.53
431.96	298.78
432.33	301.26
432.70	303.64
433.08	306.44
433.45	309.15
433.82	311.76
434.19	314.71
434.56	317.52
434.93	320.20
435.30	322.82
435.68	325.74
436.05	328.56
436.42	331.34
436.79	333.87
437.16	336.56
437.53	339.39
437.90	342.17
438.27	344.91
438.64	347.74
439.01	350.34
439.38	352.57
439.75	354.75
440.13	357.23
440.50	359.55
440.87	361.41
441.24	363.32
441.61	365.42
441.98	366.83
442.35	368.63
442.72	370.48
443.09	372.27
443.46	373.24
443.83	373.82
444.20	374.33
444.57	375.13
444.94	375.39
445.31	375.72
445.68	376.06
446.05	376.14
446.42	375.80
446.79	375.37
447.16	374.87
447.53	374.52
447.90	373.39
448.27	372.22
448.64	370.59
449.01	369.45
449.37	367.48
449.74	365.59
450.11	363.31
450.48	360.79
450.85	358.26
451.22	356.14
451.59	354.12
451.96	352.16
452.33	349.57
452.70	347.22
453.07	344.39
453.43	341.50
453.80	338.73
454.17	336.04
454.54	333.46
454.91	330.79
455.28	328.13
455.65	325.62
456.02	323.16
456.38	321.02
456.75	318.33
457.12	316.06
457.49	313.81
457.86	311.69
458.23	309.87
458.59	307.82
458.96	305.72
459.33	303.84
459.70	301.97
460.07	300.43
460.43	298.72
460.80	297.11
461.17	295.65
461.54	294.14
461.91	292.72
462.27	291.28
462.64	290.01
463.01	288.66
463.38	287.34
463.74	285.98
464.11	284.86
464.48	283.82
464.85	282.75
465.21	281.94
465.58	280.98
465.95	279.86
466.32	278.96
466.68	278.04
467.05	277.18
467.42	276.30
467.78	275.40
468.15	274.48
468.52	273.80
468.88	272.98
469.25	272.22
469.62	271.57
469.98	270.93
470.35	270.33
470.72	269.74
471.08	269.12
471.45	268.60
471.82	268.05
472.18	267.48
472.55	267.02
472.92	266.50
473.28	266.08
473.65	265.64
474.02	265.22
474.38	264.87
474.75	264.52
475.11	264.21
475.48	263.98
475.85	263.78
476.21	263.58
476.58	263.41
476.94	263.30
477.31	263.15
477.67	263.03
478.04	262.90
478.41	262.87
478.77	262.94
479.14	262.88
479.50	262.86
479.87	262.97
480.23	263.09
480.60	263.22
480.96	263.33
481.33	263.58
481.69	263.75
482.06	263.97
482.42	264.21
482.79	264.48
483.15	264.80
483.52	265.20
483.88	265.57
484.25	265.96
484.61	266.37
484.98	266.79
485.34	267.35
485.71	267.97
486.07	268.57
486.44	269.11
486.80	269.82
487.17	270.56
487.53	271.36
487.90	272.20
488.26	273.12
488.62	274.10
488.99	275.04
489.35	276.11
489.72	277.24
490.08	278.45
490.44	279.68
490.81	280.99
491.17	282.39
491.54	283.83
491.90	285.36
492.26	287.02
492.63	288.74
492.99	290.47
493.36	292.35
493.72	294.34
494.08	296.45
494.45	298.71
494.81	301.08
495.17	303.52
495.54	306.07
495.90	308.75
496.26	311.55
496.63	314.50
496.99	317.59
497.35	320.87
497.72	324.25
498.08	327.77
498.44	331.50
498.80	335.39
499.17	339.43
499.53	343.60
499.89	348.00
500.26	352.58
500.62	357.29
500.98	362.25
501.34	367.36
501.71	372.70
502.07	378.15
502.43	383.74
502.79	389.58
503.16	395.66
503.52	401.89
503.88	408.33
504.24	414.96
504.60	421.84
504.97	428.94
505.33	436.28
505.69	444.02
506.05	451.72
506.41	459.58
506.78	467.73
507.14	476.16
507.50	484.84
507.86	493.82
508.22	502.99
508.59	512.20
508.95	521.87
509.31	531.67
509.67	541.76
510.03	552.08
510.39	562.60
510.75	573.36
511.12	584.30
511.48	595.56
511.84	607.10
512.20	618.64
512.56	630.52
512.92	642.78
513.28	655.03
513.64	667.50
514.00	680.24
514.37	693.21
514.73	706.30
515.09	719.36
515.45	732.72
515.81	746.35
516.17	760.32
516.53	774.42
516.89	788.55
517.25	802.76
517.61	817.25
517.97	831.67
518.33	846.11
518.69	860.88
519.05	875.86
519.41	890.86
519.77	906.41
520.13	921.96
520.49	937.21
520.85	952.76
521.21	968.54
521.57	984.78
521.93	1000.48
522.29	1016.89
522.65	1033.12
523.01	1049.30
523.37	1065.34
523.73	1081.52
524.09	1097.54
524.45	1113.89
524.81	1130.39
525.17	1147.05
525.53	1164.05
525.89	1181.01
526.25	1197.83
526.61	1214.31
526.97	1231.12
527.33	1247.57
527.68	1264.20
528.04	1280.71
528.40	1297.18
528.76	1314.26
529.12	1330.84
529.48	1347.67
529.84	1363.65
530.20	1380.22
530.56	1397.20
530.91	1414.60
531.27	1431.25
531.63	1447.67
531.99	1464.21
532.35	1480.20
532.71	1496.14
533.07	1512.13
533.42	1527.99
533.78	1543.94
534.14	1560.10
534.50	1575.45
534.86	1591.36
535.21	1606.43
535.57	1622.35
535.93	1637.79
536.29	1652.39
536.65	1667.28
537.00	1682.01
537.36	1697.23
537.72	1711.70
538.08	1725.99
538.44	1739.65
538.79	1753.66
539.15	1767.36
539.51	1781.11
539.87	1795.42
540.22	1809.15
540.58	1823.03
540.94	1836.36
541.29	1849.26
541.65	1862.06
542.01	1875.26
542.37	1887.56
542.72	1899.85
543.08	1911.50
543.44	1923.88
543.79	1935.17
544.15	1946.27
544.51	1957.90
544.87	1968.89
545.22	1979.68
545.58	1990.00
545.94	1999.80
546.29	2009.71
546.65	2019.50
547.01	2028.79
547.36	2037.54
547.72	2045.91
548.07	2053.64
548.43	2061.63
548.79	2069.80
549.14	2077.05
549.50	2084.31
549.86	2091.90
550.21	2099.23
550.57	2106.43
550.92	2113.00
551.28	2120.10
551.64	2126.97
551.99	2133.51
552.35	2139.55
552.70	2145.72
553.06	2151.61
553.41	2158.01
553.77	2163.85
554.13	2169.90
554.48	2175.80
554.84	2181.25
555.19	2186.64
555.55	2191.89
555.90	2196.44
556.26	2201.17
556.61	2206.04
556.97	2210.32
557.32	2214.55
557.68	2218.74
558.03	2222.98
558.39	2226.73
558.74	2231.32
559.10	2235.31
559.45	2238.92
559.81	2243.22
560.16	2247.06
560.52	2250.28
560.87	2253.60
561.23	2256.35
561.58	2259.42
561.94	2262.11
562.29	2264.50
562.64	2267.16
563.00	2269.71
563.35	2273.20
563.71	2276.37
564.06	2279.57
564.42	2282.50
564.77	2284.88
565.12	2286.99
565.48	2288.89
565.83	2290.61
566.19	2291.84
566.54	2292.77
566.89	2293.87
567.25	2294.49
567.60	2295.76
567.96	2297.53
568.31	2298.45
568.66	2299.43
569.02	2299.92
569.37	2300.11
569.72	2300.99
570.08	2301.00
570.43	2301.09
570.78	2300.49
571.14	2298.95
571.49	2297.56
571.84	2297.21
572.20	2296.13
572.55	2295.26
572.90	2293.83
573.26	2292.61
573.61	2290.90
573.96	2289.20
574.31	2286.31
574.67	2283.42
575.02	2279.94
575.37	2276.57
575.72	2272.77
576.08	2269.51
576.43	2266.18
576.78	2262.63
577.13	2259.44
577.49	2256.46
577.84	2253.07
578.19	2249.43
578.54	2245.87
578.90	2241.65
579.25	2236.05
579.60	2231.00
579.95	2226.03
580.30	2221.05
580.66	2215.92
581.01	2211.11
581.36	2206.21
581.71	2202.13
582.06	2197.67
582.42	2193.13
582.77	2187.91
583.12	2183.34
583.47	2178.60
583.82	2173.70
584.17	2168.51
584.53	2163.17
584.88	2157.54
585.23	2151.66
585.58	2146.12
585.93	2140.66
586.28	2135.94
586.63	2130.97
586.98	2126.07
587.34	2121.35
587.69	2116.38
588.04	2111.00
588.39	2105.35
588.74	2099.00
589.09	2092.67
589.44	2085.81
589.79	2079.89
590.14	2074.35
590.49	2067.80
590.84	2061.47
591.19	2055.37
591.54	2048.81
591.89	2041.16
592.25	2034.34
592.60	2027.23
592.95	2019.68
593.30	2012.36
593.65	2004.76
594.00	1997.71
594.35	1990.38
594.70	1982.37
595.05	1975.14
595.40	1967.85
595.75	1960.29
596.10	1953.85
596.45	1947.25
596.80	1941.20
597.15	1934.51
597.50	1927.35
597.85	1920.95
598.19	1914.27
598.54	1907.15
598.89	1900.59
599.24	1894.82
599.59	1888.01
599.94	1881.85
600.29	1875.48
600.64	1868.81
600.99	1861.34
601.34	1854.54
601.69	1847.59
602.04	1840.68
602.39	1833.31
602.74	1826.56
603.08	1819.90
603.43	1813.16
603.78	1805.74
604.13	1798.45
604.48	1791.08
604.83	1784.12
605.18	1777.05
605.53	1769.08
605.87	1761.11
606.22	1753.83
606.57	1745.79
606.92	1738.62
607.27	1731.30
607.62	1724.37
607.96	1717.07
608.31	1710.62
608.66	1702.92
609.01	1695.39
609.36	1687.80
609.70	1679.93
610.05	1671.90
610.40	1664.13
610.75	1655.81
611.10	1648.14
611.44	1639.71
611.79	1631.76
612.14	1623.06
612.49	1613.93
612.83	1605.55
613.18	1597.35
613.53	1589.28
613.88	1580.76
614.22	1572.44
614.57	1563.86
614.92	1555.91
615.27	1548.40
615.61	1539.94
615.96	1531.98
616.31	1524.35
616.65	1516.96
617.00	1509.38
617.35	1501.69
617.70	1493.34
618.04	1484.99
618.39	1476.84
618.74	1469.32
619.08	1460.99
619.43	1453.49
619.78	1446.48
620.12	1439.28
620.47	1431.83
620.82	1423.67
621.16	1416.40
621.51	1408.86
621.85	1401.35
622.20	1392.76
622.55	1384.46
622.89	1376.63
623.24	1368.98
623.59	1361.52
623.93	1354.08
624.28	1346.79
624.62	1339.23
624.97	1332.19
625.32	1325.32
625.66	1318.27
626.01	1311.06
626.35	1303.59
626.70	1295.75
627.04	1288.16
627.39	1280.52
627.73	1273.10
628.08	1266.22
628.43	1258.80
628.77	1251.42
629.12	1243.74
629.46	1236.57
629.81	1229.12
630.15	1221.87
630.50	1214.44
630.84	1206.23
631.19	1198.27
631.53	1190.76
631.88	1183.23
632.22	1175.47
632.57	1168.23
632.91	1160.67
633.26	1153.17
633.60	1145.77
633.95	1138.83
634.29	1131.74
634.64	1124.98
634.98	1117.56
635.32	1110.31
635.67	1103.70
636.01	1097.08
636.36	1090.28
636.70	1083.69
637.05	1077.09
637.39	1070.60
637.73	1064.08
638.08	1058.18
638.42	1052.14
638.77	1045.65
639.11	1038.92
639.45	1032.44
639.80	1025.73
640.14	1019.33
640.49	1012.84
640.83	1006.53
641.17	1000.22
641.52	993.87
641.86	987.35
642.20	981.50
642.55	975.26
642.89	968.80
643.23	962.22
643.58	956.47
643.92	950.37
644.26	944.25
644.61	938.19
644.95	932.18
645.29	925.61
645.64	918.93
645.98	912.63
646.32	906.92
646.66	900.99
647.01	895.12
647.35	889.39
647.69	883.54
648.04	878.05
648.38	872.22
648.72	866.21
649.06	860.14
649.41	854.30
649.75	848.27
650.09	842.34
650.43	836.51
650.78	830.30
651.12	824.36
651.46	818.67
651.80	812.97
652.14	807.57
652.49	802.22
652.83	797.06
653.17	791.38
653.51	785.58
653.85	780.24
654.20	774.65
654.54	768.68
654.88	762.95
655.22	757.08
655.56	751.37
655.90	745.89
656.25	740.72
656.59	735.37
656.93	730.36
657.27	725.16
657.61	719.75
657.95	714.64
658.29	709.54
658.64	704.29
658.98	698.96
659.32	693.53
659.66	688.32
660.00	683.00
660.34	678.07
660.68	673.22
661.02	668.16
661.36	663.49
661.70	658.96
662.05	654.69
662.39	650.38
662.73	646.00
663.07	641.65
663.41	637.16
663.75	632.65
664.09	627.99
664.43	623.65
664.77	619.59
665.11	615.43
665.45	611.28
665.79	607.21
666.13	603.09
666.47	599.01
666.81	594.89
667.15	590.75
667.49	586.85
667.83	583.01
668.17	579.10
668.51	574.98
668.85	570.91
669.19	566.99
669.53	563.09
669.87	559.17
670.21	555.45
670.55	551.81
670.89	548.39
671.23	545.01
671.57	541.50
671.91	537.86
672.25	534.34
672.58	530.80
672.92	527.38
673.26	524.20
673.60	521.01
673.94	517.85
674.28	514.92
674.62	511.92
674.96	508.86
675.30	505.89
675.64	502.89
675.97	500.13
676.31	497.24
676.65	494.30
676.99	491.57
677.33	488.77
677.67	485.90
678.01	482.83
678.34	479.83
678.68	476.96
679.02	474.14
679.36	471.38
679.70	468.70
680.04	465.91
680.37	463.05
680.71	460.29
681.05	457.71
681.39	455.00
681.73	452.42
682.06	449.85
682.40	447.30
682.74	444.83
683.08	442.36
683.42	439.74
683.75	437.27
684.09	434.73
684.43	432.17
684.77	429.74
685.10	427.45
685.44	425.14
685.78	422.79
686.12	420.56
686.45	418.26
686.79	415.96
687.13	413.77
687.46	411.60
687.80	409.43
688.14	407.26
688.48	405.20
688.81	402.88
689.15	400.71
689.49	398.55
689.82	396.44
690.16	394.32
690.50	392.42
690.83	390.47
691.17	388.51
691.51	386.67
691.84	384.83
692.18	382.79
692.52	380.79
692.85	378.87
693.19	377.05
693.52	375.23
693.86	373.40
694.20	371.62
694.53	369.79
694.87	367.95
695.21	366.11
695.54	364.26
695.88	362.56
696.21	360.85
696.55	359.17
696.88	357.51
697.22	355.87
697.56	354.23
697.89	352.60
698.23	350.95
698.56	349.31
698.90	347.70
699.23	346.13
699.57	344.60
699.90	343.11
700.24	341.52
700.58	339.97
700.91	338.43
701.25	337.02
701.58	335.65
701.92	334.29
702.25	332.91
702.59	331.53
702.92	330.26
703.26	328.99
703.59	327.71
703.93	326.51
704.26	325.26
704.60	323.96
704.93	322.66
705.26	321.44
705.60	320.28
705.93	319.13
706.27	318.08
706.60	317.04
706.94	315.95
707.27	314.83
707.61	313.76
707.94	312.77
708.27	311.67
708.61	310.59
708.94	309.57
709.28	308.59
709.61	307.63
709.94	306.61
710.28	305.53
710.61	304.58
710.95	303.53
711.28	302.61
711.61	301.71
711.95	300.78
712.28	299.82
712.61	298.85
712.95	297.95
713.28	297.04
713.61	296.13
713.95	295.23
714.28	294.38
714.61	293.51
714.95	292.65
715.28	291.78
715.61	290.91
715.95	290.05
716.28	289.18
716.61	288.41
716.95	287.64
717.28	286.92
717.61	286.11
717.94	285.36
718.28	284.54
718.61	283.78
718.94	283.09
719.27	282.42
719.61	281.80
719.94	281.13
720.27	280.44
720.60	279.76
720.94	279.17
721.27	278.58
721.60	278.04
721.93	277.46
722.27	276.91
722.60	276.38
722.93	275.81
723.26	275.32
723.59	274.73
723.93	274.15
724.26	273.56
724.59	273.05
724.92	272.51
725.25	272.01
725.59	271.51
725.92	271.02
726.25	270.53
726.58	270.01
726.91	269.50
727.24	269.02
727.57	268.59
727.91	268.07
728.24	267.61
728.57	267.08
728.90	266.59
729.23	266.09
729.56	265.65
729.89	265.19
730.22	264.67
730.55	264.18
730.89	263.74
731.22	263.36
731.55	262.91
731.88	262.55
732.21	262.09
732.54	261.62
732.87	261.20
733.20	260.78
733.53	260.40
733.86	260.02
734.19	259.62
734.52	259.23
734.85	258.92
735.18	258.48
735.51	258.13
735.84	257.78
736.17	257.42
736.50	257.03
736.83	256.79
737.16	256.45
737.49	256.12
737.82	255.75
738.15	255.40
738.48	255.09
738.81	254.70
739.14	254.44
739.47	254.16
739.80	253.83
740.13	253.51
740.46	253.17
740.79	252.87
741.12	252.59
741.45	252.27
741.78	251.90
742.11	251.61
742.44	251.32
742.77	251.01
743.10	250.72
743.43	250.45
743.75	250.07
744.08	249.92
744.41	249.67
744.74	249.43
745.07	249.15
745.40	248.87
745.73	248.62
746.06	248.30
746.39	248.06
746.71	247.75
747.04	247.51
747.37	247.23
747.70	246.96
748.03	246.70
748.36	246.49
748.68	246.22
749.01	245.99
749.34	245.75
749.67	245.53
750.00	245.34
750.33	245.15
750.65	244.93
750.98	244.59
751.31	244.39
751.64	244.18
751.97	244.01
752.29	243.81
752.62	243.57
752.95	243.42
753.28	243.22
753.60	243.05
753.93	242.89
754.26	242.71
754.59	242.49
754.91	242.28
755.24	242.03
755.57	241.85
755.90	241.66
756.22	241.47
756.55	241.26
756.88	241.05
757.20	240.85
757.53	240.67
757.86	240.50
758.19	240.33
758.51	240.12
758.84	239.92
759.17	239.73
759.49	239.54
759.82	239.39
760.15	239.24
760.47	239.10
760.80	238.91
761.13	238.78
761.45	238.63
761.78	238.49
762.11	238.40
762.43	238.26
762.76	238.13
763.08	238.00
763.41	237.90
763.74	237.77
764.06	237.62
764.39	237.48
764.71	237.31
765.04	237.18
765.37	237.07
765.69	236.98
766.02	236.88
766.34	236.79
766.67	236.63
767.00	236.54
767.32	236.47
767.65	236.46
767.97	236.34
768.30	236.21
768.62	236.08
768.95	235.94
769.27	235.82
769.60	235.71
769.92	235.56
770.25	235.47
770.57	235.34
770.90	235.25
771.22	235.15
771.55	235.07
771.87	234.97
772.20	234.84
772.52	234.79
772.85	234.82
773.17	234.70
773.50	234.60
773.82	234.45
774.15	234.29
774.47	234.12
774.80	234.02
775.12	233.98
775.45	233.89
775.77	233.85
776.09	233.76
776.42	233.68
776.74	233.65
777.07	233.57
777.39	233.49
777.72	233.40
778.04	233.30
778.36	233.27
778.69	233.21
779.01	233.17
779.33	233.03
779.66	232.83
779.98	232.78
780.31	232.71
780.63	232.72
780.95	232.65
781.28	232.58
781.60	232.52
781.92	232.44
782.25	232.39
782.57	232.32
782.89	232.29
783.22	232.23
783.54	232.15
783.86	232.11
784.19	232.05
784.51	232.03
784.83	231.99
785.16	231.92
785.48	231.87
785.80	231.83
786.12	231.79
786.45	231.73
786.77	231.69
787.09	231.64
