SpectraSuite Data File
++++++++++++++++++++++++++++++++++++
Date: Fri Feb 01 15:12:44 EST 2013
User: group
Dark Spectrum Present: No
Reference Spectrum Present: No
Number of Sampled Component Spectra: 1
Spectrometers: USB2E7196
Integration Time (usec): 35000 (USB2E7196)
Spectra Averaged: 100 (USB2E7196)
Boxcar Smoothing: 10 (USB2E7196)
Correct for Electrical Dark: No (USB2E7196)
Strobe/Lamp Enabled: No (USB2E7196)
Correct for Detector Non-linearity: No (USB2E7196)
Correct for Stray Light: No (USB2E7196)
Number of Pixels in Processed Spectrum: 2048
>>>>>Begin Processed Spectral Data<<<<<
339.09	0.00
339.48	215.22
339.86	216.23
340.24	217.64
340.63	219.56
341.01	222.31
341.39	221.95
341.78	223.04
342.16	224.78
342.54	225.31
342.93	213.54
343.31	224.35
343.69	224.87
344.07	225.33
344.46	225.78
344.84	226.14
345.22	226.36
345.60	226.63
345.99	226.83
346.37	226.99
346.75	227.08
347.13	227.13
347.52	227.16
347.90	227.27
348.28	227.29
348.66	227.33
349.05	227.29
349.43	227.33
349.81	227.36
350.19	227.42
350.57	227.46
350.96	227.52
351.34	227.58
351.72	227.70
352.10	227.81
352.48	227.86
352.87	227.95
353.25	228.02
353.63	228.08
354.01	228.14
354.39	228.20
354.77	228.26
355.15	228.39
355.54	228.49
355.92	228.48
356.30	228.52
356.68	228.67
357.06	228.76
357.44	228.79
357.82	228.85
358.20	228.92
358.58	228.99
358.97	229.06
359.35	229.15
359.73	229.22
360.11	229.25
360.49	229.32
360.87	229.35
361.25	229.41
361.63	229.46
362.01	229.51
362.39	229.52
362.77	229.56
363.15	229.57
363.53	229.57
363.91	229.60
364.29	229.67
364.67	229.54
365.05	229.52
365.43	229.54
365.81	229.57
366.19	229.58
366.57	229.58
366.95	229.59
367.33	229.54
367.71	229.52
368.09	229.55
368.47	229.50
368.85	229.45
369.23	229.42
369.61	229.38
369.99	229.39
370.37	229.33
370.75	229.35
371.13	229.28
371.51	229.23
371.89	229.21
372.27	229.14
372.65	229.09
373.03	229.02
373.41	228.95
373.78	228.87
374.16	228.75
374.54	228.65
374.92	228.54
375.30	228.45
375.68	228.37
376.06	228.29
376.44	228.22
376.82	228.20
377.19	228.12
377.57	228.04
377.95	227.91
378.33	227.85
378.71	227.71
379.09	227.66
379.47	227.58
379.84	227.50
380.22	227.42
380.60	227.36
380.98	227.34
381.36	227.27
381.73	227.21
382.11	227.18
382.49	227.14
382.87	227.08
383.25	227.02
383.62	227.05
384.00	226.95
384.38	226.89
384.76	226.84
385.13	226.83
385.51	226.79
385.89	226.72
386.27	226.68
386.64	226.64
387.02	226.60
387.40	226.56
387.78	226.51
388.15	226.48
388.53	226.43
388.91	226.37
389.29	226.35
389.66	226.31
390.04	226.28
390.42	226.29
390.79	226.31
391.17	226.34
391.55	226.23
391.92	226.24
392.30	226.26
392.68	226.23
393.05	226.21
393.43	226.23
393.81	226.26
394.18	226.28
394.56	226.31
394.94	226.37
395.31	226.37
395.69	226.45
396.06	226.51
396.44	226.58
396.82	226.64
397.19	226.74
397.57	226.79
397.95	226.87
398.32	226.88
398.70	226.96
399.07	227.02
399.45	227.08
399.82	227.16
400.20	227.24
400.58	227.32
400.95	227.35
401.33	227.46
401.70	227.60
402.08	227.68
402.45	227.77
402.83	227.87
403.20	228.03
403.58	228.13
403.95	228.30
404.33	228.44
404.71	228.57
405.08	228.74
405.46	228.88
405.83	229.04
406.21	229.19
406.58	229.34
406.96	229.50
407.33	229.71
407.70	229.91
408.08	230.18
408.45	230.42
408.83	230.66
409.20	230.85
409.58	231.07
409.95	231.35
410.33	231.62
410.70	231.88
411.08	232.17
411.45	232.48
411.82	232.74
412.20	233.11
412.57	233.55
412.95	233.83
413.32	234.26
413.69	234.68
414.07	235.13
414.44	235.58
414.82	236.05
415.19	236.59
415.56	237.17
415.94	237.70
416.31	238.37
416.68	239.02
417.06	239.76
417.43	240.42
417.81	241.19
418.18	242.00
418.55	242.82
418.93	243.70
419.30	244.61
419.67	245.54
420.04	246.48
420.42	247.46
420.79	248.66
421.16	249.80
421.54	250.98
421.91	252.21
422.28	253.46
422.66	254.82
423.03	256.13
423.40	257.45
423.77	258.84
424.15	260.27
424.52	261.76
424.89	263.38
425.26	264.96
425.64	266.41
426.01	267.98
426.38	269.67
426.75	271.33
427.13	273.04
427.50	274.84
427.87	276.69
428.24	278.57
428.61	280.33
428.99	282.30
429.36	284.42
429.73	286.53
430.10	288.57
430.47	290.60
430.85	292.75
431.22	295.01
431.59	297.42
431.96	299.65
432.33	302.17
432.70	304.56
433.08	307.38
433.45	310.02
433.82	312.62
434.19	315.52
434.56	318.36
434.93	321.02
435.30	323.69
435.68	326.65
436.05	329.46
436.42	332.24
436.79	334.78
437.16	337.41
437.53	340.24
437.90	343.05
438.27	345.81
438.64	348.65
439.01	351.25
439.38	353.47
439.75	355.67
440.13	358.11
440.50	360.44
440.87	362.29
441.24	364.25
441.61	366.43
441.98	367.91
442.35	369.69
442.72	371.53
443.09	373.31
443.46	374.35
443.83	374.95
444.20	375.46
444.57	376.28
444.94	376.59
445.31	376.93
445.68	377.26
446.05	377.32
446.42	376.91
446.79	376.45
447.16	376.00
447.53	375.69
447.90	374.54
448.27	373.39
448.64	371.82
449.01	370.68
449.37	368.71
449.74	366.77
450.11	364.53
450.48	362.09
450.85	359.52
451.22	357.30
451.59	355.24
451.96	353.28
452.33	350.65
452.70	348.33
453.07	345.44
453.43	342.51
453.80	339.76
454.17	337.00
454.54	334.40
454.91	331.67
455.28	328.96
455.65	326.51
456.02	324.04
456.38	321.87
456.75	319.21
457.12	316.95
457.49	314.77
457.86	312.57
458.23	310.71
458.59	308.66
458.96	306.56
459.33	304.71
459.70	302.85
460.07	301.33
460.43	299.60
460.80	298.00
461.17	296.58
461.54	295.05
461.91	293.68
462.27	292.26
462.64	291.01
463.01	289.64
463.38	288.28
463.74	286.88
464.11	285.69
464.48	284.63
464.85	283.51
465.21	282.61
465.58	281.68
465.95	280.57
466.32	279.66
466.68	278.77
467.05	277.87
467.42	276.98
467.78	276.06
468.15	275.14
468.52	274.46
468.88	273.61
469.25	272.85
469.62	272.22
469.98	271.54
470.35	270.93
470.72	270.29
471.08	269.64
471.45	269.10
471.82	268.57
472.18	267.96
472.55	267.51
472.92	266.97
473.28	266.48
473.65	266.03
474.02	265.61
474.38	265.23
474.75	264.89
475.11	264.53
475.48	264.21
475.85	264.00
476.21	263.76
476.58	263.53
476.94	263.37
477.31	263.20
477.67	263.09
478.04	262.99
478.41	262.96
478.77	263.00
479.14	262.93
479.50	262.94
479.87	263.03
480.23	263.13
480.60	263.21
480.96	263.31
481.33	263.52
481.69	263.72
482.06	263.91
482.42	264.09
482.79	264.36
483.15	264.73
483.52	265.13
483.88	265.48
484.25	265.92
484.61	266.37
484.98	266.79
485.34	267.32
485.71	267.90
486.07	268.50
486.44	269.06
486.80	269.77
487.17	270.47
487.53	271.29
487.90	272.12
488.26	273.04
488.62	274.04
488.99	275.01
489.35	276.04
489.72	277.15
490.08	278.38
490.44	279.64
490.81	280.94
491.17	282.25
491.54	283.73
491.90	285.25
492.26	286.89
492.63	288.68
492.99	290.47
493.36	292.33
493.72	294.37
494.08	296.49
494.45	298.77
494.81	301.12
495.17	303.50
495.54	306.08
495.90	308.79
496.26	311.57
496.63	314.48
496.99	317.61
497.35	320.90
497.72	324.29
498.08	327.76
498.44	331.43
498.80	335.34
499.17	339.35
499.53	343.46
499.89	347.79
500.26	352.25
500.62	356.96
500.98	361.92
501.34	366.95
501.71	372.26
502.07	377.61
502.43	383.22
502.79	389.01
503.16	395.07
503.52	401.31
503.88	407.70
504.24	414.30
504.60	421.15
504.97	428.23
505.33	435.54
505.69	443.23
506.05	450.95
506.41	458.82
506.78	467.03
507.14	475.50
507.50	484.17
507.86	493.14
508.22	502.22
508.59	511.45
508.95	521.02
509.31	530.79
509.67	540.90
510.03	551.14
510.39	561.70
510.75	572.47
511.12	583.47
511.48	594.75
511.84	606.27
512.20	617.78
512.56	629.77
512.92	641.92
513.28	654.25
513.64	666.78
514.00	679.55
514.37	692.51
514.73	705.55
515.09	718.66
515.45	732.01
515.81	745.66
516.17	759.67
516.53	773.82
516.89	788.05
517.25	802.25
517.61	816.77
517.97	831.32
518.33	845.79
518.69	860.48
519.05	875.47
519.41	890.68
519.77	906.25
520.13	921.70
520.49	937.21
520.85	952.74
521.21	968.56
521.57	984.82
521.93	1000.72
522.29	1017.19
522.65	1033.51
523.01	1049.83
523.37	1065.91
523.73	1082.08
524.09	1098.17
524.45	1114.50
524.81	1131.19
525.17	1148.09
525.53	1165.14
525.89	1182.02
526.25	1198.86
526.61	1215.43
526.97	1232.15
527.33	1248.67
527.68	1265.40
528.04	1281.88
528.40	1298.55
528.76	1315.59
529.12	1332.24
529.48	1349.12
529.84	1365.27
530.20	1381.94
530.56	1399.04
530.91	1416.49
531.27	1433.30
531.63	1449.99
531.99	1466.66
532.35	1482.74
532.71	1498.67
533.07	1514.83
533.42	1530.85
533.78	1546.98
534.14	1563.28
534.50	1578.63
534.86	1594.67
535.21	1609.99
535.57	1626.00
535.93	1641.53
536.29	1656.49
536.65	1671.65
537.00	1686.53
537.36	1701.93
537.72	1716.54
538.08	1730.92
538.44	1744.88
538.79	1758.95
539.15	1772.66
539.51	1786.51
539.87	1801.03
540.22	1814.85
540.58	1828.73
540.94	1842.24
541.29	1855.39
541.65	1868.03
542.01	1881.45
542.37	1893.78
542.72	1906.23
543.08	1918.05
543.44	1930.57
543.79	1941.75
544.15	1952.86
544.51	1964.44
544.87	1975.34
545.22	1986.12
545.58	1996.41
545.94	2006.13
546.29	2015.99
546.65	2025.82
547.01	2035.09
547.36	2043.68
547.72	2052.24
548.07	2060.10
548.43	2068.26
548.79	2076.32
549.14	2084.08
549.50	2091.46
549.86	2099.28
550.21	2106.48
550.57	2113.69
550.92	2120.18
551.28	2127.26
551.64	2134.30
551.99	2140.79
552.35	2147.08
552.70	2153.26
553.06	2159.38
553.41	2165.81
553.77	2171.90
554.13	2178.06
554.48	2184.15
554.84	2189.63
555.19	2194.94
555.55	2200.14
555.90	2204.55
556.26	2209.26
556.61	2213.98
556.97	2218.22
557.32	2222.27
557.68	2226.42
558.03	2230.69
558.39	2234.52
558.74	2239.18
559.10	2242.99
559.45	2246.65
559.81	2250.88
560.16	2254.76
560.52	2257.91
560.87	2261.33
561.23	2263.90
561.58	2266.81
561.94	2269.38
562.29	2271.80
562.64	2274.37
563.00	2277.03
563.35	2280.58
563.71	2283.80
564.06	2286.91
564.42	2289.73
564.77	2292.14
565.12	2294.37
565.48	2296.18
565.83	2297.77
566.19	2299.01
566.54	2300.02
566.89	2301.07
567.25	2301.49
567.60	2302.81
567.96	2304.23
568.31	2304.93
568.66	2305.92
569.02	2306.30
569.37	2306.54
569.72	2307.29
570.08	2307.33
570.43	2307.21
570.78	2306.41
571.14	2304.75
571.49	2303.30
571.84	2302.94
572.20	2301.61
572.55	2300.57
572.90	2299.01
573.26	2297.58
573.61	2295.89
573.96	2293.82
574.31	2290.78
574.67	2287.80
575.02	2283.99
575.37	2280.69
575.72	2276.67
576.08	2273.30
576.43	2270.03
576.78	2266.24
577.13	2263.05
577.49	2260.05
577.84	2256.45
578.19	2252.61
578.54	2248.81
578.90	2244.45
579.25	2238.73
579.60	2233.77
579.95	2228.68
580.30	2223.51
580.66	2218.30
581.01	2213.20
581.36	2208.23
581.71	2203.99
582.06	2199.28
582.42	2194.66
582.77	2189.33
583.12	2184.67
583.47	2179.76
583.82	2174.49
584.17	2169.17
584.53	2163.51
584.88	2157.73
585.23	2151.87
585.58	2146.46
585.93	2140.88
586.28	2136.02
586.63	2130.79
586.98	2125.67
587.34	2120.83
587.69	2115.93
588.04	2110.50
588.39	2104.72
588.74	2098.18
589.09	2091.85
589.44	2085.09
589.79	2079.14
590.14	2073.37
590.49	2066.86
590.84	2060.34
591.19	2054.22
591.54	2047.64
591.89	2040.02
592.25	2032.98
592.60	2025.63
592.95	2017.78
593.30	2010.38
593.65	2002.67
594.00	1995.66
594.35	1988.22
594.70	1979.95
595.05	1972.48
595.40	1965.32
595.75	1957.69
596.10	1951.32
596.45	1944.46
596.80	1938.14
597.15	1931.32
597.50	1924.03
597.85	1917.57
598.19	1910.80
598.54	1903.66
598.89	1896.98
599.24	1891.11
599.59	1884.34
599.94	1878.08
600.29	1871.92
600.64	1865.34
600.99	1857.89
601.34	1850.97
601.69	1844.16
602.04	1837.18
602.39	1830.02
602.74	1823.01
603.08	1816.31
603.43	1809.59
603.78	1802.35
604.13	1795.15
604.48	1787.81
604.83	1781.10
605.18	1773.93
605.53	1766.06
605.87	1757.98
606.22	1750.73
606.57	1742.81
606.92	1735.50
607.27	1728.27
607.62	1721.27
607.96	1713.96
608.31	1707.36
608.66	1699.71
609.01	1692.05
609.36	1684.63
609.70	1676.50
610.05	1668.42
610.40	1660.71
610.75	1652.29
611.10	1644.57
611.44	1636.39
611.79	1628.44
612.14	1619.66
612.49	1610.68
612.83	1602.27
613.18	1594.32
613.53	1586.32
613.88	1577.79
614.22	1569.52
614.57	1560.95
614.92	1552.94
615.27	1545.23
615.61	1536.86
615.96	1528.90
616.31	1521.21
616.65	1513.85
617.00	1506.30
617.35	1498.68
617.70	1490.24
618.04	1481.74
618.39	1473.56
618.74	1465.71
619.08	1457.33
619.43	1449.74
619.78	1442.75
620.12	1435.59
620.47	1428.06
620.82	1419.90
621.16	1412.42
621.51	1404.84
621.85	1397.31
622.20	1388.68
622.55	1380.54
622.89	1372.75
623.24	1365.18
623.59	1357.85
623.93	1350.26
624.28	1343.03
624.62	1335.47
624.97	1328.32
625.32	1321.68
625.66	1314.68
626.01	1307.51
626.35	1299.98
626.70	1292.30
627.04	1284.54
627.39	1276.86
627.73	1269.42
628.08	1262.42
628.43	1255.20
628.77	1247.79
629.12	1240.14
629.46	1233.06
629.81	1225.60
630.15	1218.32
630.50	1210.85
630.84	1202.66
631.19	1194.78
631.53	1187.38
631.88	1179.93
632.22	1172.41
632.57	1165.08
632.91	1157.54
633.26	1150.07
633.60	1142.98
633.95	1135.93
634.29	1128.94
634.64	1122.25
634.98	1114.83
635.32	1107.70
635.67	1101.06
636.01	1094.46
636.36	1087.73
636.70	1081.16
637.05	1074.63
637.39	1068.18
637.73	1061.77
638.08	1055.91
638.42	1049.99
638.77	1043.41
639.11	1036.77
639.45	1030.40
639.80	1023.76
640.14	1017.32
640.49	1010.89
640.83	1004.54
641.17	998.33
641.52	992.03
641.86	985.62
642.20	979.96
642.55	973.64
642.89	967.16
643.23	960.64
643.58	954.82
643.92	948.58
644.26	942.42
644.61	936.38
644.95	930.28
645.29	923.64
645.64	916.83
645.98	910.59
646.32	904.82
646.66	898.76
647.01	893.04
647.35	887.40
647.69	881.59
648.04	876.03
648.38	870.29
648.72	864.29
649.06	858.21
649.41	852.24
649.75	846.32
650.09	840.42
650.43	834.61
650.78	828.49
651.12	822.59
651.46	816.93
651.80	811.20
652.14	805.85
652.49	800.51
652.83	795.35
653.17	789.60
653.51	783.79
653.85	778.46
654.20	772.76
654.54	766.76
654.88	761.02
655.22	755.17
655.56	749.47
655.90	744.02
656.25	738.78
656.59	733.48
656.93	728.37
657.27	723.25
657.61	717.89
657.95	712.80
658.29	707.76
658.64	702.61
658.98	697.39
659.32	691.93
659.66	686.76
660.00	681.48
660.34	676.50
660.68	671.67
661.02	666.63
661.36	661.90
661.70	657.39
662.05	653.11
662.39	648.71
662.73	644.27
663.07	639.94
663.41	635.45
663.75	630.88
664.09	626.34
664.43	622.00
664.77	617.87
665.11	613.60
665.45	609.52
665.79	605.42
666.13	601.28
666.47	597.19
666.81	593.02
667.15	588.92
667.49	585.11
667.83	581.32
668.17	577.43
668.51	573.31
668.85	569.35
669.19	565.47
669.53	561.65
669.87	557.77
670.21	554.05
670.55	550.48
670.89	547.08
671.23	543.62
671.57	540.09
671.91	536.53
672.25	533.14
672.58	529.63
672.92	526.26
673.26	523.14
673.60	520.00
673.94	516.91
674.28	514.08
674.62	511.14
674.96	508.04
675.30	505.11
675.64	502.22
675.97	499.46
676.31	496.59
676.65	493.72
676.99	490.98
677.33	488.13
677.67	485.30
678.01	482.24
678.34	479.26
678.68	476.39
679.02	473.60
679.36	470.81
679.70	468.06
680.04	465.24
680.37	462.35
680.71	459.59
681.05	457.01
681.39	454.29
681.73	451.64
682.06	449.13
682.40	446.59
682.74	444.10
683.08	441.58
683.42	439.05
683.75	436.52
684.09	434.03
684.43	431.55
684.77	429.18
685.10	426.89
685.44	424.61
685.78	422.35
686.12	420.10
686.45	417.82
686.79	415.52
687.13	413.40
687.46	411.24
687.80	409.10
688.14	406.88
688.48	404.84
688.81	402.66
689.15	400.49
689.49	398.35
689.82	396.33
690.16	394.30
690.50	392.35
690.83	390.47
691.17	388.50
691.51	386.64
691.84	384.73
692.18	382.76
692.52	380.81
692.85	378.87
693.19	377.03
693.52	375.22
693.86	373.44
694.20	371.63
694.53	369.84
694.87	368.00
695.21	366.18
695.54	364.35
695.88	362.58
696.21	360.87
696.55	359.21
696.88	357.48
697.22	355.80
697.56	354.19
697.89	352.53
698.23	350.95
698.56	349.36
698.90	347.80
699.23	346.16
699.57	344.64
699.90	343.09
700.24	341.53
700.58	339.99
700.91	338.52
701.25	337.10
701.58	335.72
701.92	334.33
702.25	332.99
702.59	331.61
702.92	330.35
703.26	329.05
703.59	327.75
703.93	326.56
704.26	325.31
704.60	323.98
704.93	322.69
705.26	321.41
705.60	320.23
705.93	319.06
706.27	318.09
706.60	317.06
706.94	316.01
707.27	314.91
707.61	313.87
707.94	312.86
708.27	311.72
708.61	310.68
708.94	309.71
709.28	308.74
709.61	307.80
709.94	306.85
710.28	305.86
710.61	304.88
710.95	303.83
711.28	302.92
711.61	301.97
711.95	301.07
712.28	300.14
712.61	299.14
712.95	298.20
713.28	297.29
713.61	296.36
713.95	295.44
714.28	294.59
714.61	293.71
714.95	292.87
715.28	292.04
715.61	291.18
715.95	290.29
716.28	289.43
716.61	288.61
716.95	287.75
717.28	287.00
717.61	286.27
717.94	285.50
718.28	284.71
718.61	284.02
718.94	283.33
719.27	282.67
719.61	282.04
719.94	281.38
720.27	280.65
720.60	280.02
720.94	279.43
721.27	278.85
721.60	278.25
721.93	277.60
722.27	277.08
722.60	276.51
722.93	275.94
723.26	275.41
723.59	274.83
723.93	274.28
724.26	273.67
724.59	273.08
724.92	272.59
725.25	272.07
725.59	271.52
725.92	271.01
726.25	270.50
726.58	270.01
726.91	269.54
727.24	269.13
727.57	268.64
727.91	268.10
728.24	267.64
728.57	267.16
728.90	266.75
729.23	266.23
729.56	265.84
729.89	265.41
730.22	264.92
730.55	264.46
730.89	264.06
731.22	263.64
731.55	263.23
731.88	262.77
732.21	262.36
732.54	261.97
732.87	261.54
733.20	261.15
733.53	260.77
733.86	260.39
734.19	259.97
734.52	259.59
734.85	259.36
735.18	258.93
735.51	258.59
735.84	258.19
736.17	257.84
736.50	257.44
736.83	257.22
737.16	256.87
737.49	256.57
737.82	256.22
738.15	255.91
738.48	255.62
738.81	255.30
739.14	254.97
739.47	254.61
739.80	254.32
740.13	254.02
740.46	253.69
740.79	253.36
741.12	253.08
741.45	252.74
741.78	252.36
742.11	252.11
742.44	251.78
742.77	251.56
743.10	251.28
743.43	250.96
743.75	250.60
744.08	250.47
744.41	250.21
744.74	249.95
745.07	249.66
745.40	249.39
745.73	249.18
746.06	248.94
746.39	248.66
746.71	248.41
747.04	248.11
747.37	247.87
747.70	247.61
748.03	247.33
748.36	247.12
748.68	246.88
749.01	246.60
749.34	246.37
749.67	246.09
750.00	245.86
750.33	245.71
750.65	245.46
750.98	245.13
751.31	244.89
751.64	244.64
751.97	244.50
752.29	244.27
752.62	243.99
752.95	243.75
753.28	243.54
753.60	243.36
753.93	243.21
754.26	242.99
754.59	242.76
754.91	242.54
755.24	242.35
755.57	242.16
755.90	241.98
756.22	241.78
756.55	241.58
756.88	241.39
757.20	241.14
757.53	240.96
757.86	240.74
758.19	240.56
758.51	240.40
758.84	240.14
759.17	239.95
759.49	239.81
759.82	239.68
760.15	239.55
760.47	239.35
760.80	239.14
761.13	239.00
761.45	238.83
761.78	238.70
762.11	238.54
762.43	238.38
762.76	238.24
763.08	238.10
763.41	237.96
763.74	237.84
764.06	237.69
764.39	237.54
764.71	237.41
765.04	237.28
765.37	237.14
765.69	237.06
766.02	236.93
766.34	236.81
766.67	236.65
767.00	236.53
767.32	236.50
767.65	236.46
767.97	236.35
768.30	236.25
768.62	236.14
768.95	236.05
769.27	235.97
769.60	235.87
769.92	235.78
770.25	235.70
770.57	235.56
770.90	235.49
771.22	235.39
771.55	235.32
771.87	235.22
772.20	235.10
772.52	235.07
772.85	235.12
773.17	235.00
773.50	234.94
773.82	234.85
774.15	234.69
774.47	234.53
774.80	234.44
775.12	234.36
775.45	234.29
775.77	234.21
776.09	234.13
776.42	234.07
776.74	234.00
777.07	233.94
777.39	233.84
777.72	233.75
778.04	233.71
778.36	233.67
778.69	233.60
779.01	233.58
779.33	233.43
779.66	233.26
779.98	233.24
780.31	233.18
780.63	233.16
780.95	233.15
781.28	233.11
781.60	233.03
781.92	233.00
782.25	232.96
782.57	232.91
782.89	232.83
783.22	232.76
783.54	232.71
783.86	232.65
784.19	232.62
784.51	232.61
784.83	232.54
785.16	232.46
785.48	232.44
785.80	232.38
786.12	232.35
786.45	232.33
786.77	232.27
787.09	232.22
