SpectraSuite Data File
++++++++++++++++++++++++++++++++++++
Date: Fri Feb 01 17:42:58 EST 2013
User: group
Dark Spectrum Present: No
Reference Spectrum Present: No
Number of Sampled Component Spectra: 1
Spectrometers: USB2E7196
Integration Time (usec): 35000 (USB2E7196)
Spectra Averaged: 100 (USB2E7196)
Boxcar Smoothing: 10 (USB2E7196)
Correct for Electrical Dark: No (USB2E7196)
Strobe/Lamp Enabled: No (USB2E7196)
Correct for Detector Non-linearity: No (USB2E7196)
Correct for Stray Light: No (USB2E7196)
Number of Pixels in Processed Spectrum: 2048
>>>>>Begin Processed Spectral Data<<<<<
339.09	0.00
339.48	213.08
339.86	213.95
340.24	215.48
340.63	216.80
341.01	219.87
341.39	219.49
341.78	220.92
342.16	222.21
342.54	222.23
342.93	211.06
343.31	221.71
343.69	222.25
344.07	222.73
344.46	223.16
344.84	223.55
345.22	223.78
345.60	224.03
345.99	224.22
346.37	224.33
346.75	224.45
347.13	224.52
347.52	224.58
347.90	224.65
348.28	224.67
348.66	224.70
349.05	224.68
349.43	224.70
349.81	224.74
350.19	224.78
350.57	224.86
350.96	224.97
351.34	225.06
351.72	225.13
352.10	225.21
352.48	225.29
352.87	225.30
353.25	225.37
353.63	225.44
354.01	225.51
354.39	225.62
354.77	225.71
355.15	225.79
355.54	225.85
355.92	225.88
356.30	225.96
356.68	226.11
357.06	226.21
357.44	226.27
357.82	226.34
358.20	226.38
358.58	226.47
358.97	226.53
359.35	226.61
359.73	226.66
360.11	226.69
360.49	226.72
360.87	226.79
361.25	226.87
361.63	226.95
362.01	227.03
362.39	227.03
362.77	227.06
363.15	227.13
363.53	227.17
363.91	227.18
364.29	227.23
364.67	227.14
365.05	227.13
365.43	227.15
365.81	227.18
366.19	227.24
366.57	227.24
366.95	227.22
367.33	227.21
367.71	227.24
368.09	227.28
368.47	227.26
368.85	227.28
369.23	227.26
369.61	227.18
369.99	227.18
370.37	227.18
370.75	227.20
371.13	227.15
371.51	227.11
371.89	227.11
372.27	227.04
372.65	227.02
373.03	226.98
373.41	226.91
373.78	226.85
374.16	226.74
374.54	226.68
374.92	226.62
375.30	226.56
375.68	226.46
376.06	226.39
376.44	226.36
376.82	226.27
377.19	226.19
377.57	226.13
377.95	225.98
378.33	225.90
378.71	225.80
379.09	225.72
379.47	225.68
379.84	225.57
380.22	225.48
380.60	225.39
380.98	225.33
381.36	225.29
381.73	225.18
382.11	225.18
382.49	225.13
382.87	225.04
383.25	224.99
383.62	225.06
384.00	224.99
384.38	224.91
384.76	224.90
385.13	224.90
385.51	224.84
385.89	224.85
386.27	224.82
386.64	224.77
387.02	224.73
387.40	224.69
387.78	224.68
388.15	224.70
388.53	224.67
388.91	224.66
389.29	224.60
389.66	224.63
390.04	224.54
390.42	224.50
390.79	224.53
391.17	224.48
391.55	224.36
391.92	224.37
392.30	224.39
392.68	224.35
393.05	224.34
393.43	224.36
393.81	224.36
394.18	224.33
394.56	224.33
394.94	224.33
395.31	224.34
395.69	224.37
396.06	224.40
396.44	224.45
396.82	224.45
397.19	224.53
397.57	224.55
397.95	224.61
398.32	224.67
398.70	224.71
399.07	224.77
399.45	224.81
399.82	224.83
400.20	224.89
400.58	224.96
400.95	224.97
401.33	225.07
401.70	225.16
402.08	225.24
402.45	225.36
402.83	225.51
403.20	225.60
403.58	225.72
403.95	225.84
404.33	225.95
404.71	226.08
405.08	226.26
405.46	226.38
405.83	226.54
406.21	226.66
406.58	226.84
406.96	227.02
407.33	227.23
407.70	227.45
408.08	227.73
408.45	227.96
408.83	228.25
409.20	228.47
409.58	228.69
409.95	228.97
410.33	229.26
410.70	229.49
411.08	229.83
411.45	230.17
411.82	230.48
412.20	230.90
412.57	231.38
412.95	231.74
413.32	232.22
413.69	232.70
414.07	233.25
414.44	233.77
414.82	234.36
415.19	235.00
415.56	235.65
415.94	236.30
416.31	237.07
416.68	237.80
417.06	238.66
417.43	239.48
417.81	240.41
418.18	241.33
418.55	242.36
418.93	243.42
419.30	244.46
419.67	245.59
420.04	246.72
420.42	247.90
420.79	249.31
421.16	250.67
421.54	252.10
421.91	253.53
422.28	255.03
422.66	256.60
423.03	258.13
423.40	259.71
423.77	261.36
424.15	263.03
424.52	264.82
424.89	266.75
425.26	268.63
425.64	270.38
426.01	272.34
426.38	274.32
426.75	276.36
427.13	278.43
427.50	280.61
427.87	282.87
428.24	285.12
428.61	287.22
428.99	289.55
429.36	292.05
429.73	294.54
430.10	296.99
430.47	299.51
430.85	302.10
431.22	304.78
431.59	307.64
431.96	310.39
432.33	313.29
432.70	316.12
433.08	319.45
433.45	322.62
433.82	325.72
434.19	329.18
434.56	332.51
434.93	335.69
435.30	338.81
435.68	342.29
436.05	345.64
436.42	349.00
436.79	352.06
437.16	355.35
437.53	358.71
437.90	362.03
438.27	365.24
438.64	368.55
439.01	371.67
439.38	374.39
439.75	376.96
440.13	379.98
440.50	382.79
440.87	385.00
441.24	387.27
441.61	389.82
441.98	391.57
442.35	393.73
442.72	396.01
443.09	398.20
443.46	399.37
443.83	400.09
444.20	400.68
444.57	401.67
444.94	402.01
445.31	402.44
445.68	402.89
446.05	403.03
446.42	402.65
446.79	402.17
447.16	401.63
447.53	401.29
447.90	399.97
448.27	398.60
448.64	396.73
449.01	395.41
449.37	393.11
449.74	390.94
450.11	388.30
450.48	385.34
450.85	382.30
451.22	379.78
451.59	377.39
451.96	375.10
452.33	371.97
452.70	369.15
453.07	365.81
453.43	362.41
453.80	359.11
454.17	355.90
454.54	352.85
454.91	349.58
455.28	346.34
455.65	343.33
456.02	340.36
456.38	337.81
456.75	334.61
457.12	331.91
457.49	329.19
457.86	326.54
458.23	324.29
458.59	321.87
458.96	319.33
459.33	317.10
459.70	314.85
460.07	313.00
460.43	310.97
460.80	308.98
461.17	307.20
461.54	305.39
461.91	303.67
462.27	301.90
462.64	300.41
463.01	298.80
463.38	297.24
463.74	295.64
464.11	294.24
464.48	293.03
464.85	291.66
465.21	290.59
465.58	289.50
465.95	288.17
466.32	287.05
466.68	285.96
467.05	284.87
467.42	283.79
467.78	282.71
468.15	281.60
468.52	280.79
468.88	279.75
469.25	278.81
469.62	278.07
469.98	277.27
470.35	276.51
470.72	275.79
471.08	275.00
471.45	274.36
471.82	273.69
472.18	272.94
472.55	272.44
472.92	271.85
473.28	271.27
473.65	270.72
474.02	270.18
474.38	269.74
474.75	269.35
475.11	268.91
475.48	268.60
475.85	268.32
476.21	268.05
476.58	267.83
476.94	267.60
477.31	267.38
477.67	267.16
478.04	267.00
478.41	266.89
478.77	266.87
479.14	266.71
479.50	266.69
479.87	266.75
480.23	266.81
480.60	266.80
480.96	266.86
481.33	267.05
481.69	267.23
482.06	267.42
482.42	267.59
482.79	267.90
483.15	268.17
483.52	268.54
483.88	268.87
484.25	269.22
484.61	269.68
484.98	270.12
485.34	270.70
485.71	271.32
486.07	271.92
486.44	272.46
486.80	273.21
487.17	273.90
487.53	274.77
487.90	275.63
488.26	276.61
488.62	277.62
488.99	278.62
489.35	279.67
489.72	280.81
490.08	282.04
490.44	283.27
490.81	284.62
491.17	286.04
491.54	287.54
491.90	289.09
492.26	290.74
492.63	292.54
492.99	294.38
493.36	296.29
493.72	298.42
494.08	300.62
494.45	302.96
494.81	305.40
495.17	307.82
495.54	310.43
495.90	313.14
496.26	315.99
496.63	319.04
496.99	322.23
497.35	325.53
497.72	329.00
498.08	332.62
498.44	336.37
498.80	340.36
499.17	344.51
499.53	348.82
499.89	353.25
500.26	357.83
500.62	362.58
500.98	367.67
501.34	372.83
501.71	378.27
502.07	383.79
502.43	389.53
502.79	395.48
503.16	401.68
503.52	408.14
503.88	414.67
504.24	421.41
504.60	428.44
504.97	435.69
505.33	443.14
505.69	450.99
506.05	458.98
506.41	467.05
506.78	475.33
507.14	484.03
507.50	492.96
507.86	502.12
508.22	511.48
508.59	520.94
508.95	530.65
509.31	540.65
509.67	550.97
510.03	561.51
510.39	572.33
510.75	583.36
511.12	594.47
511.48	606.13
511.84	617.94
512.20	629.75
512.56	642.00
512.92	654.46
513.28	667.13
513.64	679.90
514.00	692.88
514.37	706.22
514.73	719.58
515.09	732.95
515.45	746.66
515.81	760.66
516.17	774.91
516.53	789.53
516.89	804.23
517.25	818.83
517.61	833.69
517.97	848.60
518.33	863.42
518.69	878.66
519.05	894.06
519.41	909.56
519.77	925.59
520.13	941.57
520.49	957.56
520.85	973.34
521.21	989.53
521.57	1006.29
521.93	1022.58
522.29	1039.46
522.65	1056.27
523.01	1073.04
523.37	1089.69
523.73	1106.45
524.09	1123.05
524.45	1139.85
524.81	1157.11
525.17	1174.50
525.53	1191.98
525.89	1209.63
526.25	1227.22
526.61	1244.17
526.97	1261.70
527.33	1278.79
527.68	1296.02
528.04	1313.16
528.40	1330.47
528.76	1348.44
529.12	1365.70
529.48	1383.37
529.84	1400.14
530.20	1417.52
530.56	1435.22
530.91	1453.29
531.27	1470.92
531.63	1488.22
531.99	1505.69
532.35	1522.49
532.71	1539.21
533.07	1556.36
533.42	1573.05
533.78	1590.02
534.14	1607.31
534.50	1623.55
534.86	1640.40
535.21	1656.52
535.57	1673.25
535.93	1689.70
536.29	1705.29
536.65	1721.43
537.00	1737.13
537.36	1753.51
537.72	1769.01
538.08	1784.45
538.44	1799.37
538.79	1814.33
539.15	1828.95
539.51	1843.52
539.87	1858.91
540.22	1873.79
540.58	1888.73
540.94	1903.05
541.29	1916.76
541.65	1930.49
542.01	1944.80
542.37	1958.22
542.72	1971.76
543.08	1984.97
543.44	1998.70
543.79	2011.14
544.15	2023.17
544.51	2035.93
544.87	2047.94
545.22	2059.93
545.58	2071.35
545.94	2082.28
546.29	2093.29
546.65	2104.44
547.01	2115.01
547.36	2124.86
547.72	2134.44
548.07	2143.37
548.43	2152.77
548.79	2161.77
549.14	2170.64
549.50	2179.09
549.86	2187.88
550.21	2196.30
550.57	2204.41
550.92	2212.00
551.28	2220.28
551.64	2228.59
551.99	2236.06
552.35	2243.41
552.70	2250.68
553.06	2257.79
553.41	2265.20
553.77	2272.26
554.13	2279.36
554.48	2286.59
554.84	2293.48
555.19	2299.73
555.55	2306.07
555.90	2311.68
556.26	2318.11
556.61	2323.67
556.97	2329.17
557.32	2334.27
557.68	2339.52
558.03	2344.76
558.39	2349.39
558.74	2354.83
559.10	2359.64
559.45	2364.27
559.81	2369.46
560.16	2374.14
560.52	2378.36
560.87	2382.66
561.23	2386.21
561.58	2389.87
561.94	2393.41
562.29	2396.23
562.64	2399.99
563.00	2403.23
563.35	2407.41
563.71	2411.41
564.06	2415.45
564.42	2418.93
564.77	2422.35
565.12	2425.62
565.48	2428.50
565.83	2431.06
566.19	2433.28
566.54	2434.93
566.89	2437.03
567.25	2438.37
567.60	2440.55
567.96	2443.12
568.31	2444.67
568.66	2446.58
569.02	2448.01
569.37	2448.76
569.72	2450.48
570.08	2451.20
570.43	2451.76
570.78	2451.87
571.14	2450.55
571.49	2449.60
571.84	2449.82
572.20	2449.22
572.55	2448.47
572.90	2447.30
573.26	2446.61
573.61	2445.11
573.96	2443.88
574.31	2441.23
574.67	2438.55
575.02	2435.12
575.37	2431.77
575.72	2428.29
576.08	2425.08
576.43	2421.84
576.78	2418.68
577.13	2415.53
577.49	2412.54
577.84	2409.48
578.19	2405.88
578.54	2402.59
578.90	2398.75
579.25	2393.27
579.60	2388.40
579.95	2383.50
580.30	2378.52
580.66	2373.38
581.01	2368.34
581.36	2363.11
581.71	2359.16
582.06	2354.92
582.42	2350.56
582.77	2345.39
583.12	2340.86
583.47	2336.30
583.82	2331.60
584.17	2326.21
584.53	2320.74
584.88	2315.07
585.23	2309.17
585.58	2303.62
585.93	2298.08
586.28	2292.99
586.63	2288.05
586.98	2282.78
587.34	2277.82
587.69	2272.67
588.04	2267.41
588.39	2261.85
588.74	2255.28
589.09	2248.69
589.44	2241.75
589.79	2235.22
590.14	2229.29
590.49	2222.42
590.84	2215.62
591.19	2209.17
591.54	2202.49
591.89	2194.92
592.25	2187.98
592.60	2180.51
592.95	2172.67
593.30	2164.91
593.65	2156.93
594.00	2149.29
594.35	2141.66
594.70	2133.14
595.05	2125.72
595.40	2117.81
595.75	2109.76
596.10	2103.36
596.45	2096.31
596.80	2089.50
597.15	2082.70
597.50	2075.64
597.85	2068.64
598.19	2061.74
598.54	2054.34
598.89	2047.12
599.24	2040.71
599.59	2033.69
599.94	2026.88
600.29	2019.98
600.64	2012.84
600.99	2004.99
601.34	1997.73
601.69	1990.15
602.04	1982.95
602.39	1975.00
602.74	1967.74
603.08	1960.62
603.43	1953.27
603.78	1945.43
604.13	1937.66
604.48	1930.05
604.83	1922.38
605.18	1915.10
605.53	1906.35
605.87	1897.57
606.22	1889.78
606.57	1881.17
606.92	1872.94
607.27	1865.25
607.62	1857.76
607.96	1850.06
608.31	1842.99
608.66	1834.74
609.01	1826.76
609.36	1818.52
609.70	1809.84
610.05	1801.03
610.40	1792.68
610.75	1783.70
611.10	1775.25
611.44	1766.16
611.79	1757.20
612.14	1747.66
612.49	1737.57
612.83	1728.42
613.18	1719.55
613.53	1710.57
613.88	1701.30
614.22	1692.33
614.57	1682.82
614.92	1674.00
615.27	1665.83
615.61	1656.65
615.96	1647.87
616.31	1639.29
616.65	1631.14
617.00	1622.89
617.35	1614.40
617.70	1605.35
618.04	1596.04
618.39	1586.96
618.74	1578.65
619.08	1569.54
619.43	1561.26
619.78	1553.59
620.12	1545.74
620.47	1537.43
620.82	1528.46
621.16	1520.12
621.51	1511.72
621.85	1503.36
622.20	1494.11
622.55	1484.76
622.89	1476.25
623.24	1467.84
623.59	1459.74
623.93	1451.56
624.28	1443.54
624.62	1435.37
624.97	1427.33
625.32	1419.79
625.66	1412.00
626.01	1404.11
626.35	1396.18
626.70	1387.64
627.04	1379.21
627.39	1370.67
627.73	1362.55
628.08	1355.07
628.43	1347.26
628.77	1339.23
629.12	1330.99
629.46	1323.15
629.81	1314.86
630.15	1306.71
630.50	1298.67
630.84	1289.85
631.19	1281.06
631.53	1272.80
631.88	1264.51
632.22	1256.16
632.57	1248.12
632.91	1239.98
633.26	1231.89
633.60	1223.69
633.95	1215.80
634.29	1208.09
634.64	1200.73
634.98	1192.67
635.32	1184.82
635.67	1177.54
636.01	1170.25
636.36	1162.84
636.70	1155.64
637.05	1148.65
637.39	1141.72
637.73	1134.64
638.08	1128.09
638.42	1121.58
638.77	1114.61
639.11	1107.50
639.45	1100.59
639.80	1093.42
640.14	1086.52
640.49	1079.42
640.83	1072.62
641.17	1065.96
641.52	1059.20
641.86	1052.14
642.20	1045.94
642.55	1039.03
642.89	1032.02
643.23	1024.80
643.58	1018.56
643.92	1011.88
644.26	1005.29
644.61	998.61
644.95	991.99
645.29	984.85
645.64	977.64
645.98	970.67
646.32	964.13
646.66	957.55
647.01	951.22
647.35	944.99
647.69	938.54
648.04	932.43
648.38	926.26
648.72	919.65
649.06	913.18
649.41	906.68
649.75	900.27
650.09	893.71
650.43	887.49
650.78	880.85
651.12	874.51
651.46	868.19
651.80	862.14
652.14	856.24
652.49	850.50
652.83	844.77
653.17	838.75
653.51	832.75
653.85	826.87
654.20	820.81
654.54	814.30
654.88	808.13
655.22	801.73
655.56	795.34
655.90	789.45
656.25	783.74
656.59	777.91
656.93	772.40
657.27	766.92
657.61	761.00
657.95	755.35
658.29	749.68
658.64	743.96
658.98	738.09
659.32	732.14
659.66	726.45
660.00	720.79
660.34	715.41
660.68	710.02
661.02	704.57
661.36	699.51
661.70	694.59
662.05	689.86
662.39	685.21
662.73	680.43
663.07	675.64
663.41	670.84
663.75	666.05
664.09	661.07
664.43	656.27
664.77	651.87
665.11	647.35
665.45	642.90
665.79	638.58
666.13	634.16
666.47	629.82
666.81	625.38
667.15	620.89
667.49	616.54
667.83	612.27
668.17	607.95
668.51	603.54
668.85	599.20
669.19	594.99
669.53	590.82
669.87	586.67
670.21	582.70
670.55	578.65
670.89	574.89
671.23	571.14
671.57	567.33
671.91	563.48
672.25	559.59
672.58	555.77
672.92	551.99
673.26	548.48
673.60	545.02
673.94	541.65
674.28	538.49
674.62	535.36
674.96	532.12
675.30	529.05
675.64	525.92
675.97	522.85
676.31	519.77
676.65	516.64
676.99	513.64
677.33	510.47
677.67	507.47
678.01	504.19
678.34	501.05
678.68	497.89
679.02	494.86
679.36	491.92
679.70	488.93
680.04	486.02
680.37	483.01
680.71	480.03
681.05	477.18
681.39	474.27
681.73	471.39
682.06	468.60
682.40	465.83
682.74	463.01
683.08	460.28
683.42	457.47
683.75	454.69
684.09	451.95
684.43	449.28
684.77	446.60
685.10	444.01
685.44	441.46
685.78	439.03
686.12	436.57
686.45	434.06
686.79	431.64
687.13	429.18
687.46	426.83
687.80	424.45
688.14	421.95
688.48	419.64
688.81	417.25
689.15	414.92
689.49	412.56
689.82	410.28
690.16	407.94
690.50	405.74
690.83	403.64
691.17	401.50
691.51	399.43
691.84	397.42
692.18	395.37
692.52	393.26
692.85	391.13
693.19	389.10
693.52	387.08
693.86	385.06
694.20	383.11
694.53	381.11
694.87	379.07
695.21	377.11
695.54	375.14
695.88	373.22
696.21	371.33
696.55	369.48
696.88	367.63
697.22	365.86
697.56	364.09
697.89	362.25
698.23	360.50
698.56	358.71
698.90	356.97
699.23	355.19
699.57	353.52
699.90	351.85
700.24	350.12
700.58	348.48
700.91	346.88
701.25	345.32
701.58	343.82
701.92	342.35
702.25	340.92
702.59	339.45
702.92	338.01
703.26	336.61
703.59	335.28
703.93	334.02
704.26	332.70
704.60	331.31
704.93	330.01
705.26	328.63
705.60	327.34
705.93	326.10
706.27	324.96
706.60	323.76
706.94	322.58
707.27	321.37
707.61	320.19
707.94	319.01
708.27	317.83
708.61	316.66
708.94	315.55
709.28	314.46
709.61	313.37
709.94	312.31
710.28	311.23
710.61	310.13
710.95	308.96
711.28	307.90
711.61	306.85
711.95	305.78
712.28	304.78
712.61	303.76
712.95	302.71
713.28	301.73
713.61	300.76
713.95	299.85
714.28	298.95
714.61	298.00
714.95	297.13
715.28	296.18
715.61	295.23
715.95	294.28
716.28	293.36
716.61	292.46
716.95	291.55
717.28	290.69
717.61	289.87
717.94	289.03
718.28	288.15
718.61	287.34
718.94	286.58
719.27	285.85
719.61	285.11
719.94	284.39
720.27	283.61
720.60	282.90
720.94	282.14
721.27	281.44
721.60	280.82
721.93	280.13
722.27	279.56
722.60	278.96
722.93	278.35
723.26	277.77
723.59	277.13
723.93	276.56
724.26	275.94
724.59	275.32
724.92	274.74
725.25	274.23
725.59	273.73
725.92	273.15
726.25	272.58
726.58	272.02
726.91	271.48
727.24	270.93
727.57	270.38
727.91	269.81
728.24	269.30
728.57	268.74
728.90	268.24
729.23	267.65
729.56	267.16
729.89	266.63
730.22	266.10
730.55	265.58
730.89	265.01
731.22	264.56
731.55	264.07
731.88	263.60
732.21	263.14
732.54	262.63
732.87	262.18
733.20	261.71
733.53	261.29
733.86	260.84
734.19	260.44
734.52	260.02
734.85	259.68
735.18	259.23
735.51	258.82
735.84	258.39
736.17	258.01
736.50	257.57
736.83	257.30
737.16	256.92
737.49	256.55
737.82	256.22
738.15	255.80
738.48	255.42
738.81	255.08
739.14	254.70
739.47	254.35
739.80	254.02
740.13	253.70
740.46	253.34
740.79	253.00
741.12	252.63
741.45	252.32
741.78	251.93
742.11	251.65
742.44	251.33
742.77	251.04
743.10	250.74
743.43	250.42
743.75	250.03
744.08	249.82
744.41	249.56
744.74	249.31
745.07	249.01
745.40	248.72
745.73	248.43
746.06	248.16
746.39	247.88
746.71	247.59
747.04	247.29
747.37	247.02
747.70	246.76
748.03	246.50
748.36	246.25
748.68	246.06
749.01	245.76
749.34	245.53
749.67	245.31
750.00	245.06
750.33	244.90
750.65	244.67
750.98	244.32
751.31	244.07
751.64	243.79
751.97	243.63
752.29	243.43
752.62	243.16
752.95	242.93
753.28	242.68
753.60	242.48
753.93	242.29
754.26	242.10
754.59	241.87
754.91	241.64
755.24	241.42
755.57	241.17
755.90	240.99
756.22	240.76
756.55	240.50
756.88	240.30
757.20	240.02
757.53	239.78
757.86	239.58
758.19	239.39
758.51	239.21
758.84	239.01
759.17	238.79
759.49	238.61
759.82	238.46
760.15	238.30
760.47	238.13
760.80	237.91
761.13	237.72
761.45	237.56
761.78	237.40
762.11	237.24
762.43	237.09
762.76	236.92
763.08	236.79
763.41	236.64
763.74	236.48
764.06	236.30
764.39	236.17
764.71	236.04
765.04	235.92
765.37	235.76
765.69	235.57
766.02	235.46
766.34	235.32
766.67	235.17
767.00	235.08
767.32	234.99
767.65	234.95
767.97	234.85
768.30	234.73
768.62	234.61
768.95	234.48
769.27	234.33
769.60	234.18
769.92	234.01
770.25	233.87
770.57	233.75
770.90	233.65
771.22	233.54
771.55	233.46
771.87	233.33
772.20	233.22
772.52	233.21
772.85	233.20
773.17	233.12
773.50	233.01
773.82	232.87
774.15	232.71
774.47	232.57
774.80	232.46
775.12	232.33
775.45	232.22
775.77	232.14
776.09	232.08
776.42	231.97
776.74	231.94
777.07	231.87
777.39	231.78
777.72	231.70
778.04	231.67
778.36	231.60
778.69	231.52
779.01	231.49
779.33	231.35
779.66	231.17
779.98	231.08
780.31	230.99
780.63	230.95
780.95	230.93
781.28	230.84
781.60	230.78
781.92	230.76
782.25	230.71
782.57	230.64
782.89	230.56
783.22	230.54
783.54	230.44
783.86	230.38
784.19	230.32
784.51	230.32
784.83	230.23
785.16	230.14
785.48	230.07
785.80	229.99
786.12	229.90
786.45	229.84
786.77	229.83
