SpectraSuite Data File
++++++++++++++++++++++++++++++++++++
Date: Fri Feb 01 14:56:51 EST 2013
User: group
Dark Spectrum Present: No
Reference Spectrum Present: No
Number of Sampled Component Spectra: 1
Spectrometers: USB2E7196
Integration Time (usec): 35000 (USB2E7196)
Spectra Averaged: 100 (USB2E7196)
Boxcar Smoothing: 10 (USB2E7196)
Correct for Electrical Dark: No (USB2E7196)
Strobe/Lamp Enabled: No (USB2E7196)
Correct for Detector Non-linearity: No (USB2E7196)
Correct for Stray Light: No (USB2E7196)
Number of Pixels in Processed Spectrum: 2048
>>>>>Begin Processed Spectral Data<<<<<
339.09	0.00
339.48	215.93
339.86	216.79
340.24	218.15
340.63	219.53
341.01	222.62
341.39	222.66
341.78	224.04
342.16	224.65
342.54	225.15
342.93	213.80
343.31	224.59
343.69	225.11
344.07	225.58
344.46	225.99
344.84	226.37
345.22	226.58
345.60	226.81
345.99	227.01
346.37	227.16
346.75	227.25
347.13	227.30
347.52	227.31
347.90	227.38
348.28	227.44
348.66	227.46
349.05	227.41
349.43	227.44
349.81	227.50
350.19	227.57
350.57	227.59
350.96	227.66
351.34	227.74
351.72	227.81
352.10	227.89
352.48	227.96
352.87	228.02
353.25	228.11
353.63	228.16
354.01	228.19
354.39	228.23
354.77	228.32
355.15	228.42
355.54	228.50
355.92	228.50
356.30	228.57
356.68	228.70
357.06	228.78
357.44	228.82
357.82	228.85
358.20	228.93
358.58	229.00
358.97	229.02
359.35	229.08
359.73	229.14
360.11	229.17
360.49	229.22
360.87	229.22
361.25	229.28
361.63	229.34
362.01	229.36
362.39	229.35
362.77	229.41
363.15	229.42
363.53	229.44
363.91	229.48
364.29	229.47
364.67	229.34
365.05	229.34
365.43	229.36
365.81	229.34
366.19	229.31
366.57	229.37
366.95	229.34
367.33	229.29
367.71	229.28
368.09	229.28
368.47	229.24
368.85	229.23
369.23	229.17
369.61	229.08
369.99	229.08
370.37	229.07
370.75	229.06
371.13	229.00
371.51	228.93
371.89	228.85
372.27	228.80
372.65	228.77
373.03	228.73
373.41	228.67
373.78	228.61
374.16	228.52
374.54	228.39
374.92	228.33
375.30	228.25
375.68	228.15
376.06	228.10
376.44	228.00
376.82	227.93
377.19	227.86
377.57	227.81
377.95	227.73
378.33	227.63
378.71	227.49
379.09	227.44
379.47	227.42
379.84	227.38
380.22	227.27
380.60	227.20
380.98	227.12
381.36	227.04
381.73	226.98
382.11	226.96
382.49	226.92
382.87	226.85
383.25	226.80
383.62	226.85
384.00	226.75
384.38	226.74
384.76	226.72
385.13	226.68
385.51	226.63
385.89	226.56
386.27	226.56
386.64	226.54
387.02	226.47
387.40	226.39
387.78	226.33
388.15	226.34
388.53	226.28
388.91	226.27
389.29	226.25
389.66	226.26
390.04	226.24
390.42	226.21
390.79	226.18
391.17	226.21
391.55	226.09
391.92	226.11
392.30	226.14
392.68	226.13
393.05	226.17
393.43	226.20
393.81	226.22
394.18	226.21
394.56	226.22
394.94	226.30
395.31	226.35
395.69	226.42
396.06	226.47
396.44	226.53
396.82	226.58
397.19	226.70
397.57	226.69
397.95	226.74
398.32	226.81
398.70	226.94
399.07	227.04
399.45	227.15
399.82	227.23
400.20	227.30
400.58	227.37
400.95	227.44
401.33	227.53
401.70	227.71
402.08	227.82
402.45	227.93
402.83	228.01
403.20	228.13
403.58	228.22
403.95	228.40
404.33	228.56
404.71	228.69
405.08	228.85
405.46	229.03
405.83	229.20
406.21	229.36
406.58	229.54
406.96	229.69
407.33	229.89
407.70	230.10
408.08	230.40
408.45	230.65
408.83	230.92
409.20	231.16
409.58	231.33
409.95	231.63
410.33	231.92
410.70	232.20
411.08	232.49
411.45	232.81
411.82	233.06
412.20	233.40
412.57	233.81
412.95	234.12
413.32	234.52
413.69	234.91
414.07	235.35
414.44	235.77
414.82	236.24
415.19	236.77
415.56	237.27
415.94	237.76
416.31	238.37
416.68	238.93
417.06	239.62
417.43	240.29
417.81	241.04
418.18	241.83
418.55	242.67
418.93	243.55
419.30	244.44
419.67	245.40
420.04	246.35
420.42	247.33
420.79	248.48
421.16	249.62
421.54	250.80
421.91	251.98
422.28	253.24
422.66	254.58
423.03	255.87
423.40	257.19
423.77	258.61
424.15	260.04
424.52	261.54
424.89	263.13
425.26	264.66
425.64	266.09
426.01	267.67
426.38	269.28
426.75	270.92
427.13	272.64
427.50	274.46
427.87	276.35
428.24	278.21
428.61	279.96
428.99	281.88
429.36	283.98
429.73	286.04
430.10	288.08
430.47	290.12
430.85	292.23
431.22	294.49
431.59	296.84
431.96	299.09
432.33	301.59
432.70	303.98
433.08	306.78
433.45	309.41
433.82	312.03
434.19	314.93
434.56	317.76
434.93	320.37
435.30	323.02
435.68	325.88
436.05	328.71
436.42	331.51
436.79	334.08
437.16	336.81
437.53	339.69
437.90	342.54
438.27	345.32
438.64	348.20
439.01	350.85
439.38	353.10
439.75	355.26
440.13	357.76
440.50	360.08
440.87	361.99
441.24	363.93
441.61	366.07
441.98	367.59
442.35	369.39
442.72	371.33
443.09	373.12
443.46	374.13
443.83	374.79
444.20	375.30
444.57	376.12
444.94	376.42
445.31	376.74
445.68	377.05
446.05	377.13
446.42	376.70
446.79	376.29
447.16	375.86
447.53	375.57
447.90	374.41
448.27	373.33
448.64	371.72
449.01	370.62
449.37	368.67
449.74	366.79
450.11	364.59
450.48	362.08
450.85	359.54
451.22	357.40
451.59	355.36
451.96	353.47
452.33	350.90
452.70	348.54
453.07	345.73
453.43	342.85
453.80	340.09
454.17	337.44
454.54	334.91
454.91	332.23
455.28	329.54
455.65	327.07
456.02	324.60
456.38	322.50
456.75	319.88
457.12	317.67
457.49	315.41
457.86	313.22
458.23	311.41
458.59	309.36
458.96	307.27
459.33	305.38
459.70	303.46
460.07	301.91
460.43	300.12
460.80	298.50
461.17	297.06
461.54	295.55
461.91	294.12
462.27	292.63
462.64	291.31
463.01	289.94
463.38	288.62
463.74	287.16
464.11	285.94
464.48	284.83
464.85	283.71
465.21	282.84
465.58	281.92
465.95	280.80
466.32	279.87
466.68	278.95
467.05	278.06
467.42	277.16
467.78	276.21
468.15	275.33
468.52	274.62
468.88	273.72
469.25	272.92
469.62	272.27
469.98	271.54
470.35	270.92
470.72	270.28
471.08	269.60
471.45	269.09
471.82	268.54
472.18	267.95
472.55	267.47
472.92	266.91
473.28	266.38
473.65	265.86
474.02	265.41
474.38	265.00
474.75	264.64
475.11	264.28
475.48	264.00
475.85	263.75
476.21	263.51
476.58	263.32
476.94	263.17
477.31	262.97
477.67	262.82
478.04	262.66
478.41	262.56
478.77	262.59
479.14	262.50
479.50	262.50
479.87	262.56
480.23	262.61
480.60	262.66
480.96	262.78
481.33	263.02
481.69	263.23
482.06	263.45
482.42	263.64
482.79	263.89
483.15	264.21
483.52	264.61
483.88	264.96
484.25	265.33
484.61	265.74
484.98	266.17
485.34	266.76
485.71	267.38
486.07	268.01
486.44	268.61
486.80	269.36
487.17	270.06
487.53	270.85
487.90	271.71
488.26	272.71
488.62	273.72
488.99	274.69
489.35	275.73
489.72	276.83
490.08	278.03
490.44	279.28
490.81	280.61
491.17	281.97
491.54	283.47
491.90	285.03
492.26	286.68
492.63	288.42
492.99	290.17
493.36	292.06
493.72	294.11
494.08	296.21
494.45	298.40
494.81	300.79
495.17	303.23
495.54	305.79
495.90	308.46
496.26	311.22
496.63	314.14
496.99	317.25
497.35	320.52
497.72	323.92
498.08	327.45
498.44	331.11
498.80	335.02
499.17	339.06
499.53	343.21
499.89	347.58
500.26	352.08
500.62	356.71
500.98	361.67
501.34	366.73
501.71	372.06
502.07	377.49
502.43	383.08
502.79	388.91
503.16	394.94
503.52	401.14
503.88	407.50
504.24	414.14
504.60	420.98
504.97	428.07
505.33	435.33
505.69	442.97
506.05	450.78
506.41	458.63
506.78	466.69
507.14	475.13
507.50	483.79
507.86	492.78
508.22	501.95
508.59	511.06
508.95	520.64
509.31	530.37
509.67	540.42
510.03	550.70
510.39	561.24
510.75	572.04
511.12	582.97
511.48	594.27
511.84	605.67
512.20	617.21
512.56	629.13
512.92	641.37
513.28	653.69
513.64	666.07
514.00	678.71
514.37	691.70
514.73	704.63
515.09	717.64
515.45	730.94
515.81	744.53
516.17	758.57
516.53	772.63
516.89	786.80
517.25	801.01
517.61	815.34
517.97	829.67
518.33	844.10
518.69	858.91
519.05	873.90
519.41	889.12
519.77	904.70
520.13	920.14
520.49	935.45
520.85	950.80
521.21	966.59
521.57	982.95
521.93	998.73
522.29	1015.25
522.65	1031.63
523.01	1047.89
523.37	1064.03
523.73	1080.21
524.09	1096.27
524.45	1112.71
524.81	1129.41
525.17	1146.35
525.53	1163.39
525.89	1180.32
526.25	1197.17
526.61	1213.58
526.97	1230.42
527.33	1246.99
527.68	1263.85
528.04	1280.40
528.40	1297.17
528.76	1314.22
529.12	1330.86
529.48	1347.81
529.84	1364.02
530.20	1380.76
530.56	1397.89
530.91	1415.27
531.27	1432.13
531.63	1448.76
531.99	1465.43
532.35	1481.49
532.71	1497.40
533.07	1513.85
533.42	1529.77
533.78	1545.74
534.14	1562.20
534.50	1577.60
534.86	1593.44
535.21	1608.58
535.57	1624.65
535.93	1640.28
536.29	1655.18
536.65	1670.35
537.00	1685.34
537.36	1700.62
537.72	1715.21
538.08	1729.64
538.44	1743.64
538.79	1757.70
539.15	1771.68
539.51	1785.49
539.87	1799.98
540.22	1813.80
540.58	1827.66
540.94	1841.22
541.29	1854.40
541.65	1867.18
542.01	1880.45
542.37	1893.01
542.72	1905.51
543.08	1917.37
543.44	1929.89
543.79	1941.25
544.15	1952.28
544.51	1963.69
544.87	1974.86
545.22	1985.76
545.58	1996.01
545.94	2005.88
546.29	2015.83
546.65	2025.48
547.01	2034.72
547.36	2043.43
547.72	2052.15
548.07	2059.88
548.43	2068.16
548.79	2076.32
549.14	2083.93
549.50	2091.38
549.86	2099.20
550.21	2106.52
550.57	2113.68
550.92	2120.21
551.28	2127.25
551.64	2134.40
551.99	2141.08
552.35	2147.10
552.70	2153.20
553.06	2159.19
553.41	2165.47
553.77	2171.34
554.13	2177.53
554.48	2183.70
554.84	2188.96
555.19	2194.10
555.55	2199.26
555.90	2203.42
556.26	2208.07
556.61	2212.58
556.97	2216.66
557.32	2220.55
557.68	2224.65
558.03	2229.02
558.39	2232.80
558.74	2237.43
559.10	2240.98
559.45	2244.52
559.81	2248.77
560.16	2252.38
560.52	2255.42
560.87	2258.75
561.23	2261.23
561.58	2263.94
561.94	2266.24
562.29	2268.62
562.64	2271.21
563.00	2273.70
563.35	2277.08
563.71	2280.15
564.06	2283.15
564.42	2285.92
564.77	2288.28
565.12	2290.41
565.48	2292.02
565.83	2293.54
566.19	2294.71
566.54	2295.71
566.89	2296.68
567.25	2297.14
567.60	2298.51
567.96	2300.18
568.31	2300.91
568.66	2301.86
569.02	2302.32
569.37	2302.53
569.72	2303.26
570.08	2303.17
570.43	2302.98
570.78	2302.13
571.14	2300.39
571.49	2299.07
571.84	2298.61
572.20	2297.17
572.55	2295.99
572.90	2294.23
573.26	2292.81
573.61	2290.92
573.96	2288.90
574.31	2285.79
574.67	2282.60
575.02	2278.82
575.37	2275.24
575.72	2271.09
576.08	2267.82
576.43	2264.41
576.78	2260.59
577.13	2257.19
577.49	2254.06
577.84	2250.52
578.19	2246.97
578.54	2243.16
578.90	2238.70
579.25	2233.13
579.60	2228.20
579.95	2222.96
580.30	2217.82
580.66	2212.38
581.01	2207.31
581.36	2202.15
581.71	2197.72
582.06	2193.00
582.42	2188.25
582.77	2182.86
583.12	2178.16
583.47	2173.18
583.82	2167.90
584.17	2162.52
584.53	2156.86
584.88	2150.90
585.23	2144.98
585.58	2139.26
585.93	2133.77
586.28	2128.97
586.63	2123.65
586.98	2118.46
587.34	2113.75
587.69	2108.85
588.04	2103.49
588.39	2097.59
588.74	2091.24
589.09	2085.00
589.44	2078.12
589.79	2072.07
590.14	2066.35
590.49	2059.74
590.84	2053.28
591.19	2047.22
591.54	2040.72
591.89	2033.31
592.25	2026.37
592.60	2018.95
592.95	2011.26
593.30	2003.72
593.65	1996.00
594.00	1988.90
594.35	1981.50
594.70	1973.24
595.05	1965.89
595.40	1958.55
595.75	1951.04
596.10	1944.52
596.45	1937.71
596.80	1931.50
597.15	1924.68
597.50	1917.50
597.85	1911.01
598.19	1904.19
598.54	1897.00
598.89	1890.22
599.24	1884.22
599.59	1877.69
599.94	1871.52
600.29	1865.32
600.64	1858.77
600.99	1851.20
601.34	1844.27
601.69	1837.21
602.04	1830.31
602.39	1822.88
602.74	1816.03
603.08	1809.28
603.43	1802.66
603.78	1795.46
604.13	1788.20
604.48	1780.94
604.83	1774.08
605.18	1766.99
605.53	1759.07
605.87	1751.03
606.22	1743.77
606.57	1735.83
606.92	1728.41
607.27	1721.17
607.62	1714.02
607.96	1706.69
608.31	1699.99
608.66	1692.36
609.01	1684.92
609.36	1677.40
609.70	1669.36
610.05	1661.25
610.40	1653.51
610.75	1645.10
611.10	1637.38
611.44	1629.11
611.79	1621.11
612.14	1612.36
612.49	1603.37
612.83	1595.00
613.18	1586.98
613.53	1578.93
613.88	1570.49
614.22	1562.35
614.57	1553.86
614.92	1545.98
615.27	1538.35
615.61	1530.16
615.96	1522.22
616.31	1514.51
616.65	1507.12
617.00	1499.57
617.35	1491.90
617.70	1483.61
618.04	1475.03
618.39	1466.73
618.74	1459.16
619.08	1450.98
619.43	1443.56
619.78	1436.62
620.12	1429.46
620.47	1421.84
620.82	1413.78
621.16	1406.37
621.51	1398.65
621.85	1391.11
622.20	1382.61
622.55	1374.46
622.89	1366.73
623.24	1359.13
623.59	1351.85
623.93	1344.36
624.28	1337.16
624.62	1329.71
624.97	1322.60
625.32	1316.01
625.66	1309.02
626.01	1301.82
626.35	1294.31
626.70	1286.61
627.04	1278.95
627.39	1271.22
627.73	1263.91
628.08	1257.01
628.43	1249.72
628.77	1242.45
629.12	1234.85
629.46	1227.72
629.81	1220.44
630.15	1213.25
630.50	1205.92
630.84	1197.74
631.19	1189.95
631.53	1182.58
631.88	1175.14
632.22	1167.57
632.57	1160.31
632.91	1152.90
633.26	1145.57
633.60	1138.32
633.95	1131.32
634.29	1124.33
634.64	1117.76
634.98	1110.54
635.32	1103.49
635.67	1097.10
636.01	1090.56
636.36	1083.75
636.70	1077.30
637.05	1070.68
637.39	1064.24
637.73	1057.79
638.08	1052.02
638.42	1046.18
638.77	1039.81
639.11	1033.18
639.45	1026.84
639.80	1020.24
640.14	1013.89
640.49	1007.51
640.83	1001.36
641.17	995.07
641.52	988.85
641.86	982.52
642.20	976.72
642.55	970.47
642.89	963.93
643.23	957.49
643.58	951.75
643.92	945.53
644.26	939.55
644.61	933.54
644.95	927.46
645.29	920.82
645.64	913.99
645.98	907.64
646.32	901.94
646.66	895.97
647.01	890.31
647.35	884.54
647.69	878.69
648.04	873.14
648.38	867.48
648.72	861.40
649.06	855.28
649.41	849.40
649.75	843.37
650.09	837.40
650.43	831.55
650.78	825.50
651.12	819.62
651.46	813.82
651.80	808.05
652.14	802.77
652.49	797.51
652.83	792.34
653.17	786.71
653.51	781.04
653.85	775.64
654.20	769.90
654.54	763.98
654.88	758.24
655.22	752.40
655.56	746.69
655.90	741.32
656.25	736.10
656.59	730.77
656.93	725.75
657.27	720.67
657.61	715.31
657.95	710.21
658.29	705.14
658.64	700.05
658.98	694.88
659.32	689.45
659.66	684.31
660.00	679.07
660.34	674.18
660.68	669.22
661.02	664.22
661.36	659.52
661.70	655.12
662.05	650.76
662.39	646.42
662.73	641.99
663.07	637.62
663.41	633.22
663.75	628.73
664.09	624.31
664.43	619.94
664.77	615.85
665.11	611.73
665.45	607.64
665.79	603.57
666.13	599.44
666.47	595.36
666.81	591.24
667.15	587.19
667.49	583.39
667.83	579.69
668.17	575.80
668.51	571.81
668.85	567.82
669.19	564.02
669.53	560.24
669.87	556.41
670.21	552.81
670.55	549.27
670.89	545.90
671.23	542.41
671.57	538.98
671.91	535.48
672.25	532.02
672.58	528.54
672.92	525.19
673.26	522.12
673.60	518.99
673.94	515.86
674.28	512.96
674.62	509.97
674.96	506.91
675.30	504.07
675.64	501.20
675.97	498.47
676.31	495.67
676.65	492.78
676.99	490.12
677.33	487.31
677.67	484.46
678.01	481.42
678.34	478.51
678.68	475.68
679.02	472.86
679.36	470.09
679.70	467.38
680.04	464.58
680.37	461.71
680.71	458.96
681.05	456.42
681.39	453.72
681.73	451.07
682.06	448.52
682.40	446.01
682.74	443.53
683.08	441.03
683.42	438.47
683.75	435.99
684.09	433.47
684.43	430.99
684.77	428.59
685.10	426.25
685.44	423.98
685.78	421.69
686.12	419.49
686.45	417.25
686.79	415.03
687.13	412.84
687.46	410.71
687.80	408.58
688.14	406.37
688.48	404.33
688.81	402.09
689.15	400.01
689.49	397.88
689.82	395.80
690.16	393.67
690.50	391.68
690.83	389.72
691.17	387.76
691.51	385.82
691.84	383.95
692.18	382.06
692.52	380.07
692.85	378.17
693.19	376.30
693.52	374.47
693.86	372.65
694.20	370.93
694.53	369.17
694.87	367.33
695.21	365.57
695.54	363.75
695.88	362.04
696.21	360.32
696.55	358.62
696.88	356.96
697.22	355.37
697.56	353.79
697.89	352.13
698.23	350.50
698.56	348.89
698.90	347.27
699.23	345.68
699.57	344.14
699.90	342.60
700.24	341.10
700.58	339.55
700.91	338.05
701.25	336.59
701.58	335.19
701.92	333.85
702.25	332.48
702.59	331.11
702.92	329.84
703.26	328.55
703.59	327.28
703.93	326.10
704.26	324.84
704.60	323.56
704.93	322.32
705.26	321.12
705.60	319.98
705.93	318.87
706.27	317.87
706.60	316.83
706.94	315.76
707.27	314.61
707.61	313.59
707.94	312.59
708.27	311.54
708.61	310.52
708.94	309.51
709.28	308.56
709.61	307.62
709.94	306.71
710.28	305.69
710.61	304.76
710.95	303.70
711.28	302.79
711.61	301.87
711.95	300.97
712.28	300.07
712.61	299.13
712.95	298.16
713.28	297.28
713.61	296.39
713.95	295.50
714.28	294.67
714.61	293.86
714.95	293.01
715.28	292.16
715.61	291.30
715.95	290.44
716.28	289.59
716.61	288.78
716.95	287.94
717.28	287.21
717.61	286.44
717.94	285.68
718.28	284.91
718.61	284.18
718.94	283.51
719.27	282.81
719.61	282.14
719.94	281.51
720.27	280.79
720.60	280.10
720.94	279.50
721.27	278.90
721.60	278.33
721.93	277.75
722.27	277.19
722.60	276.63
722.93	276.08
723.26	275.56
723.59	275.01
723.93	274.46
724.26	273.88
724.59	273.34
724.92	272.84
725.25	272.33
725.59	271.78
725.92	271.28
726.25	270.76
726.58	270.31
726.91	269.84
727.24	269.34
727.57	268.92
727.91	268.40
728.24	267.91
728.57	267.39
728.90	266.95
729.23	266.45
729.56	265.98
729.89	265.48
730.22	264.98
730.55	264.52
730.89	264.07
731.22	263.64
731.55	263.18
731.88	262.75
732.21	262.31
732.54	261.88
732.87	261.46
733.20	261.07
733.53	260.64
733.86	260.27
734.19	259.88
734.52	259.46
734.85	259.16
735.18	258.75
735.51	258.36
735.84	257.96
736.17	257.61
736.50	257.24
736.83	257.03
737.16	256.66
737.49	256.30
737.82	255.97
738.15	255.59
738.48	255.29
738.81	254.95
739.14	254.60
739.47	254.31
739.80	253.97
740.13	253.66
740.46	253.31
740.79	252.95
741.12	252.67
741.45	252.36
741.78	251.98
742.11	251.74
742.44	251.41
742.77	251.12
743.10	250.82
743.43	250.51
743.75	250.11
744.08	249.98
744.41	249.73
744.74	249.45
745.07	249.23
745.40	248.97
745.73	248.73
746.06	248.48
746.39	248.21
746.71	247.94
747.04	247.65
747.37	247.42
747.70	247.21
748.03	246.95
748.36	246.77
748.68	246.57
749.01	246.32
749.34	246.12
749.67	245.93
750.00	245.73
750.33	245.58
750.65	245.40
750.98	245.11
751.31	244.90
751.64	244.70
751.97	244.49
752.29	244.29
752.62	244.06
752.95	243.85
753.28	243.66
753.60	243.45
753.93	243.33
754.26	243.15
754.59	242.95
754.91	242.78
755.24	242.56
755.57	242.39
755.90	242.19
756.22	242.02
756.55	241.81
756.88	241.63
757.20	241.41
757.53	241.21
757.86	241.05
758.19	240.88
758.51	240.72
758.84	240.57
759.17	240.43
759.49	240.28
759.82	240.18
760.15	240.03
760.47	239.91
760.80	239.72
761.13	239.59
761.45	239.43
761.78	239.25
762.11	239.14
762.43	238.98
762.76	238.85
763.08	238.72
763.41	238.61
763.74	238.49
764.06	238.38
764.39	238.21
764.71	238.04
765.04	237.91
765.37	237.78
765.69	237.62
766.02	237.49
766.34	237.36
766.67	237.19
767.00	237.09
767.32	237.01
767.65	236.93
767.97	236.78
768.30	236.65
768.62	236.56
768.95	236.42
769.27	236.31
769.60	236.21
769.92	236.08
770.25	235.95
770.57	235.79
770.90	235.67
771.22	235.56
771.55	235.47
771.87	235.39
772.20	235.27
772.52	235.21
772.85	235.21
773.17	235.09
773.50	235.02
773.82	234.89
774.15	234.75
774.47	234.57
774.80	234.47
775.12	234.39
775.45	234.26
775.77	234.15
776.09	234.07
776.42	233.99
776.74	233.92
777.07	233.81
777.39	233.75
777.72	233.65
778.04	233.62
778.36	233.52
778.69	233.45
779.01	233.37
779.33	233.23
779.66	233.04
779.98	232.96
780.31	232.88
780.63	232.84
780.95	232.79
781.28	232.74
781.60	232.69
781.92	232.63
782.25	232.57
782.57	232.54
782.89	232.43
783.22	232.36
783.54	232.29
783.86	232.25
784.19	232.17
784.51	232.11
784.83	232.03
785.16	231.98
785.48	231.90
785.80	231.85
786.12	231.81
786.45	231.76
786.77	231.74
787.09	231.69
