SpectraSuite Data File
++++++++++++++++++++++++++++++++++++
Date: Fri Feb 01 16:17:25 EST 2013
User: group
Dark Spectrum Present: No
Reference Spectrum Present: No
Number of Sampled Component Spectra: 1
Spectrometers: USB2E7196
Integration Time (usec): 35000 (USB2E7196)
Spectra Averaged: 100 (USB2E7196)
Boxcar Smoothing: 10 (USB2E7196)
Correct for Electrical Dark: No (USB2E7196)
Strobe/Lamp Enabled: No (USB2E7196)
Correct for Detector Non-linearity: No (USB2E7196)
Correct for Stray Light: No (USB2E7196)
Number of Pixels in Processed Spectrum: 2048
>>>>>Begin Processed Spectral Data<<<<<
339.09	0.00
339.48	214.56
339.86	215.52
340.24	216.74
340.63	218.30
341.01	221.25
341.39	221.70
341.78	222.74
342.16	223.83
342.54	224.28
342.93	212.65
343.31	223.41
343.69	223.95
344.07	224.40
344.46	224.84
344.84	225.23
345.22	225.48
345.60	225.73
345.99	225.93
346.37	226.07
346.75	226.17
347.13	226.23
347.52	226.29
347.90	226.37
348.28	226.44
348.66	226.47
349.05	226.46
349.43	226.50
349.81	226.48
350.19	226.50
350.57	226.57
350.96	226.66
351.34	226.73
351.72	226.76
352.10	226.87
352.48	226.92
352.87	226.99
353.25	227.01
353.63	227.03
354.01	227.06
354.39	227.13
354.77	227.21
355.15	227.27
355.54	227.33
355.92	227.33
356.30	227.38
356.68	227.52
357.06	227.58
357.44	227.65
357.82	227.72
358.20	227.80
358.58	227.86
358.97	227.89
359.35	227.98
359.73	228.06
360.11	228.09
360.49	228.18
360.87	228.21
361.25	228.30
361.63	228.40
362.01	228.44
362.39	228.46
362.77	228.48
363.15	228.51
363.53	228.55
363.91	228.59
364.29	228.62
364.67	228.55
365.05	228.55
365.43	228.53
365.81	228.53
366.19	228.56
366.57	228.58
366.95	228.55
367.33	228.50
367.71	228.51
368.09	228.52
368.47	228.47
368.85	228.43
369.23	228.42
369.61	228.32
369.99	228.33
370.37	228.31
370.75	228.31
371.13	228.27
371.51	228.19
371.89	228.14
372.27	228.12
372.65	228.07
373.03	228.04
373.41	228.00
373.78	227.94
374.16	227.82
374.54	227.75
374.92	227.66
375.30	227.55
375.68	227.45
376.06	227.40
376.44	227.35
376.82	227.29
377.19	227.21
377.57	227.14
377.95	227.05
378.33	226.95
378.71	226.80
379.09	226.75
379.47	226.72
379.84	226.64
380.22	226.52
380.60	226.43
380.98	226.35
381.36	226.27
381.73	226.21
382.11	226.18
382.49	226.13
382.87	226.08
383.25	226.05
383.62	226.10
384.00	226.02
384.38	225.95
384.76	225.93
385.13	225.90
385.51	225.84
385.89	225.78
386.27	225.75
386.64	225.74
387.02	225.68
387.40	225.63
387.78	225.61
388.15	225.57
388.53	225.53
388.91	225.52
389.29	225.50
389.66	225.48
390.04	225.43
390.42	225.44
390.79	225.45
391.17	225.44
391.55	225.32
391.92	225.33
392.30	225.34
392.68	225.31
393.05	225.30
393.43	225.33
393.81	225.34
394.18	225.34
394.56	225.35
394.94	225.39
395.31	225.40
395.69	225.45
396.06	225.50
396.44	225.52
396.82	225.52
397.19	225.59
397.57	225.66
397.95	225.72
398.32	225.74
398.70	225.81
399.07	225.90
399.45	225.95
399.82	226.01
400.20	226.06
400.58	226.13
400.95	226.14
401.33	226.22
401.70	226.36
402.08	226.45
402.45	226.53
402.83	226.62
403.20	226.71
403.58	226.80
403.95	226.91
404.33	227.05
404.71	227.17
405.08	227.34
405.46	227.46
405.83	227.63
406.21	227.77
406.58	227.92
406.96	228.06
407.33	228.25
407.70	228.43
408.08	228.71
408.45	228.94
408.83	229.20
409.20	229.42
409.58	229.59
409.95	229.87
410.33	230.14
410.70	230.39
411.08	230.69
411.45	230.98
411.82	231.31
412.20	231.68
412.57	232.12
412.95	232.37
413.32	232.82
413.69	233.19
414.07	233.63
414.44	234.08
414.82	234.57
415.19	235.11
415.56	235.67
415.94	236.18
416.31	236.83
416.68	237.45
417.06	238.21
417.43	238.89
417.81	239.63
418.18	240.43
418.55	241.28
418.93	242.13
419.30	243.03
419.67	243.95
420.04	244.90
420.42	245.89
420.79	247.10
421.16	248.22
421.54	249.47
421.91	250.62
422.28	251.90
422.66	253.21
423.03	254.48
423.40	255.78
423.77	257.20
424.15	258.59
424.52	260.09
424.89	261.66
425.26	263.22
425.64	264.69
426.01	266.27
426.38	267.91
426.75	269.60
427.13	271.33
427.50	273.17
427.87	275.06
428.24	276.92
428.61	278.65
428.99	280.58
429.36	282.63
429.73	284.71
430.10	286.73
430.47	288.78
430.85	290.91
431.22	293.14
431.59	295.56
431.96	297.81
432.33	300.26
432.70	302.63
433.08	305.44
433.45	308.07
433.82	310.69
434.19	313.60
434.56	316.39
434.93	319.04
435.30	321.62
435.68	324.47
436.05	327.29
436.42	330.08
436.79	332.59
437.16	335.29
437.53	338.14
437.90	340.96
438.27	343.70
438.64	346.54
439.01	349.15
439.38	351.41
439.75	353.55
440.13	356.05
440.50	358.35
440.87	360.16
441.24	362.12
441.61	364.27
441.98	365.71
442.35	367.52
442.72	369.38
443.09	371.20
443.46	372.17
443.83	372.75
444.20	373.27
444.57	374.11
444.94	374.43
445.31	374.78
445.68	375.06
446.05	375.16
446.42	374.78
446.79	374.35
447.16	373.84
447.53	373.59
447.90	372.41
448.27	371.23
448.64	369.65
449.01	368.51
449.37	366.54
449.74	364.66
450.11	362.42
450.48	359.94
450.85	357.39
451.22	355.29
451.59	353.26
451.96	351.29
452.33	348.68
452.70	346.25
453.07	343.39
453.43	340.55
453.80	337.77
454.17	335.06
454.54	332.50
454.91	329.81
455.28	327.09
455.65	324.63
456.02	322.20
456.38	320.07
456.75	317.39
457.12	315.16
457.49	312.94
457.86	310.75
458.23	308.92
458.59	306.87
458.96	304.75
459.33	302.91
459.70	301.08
460.07	299.58
460.43	297.89
460.80	296.28
461.17	294.83
461.54	293.33
461.91	291.93
462.27	290.51
462.64	289.29
463.01	287.93
463.38	286.67
463.74	285.32
464.11	284.16
464.48	283.14
464.85	282.03
465.21	281.18
465.58	280.28
465.95	279.18
466.32	278.33
466.68	277.45
467.05	276.55
467.42	275.64
467.78	274.71
468.15	273.83
468.52	273.20
468.88	272.34
469.25	271.60
469.62	270.99
469.98	270.31
470.35	269.63
470.72	269.05
471.08	268.39
471.45	267.85
471.82	267.30
472.18	266.72
472.55	266.27
472.92	265.73
473.28	265.25
473.65	264.80
474.02	264.34
474.38	263.99
474.75	263.68
475.11	263.35
475.48	263.11
475.85	262.91
476.21	262.70
476.58	262.54
476.94	262.36
477.31	262.16
477.67	262.05
478.04	261.96
478.41	261.91
478.77	261.95
479.14	261.91
479.50	261.92
479.87	262.03
480.23	262.14
480.60	262.23
480.96	262.36
481.33	262.62
481.69	262.84
482.06	263.08
482.42	263.28
482.79	263.51
483.15	263.84
483.52	264.22
483.88	264.56
484.25	264.91
484.61	265.36
484.98	265.88
485.34	266.42
485.71	266.99
486.07	267.57
486.44	268.16
486.80	268.85
487.17	269.62
487.53	270.38
487.90	271.22
488.26	272.15
488.62	273.15
488.99	274.10
489.35	275.16
489.72	276.27
490.08	277.51
490.44	278.79
490.81	280.13
491.17	281.50
491.54	283.01
491.90	284.59
492.26	286.25
492.63	287.97
492.99	289.74
493.36	291.65
493.72	293.70
494.08	295.81
494.45	298.06
494.81	300.42
495.17	302.88
495.54	305.47
495.90	308.16
496.26	310.96
496.63	313.93
496.99	317.03
497.35	320.30
497.72	323.71
498.08	327.20
498.44	330.90
498.80	334.78
499.17	338.82
499.53	343.00
499.89	347.41
500.26	351.90
500.62	356.63
500.98	361.59
501.34	366.68
501.71	372.01
502.07	377.45
502.43	383.08
502.79	388.89
503.16	394.93
503.52	401.20
503.88	407.59
504.24	414.22
504.60	421.15
504.97	428.30
505.33	435.58
505.69	443.34
506.05	451.14
506.41	459.04
506.78	467.19
507.14	475.61
507.50	484.32
507.86	493.40
508.22	502.61
508.59	511.87
508.95	521.43
509.31	531.21
509.67	541.36
510.03	551.61
510.39	562.18
510.75	572.99
511.12	583.95
511.48	595.28
511.84	606.69
512.20	618.18
512.56	630.17
512.92	642.40
513.28	654.76
513.64	667.14
514.00	679.86
514.37	692.84
514.73	705.89
515.09	718.98
515.45	732.21
515.81	745.77
516.17	759.78
516.53	773.94
516.89	788.12
517.25	802.27
517.61	816.66
517.97	831.17
518.33	845.59
518.69	860.29
519.05	875.22
519.41	890.46
519.77	906.06
520.13	921.43
520.49	936.75
520.85	952.16
521.21	967.95
521.57	984.17
521.93	999.85
522.29	1016.19
522.65	1032.32
523.01	1048.45
523.37	1064.46
523.73	1080.47
524.09	1096.55
524.45	1112.79
524.81	1129.34
525.17	1146.20
525.53	1163.02
525.89	1179.90
526.25	1196.79
526.61	1213.13
526.97	1229.69
527.33	1246.10
527.68	1262.68
528.04	1279.14
528.40	1295.72
528.76	1312.70
529.12	1329.30
529.48	1346.13
529.84	1362.17
530.20	1378.85
530.56	1395.93
530.91	1413.31
531.27	1430.14
531.63	1446.53
531.99	1463.18
532.35	1479.18
532.71	1495.06
533.07	1511.20
533.42	1527.03
533.78	1542.95
534.14	1559.35
534.50	1574.76
534.86	1590.45
535.21	1605.53
535.57	1621.44
535.93	1636.74
536.29	1651.58
536.65	1666.50
537.00	1681.32
537.36	1696.44
537.72	1710.71
538.08	1725.06
538.44	1738.78
538.79	1752.49
539.15	1766.04
539.51	1779.63
539.87	1793.95
540.22	1807.55
540.58	1821.26
540.94	1834.43
541.29	1847.20
541.65	1859.74
542.01	1872.82
542.37	1885.08
542.72	1897.39
543.08	1909.08
543.44	1921.48
543.79	1932.53
544.15	1943.39
544.51	1954.78
544.87	1965.72
545.22	1976.67
545.58	1986.83
545.94	1996.43
546.29	2006.30
546.65	2016.14
547.01	2025.28
547.36	2033.83
547.72	2042.22
548.07	2050.01
548.43	2058.16
548.79	2066.18
549.14	2073.56
549.50	2080.86
549.86	2088.67
550.21	2095.87
550.57	2103.08
550.92	2109.47
551.28	2116.47
551.64	2123.48
551.99	2129.89
552.35	2136.07
552.70	2142.04
553.06	2148.08
553.41	2154.48
553.77	2160.46
554.13	2166.48
554.48	2172.73
554.84	2178.23
555.19	2183.33
555.55	2188.58
555.90	2193.09
556.26	2198.04
556.61	2202.72
556.97	2206.90
557.32	2210.97
557.68	2215.28
558.03	2219.56
558.39	2223.34
558.74	2227.98
559.10	2231.88
559.45	2235.76
559.81	2240.04
560.16	2243.91
560.52	2247.03
560.87	2250.41
561.23	2253.07
561.58	2256.05
561.94	2258.54
562.29	2260.91
562.64	2263.81
563.00	2266.44
563.35	2269.99
563.71	2273.10
564.06	2276.32
564.42	2279.43
564.77	2281.77
565.12	2284.15
565.48	2286.05
565.83	2287.97
566.19	2289.24
566.54	2290.33
566.89	2291.49
567.25	2292.13
567.60	2293.41
567.96	2295.10
568.31	2296.07
568.66	2297.27
569.02	2297.88
569.37	2298.34
569.72	2299.26
570.08	2299.37
570.43	2299.39
570.78	2298.85
571.14	2297.37
571.49	2296.25
571.84	2295.84
572.20	2294.94
572.55	2293.71
572.90	2292.10
573.26	2290.73
573.61	2289.13
573.96	2287.20
574.31	2284.39
574.67	2281.48
575.02	2277.96
575.37	2274.67
575.72	2270.77
576.08	2267.53
576.43	2264.22
576.78	2260.46
577.13	2257.31
577.49	2254.29
577.84	2250.70
578.19	2246.98
578.54	2243.53
578.90	2239.28
579.25	2233.85
579.60	2228.90
579.95	2223.99
580.30	2219.06
580.66	2213.95
581.01	2209.05
581.36	2204.41
581.71	2200.08
582.06	2195.57
582.42	2191.27
582.77	2186.13
583.12	2181.79
583.47	2177.08
583.82	2172.22
584.17	2167.02
584.53	2161.52
584.88	2156.00
585.23	2150.31
585.58	2144.86
585.93	2139.28
586.28	2134.51
586.63	2129.40
586.98	2124.44
587.34	2119.80
587.69	2114.96
588.04	2109.78
588.39	2104.24
588.74	2097.64
589.09	2091.52
589.44	2084.94
589.79	2078.93
590.14	2073.29
590.49	2066.68
590.84	2060.17
591.19	2054.12
591.54	2047.74
591.89	2040.41
592.25	2033.67
592.60	2026.55
592.95	2019.01
593.30	2011.68
593.65	2004.09
594.00	1997.08
594.35	1989.75
594.70	1981.70
595.05	1974.47
595.40	1967.12
595.75	1959.55
596.10	1953.46
596.45	1946.65
596.80	1940.46
597.15	1933.88
597.50	1926.83
597.85	1920.44
598.19	1913.89
598.54	1906.85
598.89	1900.25
599.24	1894.37
599.59	1887.46
599.94	1881.34
600.29	1875.06
600.64	1868.45
600.99	1860.94
601.34	1854.18
601.69	1847.17
602.04	1840.41
602.39	1833.10
602.74	1826.38
603.08	1819.60
603.43	1812.88
603.78	1805.64
604.13	1798.39
604.48	1790.96
604.83	1784.03
605.18	1777.04
605.53	1769.09
605.87	1761.02
606.22	1753.66
606.57	1745.65
606.92	1738.47
607.27	1731.32
607.62	1724.44
607.96	1717.26
608.31	1710.80
608.66	1703.27
609.01	1695.87
609.36	1688.32
609.70	1680.26
610.05	1672.34
610.40	1664.68
610.75	1656.32
611.10	1648.72
611.44	1640.40
611.79	1632.52
612.14	1623.84
612.49	1614.65
612.83	1606.17
613.18	1598.02
613.53	1590.05
613.88	1581.58
614.22	1573.31
614.57	1564.60
614.92	1556.66
615.27	1549.17
615.61	1540.84
615.96	1532.80
616.31	1525.11
616.65	1517.66
617.00	1510.11
617.35	1502.24
617.70	1493.97
618.04	1485.52
618.39	1477.30
618.74	1469.61
619.08	1461.23
619.43	1453.74
619.78	1446.88
620.12	1439.82
620.47	1432.42
620.82	1424.19
621.16	1416.79
621.51	1409.30
621.85	1401.75
622.20	1393.04
622.55	1384.63
622.89	1376.77
623.24	1369.06
623.59	1361.73
623.93	1354.29
624.28	1347.13
624.62	1339.64
624.97	1332.49
625.32	1325.61
625.66	1318.53
626.01	1311.41
626.35	1304.06
626.70	1296.28
627.04	1288.58
627.39	1280.84
627.73	1273.40
628.08	1266.51
628.43	1259.36
628.77	1251.93
629.12	1244.32
629.46	1237.23
629.81	1229.72
630.15	1222.56
630.50	1215.09
630.84	1206.81
631.19	1198.87
631.53	1191.21
631.88	1183.68
632.22	1176.10
632.57	1168.80
632.91	1161.28
633.26	1153.77
633.60	1146.34
633.95	1139.16
634.29	1132.07
634.64	1125.27
634.98	1117.83
635.32	1110.58
635.67	1103.88
636.01	1097.26
636.36	1090.47
636.70	1083.80
637.05	1077.27
637.39	1070.68
637.73	1064.24
638.08	1058.39
638.42	1052.30
638.77	1045.96
639.11	1039.35
639.45	1032.90
639.80	1026.23
640.14	1019.87
640.49	1013.44
640.83	1007.09
641.17	1000.92
641.52	994.42
641.86	987.97
642.20	982.14
642.55	975.81
642.89	969.27
643.23	962.68
643.58	956.98
643.92	950.85
644.26	944.75
644.61	938.69
644.95	932.58
645.29	925.92
645.64	919.16
645.98	912.80
646.32	906.90
646.66	900.77
647.01	895.09
647.35	889.29
647.69	883.34
648.04	877.83
648.38	871.95
648.72	866.01
649.06	859.99
649.41	854.08
649.75	848.24
650.09	842.28
650.43	836.46
650.78	830.20
651.12	824.28
651.46	818.63
651.80	812.90
652.14	807.58
652.49	802.22
652.83	797.08
653.17	791.33
653.51	785.62
653.85	780.26
654.20	774.52
654.54	768.47
654.88	762.80
655.22	756.85
655.56	751.20
655.90	745.78
656.25	740.50
656.59	735.11
656.93	729.96
657.27	724.79
657.61	719.30
657.95	714.24
658.29	709.17
658.64	703.88
658.98	698.58
659.32	693.13
659.66	687.94
660.00	682.66
660.34	677.84
660.68	673.02
661.02	667.99
661.36	663.27
661.70	658.82
662.05	654.39
662.39	650.13
662.73	645.69
663.07	641.35
663.41	636.88
663.75	632.46
664.09	627.88
664.43	623.49
664.77	619.35
665.11	615.05
665.45	610.85
665.79	606.76
666.13	602.63
666.47	598.46
666.81	594.26
667.15	590.07
667.49	586.08
667.83	582.21
668.17	578.25
668.51	574.21
668.85	570.18
669.19	566.37
669.53	562.46
669.87	558.55
670.21	554.76
670.55	551.11
670.89	547.66
671.23	544.22
671.57	540.72
671.91	537.22
672.25	533.75
672.58	530.25
672.92	526.80
673.26	523.64
673.60	520.52
673.94	517.47
674.28	514.58
674.62	511.66
674.96	508.51
675.30	505.66
675.64	502.74
675.97	499.95
676.31	497.05
676.65	494.19
676.99	491.50
677.33	488.67
677.67	485.91
678.01	482.89
678.34	479.91
678.68	477.05
679.02	474.25
679.36	471.49
679.70	468.73
680.04	466.01
680.37	463.12
680.71	460.25
681.05	457.60
681.39	454.86
681.73	452.17
682.06	449.66
682.40	447.04
682.74	444.48
683.08	441.90
683.42	439.26
683.75	436.73
684.09	434.15
684.43	431.72
684.77	429.21
685.10	426.86
685.44	424.57
685.78	422.27
686.12	420.01
686.45	417.69
686.79	415.41
687.13	413.23
687.46	411.07
687.80	408.97
688.14	406.78
688.48	404.74
688.81	402.53
689.15	400.36
689.49	398.26
689.82	396.19
690.16	394.11
690.50	392.19
690.83	390.20
691.17	388.24
691.51	386.29
691.84	384.46
692.18	382.54
692.52	380.56
692.85	378.62
693.19	376.76
693.52	374.93
693.86	373.07
694.20	371.28
694.53	369.51
694.87	367.68
695.21	365.85
695.54	364.00
695.88	362.24
696.21	360.52
696.55	358.81
696.88	357.08
697.22	355.44
697.56	353.78
697.89	352.12
698.23	350.50
698.56	348.92
698.90	347.34
699.23	345.68
699.57	344.08
699.90	342.49
700.24	340.92
700.58	339.38
700.91	337.93
701.25	336.48
701.58	335.05
701.92	333.67
702.25	332.30
702.59	330.99
702.92	329.68
703.26	328.38
703.59	327.07
703.93	325.96
704.26	324.71
704.60	323.40
704.93	322.12
705.26	320.86
705.60	319.63
705.93	318.46
706.27	317.39
706.60	316.35
706.94	315.33
707.27	314.18
707.61	313.10
707.94	312.04
708.27	310.90
708.61	309.79
708.94	308.80
709.28	307.81
709.61	306.79
709.94	305.84
710.28	304.83
710.61	303.91
710.95	302.81
711.28	301.94
711.61	301.02
711.95	300.12
712.28	299.18
712.61	298.20
712.95	297.26
713.28	296.35
713.61	295.48
713.95	294.59
714.28	293.76
714.61	292.87
714.95	292.07
715.28	291.24
715.61	290.39
715.95	289.51
716.28	288.68
716.61	287.85
716.95	287.03
717.28	286.28
717.61	285.46
717.94	284.73
718.28	283.89
718.61	283.17
718.94	282.48
719.27	281.82
719.61	281.20
719.94	280.51
720.27	279.87
720.60	279.18
720.94	278.55
721.27	277.97
721.60	277.41
721.93	276.75
722.27	276.14
722.60	275.61
722.93	275.06
723.26	274.49
723.59	273.93
723.93	273.38
724.26	272.81
724.59	272.28
724.92	271.77
725.25	271.28
725.59	270.77
725.92	270.27
726.25	269.75
726.58	269.27
726.91	268.81
727.24	268.28
727.57	267.80
727.91	267.29
728.24	266.80
728.57	266.34
728.90	265.92
729.23	265.51
729.56	265.09
729.89	264.61
730.22	264.14
730.55	263.65
730.89	263.18
731.22	262.75
731.55	262.30
731.88	261.86
732.21	261.40
732.54	260.97
732.87	260.54
733.20	260.16
733.53	259.78
733.86	259.38
734.19	259.01
734.52	258.66
734.85	258.36
735.18	257.94
735.51	257.55
735.84	257.16
736.17	256.80
736.50	256.36
736.83	256.13
737.16	255.79
737.49	255.50
737.82	255.20
738.15	254.84
738.48	254.52
738.81	254.16
739.14	253.84
739.47	253.51
739.80	253.18
740.13	252.84
740.46	252.50
740.79	252.18
741.12	251.84
741.45	251.48
741.78	251.09
742.11	250.84
742.44	250.53
742.77	250.26
743.10	249.95
743.43	249.69
743.75	249.32
744.08	249.20
744.41	248.89
744.74	248.61
745.07	248.32
745.40	248.04
745.73	247.78
746.06	247.47
746.39	247.20
746.71	246.95
747.04	246.69
747.37	246.42
747.70	246.21
748.03	245.94
748.36	245.75
748.68	245.52
749.01	245.25
749.34	244.99
749.67	244.76
750.00	244.52
750.33	244.36
750.65	244.12
750.98	243.78
751.31	243.59
751.64	243.35
751.97	243.21
752.29	243.00
752.62	242.82
752.95	242.62
753.28	242.41
753.60	242.19
753.93	242.05
754.26	241.85
754.59	241.61
754.91	241.43
755.24	241.21
755.57	241.02
755.90	240.81
756.22	240.63
756.55	240.42
756.88	240.24
757.20	240.01
757.53	239.82
757.86	239.63
758.19	239.44
758.51	239.27
758.84	239.04
759.17	238.88
759.49	238.69
759.82	238.58
760.15	238.44
760.47	238.28
760.80	238.10
761.13	238.00
761.45	237.87
761.78	237.72
762.11	237.58
762.43	237.43
762.76	237.33
763.08	237.22
763.41	237.10
763.74	236.98
764.06	236.80
764.39	236.67
764.71	236.53
765.04	236.43
765.37	236.36
765.69	236.25
766.02	236.14
766.34	235.99
766.67	235.86
767.00	235.77
767.32	235.71
767.65	235.64
767.97	235.51
768.30	235.39
768.62	235.28
768.95	235.17
769.27	235.09
769.60	234.97
769.92	234.86
770.25	234.76
770.57	234.62
770.90	234.54
771.22	234.40
771.55	234.30
771.87	234.19
772.20	234.06
772.52	234.05
772.85	234.08
773.17	234.03
773.50	233.92
773.82	233.82
774.15	233.70
774.47	233.57
774.80	233.48
775.12	233.37
775.45	233.27
775.77	233.19
776.09	233.12
776.42	233.04
776.74	232.98
777.07	232.91
777.39	232.83
777.72	232.77
778.04	232.72
778.36	232.67
778.69	232.56
779.01	232.50
779.33	232.33
779.66	232.13
779.98	232.06
780.31	232.01
780.63	231.99
780.95	231.95
781.28	231.85
781.60	231.78
781.92	231.74
782.25	231.71
782.57	231.66
782.89	231.58
783.22	231.51
783.54	231.46
783.86	231.40
784.19	231.32
784.51	231.28
784.83	231.21
785.16	231.15
785.48	231.14
785.80	231.07
786.12	231.03
786.45	230.98
786.77	230.91
787.09	230.84
