SpectraSuite Data File
++++++++++++++++++++++++++++++++++++
Date: Fri Feb 01 15:26:05 EST 2013
User: group
Dark Spectrum Present: No
Reference Spectrum Present: No
Number of Sampled Component Spectra: 1
Spectrometers: USB2E7196
Integration Time (usec): 35000 (USB2E7196)
Spectra Averaged: 100 (USB2E7196)
Boxcar Smoothing: 10 (USB2E7196)
Correct for Electrical Dark: No (USB2E7196)
Strobe/Lamp Enabled: No (USB2E7196)
Correct for Detector Non-linearity: No (USB2E7196)
Correct for Stray Light: No (USB2E7196)
Number of Pixels in Processed Spectrum: 2048
>>>>>Begin Processed Spectral Data<<<<<
339.09	0.00
339.48	215.06
339.86	216.33
340.24	217.11
340.63	219.21
341.01	222.00
341.39	221.94
341.78	223.01
342.16	224.72
342.54	225.07
342.93	213.31
343.31	224.09
343.69	224.62
344.07	225.08
344.46	225.54
344.84	225.93
345.22	226.16
345.60	226.43
345.99	226.63
346.37	226.71
346.75	226.81
347.13	226.88
347.52	226.95
347.90	226.98
348.28	226.99
348.66	227.02
349.05	227.01
349.43	227.09
349.81	227.09
350.19	227.16
350.57	227.21
350.96	227.32
351.34	227.39
351.72	227.48
352.10	227.59
352.48	227.68
352.87	227.74
353.25	227.81
353.63	227.85
354.01	227.92
354.39	228.05
354.77	228.14
355.15	228.25
355.54	228.29
355.92	228.35
356.30	228.45
356.68	228.61
357.06	228.68
357.44	228.72
357.82	228.80
358.20	228.86
358.58	228.96
358.97	228.97
359.35	229.07
359.73	229.14
360.11	229.20
360.49	229.24
360.87	229.29
361.25	229.34
361.63	229.42
362.01	229.48
362.39	229.48
362.77	229.50
363.15	229.52
363.53	229.54
363.91	229.56
364.29	229.55
364.67	229.47
365.05	229.50
365.43	229.55
365.81	229.58
366.19	229.59
366.57	229.59
366.95	229.60
367.33	229.56
367.71	229.54
368.09	229.55
368.47	229.51
368.85	229.47
369.23	229.46
369.61	229.40
369.99	229.38
370.37	229.37
370.75	229.39
371.13	229.31
371.51	229.28
371.89	229.25
372.27	229.22
372.65	229.14
373.03	229.08
373.41	228.98
373.78	228.92
374.16	228.81
374.54	228.71
374.92	228.62
375.30	228.54
375.68	228.46
376.06	228.37
376.44	228.31
376.82	228.22
377.19	228.17
377.57	228.10
377.95	227.98
378.33	227.89
378.71	227.76
379.09	227.71
379.47	227.66
379.84	227.52
380.22	227.45
380.60	227.37
380.98	227.29
381.36	227.23
381.73	227.16
382.11	227.11
382.49	227.05
382.87	227.01
383.25	226.94
383.62	226.99
384.00	226.89
384.38	226.82
384.76	226.80
385.13	226.76
385.51	226.72
385.89	226.71
386.27	226.68
386.64	226.65
387.02	226.58
387.40	226.52
387.78	226.53
388.15	226.46
388.53	226.43
388.91	226.40
389.29	226.39
389.66	226.35
390.04	226.32
390.42	226.33
390.79	226.31
391.17	226.31
391.55	226.19
391.92	226.19
392.30	226.23
392.68	226.20
393.05	226.20
393.43	226.22
393.81	226.21
394.18	226.18
394.56	226.21
394.94	226.27
395.31	226.32
395.69	226.36
396.06	226.44
396.44	226.46
396.82	226.53
397.19	226.64
397.57	226.67
397.95	226.73
398.32	226.76
398.70	226.83
399.07	226.91
399.45	226.97
399.82	227.05
400.20	227.12
400.58	227.20
400.95	227.24
401.33	227.33
401.70	227.48
402.08	227.57
402.45	227.66
402.83	227.79
403.20	227.88
403.58	227.98
403.95	228.10
404.33	228.28
404.71	228.36
405.08	228.51
405.46	228.67
405.83	228.83
406.21	228.98
406.58	229.14
406.96	229.29
407.33	229.49
407.70	229.71
408.08	229.97
408.45	230.21
408.83	230.46
409.20	230.68
409.58	230.85
409.95	231.17
410.33	231.44
410.70	231.69
411.08	231.99
411.45	232.29
411.82	232.60
412.20	232.92
412.57	233.35
412.95	233.61
413.32	234.03
413.69	234.42
414.07	234.87
414.44	235.34
414.82	235.86
415.19	236.42
415.56	236.94
415.94	237.48
416.31	238.12
416.68	238.72
417.06	239.42
417.43	240.15
417.81	240.89
418.18	241.69
418.55	242.53
418.93	243.36
419.30	244.28
419.67	245.20
420.04	246.18
420.42	247.16
420.79	248.36
421.16	249.50
421.54	250.70
421.91	251.92
422.28	253.17
422.66	254.51
423.03	255.79
423.40	257.15
423.77	258.55
424.15	259.93
424.52	261.42
424.89	263.04
425.26	264.57
425.64	266.00
426.01	267.60
426.38	269.24
426.75	270.97
427.13	272.65
427.50	274.51
427.87	276.43
428.24	278.30
428.61	280.02
428.99	281.98
429.36	284.08
429.73	286.13
430.10	288.15
430.47	290.19
430.85	292.30
431.22	294.52
431.59	296.90
431.96	299.16
432.33	301.67
432.70	304.04
433.08	306.83
433.45	309.52
433.82	312.13
434.19	315.06
434.56	317.88
434.93	320.60
435.30	323.21
435.68	326.04
436.05	328.88
436.42	331.68
436.79	334.18
437.16	336.90
437.53	339.72
437.90	342.57
438.27	345.31
438.64	348.17
439.01	350.80
439.38	353.03
439.75	355.23
440.13	357.74
440.50	360.06
440.87	361.98
441.24	363.90
441.61	366.03
441.98	367.49
442.35	369.23
442.72	371.09
443.09	372.86
443.46	373.87
443.83	374.44
444.20	374.96
444.57	375.80
444.94	376.10
445.31	376.49
445.68	376.80
446.05	376.89
446.42	376.49
446.79	376.07
447.16	375.64
447.53	375.28
447.90	374.08
448.27	372.92
448.64	371.30
449.01	370.11
449.37	368.16
449.74	366.26
450.11	364.00
450.48	361.48
450.85	358.94
451.22	356.79
451.59	354.75
451.96	352.79
452.33	350.20
452.70	347.83
453.07	344.98
453.43	342.09
453.80	339.30
454.17	336.64
454.54	334.03
454.91	331.32
455.28	328.66
455.65	326.17
456.02	323.70
456.38	321.55
456.75	318.92
457.12	316.67
457.49	314.50
457.86	312.37
458.23	310.51
458.59	308.48
458.96	306.44
459.33	304.60
459.70	302.77
460.07	301.28
460.43	299.55
460.80	297.92
461.17	296.45
461.54	294.98
461.91	293.54
462.27	292.14
462.64	290.86
463.01	289.50
463.38	288.22
463.74	286.86
464.11	285.66
464.48	284.62
464.85	283.51
465.21	282.56
465.58	281.63
465.95	280.56
466.32	279.62
466.68	278.67
467.05	277.76
467.42	276.83
467.78	275.87
468.15	275.00
468.52	274.34
468.88	273.53
469.25	272.74
469.62	272.11
469.98	271.44
470.35	270.85
470.72	270.24
471.08	269.57
471.45	269.05
471.82	268.53
472.18	267.96
472.55	267.53
472.92	267.05
473.28	266.57
473.65	266.13
474.02	265.73
474.38	265.37
474.75	265.07
475.11	264.76
475.48	264.49
475.85	264.24
476.21	263.97
476.58	263.78
476.94	263.63
477.31	263.46
477.67	263.30
478.04	263.17
478.41	263.07
478.77	263.12
479.14	263.03
479.50	263.02
479.87	263.07
480.23	263.13
480.60	263.15
480.96	263.25
481.33	263.46
481.69	263.61
482.06	263.82
482.42	263.99
482.79	264.24
483.15	264.56
483.52	264.95
483.88	265.33
484.25	265.69
484.61	266.10
484.98	266.54
485.34	267.04
485.71	267.62
486.07	268.25
486.44	268.81
486.80	269.55
487.17	270.29
487.53	271.10
487.90	271.92
488.26	272.85
488.62	273.85
488.99	274.81
489.35	275.84
489.72	276.95
490.08	278.19
490.44	279.49
490.81	280.80
491.17	282.16
491.54	283.65
491.90	285.18
492.26	286.89
492.63	288.64
492.99	290.42
493.36	292.31
493.72	294.38
494.08	296.50
494.45	298.71
494.81	301.07
495.17	303.52
495.54	306.12
495.90	308.78
496.26	311.60
496.63	314.50
496.99	317.63
497.35	320.89
497.72	324.26
498.08	327.68
498.44	331.35
498.80	335.27
499.17	339.30
499.53	343.45
499.89	347.75
500.26	352.30
500.62	356.99
500.98	361.94
501.34	366.97
501.71	372.29
502.07	377.70
502.43	383.31
502.79	389.06
503.16	395.14
503.52	401.44
503.88	407.85
504.24	414.57
504.60	421.47
504.97	428.61
505.33	435.95
505.69	443.67
506.05	451.52
506.41	459.37
506.78	467.51
507.14	475.99
507.50	484.72
507.86	493.71
508.22	502.89
508.59	512.14
508.95	521.78
509.31	531.61
509.67	541.75
510.03	552.06
510.39	562.67
510.75	573.50
511.12	584.44
511.48	595.72
511.84	607.18
512.20	618.73
512.56	630.74
512.92	642.91
513.28	655.28
513.64	667.69
514.00	680.35
514.37	693.28
514.73	706.39
515.09	719.49
515.45	732.83
515.81	746.50
516.17	760.53
516.53	774.67
516.89	788.81
517.25	803.04
517.61	817.47
517.97	831.95
518.33	846.41
518.69	861.33
519.05	876.39
519.41	891.50
519.77	907.05
520.13	922.45
520.49	937.96
520.85	953.44
521.21	969.25
521.57	985.64
521.93	1001.53
522.29	1017.87
522.65	1034.09
523.01	1050.29
523.37	1066.46
523.73	1082.66
524.09	1098.76
524.45	1115.20
524.81	1131.86
525.17	1148.71
525.53	1165.70
525.89	1182.61
526.25	1199.25
526.61	1215.79
526.97	1232.65
527.33	1249.18
527.68	1265.89
528.04	1282.46
528.40	1299.14
528.76	1316.18
529.12	1332.70
529.48	1349.65
529.84	1365.78
530.20	1382.42
530.56	1399.50
530.91	1416.84
531.27	1433.53
531.63	1449.96
531.99	1466.49
532.35	1482.58
532.71	1498.50
533.07	1514.73
533.42	1530.65
533.78	1546.87
534.14	1563.10
534.50	1578.51
534.86	1594.53
535.21	1609.69
535.57	1625.47
535.93	1641.03
536.29	1655.93
536.65	1671.23
537.00	1686.00
537.36	1701.39
537.72	1716.13
538.08	1730.47
538.44	1744.33
538.79	1758.35
539.15	1772.27
539.51	1786.18
539.87	1800.59
540.22	1814.44
540.58	1828.32
540.94	1841.67
541.29	1854.81
541.65	1867.54
542.01	1880.88
542.37	1893.08
542.72	1905.53
543.08	1917.56
543.44	1929.90
543.79	1941.24
544.15	1952.15
544.51	1963.79
544.87	1974.78
545.22	1985.58
545.58	1995.98
545.94	2005.80
546.29	2015.71
546.65	2025.35
547.01	2034.59
547.36	2043.41
547.72	2051.94
548.07	2059.81
548.43	2068.17
548.79	2076.12
549.14	2083.64
549.50	2091.03
549.86	2098.85
550.21	2106.28
550.57	2113.53
550.92	2120.13
551.28	2127.39
551.64	2134.50
551.99	2141.01
552.35	2147.12
552.70	2153.17
553.06	2159.14
553.41	2165.43
553.77	2171.43
554.13	2177.73
554.48	2183.73
554.84	2189.04
555.19	2194.35
555.55	2199.52
555.90	2203.95
556.26	2208.87
556.61	2213.57
556.97	2217.74
557.32	2221.82
557.68	2225.89
558.03	2230.13
558.39	2233.99
558.74	2238.30
559.10	2242.21
559.45	2245.83
559.81	2250.25
560.16	2254.22
560.52	2257.55
560.87	2261.09
561.23	2263.84
561.58	2266.84
561.94	2269.46
562.29	2271.95
562.64	2274.64
563.00	2277.24
563.35	2280.71
563.71	2283.73
564.06	2286.89
564.42	2289.68
564.77	2292.25
565.12	2294.52
565.48	2296.20
565.83	2297.92
566.19	2299.18
566.54	2300.16
566.89	2301.28
567.25	2301.77
567.60	2303.11
567.96	2304.76
568.31	2305.58
568.66	2306.47
569.02	2306.94
569.37	2307.16
569.72	2307.94
570.08	2307.97
570.43	2307.74
570.78	2307.08
571.14	2305.53
571.49	2304.14
571.84	2303.75
572.20	2302.49
572.55	2301.47
572.90	2299.91
573.26	2298.43
573.61	2296.77
573.96	2294.79
574.31	2291.79
574.67	2288.71
575.02	2284.93
575.37	2281.39
575.72	2277.41
576.08	2274.04
576.43	2270.63
576.78	2266.98
577.13	2263.72
577.49	2260.58
577.84	2257.19
578.19	2253.30
578.54	2249.52
578.90	2245.30
579.25	2239.83
579.60	2234.72
579.95	2229.38
580.30	2224.37
580.66	2219.10
581.01	2213.99
581.36	2209.07
581.71	2204.69
582.06	2200.14
582.42	2195.69
582.77	2190.28
583.12	2185.46
583.47	2180.61
583.82	2175.35
584.17	2169.94
584.53	2164.41
584.88	2158.63
585.23	2152.74
585.58	2147.22
585.93	2141.68
586.28	2136.86
586.63	2131.59
586.98	2126.59
587.34	2121.94
587.69	2116.91
588.04	2111.60
588.39	2105.91
588.74	2099.23
589.09	2093.15
589.44	2086.19
589.79	2080.05
590.14	2074.48
590.49	2067.99
590.84	2061.69
591.19	2055.77
591.54	2049.39
591.89	2041.80
592.25	2034.90
592.60	2027.62
592.95	2019.93
593.30	2012.48
593.65	2004.74
594.00	1997.67
594.35	1990.34
594.70	1982.37
595.05	1975.12
595.40	1967.73
595.75	1960.11
596.10	1953.84
596.45	1946.88
596.80	1940.61
597.15	1933.80
597.50	1926.55
597.85	1920.08
598.19	1913.32
598.54	1906.17
598.89	1899.36
599.24	1893.46
599.59	1886.76
599.94	1880.56
600.29	1874.28
600.64	1867.78
600.99	1860.29
601.34	1853.33
601.69	1846.18
602.04	1839.04
602.39	1831.57
602.74	1824.77
603.08	1818.10
603.43	1811.47
603.78	1804.17
604.13	1796.98
604.48	1789.75
604.83	1782.88
605.18	1775.83
605.53	1767.81
605.87	1759.65
606.22	1752.51
606.57	1744.50
606.92	1737.19
607.27	1729.98
607.62	1722.96
607.96	1715.47
608.31	1708.82
608.66	1701.21
609.01	1693.70
609.36	1686.15
609.70	1678.28
610.05	1670.08
610.40	1662.30
610.75	1653.81
611.10	1646.21
611.44	1637.96
611.79	1630.00
612.14	1621.27
612.49	1612.15
612.83	1603.75
613.18	1595.69
613.53	1587.55
613.88	1579.03
614.22	1570.78
614.57	1562.21
614.92	1554.20
615.27	1546.68
615.61	1538.43
615.96	1530.46
616.31	1522.86
616.65	1515.53
617.00	1507.88
617.35	1500.24
617.70	1491.98
618.04	1483.51
618.39	1475.24
618.74	1467.58
619.08	1459.23
619.43	1451.73
619.78	1444.79
620.12	1437.64
620.47	1430.02
620.82	1421.87
621.16	1414.49
621.51	1406.90
621.85	1399.23
622.20	1390.74
622.55	1382.41
622.89	1374.62
623.24	1367.00
623.59	1359.58
623.93	1352.08
624.28	1344.84
624.62	1337.42
624.97	1330.17
625.32	1323.46
625.66	1316.43
626.01	1309.25
626.35	1301.67
626.70	1293.98
627.04	1286.19
627.39	1278.38
627.73	1271.05
628.08	1264.09
628.43	1256.66
628.77	1249.14
629.12	1241.56
629.46	1234.26
629.81	1226.95
630.15	1219.59
630.50	1212.16
630.84	1204.00
631.19	1196.09
631.53	1188.61
631.88	1181.03
632.22	1173.44
632.57	1166.14
632.91	1158.60
633.26	1151.16
633.60	1143.92
633.95	1136.74
634.29	1129.86
634.64	1123.19
634.98	1115.80
635.32	1108.65
635.67	1102.14
636.01	1095.59
636.36	1088.85
636.70	1082.42
637.05	1075.66
637.39	1069.16
637.73	1062.68
638.08	1056.74
638.42	1050.81
638.77	1044.30
639.11	1037.62
639.45	1031.27
639.80	1024.58
640.14	1018.13
640.49	1011.57
640.83	1005.28
641.17	999.09
641.52	992.65
641.86	986.33
642.20	980.51
642.55	974.25
642.89	967.70
643.23	961.15
643.58	955.41
643.92	949.20
644.26	943.24
644.61	937.29
644.95	931.23
645.29	924.71
645.64	917.84
645.98	911.51
646.32	905.77
646.66	899.71
647.01	893.91
647.35	888.28
647.69	882.50
648.04	876.99
648.38	871.21
648.72	865.24
649.06	859.14
649.41	853.35
649.75	847.28
650.09	841.40
650.43	835.59
650.78	829.32
651.12	823.39
651.46	817.63
651.80	811.91
652.14	806.51
652.49	801.16
652.83	796.10
653.17	790.34
653.51	784.61
653.85	779.19
654.20	773.50
654.54	767.49
654.88	761.73
655.22	755.76
655.56	750.05
655.90	744.58
656.25	739.30
656.59	733.95
656.93	728.90
657.27	723.71
657.61	718.30
657.95	713.26
658.29	708.21
658.64	703.05
658.98	697.72
659.32	692.25
659.66	687.07
660.00	681.71
660.34	676.94
660.68	672.04
661.02	667.05
661.36	662.39
661.70	657.96
662.05	653.61
662.39	649.33
662.73	644.90
663.07	640.52
663.41	636.07
663.75	631.49
664.09	626.93
664.43	622.57
664.77	618.44
665.11	614.19
665.45	610.10
665.79	605.95
666.13	601.84
666.47	597.75
666.81	593.54
667.15	589.47
667.49	585.51
667.83	581.69
668.17	577.76
668.51	573.69
668.85	569.66
669.19	565.86
669.53	561.97
669.87	558.08
670.21	554.37
670.55	550.75
670.89	547.33
671.23	543.94
671.57	540.49
671.91	536.96
672.25	533.50
672.58	529.94
672.92	526.60
673.26	523.43
673.60	520.31
673.94	517.25
674.28	514.34
674.62	511.40
674.96	508.30
675.30	505.38
675.64	502.48
675.97	499.72
676.31	496.84
676.65	493.96
676.99	491.24
677.33	488.44
677.67	485.60
678.01	482.61
678.34	479.60
678.68	476.73
679.02	473.93
679.36	471.17
679.70	468.42
680.04	465.67
680.37	462.79
680.71	460.00
681.05	457.33
681.39	454.63
681.73	452.01
682.06	449.51
682.40	446.99
682.74	444.41
683.08	441.86
683.42	439.21
683.75	436.70
684.09	434.21
684.43	431.75
684.77	429.28
685.10	426.96
685.44	424.67
685.78	422.38
686.12	420.11
686.45	417.85
686.79	415.61
687.13	413.42
687.46	411.27
687.80	409.08
688.14	406.91
688.48	404.82
688.81	402.55
689.15	400.41
689.49	398.25
689.82	396.18
690.16	394.10
690.50	392.19
690.83	390.26
691.17	388.27
691.51	386.32
691.84	384.50
692.18	382.52
692.52	380.55
692.85	378.66
693.19	376.84
693.52	374.97
693.86	373.16
694.20	371.39
694.53	369.64
694.87	367.85
695.21	366.08
695.54	364.26
695.88	362.56
696.21	360.86
696.55	359.19
696.88	357.57
697.22	355.92
697.56	354.33
697.89	352.66
698.23	351.03
698.56	349.46
698.90	347.87
699.23	346.24
699.57	344.73
699.90	343.16
700.24	341.58
700.58	340.10
700.91	338.61
701.25	337.14
701.58	335.76
701.92	334.40
702.25	333.00
702.59	331.66
702.92	330.33
703.26	329.03
703.59	327.73
703.93	326.51
704.26	325.29
704.60	324.00
704.93	322.78
705.26	321.57
705.60	320.37
705.93	319.25
706.27	318.25
706.60	317.21
706.94	316.15
707.27	315.04
707.61	313.98
707.94	312.97
708.27	311.89
708.61	310.82
708.94	309.80
709.28	308.86
709.61	307.91
709.94	306.96
710.28	305.93
710.61	304.95
710.95	303.90
711.28	302.98
711.61	302.00
711.95	301.07
712.28	300.13
712.61	299.18
712.95	298.21
713.28	297.33
713.61	296.39
713.95	295.51
714.28	294.67
714.61	293.77
714.95	292.93
715.28	292.11
715.61	291.24
715.95	290.43
716.28	289.56
716.61	288.73
716.95	287.92
717.28	287.19
717.61	286.49
717.94	285.76
718.28	284.98
718.61	284.27
718.94	283.58
719.27	282.91
719.61	282.26
719.94	281.60
720.27	280.85
720.60	280.20
720.94	279.54
721.27	278.94
721.60	278.37
721.93	277.77
722.27	277.19
722.60	276.63
722.93	276.02
723.26	275.48
723.59	274.91
723.93	274.33
724.26	273.76
724.59	273.14
724.92	272.61
725.25	272.09
725.59	271.58
725.92	271.10
726.25	270.58
726.58	270.06
726.91	269.62
727.24	269.19
727.57	268.72
727.91	268.22
728.24	267.74
728.57	267.27
728.90	266.79
729.23	266.32
729.56	265.92
729.89	265.51
730.22	265.02
730.55	264.57
730.89	264.18
731.22	263.76
731.55	263.31
731.88	262.90
732.21	262.48
732.54	262.05
732.87	261.59
733.20	261.18
733.53	260.81
733.86	260.39
734.19	259.99
734.52	259.63
734.85	259.33
735.18	258.93
735.51	258.56
735.84	258.21
736.17	257.88
736.50	257.42
736.83	257.17
737.16	256.83
737.49	256.49
737.82	256.15
738.15	255.82
738.48	255.54
738.81	255.19
739.14	254.86
739.47	254.54
739.80	254.25
740.13	253.96
740.46	253.64
740.79	253.33
741.12	253.03
741.45	252.71
741.78	252.35
742.11	252.10
742.44	251.80
742.77	251.50
743.10	251.15
743.43	250.87
743.75	250.47
744.08	250.30
744.41	250.03
744.74	249.74
745.07	249.46
745.40	249.21
745.73	248.98
746.06	248.70
746.39	248.44
746.71	248.16
747.04	247.88
747.37	247.63
747.70	247.40
748.03	247.14
748.36	246.93
748.68	246.70
749.01	246.39
749.34	246.15
749.67	245.95
750.00	245.74
750.33	245.62
750.65	245.41
750.98	245.08
751.31	244.85
751.64	244.64
751.97	244.46
752.29	244.22
752.62	243.98
752.95	243.75
753.28	243.52
753.60	243.32
753.93	243.15
754.26	242.96
754.59	242.70
754.91	242.50
755.24	242.26
755.57	242.09
755.90	241.95
756.22	241.72
756.55	241.53
756.88	241.31
757.20	241.05
757.53	240.86
757.86	240.70
758.19	240.60
758.51	240.40
758.84	240.20
759.17	240.04
759.49	239.86
759.82	239.76
760.15	239.60
760.47	239.46
760.80	239.25
761.13	239.14
761.45	239.00
761.78	238.86
762.11	238.74
762.43	238.57
762.76	238.43
763.08	238.36
763.41	238.22
763.74	238.13
764.06	238.00
764.39	237.88
764.71	237.76
765.04	237.59
765.37	237.48
765.69	237.34
766.02	237.21
766.34	237.11
766.67	236.93
767.00	236.85
767.32	236.79
767.65	236.76
767.97	236.59
768.30	236.51
768.62	236.41
768.95	236.28
769.27	236.14
769.60	236.05
769.92	235.94
770.25	235.81
770.57	235.68
770.90	235.54
771.22	235.42
771.55	235.33
771.87	235.27
772.20	235.16
772.52	235.15
772.85	235.18
773.17	235.08
773.50	234.99
773.82	234.90
774.15	234.75
774.47	234.61
774.80	234.56
775.12	234.45
775.45	234.34
775.77	234.25
776.09	234.20
776.42	234.12
776.74	234.03
777.07	233.92
777.39	233.85
777.72	233.78
778.04	233.73
778.36	233.63
778.69	233.55
779.01	233.50
779.33	233.34
779.66	233.16
779.98	233.10
780.31	233.02
780.63	232.99
780.95	232.94
781.28	232.87
781.60	232.78
781.92	232.74
782.25	232.71
782.57	232.63
782.89	232.57
783.22	232.47
783.54	232.39
783.86	232.33
784.19	232.26
784.51	232.24
784.83	232.15
785.16	232.10
785.48	232.04
785.80	231.97
786.12	231.92
786.45	231.87
786.77	231.84
787.09	231.80
