SpectraSuite Data File
++++++++++++++++++++++++++++++++++++
Date: Fri Feb 01 15:17:29 EST 2013
User: group
Dark Spectrum Present: No
Reference Spectrum Present: No
Number of Sampled Component Spectra: 1
Spectrometers: USB2E7196
Integration Time (usec): 35000 (USB2E7196)
Spectra Averaged: 100 (USB2E7196)
Boxcar Smoothing: 10 (USB2E7196)
Correct for Electrical Dark: No (USB2E7196)
Strobe/Lamp Enabled: No (USB2E7196)
Correct for Detector Non-linearity: No (USB2E7196)
Correct for Stray Light: No (USB2E7196)
Number of Pixels in Processed Spectrum: 2048
>>>>>Begin Processed Spectral Data<<<<<
339.09	0.00
339.48	214.59
339.86	216.31
340.24	217.97
340.63	219.49
341.01	221.53
341.39	222.34
341.78	222.58
342.16	224.15
342.54	225.23
342.93	213.34
343.31	224.13
343.69	224.70
344.07	225.16
344.46	225.62
344.84	226.00
345.22	226.29
345.60	226.52
345.99	226.75
346.37	226.92
346.75	227.01
347.13	227.08
347.52	227.15
347.90	227.25
348.28	227.24
348.66	227.32
349.05	227.33
349.43	227.39
349.81	227.43
350.19	227.45
350.57	227.48
350.96	227.55
351.34	227.64
351.72	227.73
352.10	227.84
352.48	227.89
352.87	227.96
353.25	228.00
353.63	228.07
354.01	228.12
354.39	228.18
354.77	228.27
355.15	228.39
355.54	228.43
355.92	228.48
356.30	228.57
356.68	228.68
357.06	228.76
357.44	228.81
357.82	228.87
358.20	228.99
358.58	229.07
358.97	229.13
359.35	229.20
359.73	229.29
360.11	229.33
360.49	229.40
360.87	229.42
361.25	229.48
361.63	229.56
362.01	229.63
362.39	229.67
362.77	229.70
363.15	229.66
363.53	229.68
363.91	229.70
364.29	229.72
364.67	229.63
365.05	229.63
365.43	229.64
365.81	229.66
366.19	229.67
366.57	229.73
366.95	229.71
367.33	229.68
367.71	229.62
368.09	229.62
368.47	229.56
368.85	229.52
369.23	229.52
369.61	229.43
369.99	229.39
370.37	229.38
370.75	229.34
371.13	229.30
371.51	229.22
371.89	229.17
372.27	229.12
372.65	229.08
373.03	229.03
373.41	228.94
373.78	228.86
374.16	228.75
374.54	228.64
374.92	228.56
375.30	228.45
375.68	228.40
376.06	228.31
376.44	228.24
376.82	228.16
377.19	228.06
377.57	228.01
377.95	227.91
378.33	227.81
378.71	227.67
379.09	227.65
379.47	227.58
379.84	227.50
380.22	227.42
380.60	227.33
380.98	227.27
381.36	227.23
381.73	227.16
382.11	227.11
382.49	227.05
382.87	226.96
383.25	226.92
383.62	226.96
384.00	226.91
384.38	226.84
384.76	226.79
385.13	226.78
385.51	226.72
385.89	226.62
386.27	226.57
386.64	226.57
387.02	226.50
387.40	226.48
387.78	226.45
388.15	226.43
388.53	226.37
388.91	226.32
389.29	226.28
389.66	226.26
390.04	226.22
390.42	226.20
390.79	226.20
391.17	226.19
391.55	226.08
391.92	226.06
392.30	226.08
392.68	226.10
393.05	226.07
393.43	226.08
393.81	226.15
394.18	226.16
394.56	226.22
394.94	226.27
395.31	226.28
395.69	226.33
396.06	226.37
396.44	226.42
396.82	226.46
397.19	226.58
397.57	226.61
397.95	226.70
398.32	226.77
398.70	226.87
399.07	226.99
399.45	227.07
399.82	227.16
400.20	227.25
400.58	227.35
400.95	227.43
401.33	227.54
401.70	227.71
402.08	227.83
402.45	227.89
402.83	228.00
403.20	228.13
403.58	228.26
403.95	228.39
404.33	228.56
404.71	228.69
405.08	228.85
405.46	229.05
405.83	229.18
406.21	229.30
406.58	229.48
406.96	229.61
407.33	229.78
407.70	230.00
408.08	230.24
408.45	230.47
408.83	230.71
409.20	230.92
409.58	231.09
409.95	231.32
410.33	231.63
410.70	231.89
411.08	232.20
411.45	232.50
411.82	232.79
412.20	233.15
412.57	233.56
412.95	233.85
413.32	234.26
413.69	234.67
414.07	235.12
414.44	235.55
414.82	236.05
415.19	236.57
415.56	237.10
415.94	237.63
416.31	238.24
416.68	238.84
417.06	239.57
417.43	240.24
417.81	241.03
418.18	241.78
418.55	242.60
418.93	243.43
419.30	244.30
419.67	245.24
420.04	246.16
420.42	247.18
420.79	248.37
421.16	249.52
421.54	250.71
421.91	251.92
422.28	253.17
422.66	254.46
423.03	255.78
423.40	257.15
423.77	258.60
424.15	259.98
424.52	261.49
424.89	263.04
425.26	264.60
425.64	266.04
426.01	267.64
426.38	269.28
426.75	270.95
427.13	272.67
427.50	274.51
427.87	276.37
428.24	278.19
428.61	279.90
428.99	281.81
429.36	283.93
429.73	285.98
430.10	288.02
430.47	290.10
430.85	292.24
431.22	294.46
431.59	296.85
431.96	299.13
432.33	301.61
432.70	304.06
433.08	306.89
433.45	309.57
433.82	312.19
434.19	315.05
434.56	317.93
434.93	320.59
435.30	323.22
435.68	326.15
436.05	329.00
436.42	331.84
436.79	334.42
437.16	337.11
437.53	340.00
437.90	342.83
438.27	345.60
438.64	348.45
439.01	351.06
439.38	353.30
439.75	355.48
440.13	357.97
440.50	360.37
440.87	362.21
441.24	364.16
441.61	366.29
441.98	367.84
442.35	369.63
442.72	371.51
443.09	373.31
443.46	374.33
443.83	374.96
444.20	375.47
444.57	376.29
444.94	376.63
445.31	376.97
445.68	377.37
446.05	377.47
446.42	377.06
446.79	376.67
447.16	376.23
447.53	375.94
447.90	374.84
448.27	373.64
448.64	372.05
449.01	370.91
449.37	368.97
449.74	367.08
450.11	364.84
450.48	362.37
450.85	359.80
451.22	357.68
451.59	355.62
451.96	353.71
452.33	351.09
452.70	348.69
453.07	345.83
453.43	342.88
453.80	340.08
454.17	337.38
454.54	334.83
454.91	332.06
455.28	329.40
455.65	326.86
456.02	324.36
456.38	322.21
456.75	319.56
457.12	317.32
457.49	315.08
457.86	312.90
458.23	311.03
458.59	309.05
458.96	306.94
459.33	305.09
459.70	303.18
460.07	301.71
460.43	299.99
460.80	298.36
461.17	296.91
461.54	295.39
461.91	293.98
462.27	292.50
462.64	291.27
463.01	289.90
463.38	288.62
463.74	287.26
464.11	286.08
464.48	284.99
464.85	283.90
465.21	283.03
465.58	282.06
465.95	280.95
466.32	279.99
466.68	279.04
467.05	278.11
467.42	277.23
467.78	276.21
468.15	275.30
468.52	274.61
468.88	273.73
469.25	272.92
469.62	272.29
469.98	271.60
470.35	270.94
470.72	270.28
471.08	269.59
471.45	269.04
471.82	268.46
472.18	267.86
472.55	267.37
472.92	266.84
473.28	266.36
473.65	265.92
474.02	265.48
474.38	265.09
474.75	264.76
475.11	264.39
475.48	264.12
475.85	263.91
476.21	263.67
476.58	263.48
476.94	263.35
477.31	263.15
477.67	262.98
478.04	262.90
478.41	262.84
478.77	262.88
479.14	262.77
479.50	262.80
479.87	262.88
480.23	262.93
480.60	263.00
480.96	263.12
481.33	263.28
481.69	263.46
482.06	263.66
482.42	263.85
482.79	264.10
483.15	264.46
483.52	264.84
483.88	265.20
484.25	265.57
484.61	266.03
484.98	266.50
485.34	267.05
485.71	267.58
486.07	268.21
486.44	268.76
486.80	269.50
487.17	270.21
487.53	271.02
487.90	271.86
488.26	272.76
488.62	273.75
488.99	274.81
489.35	275.87
489.72	276.99
490.08	278.21
490.44	279.46
490.81	280.75
491.17	282.07
491.54	283.56
491.90	285.16
492.26	286.82
492.63	288.56
492.99	290.31
493.36	292.26
493.72	294.32
494.08	296.43
494.45	298.69
494.81	301.07
495.17	303.49
495.54	306.04
495.90	308.72
496.26	311.52
496.63	314.42
496.99	317.51
497.35	320.77
497.72	324.12
498.08	327.64
498.44	331.35
498.80	335.28
499.17	339.29
499.53	343.42
499.89	347.76
500.26	352.29
500.62	356.97
500.98	361.91
501.34	366.93
501.71	372.31
502.07	377.68
502.43	383.29
502.79	389.15
503.16	395.20
503.52	401.48
503.88	407.88
504.24	414.45
504.60	421.33
504.97	428.45
505.33	435.81
505.69	443.47
506.05	451.26
506.41	459.13
506.78	467.31
507.14	475.74
507.50	484.44
507.86	493.41
508.22	502.60
508.59	511.76
508.95	521.40
509.31	531.12
509.67	541.29
510.03	551.61
510.39	562.16
510.75	573.07
511.12	583.98
511.48	595.27
511.84	606.79
512.20	618.36
512.56	630.32
512.92	642.51
513.28	654.82
513.64	667.28
514.00	679.99
514.37	692.91
514.73	705.94
515.09	718.99
515.45	732.33
515.81	745.91
516.17	759.95
516.53	774.04
516.89	788.26
517.25	802.45
517.61	816.85
517.97	831.20
518.33	845.62
518.69	860.47
519.05	875.47
519.41	890.64
519.77	906.15
520.13	921.65
520.49	936.99
520.85	952.52
521.21	968.37
521.57	984.64
521.93	1000.40
522.29	1016.89
522.65	1033.18
523.01	1049.44
523.37	1065.54
523.73	1081.72
524.09	1097.90
524.45	1114.30
524.81	1130.96
525.17	1147.86
525.53	1164.92
525.89	1181.83
526.25	1198.62
526.61	1214.96
526.97	1231.73
527.33	1248.21
527.68	1264.86
528.04	1281.41
528.40	1298.13
528.76	1315.23
529.12	1331.95
529.48	1348.94
529.84	1365.00
530.20	1381.80
530.56	1398.87
530.91	1416.24
531.27	1433.06
531.63	1449.64
531.99	1466.25
532.35	1482.36
532.71	1498.30
533.07	1514.58
533.42	1530.64
533.78	1546.83
534.14	1563.28
534.50	1578.80
534.86	1594.86
535.21	1610.09
535.57	1626.21
535.93	1641.79
536.29	1656.59
536.65	1671.77
537.00	1686.66
537.36	1702.20
537.72	1716.75
538.08	1731.27
538.44	1745.36
538.79	1759.31
539.15	1773.10
539.51	1786.92
539.87	1801.38
540.22	1815.23
540.58	1828.99
540.94	1842.23
541.29	1855.22
541.65	1868.02
542.01	1881.36
542.37	1893.67
542.72	1906.15
543.08	1917.99
543.44	1930.32
543.79	1941.65
544.15	1952.55
544.51	1964.16
544.87	1975.11
545.22	1985.93
545.58	1996.17
545.94	2005.91
546.29	2015.87
546.65	2025.69
547.01	2034.90
547.36	2043.64
547.72	2052.12
548.07	2060.11
548.43	2068.57
548.79	2076.63
549.14	2084.17
549.50	2091.58
549.86	2099.42
550.21	2106.78
550.57	2113.93
550.92	2120.66
551.28	2127.78
551.64	2134.88
551.99	2141.42
552.35	2147.49
552.70	2153.64
553.06	2159.54
553.41	2165.75
553.77	2171.84
554.13	2178.03
554.48	2184.25
554.84	2189.67
555.19	2195.04
555.55	2200.19
555.90	2204.36
556.26	2209.19
556.61	2213.90
556.97	2217.83
557.32	2221.83
557.68	2225.93
558.03	2230.24
558.39	2233.85
558.74	2238.36
559.10	2242.28
559.45	2246.02
559.81	2250.40
560.16	2254.18
560.52	2257.42
560.87	2261.03
561.23	2263.65
561.58	2266.50
561.94	2268.96
562.29	2271.37
562.64	2273.89
563.00	2276.49
563.35	2280.10
563.71	2283.11
564.06	2286.37
564.42	2289.41
564.77	2291.89
565.12	2294.11
565.48	2295.90
565.83	2297.68
566.19	2299.00
566.54	2299.87
566.89	2300.85
567.25	2301.15
567.60	2302.40
567.96	2304.01
568.31	2304.74
568.66	2305.75
569.02	2306.20
569.37	2306.63
569.72	2307.39
570.08	2307.37
570.43	2307.25
570.78	2306.50
571.14	2305.02
571.49	2303.56
571.84	2303.21
572.20	2301.98
572.55	2300.94
572.90	2299.31
573.26	2297.92
573.61	2296.10
573.96	2294.19
574.31	2291.13
574.67	2288.21
575.02	2284.56
575.37	2281.11
575.72	2277.21
576.08	2273.78
576.43	2270.52
576.78	2266.56
577.13	2263.16
577.49	2260.19
577.84	2256.60
578.19	2252.96
578.54	2249.11
578.90	2244.76
579.25	2239.04
579.60	2233.92
579.95	2228.79
580.30	2223.65
580.66	2218.28
581.01	2213.33
581.36	2208.39
581.71	2204.13
582.06	2199.55
582.42	2194.95
582.77	2189.58
583.12	2184.83
583.47	2180.09
583.82	2174.80
584.17	2169.45
584.53	2163.94
584.88	2158.15
585.23	2152.43
585.58	2146.90
585.93	2141.57
586.28	2136.79
586.63	2131.65
586.98	2126.51
587.34	2121.89
587.69	2117.03
588.04	2111.78
588.39	2106.00
588.74	2099.52
589.09	2093.21
589.44	2086.41
589.79	2080.39
590.14	2074.74
590.49	2068.21
590.84	2061.71
591.19	2055.71
591.54	2049.27
591.89	2041.65
592.25	2034.79
592.60	2027.42
592.95	2019.56
593.30	2011.98
593.65	2004.34
594.00	1997.25
594.35	1990.13
594.70	1981.83
595.05	1974.46
595.40	1967.02
595.75	1959.37
596.10	1952.90
596.45	1946.18
596.80	1939.96
597.15	1933.18
597.50	1926.01
597.85	1919.51
598.19	1912.81
598.54	1905.48
598.89	1898.80
599.24	1893.04
599.59	1886.37
599.94	1880.12
600.29	1873.88
600.64	1867.24
600.99	1859.64
601.34	1852.74
601.69	1845.61
602.04	1838.73
602.39	1831.36
602.74	1824.63
603.08	1817.90
603.43	1811.19
603.78	1803.82
604.13	1796.46
604.48	1789.14
604.83	1782.25
605.18	1775.11
605.53	1767.00
605.87	1759.07
606.22	1751.71
606.57	1743.72
606.92	1736.29
607.27	1729.07
607.62	1721.99
607.96	1714.69
608.31	1708.01
608.66	1700.32
609.01	1692.70
609.36	1685.07
609.70	1677.15
610.05	1668.89
610.40	1661.08
610.75	1652.79
611.10	1645.15
611.44	1636.86
611.79	1628.84
612.14	1620.15
612.49	1611.13
612.83	1602.72
613.18	1594.66
613.53	1586.63
613.88	1578.00
614.22	1569.65
614.57	1561.15
614.92	1553.11
615.27	1545.51
615.61	1537.19
615.96	1529.33
616.31	1521.67
616.65	1514.31
617.00	1506.62
617.35	1499.02
617.70	1490.64
618.04	1482.09
618.39	1473.82
618.74	1466.10
619.08	1457.80
619.43	1450.22
619.78	1443.25
620.12	1436.15
620.47	1428.62
620.82	1420.45
621.16	1413.09
621.51	1405.56
621.85	1397.95
622.20	1389.60
622.55	1381.39
622.89	1373.53
623.24	1365.81
623.59	1358.53
623.93	1351.04
624.28	1343.86
624.62	1336.40
624.97	1329.36
625.32	1322.67
625.66	1315.59
626.01	1308.52
626.35	1301.09
626.70	1293.29
627.04	1285.55
627.39	1277.77
627.73	1270.28
628.08	1263.39
628.43	1256.08
628.77	1248.61
629.12	1240.99
629.46	1233.80
629.81	1226.30
630.15	1219.11
630.50	1211.76
630.84	1203.55
631.19	1195.68
631.53	1188.16
631.88	1180.59
632.22	1172.92
632.57	1165.54
632.91	1158.07
633.26	1150.73
633.60	1143.52
633.95	1136.55
634.29	1129.59
634.64	1122.95
634.98	1115.64
635.32	1108.46
635.67	1101.97
636.01	1095.42
636.36	1088.68
636.70	1082.16
637.05	1075.61
637.39	1069.24
637.73	1062.67
638.08	1056.81
638.42	1050.71
638.77	1044.26
639.11	1037.69
639.45	1031.37
639.80	1024.74
640.14	1018.28
640.49	1011.67
640.83	1005.24
641.17	999.01
641.52	992.66
641.86	986.19
642.20	980.29
642.55	974.07
642.89	967.47
643.23	960.92
643.58	955.10
643.92	948.84
644.26	942.67
644.61	936.65
644.95	930.60
645.29	924.02
645.64	917.25
645.98	910.90
646.32	905.10
646.66	899.04
647.01	893.24
647.35	887.53
647.69	881.74
648.04	876.26
648.38	870.49
648.72	864.42
649.06	858.30
649.41	852.43
649.75	846.36
650.09	840.46
650.43	834.66
650.78	828.47
651.12	822.55
651.46	816.91
651.80	811.11
652.14	805.74
652.49	800.34
652.83	795.30
653.17	789.63
653.51	783.83
653.85	778.50
654.20	772.82
654.54	766.89
654.88	761.15
655.22	755.27
655.56	749.52
655.90	744.14
656.25	739.00
656.59	733.70
656.93	728.68
657.27	723.51
657.61	718.12
657.95	713.05
658.29	708.06
658.64	702.75
658.98	697.37
659.32	691.92
659.66	686.70
660.00	681.31
660.34	676.39
660.68	671.50
661.02	666.48
661.36	661.84
661.70	657.41
662.05	653.05
662.39	648.71
662.73	644.29
663.07	639.97
663.41	635.48
663.75	630.99
664.09	626.45
664.43	622.13
664.77	618.05
665.11	613.80
665.45	609.64
665.79	605.70
666.13	601.72
666.47	597.70
666.81	593.55
667.15	589.50
667.49	585.63
667.83	581.87
668.17	577.96
668.51	573.94
668.85	569.87
669.19	565.99
669.53	562.15
669.87	558.29
670.21	554.55
670.55	550.97
670.89	547.60
671.23	544.13
671.57	540.61
671.91	537.02
672.25	533.59
672.58	530.06
672.92	526.67
673.26	523.60
673.60	520.43
673.94	517.37
674.28	514.48
674.62	511.50
674.96	508.43
675.30	505.51
675.64	502.58
675.97	499.81
676.31	496.97
676.65	494.06
676.99	491.34
677.33	488.48
677.67	485.65
678.01	482.55
678.34	479.63
678.68	476.76
679.02	473.99
679.36	471.21
679.70	468.49
680.04	465.72
680.37	462.72
680.71	459.92
681.05	457.31
681.39	454.61
681.73	451.97
682.06	449.43
682.40	446.85
682.74	444.34
683.08	441.84
683.42	439.24
683.75	436.76
684.09	434.26
684.43	431.79
684.77	429.35
685.10	427.04
685.44	424.74
685.78	422.50
686.12	420.23
686.45	418.00
686.79	415.71
687.13	413.49
687.46	411.39
687.80	409.30
688.14	407.08
688.48	404.99
688.81	402.73
689.15	400.54
689.49	398.45
689.82	396.34
690.16	394.26
690.50	392.33
690.83	390.39
691.17	388.41
691.51	386.54
691.84	384.67
692.18	382.73
692.52	380.74
692.85	378.78
693.19	376.96
693.52	375.11
693.86	373.28
694.20	371.54
694.53	369.70
694.87	367.84
695.21	366.09
695.54	364.30
695.88	362.58
696.21	360.91
696.55	359.25
696.88	357.58
697.22	355.89
697.56	354.27
697.89	352.59
698.23	350.94
698.56	349.32
698.90	347.76
699.23	346.15
699.57	344.62
699.90	343.11
700.24	341.54
700.58	339.98
700.91	338.52
701.25	337.06
701.58	335.69
701.92	334.34
702.25	332.93
702.59	331.54
702.92	330.25
703.26	328.95
703.59	327.67
703.93	326.50
704.26	325.29
704.60	324.03
704.93	322.79
705.26	321.57
705.60	320.42
705.93	319.27
706.27	318.24
706.60	317.18
706.94	316.10
707.27	314.95
707.61	313.91
707.94	312.89
708.27	311.81
708.61	310.73
708.94	309.74
709.28	308.80
709.61	307.89
709.94	306.94
710.28	305.94
710.61	304.97
710.95	303.91
711.28	302.99
711.61	302.06
711.95	301.16
712.28	300.24
712.61	299.26
712.95	298.30
713.28	297.43
713.61	296.57
713.95	295.66
714.28	294.90
714.61	294.05
714.95	293.25
715.28	292.40
715.61	291.57
715.95	290.70
716.28	289.83
716.61	289.01
716.95	288.22
717.28	287.48
717.61	286.70
717.94	285.94
718.28	285.15
718.61	284.40
718.94	283.72
719.27	283.06
719.61	282.44
719.94	281.82
720.27	281.08
720.60	280.40
720.94	279.78
721.27	279.17
721.60	278.59
721.93	277.95
722.27	277.44
722.60	276.86
722.93	276.29
723.26	275.77
723.59	275.20
723.93	274.63
724.26	274.07
724.59	273.51
724.92	272.99
725.25	272.51
725.59	272.01
725.92	271.47
726.25	270.95
726.58	270.42
726.91	269.90
727.24	269.45
727.57	268.98
727.91	268.51
728.24	268.00
728.57	267.49
728.90	267.05
729.23	266.52
729.56	266.07
729.89	265.58
730.22	265.10
730.55	264.60
730.89	264.18
731.22	263.71
731.55	263.25
731.88	262.82
732.21	262.38
732.54	261.91
732.87	261.47
733.20	261.05
733.53	260.65
733.86	260.27
734.19	259.89
734.52	259.50
734.85	259.17
735.18	258.73
735.51	258.39
735.84	258.00
736.17	257.64
736.50	257.22
736.83	256.97
737.16	256.62
737.49	256.30
737.82	255.90
738.15	255.56
738.48	255.23
738.81	254.88
739.14	254.54
739.47	254.23
739.80	253.92
740.13	253.61
740.46	253.28
740.79	252.92
741.12	252.57
741.45	252.26
741.78	251.90
742.11	251.64
742.44	251.30
742.77	250.98
743.10	250.72
743.43	250.44
743.75	250.08
744.08	249.92
744.41	249.66
744.74	249.42
745.07	249.13
745.40	248.90
745.73	248.69
746.06	248.42
746.39	248.16
746.71	247.91
747.04	247.63
747.37	247.39
747.70	247.18
748.03	246.93
748.36	246.73
748.68	246.49
749.01	246.26
749.34	246.05
749.67	245.86
750.00	245.62
750.33	245.49
750.65	245.28
750.98	244.94
751.31	244.73
751.64	244.52
751.97	244.40
752.29	244.14
752.62	243.92
752.95	243.75
753.28	243.58
753.60	243.39
753.93	243.22
754.26	243.05
754.59	242.81
754.91	242.61
755.24	242.40
755.57	242.22
755.90	242.06
756.22	241.88
756.55	241.68
756.88	241.48
757.20	241.26
757.53	241.08
757.86	240.93
758.19	240.77
758.51	240.61
758.84	240.39
759.17	240.26
759.49	240.07
759.82	239.97
760.15	239.81
760.47	239.65
760.80	239.50
761.13	239.38
761.45	239.24
761.78	239.14
762.11	239.01
762.43	238.85
762.76	238.68
763.08	238.56
763.41	238.42
763.74	238.30
764.06	238.13
764.39	238.02
764.71	237.84
765.04	237.69
765.37	237.55
765.69	237.44
766.02	237.30
766.34	237.17
766.67	236.97
767.00	236.86
767.32	236.79
767.65	236.74
767.97	236.59
768.30	236.51
768.62	236.36
768.95	236.22
769.27	236.10
769.60	236.00
769.92	235.87
770.25	235.74
770.57	235.59
770.90	235.52
771.22	235.35
771.55	235.26
771.87	235.17
772.20	235.07
772.52	235.02
772.85	235.06
773.17	234.97
773.50	234.88
773.82	234.77
774.15	234.61
774.47	234.44
774.80	234.36
775.12	234.26
775.45	234.15
775.77	234.03
776.09	233.97
776.42	233.89
776.74	233.79
777.07	233.73
777.39	233.67
777.72	233.60
778.04	233.55
778.36	233.48
778.69	233.41
779.01	233.31
779.33	233.15
779.66	232.96
779.98	232.88
780.31	232.80
780.63	232.77
780.95	232.73
781.28	232.67
781.60	232.56
781.92	232.48
782.25	232.44
782.57	232.40
782.89	232.32
783.22	232.25
783.54	232.19
783.86	232.12
784.19	232.06
784.51	232.00
784.83	231.94
785.16	231.90
785.48	231.87
785.80	231.86
786.12	231.84
786.45	231.79
786.77	231.78
787.09	231.74
