SpectraSuite Data File
++++++++++++++++++++++++++++++++++++
Date: Fri Feb 01 17:21:04 EST 2013
User: group
Dark Spectrum Present: No
Reference Spectrum Present: No
Number of Sampled Component Spectra: 1
Spectrometers: USB2E7196
Integration Time (usec): 35000 (USB2E7196)
Spectra Averaged: 100 (USB2E7196)
Boxcar Smoothing: 10 (USB2E7196)
Correct for Electrical Dark: No (USB2E7196)
Strobe/Lamp Enabled: No (USB2E7196)
Correct for Detector Non-linearity: No (USB2E7196)
Correct for Stray Light: No (USB2E7196)
Number of Pixels in Processed Spectrum: 2048
>>>>>Begin Processed Spectral Data<<<<<
339.09	0.00
339.48	212.63
339.86	214.35
340.24	215.59
340.63	216.77
341.01	219.53
341.39	219.20
341.78	220.94
342.16	222.20
342.54	222.86
342.93	211.02
343.31	221.70
343.69	222.26
344.07	222.72
344.46	223.13
344.84	223.52
345.22	223.79
345.60	224.02
345.99	224.20
346.37	224.34
346.75	224.42
347.13	224.50
347.52	224.57
347.90	224.63
348.28	224.71
348.66	224.75
349.05	224.77
349.43	224.78
349.81	224.85
350.19	224.93
350.57	224.93
350.96	225.02
351.34	225.11
351.72	225.17
352.10	225.24
352.48	225.32
352.87	225.34
353.25	225.42
353.63	225.54
354.01	225.61
354.39	225.65
354.77	225.75
355.15	225.87
355.54	225.93
355.92	225.97
356.30	226.03
356.68	226.15
357.06	226.22
357.44	226.31
357.82	226.37
358.20	226.48
358.58	226.56
358.97	226.62
359.35	226.69
359.73	226.80
360.11	226.86
360.49	226.94
360.87	227.00
361.25	227.07
361.63	227.12
362.01	227.19
362.39	227.27
362.77	227.33
363.15	227.36
363.53	227.37
363.91	227.43
364.29	227.44
364.67	227.38
365.05	227.42
365.43	227.44
365.81	227.46
366.19	227.51
366.57	227.58
366.95	227.60
367.33	227.55
367.71	227.53
368.09	227.57
368.47	227.56
368.85	227.57
369.23	227.56
369.61	227.50
369.99	227.51
370.37	227.51
370.75	227.50
371.13	227.46
371.51	227.43
371.89	227.39
372.27	227.37
372.65	227.35
373.03	227.32
373.41	227.27
373.78	227.24
374.16	227.13
374.54	227.03
374.92	226.95
375.30	226.93
375.68	226.87
376.06	226.82
376.44	226.77
376.82	226.71
377.19	226.64
377.57	226.57
377.95	226.49
378.33	226.39
378.71	226.31
379.09	226.26
379.47	226.20
379.84	226.13
380.22	226.04
380.60	225.96
380.98	225.89
381.36	225.82
381.73	225.70
382.11	225.64
382.49	225.61
382.87	225.55
383.25	225.50
383.62	225.52
384.00	225.42
384.38	225.33
384.76	225.34
385.13	225.34
385.51	225.32
385.89	225.23
386.27	225.18
386.64	225.13
387.02	225.05
387.40	225.01
387.78	224.96
388.15	224.94
388.53	224.89
388.91	224.88
389.29	224.84
389.66	224.86
390.04	224.84
390.42	224.80
390.79	224.82
391.17	224.80
391.55	224.70
391.92	224.69
392.30	224.69
392.68	224.62
393.05	224.58
393.43	224.54
393.81	224.58
394.18	224.55
394.56	224.56
394.94	224.60
395.31	224.58
395.69	224.66
396.06	224.69
396.44	224.72
396.82	224.69
397.19	224.80
397.57	224.80
397.95	224.85
398.32	224.87
398.70	224.91
399.07	224.98
399.45	225.02
399.82	225.07
400.20	225.16
400.58	225.21
400.95	225.23
401.33	225.36
401.70	225.48
402.08	225.60
402.45	225.70
402.83	225.82
403.20	225.91
403.58	225.98
403.95	226.09
404.33	226.22
404.71	226.36
405.08	226.51
405.46	226.65
405.83	226.78
406.21	226.91
406.58	227.07
406.96	227.20
407.33	227.39
407.70	227.59
408.08	227.83
408.45	228.06
408.83	228.30
409.20	228.52
409.58	228.68
409.95	228.93
410.33	229.17
410.70	229.42
411.08	229.77
411.45	230.05
411.82	230.35
412.20	230.72
412.57	231.16
412.95	231.44
413.32	231.87
413.69	232.31
414.07	232.77
414.44	233.26
414.82	233.80
415.19	234.35
415.56	234.90
415.94	235.47
416.31	236.15
416.68	236.78
417.06	237.50
417.43	238.22
417.81	239.05
418.18	239.89
418.55	240.76
418.93	241.68
419.30	242.65
419.67	243.60
420.04	244.60
420.42	245.63
420.79	246.87
421.16	248.07
421.54	249.29
421.91	250.57
422.28	251.86
422.66	253.20
423.03	254.52
423.40	255.91
423.77	257.40
424.15	258.86
424.52	260.42
424.89	262.06
425.26	263.66
425.64	265.12
426.01	266.76
426.38	268.47
426.75	270.21
427.13	271.95
427.50	273.88
427.87	275.81
428.24	277.73
428.61	279.53
428.99	281.52
429.36	283.72
429.73	285.83
430.10	287.87
430.47	290.01
430.85	292.22
431.22	294.51
431.59	296.93
431.96	299.26
432.33	301.81
432.70	304.27
433.08	307.19
433.45	309.94
433.82	312.62
434.19	315.59
434.56	318.45
434.93	321.20
435.30	323.87
435.68	326.85
436.05	329.70
436.42	332.53
436.79	335.10
437.16	337.85
437.53	340.81
437.90	343.74
438.27	346.53
438.64	349.45
439.01	352.10
439.38	354.42
439.75	356.63
440.13	359.17
440.50	361.60
440.87	363.51
441.24	365.50
441.61	367.71
441.98	369.22
442.35	371.09
442.72	373.03
443.09	374.96
443.46	375.97
443.83	376.65
444.20	377.19
444.57	378.12
444.94	378.41
445.31	378.71
445.68	379.08
446.05	379.24
446.42	378.86
446.79	378.50
447.16	378.06
447.53	377.77
447.90	376.65
448.27	375.44
448.64	373.78
449.01	372.64
449.37	370.67
449.74	368.72
450.11	366.39
450.48	363.86
450.85	361.23
451.22	359.03
451.59	356.93
451.96	354.99
452.33	352.29
452.70	349.91
453.07	347.03
453.43	344.03
453.80	341.15
454.17	338.37
454.54	335.74
454.91	332.91
455.28	330.16
455.65	327.57
456.02	325.07
456.38	322.85
456.75	320.08
457.12	317.72
457.49	315.47
457.86	313.25
458.23	311.33
458.59	309.20
458.96	307.08
459.33	305.17
459.70	303.25
460.07	301.69
460.43	299.90
460.80	298.22
461.17	296.78
461.54	295.24
461.91	293.80
462.27	292.31
462.64	291.07
463.01	289.64
463.38	288.34
463.74	286.95
464.11	285.76
464.48	284.73
464.85	283.61
465.21	282.72
465.58	281.76
465.95	280.62
466.32	279.71
466.68	278.81
467.05	277.89
467.42	276.96
467.78	275.99
468.15	275.09
468.52	274.42
468.88	273.54
469.25	272.73
469.62	272.08
469.98	271.40
470.35	270.73
470.72	270.11
471.08	269.44
471.45	268.90
471.82	268.33
472.18	267.75
472.55	267.28
472.92	266.73
473.28	266.24
473.65	265.79
474.02	265.33
474.38	264.92
474.75	264.56
475.11	264.21
475.48	263.96
475.85	263.75
476.21	263.53
476.58	263.37
476.94	263.19
477.31	263.04
477.67	262.89
478.04	262.77
478.41	262.72
478.77	262.74
479.14	262.65
479.50	262.67
479.87	262.69
480.23	262.79
480.60	262.87
480.96	262.94
481.33	263.18
481.69	263.34
482.06	263.54
482.42	263.77
482.79	264.04
483.15	264.36
483.52	264.73
483.88	265.06
484.25	265.41
484.61	265.83
484.98	266.28
485.34	266.83
485.71	267.42
486.07	268.00
486.44	268.56
486.80	269.24
487.17	269.95
487.53	270.78
487.90	271.60
488.26	272.51
488.62	273.52
488.99	274.43
489.35	275.50
489.72	276.59
490.08	277.77
490.44	278.98
490.81	280.26
491.17	281.60
491.54	283.02
491.90	284.55
492.26	286.17
492.63	287.88
492.99	289.63
493.36	291.55
493.72	293.65
494.08	295.72
494.45	297.96
494.81	300.28
495.17	302.69
495.54	305.26
495.90	307.92
496.26	310.72
496.63	313.68
496.99	316.79
497.35	320.07
497.72	323.43
498.08	326.91
498.44	330.57
498.80	334.43
499.17	338.47
499.53	342.62
499.89	347.02
500.26	351.49
500.62	356.16
500.98	361.03
501.34	365.99
501.71	371.26
502.07	376.63
502.43	382.22
502.79	387.96
503.16	393.99
503.52	400.19
503.88	406.53
504.24	413.13
504.60	419.91
504.97	426.97
505.33	434.26
505.69	441.91
506.05	449.58
506.41	457.33
506.78	465.36
507.14	473.67
507.50	482.19
507.86	491.12
508.22	500.14
508.59	509.22
508.95	518.62
509.31	528.28
509.67	538.32
510.03	548.45
510.39	558.83
510.75	569.42
511.12	580.23
511.48	591.26
511.84	602.46
512.20	613.85
512.56	625.52
512.92	637.45
513.28	649.59
513.64	661.86
514.00	674.37
514.37	687.11
514.73	699.98
515.09	712.81
515.45	725.68
515.81	738.99
516.17	752.66
516.53	766.53
516.89	780.41
517.25	794.24
517.61	808.39
517.97	822.56
518.33	836.67
518.69	851.13
519.05	865.85
519.41	880.74
519.77	895.81
520.13	910.98
520.49	926.07
520.85	941.04
521.21	956.30
521.57	972.12
521.93	987.48
522.29	1003.30
522.65	1019.24
523.01	1035.10
523.37	1050.65
523.73	1066.50
524.09	1082.17
524.45	1098.17
524.81	1114.33
525.17	1130.61
525.53	1147.06
525.89	1163.63
526.25	1180.00
526.61	1195.85
526.97	1212.18
527.33	1228.32
527.68	1244.48
528.04	1260.48
528.40	1276.63
528.76	1293.40
529.12	1309.65
529.48	1326.24
529.84	1341.99
530.20	1358.16
530.56	1374.76
530.91	1391.89
531.27	1408.34
531.63	1424.48
531.99	1440.56
532.35	1456.25
532.71	1471.87
533.07	1487.83
533.42	1503.40
533.78	1519.24
534.14	1535.23
534.50	1550.31
534.86	1565.84
535.21	1580.78
535.57	1596.46
535.93	1611.78
536.29	1626.19
536.65	1640.98
537.00	1655.41
537.36	1670.57
537.72	1684.81
538.08	1699.19
538.44	1712.92
538.79	1726.60
539.15	1739.97
539.51	1753.60
539.87	1767.75
540.22	1781.34
540.58	1794.81
540.94	1807.87
541.29	1820.38
541.65	1833.03
542.01	1846.07
542.37	1858.28
542.72	1870.50
543.08	1882.30
543.44	1894.57
543.79	1905.94
544.15	1916.84
544.51	1928.44
544.87	1939.28
545.22	1950.22
545.58	1960.42
545.94	1970.20
546.29	1979.94
546.65	1990.02
547.01	1999.35
547.36	2008.10
547.72	2016.72
548.07	2024.90
548.43	2033.07
548.79	2041.19
549.14	2049.02
549.50	2056.46
549.86	2064.22
550.21	2071.79
550.57	2078.98
550.92	2085.86
551.28	2093.10
551.64	2100.39
551.99	2107.10
552.35	2113.49
552.70	2119.97
553.06	2126.26
553.41	2132.75
553.77	2139.10
554.13	2145.14
554.48	2151.49
554.84	2157.45
555.19	2162.88
555.55	2168.21
555.90	2173.20
556.26	2178.64
556.61	2183.58
556.97	2188.32
557.32	2192.93
557.68	2197.46
558.03	2202.06
558.39	2205.95
558.74	2210.69
559.10	2214.92
559.45	2218.82
559.81	2223.33
560.16	2227.37
560.52	2230.82
560.87	2234.48
561.23	2237.43
561.58	2240.73
561.94	2243.65
562.29	2246.14
562.64	2249.26
563.00	2251.98
563.35	2255.69
563.71	2258.92
564.06	2262.25
564.42	2265.51
564.77	2268.33
565.12	2270.95
565.48	2273.36
565.83	2275.67
566.19	2277.47
566.54	2278.67
566.89	2280.19
567.25	2281.37
567.60	2282.87
567.96	2284.96
568.31	2286.18
568.66	2287.61
569.02	2288.67
569.37	2289.34
569.72	2290.69
570.08	2291.35
570.43	2291.90
570.78	2291.69
571.14	2290.59
571.49	2289.59
571.84	2289.45
572.20	2288.82
572.55	2288.02
572.90	2286.55
573.26	2285.46
573.61	2283.99
573.96	2282.69
574.31	2280.25
574.67	2277.51
575.02	2274.18
575.37	2270.99
575.72	2267.58
576.08	2264.61
576.43	2261.47
576.78	2258.31
577.13	2255.23
577.49	2252.04
577.84	2248.93
578.19	2245.58
578.54	2242.33
578.90	2238.60
579.25	2233.40
579.60	2228.77
579.95	2224.11
580.30	2219.38
580.66	2214.62
581.01	2209.95
581.36	2205.16
581.71	2201.25
582.06	2197.11
582.42	2193.06
582.77	2188.27
583.12	2184.02
583.47	2179.71
583.82	2175.23
584.17	2170.12
584.53	2164.99
584.88	2159.97
585.23	2154.56
585.58	2149.18
585.93	2143.87
586.28	2139.15
586.63	2134.33
586.98	2129.36
587.34	2124.78
587.69	2120.13
588.04	2114.99
588.39	2109.63
588.74	2103.34
589.09	2097.31
589.44	2090.75
589.79	2084.71
590.14	2079.20
590.49	2072.77
590.84	2066.41
591.19	2060.60
591.54	2054.25
591.89	2047.22
592.25	2040.63
592.60	2033.46
592.95	2026.26
593.30	2019.22
593.65	2011.80
594.00	2004.85
594.35	1997.58
594.70	1989.56
595.05	1982.72
595.40	1975.65
595.75	1968.21
596.10	1962.29
596.45	1955.78
596.80	1949.76
597.15	1943.50
597.50	1936.72
597.85	1930.37
598.19	1923.93
598.54	1917.00
598.89	1910.50
599.24	1904.60
599.59	1898.01
599.94	1891.86
600.29	1885.62
600.64	1879.08
600.99	1871.88
601.34	1865.30
601.69	1858.48
602.04	1851.96
602.39	1844.58
602.74	1837.87
603.08	1831.26
603.43	1824.56
603.78	1817.10
604.13	1809.81
604.48	1802.60
604.83	1795.65
605.18	1788.89
605.53	1780.98
605.87	1772.88
606.22	1765.67
606.57	1757.59
606.92	1749.98
607.27	1742.91
607.62	1735.96
607.96	1728.79
608.31	1722.26
608.66	1714.64
609.01	1707.27
609.36	1699.69
609.70	1691.74
610.05	1683.62
610.40	1676.01
610.75	1667.62
611.10	1660.08
611.44	1651.73
611.79	1643.62
612.14	1634.99
612.49	1625.68
612.83	1617.20
613.18	1608.96
613.53	1600.81
613.88	1592.35
614.22	1584.17
614.57	1575.43
614.92	1567.34
615.27	1559.73
615.61	1551.42
615.96	1543.20
616.31	1535.29
616.65	1527.77
617.00	1520.16
617.35	1512.31
617.70	1503.93
618.04	1495.52
618.39	1487.12
618.74	1479.48
619.08	1471.08
619.43	1463.34
619.78	1456.27
620.12	1449.04
620.47	1441.59
620.82	1433.18
621.16	1425.63
621.51	1417.85
621.85	1410.14
622.20	1401.57
622.55	1393.06
622.89	1385.06
623.24	1377.32
623.59	1369.91
623.93	1362.23
624.28	1354.89
624.62	1347.40
624.97	1339.98
625.32	1332.96
625.66	1325.91
626.01	1318.67
626.35	1311.28
626.70	1303.41
627.04	1295.72
627.39	1287.80
627.73	1280.19
628.08	1273.42
628.43	1266.10
628.77	1258.78
629.12	1251.27
629.46	1243.92
629.81	1236.25
630.15	1228.85
630.50	1221.37
630.84	1213.04
631.19	1205.04
631.53	1197.35
631.88	1189.60
632.22	1182.06
632.57	1174.71
632.91	1167.03
633.26	1159.48
633.60	1151.91
633.95	1144.60
634.29	1137.40
634.64	1130.58
634.98	1123.09
635.32	1115.76
635.67	1109.09
636.01	1102.37
636.36	1095.51
636.70	1089.01
637.05	1082.51
637.39	1075.98
637.73	1069.48
638.08	1063.58
638.42	1057.63
638.77	1051.14
639.11	1044.67
639.45	1038.11
639.80	1031.49
640.14	1025.16
640.49	1018.64
640.83	1012.28
641.17	1006.12
641.52	999.76
641.86	993.27
642.20	987.45
642.55	980.93
642.89	974.44
643.23	967.74
643.58	961.89
643.92	955.68
644.26	949.66
644.61	943.58
644.95	937.47
645.29	930.93
645.64	924.10
645.98	917.76
646.32	911.74
646.66	905.70
647.01	899.81
647.35	893.97
647.69	887.96
648.04	882.41
648.38	876.57
648.72	870.71
649.06	864.73
649.41	858.75
649.75	852.96
650.09	846.98
650.43	841.26
650.78	835.01
651.12	829.02
651.46	823.17
651.80	817.51
652.14	812.09
652.49	806.65
652.83	801.43
653.17	795.84
653.51	790.18
653.85	784.76
654.20	779.05
654.54	773.02
654.88	767.27
655.22	761.29
655.56	755.55
655.90	749.87
656.25	744.60
656.59	739.22
656.93	734.10
657.27	728.88
657.61	723.35
657.95	718.28
658.29	713.10
658.64	707.83
658.98	702.37
659.32	696.86
659.66	691.61
660.00	686.31
660.34	681.26
660.68	676.28
661.02	671.19
661.36	666.54
661.70	662.06
662.05	657.72
662.39	653.42
662.73	648.94
663.07	644.57
663.41	640.04
663.75	635.59
664.09	631.00
664.43	626.62
664.77	622.55
665.11	618.31
665.45	614.13
665.79	610.00
666.13	605.88
666.47	601.74
666.81	597.57
667.15	593.43
667.49	589.47
667.83	585.56
668.17	581.65
668.51	577.60
668.85	573.45
669.19	569.57
669.53	565.69
669.87	561.87
670.21	558.14
670.55	554.44
670.89	550.89
671.23	547.42
671.57	543.82
671.91	540.27
672.25	536.65
672.58	533.17
672.92	529.73
673.26	526.53
673.60	523.36
673.94	520.26
674.28	517.24
674.62	514.33
674.96	511.21
675.30	508.32
675.64	505.36
675.97	502.60
676.31	499.69
676.65	496.74
676.99	493.95
677.33	491.03
677.67	488.28
678.01	485.32
678.34	482.36
678.68	479.44
679.02	476.60
679.36	473.80
679.70	471.04
680.04	468.29
680.37	465.41
680.71	462.60
681.05	459.92
681.39	457.20
681.73	454.50
682.06	452.00
682.40	449.38
682.74	446.77
683.08	444.14
683.42	441.50
683.75	439.01
684.09	436.42
684.43	433.94
684.77	431.39
685.10	428.98
685.44	426.63
685.78	424.34
686.12	422.06
686.45	419.79
686.79	417.46
687.13	415.22
687.46	413.01
687.80	410.86
688.14	408.60
688.48	406.53
688.81	404.25
689.15	402.05
689.49	399.83
689.82	397.71
690.16	395.60
690.50	393.64
690.83	391.63
691.17	389.66
691.51	387.71
691.84	385.84
692.18	383.95
692.52	381.94
692.85	379.98
693.19	378.08
693.52	376.20
693.86	374.36
694.20	372.55
694.53	370.74
694.87	368.84
695.21	367.05
695.54	365.18
695.88	363.40
696.21	361.65
696.55	359.98
696.88	358.26
697.22	356.58
697.56	354.89
697.89	353.24
698.23	351.61
698.56	350.00
698.90	348.40
699.23	346.71
699.57	345.21
699.90	343.63
700.24	342.03
700.58	340.50
700.91	339.03
701.25	337.58
701.58	336.19
701.92	334.81
702.25	333.44
702.59	332.07
702.92	330.76
703.26	329.47
703.59	328.17
703.93	326.95
704.26	325.73
704.60	324.44
704.93	323.20
705.26	321.90
705.60	320.69
705.93	319.50
706.27	318.44
706.60	317.30
706.94	316.23
707.27	315.12
707.61	314.02
707.94	312.94
708.27	311.81
708.61	310.68
708.94	309.63
709.28	308.61
709.61	307.63
709.94	306.63
710.28	305.59
710.61	304.56
710.95	303.48
711.28	302.53
711.61	301.54
711.95	300.62
712.28	299.68
712.61	298.70
712.95	297.80
713.28	296.91
713.61	295.96
713.95	295.04
714.28	294.18
714.61	293.29
714.95	292.44
715.28	291.58
715.61	290.66
715.95	289.80
716.28	288.92
716.61	288.03
716.95	287.19
717.28	286.43
717.61	285.64
717.94	284.91
718.28	284.09
718.61	283.38
718.94	282.63
719.27	281.96
719.61	281.31
719.94	280.61
720.27	279.85
720.60	279.23
720.94	278.57
721.27	277.96
721.60	277.33
721.93	276.71
722.27	276.14
722.60	275.61
722.93	275.03
723.26	274.48
723.59	273.93
723.93	273.37
724.26	272.81
724.59	272.21
724.92	271.64
725.25	271.14
725.59	270.61
725.92	270.08
726.25	269.51
726.58	269.00
726.91	268.49
727.24	268.04
727.57	267.55
727.91	267.02
728.24	266.56
728.57	266.07
728.90	265.63
729.23	265.13
729.56	264.73
729.89	264.21
730.22	263.72
730.55	263.26
730.89	262.83
731.22	262.37
731.55	261.94
731.88	261.51
732.21	261.06
732.54	260.64
732.87	260.19
733.20	259.81
733.53	259.44
733.86	259.05
734.19	258.61
734.52	258.22
734.85	257.92
735.18	257.52
735.51	257.15
735.84	256.75
736.17	256.40
736.50	255.97
736.83	255.78
737.16	255.48
737.49	255.15
737.82	254.78
738.15	254.42
738.48	254.11
738.81	253.79
739.14	253.44
739.47	253.12
739.80	252.84
740.13	252.52
740.46	252.16
740.79	251.83
741.12	251.53
741.45	251.22
741.78	250.89
742.11	250.60
742.44	250.26
742.77	250.00
743.10	249.66
743.43	249.35
743.75	248.94
744.08	248.76
744.41	248.50
744.74	248.22
745.07	247.97
745.40	247.73
745.73	247.46
746.06	247.20
746.39	246.92
746.71	246.63
747.04	246.39
747.37	246.09
747.70	245.84
748.03	245.58
748.36	245.31
748.68	245.02
749.01	244.74
749.34	244.57
749.67	244.31
750.00	244.09
750.33	243.92
750.65	243.70
750.98	243.38
751.31	243.10
751.64	242.92
751.97	242.73
752.29	242.50
752.62	242.26
752.95	242.03
753.28	241.81
753.60	241.58
753.93	241.34
754.26	241.17
754.59	240.91
754.91	240.71
755.24	240.50
755.57	240.33
755.90	240.13
756.22	239.91
756.55	239.68
756.88	239.48
757.20	239.23
757.53	239.01
757.86	238.79
758.19	238.65
758.51	238.43
758.84	238.20
759.17	238.01
759.49	237.83
759.82	237.72
760.15	237.58
760.47	237.44
760.80	237.27
761.13	237.14
761.45	237.00
761.78	236.84
762.11	236.70
762.43	236.54
762.76	236.38
763.08	236.24
763.41	236.11
763.74	235.97
764.06	235.85
764.39	235.73
764.71	235.58
765.04	235.42
765.37	235.29
765.69	235.16
766.02	235.03
766.34	234.93
766.67	234.78
767.00	234.66
767.32	234.59
767.65	234.53
767.97	234.41
768.30	234.36
768.62	234.23
768.95	234.12
769.27	233.99
769.60	233.92
769.92	233.80
770.25	233.70
770.57	233.59
770.90	233.48
771.22	233.38
771.55	233.29
771.87	233.22
772.20	233.14
772.52	233.13
772.85	233.17
773.17	233.07
773.50	232.94
773.82	232.86
774.15	232.71
774.47	232.58
774.80	232.49
775.12	232.36
775.45	232.30
775.77	232.22
776.09	232.15
776.42	232.09
776.74	232.03
777.07	231.94
777.39	231.89
777.72	231.78
778.04	231.71
778.36	231.64
778.69	231.56
779.01	231.47
779.33	231.30
779.66	231.11
779.98	231.03
780.31	230.99
780.63	230.93
780.95	230.90
781.28	230.82
781.60	230.74
781.92	230.66
782.25	230.59
782.57	230.54
782.89	230.51
783.22	230.42
783.54	230.33
783.86	230.30
784.19	230.24
784.51	230.22
784.83	230.19
785.16	230.15
785.48	230.09
785.80	230.02
786.12	230.01
786.45	229.94
786.77	229.89
787.09	229.82
