SpectraSuite Data File
++++++++++++++++++++++++++++++++++++
Date: Fri Feb 01 15:42:50 EST 2013
User: group
Dark Spectrum Present: No
Reference Spectrum Present: No
Number of Sampled Component Spectra: 1
Spectrometers: USB2E7196
Integration Time (usec): 35000 (USB2E7196)
Spectra Averaged: 100 (USB2E7196)
Boxcar Smoothing: 10 (USB2E7196)
Correct for Electrical Dark: No (USB2E7196)
Strobe/Lamp Enabled: No (USB2E7196)
Correct for Detector Non-linearity: No (USB2E7196)
Correct for Stray Light: No (USB2E7196)
Number of Pixels in Processed Spectrum: 2048
>>>>>Begin Processed Spectral Data<<<<<
339.09	0.00
339.48	214.96
339.86	216.85
340.24	218.23
340.63	219.10
341.01	221.86
341.39	221.96
341.78	223.05
342.16	224.50
342.54	224.95
342.93	213.39
343.31	224.19
343.69	224.74
344.07	225.20
344.46	225.61
344.84	225.99
345.22	226.26
345.60	226.50
345.99	226.69
346.37	226.80
346.75	226.90
347.13	226.99
347.52	227.06
347.90	227.12
348.28	227.12
348.66	227.18
349.05	227.17
349.43	227.23
349.81	227.29
350.19	227.34
350.57	227.40
350.96	227.47
351.34	227.56
351.72	227.66
352.10	227.76
352.48	227.80
352.87	227.85
353.25	227.90
353.63	227.98
354.01	228.04
354.39	228.15
354.77	228.24
355.15	228.32
355.54	228.38
355.92	228.38
356.30	228.46
356.68	228.57
357.06	228.65
357.44	228.68
357.82	228.71
358.20	228.78
358.58	228.85
358.97	228.91
359.35	228.96
359.73	229.03
360.11	229.07
360.49	229.13
360.87	229.21
361.25	229.27
361.63	229.33
362.01	229.36
362.39	229.37
362.77	229.40
363.15	229.42
363.53	229.42
363.91	229.47
364.29	229.48
364.67	229.39
365.05	229.37
365.43	229.43
365.81	229.46
366.19	229.46
366.57	229.50
366.95	229.48
367.33	229.45
367.71	229.39
368.09	229.39
368.47	229.40
368.85	229.32
369.23	229.31
369.61	229.23
369.99	229.26
370.37	229.23
370.75	229.23
371.13	229.19
371.51	229.14
371.89	229.09
372.27	229.07
372.65	229.03
373.03	229.00
373.41	228.89
373.78	228.80
374.16	228.71
374.54	228.58
374.92	228.49
375.30	228.40
375.68	228.32
376.06	228.25
376.44	228.16
376.82	228.11
377.19	228.00
377.57	227.93
377.95	227.82
378.33	227.75
378.71	227.61
379.09	227.53
379.47	227.48
379.84	227.39
380.22	227.32
380.60	227.23
380.98	227.17
381.36	227.09
381.73	227.04
382.11	227.01
382.49	226.95
382.87	226.88
383.25	226.86
383.62	226.91
384.00	226.84
384.38	226.78
384.76	226.76
385.13	226.72
385.51	226.69
385.89	226.60
386.27	226.55
386.64	226.54
387.02	226.46
387.40	226.39
387.78	226.37
388.15	226.33
388.53	226.32
388.91	226.28
389.29	226.30
389.66	226.26
390.04	226.22
390.42	226.25
390.79	226.25
391.17	226.20
391.55	226.10
391.92	226.10
392.30	226.11
392.68	226.08
393.05	226.11
393.43	226.13
393.81	226.17
394.18	226.14
394.56	226.15
394.94	226.25
395.31	226.30
395.69	226.35
396.06	226.41
396.44	226.44
396.82	226.48
397.19	226.57
397.57	226.64
397.95	226.68
398.32	226.68
398.70	226.76
399.07	226.85
399.45	226.97
399.82	227.04
400.20	227.12
400.58	227.22
400.95	227.29
401.33	227.38
401.70	227.56
402.08	227.70
402.45	227.82
402.83	227.91
403.20	228.02
403.58	228.13
403.95	228.27
404.33	228.41
404.71	228.53
405.08	228.73
405.46	228.88
405.83	229.10
406.21	229.27
406.58	229.42
406.96	229.58
407.33	229.71
407.70	229.89
408.08	230.15
408.45	230.38
408.83	230.59
409.20	230.79
409.58	230.95
409.95	231.22
410.33	231.50
410.70	231.79
411.08	232.11
411.45	232.39
411.82	232.68
412.20	233.04
412.57	233.46
412.95	233.70
413.32	234.08
413.69	234.46
414.07	234.87
414.44	235.35
414.82	235.85
415.19	236.38
415.56	236.91
415.94	237.45
416.31	238.05
416.68	238.64
417.06	239.37
417.43	240.06
417.81	240.80
418.18	241.55
418.55	242.36
418.93	243.18
419.30	244.09
419.67	245.02
420.04	245.98
420.42	246.96
420.79	248.13
421.16	249.33
421.54	250.51
421.91	251.75
422.28	253.01
422.66	254.34
423.03	255.68
423.40	257.04
423.77	258.41
424.15	259.86
424.52	261.35
424.89	262.94
425.26	264.51
425.64	265.97
426.01	267.57
426.38	269.20
426.75	270.90
427.13	272.62
427.50	274.43
427.87	276.31
428.24	278.16
428.61	279.90
428.99	281.78
429.36	283.89
429.73	285.94
430.10	287.96
430.47	290.00
430.85	292.11
431.22	294.39
431.59	296.80
431.96	299.05
432.33	301.54
432.70	303.94
433.08	306.72
433.45	309.31
433.82	311.90
434.19	314.78
434.56	317.58
434.93	320.26
435.30	322.87
435.68	325.75
436.05	328.60
436.42	331.42
436.79	333.99
437.16	336.66
437.53	339.50
437.90	342.34
438.27	345.09
438.64	347.93
439.01	350.48
439.38	352.69
439.75	354.86
440.13	357.34
440.50	359.65
440.87	361.53
441.24	363.50
441.61	365.70
441.98	367.21
442.35	368.99
442.72	370.77
443.09	372.65
443.46	373.60
443.83	374.16
444.20	374.70
444.57	375.49
444.94	375.79
445.31	376.12
445.68	376.45
446.05	376.51
446.42	376.11
446.79	375.70
447.16	375.30
447.53	374.97
447.90	373.86
448.27	372.73
448.64	371.16
449.01	370.01
449.37	368.00
449.74	366.11
450.11	363.92
450.48	361.50
450.85	358.89
451.22	356.77
451.59	354.77
451.96	352.82
452.33	350.21
452.70	347.86
453.07	345.04
453.43	342.12
453.80	339.36
454.17	336.68
454.54	334.13
454.91	331.37
455.28	328.71
455.65	326.18
456.02	323.73
456.38	321.54
456.75	318.89
457.12	316.66
457.49	314.43
457.86	312.23
458.23	310.40
458.59	308.40
458.96	306.33
459.33	304.48
459.70	302.62
460.07	301.14
460.43	299.39
460.80	297.78
461.17	296.36
461.54	294.87
461.91	293.46
462.27	292.02
462.64	290.77
463.01	289.42
463.38	288.16
463.74	286.76
464.11	285.61
464.48	284.59
464.85	283.44
465.21	282.61
465.58	281.67
465.95	280.57
466.32	279.65
466.68	278.73
467.05	277.86
467.42	276.94
467.78	276.00
468.15	275.11
468.52	274.47
468.88	273.60
469.25	272.84
469.62	272.21
469.98	271.48
470.35	270.83
470.72	270.20
471.08	269.55
471.45	269.05
471.82	268.49
472.18	267.86
472.55	267.42
472.92	266.85
473.28	266.37
473.65	265.89
474.02	265.46
474.38	265.10
474.75	264.77
475.11	264.42
475.48	264.14
475.85	263.90
476.21	263.63
476.58	263.47
476.94	263.33
477.31	263.14
477.67	263.03
478.04	262.96
478.41	262.91
478.77	262.92
479.14	262.83
479.50	262.87
479.87	262.97
480.23	263.08
480.60	263.19
480.96	263.29
481.33	263.52
481.69	263.68
482.06	263.88
482.42	264.03
482.79	264.28
483.15	264.61
483.52	265.00
483.88	265.34
484.25	265.69
484.61	266.10
484.98	266.55
485.34	267.10
485.71	267.66
486.07	268.22
486.44	268.76
486.80	269.49
487.17	270.18
487.53	271.00
487.90	271.85
488.26	272.74
488.62	273.75
488.99	274.69
489.35	275.75
489.72	276.84
490.08	278.05
490.44	279.28
490.81	280.60
491.17	281.96
491.54	283.41
491.90	284.96
492.26	286.60
492.63	288.38
492.99	290.18
493.36	292.07
493.72	294.14
494.08	296.28
494.45	298.49
494.81	300.86
495.17	303.29
495.54	305.84
495.90	308.55
496.26	311.32
496.63	314.30
496.99	317.42
497.35	320.72
497.72	324.14
498.08	327.69
498.44	331.39
498.80	335.34
499.17	339.41
499.53	343.55
499.89	347.96
500.26	352.46
500.62	357.13
500.98	362.11
501.34	367.21
501.71	372.54
502.07	378.03
502.43	383.65
502.79	389.44
503.16	395.50
503.52	401.80
503.88	408.23
504.24	414.85
504.60	421.70
504.97	428.82
505.33	436.13
505.69	443.75
506.05	451.52
506.41	459.36
506.78	467.54
507.14	476.04
507.50	484.79
507.86	493.77
508.22	503.00
508.59	512.19
508.95	521.80
509.31	531.67
509.67	541.76
510.03	552.04
510.39	562.60
510.75	573.41
511.12	584.39
511.48	595.68
511.84	607.17
512.20	618.73
512.56	630.67
512.92	642.89
513.28	655.29
513.64	667.76
514.00	680.49
514.37	693.40
514.73	706.47
515.09	719.45
515.45	732.70
515.81	746.25
516.17	760.33
516.53	774.45
516.89	788.58
517.25	802.78
517.61	817.24
517.97	831.83
518.33	846.27
518.69	861.05
519.05	876.04
519.41	891.21
519.77	906.80
520.13	922.24
520.49	937.57
520.85	953.07
521.21	968.86
521.57	985.14
521.93	1000.97
522.29	1017.33
522.65	1033.56
523.01	1049.96
523.37	1065.98
523.73	1082.12
524.09	1098.22
524.45	1114.57
524.81	1131.26
525.17	1148.11
525.53	1164.91
525.89	1181.76
526.25	1198.48
526.61	1214.94
526.97	1231.75
527.33	1248.17
527.68	1264.76
528.04	1281.31
528.40	1297.84
528.76	1314.86
529.12	1331.33
529.48	1348.29
529.84	1364.34
530.20	1380.94
530.56	1397.85
530.91	1415.21
531.27	1431.99
531.63	1448.39
531.99	1464.96
532.35	1480.89
532.71	1496.73
533.07	1512.93
533.42	1528.89
533.78	1545.00
534.14	1561.18
534.50	1576.41
534.86	1592.24
535.21	1607.49
535.57	1623.48
535.93	1639.03
536.29	1653.88
536.65	1669.10
537.00	1683.94
537.36	1699.21
537.72	1713.86
538.08	1728.35
538.44	1742.22
538.79	1756.06
539.15	1769.79
539.51	1783.39
539.87	1797.68
540.22	1811.50
540.58	1825.37
540.94	1838.69
541.29	1851.58
541.65	1864.41
542.01	1877.80
542.37	1890.18
542.72	1902.67
543.08	1914.42
543.44	1926.64
543.79	1937.77
544.15	1948.78
544.51	1960.27
544.87	1971.24
545.22	1981.91
545.58	1991.98
545.94	2001.71
546.29	2011.63
546.65	2021.49
547.01	2030.84
547.36	2039.48
547.72	2047.92
548.07	2055.78
548.43	2064.01
548.79	2072.13
549.14	2079.63
549.50	2086.84
549.86	2094.59
550.21	2101.85
550.57	2108.94
550.92	2115.47
551.28	2122.57
551.64	2129.53
551.99	2136.04
552.35	2142.27
552.70	2148.58
553.06	2154.50
553.41	2160.88
553.77	2166.88
554.13	2172.93
554.48	2179.08
554.84	2184.60
555.19	2189.87
555.55	2194.91
555.90	2199.28
556.26	2203.94
556.61	2208.65
556.97	2212.85
557.32	2216.87
557.68	2220.98
558.03	2225.30
558.39	2229.09
558.74	2233.67
559.10	2237.51
559.45	2241.06
559.81	2245.33
560.16	2249.06
560.52	2252.44
560.87	2255.83
561.23	2258.51
561.58	2261.44
561.94	2263.96
562.29	2266.31
562.64	2269.01
563.00	2271.63
563.35	2275.19
563.71	2278.44
564.06	2281.77
564.42	2284.69
564.77	2287.32
565.12	2289.50
565.48	2291.29
565.83	2293.15
566.19	2294.46
566.54	2295.29
566.89	2296.38
567.25	2296.82
567.60	2298.07
567.96	2299.68
568.31	2300.59
568.66	2301.56
569.02	2302.18
569.37	2302.46
569.72	2303.36
570.08	2303.45
570.43	2303.60
570.78	2302.94
571.14	2301.26
571.49	2299.64
571.84	2299.37
572.20	2298.04
572.55	2297.02
572.90	2295.52
573.26	2294.17
573.61	2292.47
573.96	2290.84
574.31	2287.90
574.67	2285.05
575.02	2281.48
575.37	2278.12
575.72	2274.13
576.08	2270.96
576.43	2267.61
576.78	2263.96
577.13	2260.84
577.49	2257.68
577.84	2254.10
578.19	2250.29
578.54	2246.71
578.90	2242.55
579.25	2236.85
579.60	2231.82
579.95	2226.84
580.30	2221.79
580.66	2216.67
581.01	2211.66
581.36	2206.74
581.71	2202.53
582.06	2197.93
582.42	2193.47
582.77	2188.15
583.12	2183.66
583.47	2178.79
583.82	2173.70
584.17	2168.40
584.53	2162.84
584.88	2157.19
585.23	2151.38
585.58	2146.02
585.93	2140.64
586.28	2135.90
586.63	2130.89
586.98	2125.97
587.34	2121.28
587.69	2116.41
588.04	2111.00
588.39	2105.45
588.74	2099.02
589.09	2092.80
589.44	2086.05
589.79	2080.10
590.14	2074.63
590.49	2067.95
590.84	2061.56
591.19	2055.62
591.54	2049.13
591.89	2041.55
592.25	2034.73
592.60	2027.48
592.95	2019.73
593.30	2012.32
593.65	2004.63
594.00	1997.53
594.35	1990.28
594.70	1982.18
595.05	1974.77
595.40	1967.60
595.75	1960.00
596.10	1953.55
596.45	1946.90
596.80	1940.83
597.15	1933.97
597.50	1926.65
597.85	1920.26
598.19	1913.61
598.54	1906.39
598.89	1899.83
599.24	1894.12
599.59	1887.36
599.94	1881.26
600.29	1875.03
600.64	1868.54
600.99	1861.20
601.34	1854.35
601.69	1847.31
602.04	1840.34
602.39	1833.13
602.74	1826.21
603.08	1819.44
603.43	1812.77
603.78	1805.34
604.13	1797.99
604.48	1790.78
604.83	1784.00
605.18	1776.95
605.53	1768.91
605.87	1760.86
606.22	1753.51
606.57	1745.41
606.92	1738.24
607.27	1730.93
607.62	1723.90
607.96	1716.39
608.31	1709.65
608.66	1702.03
609.01	1694.43
609.36	1686.85
609.70	1678.86
610.05	1670.77
610.40	1663.13
610.75	1654.76
611.10	1647.24
611.44	1638.81
611.79	1630.86
612.14	1622.20
612.49	1613.17
612.83	1604.87
613.18	1596.77
613.53	1588.69
613.88	1580.19
614.22	1571.75
614.57	1563.16
614.92	1555.15
615.27	1547.57
615.61	1539.23
615.96	1531.28
616.31	1523.69
616.65	1516.41
617.00	1508.79
617.35	1501.13
617.70	1492.73
618.04	1484.17
618.39	1475.86
618.74	1468.29
619.08	1459.94
619.43	1452.28
619.78	1445.25
620.12	1438.03
620.47	1430.48
620.82	1422.35
621.16	1415.00
621.51	1407.38
621.85	1399.84
622.20	1391.32
622.55	1383.09
622.89	1375.24
623.24	1367.59
623.59	1360.27
623.93	1352.71
624.28	1345.49
624.62	1338.05
624.97	1330.90
625.32	1324.25
625.66	1317.30
626.01	1310.06
626.35	1302.65
626.70	1294.92
627.04	1287.28
627.39	1279.48
627.73	1272.11
628.08	1265.29
628.43	1258.01
628.77	1250.74
629.12	1243.09
629.46	1235.92
629.81	1228.46
630.15	1221.32
630.50	1213.94
630.84	1205.71
631.19	1197.82
631.53	1190.36
631.88	1182.76
632.22	1175.18
632.57	1167.83
632.91	1160.28
633.26	1152.91
633.60	1145.47
633.95	1138.40
634.29	1131.41
634.64	1124.74
634.98	1117.44
635.32	1110.12
635.67	1103.40
636.01	1096.76
636.36	1090.06
636.70	1083.50
637.05	1076.95
637.39	1070.47
637.73	1063.93
638.08	1058.00
638.42	1051.98
638.77	1045.51
639.11	1038.88
639.45	1032.42
639.80	1025.80
640.14	1019.37
640.49	1012.88
640.83	1006.66
641.17	1000.34
641.52	993.82
641.86	987.42
642.20	981.43
642.55	975.15
642.89	968.66
643.23	962.09
643.58	956.18
643.92	950.13
644.26	944.01
644.61	937.97
644.95	931.86
645.29	925.32
645.64	918.57
645.98	912.34
646.32	906.51
646.66	900.55
647.01	894.74
647.35	889.00
647.69	883.08
648.04	877.47
648.38	871.70
648.72	865.78
649.06	859.71
649.41	853.94
649.75	848.00
650.09	842.11
650.43	836.30
650.78	830.18
651.12	824.13
651.46	818.47
651.80	812.64
652.14	807.28
652.49	801.91
652.83	796.68
653.17	790.94
653.51	785.21
653.85	779.79
654.20	774.14
654.54	768.06
654.88	762.36
655.22	756.53
655.56	750.83
655.90	745.38
656.25	740.06
656.59	734.69
656.93	729.65
657.27	724.49
657.61	719.06
657.95	713.98
658.29	708.90
658.64	703.64
658.98	698.37
659.32	692.96
659.66	687.71
660.00	682.43
660.34	677.50
660.68	672.60
661.02	667.50
661.36	662.82
661.70	658.36
662.05	654.09
662.39	649.74
662.73	645.35
663.07	640.95
663.41	636.54
663.75	632.01
664.09	627.44
664.43	623.10
664.77	618.97
665.11	614.72
665.45	610.62
665.79	606.52
666.13	602.46
666.47	598.38
666.81	594.26
667.15	590.14
667.49	586.26
667.83	582.44
668.17	578.58
668.51	574.48
668.85	570.53
669.19	566.66
669.53	562.79
669.87	558.94
670.21	555.29
670.55	551.66
670.89	548.24
671.23	544.81
671.57	541.23
671.91	537.70
672.25	534.23
672.58	530.71
672.92	527.33
673.26	524.13
673.60	520.99
673.94	517.83
674.28	514.96
674.62	511.99
674.96	508.94
675.30	506.00
675.64	503.04
675.97	500.24
676.31	497.35
676.65	494.43
676.99	491.72
677.33	488.88
677.67	486.04
678.01	482.99
678.34	479.97
678.68	477.19
679.02	474.38
679.36	471.65
679.70	468.95
680.04	466.19
680.37	463.29
680.71	460.46
681.05	457.84
681.39	455.09
681.73	452.42
682.06	449.87
682.40	447.33
682.74	444.89
683.08	442.31
683.42	439.70
683.75	437.24
684.09	434.70
684.43	432.20
684.77	429.75
685.10	427.47
685.44	425.21
685.78	422.85
686.12	420.62
686.45	418.26
686.79	415.91
687.13	413.70
687.46	411.53
687.80	409.36
688.14	407.16
688.48	405.05
688.81	402.78
689.15	400.62
689.49	398.40
689.82	396.27
690.16	394.19
690.50	392.25
690.83	390.26
691.17	388.22
691.51	386.30
691.84	384.42
692.18	382.43
692.52	380.44
692.85	378.54
693.19	376.63
693.52	374.82
693.86	373.01
694.20	371.20
694.53	369.41
694.87	367.58
695.21	365.83
695.54	364.12
695.88	362.42
696.21	360.68
696.55	359.01
696.88	357.32
697.22	355.64
697.56	354.05
697.89	352.42
698.23	350.86
698.56	349.23
698.90	347.66
699.23	346.04
699.57	344.50
699.90	343.00
700.24	341.48
700.58	339.98
700.91	338.52
701.25	337.14
701.58	335.76
701.92	334.42
702.25	333.02
702.59	331.65
702.92	330.34
703.26	329.05
703.59	327.83
703.93	326.64
704.26	325.45
704.60	324.11
704.93	322.87
705.26	321.63
705.60	320.49
705.93	319.38
706.27	318.35
706.60	317.25
706.94	316.16
707.27	315.03
707.61	313.99
707.94	312.96
708.27	311.83
708.61	310.83
708.94	309.84
709.28	308.89
709.61	307.91
709.94	306.96
710.28	305.99
710.61	305.06
710.95	304.01
711.28	303.09
711.61	302.16
711.95	301.23
712.28	300.24
712.61	299.25
712.95	298.33
713.28	297.44
713.61	296.60
713.95	295.75
714.28	294.92
714.61	294.00
714.95	293.16
715.28	292.36
715.61	291.48
715.95	290.61
716.28	289.77
716.61	288.95
716.95	288.16
717.28	287.40
717.61	286.61
717.94	285.86
718.28	285.06
718.61	284.33
718.94	283.64
719.27	283.01
719.61	282.37
719.94	281.69
720.27	280.97
720.60	280.28
720.94	279.61
721.27	279.00
721.60	278.50
721.93	277.89
722.27	277.32
722.60	276.73
722.93	276.15
723.26	275.60
723.59	275.02
723.93	274.47
724.26	273.89
724.59	273.32
724.92	272.82
725.25	272.35
725.59	271.84
725.92	271.29
726.25	270.80
726.58	270.29
726.91	269.76
727.24	269.31
727.57	268.82
727.91	268.31
728.24	267.82
728.57	267.28
728.90	266.83
729.23	266.29
729.56	265.84
729.89	265.36
730.22	264.85
730.55	264.38
730.89	263.91
731.22	263.44
731.55	262.99
731.88	262.51
732.21	262.03
732.54	261.55
732.87	261.13
733.20	260.71
733.53	260.35
733.86	259.98
734.19	259.53
734.52	259.12
734.85	258.79
735.18	258.40
735.51	258.07
735.84	257.70
736.17	257.37
736.50	257.00
736.83	256.74
737.16	256.38
737.49	256.03
737.82	255.68
738.15	255.37
738.48	255.04
738.81	254.77
739.14	254.46
739.47	254.18
739.80	253.87
740.13	253.55
740.46	253.24
740.79	252.95
741.12	252.65
741.45	252.38
741.78	252.05
742.11	251.77
742.44	251.45
742.77	251.14
743.10	250.84
743.43	250.55
743.75	250.20
744.08	250.09
744.41	249.82
744.74	249.57
745.07	249.27
745.40	249.05
745.73	248.80
746.06	248.56
746.39	248.32
746.71	248.05
747.04	247.79
747.37	247.53
747.70	247.25
748.03	247.00
748.36	246.78
748.68	246.55
749.01	246.29
749.34	246.07
749.67	245.84
750.00	245.60
750.33	245.47
750.65	245.24
750.98	244.92
751.31	244.73
751.64	244.51
751.97	244.38
752.29	244.15
752.62	243.90
752.95	243.72
753.28	243.48
753.60	243.26
753.93	243.11
754.26	242.92
754.59	242.69
754.91	242.51
755.24	242.30
755.57	242.12
755.90	241.94
756.22	241.74
756.55	241.58
756.88	241.41
757.20	241.16
757.53	240.99
757.86	240.78
758.19	240.63
758.51	240.46
758.84	240.23
759.17	240.04
759.49	239.86
759.82	239.67
760.15	239.54
760.47	239.42
760.80	239.21
761.13	239.06
761.45	238.92
761.78	238.81
762.11	238.68
762.43	238.51
762.76	238.37
763.08	238.24
763.41	238.07
763.74	237.95
764.06	237.79
764.39	237.64
764.71	237.52
765.04	237.35
765.37	237.24
765.69	237.10
766.02	236.98
766.34	236.86
766.67	236.72
767.00	236.62
767.32	236.54
767.65	236.50
767.97	236.35
768.30	236.25
768.62	236.09
768.95	235.93
769.27	235.83
769.60	235.68
769.92	235.55
770.25	235.43
770.57	235.29
770.90	235.19
771.22	235.08
771.55	234.97
771.87	234.86
772.20	234.74
772.52	234.73
772.85	234.75
773.17	234.67
773.50	234.55
773.82	234.43
774.15	234.29
774.47	234.14
774.80	234.07
775.12	233.95
775.45	233.86
775.77	233.78
776.09	233.69
776.42	233.63
776.74	233.57
777.07	233.49
777.39	233.44
777.72	233.38
778.04	233.33
778.36	233.27
778.69	233.20
779.01	233.15
779.33	233.01
779.66	232.84
779.98	232.76
780.31	232.69
780.63	232.66
780.95	232.64
781.28	232.60
781.60	232.56
781.92	232.55
782.25	232.49
782.57	232.49
782.89	232.42
783.22	232.36
783.54	232.31
783.86	232.29
784.19	232.20
784.51	232.18
784.83	232.09
785.16	232.01
785.48	231.97
785.80	231.91
786.12	231.88
786.45	231.86
786.77	231.85
787.09	231.83
