SpectraSuite Data File
++++++++++++++++++++++++++++++++++++
Date: Fri Feb 01 16:21:07 EST 2013
User: group
Dark Spectrum Present: No
Reference Spectrum Present: No
Number of Sampled Component Spectra: 1
Spectrometers: USB2E7196
Integration Time (usec): 35000 (USB2E7196)
Spectra Averaged: 100 (USB2E7196)
Boxcar Smoothing: 10 (USB2E7196)
Correct for Electrical Dark: No (USB2E7196)
Strobe/Lamp Enabled: No (USB2E7196)
Correct for Detector Non-linearity: No (USB2E7196)
Correct for Stray Light: No (USB2E7196)
Number of Pixels in Processed Spectrum: 2048
>>>>>Begin Processed Spectral Data<<<<<
339.09	0.00
339.48	213.79
339.86	214.60
340.24	216.52
340.63	217.98
341.01	221.43
341.39	220.91
341.78	221.97
342.16	223.53
342.54	223.94
342.93	212.48
343.31	223.21
343.69	223.75
344.07	224.27
344.46	224.71
344.84	225.11
345.22	225.33
345.60	225.55
345.99	225.76
346.37	225.90
346.75	226.03
347.13	226.08
347.52	226.12
347.90	226.18
348.28	226.18
348.66	226.21
349.05	226.25
349.43	226.29
349.81	226.31
350.19	226.34
350.57	226.41
350.96	226.46
351.34	226.55
351.72	226.64
352.10	226.74
352.48	226.79
352.87	226.86
353.25	226.94
353.63	227.05
354.01	227.11
354.39	227.17
354.77	227.23
355.15	227.33
355.54	227.38
355.92	227.42
356.30	227.51
356.68	227.63
357.06	227.68
357.44	227.76
357.82	227.81
358.20	227.91
358.58	227.93
358.97	227.99
359.35	228.06
359.73	228.14
360.11	228.18
360.49	228.27
360.87	228.33
361.25	228.42
361.63	228.48
362.01	228.54
362.39	228.59
362.77	228.62
363.15	228.66
363.53	228.69
363.91	228.73
364.29	228.72
364.67	228.63
365.05	228.66
365.43	228.67
365.81	228.69
366.19	228.72
366.57	228.76
366.95	228.75
367.33	228.72
367.71	228.70
368.09	228.68
368.47	228.65
368.85	228.60
369.23	228.54
369.61	228.49
369.99	228.48
370.37	228.44
370.75	228.46
371.13	228.43
371.51	228.37
371.89	228.33
372.27	228.32
372.65	228.30
373.03	228.21
373.41	228.14
373.78	228.10
374.16	228.01
374.54	227.92
374.92	227.87
375.30	227.82
375.68	227.75
376.06	227.71
376.44	227.64
376.82	227.58
377.19	227.54
377.57	227.46
377.95	227.35
378.33	227.31
378.71	227.15
379.09	227.08
379.47	227.04
379.84	226.95
380.22	226.88
380.60	226.83
380.98	226.79
381.36	226.72
381.73	226.60
382.11	226.57
382.49	226.51
382.87	226.42
383.25	226.36
383.62	226.40
384.00	226.32
384.38	226.25
384.76	226.21
385.13	226.17
385.51	226.12
385.89	226.05
386.27	225.97
386.64	225.97
387.02	225.90
387.40	225.86
387.78	225.82
388.15	225.76
388.53	225.70
388.91	225.67
389.29	225.62
389.66	225.64
390.04	225.57
390.42	225.54
390.79	225.53
391.17	225.50
391.55	225.38
391.92	225.36
392.30	225.39
392.68	225.35
393.05	225.36
393.43	225.37
393.81	225.42
394.18	225.46
394.56	225.47
394.94	225.52
395.31	225.53
395.69	225.62
396.06	225.68
396.44	225.72
396.82	225.75
397.19	225.84
397.57	225.88
397.95	225.94
398.32	225.99
398.70	226.07
399.07	226.16
399.45	226.24
399.82	226.32
400.20	226.40
400.58	226.50
400.95	226.52
401.33	226.63
401.70	226.78
402.08	226.85
402.45	226.93
402.83	227.07
403.20	227.21
403.58	227.29
403.95	227.42
404.33	227.52
404.71	227.63
405.08	227.81
405.46	227.96
405.83	228.14
406.21	228.27
406.58	228.43
406.96	228.60
407.33	228.80
407.70	228.98
408.08	229.23
408.45	229.43
408.83	229.68
409.20	229.84
409.58	230.02
409.95	230.30
410.33	230.57
410.70	230.77
411.08	231.04
411.45	231.32
411.82	231.65
412.20	232.01
412.57	232.44
412.95	232.73
413.32	233.13
413.69	233.46
414.07	233.93
414.44	234.39
414.82	234.87
415.19	235.39
415.56	235.96
415.94	236.46
416.31	237.12
416.68	237.75
417.06	238.52
417.43	239.19
417.81	239.96
418.18	240.73
418.55	241.60
418.93	242.43
419.30	243.33
419.67	244.22
420.04	245.16
420.42	246.14
420.79	247.34
421.16	248.49
421.54	249.75
421.91	250.94
422.28	252.17
422.66	253.48
423.03	254.75
423.40	256.06
423.77	257.51
424.15	258.92
424.52	260.41
424.89	261.96
425.26	263.52
425.64	264.98
426.01	266.54
426.38	268.14
426.75	269.83
427.13	271.60
427.50	273.40
427.87	275.27
428.24	277.08
428.61	278.81
428.99	280.78
429.36	282.82
429.73	284.85
430.10	286.85
430.47	288.90
430.85	291.02
431.22	293.26
431.59	295.64
431.96	297.83
432.33	300.27
432.70	302.69
433.08	305.47
433.45	308.06
433.82	310.69
434.19	313.63
434.56	316.40
434.93	318.97
435.30	321.61
435.68	324.52
436.05	327.38
436.42	330.15
436.79	332.65
437.16	335.37
437.53	338.21
437.90	341.07
438.27	343.83
438.64	346.65
439.01	349.20
439.38	351.38
439.75	353.58
440.13	356.10
440.50	358.36
440.87	360.20
441.24	362.13
441.61	364.28
441.98	365.74
442.35	367.54
442.72	369.42
443.09	371.20
443.46	372.14
443.83	372.72
444.20	373.21
444.57	374.00
444.94	374.30
445.31	374.63
445.68	374.94
446.05	374.95
446.42	374.63
446.79	374.25
447.16	373.84
447.53	373.49
447.90	372.32
448.27	371.18
448.64	369.64
449.01	368.49
449.37	366.50
449.74	364.56
450.11	362.32
450.48	359.85
450.85	357.38
451.22	355.28
451.59	353.28
451.96	351.39
452.33	348.81
452.70	346.45
453.07	343.66
453.43	340.83
453.80	338.14
454.17	335.43
454.54	332.88
454.91	330.14
455.28	327.50
455.65	325.03
456.02	322.64
456.38	320.46
456.75	317.80
457.12	315.57
457.49	313.40
457.86	311.27
458.23	309.43
458.59	307.36
458.96	305.28
459.33	303.41
459.70	301.57
460.07	300.06
460.43	298.34
460.80	296.71
461.17	295.29
461.54	293.77
461.91	292.37
462.27	290.93
462.64	289.67
463.01	288.31
463.38	287.00
463.74	285.65
464.11	284.48
464.48	283.50
464.85	282.42
465.21	281.57
465.58	280.67
465.95	279.58
466.32	278.67
466.68	277.78
467.05	276.91
467.42	275.98
467.78	275.10
468.15	274.22
468.52	273.55
468.88	272.68
469.25	271.90
469.62	271.27
469.98	270.62
470.35	270.03
470.72	269.45
471.08	268.80
471.45	268.21
471.82	267.65
472.18	267.07
472.55	266.63
472.92	266.11
473.28	265.64
473.65	265.20
474.02	264.78
474.38	264.42
474.75	264.08
475.11	263.72
475.48	263.43
475.85	263.25
476.21	263.02
476.58	262.82
476.94	262.68
477.31	262.52
477.67	262.35
478.04	262.24
478.41	262.16
478.77	262.19
479.14	262.14
479.50	262.16
479.87	262.24
480.23	262.33
480.60	262.41
480.96	262.46
481.33	262.69
481.69	262.86
482.06	263.06
482.42	263.28
482.79	263.56
483.15	263.88
483.52	264.21
483.88	264.57
484.25	264.93
484.61	265.39
484.98	265.83
485.34	266.42
485.71	267.01
486.07	267.59
486.44	268.15
486.80	268.89
487.17	269.64
487.53	270.43
487.90	271.25
488.26	272.19
488.62	273.21
488.99	274.18
489.35	275.23
489.72	276.36
490.08	277.55
490.44	278.77
490.81	280.10
491.17	281.46
491.54	282.90
491.90	284.48
492.26	286.13
492.63	287.86
492.99	289.61
493.36	291.49
493.72	293.59
494.08	295.75
494.45	297.99
494.81	300.39
495.17	302.83
495.54	305.42
495.90	308.08
496.26	310.89
496.63	313.86
496.99	317.02
497.35	320.28
497.72	323.66
498.08	327.23
498.44	330.87
498.80	334.86
499.17	338.95
499.53	343.13
499.89	347.55
500.26	352.05
500.62	356.80
500.98	361.83
501.34	366.91
501.71	372.28
502.07	377.72
502.43	383.31
502.79	389.14
503.16	395.21
503.52	401.54
503.88	407.97
504.24	414.61
504.60	421.47
504.97	428.58
505.33	435.96
505.69	443.71
506.05	451.55
506.41	459.44
506.78	467.61
507.14	476.12
507.50	484.81
507.86	493.81
508.22	502.96
508.59	512.08
508.95	521.68
509.31	531.47
509.67	541.53
510.03	551.79
510.39	562.40
510.75	573.16
511.12	584.08
511.48	595.38
511.84	606.76
512.20	618.29
512.56	630.19
512.92	642.36
513.28	654.72
513.64	667.14
514.00	679.77
514.37	692.72
514.73	705.73
515.09	718.73
515.45	732.08
515.81	745.65
516.17	759.64
516.53	773.78
516.89	788.04
517.25	802.23
517.61	816.69
517.97	831.10
518.33	845.60
518.69	860.41
519.05	875.34
519.41	890.58
519.77	906.11
520.13	921.68
520.49	937.01
520.85	952.34
521.21	968.08
521.57	984.28
521.93	999.98
522.29	1016.33
522.65	1032.54
523.01	1048.66
523.37	1064.61
523.73	1080.75
524.09	1096.76
524.45	1112.83
524.81	1129.44
525.17	1146.23
525.53	1163.08
525.89	1179.92
526.25	1196.67
526.61	1213.03
526.97	1229.77
527.33	1246.14
527.68	1262.62
528.04	1279.11
528.40	1295.65
528.76	1312.65
529.12	1329.21
529.48	1345.96
529.84	1361.90
530.20	1378.51
530.56	1395.38
530.91	1412.82
531.27	1429.50
531.63	1445.96
531.99	1462.52
532.35	1478.35
532.71	1494.14
533.07	1510.29
533.42	1526.10
533.78	1541.97
534.14	1558.15
534.50	1573.38
534.86	1589.13
535.21	1604.29
535.57	1620.07
535.93	1635.45
536.29	1650.21
536.65	1665.22
537.00	1680.06
537.36	1695.33
537.72	1709.78
538.08	1724.31
538.44	1738.01
538.79	1751.87
539.15	1765.45
539.51	1779.18
539.87	1793.56
540.22	1807.29
540.58	1820.93
540.94	1834.14
541.29	1847.03
541.65	1859.63
542.01	1872.95
542.37	1885.23
542.72	1897.51
543.08	1909.19
543.44	1921.59
543.79	1932.75
544.15	1943.67
544.51	1955.16
544.87	1966.00
545.22	1976.69
545.58	1986.83
545.94	1996.48
546.29	2006.24
546.65	2016.11
547.01	2025.37
547.36	2034.04
547.72	2042.30
548.07	2050.15
548.43	2058.18
548.79	2066.25
549.14	2073.69
549.50	2080.68
549.86	2088.28
550.21	2095.58
550.57	2102.67
550.92	2109.12
551.28	2116.13
551.64	2123.18
551.99	2129.57
552.35	2135.68
552.70	2142.00
553.06	2147.95
553.41	2154.35
553.77	2160.39
554.13	2166.42
554.48	2172.46
554.84	2177.82
555.19	2183.31
555.55	2188.45
555.90	2192.91
556.26	2197.63
556.61	2202.40
556.97	2206.76
557.32	2210.87
557.68	2215.07
558.03	2219.58
558.39	2223.28
558.74	2227.88
559.10	2231.67
559.45	2235.38
559.81	2239.76
560.16	2243.45
560.52	2246.62
560.87	2249.96
561.23	2252.52
561.58	2255.40
561.94	2257.96
562.29	2260.39
562.64	2262.94
563.00	2265.58
563.35	2269.15
563.71	2272.28
564.06	2275.58
564.42	2278.51
564.77	2281.16
565.12	2283.48
565.48	2285.24
565.83	2287.02
566.19	2288.23
566.54	2289.17
566.89	2290.37
567.25	2290.96
567.60	2292.12
567.96	2293.83
568.31	2294.79
568.66	2296.03
569.02	2296.64
569.37	2296.99
569.72	2297.78
570.08	2298.01
570.43	2298.15
570.78	2297.64
571.14	2296.13
571.49	2294.80
571.84	2294.59
572.20	2293.50
572.55	2292.50
572.90	2290.94
573.26	2289.72
573.61	2288.15
573.96	2286.45
574.31	2283.48
574.67	2280.58
575.02	2277.21
575.37	2273.96
575.72	2270.15
576.08	2266.86
576.43	2263.46
576.78	2259.79
577.13	2256.68
577.49	2253.59
577.84	2250.10
578.19	2246.54
578.54	2243.08
578.90	2238.84
579.25	2233.20
579.60	2228.35
579.95	2223.34
580.30	2218.51
580.66	2213.47
581.01	2208.66
581.36	2203.81
581.71	2199.67
582.06	2195.14
582.42	2190.77
582.77	2185.61
583.12	2181.18
583.47	2176.48
583.82	2171.53
584.17	2166.33
584.53	2160.86
584.88	2155.31
585.23	2149.62
585.58	2144.10
585.93	2138.78
586.28	2134.08
586.63	2129.06
586.98	2124.04
587.34	2119.42
587.69	2114.50
588.04	2109.16
588.39	2103.51
588.74	2096.97
589.09	2090.99
589.44	2084.42
589.79	2078.49
590.14	2072.94
590.49	2066.23
590.84	2059.85
591.19	2054.01
591.54	2047.72
591.89	2040.42
592.25	2033.69
592.60	2026.43
592.95	2018.87
593.30	2011.46
593.65	2003.92
594.00	1996.95
594.35	1989.66
594.70	1981.60
595.05	1974.51
595.40	1967.37
595.75	1959.85
596.10	1953.89
596.45	1947.14
596.80	1941.02
597.15	1934.39
597.50	1927.09
597.85	1920.78
598.19	1914.26
598.54	1907.08
598.89	1900.40
599.24	1894.63
599.59	1887.82
599.94	1881.74
600.29	1875.44
600.64	1868.70
600.99	1861.31
601.34	1854.51
601.69	1847.57
602.04	1840.73
602.39	1833.31
602.74	1826.53
603.08	1819.72
603.43	1812.92
603.78	1805.51
604.13	1798.24
604.48	1790.75
604.83	1783.95
605.18	1777.03
605.53	1769.02
605.87	1761.08
606.22	1753.81
606.57	1745.76
606.92	1738.52
607.27	1731.32
607.62	1724.38
607.96	1717.17
608.31	1710.57
608.66	1703.06
609.01	1695.51
609.36	1687.98
609.70	1680.08
610.05	1671.94
610.40	1664.36
610.75	1656.02
611.10	1648.44
611.44	1640.04
611.79	1632.14
612.14	1623.53
612.49	1614.31
612.83	1605.92
613.18	1597.86
613.53	1589.69
613.88	1581.18
614.22	1572.98
614.57	1564.40
614.92	1556.42
615.27	1548.91
615.61	1540.58
615.96	1532.50
616.31	1524.92
616.65	1517.51
617.00	1509.92
617.35	1502.25
617.70	1493.93
618.04	1485.53
618.39	1477.27
618.74	1469.69
619.08	1461.50
619.43	1453.89
619.78	1446.95
620.12	1439.75
620.47	1432.19
620.82	1424.14
621.16	1416.77
621.51	1409.01
621.85	1401.33
622.20	1392.72
622.55	1384.43
622.89	1376.53
623.24	1368.92
623.59	1361.50
623.93	1353.85
624.28	1346.57
624.62	1339.07
624.97	1331.97
625.32	1325.20
625.66	1318.23
626.01	1310.98
626.35	1303.53
626.70	1295.80
627.04	1288.17
627.39	1280.47
627.73	1273.07
628.08	1266.11
628.43	1258.77
628.77	1251.45
629.12	1243.95
629.46	1236.91
629.81	1229.49
630.15	1222.40
630.50	1214.91
630.84	1206.73
631.19	1198.98
631.53	1191.43
631.88	1183.89
632.22	1176.26
632.57	1168.85
632.91	1161.28
633.26	1153.85
633.60	1146.37
633.95	1139.19
634.29	1132.12
634.64	1125.43
634.98	1118.03
635.32	1110.92
635.67	1104.34
636.01	1097.72
636.36	1090.94
636.70	1084.33
637.05	1077.74
637.39	1071.17
637.73	1064.66
638.08	1058.71
638.42	1052.59
638.77	1046.23
639.11	1039.60
639.45	1033.14
639.80	1026.50
640.14	1020.11
640.49	1013.58
640.83	1007.30
641.17	1001.12
641.52	994.72
641.86	988.25
642.20	982.40
642.55	976.03
642.89	969.57
643.23	963.10
643.58	957.33
643.92	951.17
644.26	945.06
644.61	939.02
644.95	932.98
645.29	926.43
645.64	919.75
645.98	913.40
646.32	907.52
646.66	901.47
647.01	895.66
647.35	889.91
647.69	884.07
648.04	878.53
648.38	872.86
648.72	866.83
649.06	860.75
649.41	854.93
649.75	848.99
650.09	843.04
650.43	837.15
650.78	830.91
651.12	824.92
651.46	819.20
651.80	813.44
652.14	808.09
652.49	802.70
652.83	797.51
653.17	791.76
653.51	786.04
653.85	780.69
654.20	775.06
654.54	769.03
654.88	763.28
655.22	757.34
655.56	751.52
655.90	746.06
656.25	740.78
656.59	735.33
656.93	730.27
657.27	725.16
657.61	719.79
657.95	714.66
658.29	709.59
658.64	704.31
658.98	698.96
659.32	693.49
659.66	688.23
660.00	682.92
660.34	678.07
660.68	673.17
661.02	668.07
661.36	663.31
661.70	658.83
662.05	654.49
662.39	650.22
662.73	645.69
663.07	641.39
663.41	636.97
663.75	632.47
664.09	627.86
664.43	623.37
664.77	619.21
665.11	615.02
665.45	610.89
665.79	606.87
666.13	602.77
666.47	598.64
666.81	594.45
667.15	590.30
667.49	586.32
667.83	582.54
668.17	578.59
668.51	574.50
668.85	570.49
669.19	566.68
669.53	562.79
669.87	558.95
670.21	555.26
670.55	551.61
670.89	548.25
671.23	544.80
671.57	541.30
671.91	537.69
672.25	534.17
672.58	530.66
672.92	527.23
673.26	524.02
673.60	520.83
673.94	517.77
674.28	514.85
674.62	511.92
674.96	508.75
675.30	505.85
675.64	502.95
675.97	500.13
676.31	497.22
676.65	494.29
676.99	491.58
677.33	488.64
677.67	485.84
678.01	482.78
678.34	479.82
678.68	477.00
679.02	474.22
679.36	471.43
679.70	468.67
680.04	465.86
680.37	462.97
680.71	460.22
681.05	457.60
681.39	454.91
681.73	452.22
682.06	449.70
682.40	447.16
682.74	444.65
683.08	442.03
683.42	439.47
683.75	437.00
684.09	434.43
684.43	432.00
684.77	429.53
685.10	427.14
685.44	424.80
685.78	422.50
686.12	420.24
686.45	417.92
686.79	415.60
687.13	413.40
687.46	411.27
687.80	409.10
688.14	406.88
688.48	404.80
688.81	402.54
689.15	400.39
689.49	398.22
689.82	396.15
690.16	394.15
690.50	392.12
690.83	390.10
691.17	388.12
691.51	386.21
691.84	384.35
692.18	382.42
692.52	380.41
692.85	378.44
693.19	376.56
693.52	374.75
693.86	372.95
694.20	371.15
694.53	369.33
694.87	367.50
695.21	365.67
695.54	363.83
695.88	362.16
696.21	360.43
696.55	358.78
696.88	357.06
697.22	355.37
697.56	353.75
697.89	352.14
698.23	350.55
698.56	348.91
698.90	347.30
699.23	345.61
699.57	344.05
699.90	342.53
700.24	340.98
700.58	339.44
700.91	337.92
701.25	336.49
701.58	335.13
701.92	333.74
702.25	332.42
702.59	331.06
702.92	329.69
703.26	328.36
703.59	327.05
703.93	325.90
704.26	324.62
704.60	323.33
704.93	322.06
705.26	320.79
705.60	319.63
705.93	318.47
706.27	317.45
706.60	316.38
706.94	315.32
707.27	314.17
707.61	313.14
707.94	312.15
708.27	311.05
708.61	309.97
708.94	308.94
709.28	307.96
709.61	307.01
709.94	306.05
710.28	305.05
710.61	304.09
710.95	302.96
711.28	302.12
711.61	301.20
711.95	300.27
712.28	299.33
712.61	298.37
712.95	297.46
713.28	296.58
713.61	295.74
713.95	294.83
714.28	294.06
714.61	293.21
714.95	292.36
715.28	291.53
715.61	290.65
715.95	289.79
716.28	288.94
716.61	288.10
716.95	287.28
717.28	286.53
717.61	285.71
717.94	285.00
718.28	284.17
718.61	283.39
718.94	282.70
719.27	282.05
719.61	281.40
719.94	280.75
720.27	280.04
720.60	279.36
720.94	278.73
721.27	278.11
721.60	277.48
721.93	276.87
722.27	276.31
722.60	275.75
722.93	275.20
723.26	274.63
723.59	274.04
723.93	273.47
724.26	272.94
724.59	272.42
724.92	271.93
725.25	271.40
725.59	270.87
725.92	270.36
726.25	269.85
726.58	269.30
726.91	268.80
727.24	268.33
727.57	267.84
727.91	267.34
728.24	266.85
728.57	266.35
728.90	265.90
729.23	265.42
729.56	264.99
729.89	264.55
730.22	264.07
730.55	263.62
730.89	263.23
731.22	262.76
731.55	262.31
731.88	261.82
732.21	261.40
732.54	260.98
732.87	260.56
733.20	260.14
733.53	259.79
733.86	259.42
734.19	259.01
734.52	258.63
734.85	258.29
735.18	257.87
735.51	257.54
735.84	257.15
736.17	256.79
736.50	256.36
736.83	256.08
737.16	255.75
737.49	255.38
737.82	255.00
738.15	254.66
738.48	254.33
738.81	254.03
739.14	253.73
739.47	253.40
739.80	253.06
740.13	252.72
740.46	252.39
740.79	252.01
741.12	251.72
741.45	251.41
741.78	251.10
742.11	250.82
742.44	250.50
742.77	250.21
743.10	249.87
743.43	249.64
743.75	249.30
744.08	249.15
744.41	248.90
744.74	248.66
745.07	248.37
745.40	248.12
745.73	247.91
746.06	247.60
746.39	247.35
746.71	247.09
747.04	246.88
747.37	246.61
747.70	246.41
748.03	246.11
748.36	245.89
748.68	245.64
749.01	245.41
749.34	245.16
749.67	244.91
750.00	244.71
750.33	244.53
750.65	244.29
750.98	243.95
751.31	243.76
751.64	243.57
751.97	243.43
752.29	243.23
752.62	242.96
752.95	242.77
753.28	242.58
753.60	242.41
753.93	242.24
754.26	242.06
754.59	241.82
754.91	241.67
755.24	241.46
755.57	241.27
755.90	241.04
756.22	240.87
756.55	240.71
756.88	240.54
757.20	240.30
757.53	240.12
757.86	239.96
758.19	239.78
758.51	239.60
758.84	239.41
759.17	239.26
759.49	239.13
759.82	239.02
760.15	238.87
760.47	238.71
760.80	238.51
761.13	238.38
761.45	238.26
761.78	238.12
762.11	237.96
762.43	237.81
762.76	237.69
763.08	237.58
763.41	237.45
763.74	237.30
764.06	237.17
764.39	237.01
764.71	236.86
765.04	236.72
765.37	236.59
765.69	236.43
766.02	236.26
766.34	236.12
766.67	235.96
767.00	235.86
767.32	235.78
767.65	235.73
767.97	235.60
768.30	235.49
768.62	235.37
768.95	235.24
769.27	235.12
769.60	235.04
769.92	234.91
770.25	234.80
770.57	234.70
770.90	234.59
771.22	234.46
771.55	234.36
771.87	234.26
772.20	234.15
772.52	234.11
772.85	234.13
773.17	234.02
773.50	233.88
773.82	233.80
774.15	233.63
774.47	233.50
774.80	233.39
775.12	233.27
775.45	233.20
775.77	233.12
776.09	233.04
776.42	232.93
776.74	232.84
777.07	232.72
777.39	232.64
777.72	232.56
778.04	232.51
778.36	232.43
778.69	232.37
779.01	232.32
779.33	232.19
779.66	232.00
779.98	231.92
780.31	231.86
780.63	231.78
780.95	231.75
781.28	231.65
781.60	231.60
781.92	231.51
782.25	231.44
782.57	231.38
782.89	231.30
783.22	231.24
783.54	231.17
783.86	231.14
784.19	231.08
784.51	231.06
784.83	230.99
785.16	230.91
785.48	230.83
785.80	230.78
786.12	230.77
786.45	230.74
786.77	230.71
787.09	230.68
