SpectraSuite Data File
++++++++++++++++++++++++++++++++++++
Date: Fri Feb 01 16:14:54 EST 2013
User: group
Dark Spectrum Present: No
Reference Spectrum Present: No
Number of Sampled Component Spectra: 1
Spectrometers: USB2E7196
Integration Time (usec): 35000 (USB2E7196)
Spectra Averaged: 100 (USB2E7196)
Boxcar Smoothing: 10 (USB2E7196)
Correct for Electrical Dark: No (USB2E7196)
Strobe/Lamp Enabled: No (USB2E7196)
Correct for Detector Non-linearity: No (USB2E7196)
Correct for Stray Light: No (USB2E7196)
Number of Pixels in Processed Spectrum: 2048
>>>>>Begin Processed Spectral Data<<<<<
339.09	0.00
339.48	214.34
339.86	215.74
340.24	216.73
340.63	217.96
341.01	221.04
341.39	220.64
341.78	223.21
342.16	223.90
342.54	224.24
342.93	212.55
343.31	223.28
343.69	223.83
344.07	224.30
344.46	224.74
344.84	225.12
345.22	225.36
345.60	225.63
345.99	225.77
346.37	225.87
346.75	225.98
347.13	226.05
347.52	226.09
347.90	226.18
348.28	226.21
348.66	226.25
349.05	226.26
349.43	226.32
349.81	226.37
350.19	226.40
350.57	226.51
350.96	226.59
351.34	226.67
351.72	226.74
352.10	226.86
352.48	226.94
352.87	227.02
353.25	227.11
353.63	227.15
354.01	227.24
354.39	227.34
354.77	227.41
355.15	227.54
355.54	227.62
355.92	227.65
356.30	227.75
356.68	227.92
357.06	227.98
357.44	228.03
357.82	228.11
358.20	228.18
358.58	228.24
358.97	228.30
359.35	228.40
359.73	228.48
360.11	228.49
360.49	228.53
360.87	228.58
361.25	228.62
361.63	228.69
362.01	228.76
362.39	228.78
362.77	228.83
363.15	228.82
363.53	228.86
363.91	228.89
364.29	228.88
364.67	228.77
365.05	228.79
365.43	228.82
365.81	228.83
366.19	228.92
366.57	228.91
366.95	228.91
367.33	228.87
367.71	228.84
368.09	228.89
368.47	228.88
368.85	228.85
369.23	228.85
369.61	228.82
369.99	228.81
370.37	228.78
370.75	228.77
371.13	228.71
371.51	228.63
371.89	228.59
372.27	228.54
372.65	228.49
373.03	228.43
373.41	228.37
373.78	228.33
374.16	228.14
374.54	228.09
374.92	228.00
375.30	227.93
375.68	227.86
376.06	227.76
376.44	227.67
376.82	227.61
377.19	227.52
377.57	227.44
377.95	227.32
378.33	227.25
378.71	227.12
379.09	227.10
379.47	227.05
379.84	226.94
380.22	226.88
380.60	226.80
380.98	226.71
381.36	226.59
381.73	226.49
382.11	226.47
382.49	226.40
382.87	226.33
383.25	226.24
383.62	226.31
384.00	226.20
384.38	226.17
384.76	226.15
385.13	226.16
385.51	226.11
385.89	226.03
386.27	225.98
386.64	225.95
387.02	225.89
387.40	225.83
387.78	225.83
388.15	225.78
388.53	225.74
388.91	225.72
389.29	225.73
389.66	225.70
390.04	225.66
390.42	225.65
390.79	225.61
391.17	225.63
391.55	225.49
391.92	225.50
392.30	225.50
392.68	225.42
393.05	225.40
393.43	225.42
393.81	225.46
394.18	225.44
394.56	225.48
394.94	225.49
395.31	225.49
395.69	225.54
396.06	225.60
396.44	225.63
396.82	225.65
397.19	225.74
397.57	225.81
397.95	225.88
398.32	225.92
398.70	226.00
399.07	226.08
399.45	226.13
399.82	226.21
400.20	226.25
400.58	226.39
400.95	226.45
401.33	226.51
401.70	226.62
402.08	226.74
402.45	226.78
402.83	226.89
403.20	227.03
403.58	227.10
403.95	227.22
404.33	227.37
404.71	227.51
405.08	227.69
405.46	227.84
405.83	228.01
406.21	228.16
406.58	228.33
406.96	228.46
407.33	228.65
407.70	228.83
408.08	229.13
408.45	229.32
408.83	229.53
409.20	229.76
409.58	229.95
409.95	230.21
410.33	230.52
410.70	230.75
411.08	231.07
411.45	231.39
411.82	231.69
412.20	232.03
412.57	232.44
412.95	232.72
413.32	233.11
413.69	233.49
414.07	233.91
414.44	234.38
414.82	234.89
415.19	235.42
415.56	235.98
415.94	236.50
416.31	237.14
416.68	237.76
417.06	238.48
417.43	239.18
417.81	239.92
418.18	240.69
418.55	241.57
418.93	242.42
419.30	243.31
419.67	244.22
420.04	245.17
420.42	246.15
420.79	247.34
421.16	248.50
421.54	249.71
421.91	250.94
422.28	252.18
422.66	253.48
423.03	254.79
423.40	256.12
423.77	257.55
424.15	258.96
424.52	260.47
424.89	262.09
425.26	263.63
425.64	265.05
426.01	266.64
426.38	268.27
426.75	269.93
427.13	271.61
427.50	273.44
427.87	275.35
428.24	277.18
428.61	278.91
428.99	280.82
429.36	282.91
429.73	284.93
430.10	286.93
430.47	288.99
430.85	291.11
431.22	293.36
431.59	295.73
431.96	297.95
432.33	300.44
432.70	302.78
433.08	305.57
433.45	308.25
433.82	310.87
434.19	313.75
434.56	316.56
434.93	319.22
435.30	321.83
435.68	324.66
436.05	327.52
436.42	330.30
436.79	332.84
437.16	335.52
437.53	338.31
437.90	341.14
438.27	343.89
438.64	346.69
439.01	349.31
439.38	351.54
439.75	353.70
440.13	356.17
440.50	358.48
440.87	360.33
441.24	362.20
441.61	364.33
441.98	365.80
442.35	367.57
442.72	369.45
443.09	371.23
443.46	372.21
443.83	372.79
444.20	373.29
444.57	374.07
444.94	374.35
445.31	374.72
445.68	375.09
446.05	375.13
446.42	374.77
446.79	374.32
447.16	373.82
447.53	373.54
447.90	372.37
448.27	371.21
448.64	369.65
449.01	368.56
449.37	366.61
449.74	364.77
450.11	362.56
450.48	360.07
450.85	357.54
451.22	355.44
451.59	353.43
451.96	351.51
452.33	348.94
452.70	346.60
453.07	343.77
453.43	340.87
453.80	338.13
454.17	335.43
454.54	332.89
454.91	330.21
455.28	327.52
455.65	325.05
456.02	322.62
456.38	320.45
456.75	317.81
457.12	315.59
457.49	313.34
457.86	311.17
458.23	309.36
458.59	307.35
458.96	305.24
459.33	303.39
459.70	301.57
460.07	300.06
460.43	298.34
460.80	296.72
461.17	295.27
461.54	293.76
461.91	292.38
462.27	290.96
462.64	289.74
463.01	288.37
463.38	287.07
463.74	285.74
464.11	284.57
464.48	283.54
464.85	282.42
465.21	281.57
465.58	280.67
465.95	279.59
466.32	278.68
466.68	277.80
467.05	276.87
467.42	275.95
467.78	275.04
468.15	274.15
468.52	273.52
468.88	272.67
469.25	271.92
469.62	271.27
469.98	270.60
470.35	269.93
470.72	269.39
471.08	268.73
471.45	268.18
471.82	267.68
472.18	267.07
472.55	266.62
472.92	266.09
473.28	265.61
473.65	265.15
474.02	264.73
474.38	264.35
474.75	264.06
475.11	263.74
475.48	263.45
475.85	263.26
476.21	263.01
476.58	262.83
476.94	262.71
477.31	262.56
477.67	262.42
478.04	262.34
478.41	262.26
478.77	262.30
479.14	262.25
479.50	262.26
479.87	262.36
480.23	262.48
480.60	262.53
480.96	262.63
481.33	262.88
481.69	263.09
482.06	263.31
482.42	263.56
482.79	263.84
483.15	264.18
483.52	264.57
483.88	264.94
484.25	265.35
484.61	265.75
484.98	266.22
485.34	266.80
485.71	267.41
486.07	268.02
486.44	268.59
486.80	269.28
487.17	270.01
487.53	270.84
487.90	271.68
488.26	272.65
488.62	273.60
488.99	274.54
489.35	275.60
489.72	276.75
490.08	277.91
490.44	279.12
490.81	280.47
491.17	281.80
491.54	283.28
491.90	284.80
492.26	286.45
492.63	288.16
492.99	289.97
493.36	291.84
493.72	293.90
494.08	296.06
494.45	298.37
494.81	300.74
495.17	303.16
495.54	305.71
495.90	308.40
496.26	311.25
496.63	314.22
496.99	317.32
497.35	320.56
497.72	324.01
498.08	327.52
498.44	331.23
498.80	335.17
499.17	339.21
499.53	343.38
499.89	347.78
500.26	352.30
500.62	356.89
500.98	361.92
501.34	367.00
501.71	372.25
502.07	377.67
502.43	383.33
502.79	389.19
503.16	395.28
503.52	401.60
503.88	408.06
504.24	414.67
504.60	421.54
504.97	428.67
505.33	435.99
505.69	443.69
506.05	451.47
506.41	459.37
506.78	467.58
507.14	476.06
507.50	484.74
507.86	493.75
508.22	502.94
508.59	512.10
508.95	521.61
509.31	531.41
509.67	541.54
510.03	551.74
510.39	562.26
510.75	573.07
511.12	583.96
511.48	595.21
511.84	606.72
512.20	618.20
512.56	630.14
512.92	642.28
513.28	654.63
513.64	667.07
514.00	679.73
514.37	692.65
514.73	705.70
515.09	718.80
515.45	732.07
515.81	745.67
516.17	759.67
516.53	773.83
516.89	788.06
517.25	802.20
517.61	816.63
517.97	831.12
518.33	845.47
518.69	860.18
519.05	875.14
519.41	890.12
519.77	905.68
520.13	921.09
520.49	936.52
520.85	951.83
521.21	967.58
521.57	983.78
521.93	999.41
522.29	1015.74
522.65	1031.97
523.01	1048.12
523.37	1064.21
523.73	1080.31
524.09	1096.35
524.45	1112.60
524.81	1129.14
525.17	1145.85
525.53	1162.64
525.89	1179.45
526.25	1196.30
526.61	1212.52
526.97	1229.28
527.33	1245.72
527.68	1262.31
528.04	1278.59
528.40	1295.21
528.76	1312.15
529.12	1328.64
529.48	1345.52
529.84	1361.52
530.20	1378.01
530.56	1394.91
530.91	1412.23
531.27	1428.93
531.63	1445.39
531.99	1461.92
532.35	1477.81
532.71	1493.71
533.07	1509.88
533.42	1525.64
533.78	1541.52
534.14	1557.79
534.50	1572.96
534.86	1588.76
535.21	1603.80
535.57	1619.60
535.93	1634.88
536.29	1649.59
536.65	1664.56
537.00	1679.22
537.36	1694.36
537.72	1708.79
538.08	1723.23
538.44	1736.95
538.79	1750.68
539.15	1764.20
539.51	1777.85
539.87	1792.25
540.22	1805.91
540.58	1819.62
540.94	1832.95
541.29	1845.84
541.65	1858.52
542.01	1871.73
542.37	1883.86
542.72	1896.23
543.08	1908.07
543.44	1920.49
543.79	1931.69
544.15	1942.71
544.51	1954.27
544.87	1965.22
545.22	1976.05
545.58	1986.18
545.94	1995.90
546.29	2005.71
546.65	2015.54
547.01	2024.77
547.36	2033.32
547.72	2041.79
548.07	2049.66
548.43	2057.79
548.79	2065.76
549.14	2073.29
549.50	2080.52
549.86	2088.28
550.21	2095.57
550.57	2102.59
550.92	2109.21
551.28	2116.19
551.64	2123.17
551.99	2129.62
552.35	2135.73
552.70	2141.84
553.06	2147.87
553.41	2154.15
553.77	2160.18
554.13	2166.20
554.48	2172.20
554.84	2177.62
555.19	2182.83
555.55	2187.87
555.90	2192.44
556.26	2197.32
556.61	2201.93
556.97	2206.39
557.32	2210.39
557.68	2214.49
558.03	2218.79
558.39	2222.34
558.74	2226.92
559.10	2230.84
559.45	2234.49
559.81	2238.80
560.16	2242.51
560.52	2245.67
560.87	2249.06
561.23	2251.65
561.58	2254.60
561.94	2257.17
562.29	2259.50
562.64	2262.07
563.00	2264.74
563.35	2268.16
563.71	2271.24
564.06	2274.44
564.42	2277.30
564.77	2279.89
565.12	2282.22
565.48	2284.34
565.83	2286.32
566.19	2287.75
566.54	2288.56
566.89	2289.67
567.25	2290.18
567.60	2291.51
567.96	2293.27
568.31	2294.07
568.66	2295.25
569.02	2295.83
569.37	2296.20
569.72	2297.24
570.08	2297.53
570.43	2297.46
570.78	2296.94
571.14	2295.41
571.49	2294.13
571.84	2293.80
572.20	2292.88
572.55	2291.77
572.90	2289.95
573.26	2288.58
573.61	2286.88
573.96	2285.31
574.31	2282.50
574.67	2279.69
575.02	2276.09
575.37	2272.67
575.72	2269.04
576.08	2265.76
576.43	2262.47
576.78	2258.90
577.13	2255.74
577.49	2252.64
577.84	2249.13
578.19	2245.49
578.54	2241.95
578.90	2237.66
579.25	2232.18
579.60	2227.28
579.95	2222.36
580.30	2217.52
580.66	2212.37
581.01	2207.44
581.36	2202.49
581.71	2198.32
582.06	2194.03
582.42	2189.68
582.77	2184.59
583.12	2180.06
583.47	2175.42
583.82	2170.51
584.17	2165.19
584.53	2159.61
584.88	2153.98
585.23	2148.44
585.58	2142.87
585.93	2137.44
586.28	2132.73
586.63	2127.70
586.98	2122.50
587.34	2117.94
587.69	2113.10
588.04	2107.86
588.39	2102.33
588.74	2095.78
589.09	2089.68
589.44	2082.73
589.79	2076.70
590.14	2071.01
590.49	2064.31
590.84	2057.79
591.19	2051.73
591.54	2045.44
591.89	2038.21
592.25	2031.62
592.60	2024.46
592.95	2016.98
593.30	2009.65
593.65	2002.16
594.00	1995.16
594.35	1987.98
594.70	1979.85
595.05	1972.71
595.40	1965.52
595.75	1957.90
596.10	1951.88
596.45	1945.24
596.80	1939.17
597.15	1932.60
597.50	1925.51
597.85	1919.06
598.19	1912.55
598.54	1905.51
598.89	1898.81
599.24	1892.94
599.59	1886.29
599.94	1879.99
600.29	1873.70
600.64	1867.18
600.99	1859.72
601.34	1852.86
601.69	1845.73
602.04	1838.92
602.39	1831.59
602.74	1824.76
603.08	1817.94
603.43	1811.27
603.78	1803.98
604.13	1796.73
604.48	1789.53
604.83	1782.75
605.18	1776.10
605.53	1768.10
605.87	1760.09
606.22	1752.98
606.57	1744.96
606.92	1737.53
607.27	1730.40
607.62	1723.53
607.96	1716.35
608.31	1709.83
608.66	1702.27
609.01	1694.84
609.36	1687.33
609.70	1679.33
610.05	1671.33
610.40	1663.75
610.75	1655.30
611.10	1647.66
611.44	1639.41
611.79	1631.33
612.14	1622.73
612.49	1613.47
612.83	1605.16
613.18	1597.08
613.53	1589.02
613.88	1580.54
614.22	1572.29
614.57	1563.59
614.92	1555.52
615.27	1547.94
615.61	1539.48
615.96	1531.45
616.31	1523.96
616.65	1516.53
617.00	1508.90
617.35	1501.21
617.70	1492.97
618.04	1484.51
618.39	1476.15
618.74	1468.53
619.08	1460.26
619.43	1452.52
619.78	1445.58
620.12	1438.43
620.47	1430.87
620.82	1422.53
621.16	1415.07
621.51	1407.48
621.85	1399.94
622.20	1391.40
622.55	1382.90
622.89	1375.11
623.24	1367.44
623.59	1359.84
623.93	1352.33
624.28	1345.22
624.62	1337.73
624.97	1330.56
625.32	1323.82
625.66	1316.88
626.01	1309.68
626.35	1302.34
626.70	1294.70
627.04	1287.05
627.39	1279.27
627.73	1271.88
628.08	1265.00
628.43	1257.77
628.77	1250.42
629.12	1243.00
629.46	1235.93
629.81	1228.62
630.15	1221.42
630.50	1214.11
630.84	1206.03
631.19	1198.20
631.53	1190.65
631.88	1183.08
632.22	1175.45
632.57	1168.06
632.91	1160.48
633.26	1153.04
633.60	1145.53
633.95	1138.38
634.29	1131.28
634.64	1124.57
634.98	1117.22
635.32	1110.08
635.67	1103.42
636.01	1096.82
636.36	1089.89
636.70	1083.21
637.05	1076.61
637.39	1070.15
637.73	1063.61
638.08	1057.69
638.42	1051.59
638.77	1045.14
639.11	1038.57
639.45	1032.11
639.80	1025.47
640.14	1019.14
640.49	1012.57
640.83	1006.32
641.17	1000.10
641.52	993.73
641.86	987.18
642.20	981.32
642.55	975.00
642.89	968.56
643.23	961.93
643.58	956.18
643.92	950.08
644.26	944.06
644.61	938.00
644.95	932.04
645.29	925.50
645.64	918.81
645.98	912.47
646.32	906.67
646.66	900.66
647.01	894.92
647.35	889.10
647.69	883.22
648.04	877.66
648.38	871.83
648.72	865.89
649.06	859.93
649.41	853.95
649.75	848.01
650.09	842.05
650.43	836.32
650.78	830.17
651.12	824.21
651.46	818.40
651.80	812.71
652.14	807.28
652.49	801.90
652.83	796.72
653.17	791.05
653.51	785.26
653.85	779.81
654.20	774.25
654.54	768.26
654.88	762.56
655.22	756.64
655.56	750.95
655.90	745.45
656.25	740.23
656.59	734.94
656.93	729.86
657.27	724.73
657.61	719.30
657.95	714.18
658.29	709.08
658.64	703.92
658.98	698.57
659.32	693.10
659.66	688.02
660.00	682.74
660.34	677.78
660.68	672.92
661.02	668.00
661.36	663.21
661.70	658.71
662.05	654.44
662.39	650.16
662.73	645.67
663.07	641.31
663.41	636.87
663.75	632.38
664.09	627.85
664.43	623.45
664.77	619.26
665.11	615.06
665.45	610.90
665.79	606.85
666.13	602.74
666.47	598.63
666.81	594.35
667.15	590.17
667.49	586.20
667.83	582.32
668.17	578.34
668.51	574.30
668.85	570.22
669.19	566.29
669.53	562.46
669.87	558.61
670.21	554.92
670.55	551.23
670.89	547.90
671.23	544.41
671.57	540.94
671.91	537.42
672.25	533.89
672.58	530.43
672.92	526.97
673.26	523.83
673.60	520.68
673.94	517.59
674.28	514.69
674.62	511.82
674.96	508.77
675.30	505.90
675.64	503.01
675.97	500.25
676.31	497.34
676.65	494.38
676.99	491.63
677.33	488.76
677.67	485.95
678.01	482.86
678.34	479.89
678.68	476.99
679.02	474.21
679.36	471.36
679.70	468.65
680.04	465.86
680.37	462.93
680.71	460.10
681.05	457.42
681.39	454.70
681.73	452.01
682.06	449.43
682.40	446.81
682.74	444.21
683.08	441.71
683.42	439.13
683.75	436.63
684.09	434.08
684.43	431.63
684.77	429.16
685.10	426.80
685.44	424.46
685.78	422.20
686.12	419.96
686.45	417.75
686.79	415.43
687.13	413.29
687.46	411.15
687.80	409.01
688.14	406.81
688.48	404.80
688.81	402.54
689.15	400.40
689.49	398.28
689.82	396.21
690.16	394.07
690.50	392.12
690.83	390.18
691.17	388.22
691.51	386.28
691.84	384.43
692.18	382.50
692.52	380.55
692.85	378.59
693.19	376.67
693.52	374.83
693.86	373.00
694.20	371.17
694.53	369.36
694.87	367.50
695.21	365.72
695.54	363.87
695.88	362.19
696.21	360.45
696.55	358.76
696.88	357.10
697.22	355.47
697.56	353.84
697.89	352.18
698.23	350.57
698.56	348.98
698.90	347.44
699.23	345.82
699.57	344.27
699.90	342.73
700.24	341.18
700.58	339.69
700.91	338.23
701.25	336.81
701.58	335.47
701.92	334.16
702.25	332.79
702.59	331.40
702.92	330.04
703.26	328.72
703.59	327.48
703.93	326.30
704.26	325.08
704.60	323.79
704.93	322.52
705.26	321.34
705.60	320.15
705.93	318.98
706.27	317.93
706.60	316.86
706.94	315.82
707.27	314.70
707.61	313.59
707.94	312.52
708.27	311.39
708.61	310.25
708.94	309.22
709.28	308.24
709.61	307.29
709.94	306.33
710.28	305.35
710.61	304.30
710.95	303.21
711.28	302.32
711.61	301.38
711.95	300.49
712.28	299.51
712.61	298.51
712.95	297.55
713.28	296.67
713.61	295.79
713.95	294.87
714.28	294.03
714.61	293.17
714.95	292.33
715.28	291.52
715.61	290.64
715.95	289.78
716.28	288.90
716.61	288.06
716.95	287.26
717.28	286.52
717.61	285.77
717.94	285.02
718.28	284.16
718.61	283.42
718.94	282.69
719.27	282.01
719.61	281.37
719.94	280.72
720.27	279.95
720.60	279.28
720.94	278.68
721.27	278.05
721.60	277.45
721.93	276.86
722.27	276.30
722.60	275.76
722.93	275.18
723.26	274.67
723.59	274.10
723.93	273.54
724.26	272.97
724.59	272.40
724.92	271.86
725.25	271.40
725.59	270.86
725.92	270.36
726.25	269.86
726.58	269.36
726.91	268.82
727.24	268.37
727.57	267.87
727.91	267.36
728.24	266.88
728.57	266.44
728.90	265.96
729.23	265.46
729.56	265.02
729.89	264.54
730.22	264.02
730.55	263.58
730.89	263.14
731.22	262.67
731.55	262.25
731.88	261.83
732.21	261.38
732.54	260.95
732.87	260.53
733.20	260.12
733.53	259.76
733.86	259.39
734.19	258.98
734.52	258.64
734.85	258.33
735.18	257.94
735.51	257.57
735.84	257.21
736.17	256.85
736.50	256.52
736.83	256.30
737.16	255.99
737.49	255.68
737.82	255.32
738.15	255.02
738.48	254.66
738.81	254.32
739.14	254.02
739.47	253.74
739.80	253.44
740.13	253.12
740.46	252.83
740.79	252.51
741.12	252.21
741.45	251.88
741.78	251.55
742.11	251.26
742.44	250.90
742.77	250.61
743.10	250.33
743.43	250.02
743.75	249.66
744.08	249.48
744.41	249.19
744.74	248.93
745.07	248.64
745.40	248.45
745.73	248.24
746.06	247.95
746.39	247.70
746.71	247.41
747.04	247.15
747.37	246.87
747.70	246.64
748.03	246.41
748.36	246.20
748.68	245.93
749.01	245.69
749.34	245.50
749.67	245.29
750.00	245.04
750.33	244.85
750.65	244.62
750.98	244.32
751.31	244.08
751.64	243.88
751.97	243.73
752.29	243.48
752.62	243.21
752.95	243.00
753.28	242.76
753.60	242.57
753.93	242.42
754.26	242.22
754.59	242.02
754.91	241.83
755.24	241.62
755.57	241.45
755.90	241.26
756.22	241.06
756.55	240.87
756.88	240.68
757.20	240.43
757.53	240.23
757.86	240.06
758.19	239.91
758.51	239.71
758.84	239.51
759.17	239.32
759.49	239.22
759.82	239.11
760.15	238.96
760.47	238.81
760.80	238.60
761.13	238.48
761.45	238.28
761.78	238.12
762.11	237.95
762.43	237.78
762.76	237.61
763.08	237.49
763.41	237.34
763.74	237.19
764.06	237.07
764.39	236.94
764.71	236.75
765.04	236.62
765.37	236.47
765.69	236.36
766.02	236.21
766.34	236.05
766.67	235.86
767.00	235.75
767.32	235.66
767.65	235.61
767.97	235.47
768.30	235.40
768.62	235.28
768.95	235.17
769.27	235.05
769.60	234.96
769.92	234.81
770.25	234.66
770.57	234.54
770.90	234.42
771.22	234.30
771.55	234.24
771.87	234.12
772.20	234.01
772.52	233.97
772.85	234.03
773.17	233.94
773.50	233.85
773.82	233.76
774.15	233.62
774.47	233.47
774.80	233.37
775.12	233.25
775.45	233.18
775.77	233.12
776.09	233.07
776.42	233.01
776.74	232.98
777.07	232.91
777.39	232.87
777.72	232.82
778.04	232.75
778.36	232.68
778.69	232.66
779.01	232.63
779.33	232.47
779.66	232.29
779.98	232.19
780.31	232.18
780.63	232.12
780.95	232.08
781.28	232.01
781.60	231.92
781.92	231.89
782.25	231.81
782.57	231.74
782.89	231.65
783.22	231.56
783.54	231.46
783.86	231.42
784.19	231.36
784.51	231.30
784.83	231.23
785.16	231.16
785.48	231.10
785.80	231.03
786.12	230.99
786.45	230.94
786.77	230.88
787.09	230.82
