SpectraSuite Data File
++++++++++++++++++++++++++++++++++++
Date: Fri Feb 01 17:00:25 EST 2013
User: group
Dark Spectrum Present: No
Reference Spectrum Present: No
Number of Sampled Component Spectra: 1
Spectrometers: USB2E7196
Integration Time (usec): 35000 (USB2E7196)
Spectra Averaged: 100 (USB2E7196)
Boxcar Smoothing: 10 (USB2E7196)
Correct for Electrical Dark: No (USB2E7196)
Strobe/Lamp Enabled: No (USB2E7196)
Correct for Detector Non-linearity: No (USB2E7196)
Correct for Stray Light: No (USB2E7196)
Number of Pixels in Processed Spectrum: 2048
>>>>>Begin Processed Spectral Data<<<<<
339.09	0.00
339.48	213.97
339.86	214.87
340.24	216.50
340.63	217.73
341.01	220.76
341.39	220.95
341.78	220.93
342.16	223.01
342.54	223.14
342.93	211.89
343.31	222.61
343.69	223.12
344.07	223.59
344.46	223.99
344.84	224.36
345.22	224.56
345.60	224.79
345.99	225.01
346.37	225.12
346.75	225.24
347.13	225.32
347.52	225.32
347.90	225.39
348.28	225.37
348.66	225.38
349.05	225.38
349.43	225.39
349.81	225.38
350.19	225.43
350.57	225.50
350.96	225.57
351.34	225.64
351.72	225.71
352.10	225.79
352.48	225.85
352.87	225.91
353.25	225.96
353.63	225.97
354.01	226.00
354.39	226.07
354.77	226.10
355.15	226.18
355.54	226.21
355.92	226.23
356.30	226.34
356.68	226.46
357.06	226.52
357.44	226.59
357.82	226.64
358.20	226.72
358.58	226.73
358.97	226.79
359.35	226.86
359.73	226.92
360.11	226.97
360.49	227.01
360.87	227.02
361.25	227.12
361.63	227.24
362.01	227.31
362.39	227.37
362.77	227.43
363.15	227.44
363.53	227.50
363.91	227.53
364.29	227.54
364.67	227.49
365.05	227.51
365.43	227.51
365.81	227.60
366.19	227.66
366.57	227.74
366.95	227.71
367.33	227.69
367.71	227.67
368.09	227.68
368.47	227.66
368.85	227.69
369.23	227.69
369.61	227.62
369.99	227.63
370.37	227.60
370.75	227.63
371.13	227.59
371.51	227.57
371.89	227.52
372.27	227.48
372.65	227.46
373.03	227.42
373.41	227.42
373.78	227.33
374.16	227.24
374.54	227.13
374.92	227.08
375.30	227.05
375.68	226.99
376.06	226.94
376.44	226.93
376.82	226.85
377.19	226.77
377.57	226.69
377.95	226.59
378.33	226.53
378.71	226.41
379.09	226.38
379.47	226.33
379.84	226.25
380.22	226.18
380.60	226.08
380.98	225.99
381.36	225.90
381.73	225.82
382.11	225.77
382.49	225.73
382.87	225.67
383.25	225.62
383.62	225.69
384.00	225.62
384.38	225.53
384.76	225.53
385.13	225.54
385.51	225.49
385.89	225.44
386.27	225.41
386.64	225.36
387.02	225.31
387.40	225.26
387.78	225.26
388.15	225.22
388.53	225.22
388.91	225.22
389.29	225.19
389.66	225.20
390.04	225.16
390.42	225.16
390.79	225.14
391.17	225.07
391.55	224.94
391.92	224.95
392.30	224.94
392.68	224.90
393.05	224.86
393.43	224.88
393.81	224.89
394.18	224.86
394.56	224.86
394.94	224.89
395.31	224.89
395.69	224.93
396.06	224.97
396.44	224.95
396.82	224.96
397.19	225.03
397.57	225.05
397.95	225.07
398.32	225.09
398.70	225.13
399.07	225.19
399.45	225.25
399.82	225.28
400.20	225.36
400.58	225.41
400.95	225.42
401.33	225.52
401.70	225.66
402.08	225.71
402.45	225.78
402.83	225.86
403.20	225.96
403.58	226.04
403.95	226.16
404.33	226.31
404.71	226.41
405.08	226.57
405.46	226.67
405.83	226.81
406.21	226.93
406.58	227.10
406.96	227.24
407.33	227.37
407.70	227.57
408.08	227.84
408.45	228.07
408.83	228.31
409.20	228.50
409.58	228.66
409.95	228.96
410.33	229.23
410.70	229.50
411.08	229.79
411.45	230.09
411.82	230.38
412.20	230.70
412.57	231.13
412.95	231.40
413.32	231.83
413.69	232.24
414.07	232.67
414.44	233.13
414.82	233.62
415.19	234.22
415.56	234.78
415.94	235.31
416.31	235.92
416.68	236.51
417.06	237.22
417.43	237.89
417.81	238.68
418.18	239.48
418.55	240.35
418.93	241.19
419.30	242.10
419.67	243.05
420.04	244.01
420.42	245.02
420.79	246.22
421.16	247.39
421.54	248.56
421.91	249.80
422.28	251.04
422.66	252.34
423.03	253.61
423.40	254.93
423.77	256.31
424.15	257.73
424.52	259.23
424.89	260.85
425.26	262.42
425.64	263.82
426.01	265.41
426.38	267.02
426.75	268.73
427.13	270.45
427.50	272.26
427.87	274.15
428.24	276.00
428.61	277.73
428.99	279.64
429.36	281.76
429.73	283.79
430.10	285.82
430.47	287.94
430.85	290.05
431.22	292.27
431.59	294.65
431.96	296.89
432.33	299.37
432.70	301.73
433.08	304.52
433.45	307.12
433.82	309.65
434.19	312.48
434.56	315.27
434.93	317.85
435.30	320.44
435.68	323.27
436.05	326.06
436.42	328.84
436.79	331.34
437.16	333.99
437.53	336.78
437.90	339.56
438.27	342.24
438.64	345.03
439.01	347.60
439.38	349.79
439.75	351.93
440.13	354.38
440.50	356.66
440.87	358.50
441.24	360.41
441.61	362.59
441.98	364.13
442.35	365.89
442.72	367.74
443.09	369.56
443.46	370.55
443.83	371.12
444.20	371.60
444.57	372.46
444.94	372.73
445.31	373.10
445.68	373.47
446.05	373.52
446.42	373.19
446.79	372.77
447.16	372.32
447.53	372.03
447.90	370.90
448.27	369.74
448.64	368.17
449.01	367.08
449.37	365.15
449.74	363.28
450.11	361.07
450.48	358.62
450.85	356.06
451.22	353.94
451.59	351.97
451.96	350.08
452.33	347.49
452.70	345.17
453.07	342.37
453.43	339.46
453.80	336.74
454.17	334.07
454.54	331.57
454.91	328.91
455.28	326.26
455.65	323.80
456.02	321.44
456.38	319.30
456.75	316.64
457.12	314.40
457.49	312.20
457.86	310.03
458.23	308.21
458.59	306.21
458.96	304.16
459.33	302.30
459.70	300.45
460.07	298.98
460.43	297.29
460.80	295.70
461.17	294.31
461.54	292.83
461.91	291.39
462.27	289.97
462.64	288.72
463.01	287.39
463.38	286.12
463.74	284.71
464.11	283.61
464.48	282.62
464.85	281.52
465.21	280.67
465.58	279.78
465.95	278.73
466.32	277.88
466.68	276.98
467.05	276.13
467.42	275.28
467.78	274.33
468.15	273.47
468.52	272.82
468.88	271.94
469.25	271.19
469.62	270.61
469.98	269.96
470.35	269.34
470.72	268.74
471.08	268.12
471.45	267.60
471.82	267.06
472.18	266.51
472.55	266.09
472.92	265.60
473.28	265.16
473.65	264.70
474.02	264.24
474.38	263.90
474.75	263.50
475.11	263.18
475.48	262.97
475.85	262.78
476.21	262.55
476.58	262.42
476.94	262.28
477.31	262.11
477.67	261.97
478.04	261.86
478.41	261.77
478.77	261.80
479.14	261.77
479.50	261.78
479.87	261.84
480.23	261.91
480.60	261.94
480.96	262.04
481.33	262.29
481.69	262.52
482.06	262.72
482.42	263.00
482.79	263.26
483.15	263.59
483.52	263.95
483.88	264.32
484.25	264.70
484.61	265.17
484.98	265.65
485.34	266.19
485.71	266.79
486.07	267.42
486.44	267.97
486.80	268.69
487.17	269.39
487.53	270.16
487.90	271.02
488.26	271.98
488.62	272.96
488.99	273.90
489.35	274.93
489.72	276.09
490.08	277.27
490.44	278.50
490.81	279.80
491.17	281.13
491.54	282.62
491.90	284.12
492.26	285.75
492.63	287.50
492.99	289.25
493.36	291.14
493.72	293.20
494.08	295.32
494.45	297.55
494.81	299.95
495.17	302.41
495.54	304.97
495.90	307.65
496.26	310.42
496.63	313.35
496.99	316.39
497.35	319.65
497.72	323.04
498.08	326.50
498.44	330.15
498.80	334.07
499.17	338.08
499.53	342.23
499.89	346.55
500.26	351.01
500.62	355.69
500.98	360.57
501.34	365.59
501.71	370.89
502.07	376.22
502.43	381.77
502.79	387.57
503.16	393.56
503.52	399.72
503.88	406.01
504.24	412.59
504.60	419.48
504.97	426.50
505.33	433.71
505.69	441.42
506.05	449.14
506.41	456.90
506.78	464.95
507.14	473.36
507.50	481.94
507.86	490.89
508.22	500.00
508.59	509.15
508.95	518.65
509.31	528.37
509.67	538.38
510.03	548.56
510.39	559.00
510.75	569.68
511.12	580.47
511.48	591.72
511.84	603.05
512.20	614.39
512.56	626.22
512.92	638.31
513.28	650.47
513.64	662.72
514.00	675.33
514.37	688.09
514.73	700.99
515.09	713.87
515.45	726.92
515.81	740.32
516.17	754.11
516.53	767.97
516.89	781.94
517.25	795.92
517.61	810.11
517.97	824.38
518.33	838.64
518.69	853.17
519.05	867.83
519.41	882.84
519.77	898.10
520.13	913.27
520.49	928.32
520.85	943.46
521.21	958.86
521.57	974.80
521.93	990.32
522.29	1006.29
522.65	1022.39
523.01	1038.29
523.37	1053.96
523.73	1069.88
524.09	1085.72
524.45	1101.57
524.81	1117.87
525.17	1134.31
525.53	1150.80
525.89	1167.35
526.25	1183.85
526.61	1199.90
526.97	1216.21
527.33	1232.39
527.68	1248.65
528.04	1264.84
528.40	1281.01
528.76	1297.82
529.12	1314.08
529.48	1330.56
529.84	1346.41
530.20	1362.57
530.56	1379.29
530.91	1396.43
531.27	1412.77
531.63	1428.85
531.99	1445.15
532.35	1460.75
532.71	1476.35
533.07	1492.28
533.42	1507.83
533.78	1523.59
534.14	1539.57
534.50	1554.64
534.86	1570.14
535.21	1585.04
535.57	1600.57
535.93	1615.76
536.29	1630.09
536.65	1644.78
537.00	1659.18
537.36	1674.11
537.72	1688.34
538.08	1702.44
538.44	1715.81
538.79	1729.33
539.15	1742.70
539.51	1756.11
539.87	1770.19
540.22	1783.64
540.58	1797.07
540.94	1810.04
541.29	1822.60
541.65	1834.89
542.01	1847.77
542.37	1859.84
542.72	1871.93
543.08	1883.53
543.44	1895.69
543.79	1906.78
544.15	1917.54
544.51	1928.95
544.87	1939.61
545.22	1950.21
545.58	1960.24
545.94	1969.83
546.29	1979.50
546.65	1989.21
547.01	1998.34
547.36	2006.85
547.72	2015.24
548.07	2022.98
548.43	2030.92
548.79	2038.80
549.14	2046.44
549.50	2053.65
549.86	2061.18
550.21	2068.47
550.57	2075.53
550.92	2082.04
551.28	2089.07
551.64	2096.06
551.99	2102.53
552.35	2108.66
552.70	2114.75
553.06	2120.75
553.41	2127.07
553.77	2132.98
554.13	2139.01
554.48	2145.19
554.84	2150.82
555.19	2155.95
555.55	2161.21
555.90	2165.87
556.26	2170.84
556.61	2175.47
556.97	2179.92
557.32	2184.11
557.68	2188.29
558.03	2192.57
558.39	2196.25
558.74	2200.91
559.10	2204.85
559.45	2208.55
559.81	2212.79
560.16	2216.77
560.52	2220.00
560.87	2223.47
561.23	2226.40
561.58	2229.48
561.94	2232.03
562.29	2234.32
562.64	2237.26
563.00	2239.85
563.35	2243.36
563.71	2246.55
564.06	2249.87
564.42	2252.79
564.77	2255.39
565.12	2257.75
565.48	2259.76
565.83	2261.88
566.19	2263.40
566.54	2264.33
566.89	2265.69
567.25	2266.62
567.60	2267.87
567.96	2269.72
568.31	2270.73
568.66	2272.05
569.02	2272.77
569.37	2273.34
569.72	2274.45
570.08	2274.64
570.43	2274.90
570.78	2274.67
571.14	2273.32
571.49	2272.11
571.84	2272.01
572.20	2271.13
572.55	2270.26
572.90	2268.92
573.26	2267.73
573.61	2266.06
573.96	2264.71
574.31	2261.89
574.67	2259.03
575.02	2255.73
575.37	2252.49
575.72	2248.99
576.08	2245.74
576.43	2242.58
576.78	2239.14
577.13	2236.09
577.49	2233.15
577.84	2229.87
578.19	2226.29
578.54	2222.96
578.90	2219.11
579.25	2213.70
579.60	2208.98
579.95	2204.08
580.30	2199.13
580.66	2194.11
581.01	2189.40
581.36	2184.53
581.71	2180.61
582.06	2176.53
582.42	2172.32
582.77	2167.39
583.12	2163.03
583.47	2158.59
583.82	2153.74
584.17	2148.71
584.53	2143.46
584.88	2138.07
585.23	2132.49
585.58	2127.16
585.93	2121.89
586.28	2117.15
586.63	2112.20
586.98	2107.26
587.34	2102.84
587.69	2098.28
588.04	2093.37
588.39	2087.96
588.74	2081.63
589.09	2075.71
589.44	2068.91
589.79	2063.10
590.14	2057.58
590.49	2051.12
590.84	2044.81
591.19	2039.09
591.54	2032.78
591.89	2025.56
592.25	2019.06
592.60	2011.92
592.95	2004.63
593.30	1997.41
593.65	1990.04
594.00	1983.34
594.35	1976.39
594.70	1968.51
595.05	1961.53
595.40	1954.18
595.75	1946.82
596.10	1941.02
596.45	1934.42
596.80	1928.53
597.15	1922.06
597.50	1915.22
597.85	1908.95
598.19	1902.50
598.54	1895.63
598.89	1889.04
599.24	1883.28
599.59	1876.73
599.94	1870.81
600.29	1864.43
600.64	1857.88
600.99	1850.64
601.34	1843.90
601.69	1837.02
602.04	1830.35
602.39	1823.12
602.74	1816.58
603.08	1810.01
603.43	1803.39
603.78	1796.16
604.13	1789.07
604.48	1781.92
604.83	1775.14
605.18	1768.41
605.53	1760.69
605.87	1752.72
606.22	1745.62
606.57	1737.86
606.92	1730.68
607.27	1723.62
607.62	1716.85
607.96	1709.88
608.31	1703.44
608.66	1695.94
609.01	1688.42
609.36	1680.93
609.70	1673.08
610.05	1665.12
610.40	1657.50
610.75	1649.27
611.10	1641.78
611.44	1633.31
611.79	1625.27
612.14	1616.64
612.49	1607.38
612.83	1598.94
613.18	1590.88
613.53	1582.83
613.88	1574.40
614.22	1566.11
614.57	1557.49
614.92	1549.56
615.27	1542.11
615.61	1533.68
615.96	1525.69
616.31	1518.08
616.65	1510.79
617.00	1503.31
617.35	1495.63
617.70	1487.34
618.04	1478.82
618.39	1470.56
618.74	1463.09
619.08	1454.94
619.43	1447.34
619.78	1440.47
620.12	1433.36
620.47	1425.79
620.82	1417.66
621.16	1410.13
621.51	1402.62
621.85	1395.10
622.20	1386.56
622.55	1378.06
622.89	1370.31
623.24	1362.65
623.59	1355.30
623.93	1347.80
624.28	1340.51
624.62	1333.06
624.97	1325.88
625.32	1319.19
625.66	1312.14
626.01	1305.05
626.35	1297.55
626.70	1289.84
627.04	1282.22
627.39	1274.36
627.73	1267.03
628.08	1260.12
628.43	1252.95
628.77	1245.50
629.12	1237.98
629.46	1230.91
629.81	1223.60
630.15	1216.31
630.50	1208.95
630.84	1200.81
631.19	1192.85
631.53	1185.29
631.88	1177.63
632.22	1170.12
632.57	1162.73
632.91	1155.21
633.26	1147.81
633.60	1140.48
633.95	1133.46
634.29	1126.41
634.64	1119.82
634.98	1112.46
635.32	1105.40
635.67	1098.78
636.01	1092.23
636.36	1085.44
636.70	1078.87
637.05	1072.35
637.39	1065.98
637.73	1059.49
638.08	1053.58
638.42	1047.63
638.77	1041.30
639.11	1034.87
639.45	1028.40
639.80	1021.72
640.14	1015.39
640.49	1008.85
640.83	1002.60
641.17	996.37
641.52	990.09
641.86	983.70
642.20	977.99
642.55	971.64
642.89	965.25
643.23	958.79
643.58	953.00
643.92	946.93
644.26	940.88
644.61	934.86
644.95	928.88
645.29	922.30
645.64	915.60
645.98	909.29
646.32	903.51
646.66	897.58
647.01	891.86
647.35	886.12
647.69	880.34
648.04	874.72
648.38	868.98
648.72	863.08
649.06	857.03
649.41	851.11
649.75	845.17
650.09	839.25
650.43	833.47
650.78	827.36
651.12	821.41
651.46	815.71
651.80	810.03
652.14	804.75
652.49	799.46
652.83	794.39
653.17	788.75
653.51	783.05
653.85	777.63
654.20	772.09
654.54	766.21
654.88	760.43
655.22	754.60
655.56	748.95
655.90	743.45
656.25	738.23
656.59	732.83
656.93	727.82
657.27	722.74
657.61	717.30
657.95	712.28
658.29	707.22
658.64	701.97
658.98	696.71
659.32	691.23
659.66	686.09
660.00	680.75
660.34	675.85
660.68	670.95
661.02	665.99
661.36	661.25
661.70	656.74
662.05	652.45
662.39	648.21
662.73	643.73
663.07	639.37
663.41	634.95
663.75	630.51
664.09	625.94
664.43	621.54
664.77	617.48
665.11	613.17
665.45	609.00
665.79	604.98
666.13	600.84
666.47	596.71
666.81	592.57
667.15	588.44
667.49	584.50
667.83	580.68
668.17	576.72
668.51	572.71
668.85	568.62
669.19	564.86
669.53	561.04
669.87	557.21
670.21	553.52
670.55	549.88
670.89	546.50
671.23	543.12
671.57	539.56
671.91	536.01
672.25	532.54
672.58	529.04
672.92	525.58
673.26	522.44
673.60	519.34
673.94	516.24
674.28	513.33
674.62	510.40
674.96	507.28
675.30	504.44
675.64	501.47
675.97	498.77
676.31	495.82
676.65	492.91
676.99	490.24
677.33	487.39
677.67	484.60
678.01	481.54
678.34	478.56
678.68	475.72
679.02	472.88
679.36	470.08
679.70	467.35
680.04	464.63
680.37	461.73
680.71	458.86
681.05	456.25
681.39	453.51
681.73	450.83
682.06	448.33
682.40	445.74
682.74	443.22
683.08	440.68
683.42	438.10
683.75	435.59
684.09	433.00
684.43	430.51
684.77	428.07
685.10	425.72
685.44	423.42
685.78	421.08
686.12	418.83
686.45	416.61
686.79	414.31
687.13	412.14
687.46	410.00
687.80	407.88
688.14	405.67
688.48	403.63
688.81	401.41
689.15	399.25
689.49	397.10
689.82	395.06
690.16	392.97
690.50	390.97
690.83	388.99
691.17	387.01
691.51	385.11
691.84	383.23
692.18	381.37
692.52	379.37
692.85	377.47
693.19	375.58
693.52	373.73
693.86	371.94
694.20	370.15
694.53	368.37
694.87	366.53
695.21	364.75
695.54	362.94
695.88	361.26
696.21	359.54
696.55	357.89
696.88	356.17
697.22	354.44
697.56	352.85
697.89	351.29
698.23	349.70
698.56	348.13
698.90	346.56
699.23	344.90
699.57	343.37
699.90	341.82
700.24	340.35
700.58	338.85
700.91	337.38
701.25	335.95
701.58	334.58
701.92	333.23
702.25	331.87
702.59	330.50
702.92	329.17
703.26	327.88
703.59	326.60
703.93	325.42
704.26	324.25
704.60	322.95
704.93	321.62
705.26	320.36
705.60	319.14
705.93	317.97
706.27	316.94
706.60	315.93
706.94	314.86
707.27	313.70
707.61	312.61
707.94	311.58
708.27	310.45
708.61	309.32
708.94	308.33
709.28	307.35
709.61	306.40
709.94	305.44
710.28	304.42
710.61	303.42
710.95	302.32
711.28	301.44
711.61	300.49
711.95	299.59
712.28	298.64
712.61	297.71
712.95	296.80
713.28	295.90
713.61	294.95
713.95	294.06
714.28	293.21
714.61	292.31
714.95	291.48
715.28	290.64
715.61	289.80
715.95	288.97
716.28	288.09
716.61	287.23
716.95	286.34
717.28	285.58
717.61	284.82
717.94	284.07
718.28	283.24
718.61	282.50
718.94	281.78
719.27	281.13
719.61	280.43
719.94	279.76
720.27	279.01
720.60	278.35
720.94	277.71
721.27	277.13
721.60	276.57
721.93	275.94
722.27	275.38
722.60	274.80
722.93	274.22
723.26	273.69
723.59	273.10
723.93	272.58
724.26	272.00
724.59	271.43
724.92	270.91
725.25	270.38
725.59	269.85
725.92	269.33
726.25	268.81
726.58	268.35
726.91	267.87
727.24	267.42
727.57	266.96
727.91	266.45
728.24	265.96
728.57	265.46
728.90	264.97
729.23	264.47
729.56	264.06
729.89	263.58
730.22	263.08
730.55	262.63
730.89	262.19
731.22	261.78
731.55	261.37
731.88	260.96
732.21	260.56
732.54	260.12
732.87	259.70
733.20	259.32
733.53	258.89
733.86	258.52
734.19	258.09
734.52	257.71
734.85	257.42
735.18	257.02
735.51	256.66
735.84	256.31
736.17	255.99
736.50	255.58
736.83	255.39
737.16	255.06
737.49	254.73
737.82	254.38
738.15	254.05
738.48	253.70
738.81	253.35
739.14	253.02
739.47	252.74
739.80	252.40
740.13	252.08
740.46	251.76
740.79	251.43
741.12	251.15
741.45	250.84
741.78	250.51
742.11	250.23
742.44	249.91
742.77	249.63
743.10	249.32
743.43	249.05
743.75	248.61
744.08	248.48
744.41	248.21
744.74	247.95
745.07	247.65
745.40	247.36
745.73	247.13
746.06	246.86
746.39	246.60
746.71	246.38
747.04	246.10
747.37	245.82
747.70	245.57
748.03	245.33
748.36	245.09
748.68	244.82
749.01	244.57
749.34	244.36
749.67	244.12
750.00	243.90
750.33	243.73
750.65	243.52
750.98	243.14
751.31	242.91
751.64	242.68
751.97	242.52
752.29	242.35
752.62	242.08
752.95	241.87
753.28	241.64
753.60	241.40
753.93	241.23
754.26	241.04
754.59	240.84
754.91	240.62
755.24	240.42
755.57	240.23
755.90	240.02
756.22	239.83
756.55	239.66
756.88	239.44
757.20	239.20
757.53	239.01
757.86	238.84
758.19	238.70
758.51	238.54
758.84	238.34
759.17	238.13
759.49	237.99
759.82	237.87
760.15	237.72
760.47	237.61
760.80	237.44
761.13	237.34
761.45	237.16
761.78	236.97
762.11	236.83
762.43	236.70
762.76	236.55
763.08	236.43
763.41	236.27
763.74	236.14
764.06	236.01
764.39	235.90
764.71	235.77
765.04	235.64
765.37	235.49
765.69	235.36
766.02	235.25
766.34	235.10
766.67	234.93
767.00	234.84
767.32	234.74
767.65	234.73
767.97	234.59
768.30	234.52
768.62	234.44
768.95	234.30
769.27	234.20
769.60	234.12
769.92	234.01
770.25	233.91
770.57	233.82
770.90	233.69
771.22	233.54
771.55	233.43
771.87	233.31
772.20	233.23
772.52	233.23
772.85	233.24
773.17	233.20
773.50	233.11
773.82	233.02
774.15	232.91
774.47	232.72
774.80	232.62
775.12	232.52
775.45	232.46
775.77	232.38
776.09	232.31
776.42	232.21
776.74	232.14
777.07	232.07
777.39	232.04
777.72	231.98
778.04	231.96
778.36	231.90
778.69	231.85
779.01	231.79
779.33	231.64
779.66	231.45
779.98	231.31
780.31	231.26
780.63	231.23
780.95	231.17
781.28	231.13
781.60	231.05
781.92	230.99
782.25	230.89
782.57	230.83
782.89	230.73
783.22	230.66
783.54	230.58
783.86	230.51
784.19	230.41
784.51	230.38
784.83	230.29
785.16	230.22
785.48	230.20
785.80	230.14
786.12	230.11
786.45	230.06
786.77	230.05
787.09	230.00
