SpectraSuite Data File
++++++++++++++++++++++++++++++++++++
Date: Fri Feb 01 16:01:57 EST 2013
User: group
Dark Spectrum Present: No
Reference Spectrum Present: No
Number of Sampled Component Spectra: 1
Spectrometers: USB2E7196
Integration Time (usec): 35000 (USB2E7196)
Spectra Averaged: 100 (USB2E7196)
Boxcar Smoothing: 10 (USB2E7196)
Correct for Electrical Dark: No (USB2E7196)
Strobe/Lamp Enabled: No (USB2E7196)
Correct for Detector Non-linearity: No (USB2E7196)
Correct for Stray Light: No (USB2E7196)
Number of Pixels in Processed Spectrum: 2048
>>>>>Begin Processed Spectral Data<<<<<
339.09	0.00
339.48	214.62
339.86	216.39
340.24	217.85
340.63	219.00
341.01	221.10
341.39	221.59
341.78	222.52
342.16	224.19
342.54	224.74
342.93	212.98
343.31	223.71
343.69	224.28
344.07	224.72
344.46	225.12
344.84	225.48
345.22	225.75
345.60	225.99
345.99	226.21
346.37	226.32
346.75	226.44
347.13	226.50
347.52	226.54
347.90	226.62
348.28	226.64
348.66	226.66
349.05	226.66
349.43	226.73
349.81	226.80
350.19	226.87
350.57	226.93
350.96	227.01
351.34	227.09
351.72	227.18
352.10	227.30
352.48	227.39
352.87	227.48
353.25	227.55
353.63	227.65
354.01	227.70
354.39	227.81
354.77	227.89
355.15	228.01
355.54	228.09
355.92	228.12
356.30	228.23
356.68	228.35
357.06	228.44
357.44	228.50
357.82	228.56
358.20	228.61
358.58	228.69
358.97	228.74
359.35	228.86
359.73	228.90
360.11	228.94
360.49	229.00
360.87	229.03
361.25	229.10
361.63	229.16
362.01	229.21
362.39	229.23
362.77	229.26
363.15	229.28
363.53	229.31
363.91	229.37
364.29	229.36
364.67	229.29
365.05	229.33
365.43	229.36
365.81	229.37
366.19	229.40
366.57	229.42
366.95	229.43
367.33	229.42
367.71	229.41
368.09	229.42
368.47	229.34
368.85	229.33
369.23	229.29
369.61	229.21
369.99	229.22
370.37	229.22
370.75	229.22
371.13	229.15
371.51	229.08
371.89	229.05
372.27	229.01
372.65	228.98
373.03	228.93
373.41	228.84
373.78	228.79
374.16	228.70
374.54	228.62
374.92	228.57
375.30	228.47
375.68	228.39
376.06	228.31
376.44	228.30
376.82	228.25
377.19	228.18
377.57	228.11
377.95	228.01
378.33	227.89
378.71	227.74
379.09	227.66
379.47	227.61
379.84	227.51
380.22	227.45
380.60	227.37
380.98	227.28
381.36	227.22
381.73	227.17
382.11	227.14
382.49	227.05
382.87	226.96
383.25	226.92
383.62	226.98
384.00	226.89
384.38	226.81
384.76	226.74
385.13	226.73
385.51	226.70
385.89	226.62
386.27	226.58
386.64	226.57
387.02	226.55
387.40	226.51
387.78	226.46
388.15	226.40
388.53	226.37
388.91	226.32
389.29	226.28
389.66	226.25
390.04	226.19
390.42	226.22
390.79	226.22
391.17	226.22
391.55	226.10
391.92	226.12
392.30	226.16
392.68	226.15
393.05	226.13
393.43	226.14
393.81	226.14
394.18	226.17
394.56	226.17
394.94	226.23
395.31	226.21
395.69	226.27
396.06	226.32
396.44	226.34
396.82	226.39
397.19	226.47
397.57	226.50
397.95	226.56
398.32	226.60
398.70	226.65
399.07	226.70
399.45	226.78
399.82	226.83
400.20	226.87
400.58	226.92
400.95	226.98
401.33	227.06
401.70	227.24
402.08	227.34
402.45	227.45
402.83	227.56
403.20	227.70
403.58	227.77
403.95	227.93
404.33	228.04
404.71	228.19
405.08	228.38
405.46	228.50
405.83	228.65
406.21	228.78
406.58	228.95
406.96	229.11
407.33	229.28
407.70	229.49
408.08	229.76
408.45	229.99
408.83	230.24
409.20	230.50
409.58	230.71
409.95	230.95
410.33	231.24
410.70	231.46
411.08	231.74
411.45	232.05
411.82	232.32
412.20	232.69
412.57	233.07
412.95	233.35
413.32	233.76
413.69	234.19
414.07	234.59
414.44	235.06
414.82	235.53
415.19	236.09
415.56	236.62
415.94	237.16
416.31	237.76
416.68	238.38
417.06	239.06
417.43	239.69
417.81	240.46
418.18	241.24
418.55	242.08
418.93	242.96
419.30	243.87
419.67	244.85
420.04	245.79
420.42	246.78
420.79	247.97
421.16	249.10
421.54	250.25
421.91	251.50
422.28	252.75
422.66	254.09
423.03	255.37
423.40	256.70
423.77	258.13
424.15	259.57
424.52	261.06
424.89	262.66
425.26	264.21
425.64	265.66
426.01	267.25
426.38	268.91
426.75	270.61
427.13	272.32
427.50	274.10
427.87	275.99
428.24	277.84
428.61	279.58
428.99	281.58
429.36	283.66
429.73	285.71
430.10	287.69
430.47	289.71
430.85	291.79
431.22	294.00
431.59	296.36
431.96	298.67
432.33	301.13
432.70	303.48
433.08	306.30
433.45	308.95
433.82	311.47
434.19	314.34
434.56	317.13
434.93	319.80
435.30	322.39
435.68	325.29
436.05	328.13
436.42	330.91
436.79	333.40
437.16	336.11
437.53	338.97
437.90	341.78
438.27	344.61
438.64	347.47
439.01	350.10
439.38	352.33
439.75	354.41
440.13	356.91
440.50	359.27
440.87	361.11
441.24	363.01
441.61	365.27
441.98	366.80
442.35	368.61
442.72	370.45
443.09	372.27
443.46	373.28
443.83	373.87
444.20	374.40
444.57	375.25
444.94	375.50
445.31	375.85
445.68	376.27
446.05	376.28
446.42	375.92
446.79	375.48
447.16	375.08
447.53	374.80
447.90	373.66
448.27	372.51
448.64	370.91
449.01	369.74
449.37	367.77
449.74	365.86
450.11	363.58
450.48	361.10
450.85	358.57
451.22	356.41
451.59	354.42
451.96	352.49
452.33	349.86
452.70	347.52
453.07	344.67
453.43	341.72
453.80	338.95
454.17	336.25
454.54	333.71
454.91	330.91
455.28	328.25
455.65	325.71
456.02	323.24
456.38	321.11
456.75	318.46
457.12	316.18
457.49	313.94
457.86	311.77
458.23	309.91
458.59	307.83
458.96	305.73
459.33	303.84
459.70	301.95
460.07	300.46
460.43	298.77
460.80	297.14
461.17	295.69
461.54	294.20
461.91	292.75
462.27	291.28
462.64	290.05
463.01	288.67
463.38	287.37
463.74	285.99
464.11	284.81
464.48	283.82
464.85	282.68
465.21	281.78
465.58	280.87
465.95	279.78
466.32	278.90
466.68	277.97
467.05	277.05
467.42	276.17
467.78	275.21
468.15	274.31
468.52	273.66
468.88	272.81
469.25	272.06
469.62	271.46
469.98	270.81
470.35	270.18
470.72	269.58
471.08	268.97
471.45	268.45
471.82	267.91
472.18	267.29
472.55	266.93
472.92	266.46
473.28	266.01
473.65	265.56
474.02	265.14
474.38	264.78
474.75	264.49
475.11	264.14
475.48	263.92
475.85	263.73
476.21	263.48
476.58	263.31
476.94	263.18
477.31	263.00
477.67	262.86
478.04	262.77
478.41	262.69
478.77	262.74
479.14	262.69
479.50	262.72
479.87	262.81
480.23	262.86
480.60	262.94
480.96	263.03
481.33	263.26
481.69	263.45
482.06	263.67
482.42	263.88
482.79	264.17
483.15	264.47
483.52	264.87
483.88	265.25
484.25	265.64
484.61	266.06
484.98	266.55
485.34	267.12
485.71	267.72
486.07	268.38
486.44	268.93
486.80	269.67
487.17	270.41
487.53	271.25
487.90	272.10
488.26	273.05
488.62	274.06
488.99	275.04
489.35	276.11
489.72	277.27
490.08	278.51
490.44	279.72
490.81	281.07
491.17	282.41
491.54	283.91
491.90	285.48
492.26	287.15
492.63	288.90
492.99	290.66
493.36	292.55
493.72	294.60
494.08	296.71
494.45	298.92
494.81	301.29
495.17	303.70
495.54	306.28
495.90	308.93
496.26	311.73
496.63	314.68
496.99	317.78
497.35	321.02
497.72	324.44
498.08	327.99
498.44	331.66
498.80	335.56
499.17	339.67
499.53	343.79
499.89	348.13
500.26	352.65
500.62	357.34
500.98	362.33
501.34	367.38
501.71	372.70
502.07	378.14
502.43	383.76
502.79	389.61
503.16	395.65
503.52	401.92
503.88	408.35
504.24	414.97
504.60	421.83
504.97	428.92
505.33	436.17
505.69	443.86
506.05	451.59
506.41	459.44
506.78	467.51
507.14	475.96
507.50	484.72
507.86	493.71
508.22	502.86
508.59	512.04
508.95	521.60
509.31	531.44
509.67	541.51
510.03	551.83
510.39	562.34
510.75	573.17
511.12	584.11
511.48	595.38
511.84	606.84
512.20	618.35
512.56	630.37
512.92	642.59
513.28	654.93
513.64	667.52
514.00	680.23
514.37	693.20
514.73	706.28
515.09	719.34
515.45	732.66
515.81	746.29
516.17	760.30
516.53	774.43
516.89	788.59
517.25	802.75
517.61	817.19
517.97	831.69
518.33	846.09
518.69	860.82
519.05	875.85
519.41	891.12
519.77	906.72
520.13	922.10
520.49	937.48
520.85	952.97
521.21	968.66
521.57	984.88
521.93	1000.57
522.29	1017.01
522.65	1033.18
523.01	1049.32
523.37	1065.32
523.73	1081.45
524.09	1097.50
524.45	1113.75
524.81	1130.52
525.17	1147.28
525.53	1164.17
525.89	1181.05
526.25	1197.90
526.61	1214.29
526.97	1230.83
527.33	1247.19
527.68	1263.76
528.04	1280.22
528.40	1296.65
528.76	1313.65
529.12	1330.32
529.48	1347.22
529.84	1363.09
530.20	1379.67
530.56	1396.82
530.91	1414.24
531.27	1430.89
531.63	1447.41
531.99	1463.96
532.35	1479.79
532.71	1495.77
533.07	1511.96
533.42	1527.87
533.78	1543.86
534.14	1560.08
534.50	1575.57
534.86	1591.42
535.21	1606.67
535.57	1622.47
535.93	1638.03
536.29	1652.69
536.65	1667.58
537.00	1682.34
537.36	1697.65
537.72	1712.23
538.08	1726.49
538.44	1740.21
538.79	1754.17
539.15	1767.86
539.51	1781.52
539.87	1795.77
540.22	1809.43
540.58	1823.13
540.94	1836.39
541.29	1849.28
541.65	1861.83
542.01	1874.89
542.37	1887.20
542.72	1899.44
543.08	1911.22
543.44	1923.51
543.79	1934.80
544.15	1945.82
544.51	1957.42
544.87	1968.35
545.22	1979.12
545.58	1989.25
545.94	1998.98
546.29	2008.88
546.65	2018.69
547.01	2028.13
547.36	2036.83
547.72	2045.17
548.07	2052.85
548.43	2060.88
548.79	2068.85
549.14	2076.40
549.50	2083.73
549.86	2091.35
550.21	2098.64
550.57	2105.86
550.92	2112.43
551.28	2119.53
551.64	2126.52
551.99	2132.76
552.35	2138.87
552.70	2145.07
553.06	2151.07
553.41	2157.52
553.77	2163.45
554.13	2169.49
554.48	2175.41
554.84	2180.80
555.19	2186.04
555.55	2191.28
555.90	2195.84
556.26	2200.65
556.61	2205.40
556.97	2209.67
557.32	2213.89
557.68	2218.12
558.03	2222.35
558.39	2225.97
558.74	2230.50
559.10	2234.43
559.45	2238.30
559.81	2242.51
560.16	2246.31
560.52	2249.54
560.87	2252.83
561.23	2255.52
561.58	2258.56
561.94	2261.14
562.29	2263.67
562.64	2266.45
563.00	2269.07
563.35	2272.50
563.71	2275.66
564.06	2279.01
564.42	2281.77
564.77	2284.21
565.12	2286.47
565.48	2288.38
565.83	2290.34
566.19	2291.71
566.54	2292.50
566.89	2293.53
567.25	2294.12
567.60	2295.37
567.96	2297.20
568.31	2298.21
568.66	2299.27
569.02	2299.76
569.37	2300.16
569.72	2301.10
570.08	2301.17
570.43	2301.35
570.78	2300.97
571.14	2299.51
571.49	2298.10
571.84	2297.91
572.20	2296.77
572.55	2295.80
572.90	2294.37
573.26	2293.06
573.61	2291.46
573.96	2289.80
574.31	2287.03
574.67	2284.15
575.02	2280.55
575.37	2277.07
575.72	2273.11
576.08	2269.74
576.43	2266.37
576.78	2262.54
577.13	2259.24
577.49	2256.21
577.84	2252.70
578.19	2248.98
578.54	2245.39
578.90	2241.16
579.25	2235.66
579.60	2230.68
579.95	2225.68
580.30	2220.63
580.66	2215.49
581.01	2210.41
581.36	2205.49
581.71	2201.20
582.06	2196.68
582.42	2192.32
582.77	2187.07
583.12	2182.62
583.47	2178.04
583.82	2173.11
584.17	2168.00
584.53	2162.56
584.88	2156.93
585.23	2151.19
585.58	2145.65
585.93	2140.18
586.28	2135.35
586.63	2130.25
586.98	2125.33
587.34	2120.74
587.69	2115.82
588.04	2110.33
588.39	2104.76
588.74	2098.41
589.09	2092.23
589.44	2085.77
589.79	2079.82
590.14	2074.25
590.49	2067.60
590.84	2061.08
591.19	2055.13
591.54	2048.73
591.89	2041.32
592.25	2034.46
592.60	2027.27
592.95	2019.62
593.30	2012.29
593.65	2004.68
594.00	1997.62
594.35	1990.33
594.70	1982.17
595.05	1974.97
595.40	1967.98
595.75	1960.51
596.10	1954.21
596.45	1947.53
596.80	1941.14
597.15	1934.38
597.50	1927.34
597.85	1920.97
598.19	1914.46
598.54	1907.18
598.89	1900.52
599.24	1894.68
599.59	1887.96
599.94	1881.67
600.29	1875.47
600.64	1868.89
600.99	1861.50
601.34	1854.69
601.69	1847.69
602.04	1840.86
602.39	1833.53
602.74	1826.61
603.08	1819.85
603.43	1813.13
603.78	1805.76
604.13	1798.55
604.48	1791.23
604.83	1784.23
605.18	1777.22
605.53	1769.20
605.87	1761.23
606.22	1753.95
606.57	1745.87
606.92	1738.69
607.27	1731.58
607.62	1724.56
607.96	1717.20
608.31	1710.57
608.66	1702.94
609.01	1695.51
609.36	1687.76
609.70	1679.65
610.05	1671.57
610.40	1663.72
610.75	1655.42
611.10	1647.80
611.44	1639.46
611.79	1631.49
612.14	1622.74
612.49	1613.44
612.83	1604.92
613.18	1596.82
613.53	1588.65
613.88	1580.09
614.22	1571.72
614.57	1563.09
614.92	1555.02
615.27	1547.42
615.61	1539.12
615.96	1531.09
616.31	1523.29
616.65	1516.03
617.00	1508.53
617.35	1500.88
617.70	1492.61
618.04	1483.98
618.39	1475.85
618.74	1468.17
619.08	1459.76
619.43	1452.34
619.78	1445.56
620.12	1438.57
620.47	1431.04
620.82	1422.97
621.16	1415.72
621.51	1408.12
621.85	1400.53
622.20	1392.00
622.55	1383.71
622.89	1375.92
623.24	1368.34
623.59	1361.09
623.93	1353.56
624.28	1346.41
624.62	1338.88
624.97	1331.73
625.32	1325.15
625.66	1318.09
626.01	1310.97
626.35	1303.60
626.70	1295.80
627.04	1288.05
627.39	1280.13
627.73	1272.86
628.08	1265.90
628.43	1258.59
628.77	1251.27
629.12	1243.68
629.46	1236.53
629.81	1229.19
630.15	1221.94
630.50	1214.51
630.84	1206.23
631.19	1198.28
631.53	1190.64
631.88	1183.09
632.22	1175.47
632.57	1168.11
632.91	1160.52
633.26	1153.05
633.60	1145.68
633.95	1138.57
634.29	1131.57
634.64	1124.95
634.98	1117.42
635.32	1110.25
635.67	1103.59
636.01	1096.86
636.36	1090.01
636.70	1083.52
637.05	1076.81
637.39	1070.33
637.73	1063.81
638.08	1057.95
638.42	1052.00
638.77	1045.59
639.11	1038.95
639.45	1032.53
639.80	1025.90
640.14	1019.51
640.49	1012.97
640.83	1006.68
641.17	1000.37
641.52	993.96
641.86	987.49
642.20	981.56
642.55	975.29
642.89	968.83
643.23	962.40
643.58	956.67
643.92	950.38
644.26	944.34
644.61	938.28
644.95	932.22
645.29	925.64
645.64	918.86
645.98	912.51
646.32	906.76
646.66	900.82
647.01	895.01
647.35	889.31
647.69	883.52
648.04	878.01
648.38	872.28
648.72	866.33
649.06	860.31
649.41	854.59
649.75	848.61
650.09	842.71
650.43	836.92
650.78	830.74
651.12	824.86
651.46	819.18
651.80	813.41
652.14	808.08
652.49	802.63
652.83	797.46
653.17	791.75
653.51	786.00
653.85	780.57
654.20	774.90
654.54	768.95
654.88	763.20
655.22	757.23
655.56	751.61
655.90	746.19
656.25	740.90
656.59	735.50
656.93	730.51
657.27	725.36
657.61	719.92
657.95	714.82
658.29	709.75
658.64	704.48
658.98	699.22
659.32	693.76
659.66	688.68
660.00	683.37
660.34	678.50
660.68	673.52
661.02	668.46
661.36	663.69
661.70	659.04
662.05	654.70
662.39	650.45
662.73	645.96
663.07	641.51
663.41	637.04
663.75	632.59
664.09	627.92
664.43	623.45
664.77	619.32
665.11	615.06
665.45	610.90
665.79	606.81
666.13	602.66
666.47	598.57
666.81	594.41
667.15	590.26
667.49	586.31
667.83	582.52
668.17	578.63
668.51	574.57
668.85	570.63
669.19	566.75
669.53	562.87
669.87	558.95
670.21	555.32
670.55	551.70
670.89	548.20
671.23	544.74
671.57	541.22
671.91	537.65
672.25	534.13
672.58	530.62
672.92	527.19
673.26	523.97
673.60	520.80
673.94	517.60
674.28	514.71
674.62	511.75
674.96	508.65
675.30	505.63
675.64	502.74
675.97	499.93
676.31	497.04
676.65	494.05
676.99	491.34
677.33	488.41
677.67	485.58
678.01	482.51
678.34	479.57
678.68	476.72
679.02	473.87
679.36	471.16
679.70	468.49
680.04	465.74
680.37	462.88
680.71	460.08
681.05	457.51
681.39	454.80
681.73	452.13
682.06	449.57
682.40	447.12
682.74	444.56
683.08	442.05
683.42	439.49
683.75	437.02
684.09	434.48
684.43	432.03
684.77	429.61
685.10	427.31
685.44	425.00
685.78	422.73
686.12	420.49
686.45	418.21
686.79	415.87
687.13	413.68
687.46	411.53
687.80	409.38
688.14	407.14
688.48	405.09
688.81	402.86
689.15	400.72
689.49	398.51
689.82	396.45
690.16	394.35
690.50	392.39
690.83	390.48
691.17	388.50
691.51	386.65
691.84	384.76
692.18	382.81
692.52	380.85
692.85	378.90
693.19	377.07
693.52	375.20
693.86	373.43
694.20	371.67
694.53	369.88
694.87	368.02
695.21	366.30
695.54	364.50
695.88	362.79
696.21	361.10
696.55	359.47
696.88	357.76
697.22	356.15
697.56	354.53
697.89	352.90
698.23	351.31
698.56	349.68
698.90	348.09
699.23	346.51
699.57	344.93
699.90	343.38
700.24	341.81
700.58	340.31
700.91	338.79
701.25	337.32
701.58	335.95
701.92	334.62
702.25	333.20
702.59	331.81
702.92	330.49
703.26	329.17
703.59	327.87
703.93	326.69
704.26	325.40
704.60	324.09
704.93	322.80
705.26	321.51
705.60	320.31
705.93	319.17
706.27	318.10
706.60	317.11
706.94	316.02
707.27	314.89
707.61	313.83
707.94	312.82
708.27	311.74
708.61	310.69
708.94	309.67
709.28	308.71
709.61	307.76
709.94	306.82
710.28	305.79
710.61	304.81
710.95	303.77
711.28	302.85
711.61	301.90
711.95	301.01
712.28	300.07
712.61	299.07
712.95	298.12
713.28	297.25
713.61	296.30
713.95	295.39
714.28	294.56
714.61	293.67
714.95	292.82
715.28	291.96
715.61	291.05
715.95	290.16
716.28	289.30
716.61	288.47
716.95	287.63
717.28	286.89
717.61	286.12
717.94	285.38
718.28	284.57
718.61	283.86
718.94	283.13
719.27	282.49
719.61	281.86
719.94	281.22
720.27	280.45
720.60	279.79
720.94	279.19
721.27	278.62
721.60	278.02
721.93	277.41
722.27	276.88
722.60	276.33
722.93	275.80
723.26	275.26
723.59	274.67
723.93	274.09
724.26	273.50
724.59	272.91
724.92	272.36
725.25	271.86
725.59	271.31
725.92	270.78
726.25	270.25
726.58	269.76
726.91	269.29
727.24	268.84
727.57	268.38
727.91	267.87
728.24	267.37
728.57	266.84
728.90	266.40
729.23	265.88
729.56	265.42
729.89	264.94
730.22	264.42
730.55	263.98
730.89	263.53
731.22	263.11
731.55	262.70
731.88	262.28
732.21	261.84
732.54	261.39
732.87	260.99
733.20	260.59
733.53	260.19
733.86	259.76
734.19	259.36
734.52	258.97
734.85	258.69
735.18	258.28
735.51	257.96
735.84	257.57
736.17	257.26
736.50	256.87
736.83	256.63
737.16	256.30
737.49	255.96
737.82	255.65
738.15	255.34
738.48	255.00
738.81	254.66
739.14	254.39
739.47	254.10
739.80	253.80
740.13	253.49
740.46	253.14
740.79	252.83
741.12	252.55
741.45	252.22
741.78	251.85
742.11	251.57
742.44	251.25
742.77	250.98
743.10	250.63
743.43	250.33
743.75	249.97
744.08	249.82
744.41	249.51
744.74	249.23
745.07	248.95
745.40	248.72
745.73	248.53
746.06	248.21
746.39	247.94
746.71	247.66
747.04	247.39
747.37	247.16
747.70	246.92
748.03	246.67
748.36	246.49
748.68	246.28
749.01	246.05
749.34	245.82
749.67	245.58
750.00	245.42
750.33	245.27
750.65	245.03
750.98	244.72
751.31	244.53
751.64	244.34
751.97	244.17
752.29	243.94
752.62	243.64
752.95	243.43
753.28	243.22
753.60	242.98
753.93	242.82
754.26	242.60
754.59	242.37
754.91	242.13
755.24	241.92
755.57	241.71
755.90	241.50
756.22	241.34
756.55	241.12
756.88	240.89
757.20	240.68
757.53	240.46
757.86	240.28
758.19	240.09
758.51	239.94
758.84	239.73
759.17	239.60
759.49	239.46
759.82	239.38
760.15	239.23
760.47	239.10
760.80	238.92
761.13	238.83
761.45	238.69
761.78	238.58
762.11	238.43
762.43	238.28
762.76	238.12
763.08	237.97
763.41	237.89
763.74	237.76
764.06	237.57
764.39	237.46
764.71	237.31
765.04	237.20
765.37	237.05
765.69	236.90
766.02	236.73
766.34	236.60
766.67	236.46
767.00	236.37
767.32	236.31
767.65	236.24
767.97	236.12
768.30	235.96
768.62	235.83
768.95	235.66
769.27	235.53
769.60	235.45
769.92	235.31
770.25	235.17
770.57	235.05
770.90	234.96
771.22	234.83
771.55	234.75
771.87	234.63
772.20	234.53
772.52	234.52
772.85	234.54
773.17	234.46
773.50	234.33
773.82	234.22
774.15	234.08
774.47	233.95
774.80	233.84
775.12	233.81
775.45	233.71
775.77	233.66
776.09	233.61
776.42	233.53
776.74	233.47
777.07	233.37
777.39	233.32
777.72	233.24
778.04	233.22
778.36	233.13
778.69	233.10
779.01	233.04
779.33	232.91
779.66	232.73
779.98	232.65
780.31	232.61
780.63	232.57
780.95	232.53
781.28	232.46
781.60	232.38
781.92	232.30
782.25	232.29
782.57	232.21
782.89	232.16
783.22	232.08
783.54	232.03
783.86	232.00
784.19	231.92
784.51	231.92
784.83	231.84
785.16	231.79
785.48	231.76
785.80	231.69
786.12	231.61
786.45	231.59
786.77	231.53
787.09	231.46
