SpectraSuite Data File
++++++++++++++++++++++++++++++++++++
Date: Fri Feb 01 15:33:05 EST 2013
User: group
Dark Spectrum Present: No
Reference Spectrum Present: No
Number of Sampled Component Spectra: 1
Spectrometers: USB2E7196
Integration Time (usec): 35000 (USB2E7196)
Spectra Averaged: 100 (USB2E7196)
Boxcar Smoothing: 10 (USB2E7196)
Correct for Electrical Dark: No (USB2E7196)
Strobe/Lamp Enabled: No (USB2E7196)
Correct for Detector Non-linearity: No (USB2E7196)
Correct for Stray Light: No (USB2E7196)
Number of Pixels in Processed Spectrum: 2048
>>>>>Begin Processed Spectral Data<<<<<
339.09	0.00
339.48	215.06
339.86	216.16
340.24	217.42
340.63	219.58
341.01	222.15
341.39	221.66
341.78	222.83
342.16	224.31
342.54	224.72
342.93	213.28
343.31	224.05
343.69	224.59
344.07	225.06
344.46	225.49
344.84	225.85
345.22	226.06
345.60	226.32
345.99	226.53
346.37	226.66
346.75	226.75
347.13	226.79
347.52	226.85
347.90	226.91
348.28	226.92
348.66	226.92
349.05	226.91
349.43	226.94
349.81	227.01
350.19	227.02
350.57	227.07
350.96	227.13
351.34	227.23
351.72	227.30
352.10	227.42
352.48	227.52
352.87	227.58
353.25	227.66
353.63	227.73
354.01	227.78
354.39	227.84
354.77	227.94
355.15	228.06
355.54	228.14
355.92	228.20
356.30	228.26
356.68	228.40
357.06	228.50
357.44	228.57
357.82	228.61
358.20	228.67
358.58	228.74
358.97	228.81
359.35	228.90
359.73	229.00
360.11	229.04
360.49	229.07
360.87	229.10
361.25	229.15
361.63	229.25
362.01	229.33
362.39	229.36
362.77	229.38
363.15	229.39
363.53	229.40
363.91	229.41
364.29	229.47
364.67	229.42
365.05	229.43
365.43	229.45
365.81	229.48
366.19	229.55
366.57	229.56
366.95	229.54
367.33	229.51
367.71	229.44
368.09	229.46
368.47	229.45
368.85	229.44
369.23	229.43
369.61	229.34
369.99	229.30
370.37	229.30
370.75	229.34
371.13	229.31
371.51	229.26
371.89	229.22
372.27	229.16
372.65	229.11
373.03	229.07
373.41	229.01
373.78	228.98
374.16	228.84
374.54	228.77
374.92	228.70
375.30	228.62
375.68	228.57
376.06	228.50
376.44	228.41
376.82	228.34
377.19	228.28
377.57	228.22
377.95	228.19
378.33	228.11
378.71	227.93
379.09	227.83
379.47	227.78
379.84	227.73
380.22	227.66
380.60	227.56
380.98	227.49
381.36	227.43
381.73	227.31
382.11	227.31
382.49	227.24
382.87	227.14
383.25	227.07
383.62	227.12
384.00	227.01
384.38	226.96
384.76	226.94
385.13	226.90
385.51	226.86
385.89	226.77
386.27	226.73
386.64	226.73
387.02	226.73
387.40	226.66
387.78	226.61
388.15	226.56
388.53	226.52
388.91	226.45
389.29	226.41
389.66	226.43
390.04	226.38
390.42	226.36
390.79	226.37
391.17	226.37
391.55	226.28
391.92	226.29
392.30	226.29
392.68	226.29
393.05	226.29
393.43	226.30
393.81	226.30
394.18	226.29
394.56	226.30
394.94	226.31
395.31	226.33
395.69	226.40
396.06	226.46
396.44	226.53
396.82	226.60
397.19	226.67
397.57	226.69
397.95	226.74
398.32	226.80
398.70	226.87
399.07	226.95
399.45	226.99
399.82	227.09
400.20	227.18
400.58	227.24
400.95	227.27
401.33	227.36
401.70	227.55
402.08	227.67
402.45	227.78
402.83	227.91
403.20	228.04
403.58	228.13
403.95	228.25
404.33	228.38
404.71	228.49
405.08	228.70
405.46	228.84
405.83	228.99
406.21	229.14
406.58	229.31
406.96	229.48
407.33	229.70
407.70	229.89
408.08	230.16
408.45	230.38
408.83	230.67
409.20	230.87
409.58	231.01
409.95	231.23
410.33	231.48
410.70	231.72
411.08	232.01
411.45	232.31
411.82	232.60
412.20	232.92
412.57	233.37
412.95	233.65
413.32	234.06
413.69	234.45
414.07	234.91
414.44	235.35
414.82	235.81
415.19	236.34
415.56	236.85
415.94	237.38
416.31	238.04
416.68	238.62
417.06	239.34
417.43	240.04
417.81	240.85
418.18	241.68
418.55	242.54
418.93	243.45
419.30	244.35
419.67	245.32
420.04	246.29
420.42	247.27
420.79	248.48
421.16	249.62
421.54	250.84
421.91	252.06
422.28	253.35
422.66	254.72
423.03	256.00
423.40	257.37
423.77	258.79
424.15	260.18
424.52	261.69
424.89	263.31
425.26	264.85
425.64	266.26
426.01	267.81
426.38	269.44
426.75	271.09
427.13	272.78
427.50	274.55
427.87	276.39
428.24	278.26
428.61	279.96
428.99	281.91
429.36	284.00
429.73	286.01
430.10	288.03
430.47	290.10
430.85	292.25
431.22	294.48
431.59	296.86
431.96	299.14
432.33	301.63
432.70	304.00
433.08	306.82
433.45	309.46
433.82	312.05
434.19	314.95
434.56	317.75
434.93	320.47
435.30	323.11
435.68	326.06
436.05	328.89
436.42	331.66
436.79	334.19
437.16	336.91
437.53	339.74
437.90	342.56
438.27	345.30
438.64	348.14
439.01	350.77
439.38	352.99
439.75	355.17
440.13	357.70
440.50	360.07
440.87	361.92
441.24	363.87
441.61	366.10
441.98	367.60
442.35	369.43
442.72	371.25
443.09	373.03
443.46	373.97
443.83	374.54
444.20	375.10
444.57	375.96
444.94	376.20
445.31	376.60
445.68	376.92
446.05	376.97
446.42	376.55
446.79	376.10
447.16	375.65
447.53	375.31
447.90	374.13
448.27	372.91
448.64	371.31
449.01	370.17
449.37	368.13
449.74	366.20
450.11	363.95
450.48	361.51
450.85	358.99
451.22	356.84
451.59	354.86
451.96	352.90
452.33	350.25
452.70	347.94
453.07	345.12
453.43	342.20
453.80	339.41
454.17	336.76
454.54	334.21
454.91	331.47
455.28	328.72
455.65	326.19
456.02	323.75
456.38	321.62
456.75	318.95
457.12	316.70
457.49	314.50
457.86	312.28
458.23	310.39
458.59	308.40
458.96	306.36
459.33	304.49
459.70	302.59
460.07	301.11
460.43	299.35
460.80	297.74
461.17	296.33
461.54	294.81
461.91	293.36
462.27	291.94
462.64	290.69
463.01	289.37
463.38	288.08
463.74	286.69
464.11	285.49
464.48	284.47
464.85	283.34
465.21	282.46
465.58	281.54
465.95	280.46
466.32	279.50
466.68	278.58
467.05	277.67
467.42	276.81
467.78	275.85
468.15	274.99
468.52	274.28
468.88	273.42
469.25	272.68
469.62	272.05
469.98	271.34
470.35	270.72
470.72	270.14
471.08	269.49
471.45	268.96
471.82	268.46
472.18	267.87
472.55	267.46
472.92	266.90
473.28	266.43
473.65	265.95
474.02	265.50
474.38	265.12
474.75	264.79
475.11	264.40
475.48	264.16
475.85	263.90
476.21	263.65
476.58	263.44
476.94	263.29
477.31	263.10
477.67	262.97
478.04	262.86
478.41	262.79
478.77	262.83
479.14	262.81
479.50	262.80
479.87	262.87
480.23	262.95
480.60	263.07
480.96	263.17
481.33	263.38
481.69	263.62
482.06	263.81
482.42	264.02
482.79	264.29
483.15	264.59
483.52	265.01
483.88	265.38
484.25	265.78
484.61	266.20
484.98	266.67
485.34	267.23
485.71	267.84
486.07	268.48
486.44	269.05
486.80	269.71
487.17	270.44
487.53	271.26
487.90	272.12
488.26	273.07
488.62	274.07
488.99	275.03
489.35	276.06
489.72	277.19
490.08	278.43
490.44	279.70
490.81	281.04
491.17	282.40
491.54	283.91
491.90	285.49
492.26	287.11
492.63	288.83
492.99	290.58
493.36	292.46
493.72	294.47
494.08	296.57
494.45	298.85
494.81	301.22
495.17	303.63
495.54	306.25
495.90	308.89
496.26	311.66
496.63	314.64
496.99	317.76
497.35	321.00
497.72	324.37
498.08	327.85
498.44	331.55
498.80	335.43
499.17	339.45
499.53	343.58
499.89	347.94
500.26	352.47
500.62	357.13
500.98	362.05
501.34	367.13
501.71	372.46
502.07	377.93
502.43	383.52
502.79	389.33
503.16	395.35
503.52	401.58
503.88	408.06
504.24	414.69
504.60	421.53
504.97	428.69
505.33	435.96
505.69	443.64
506.05	451.37
506.41	459.29
506.78	467.45
507.14	475.90
507.50	484.71
507.86	493.76
508.22	502.94
508.59	512.18
508.95	521.78
509.31	531.60
509.67	541.71
510.03	552.02
510.39	562.56
510.75	573.33
511.12	584.35
511.48	595.63
511.84	607.14
512.20	618.71
512.56	630.64
512.92	642.92
513.28	655.34
513.64	667.88
514.00	680.56
514.37	693.51
514.73	706.56
515.09	719.56
515.45	732.77
515.81	746.40
516.17	760.37
516.53	774.47
516.89	788.68
517.25	802.87
517.61	817.29
517.97	831.75
518.33	846.16
518.69	860.93
519.05	875.93
519.41	891.11
519.77	906.74
520.13	922.12
520.49	937.50
520.85	952.93
521.21	968.72
521.57	985.03
521.93	1000.83
522.29	1017.22
522.65	1033.40
523.01	1049.69
523.37	1065.82
523.73	1082.14
524.09	1098.35
524.45	1114.69
524.81	1131.39
525.17	1148.18
525.53	1165.17
525.89	1182.17
526.25	1199.05
526.61	1215.56
526.97	1232.22
527.33	1248.68
527.68	1265.45
528.04	1281.99
528.40	1298.70
528.76	1315.66
529.12	1332.23
529.48	1349.14
529.84	1365.33
530.20	1382.07
530.56	1399.10
530.91	1416.59
531.27	1433.26
531.63	1449.76
531.99	1466.37
532.35	1482.27
532.71	1498.30
533.07	1514.48
533.42	1530.30
533.78	1546.44
534.14	1562.59
534.50	1578.10
534.86	1593.99
535.21	1609.17
535.57	1625.17
535.93	1640.60
536.29	1655.55
536.65	1670.67
537.00	1685.51
537.36	1700.88
537.72	1715.51
538.08	1730.04
538.44	1743.93
538.79	1757.89
539.15	1771.65
539.51	1785.58
539.87	1799.94
540.22	1813.76
540.58	1827.73
540.94	1841.20
541.29	1854.10
541.65	1866.96
542.01	1880.24
542.37	1892.67
542.72	1905.31
543.08	1917.14
543.44	1929.68
543.79	1940.95
544.15	1951.99
544.51	1963.62
544.87	1974.55
545.22	1985.36
545.58	1995.56
545.94	2005.23
546.29	2015.19
546.65	2024.94
547.01	2034.05
547.36	2042.98
547.72	2051.39
548.07	2059.20
548.43	2067.35
548.79	2075.39
549.14	2082.87
549.50	2090.30
549.86	2097.92
550.21	2105.11
550.57	2112.28
550.92	2118.75
551.28	2125.83
551.64	2132.90
551.99	2139.53
552.35	2145.74
552.70	2151.90
553.06	2157.82
553.41	2164.14
553.77	2170.12
554.13	2176.29
554.48	2182.55
554.84	2187.93
555.19	2193.24
555.55	2198.47
555.90	2202.98
556.26	2207.81
556.61	2212.56
556.97	2216.68
557.32	2220.73
557.68	2224.96
558.03	2229.25
558.39	2232.91
558.74	2237.56
559.10	2241.33
559.45	2244.93
559.81	2249.21
560.16	2253.07
560.52	2256.40
560.87	2259.89
561.23	2262.61
561.58	2265.53
561.94	2268.00
562.29	2270.33
562.64	2273.00
563.00	2275.62
563.35	2279.25
563.71	2282.40
564.06	2285.50
564.42	2288.33
564.77	2290.85
565.12	2292.99
565.48	2294.88
565.83	2296.89
566.19	2298.06
566.54	2299.03
566.89	2300.15
567.25	2300.64
567.60	2301.95
567.96	2303.61
568.31	2304.39
568.66	2305.34
569.02	2305.83
569.37	2306.18
569.72	2306.92
570.08	2307.13
570.43	2307.09
570.78	2306.32
571.14	2304.85
571.49	2303.62
571.84	2303.12
572.20	2301.94
572.55	2300.70
572.90	2298.99
573.26	2297.53
573.61	2295.83
573.96	2294.01
574.31	2290.97
574.67	2288.01
575.02	2284.30
575.37	2280.82
575.72	2277.02
576.08	2273.71
576.43	2270.35
576.78	2266.54
577.13	2263.49
577.49	2260.35
577.84	2256.74
578.19	2253.11
578.54	2249.36
578.90	2244.99
579.25	2239.52
579.60	2234.59
579.95	2229.69
580.30	2224.82
580.66	2219.57
581.01	2214.58
581.36	2209.74
581.71	2205.30
582.06	2200.80
582.42	2196.31
582.77	2191.11
583.12	2186.36
583.47	2181.52
583.82	2176.39
584.17	2171.01
584.53	2165.40
584.88	2159.52
585.23	2153.64
585.58	2147.98
585.93	2142.45
586.28	2137.79
586.63	2132.67
586.98	2127.50
587.34	2122.74
587.69	2117.72
588.04	2112.30
588.39	2106.58
588.74	2100.02
589.09	2094.04
589.44	2087.08
589.79	2081.00
590.14	2075.25
590.49	2068.75
590.84	2062.30
591.19	2056.31
591.54	2049.84
591.89	2042.29
592.25	2035.49
592.60	2028.28
592.95	2020.58
593.30	2013.14
593.65	2005.43
594.00	1998.41
594.35	1991.09
594.70	1983.05
595.05	1975.67
595.40	1968.51
595.75	1961.00
596.10	1954.69
596.45	1947.83
596.80	1941.70
597.15	1934.90
597.50	1927.63
597.85	1921.12
598.19	1914.47
598.54	1907.38
598.89	1900.76
599.24	1894.82
599.59	1888.15
599.94	1881.91
600.29	1875.75
600.64	1869.20
600.99	1861.76
601.34	1854.82
601.69	1847.93
602.04	1840.97
602.39	1833.67
602.74	1826.75
603.08	1820.01
603.43	1813.32
603.78	1806.01
604.13	1798.86
604.48	1791.65
604.83	1784.81
605.18	1777.70
605.53	1769.73
605.87	1761.66
606.22	1754.41
606.57	1746.50
606.92	1739.10
607.27	1731.88
607.62	1724.80
607.96	1717.44
608.31	1710.74
608.66	1703.09
609.01	1695.41
609.36	1687.87
609.70	1679.77
610.05	1671.64
610.40	1663.94
610.75	1655.41
611.10	1647.68
611.44	1639.09
611.79	1631.06
612.14	1622.40
612.49	1613.27
612.83	1604.84
613.18	1596.69
613.53	1588.49
613.88	1579.92
614.22	1571.63
614.57	1563.12
614.92	1555.06
615.27	1547.55
615.61	1539.16
615.96	1531.22
616.31	1523.66
616.65	1516.21
617.00	1508.62
617.35	1500.92
617.70	1492.44
618.04	1483.99
618.39	1475.73
618.74	1468.13
619.08	1459.78
619.43	1452.31
619.78	1445.37
620.12	1438.11
620.47	1430.58
620.82	1422.44
621.16	1415.22
621.51	1407.69
621.85	1400.02
622.20	1391.48
622.55	1383.09
622.89	1375.24
623.24	1367.54
623.59	1360.16
623.93	1352.61
624.28	1345.46
624.62	1337.98
624.97	1330.78
625.32	1324.08
625.66	1317.10
626.01	1309.93
626.35	1302.44
626.70	1294.64
627.04	1287.00
627.39	1279.27
627.73	1271.79
628.08	1264.89
628.43	1257.43
628.77	1250.03
629.12	1242.41
629.46	1235.27
629.81	1227.82
630.15	1220.60
630.50	1213.23
630.84	1205.04
631.19	1197.16
631.53	1189.65
631.88	1182.02
632.22	1174.51
632.57	1167.10
632.91	1159.47
633.26	1152.06
633.60	1144.76
633.95	1137.60
634.29	1130.48
634.64	1123.86
634.98	1116.56
635.32	1109.37
635.67	1102.83
636.01	1096.25
636.36	1089.49
636.70	1082.93
637.05	1076.45
637.39	1070.00
637.73	1063.44
638.08	1057.50
638.42	1051.57
638.77	1045.08
639.11	1038.51
639.45	1032.10
639.80	1025.46
640.14	1019.16
640.49	1012.64
640.83	1006.41
641.17	1000.24
641.52	993.86
641.86	987.39
642.20	981.59
642.55	975.34
642.89	968.80
643.23	962.13
643.58	956.39
643.92	950.19
644.26	944.06
644.61	938.02
644.95	931.99
645.29	925.47
645.64	918.71
645.98	912.45
646.32	906.70
646.66	900.70
647.01	894.98
647.35	889.27
647.69	883.42
648.04	877.81
648.38	871.97
648.72	866.08
649.06	860.03
649.41	854.08
649.75	848.03
650.09	842.13
650.43	836.35
650.78	830.09
651.12	824.23
651.46	818.44
651.80	812.75
652.14	807.40
652.49	802.05
652.83	796.82
653.17	791.06
653.51	785.25
653.85	779.90
654.20	774.16
654.54	768.05
654.88	762.38
655.22	756.45
655.56	750.78
655.90	745.28
656.25	739.99
656.59	734.64
656.93	729.65
657.27	724.46
657.61	719.03
657.95	714.00
658.29	708.87
658.64	703.65
658.98	698.28
659.32	692.76
659.66	687.45
660.00	682.12
660.34	677.17
660.68	672.29
661.02	667.22
661.36	662.61
661.70	658.13
662.05	653.71
662.39	649.45
662.73	644.98
663.07	640.63
663.41	636.17
663.75	631.72
664.09	627.12
664.43	622.73
664.77	618.66
665.11	614.41
665.45	610.28
665.79	606.26
666.13	602.18
666.47	598.06
666.81	593.94
667.15	589.87
667.49	586.03
667.83	582.24
668.17	578.27
668.51	574.19
668.85	570.19
669.19	566.40
669.53	562.51
669.87	558.65
670.21	554.96
670.55	551.38
670.89	547.95
671.23	544.49
671.57	541.00
671.91	537.39
672.25	533.92
672.58	530.38
672.92	526.92
673.26	523.73
673.60	520.66
673.94	517.52
674.28	514.58
674.62	511.56
674.96	508.43
675.30	505.53
675.64	502.54
675.97	499.71
676.31	496.80
676.65	493.85
676.99	491.13
677.33	488.28
677.67	485.46
678.01	482.40
678.34	479.45
678.68	476.55
679.02	473.77
679.36	470.94
679.70	468.25
680.04	465.48
680.37	462.60
680.71	459.82
681.05	457.23
681.39	454.54
681.73	451.89
682.06	449.35
682.40	446.81
682.74	444.35
683.08	441.87
683.42	439.29
683.75	436.83
684.09	434.31
684.43	431.86
684.77	429.40
685.10	427.05
685.44	424.74
685.78	422.49
686.12	420.26
686.45	418.03
686.79	415.75
687.13	413.60
687.46	411.47
687.80	409.32
688.14	407.11
688.48	405.08
688.81	402.90
689.15	400.80
689.49	398.66
689.82	396.57
690.16	394.49
690.50	392.56
690.83	390.65
691.17	388.67
691.51	386.76
691.84	384.91
692.18	382.97
692.52	381.03
692.85	379.08
693.19	377.22
693.52	375.39
693.86	373.57
694.20	371.84
694.53	370.04
694.87	368.19
695.21	366.42
695.54	364.52
695.88	362.77
696.21	361.03
696.55	359.33
696.88	357.66
697.22	356.01
697.56	354.37
697.89	352.69
698.23	351.09
698.56	349.48
698.90	347.90
699.23	346.28
699.57	344.70
699.90	343.19
700.24	341.63
700.58	340.08
700.91	338.56
701.25	337.10
701.58	335.76
701.92	334.43
702.25	333.03
702.59	331.72
702.92	330.38
703.26	329.10
703.59	327.86
703.93	326.65
704.26	325.42
704.60	324.13
704.93	322.88
705.26	321.63
705.60	320.46
705.93	319.31
706.27	318.28
706.60	317.25
706.94	316.18
707.27	315.06
707.61	314.03
707.94	313.07
708.27	311.96
708.61	310.85
708.94	309.80
709.28	308.84
709.61	307.87
709.94	306.93
710.28	305.88
710.61	304.90
710.95	303.83
711.28	302.90
711.61	301.95
711.95	301.04
712.28	300.08
712.61	299.06
712.95	298.10
713.28	297.17
713.61	296.23
713.95	295.34
714.28	294.49
714.61	293.60
714.95	292.75
715.28	291.85
715.61	290.98
715.95	290.13
716.28	289.28
716.61	288.45
716.95	287.67
717.28	286.91
717.61	286.13
717.94	285.45
718.28	284.65
718.61	283.95
718.94	283.24
719.27	282.60
719.61	281.98
719.94	281.34
720.27	280.60
720.60	279.99
720.94	279.36
721.27	278.77
721.60	278.20
721.93	277.61
722.27	277.08
722.60	276.53
722.93	275.98
723.26	275.42
723.59	274.88
723.93	274.33
724.26	273.79
724.59	273.24
724.92	272.69
725.25	272.18
725.59	271.62
725.92	271.10
726.25	270.59
726.58	270.10
726.91	269.62
727.24	269.19
727.57	268.72
727.91	268.17
728.24	267.72
728.57	267.24
728.90	266.76
729.23	266.26
729.56	265.83
729.89	265.36
730.22	264.87
730.55	264.43
730.89	263.96
731.22	263.53
731.55	263.06
731.88	262.62
732.21	262.16
732.54	261.76
732.87	261.33
733.20	260.93
733.53	260.54
733.86	260.16
734.19	259.77
734.52	259.37
734.85	259.07
735.18	258.67
735.51	258.27
735.84	257.90
736.17	257.58
736.50	257.16
736.83	256.93
737.16	256.63
737.49	256.28
737.82	255.92
738.15	255.55
738.48	255.26
738.81	254.91
739.14	254.62
739.47	254.31
739.80	254.03
740.13	253.75
740.46	253.41
740.79	253.08
741.12	252.78
741.45	252.46
741.78	252.13
742.11	251.81
742.44	251.51
742.77	251.25
743.10	250.94
743.43	250.65
743.75	250.25
744.08	250.08
744.41	249.82
744.74	249.58
745.07	249.32
745.40	249.11
745.73	248.91
746.06	248.64
746.39	248.39
746.71	248.11
747.04	247.80
747.37	247.54
747.70	247.29
748.03	247.05
748.36	246.85
748.68	246.59
749.01	246.37
749.34	246.13
749.67	245.88
750.00	245.67
750.33	245.52
750.65	245.34
750.98	244.99
751.31	244.74
751.64	244.52
751.97	244.35
752.29	244.13
752.62	243.85
752.95	243.64
753.28	243.40
753.60	243.22
753.93	243.06
754.26	242.87
754.59	242.65
754.91	242.44
755.24	242.21
755.57	242.05
755.90	241.88
756.22	241.73
756.55	241.51
756.88	241.34
757.20	241.09
757.53	240.85
757.86	240.69
758.19	240.57
758.51	240.42
758.84	240.24
759.17	240.04
759.49	239.92
759.82	239.83
760.15	239.71
760.47	239.54
760.80	239.37
761.13	239.25
761.45	239.11
761.78	238.94
762.11	238.80
762.43	238.63
762.76	238.46
763.08	238.34
763.41	238.21
763.74	238.03
764.06	237.92
764.39	237.76
764.71	237.65
765.04	237.47
765.37	237.30
765.69	237.15
766.02	237.04
766.34	236.86
766.67	236.68
767.00	236.58
767.32	236.52
767.65	236.47
767.97	236.33
768.30	236.20
768.62	236.13
768.95	236.02
769.27	235.91
769.60	235.79
769.92	235.66
770.25	235.52
770.57	235.41
770.90	235.29
771.22	235.22
771.55	235.10
771.87	235.01
772.20	234.94
772.52	234.92
772.85	234.93
773.17	234.87
773.50	234.78
773.82	234.65
774.15	234.52
774.47	234.34
774.80	234.25
775.12	234.15
775.45	234.04
775.77	233.95
776.09	233.87
776.42	233.83
776.74	233.79
777.07	233.70
777.39	233.64
777.72	233.56
778.04	233.52
778.36	233.44
778.69	233.41
779.01	233.31
779.33	233.18
779.66	232.99
779.98	232.91
780.31	232.86
780.63	232.86
780.95	232.79
781.28	232.73
781.60	232.68
781.92	232.65
782.25	232.60
782.57	232.56
782.89	232.54
783.22	232.45
783.54	232.36
783.86	232.37
784.19	232.30
784.51	232.26
784.83	232.17
785.16	232.10
785.48	232.01
785.80	231.98
786.12	231.92
786.45	231.87
786.77	231.86
787.09	231.82
