SpectraSuite Data File
++++++++++++++++++++++++++++++++++++
Date: Fri Feb 01 17:16:26 EST 2013
User: group
Dark Spectrum Present: No
Reference Spectrum Present: No
Number of Sampled Component Spectra: 1
Spectrometers: USB2E7196
Integration Time (usec): 35000 (USB2E7196)
Spectra Averaged: 100 (USB2E7196)
Boxcar Smoothing: 10 (USB2E7196)
Correct for Electrical Dark: No (USB2E7196)
Strobe/Lamp Enabled: No (USB2E7196)
Correct for Detector Non-linearity: No (USB2E7196)
Correct for Stray Light: No (USB2E7196)
Number of Pixels in Processed Spectrum: 2048
>>>>>Begin Processed Spectral Data<<<<<
339.09	0.00
339.48	212.97
339.86	214.88
340.24	216.37
340.63	217.70
341.01	219.99
341.39	220.05
341.78	220.88
342.16	222.27
342.54	223.40
342.93	211.57
343.31	222.28
343.69	222.80
344.07	223.24
344.46	223.67
344.84	224.04
345.22	224.30
345.60	224.53
345.99	224.73
346.37	224.88
346.75	224.96
347.13	225.05
347.52	225.12
347.90	225.21
348.28	225.25
348.66	225.31
349.05	225.27
349.43	225.29
349.81	225.32
350.19	225.37
350.57	225.43
350.96	225.51
351.34	225.62
351.72	225.76
352.10	225.84
352.48	225.86
352.87	225.92
353.25	225.98
353.63	226.05
354.01	226.13
354.39	226.22
354.77	226.32
355.15	226.40
355.54	226.49
355.92	226.51
356.30	226.57
356.68	226.69
357.06	226.82
357.44	226.86
357.82	226.94
358.20	227.02
358.58	227.05
358.97	227.09
359.35	227.13
359.73	227.17
360.11	227.27
360.49	227.32
360.87	227.37
361.25	227.42
361.63	227.52
362.01	227.59
362.39	227.60
362.77	227.65
363.15	227.71
363.53	227.72
363.91	227.77
364.29	227.81
364.67	227.74
365.05	227.75
365.43	227.79
365.81	227.78
366.19	227.82
366.57	227.86
366.95	227.86
367.33	227.82
367.71	227.81
368.09	227.81
368.47	227.82
368.85	227.77
369.23	227.77
369.61	227.71
369.99	227.66
370.37	227.64
370.75	227.63
371.13	227.56
371.51	227.50
371.89	227.44
372.27	227.38
372.65	227.34
373.03	227.28
373.41	227.20
373.78	227.15
374.16	227.04
374.54	226.95
374.92	226.88
375.30	226.84
375.68	226.77
376.06	226.70
376.44	226.65
376.82	226.59
377.19	226.47
377.57	226.41
377.95	226.33
378.33	226.27
378.71	226.16
379.09	226.11
379.47	226.06
379.84	226.00
380.22	225.94
380.60	225.84
380.98	225.78
381.36	225.75
381.73	225.65
382.11	225.63
382.49	225.60
382.87	225.55
383.25	225.51
383.62	225.55
384.00	225.48
384.38	225.38
384.76	225.37
385.13	225.38
385.51	225.32
385.89	225.28
386.27	225.23
386.64	225.19
387.02	225.11
387.40	225.06
387.78	225.00
388.15	224.97
388.53	224.93
388.91	224.89
389.29	224.85
389.66	224.84
390.04	224.77
390.42	224.75
390.79	224.70
391.17	224.66
391.55	224.54
391.92	224.54
392.30	224.57
392.68	224.53
393.05	224.50
393.43	224.52
393.81	224.51
394.18	224.50
394.56	224.52
394.94	224.57
395.31	224.55
395.69	224.62
396.06	224.65
396.44	224.68
396.82	224.72
397.19	224.80
397.57	224.82
397.95	224.89
398.32	224.90
398.70	224.95
399.07	225.01
399.45	225.08
399.82	225.10
400.20	225.15
400.58	225.21
400.95	225.24
401.33	225.30
401.70	225.44
402.08	225.52
402.45	225.58
402.83	225.70
403.20	225.82
403.58	225.90
403.95	226.03
404.33	226.16
404.71	226.25
405.08	226.40
405.46	226.52
405.83	226.66
406.21	226.77
406.58	226.94
406.96	227.09
407.33	227.25
407.70	227.45
408.08	227.72
408.45	227.94
408.83	228.18
409.20	228.42
409.58	228.62
409.95	228.87
410.33	229.16
410.70	229.40
411.08	229.69
411.45	229.99
411.82	230.26
412.20	230.59
412.57	231.03
412.95	231.37
413.32	231.77
413.69	232.17
414.07	232.68
414.44	233.15
414.82	233.64
415.19	234.19
415.56	234.76
415.94	235.29
416.31	235.97
416.68	236.62
417.06	237.33
417.43	238.00
417.81	238.79
418.18	239.58
418.55	240.45
418.93	241.35
419.30	242.27
419.67	243.28
420.04	244.29
420.42	245.29
420.79	246.47
421.16	247.68
421.54	248.92
421.91	250.12
422.28	251.39
422.66	252.78
423.03	254.13
423.40	255.53
423.77	256.99
424.15	258.44
424.52	259.98
424.89	261.62
425.26	263.24
425.64	264.74
426.01	266.40
426.38	268.09
426.75	269.83
427.13	271.62
427.50	273.47
427.87	275.38
428.24	277.35
428.61	279.15
428.99	281.13
429.36	283.27
429.73	285.41
430.10	287.53
430.47	289.64
430.85	291.83
431.22	294.11
431.59	296.62
431.96	298.90
432.33	301.47
432.70	303.92
433.08	306.84
433.45	309.56
433.82	312.24
434.19	315.22
434.56	318.09
434.93	320.81
435.30	323.50
435.68	326.50
436.05	329.35
436.42	332.19
436.79	334.80
437.16	337.51
437.53	340.42
437.90	343.29
438.27	346.07
438.64	348.92
439.01	351.56
439.38	353.80
439.75	356.05
440.13	358.59
440.50	360.99
440.87	362.81
441.24	364.78
441.61	366.98
441.98	368.49
442.35	370.33
442.72	372.23
443.09	374.09
443.46	375.13
443.83	375.76
444.20	376.32
444.57	377.16
444.94	377.53
445.31	377.91
445.68	378.29
446.05	378.45
446.42	378.11
446.79	377.72
447.16	377.28
447.53	376.97
447.90	375.82
448.27	374.61
448.64	373.04
449.01	371.87
449.37	369.89
449.74	367.97
450.11	365.67
450.48	363.16
450.85	360.57
451.22	358.34
451.59	356.29
451.96	354.32
452.33	351.69
452.70	349.26
453.07	346.36
453.43	343.35
453.80	340.50
454.17	337.77
454.54	335.16
454.91	332.35
455.28	329.58
455.65	327.01
456.02	324.51
456.38	322.30
456.75	319.60
457.12	317.27
457.49	314.99
457.86	312.80
458.23	310.88
458.59	308.75
458.96	306.60
459.33	304.69
459.70	302.76
460.07	301.18
460.43	299.44
460.80	297.74
461.17	296.31
461.54	294.76
461.91	293.26
462.27	291.76
462.64	290.50
463.01	289.14
463.38	287.85
463.74	286.43
464.11	285.22
464.48	284.14
464.85	283.02
465.21	282.15
465.58	281.17
465.95	280.06
466.32	279.15
466.68	278.24
467.05	277.31
467.42	276.42
467.78	275.46
468.15	274.56
468.52	273.88
468.88	272.99
469.25	272.20
469.62	271.59
469.98	270.93
470.35	270.27
470.72	269.67
471.08	268.99
471.45	268.51
471.82	267.93
472.18	267.32
472.55	266.85
472.92	266.29
473.28	265.84
473.65	265.38
474.02	264.92
474.38	264.57
474.75	264.23
475.11	263.86
475.48	263.61
475.85	263.40
476.21	263.16
476.58	263.01
476.94	262.85
477.31	262.68
477.67	262.52
478.04	262.42
478.41	262.32
478.77	262.36
479.14	262.27
479.50	262.32
479.87	262.42
480.23	262.53
480.60	262.60
480.96	262.70
481.33	262.94
481.69	263.18
482.06	263.37
482.42	263.60
482.79	263.85
483.15	264.17
483.52	264.57
483.88	264.95
484.25	265.32
484.61	265.78
484.98	266.24
485.34	266.81
485.71	267.41
486.07	268.03
486.44	268.59
486.80	269.32
487.17	270.04
487.53	270.86
487.90	271.73
488.26	272.67
488.62	273.67
488.99	274.63
489.35	275.65
489.72	276.78
490.08	277.94
490.44	279.21
490.81	280.53
491.17	281.86
491.54	283.34
491.90	284.87
492.26	286.47
492.63	288.21
492.99	289.93
493.36	291.79
493.72	293.80
494.08	295.90
494.45	298.10
494.81	300.48
495.17	302.88
495.54	305.41
495.90	308.09
496.26	310.84
496.63	313.76
496.99	316.86
497.35	320.12
497.72	323.50
498.08	326.97
498.44	330.66
498.80	334.61
499.17	338.64
499.53	342.82
499.89	347.20
500.26	351.67
500.62	356.33
500.98	361.32
501.34	366.34
501.71	371.63
502.07	377.00
502.43	382.55
502.79	388.32
503.16	394.32
503.52	400.46
503.88	406.81
504.24	413.39
504.60	420.16
504.97	427.15
505.33	434.38
505.69	442.02
506.05	449.69
506.41	457.40
506.78	465.40
507.14	473.67
507.50	482.25
507.86	491.17
508.22	500.34
508.59	509.32
508.95	518.84
509.31	528.51
509.67	538.52
510.03	548.65
510.39	559.09
510.75	569.74
511.12	580.55
511.48	591.66
511.84	602.95
512.20	614.34
512.56	626.18
512.92	638.22
513.28	650.40
513.64	662.71
514.00	675.28
514.37	688.04
514.73	700.96
515.09	713.78
515.45	726.80
515.81	740.08
516.17	753.85
516.53	767.73
516.89	781.71
517.25	795.64
517.61	809.75
517.97	823.94
518.33	838.04
518.69	852.55
519.05	867.31
519.41	882.16
519.77	897.38
520.13	912.57
520.49	927.73
520.85	942.78
521.21	958.08
521.57	973.97
521.93	989.41
522.29	1005.38
522.65	1021.30
523.01	1037.16
523.37	1052.93
523.73	1068.80
524.09	1084.58
524.45	1100.51
524.81	1116.78
525.17	1133.23
525.53	1149.68
525.89	1166.32
526.25	1182.89
526.61	1198.91
526.97	1215.36
527.33	1231.59
527.68	1247.74
528.04	1263.73
528.40	1279.96
528.76	1296.73
529.12	1312.90
529.48	1329.46
529.84	1345.26
530.20	1361.59
530.56	1378.28
530.91	1395.33
531.27	1411.75
531.63	1427.86
531.99	1444.16
532.35	1459.89
532.71	1475.58
533.07	1491.61
533.42	1507.29
533.78	1523.05
534.14	1539.08
534.50	1554.18
534.86	1569.68
535.21	1584.68
535.57	1600.40
535.93	1615.58
536.29	1630.12
536.65	1645.01
537.00	1659.61
537.36	1674.68
537.72	1689.02
538.08	1703.26
538.44	1716.77
538.79	1730.64
539.15	1744.05
539.51	1757.60
539.87	1771.75
540.22	1785.17
540.58	1798.83
540.94	1811.82
541.29	1824.42
541.65	1836.93
542.01	1849.92
542.37	1862.26
542.72	1874.56
543.08	1886.31
543.44	1898.64
543.79	1909.92
544.15	1920.87
544.51	1932.33
544.87	1943.15
545.22	1954.03
545.58	1964.23
545.94	1974.16
546.29	1983.80
546.65	1993.77
547.01	2003.13
547.36	2012.01
547.72	2020.66
548.07	2028.57
548.43	2036.87
548.79	2044.82
549.14	2052.65
549.50	2059.97
549.86	2067.57
550.21	2074.93
550.57	2082.31
550.92	2089.23
551.28	2096.48
551.64	2103.70
551.99	2110.33
552.35	2116.80
552.70	2123.09
553.06	2129.25
553.41	2135.66
553.77	2141.91
554.13	2148.09
554.48	2154.25
554.84	2159.97
555.19	2165.31
555.55	2170.69
555.90	2175.43
556.26	2180.89
556.61	2185.64
556.97	2190.37
557.32	2194.87
557.68	2199.33
558.03	2203.74
558.39	2207.39
558.74	2212.15
559.10	2216.18
559.45	2220.15
559.81	2224.43
560.16	2228.40
560.52	2232.01
560.87	2235.55
561.23	2238.60
561.58	2241.72
561.94	2244.58
562.29	2246.98
562.64	2250.17
563.00	2252.96
563.35	2256.64
563.71	2260.00
564.06	2263.37
564.42	2266.62
564.77	2269.59
565.12	2272.32
565.48	2274.51
565.83	2276.93
566.19	2278.66
566.54	2279.81
566.89	2281.21
567.25	2282.37
567.60	2283.90
567.96	2285.89
568.31	2287.21
568.66	2288.68
569.02	2289.62
569.37	2290.31
569.72	2291.61
570.08	2292.17
570.43	2292.63
570.78	2292.71
571.14	2291.51
571.49	2290.51
571.84	2290.33
572.20	2289.36
572.55	2288.44
572.90	2287.10
573.26	2285.90
573.61	2284.39
573.96	2283.12
574.31	2280.56
574.67	2277.92
575.02	2274.63
575.37	2271.37
575.72	2267.95
576.08	2264.73
576.43	2261.65
576.78	2258.47
577.13	2255.44
577.49	2252.35
577.84	2249.21
578.19	2245.54
578.54	2242.12
578.90	2238.42
579.25	2233.21
579.60	2228.65
579.95	2224.10
580.30	2219.38
580.66	2214.60
581.01	2209.93
581.36	2205.15
581.71	2201.30
582.06	2197.09
582.42	2193.01
582.77	2188.23
583.12	2183.77
583.47	2179.48
583.82	2174.88
584.17	2169.73
584.53	2164.54
584.88	2159.05
585.23	2153.52
585.58	2148.21
585.93	2142.97
586.28	2138.18
586.63	2133.45
586.98	2128.49
587.34	2123.84
587.69	2119.14
588.04	2114.19
588.39	2108.74
588.74	2102.42
589.09	2096.36
589.44	2089.73
589.79	2083.57
590.14	2078.05
590.49	2071.70
590.84	2065.22
591.19	2059.38
591.54	2053.10
591.89	2046.06
592.25	2039.74
592.60	2032.61
592.95	2025.29
593.30	2018.05
593.65	2010.56
594.00	2003.50
594.35	1996.26
594.70	1988.17
595.05	1981.26
595.40	1973.98
595.75	1966.53
596.10	1960.68
596.45	1954.14
596.80	1948.14
597.15	1941.93
597.50	1935.09
597.85	1928.78
598.19	1922.42
598.54	1915.59
598.89	1909.00
599.24	1903.16
599.59	1896.75
599.94	1890.56
600.29	1884.28
600.64	1877.83
600.99	1870.67
601.34	1863.98
601.69	1857.14
602.04	1850.65
602.39	1843.33
602.74	1836.64
603.08	1830.00
603.43	1823.18
603.78	1815.92
604.13	1808.67
604.48	1801.50
604.83	1794.77
605.18	1788.00
605.53	1780.10
605.87	1772.02
606.22	1764.75
606.57	1756.69
606.92	1749.05
607.27	1742.12
607.62	1735.32
607.96	1728.19
608.31	1721.74
608.66	1714.24
609.01	1706.84
609.36	1699.31
609.70	1691.39
610.05	1683.32
610.40	1675.70
610.75	1667.42
611.10	1659.77
611.44	1651.19
611.79	1643.03
612.14	1634.20
612.49	1624.90
612.83	1616.27
613.18	1608.05
613.53	1599.97
613.88	1591.39
614.22	1583.20
614.57	1574.28
614.92	1566.10
615.27	1558.46
615.61	1550.01
615.96	1541.84
616.31	1533.97
616.65	1526.48
617.00	1518.81
617.35	1510.99
617.70	1502.70
618.04	1494.23
618.39	1485.82
618.74	1478.29
619.08	1469.90
619.43	1462.16
619.78	1455.19
620.12	1448.14
620.47	1440.57
620.82	1432.23
621.16	1424.73
621.51	1416.94
621.85	1409.24
622.20	1400.66
622.55	1392.21
622.89	1384.18
623.24	1376.40
623.59	1368.95
623.93	1361.24
624.28	1353.95
624.62	1346.47
624.97	1339.08
625.32	1332.07
625.66	1324.90
626.01	1317.76
626.35	1310.33
626.70	1302.58
627.04	1294.85
627.39	1286.99
627.73	1279.45
628.08	1272.62
628.43	1265.33
628.77	1258.03
629.12	1250.56
629.46	1243.35
629.81	1235.68
630.15	1228.47
630.50	1221.17
630.84	1212.98
631.19	1204.98
631.53	1197.25
631.88	1189.57
632.22	1181.90
632.57	1174.49
632.91	1167.03
633.26	1159.57
633.60	1152.12
633.95	1144.73
634.29	1137.43
634.64	1130.51
634.98	1123.09
635.32	1115.80
635.67	1109.02
636.01	1102.17
636.36	1095.32
636.70	1088.68
637.05	1082.13
637.39	1075.56
637.73	1068.97
638.08	1062.94
638.42	1056.87
638.77	1050.37
639.11	1043.76
639.45	1037.37
639.80	1030.79
640.14	1024.31
640.49	1017.75
640.83	1011.44
641.17	1005.34
641.52	999.04
641.86	992.48
642.20	986.55
642.55	980.13
642.89	973.78
643.23	967.14
643.58	961.29
643.92	955.09
644.26	949.18
644.61	943.02
644.95	937.04
645.29	930.52
645.64	923.77
645.98	917.40
646.32	911.35
646.66	905.27
647.01	899.30
647.35	893.63
647.69	887.62
648.04	882.01
648.38	876.17
648.72	870.20
649.06	864.29
649.41	858.38
649.75	852.51
650.09	846.45
650.43	840.72
650.78	834.52
651.12	828.55
651.46	822.61
651.80	816.94
652.14	811.38
652.49	806.02
652.83	800.82
653.17	795.23
653.51	789.63
653.85	784.10
654.20	778.57
654.54	772.45
654.88	766.70
655.22	760.72
655.56	754.91
655.90	749.39
656.25	744.20
656.59	738.84
656.93	733.64
657.27	728.52
657.61	723.04
657.95	717.92
658.29	712.82
658.64	707.54
658.98	702.08
659.32	696.62
659.66	691.37
660.00	686.08
660.34	681.06
660.68	676.10
661.02	671.04
661.36	666.30
661.70	661.79
662.05	657.38
662.39	653.06
662.73	648.66
663.07	644.32
663.41	639.76
663.75	635.24
664.09	630.65
664.43	626.15
664.77	622.04
665.11	617.82
665.45	613.66
665.79	609.60
666.13	605.56
666.47	601.36
666.81	597.14
667.15	592.97
667.49	589.06
667.83	585.15
668.17	581.24
668.51	577.10
668.85	573.04
669.19	569.22
669.53	565.44
669.87	561.55
670.21	557.77
670.55	554.08
670.89	550.68
671.23	547.23
671.57	543.72
671.91	540.20
672.25	536.65
672.58	533.03
672.92	529.50
673.26	526.25
673.60	523.11
673.94	519.99
674.28	517.03
674.62	514.06
674.96	510.98
675.30	508.04
675.64	505.11
675.97	502.24
676.31	499.36
676.65	496.35
676.99	493.62
677.33	490.69
677.67	487.85
678.01	484.79
678.34	481.85
678.68	478.93
679.02	476.06
679.36	473.26
679.70	470.55
680.04	467.81
680.37	464.95
680.71	462.10
681.05	459.45
681.39	456.72
681.73	454.02
682.06	451.49
682.40	448.93
682.74	446.35
683.08	443.80
683.42	441.15
683.75	438.62
684.09	435.99
684.43	433.54
684.77	431.08
685.10	428.72
685.44	426.33
685.78	424.02
686.12	421.77
686.45	419.44
686.79	417.18
687.13	414.96
687.46	412.77
687.80	410.62
688.14	408.32
688.48	406.24
688.81	403.98
689.15	401.83
689.49	399.67
689.82	397.54
690.16	395.42
690.50	393.40
690.83	391.43
691.17	389.42
691.51	387.46
691.84	385.59
692.18	383.66
692.52	381.70
692.85	379.73
693.19	377.79
693.52	375.94
693.86	374.07
694.20	372.23
694.53	370.42
694.87	368.49
695.21	366.68
695.54	364.83
695.88	363.01
696.21	361.25
696.55	359.53
696.88	357.84
697.22	356.11
697.56	354.46
697.89	352.80
698.23	351.19
698.56	349.54
698.90	347.95
699.23	346.24
699.57	344.66
699.90	343.10
700.24	341.55
700.58	340.00
700.91	338.48
701.25	337.06
701.58	335.67
701.92	334.32
702.25	332.98
702.59	331.58
702.92	330.31
703.26	328.98
703.59	327.66
703.93	326.48
704.26	325.31
704.60	324.06
704.93	322.80
705.26	321.53
705.60	320.33
705.93	319.13
706.27	318.10
706.60	317.01
706.94	315.90
707.27	314.73
707.61	313.66
707.94	312.63
708.27	311.47
708.61	310.34
708.94	309.31
709.28	308.27
709.61	307.29
709.94	306.31
710.28	305.30
710.61	304.29
710.95	303.23
711.28	302.27
711.61	301.27
711.95	300.28
712.28	299.36
712.61	298.42
712.95	297.46
713.28	296.57
713.61	295.66
713.95	294.80
714.28	293.94
714.61	293.07
714.95	292.24
715.28	291.37
715.61	290.51
715.95	289.65
716.28	288.82
716.61	288.00
716.95	287.17
717.28	286.39
717.61	285.66
717.94	284.89
718.28	284.09
718.61	283.35
718.94	282.69
719.27	282.05
719.61	281.39
719.94	280.71
720.27	279.95
720.60	279.32
720.94	278.67
721.27	278.09
721.60	277.48
721.93	276.81
722.27	276.29
722.60	275.73
722.93	275.17
723.26	274.58
723.59	273.99
723.93	273.40
724.26	272.83
724.59	272.23
724.92	271.71
725.25	271.18
725.59	270.62
725.92	270.09
726.25	269.53
726.58	269.04
726.91	268.52
727.24	268.04
727.57	267.52
727.91	267.01
728.24	266.54
728.57	266.01
728.90	265.57
729.23	265.04
729.56	264.60
729.89	264.12
730.22	263.65
730.55	263.16
730.89	262.74
731.22	262.28
731.55	261.84
731.88	261.37
732.21	260.92
732.54	260.50
732.87	260.03
733.20	259.61
733.53	259.17
733.86	258.78
734.19	258.40
734.52	258.01
734.85	257.70
735.18	257.25
735.51	256.89
735.84	256.52
736.17	256.16
736.50	255.74
736.83	255.52
737.16	255.18
737.49	254.85
737.82	254.51
738.15	254.21
738.48	253.88
738.81	253.57
739.14	253.24
739.47	252.93
739.80	252.62
740.13	252.32
740.46	252.01
740.79	251.71
741.12	251.39
741.45	251.05
741.78	250.69
742.11	250.43
742.44	250.08
742.77	249.79
743.10	249.51
743.43	249.19
743.75	248.79
744.08	248.65
744.41	248.37
744.74	248.10
745.07	247.79
745.40	247.51
745.73	247.28
746.06	247.00
746.39	246.75
746.71	246.48
747.04	246.19
747.37	245.95
747.70	245.69
748.03	245.44
748.36	245.22
748.68	244.96
749.01	244.71
749.34	244.54
749.67	244.28
750.00	244.06
750.33	243.92
750.65	243.69
750.98	243.34
751.31	243.11
751.64	242.89
751.97	242.72
752.29	242.50
752.62	242.21
752.95	242.02
753.28	241.82
753.60	241.62
753.93	241.43
754.26	241.21
754.59	240.97
754.91	240.77
755.24	240.58
755.57	240.40
755.90	240.20
756.22	239.97
756.55	239.77
756.88	239.58
757.20	239.35
757.53	239.16
757.86	239.00
758.19	238.84
758.51	238.69
758.84	238.48
759.17	238.34
759.49	238.18
759.82	238.04
760.15	237.88
760.47	237.72
760.80	237.56
761.13	237.42
761.45	237.31
761.78	237.13
762.11	236.96
762.43	236.82
762.76	236.67
763.08	236.55
763.41	236.44
763.74	236.30
764.06	236.16
764.39	236.02
764.71	235.87
765.04	235.71
765.37	235.55
765.69	235.44
766.02	235.29
766.34	235.20
766.67	235.05
767.00	234.93
767.32	234.86
767.65	234.77
767.97	234.69
768.30	234.57
768.62	234.47
768.95	234.36
769.27	234.24
769.60	234.13
769.92	233.99
770.25	233.86
770.57	233.71
770.90	233.59
771.22	233.48
771.55	233.38
771.87	233.31
772.20	233.20
772.52	233.17
772.85	233.18
773.17	233.06
773.50	232.97
773.82	232.87
774.15	232.72
774.47	232.59
774.80	232.48
775.12	232.37
775.45	232.29
775.77	232.20
776.09	232.11
776.42	232.03
776.74	232.00
777.07	231.91
777.39	231.88
777.72	231.78
778.04	231.73
778.36	231.64
778.69	231.53
779.01	231.48
779.33	231.30
779.66	231.12
779.98	231.06
780.31	230.98
780.63	230.95
780.95	230.95
781.28	230.88
781.60	230.77
781.92	230.69
782.25	230.62
782.57	230.54
782.89	230.49
783.22	230.42
783.54	230.35
783.86	230.28
784.19	230.22
784.51	230.20
784.83	230.10
785.16	230.06
785.48	230.05
785.80	230.00
786.12	229.97
786.45	229.93
786.77	229.87
787.09	229.82
