SpectraSuite Data File
++++++++++++++++++++++++++++++++++++
Date: Fri Feb 01 15:16:23 EST 2013
User: group
Dark Spectrum Present: No
Reference Spectrum Present: No
Number of Sampled Component Spectra: 1
Spectrometers: USB2E7196
Integration Time (usec): 35000 (USB2E7196)
Spectra Averaged: 100 (USB2E7196)
Boxcar Smoothing: 10 (USB2E7196)
Correct for Electrical Dark: No (USB2E7196)
Strobe/Lamp Enabled: No (USB2E7196)
Correct for Detector Non-linearity: No (USB2E7196)
Correct for Stray Light: No (USB2E7196)
Number of Pixels in Processed Spectrum: 2048
>>>>>Begin Processed Spectral Data<<<<<
339.09	0.00
339.48	215.28
339.86	216.25
340.24	217.72
340.63	219.30
341.01	221.83
341.39	221.97
341.78	223.64
342.16	224.84
342.54	224.82
342.93	213.29
343.31	224.07
343.69	224.63
344.07	225.10
344.46	225.53
344.84	225.92
345.22	226.18
345.60	226.44
345.99	226.62
346.37	226.75
346.75	226.85
347.13	226.95
347.52	227.01
347.90	227.10
348.28	227.15
348.66	227.22
349.05	227.30
349.43	227.37
349.81	227.40
350.19	227.46
350.57	227.53
350.96	227.60
351.34	227.68
351.72	227.77
352.10	227.89
352.48	227.95
352.87	228.04
353.25	228.11
353.63	228.14
354.01	228.20
354.39	228.25
354.77	228.35
355.15	228.43
355.54	228.48
355.92	228.52
356.30	228.61
356.68	228.72
357.06	228.81
357.44	228.85
357.82	228.90
358.20	229.00
358.58	229.06
358.97	229.12
359.35	229.22
359.73	229.26
360.11	229.32
360.49	229.39
360.87	229.42
361.25	229.47
361.63	229.58
362.01	229.64
362.39	229.70
362.77	229.75
363.15	229.79
363.53	229.82
363.91	229.88
364.29	229.84
364.67	229.78
365.05	229.74
365.43	229.76
365.81	229.78
366.19	229.80
366.57	229.82
366.95	229.82
367.33	229.76
367.71	229.75
368.09	229.74
368.47	229.71
368.85	229.67
369.23	229.65
369.61	229.57
369.99	229.56
370.37	229.53
370.75	229.50
371.13	229.41
371.51	229.36
371.89	229.30
372.27	229.27
372.65	229.21
373.03	229.18
373.41	229.08
373.78	229.01
374.16	228.88
374.54	228.79
374.92	228.71
375.30	228.64
375.68	228.53
376.06	228.46
376.44	228.35
376.82	228.30
377.19	228.21
377.57	228.15
377.95	228.02
378.33	227.96
378.71	227.80
379.09	227.75
379.47	227.67
379.84	227.57
380.22	227.49
380.60	227.40
380.98	227.32
381.36	227.25
381.73	227.18
382.11	227.13
382.49	227.05
382.87	226.96
383.25	226.91
383.62	227.02
384.00	226.93
384.38	226.89
384.76	226.84
385.13	226.84
385.51	226.78
385.89	226.70
386.27	226.65
386.64	226.67
387.02	226.65
387.40	226.60
387.78	226.57
388.15	226.54
388.53	226.47
388.91	226.46
389.29	226.47
389.66	226.46
390.04	226.43
390.42	226.45
390.79	226.44
391.17	226.43
391.55	226.28
391.92	226.27
392.30	226.27
392.68	226.27
393.05	226.27
393.43	226.29
393.81	226.38
394.18	226.37
394.56	226.38
394.94	226.39
395.31	226.42
395.69	226.48
396.06	226.55
396.44	226.65
396.82	226.67
397.19	226.76
397.57	226.80
397.95	226.86
398.32	226.88
398.70	226.98
399.07	227.07
399.45	227.16
399.82	227.27
400.20	227.34
400.58	227.44
400.95	227.47
401.33	227.56
401.70	227.68
402.08	227.79
402.45	227.91
402.83	228.05
403.20	228.16
403.58	228.25
403.95	228.38
404.33	228.52
404.71	228.68
405.08	228.89
405.46	229.03
405.83	229.21
406.21	229.38
406.58	229.55
406.96	229.70
407.33	229.90
407.70	230.07
408.08	230.37
408.45	230.54
408.83	230.79
409.20	231.01
409.58	231.19
409.95	231.45
410.33	231.73
410.70	231.98
411.08	232.30
411.45	232.63
411.82	232.94
412.20	233.27
412.57	233.73
412.95	233.96
413.32	234.36
413.69	234.74
414.07	235.17
414.44	235.65
414.82	236.13
415.19	236.66
415.56	237.21
415.94	237.73
416.31	238.41
416.68	239.05
417.06	239.79
417.43	240.48
417.81	241.23
418.18	242.02
418.55	242.87
418.93	243.72
419.30	244.61
419.67	245.54
420.04	246.50
420.42	247.43
420.79	248.63
421.16	249.81
421.54	251.02
421.91	252.23
422.28	253.47
422.66	254.84
423.03	256.15
423.40	257.48
423.77	258.90
424.15	260.29
424.52	261.80
424.89	263.39
425.26	264.95
425.64	266.38
426.01	267.92
426.38	269.56
426.75	271.25
427.13	272.98
427.50	274.77
427.87	276.62
428.24	278.48
428.61	280.23
428.99	282.15
429.36	284.26
429.73	286.36
430.10	288.35
430.47	290.37
430.85	292.50
431.22	294.74
431.59	297.12
431.96	299.38
432.33	301.83
432.70	304.22
433.08	307.04
433.45	309.69
433.82	312.34
434.19	315.25
434.56	318.09
434.93	320.73
435.30	323.38
435.68	326.30
436.05	329.15
436.42	331.96
436.79	334.48
437.16	337.18
437.53	340.02
437.90	342.81
438.27	345.60
438.64	348.47
439.01	351.11
439.38	353.35
439.75	355.56
440.13	358.08
440.50	360.40
440.87	362.22
441.24	364.16
441.61	366.34
441.98	367.87
442.35	369.65
442.72	371.56
443.09	373.35
443.46	374.37
443.83	374.95
444.20	375.46
444.57	376.29
444.94	376.57
445.31	376.89
445.68	377.30
446.05	377.33
446.42	376.93
446.79	376.43
447.16	375.96
447.53	375.66
447.90	374.47
448.27	373.28
448.64	371.73
449.01	370.61
449.37	368.60
449.74	366.64
450.11	364.37
450.48	361.82
450.85	359.32
451.22	357.18
451.59	355.16
451.96	353.22
452.33	350.62
452.70	348.27
453.07	345.44
453.43	342.49
453.80	339.71
454.17	337.01
454.54	334.48
454.91	331.79
455.28	329.08
455.65	326.65
456.02	324.23
456.38	322.03
456.75	319.38
457.12	317.11
457.49	314.94
457.86	312.77
458.23	310.91
458.59	308.86
458.96	306.74
459.33	304.86
459.70	302.98
460.07	301.43
460.43	299.66
460.80	298.02
461.17	296.56
461.54	295.09
461.91	293.62
462.27	292.21
462.64	290.90
463.01	289.51
463.38	288.17
463.74	286.78
464.11	285.65
464.48	284.59
464.85	283.49
465.21	282.57
465.58	281.67
465.95	280.56
466.32	279.63
466.68	278.75
467.05	277.84
467.42	276.97
467.78	276.05
468.15	275.21
468.52	274.53
468.88	273.72
469.25	272.94
469.62	272.34
469.98	271.65
470.35	271.04
470.72	270.45
471.08	269.80
471.45	269.26
471.82	268.68
472.18	268.10
472.55	267.66
472.92	267.14
473.28	266.64
473.65	266.22
474.02	265.78
474.38	265.38
474.75	265.04
475.11	264.67
475.48	264.39
475.85	264.15
476.21	263.93
476.58	263.73
476.94	263.57
477.31	263.36
477.67	263.21
478.04	263.11
478.41	262.98
478.77	262.99
479.14	262.89
479.50	262.91
479.87	262.95
480.23	263.03
480.60	263.09
480.96	263.20
481.33	263.41
481.69	263.58
482.06	263.75
482.42	263.97
482.79	264.22
483.15	264.52
483.52	264.91
483.88	265.25
484.25	265.63
484.61	266.01
484.98	266.50
485.34	267.04
485.71	267.65
486.07	268.30
486.44	268.89
486.80	269.60
487.17	270.31
487.53	271.14
487.90	271.93
488.26	272.88
488.62	273.84
488.99	274.81
489.35	275.86
489.72	277.02
490.08	278.20
490.44	279.45
490.81	280.79
491.17	282.15
491.54	283.64
491.90	285.15
492.26	286.79
492.63	288.52
492.99	290.27
493.36	292.13
493.72	294.16
494.08	296.28
494.45	298.55
494.81	300.92
495.17	303.34
495.54	305.93
495.90	308.60
496.26	311.39
496.63	314.35
496.99	317.45
497.35	320.67
497.72	324.10
498.08	327.60
498.44	331.24
498.80	335.08
499.17	339.07
499.53	343.26
499.89	347.72
500.26	352.23
500.62	356.87
500.98	361.84
501.34	366.89
501.71	372.20
502.07	377.65
502.43	383.29
502.79	389.06
503.16	395.15
503.52	401.39
503.88	407.79
504.24	414.35
504.60	421.26
504.97	428.42
505.33	435.70
505.69	443.38
506.05	451.17
506.41	459.09
506.78	467.22
507.14	475.63
507.50	484.24
507.86	493.21
508.22	502.47
508.59	511.67
508.95	521.25
509.31	531.04
509.67	541.09
510.03	551.33
510.39	561.86
510.75	572.68
511.12	583.66
511.48	595.00
511.84	606.50
512.20	618.00
512.56	629.94
512.92	642.16
513.28	654.55
513.64	667.04
514.00	679.69
514.37	692.71
514.73	705.82
515.09	718.92
515.45	732.27
515.81	745.80
516.17	759.75
516.53	773.92
516.89	788.12
517.25	802.34
517.61	816.77
517.97	831.35
518.33	845.82
518.69	860.66
519.05	875.74
519.41	890.93
519.77	906.50
520.13	922.02
520.49	937.37
520.85	952.81
521.21	968.51
521.57	984.86
521.93	1000.64
522.29	1017.11
522.65	1033.33
523.01	1049.60
523.37	1065.76
523.73	1081.98
524.09	1098.14
524.45	1114.56
524.81	1131.24
525.17	1148.20
525.53	1165.10
525.89	1182.00
526.25	1198.85
526.61	1215.18
526.97	1232.03
527.33	1248.62
527.68	1265.33
528.04	1281.89
528.40	1298.54
528.76	1315.70
529.12	1332.39
529.48	1349.38
529.84	1365.52
530.20	1382.37
530.56	1399.54
530.91	1416.92
531.27	1433.80
531.63	1450.28
531.99	1466.85
532.35	1482.95
532.71	1498.88
533.07	1515.24
533.42	1531.20
533.78	1547.18
534.14	1563.55
534.50	1578.83
534.86	1594.75
535.21	1609.82
535.57	1625.86
535.93	1641.49
536.29	1656.42
536.65	1671.54
537.00	1686.32
537.36	1701.65
537.72	1716.15
538.08	1730.48
538.44	1744.38
538.79	1758.38
539.15	1772.18
539.51	1785.94
539.87	1800.33
540.22	1814.11
540.58	1828.10
540.94	1841.52
541.29	1854.59
541.65	1867.36
542.01	1880.81
542.37	1893.14
542.72	1905.75
543.08	1917.75
543.44	1930.27
543.79	1941.41
544.15	1952.39
544.51	1964.03
544.87	1974.99
545.22	1985.78
545.58	1996.07
545.94	2005.92
546.29	2015.75
546.65	2025.53
547.01	2034.91
547.36	2043.65
547.72	2052.20
548.07	2059.88
548.43	2068.17
548.79	2076.35
549.14	2083.89
549.50	2091.37
549.86	2099.25
550.21	2106.57
550.57	2113.56
550.92	2120.14
551.28	2127.38
551.64	2134.52
551.99	2141.18
552.35	2147.35
552.70	2153.59
553.06	2159.62
553.41	2165.94
553.77	2172.02
554.13	2178.25
554.48	2184.31
554.84	2189.68
555.19	2194.92
555.55	2200.02
555.90	2204.38
556.26	2209.06
556.61	2213.88
556.97	2217.89
557.32	2221.98
557.68	2226.11
558.03	2230.40
558.39	2234.06
558.74	2238.70
559.10	2242.57
559.45	2246.11
559.81	2250.42
560.16	2254.15
560.52	2257.37
560.87	2260.87
561.23	2263.53
561.58	2266.39
561.94	2268.97
562.29	2271.48
562.64	2274.19
563.00	2276.97
563.35	2280.48
563.71	2283.62
564.06	2286.65
564.42	2289.54
564.77	2291.85
565.12	2294.13
565.48	2296.04
565.83	2297.75
566.19	2298.92
566.54	2299.83
566.89	2300.84
567.25	2301.41
567.60	2302.73
567.96	2304.20
568.31	2304.86
568.66	2305.80
569.02	2306.30
569.37	2306.48
569.72	2307.15
570.08	2307.01
570.43	2306.79
570.78	2306.01
571.14	2304.50
571.49	2303.24
571.84	2302.74
572.20	2301.50
572.55	2300.31
572.90	2298.61
573.26	2297.11
573.61	2295.36
573.96	2293.45
574.31	2290.42
574.67	2287.27
575.02	2283.59
575.37	2280.39
575.72	2276.51
576.08	2273.14
576.43	2269.76
576.78	2265.93
577.13	2262.75
577.49	2259.90
577.84	2256.36
578.19	2252.67
578.54	2248.80
578.90	2244.45
579.25	2238.88
579.60	2233.91
579.95	2228.75
580.30	2223.67
580.66	2218.54
581.01	2213.47
581.36	2208.50
581.71	2204.28
582.06	2199.66
582.42	2195.19
582.77	2189.71
583.12	2185.01
583.47	2180.26
583.82	2175.16
584.17	2169.86
584.53	2164.17
584.88	2158.36
585.23	2152.43
585.58	2146.91
585.93	2141.35
586.28	2136.43
586.63	2131.34
586.98	2126.15
587.34	2121.38
587.69	2116.47
588.04	2111.01
588.39	2105.22
588.74	2098.64
589.09	2092.43
589.44	2085.64
589.79	2079.50
590.14	2073.90
590.49	2067.28
590.84	2060.82
591.19	2054.58
591.54	2048.16
591.89	2040.74
592.25	2033.65
592.60	2026.42
592.95	2018.61
593.30	2011.29
593.65	2003.62
594.00	1996.60
594.35	1989.43
594.70	1981.45
595.05	1973.98
595.40	1966.61
595.75	1959.18
596.10	1952.81
596.45	1945.85
596.80	1939.58
597.15	1932.79
597.50	1925.53
597.85	1919.03
598.19	1912.19
598.54	1905.14
598.89	1898.42
599.24	1892.53
599.59	1885.82
599.94	1879.58
600.29	1873.21
600.64	1866.67
600.99	1859.17
601.34	1852.08
601.69	1845.02
602.04	1837.94
602.39	1830.68
602.74	1823.86
603.08	1817.09
603.43	1810.34
603.78	1803.18
604.13	1795.99
604.48	1788.66
604.83	1781.79
605.18	1774.87
605.53	1766.84
605.87	1758.90
606.22	1751.71
606.57	1743.70
606.92	1736.48
607.27	1729.20
607.62	1722.27
607.96	1714.89
608.31	1708.22
608.66	1700.52
609.01	1692.86
609.36	1685.34
609.70	1677.25
610.05	1669.10
610.40	1661.33
610.75	1653.01
611.10	1645.34
611.44	1637.00
611.79	1629.02
612.14	1620.28
612.49	1611.09
612.83	1602.74
613.18	1594.53
613.53	1586.35
613.88	1577.84
614.22	1569.57
614.57	1561.03
614.92	1553.03
615.27	1545.37
615.61	1537.09
615.96	1529.13
616.31	1521.47
616.65	1514.12
617.00	1506.53
617.35	1498.99
617.70	1490.51
618.04	1481.93
618.39	1473.53
618.74	1465.74
619.08	1457.44
619.43	1449.94
619.78	1442.96
620.12	1435.77
620.47	1428.21
620.82	1420.08
621.16	1412.67
621.51	1404.99
621.85	1397.33
622.20	1388.89
622.55	1380.62
622.89	1372.66
623.24	1365.12
623.59	1357.89
623.93	1350.36
624.28	1343.16
624.62	1335.62
624.97	1328.54
625.32	1321.99
625.66	1314.99
626.01	1307.83
626.35	1300.35
626.70	1292.64
627.04	1284.87
627.39	1277.10
627.73	1269.65
628.08	1262.74
628.43	1255.36
628.77	1247.99
629.12	1240.41
629.46	1233.16
629.81	1225.65
630.15	1218.50
630.50	1211.12
630.84	1202.90
631.19	1194.99
631.53	1187.55
631.88	1180.00
632.22	1172.41
632.57	1164.97
632.91	1157.48
633.26	1150.18
633.60	1142.93
633.95	1135.87
634.29	1128.94
634.64	1122.29
634.98	1114.97
635.32	1107.72
635.67	1101.19
636.01	1094.60
636.36	1087.88
636.70	1081.43
637.05	1074.95
637.39	1068.56
637.73	1062.08
638.08	1056.22
638.42	1050.25
638.77	1043.79
639.11	1037.15
639.45	1030.76
639.80	1024.17
640.14	1017.73
640.49	1011.19
640.83	1004.89
641.17	998.58
641.52	992.32
641.86	985.95
642.20	980.21
642.55	974.03
642.89	967.60
643.23	961.08
643.58	955.34
643.92	949.11
644.26	943.01
644.61	936.98
644.95	930.95
645.29	924.29
645.64	917.52
645.98	911.24
646.32	905.50
646.66	899.52
647.01	893.74
647.35	888.18
647.69	882.43
648.04	876.97
648.38	871.19
648.72	865.16
649.06	859.10
649.41	853.27
649.75	847.26
650.09	841.29
650.43	835.48
650.78	829.29
651.12	823.37
651.46	817.68
651.80	811.86
652.14	806.41
652.49	801.07
652.83	795.94
653.17	790.32
653.51	784.56
653.85	779.21
654.20	773.58
654.54	767.56
654.88	761.82
655.22	755.89
655.56	750.25
655.90	744.83
656.25	739.51
656.59	734.13
656.93	729.07
657.27	723.93
657.61	718.58
657.95	713.50
658.29	708.46
658.64	703.28
658.98	698.09
659.32	692.68
659.66	687.48
660.00	682.21
660.34	677.20
660.68	672.27
661.02	667.25
661.36	662.49
661.70	657.91
662.05	653.50
662.39	649.15
662.73	644.67
663.07	640.31
663.41	635.88
663.75	631.34
664.09	626.76
664.43	622.39
664.77	618.21
665.11	613.90
665.45	609.73
665.79	605.57
666.13	601.40
666.47	597.30
666.81	593.10
667.15	588.93
667.49	585.06
667.83	581.28
668.17	577.32
668.51	573.27
668.85	569.32
669.19	565.48
669.53	561.61
669.87	557.73
670.21	553.98
670.55	550.41
670.89	547.02
671.23	543.60
671.57	540.04
671.91	536.53
672.25	533.11
672.58	529.58
672.92	526.25
673.26	523.13
673.60	520.01
673.94	516.98
674.28	514.10
674.62	511.15
674.96	508.08
675.30	505.16
675.64	502.25
675.97	499.45
676.31	496.63
676.65	493.72
676.99	491.03
677.33	488.22
677.67	485.43
678.01	482.35
678.34	479.40
678.68	476.50
679.02	473.70
679.36	471.02
679.70	468.34
680.04	465.53
680.37	462.65
680.71	459.81
681.05	457.23
681.39	454.59
681.73	451.90
682.06	449.40
682.40	446.91
682.74	444.39
683.08	441.88
683.42	439.22
683.75	436.79
684.09	434.25
684.43	431.75
684.77	429.30
685.10	427.03
685.44	424.77
685.78	422.54
686.12	420.30
686.45	417.99
686.79	415.68
687.13	413.61
687.46	411.48
687.80	409.34
688.14	407.14
688.48	405.07
688.81	402.84
689.15	400.69
689.49	398.54
689.82	396.50
690.16	394.41
690.50	392.45
690.83	390.44
691.17	388.51
691.51	386.66
691.84	384.82
692.18	382.88
692.52	380.89
692.85	379.00
693.19	377.13
693.52	375.33
693.86	373.54
694.20	371.73
694.53	369.96
694.87	368.15
695.21	366.35
695.54	364.52
695.88	362.86
696.21	361.16
696.55	359.48
696.88	357.76
697.22	356.14
697.56	354.56
697.89	352.97
698.23	351.36
698.56	349.72
698.90	348.08
699.23	346.41
699.57	344.89
699.90	343.33
700.24	341.81
700.58	340.24
700.91	338.75
701.25	337.28
701.58	335.86
701.92	334.50
702.25	333.14
702.59	331.76
702.92	330.41
703.26	329.12
703.59	327.87
703.93	326.69
704.26	325.42
704.60	324.17
704.93	322.85
705.26	321.54
705.60	320.39
705.93	319.28
706.27	318.27
706.60	317.20
706.94	316.13
707.27	314.97
707.61	313.90
707.94	312.86
708.27	311.80
708.61	310.70
708.94	309.71
709.28	308.72
709.61	307.78
709.94	306.82
710.28	305.78
710.61	304.76
710.95	303.70
711.28	302.80
711.61	301.82
711.95	300.94
712.28	300.03
712.61	299.00
712.95	298.04
713.28	297.13
713.61	296.19
713.95	295.29
714.28	294.51
714.61	293.68
714.95	292.88
715.28	291.97
715.61	291.13
715.95	290.27
716.28	289.41
716.61	288.59
716.95	287.80
717.28	287.08
717.61	286.31
717.94	285.56
718.28	284.74
718.61	284.05
718.94	283.36
719.27	282.70
719.61	282.09
719.94	281.43
720.27	280.73
720.60	280.09
720.94	279.46
721.27	278.86
721.60	278.26
721.93	277.62
722.27	277.14
722.60	276.59
722.93	276.02
723.26	275.49
723.59	274.89
723.93	274.33
724.26	273.79
724.59	273.28
724.92	272.74
725.25	272.27
725.59	271.72
725.92	271.22
726.25	270.71
726.58	270.23
726.91	269.73
727.24	269.30
727.57	268.84
727.91	268.32
728.24	267.86
728.57	267.41
728.90	266.98
729.23	266.46
729.56	266.04
729.89	265.58
730.22	265.08
730.55	264.66
730.89	264.21
731.22	263.74
731.55	263.28
731.88	262.87
732.21	262.43
732.54	262.01
732.87	261.59
733.20	261.17
733.53	260.81
733.86	260.46
734.19	260.04
734.52	259.68
734.85	259.43
735.18	258.99
735.51	258.60
735.84	258.21
736.17	257.88
736.50	257.45
736.83	257.19
737.16	256.86
737.49	256.55
737.82	256.23
738.15	255.90
738.48	255.57
738.81	255.26
739.14	254.96
739.47	254.65
739.80	254.36
740.13	254.09
740.46	253.76
740.79	253.41
741.12	253.12
741.45	252.79
741.78	252.41
742.11	252.17
742.44	251.84
742.77	251.59
743.10	251.26
743.43	250.97
743.75	250.59
744.08	250.46
744.41	250.17
744.74	249.88
745.07	249.61
745.40	249.37
745.73	249.10
746.06	248.84
746.39	248.61
746.71	248.32
747.04	248.03
747.37	247.75
747.70	247.50
748.03	247.22
748.36	247.00
748.68	246.76
749.01	246.50
749.34	246.26
749.67	246.00
750.00	245.81
750.33	245.68
750.65	245.48
750.98	245.10
751.31	244.85
751.64	244.60
751.97	244.42
752.29	244.19
752.62	243.93
752.95	243.68
753.28	243.46
753.60	243.22
753.93	243.04
754.26	242.86
754.59	242.63
754.91	242.42
755.24	242.20
755.57	242.02
755.90	241.84
756.22	241.66
756.55	241.46
756.88	241.24
757.20	240.98
757.53	240.80
757.86	240.62
758.19	240.45
758.51	240.30
758.84	240.10
759.17	239.93
759.49	239.80
759.82	239.71
760.15	239.52
760.47	239.38
760.80	239.19
761.13	239.07
761.45	238.95
761.78	238.80
762.11	238.67
762.43	238.51
762.76	238.35
763.08	238.22
763.41	238.08
763.74	237.98
764.06	237.82
764.39	237.66
764.71	237.55
765.04	237.43
765.37	237.30
765.69	237.17
766.02	237.04
766.34	236.91
766.67	236.73
767.00	236.64
767.32	236.59
767.65	236.54
767.97	236.41
768.30	236.29
768.62	236.18
768.95	236.02
769.27	235.93
769.60	235.83
769.92	235.70
770.25	235.60
770.57	235.48
770.90	235.40
771.22	235.31
771.55	235.21
771.87	235.13
772.20	235.03
772.52	235.04
772.85	235.08
773.17	234.97
773.50	234.90
773.82	234.80
774.15	234.64
774.47	234.49
774.80	234.39
775.12	234.33
775.45	234.29
775.77	234.24
776.09	234.15
776.42	234.08
776.74	234.03
777.07	233.94
777.39	233.85
777.72	233.76
778.04	233.67
778.36	233.60
778.69	233.54
779.01	233.49
779.33	233.34
779.66	233.16
779.98	233.07
780.31	233.00
780.63	233.01
780.95	232.98
781.28	232.95
781.60	232.86
781.92	232.78
782.25	232.75
782.57	232.70
782.89	232.63
783.22	232.59
783.54	232.52
783.86	232.51
784.19	232.50
784.51	232.52
784.83	232.45
785.16	232.41
785.48	232.36
785.80	232.35
786.12	232.30
786.45	232.26
786.77	232.26
787.09	232.21
