SpectraSuite Data File
++++++++++++++++++++++++++++++++++++
Date: Fri Feb 01 16:28:45 EST 2013
User: group
Dark Spectrum Present: No
Reference Spectrum Present: No
Number of Sampled Component Spectra: 1
Spectrometers: USB2E7196
Integration Time (usec): 35000 (USB2E7196)
Spectra Averaged: 100 (USB2E7196)
Boxcar Smoothing: 10 (USB2E7196)
Correct for Electrical Dark: No (USB2E7196)
Strobe/Lamp Enabled: No (USB2E7196)
Correct for Detector Non-linearity: No (USB2E7196)
Correct for Stray Light: No (USB2E7196)
Number of Pixels in Processed Spectrum: 2048
>>>>>Begin Processed Spectral Data<<<<<
339.09	0.00
339.48	214.03
339.86	216.02
340.24	217.02
340.63	218.25
341.01	221.47
341.39	221.73
341.78	222.39
342.16	223.44
342.54	224.17
342.93	212.56
343.31	223.31
343.69	223.87
344.07	224.31
344.46	224.74
344.84	225.12
345.22	225.34
345.60	225.57
345.99	225.74
346.37	225.90
346.75	226.02
347.13	226.13
347.52	226.19
347.90	226.28
348.28	226.32
348.66	226.36
349.05	226.35
349.43	226.42
349.81	226.49
350.19	226.54
350.57	226.62
350.96	226.70
351.34	226.77
351.72	226.84
352.10	226.91
352.48	226.98
352.87	227.05
353.25	227.13
353.63	227.18
354.01	227.26
354.39	227.33
354.77	227.39
355.15	227.47
355.54	227.56
355.92	227.60
356.30	227.66
356.68	227.79
357.06	227.85
357.44	227.90
357.82	227.93
358.20	227.97
358.58	228.00
358.97	228.06
359.35	228.14
359.73	228.23
360.11	228.32
360.49	228.37
360.87	228.40
361.25	228.41
361.63	228.51
362.01	228.54
362.39	228.55
362.77	228.59
363.15	228.61
363.53	228.59
363.91	228.60
364.29	228.59
364.67	228.51
365.05	228.50
365.43	228.48
365.81	228.54
366.19	228.59
366.57	228.64
366.95	228.61
367.33	228.54
367.71	228.50
368.09	228.50
368.47	228.49
368.85	228.49
369.23	228.52
369.61	228.44
369.99	228.47
370.37	228.44
370.75	228.45
371.13	228.40
371.51	228.38
371.89	228.37
372.27	228.34
372.65	228.30
373.03	228.28
373.41	228.21
373.78	228.10
374.16	227.99
374.54	227.92
374.92	227.88
375.30	227.83
375.68	227.76
376.06	227.68
376.44	227.60
376.82	227.52
377.19	227.45
377.57	227.36
377.95	227.24
378.33	227.20
378.71	227.06
379.09	226.99
379.47	226.90
379.84	226.81
380.22	226.71
380.60	226.63
380.98	226.53
381.36	226.49
381.73	226.45
382.11	226.42
382.49	226.35
382.87	226.26
383.25	226.21
383.62	226.29
384.00	226.22
384.38	226.19
384.76	226.13
385.13	226.12
385.51	226.11
385.89	226.04
386.27	225.98
386.64	225.97
387.02	225.93
387.40	225.92
387.78	225.87
388.15	225.85
388.53	225.84
388.91	225.82
389.29	225.80
389.66	225.75
390.04	225.74
390.42	225.75
390.79	225.75
391.17	225.74
391.55	225.60
391.92	225.58
392.30	225.55
392.68	225.54
393.05	225.52
393.43	225.51
393.81	225.56
394.18	225.58
394.56	225.58
394.94	225.61
395.31	225.61
395.69	225.64
396.06	225.70
396.44	225.71
396.82	225.75
397.19	225.81
397.57	225.86
397.95	225.88
398.32	225.88
398.70	225.90
399.07	225.97
399.45	226.03
399.82	226.09
400.20	226.18
400.58	226.25
400.95	226.26
401.33	226.37
401.70	226.49
402.08	226.58
402.45	226.66
402.83	226.78
403.20	226.87
403.58	226.98
403.95	227.06
404.33	227.19
404.71	227.30
405.08	227.47
405.46	227.60
405.83	227.71
406.21	227.86
406.58	228.02
406.96	228.16
407.33	228.31
407.70	228.49
408.08	228.75
408.45	228.98
408.83	229.22
409.20	229.42
409.58	229.59
409.95	229.85
410.33	230.12
410.70	230.34
411.08	230.64
411.45	230.92
411.82	231.24
412.20	231.58
412.57	232.02
412.95	232.31
413.32	232.67
413.69	233.09
414.07	233.54
414.44	234.02
414.82	234.49
415.19	235.05
415.56	235.60
415.94	236.08
416.31	236.68
416.68	237.27
417.06	237.95
417.43	238.61
417.81	239.34
418.18	240.12
418.55	240.95
418.93	241.82
419.30	242.70
419.67	243.63
420.04	244.57
420.42	245.57
420.79	246.74
421.16	247.92
421.54	249.13
421.91	250.33
422.28	251.58
422.66	252.93
423.03	254.24
423.40	255.58
423.77	257.04
424.15	258.46
424.52	259.97
424.89	261.58
425.26	263.13
425.64	264.58
426.01	266.18
426.38	267.84
426.75	269.53
427.13	271.25
427.50	273.05
427.87	274.94
428.24	276.76
428.61	278.55
428.99	280.49
429.36	282.58
429.73	284.62
430.10	286.59
430.47	288.64
430.85	290.71
431.22	292.97
431.59	295.33
431.96	297.57
432.33	300.05
432.70	302.43
433.08	305.24
433.45	307.90
433.82	310.51
434.19	313.36
434.56	316.18
434.93	318.83
435.30	321.46
435.68	324.37
436.05	327.19
436.42	329.95
436.79	332.46
437.16	335.14
437.53	337.97
437.90	340.80
438.27	343.51
438.64	346.37
439.01	348.90
439.38	351.14
439.75	353.29
440.13	355.77
440.50	358.06
440.87	359.85
441.24	361.74
441.61	363.88
441.98	365.36
442.35	367.10
442.72	368.94
443.09	370.74
443.46	371.72
443.83	372.31
444.20	372.79
444.57	373.59
444.94	373.88
445.31	374.20
445.68	374.57
446.05	374.64
446.42	374.26
446.79	373.87
447.16	373.39
447.53	373.13
447.90	372.02
448.27	370.89
448.64	369.35
449.01	368.22
449.37	366.27
449.74	364.41
450.11	362.21
450.48	359.78
450.85	357.21
451.22	355.05
451.59	353.02
451.96	351.09
452.33	348.51
452.70	346.15
453.07	343.32
453.43	340.40
453.80	337.66
454.17	335.01
454.54	332.43
454.91	329.73
455.28	326.98
455.65	324.43
456.02	321.96
456.38	319.81
456.75	317.21
457.12	314.95
457.49	312.73
457.86	310.56
458.23	308.72
458.59	306.72
458.96	304.66
459.33	302.80
459.70	300.96
460.07	299.46
460.43	297.77
460.80	296.17
461.17	294.74
461.54	293.25
461.91	291.80
462.27	290.37
462.64	289.12
463.01	287.82
463.38	286.56
463.74	285.25
464.11	284.10
464.48	283.03
464.85	281.94
465.21	281.08
465.58	280.15
465.95	279.05
466.32	278.17
466.68	277.27
467.05	276.40
467.42	275.51
467.78	274.59
468.15	273.77
468.52	273.11
468.88	272.30
469.25	271.52
469.62	270.95
469.98	270.32
470.35	269.69
470.72	269.12
471.08	268.49
471.45	267.93
471.82	267.42
472.18	266.86
472.55	266.46
472.92	265.95
473.28	265.55
473.65	265.13
474.02	264.67
474.38	264.32
474.75	264.00
475.11	263.68
475.48	263.43
475.85	263.17
476.21	262.98
476.58	262.82
476.94	262.71
477.31	262.52
477.67	262.38
478.04	262.29
478.41	262.25
478.77	262.31
479.14	262.29
479.50	262.29
479.87	262.37
480.23	262.44
480.60	262.54
480.96	262.60
481.33	262.84
481.69	263.07
482.06	263.29
482.42	263.51
482.79	263.78
483.15	264.12
483.52	264.54
483.88	264.89
484.25	265.29
484.61	265.72
484.98	266.20
485.34	266.77
485.71	267.35
486.07	267.97
486.44	268.56
486.80	269.27
487.17	270.01
487.53	270.84
487.90	271.70
488.26	272.65
488.62	273.66
488.99	274.60
489.35	275.65
489.72	276.78
490.08	278.00
490.44	279.22
490.81	280.54
491.17	281.86
491.54	283.35
491.90	284.90
492.26	286.56
492.63	288.32
492.99	290.05
493.36	291.97
493.72	294.02
494.08	296.11
494.45	298.30
494.81	300.70
495.17	303.09
495.54	305.61
495.90	308.29
496.26	311.08
496.63	314.05
496.99	317.15
497.35	320.38
497.72	323.78
498.08	327.33
498.44	331.04
498.80	334.97
499.17	339.07
499.53	343.22
499.89	347.58
500.26	352.09
500.62	356.79
500.98	361.77
501.34	366.83
501.71	372.16
502.07	377.67
502.43	383.28
502.79	389.14
503.16	395.26
503.52	401.49
503.88	407.92
504.24	414.57
504.60	421.47
504.97	428.64
505.33	435.99
505.69	443.73
506.05	451.51
506.41	459.41
506.78	467.51
507.14	475.96
507.50	484.74
507.86	493.76
508.22	503.00
508.59	512.21
508.95	521.84
509.31	531.69
509.67	541.78
510.03	552.10
510.39	562.69
510.75	573.51
511.12	584.52
511.48	595.84
511.84	607.23
512.20	618.76
512.56	630.60
512.92	642.78
513.28	655.07
513.64	667.46
514.00	680.16
514.37	693.18
514.73	706.22
515.09	719.14
515.45	732.36
515.81	745.92
516.17	759.89
516.53	773.88
516.89	788.06
517.25	802.22
517.61	816.53
517.97	830.95
518.33	845.29
518.69	859.99
519.05	874.82
519.41	889.99
519.77	905.51
520.13	920.93
520.49	936.23
520.85	951.61
521.21	967.34
521.57	983.57
521.93	999.22
522.29	1015.59
522.65	1031.77
523.01	1047.98
523.37	1063.96
523.73	1080.04
524.09	1096.03
524.45	1112.16
524.81	1128.70
525.17	1145.38
525.53	1162.25
525.89	1179.03
526.25	1195.75
526.61	1212.19
526.97	1228.80
527.33	1245.21
527.68	1261.76
528.04	1278.19
528.40	1294.62
528.76	1311.61
529.12	1328.16
529.48	1344.97
529.84	1360.94
530.20	1377.51
530.56	1394.38
530.91	1411.61
531.27	1428.35
531.63	1444.86
531.99	1461.32
532.35	1477.17
532.71	1492.96
533.07	1509.02
533.42	1524.85
533.78	1540.83
534.14	1557.04
534.50	1572.48
534.86	1588.20
535.21	1603.26
535.57	1619.02
535.93	1634.57
536.29	1649.30
536.65	1664.03
537.00	1678.64
537.36	1693.75
537.72	1708.08
538.08	1722.51
538.44	1736.23
538.79	1750.03
539.15	1763.51
539.51	1777.24
539.87	1791.51
540.22	1805.26
540.58	1818.92
540.94	1832.12
541.29	1844.85
541.65	1857.34
542.01	1870.33
542.37	1882.58
542.72	1894.87
543.08	1906.53
543.44	1918.82
543.79	1929.89
544.15	1940.93
544.51	1952.50
544.87	1963.50
545.22	1974.23
545.58	1984.09
545.94	1993.74
546.29	2003.32
546.65	2013.28
547.01	2022.61
547.36	2031.28
547.72	2039.73
548.07	2047.58
548.43	2055.71
548.79	2063.80
549.14	2071.32
549.50	2078.53
549.86	2086.05
550.21	2093.44
550.57	2100.64
550.92	2106.93
551.28	2113.83
551.64	2120.84
551.99	2127.18
552.35	2133.23
552.70	2139.44
553.06	2145.56
553.41	2151.91
553.77	2158.01
554.13	2163.86
554.48	2169.87
554.84	2175.27
555.19	2180.43
555.55	2185.52
555.90	2189.88
556.26	2194.63
556.61	2199.27
556.97	2203.61
557.32	2207.81
557.68	2211.77
558.03	2216.06
558.39	2219.96
558.74	2224.71
559.10	2228.58
559.45	2232.28
559.81	2236.63
560.16	2240.60
560.52	2243.90
560.87	2247.39
561.23	2250.07
561.58	2253.13
561.94	2255.55
562.29	2258.03
562.64	2260.77
563.00	2263.33
563.35	2267.01
563.71	2270.09
564.06	2273.34
564.42	2276.15
564.77	2278.60
565.12	2281.10
565.48	2283.08
565.83	2284.99
566.19	2286.26
566.54	2287.13
566.89	2288.30
567.25	2288.95
567.60	2290.24
567.96	2291.96
568.31	2292.95
568.66	2294.16
569.02	2294.74
569.37	2295.16
569.72	2296.00
570.08	2296.13
570.43	2296.25
570.78	2295.63
571.14	2294.30
571.49	2293.07
571.84	2292.94
572.20	2292.07
572.55	2291.07
572.90	2289.50
573.26	2288.23
573.61	2286.79
573.96	2285.25
574.31	2282.46
574.67	2279.39
575.02	2275.82
575.37	2272.50
575.72	2268.63
576.08	2265.36
576.43	2262.03
576.78	2258.48
577.13	2255.43
577.49	2252.41
577.84	2248.97
578.19	2245.39
578.54	2241.86
578.90	2237.65
579.25	2232.04
579.60	2227.00
579.95	2222.01
580.30	2217.07
580.66	2211.97
581.01	2207.10
581.36	2202.33
581.71	2198.15
582.06	2193.84
582.42	2189.39
582.77	2184.29
583.12	2179.79
583.47	2174.92
583.82	2170.13
584.17	2164.92
584.53	2159.42
584.88	2154.04
585.23	2148.27
585.58	2142.84
585.93	2137.41
586.28	2132.71
586.63	2127.74
586.98	2122.87
587.34	2118.23
587.69	2113.51
588.04	2108.25
588.39	2102.68
588.74	2096.16
589.09	2090.07
589.44	2083.40
589.79	2077.56
590.14	2071.88
590.49	2065.37
590.84	2059.20
591.19	2053.21
591.54	2046.88
591.89	2039.58
592.25	2032.70
592.60	2025.69
592.95	2018.19
593.30	2010.78
593.65	2003.23
594.00	1996.13
594.35	1988.86
594.70	1980.90
595.05	1973.67
595.40	1966.38
595.75	1958.78
596.10	1952.64
596.45	1945.88
596.80	1939.80
597.15	1933.09
597.50	1926.09
597.85	1919.67
598.19	1913.08
598.54	1905.98
598.89	1899.41
599.24	1893.55
599.59	1886.92
599.94	1880.83
600.29	1874.60
600.64	1868.15
600.99	1860.69
601.34	1854.10
601.69	1847.29
602.04	1840.50
602.39	1833.19
602.74	1826.41
603.08	1819.78
603.43	1812.99
603.78	1805.75
604.13	1798.43
604.48	1791.19
604.83	1784.31
605.18	1777.49
605.53	1769.56
605.87	1761.60
606.22	1754.20
606.57	1746.27
606.92	1739.00
607.27	1731.78
607.62	1724.67
607.96	1717.40
608.31	1710.91
608.66	1703.30
609.01	1695.62
609.36	1687.99
609.70	1679.97
610.05	1671.92
610.40	1664.14
610.75	1655.88
611.10	1648.17
611.44	1639.88
611.79	1631.93
612.14	1623.34
612.49	1614.21
612.83	1605.77
613.18	1597.63
613.53	1589.63
613.88	1581.04
614.22	1572.71
614.57	1564.09
614.92	1556.20
615.27	1548.68
615.61	1540.35
615.96	1532.27
616.31	1524.62
616.65	1517.29
617.00	1509.71
617.35	1502.15
617.70	1493.80
618.04	1485.32
618.39	1477.14
618.74	1469.43
619.08	1461.00
619.43	1453.39
619.78	1446.42
620.12	1439.22
620.47	1431.73
620.82	1423.52
621.16	1416.21
621.51	1408.60
621.85	1400.96
622.20	1392.40
622.55	1384.05
622.89	1376.27
623.24	1368.63
623.59	1361.21
623.93	1353.71
624.28	1346.59
624.62	1338.99
624.97	1331.83
625.32	1325.12
625.66	1318.14
626.01	1311.13
626.35	1303.70
626.70	1295.88
627.04	1288.12
627.39	1280.42
627.73	1273.05
628.08	1266.15
628.43	1258.85
628.77	1251.50
629.12	1244.07
629.46	1236.83
629.81	1229.34
630.15	1222.06
630.50	1214.70
630.84	1206.59
631.19	1198.64
631.53	1190.99
631.88	1183.44
632.22	1175.79
632.57	1168.38
632.91	1160.79
633.26	1153.28
633.60	1145.94
633.95	1138.86
634.29	1131.87
634.64	1125.19
634.98	1117.78
635.32	1110.60
635.67	1103.98
636.01	1097.34
636.36	1090.44
636.70	1084.01
637.05	1077.46
637.39	1070.99
637.73	1064.37
638.08	1058.43
638.42	1052.35
638.77	1045.92
639.11	1039.34
639.45	1032.98
639.80	1026.39
640.14	1019.93
640.49	1013.42
640.83	1007.08
641.17	1000.79
641.52	994.42
641.86	987.84
642.20	981.97
642.55	975.68
642.89	969.23
643.23	962.67
643.58	956.86
643.92	950.65
644.26	944.57
644.61	938.51
644.95	932.50
645.29	925.90
645.64	919.19
645.98	912.91
646.32	907.10
646.66	901.10
647.01	895.25
647.35	889.52
647.69	883.62
648.04	878.15
648.38	872.31
648.72	866.32
649.06	860.30
649.41	854.41
649.75	848.45
650.09	842.39
650.43	836.56
650.78	830.41
651.12	824.45
651.46	818.74
651.80	812.98
652.14	807.57
652.49	802.24
652.83	797.13
653.17	791.38
653.51	785.57
653.85	780.11
654.20	774.43
654.54	768.54
654.88	762.75
655.22	756.78
655.56	751.13
655.90	745.61
656.25	740.41
656.59	735.04
656.93	729.97
657.27	724.87
657.61	719.40
657.95	714.30
658.29	709.17
658.64	703.86
658.98	698.58
659.32	693.17
659.66	687.92
660.00	682.57
660.34	677.64
660.68	672.71
661.02	667.63
661.36	662.93
661.70	658.36
662.05	654.02
662.39	649.78
662.73	645.34
663.07	641.02
663.41	636.55
663.75	632.02
664.09	627.35
664.43	622.93
664.77	618.86
665.11	614.54
665.45	610.48
665.79	606.40
666.13	602.24
666.47	598.12
666.81	593.93
667.15	589.76
667.49	585.85
667.83	582.02
668.17	578.13
668.51	574.01
668.85	570.02
669.19	566.19
669.53	562.26
669.87	558.36
670.21	554.62
670.55	550.95
670.89	547.50
671.23	544.10
671.57	540.60
671.91	537.00
672.25	533.48
672.58	529.92
672.92	526.54
673.26	523.37
673.60	520.20
673.94	517.09
674.28	514.20
674.62	511.22
674.96	508.12
675.30	505.24
675.64	502.28
675.97	499.47
676.31	496.56
676.65	493.69
676.99	491.03
677.33	488.23
677.67	485.41
678.01	482.36
678.34	479.42
678.68	476.56
679.02	473.82
679.36	471.14
679.70	468.44
680.04	465.67
680.37	462.81
680.71	460.11
681.05	457.54
681.39	454.84
681.73	452.23
682.06	449.76
682.40	447.16
682.74	444.67
683.08	442.11
683.42	439.51
683.75	437.00
684.09	434.43
684.43	431.91
684.77	429.46
685.10	427.17
685.44	424.86
685.78	422.55
686.12	420.29
686.45	417.99
686.79	415.69
687.13	413.49
687.46	411.33
687.80	409.15
688.14	406.90
688.48	404.82
688.81	402.49
689.15	400.32
689.49	398.16
689.82	396.10
690.16	394.04
690.50	392.13
690.83	390.19
691.17	388.20
691.51	386.32
691.84	384.48
692.18	382.57
692.52	380.57
692.85	378.63
693.19	376.75
693.52	374.90
693.86	373.08
694.20	371.31
694.53	369.51
694.87	367.64
695.21	365.88
695.54	364.05
695.88	362.41
696.21	360.71
696.55	359.05
696.88	357.34
697.22	355.67
697.56	354.09
697.89	352.44
698.23	350.84
698.56	349.22
698.90	347.66
699.23	345.97
699.57	344.42
699.90	342.86
700.24	341.33
700.58	339.79
700.91	338.28
701.25	336.86
701.58	335.46
701.92	334.09
702.25	332.67
702.59	331.30
702.92	329.94
703.26	328.60
703.59	327.28
703.93	326.08
704.26	324.87
704.60	323.52
704.93	322.25
705.26	320.97
705.60	319.77
705.93	318.55
706.27	317.51
706.60	316.47
706.94	315.39
707.27	314.23
707.61	313.17
707.94	312.15
708.27	311.01
708.61	309.95
708.94	308.93
709.28	307.97
709.61	307.00
709.94	306.02
710.28	304.98
710.61	304.03
710.95	302.97
711.28	302.00
711.61	301.06
711.95	300.11
712.28	299.18
712.61	298.22
712.95	297.31
713.28	296.42
713.61	295.51
713.95	294.67
714.28	293.85
714.61	292.98
714.95	292.09
715.28	291.25
715.61	290.36
715.95	289.54
716.28	288.67
716.61	287.85
716.95	287.08
717.28	286.36
717.61	285.60
717.94	284.84
718.28	284.06
718.61	283.29
718.94	282.60
719.27	281.92
719.61	281.28
719.94	280.64
720.27	279.93
720.60	279.25
720.94	278.58
721.27	277.95
721.60	277.40
721.93	276.86
722.27	276.30
722.60	275.76
722.93	275.17
723.26	274.66
723.59	274.11
723.93	273.55
724.26	272.99
724.59	272.41
724.92	271.92
725.25	271.45
725.59	270.99
725.92	270.50
726.25	269.99
726.58	269.53
726.91	269.00
727.24	268.55
727.57	268.07
727.91	267.59
728.24	267.16
728.57	266.64
728.90	266.18
729.23	265.72
729.56	265.29
729.89	264.84
730.22	264.36
730.55	263.89
730.89	263.43
731.22	262.98
731.55	262.62
731.88	262.21
732.21	261.77
732.54	261.34
732.87	260.89
733.20	260.51
733.53	260.08
733.86	259.74
734.19	259.32
734.52	258.97
734.85	258.66
735.18	258.20
735.51	257.87
735.84	257.51
736.17	257.12
736.50	256.69
736.83	256.47
737.16	256.13
737.49	255.83
737.82	255.46
738.15	255.14
738.48	254.77
738.81	254.43
739.14	254.07
739.47	253.75
739.80	253.47
740.13	253.15
740.46	252.80
740.79	252.46
741.12	252.15
741.45	251.83
741.78	251.45
742.11	251.21
742.44	250.90
742.77	250.62
743.10	250.35
743.43	250.08
743.75	249.65
744.08	249.47
744.41	249.16
744.74	248.90
745.07	248.61
745.40	248.34
745.73	248.10
746.06	247.82
746.39	247.54
746.71	247.23
747.04	246.92
747.37	246.66
747.70	246.38
748.03	246.10
748.36	245.86
748.68	245.63
749.01	245.36
749.34	245.09
749.67	244.78
750.00	244.52
750.33	244.32
750.65	244.12
750.98	243.76
751.31	243.52
751.64	243.30
751.97	243.11
752.29	242.89
752.62	242.59
752.95	242.36
753.28	242.14
753.60	241.91
753.93	241.72
754.26	241.54
754.59	241.36
754.91	241.15
755.24	240.94
755.57	240.73
755.90	240.53
756.22	240.33
756.55	240.11
756.88	239.93
757.20	239.70
757.53	239.51
757.86	239.30
758.19	239.15
758.51	238.98
758.84	238.76
759.17	238.58
759.49	238.44
759.82	238.37
760.15	238.21
760.47	238.10
760.80	237.95
761.13	237.83
761.45	237.64
761.78	237.52
762.11	237.38
762.43	237.26
762.76	237.15
763.08	237.04
763.41	236.96
763.74	236.85
764.06	236.72
764.39	236.59
764.71	236.51
765.04	236.41
765.37	236.29
765.69	236.21
766.02	236.09
766.34	235.99
766.67	235.85
767.00	235.77
767.32	235.72
767.65	235.70
767.97	235.56
768.30	235.48
768.62	235.41
768.95	235.32
769.27	235.22
769.60	235.14
769.92	235.05
770.25	234.95
770.57	234.87
770.90	234.80
771.22	234.71
771.55	234.63
771.87	234.51
772.20	234.43
772.52	234.41
772.85	234.48
773.17	234.40
773.50	234.31
773.82	234.24
774.15	234.07
774.47	233.90
774.80	233.83
775.12	233.78
775.45	233.70
775.77	233.63
776.09	233.55
776.42	233.42
776.74	233.36
777.07	233.28
777.39	233.18
777.72	233.09
778.04	233.01
778.36	232.93
778.69	232.89
779.01	232.81
779.33	232.65
779.66	232.43
779.98	232.34
780.31	232.25
780.63	232.21
780.95	232.18
781.28	232.13
781.60	232.04
781.92	231.97
782.25	231.89
782.57	231.77
782.89	231.68
783.22	231.64
783.54	231.57
783.86	231.54
784.19	231.46
784.51	231.42
784.83	231.37
785.16	231.28
785.48	231.20
785.80	231.12
786.12	231.07
786.45	231.02
786.77	230.99
787.09	230.95
