SpectraSuite Data File
++++++++++++++++++++++++++++++++++++
Date: Fri Feb 01 14:50:46 EST 2013
User: group
Dark Spectrum Present: No
Reference Spectrum Present: No
Number of Sampled Component Spectra: 1
Spectrometers: USB2E7196
Integration Time (usec): 35000 (USB2E7196)
Spectra Averaged: 100 (USB2E7196)
Boxcar Smoothing: 10 (USB2E7196)
Correct for Electrical Dark: No (USB2E7196)
Strobe/Lamp Enabled: No (USB2E7196)
Correct for Detector Non-linearity: No (USB2E7196)
Correct for Stray Light: No (USB2E7196)
Number of Pixels in Processed Spectrum: 2048
>>>>>Begin Processed Spectral Data<<<<<
339.09	0.00
339.48	215.80
339.86	216.68
340.24	218.92
340.63	220.35
341.01	222.65
341.39	223.36
341.78	223.60
342.16	225.33
342.54	225.39
342.93	214.19
343.31	225.00
343.69	225.55
344.07	226.05
344.46	226.44
344.84	226.81
345.22	227.05
345.60	227.28
345.99	227.49
346.37	227.61
346.75	227.73
347.13	227.78
347.52	227.84
347.90	227.91
348.28	227.93
348.66	227.97
349.05	227.91
349.43	227.96
349.81	227.98
350.19	228.01
350.57	228.08
350.96	228.17
351.34	228.28
351.72	228.35
352.10	228.44
352.48	228.53
352.87	228.59
353.25	228.67
353.63	228.74
354.01	228.78
354.39	228.85
354.77	228.91
355.15	229.04
355.54	229.10
355.92	229.15
356.30	229.21
356.68	229.33
357.06	229.43
357.44	229.45
357.82	229.51
358.20	229.62
358.58	229.67
358.97	229.72
359.35	229.75
359.73	229.84
360.11	229.87
360.49	229.90
360.87	229.90
361.25	229.92
361.63	229.97
362.01	230.04
362.39	230.06
362.77	230.08
363.15	230.04
363.53	230.05
363.91	230.04
364.29	230.03
364.67	229.93
365.05	229.92
365.43	229.93
365.81	229.93
366.19	229.95
366.57	229.94
366.95	229.93
367.33	229.90
367.71	229.84
368.09	229.83
368.47	229.81
368.85	229.80
369.23	229.80
369.61	229.71
369.99	229.66
370.37	229.64
370.75	229.66
371.13	229.63
371.51	229.55
371.89	229.51
372.27	229.47
372.65	229.42
373.03	229.33
373.41	229.26
373.78	229.17
374.16	229.02
374.54	228.93
374.92	228.83
375.30	228.76
375.68	228.65
376.06	228.57
376.44	228.48
376.82	228.43
377.19	228.35
377.57	228.28
377.95	228.21
378.33	228.14
378.71	228.01
379.09	227.93
379.47	227.83
379.84	227.75
380.22	227.65
380.60	227.59
380.98	227.56
381.36	227.47
381.73	227.41
382.11	227.37
382.49	227.30
382.87	227.21
383.25	227.17
383.62	227.21
384.00	227.17
384.38	227.13
384.76	227.06
385.13	227.03
385.51	226.94
385.89	226.84
386.27	226.77
386.64	226.70
387.02	226.65
387.40	226.65
387.78	226.64
388.15	226.61
388.53	226.55
388.91	226.49
389.29	226.49
389.66	226.46
390.04	226.43
390.42	226.45
390.79	226.45
391.17	226.43
391.55	226.32
391.92	226.30
392.30	226.30
392.68	226.29
393.05	226.28
393.43	226.33
393.81	226.39
394.18	226.40
394.56	226.43
394.94	226.50
395.31	226.50
395.69	226.56
396.06	226.60
396.44	226.65
396.82	226.72
397.19	226.84
397.57	226.92
397.95	227.01
398.32	227.05
398.70	227.16
399.07	227.24
399.45	227.34
399.82	227.41
400.20	227.48
400.58	227.57
400.95	227.64
401.33	227.76
401.70	227.92
402.08	228.05
402.45	228.18
402.83	228.31
403.20	228.44
403.58	228.58
403.95	228.75
404.33	228.95
404.71	229.08
405.08	229.22
405.46	229.37
405.83	229.49
406.21	229.67
406.58	229.84
406.96	230.04
407.33	230.25
407.70	230.50
408.08	230.80
408.45	231.02
408.83	231.28
409.20	231.51
409.58	231.69
409.95	231.95
410.33	232.21
410.70	232.44
411.08	232.73
411.45	233.01
411.82	233.29
412.20	233.62
412.57	234.04
412.95	234.34
413.32	234.75
413.69	235.20
414.07	235.63
414.44	236.11
414.82	236.56
415.19	237.11
415.56	237.64
415.94	238.18
416.31	238.82
416.68	239.46
417.06	240.18
417.43	240.86
417.81	241.63
418.18	242.43
418.55	243.26
418.93	244.16
419.30	245.05
419.67	245.98
420.04	246.94
420.42	247.91
420.79	249.10
421.16	250.26
421.54	251.41
421.91	252.63
422.28	253.88
422.66	255.22
423.03	256.51
423.40	257.84
423.77	259.20
424.15	260.62
424.52	262.06
424.89	263.65
425.26	265.22
425.64	266.60
426.01	268.17
426.38	269.80
426.75	271.41
427.13	273.13
427.50	274.91
427.87	276.76
428.24	278.60
428.61	280.34
428.99	282.28
429.36	284.39
429.73	286.42
430.10	288.43
430.47	290.50
430.85	292.60
431.22	294.82
431.59	297.23
431.96	299.46
432.33	301.95
432.70	304.33
433.08	307.07
433.45	309.76
433.82	312.40
434.19	315.36
434.56	318.16
434.93	320.81
435.30	323.43
435.68	326.35
436.05	329.22
436.42	332.00
436.79	334.49
437.16	337.14
437.53	339.97
437.90	342.75
438.27	345.44
438.64	348.25
439.01	350.82
439.38	353.01
439.75	355.18
440.13	357.67
440.50	360.00
440.87	361.85
441.24	363.81
441.61	365.91
441.98	367.39
442.35	369.23
442.72	371.10
443.09	372.95
443.46	373.90
443.83	374.48
444.20	375.01
444.57	375.86
444.94	376.16
445.31	376.47
445.68	376.88
446.05	376.97
446.42	376.59
446.79	376.21
447.16	375.81
447.53	375.50
447.90	374.36
448.27	373.17
448.64	371.62
449.01	370.47
449.37	368.53
449.74	366.62
450.11	364.40
450.48	361.92
450.85	359.37
451.22	357.29
451.59	355.23
451.96	353.25
452.33	350.65
452.70	348.32
453.07	345.52
453.43	342.60
453.80	339.85
454.17	337.22
454.54	334.67
454.91	331.94
455.28	329.28
455.65	326.76
456.02	324.37
456.38	322.26
456.75	319.60
457.12	317.36
457.49	315.15
457.86	312.97
458.23	311.09
458.59	309.05
458.96	306.94
459.33	305.14
459.70	303.29
460.07	301.77
460.43	300.07
460.80	298.50
461.17	297.06
461.54	295.56
461.91	294.16
462.27	292.74
462.64	291.53
463.01	290.21
463.38	288.93
463.74	287.57
464.11	286.38
464.48	285.37
464.85	284.27
465.21	283.40
465.58	282.47
465.95	281.41
466.32	280.53
466.68	279.61
467.05	278.72
467.42	277.81
467.78	276.90
468.15	275.99
468.52	275.27
468.88	274.42
469.25	273.62
469.62	272.98
469.98	272.27
470.35	271.60
470.72	270.96
471.08	270.29
471.45	269.73
471.82	269.18
472.18	268.52
472.55	268.09
472.92	267.53
473.28	267.05
473.65	266.59
474.02	266.11
474.38	265.75
474.75	265.41
475.11	265.04
475.48	264.75
475.85	264.49
476.21	264.28
476.58	264.08
476.94	263.93
477.31	263.70
477.67	263.51
478.04	263.41
478.41	263.32
478.77	263.35
479.14	263.24
479.50	263.22
479.87	263.29
480.23	263.32
480.60	263.38
480.96	263.44
481.33	263.63
481.69	263.80
482.06	263.94
482.42	264.11
482.79	264.39
483.15	264.69
483.52	265.10
483.88	265.40
484.25	265.74
484.61	266.13
484.98	266.61
485.34	267.18
485.71	267.72
486.07	268.29
486.44	268.82
486.80	269.55
487.17	270.25
487.53	271.07
487.90	271.89
488.26	272.79
488.62	273.75
488.99	274.70
489.35	275.72
489.72	276.85
490.08	278.00
490.44	279.20
490.81	280.49
491.17	281.81
491.54	283.30
491.90	284.82
492.26	286.41
492.63	288.09
492.99	289.83
493.36	291.69
493.72	293.74
494.08	295.85
494.45	298.02
494.81	300.36
495.17	302.73
495.54	305.29
495.90	307.98
496.26	310.76
496.63	313.71
496.99	316.79
497.35	320.02
497.72	323.46
498.08	326.93
498.44	330.61
498.80	334.54
499.17	338.49
499.53	342.65
499.89	347.01
500.26	351.47
500.62	356.09
500.98	361.09
501.34	366.16
501.71	371.45
502.07	376.87
502.43	382.44
502.79	388.27
503.16	394.34
503.52	400.57
503.88	406.98
504.24	413.53
504.60	420.39
504.97	427.49
505.33	434.76
505.69	442.51
506.05	450.26
506.41	458.09
506.78	466.27
507.14	474.68
507.50	483.36
507.86	492.34
508.22	501.54
508.59	510.68
508.95	520.20
509.31	529.97
509.67	540.04
510.03	550.29
510.39	560.81
510.75	571.55
511.12	582.42
511.48	593.64
511.84	605.05
512.20	616.57
512.56	628.48
512.92	640.61
513.28	652.86
513.64	665.34
514.00	677.97
514.37	690.88
514.73	703.88
515.09	716.91
515.45	730.20
515.81	743.82
516.17	757.76
516.53	771.83
516.89	785.96
517.25	800.10
517.61	814.54
517.97	828.95
518.33	843.47
518.69	858.32
519.05	873.40
519.41	888.57
519.77	904.04
520.13	919.44
520.49	934.85
520.85	950.19
521.21	965.88
521.57	982.18
521.93	997.96
522.29	1014.48
522.65	1030.66
523.01	1046.92
523.37	1062.96
523.73	1079.23
524.09	1095.39
524.45	1111.75
524.81	1128.50
525.17	1145.33
525.53	1162.31
525.89	1179.14
526.25	1195.99
526.61	1212.39
526.97	1229.21
527.33	1245.67
527.68	1262.41
528.04	1278.89
528.40	1295.69
528.76	1312.80
529.12	1329.36
529.48	1346.27
529.84	1362.36
530.20	1379.17
530.56	1396.28
530.91	1413.76
531.27	1430.54
531.63	1447.12
531.99	1463.64
532.35	1479.66
532.71	1495.56
533.07	1511.82
533.42	1527.81
533.78	1543.79
534.14	1560.03
534.50	1575.41
534.86	1591.33
535.21	1606.45
535.57	1622.39
535.93	1637.85
536.29	1652.77
536.65	1668.01
537.00	1682.82
537.36	1698.13
537.72	1712.79
538.08	1727.23
538.44	1741.05
538.79	1754.95
539.15	1768.69
539.51	1782.67
539.87	1797.00
540.22	1810.88
540.58	1824.78
540.94	1838.16
541.29	1851.16
541.65	1863.85
542.01	1877.17
542.37	1889.52
542.72	1902.06
543.08	1913.94
543.44	1926.46
543.79	1937.69
544.15	1948.64
544.51	1960.27
544.87	1971.21
545.22	1981.94
545.58	1992.22
545.94	2001.96
546.29	2011.93
546.65	2021.70
547.01	2030.81
547.36	2039.54
547.72	2047.98
548.07	2055.74
548.43	2063.83
548.79	2071.94
549.14	2079.56
549.50	2086.89
549.86	2094.69
550.21	2101.83
550.57	2109.05
550.92	2115.46
551.28	2122.45
551.64	2129.52
551.99	2136.01
552.35	2142.20
552.70	2148.24
553.06	2154.10
553.41	2160.44
553.77	2166.45
554.13	2172.43
554.48	2178.57
554.84	2183.90
555.19	2189.16
555.55	2194.24
555.90	2198.73
556.26	2203.46
556.61	2208.18
556.97	2212.20
557.32	2216.38
557.68	2220.48
558.03	2224.50
558.39	2228.22
558.74	2232.64
559.10	2236.32
559.45	2239.75
559.81	2243.88
560.16	2247.54
560.52	2250.52
560.87	2253.79
561.23	2256.16
561.58	2258.96
561.94	2261.38
562.29	2263.70
562.64	2266.07
563.00	2268.66
563.35	2271.97
563.71	2274.87
564.06	2277.68
564.42	2280.55
564.77	2282.64
565.12	2284.78
565.48	2286.61
565.83	2288.25
566.19	2289.29
566.54	2290.11
566.89	2291.08
567.25	2291.48
567.60	2292.71
567.96	2294.31
568.31	2294.90
568.66	2295.70
569.02	2296.13
569.37	2296.17
569.72	2296.83
570.08	2296.87
570.43	2296.49
570.78	2295.54
571.14	2293.77
571.49	2292.27
571.84	2291.70
572.20	2290.34
572.55	2289.02
572.90	2287.20
573.26	2285.54
573.61	2283.80
573.96	2281.76
574.31	2278.60
574.67	2275.30
575.02	2271.40
575.37	2267.74
575.72	2263.72
576.08	2260.37
576.43	2256.86
576.78	2253.02
577.13	2249.51
577.49	2246.15
577.84	2242.57
578.19	2238.70
578.54	2234.79
578.90	2230.31
579.25	2224.56
579.60	2219.51
579.95	2214.34
580.30	2209.16
580.66	2203.74
581.01	2198.55
581.36	2193.46
581.71	2189.04
582.06	2184.49
582.42	2179.86
582.77	2174.47
583.12	2169.76
583.47	2164.70
583.82	2159.45
584.17	2154.03
584.53	2148.46
584.88	2142.63
585.23	2136.67
585.58	2131.08
585.93	2125.55
586.28	2120.72
586.63	2115.39
586.98	2110.12
587.34	2105.27
587.69	2100.22
588.04	2094.90
588.39	2089.06
588.74	2082.44
589.09	2076.27
589.44	2069.25
589.79	2062.96
590.14	2057.08
590.49	2050.33
590.84	2043.73
591.19	2037.49
591.54	2030.80
591.89	2023.17
592.25	2016.27
592.60	2009.09
592.95	2001.35
593.30	1993.89
593.65	1986.17
594.00	1979.09
594.35	1971.69
594.70	1963.57
595.05	1956.33
595.40	1949.00
595.75	1941.45
596.10	1935.12
596.45	1928.22
596.80	1921.97
597.15	1915.36
597.50	1908.28
597.85	1901.75
598.19	1895.29
598.54	1888.34
598.89	1881.83
599.24	1875.96
599.59	1869.18
599.94	1862.76
600.29	1856.37
600.64	1849.80
600.99	1842.39
601.34	1835.59
601.69	1828.63
602.04	1821.69
602.39	1814.31
602.74	1807.46
603.08	1800.69
603.43	1793.95
603.78	1786.68
604.13	1779.53
604.48	1772.21
604.83	1765.41
605.18	1758.50
605.53	1750.35
605.87	1742.34
606.22	1735.12
606.57	1727.30
606.92	1719.96
607.27	1712.72
607.62	1705.95
607.96	1698.70
608.31	1692.05
608.66	1684.43
609.01	1676.92
609.36	1669.57
609.70	1661.59
610.05	1653.57
610.40	1646.03
610.75	1637.86
611.10	1630.30
611.44	1622.08
611.79	1614.06
612.14	1605.46
612.49	1596.34
612.83	1588.18
613.18	1580.10
613.53	1571.97
613.88	1563.39
614.22	1555.32
614.57	1546.88
614.92	1538.89
615.27	1531.39
615.61	1523.21
615.96	1515.31
616.31	1507.75
616.65	1500.32
617.00	1492.79
617.35	1485.26
617.70	1476.99
618.04	1468.42
618.39	1460.30
618.74	1452.76
619.08	1444.80
619.43	1437.29
619.78	1430.53
620.12	1423.45
620.47	1415.91
620.82	1407.90
621.16	1400.62
621.51	1393.17
621.85	1385.63
622.20	1377.32
622.55	1369.18
622.89	1361.40
623.24	1353.84
623.59	1346.58
623.93	1339.22
624.28	1332.07
624.62	1324.71
624.97	1317.52
625.32	1310.84
625.66	1303.92
626.01	1296.77
626.35	1289.45
626.70	1281.84
627.04	1274.21
627.39	1266.46
627.73	1259.20
628.08	1252.32
628.43	1245.20
628.77	1237.91
629.12	1230.55
629.46	1223.30
629.81	1215.92
630.15	1208.86
630.50	1201.56
630.84	1193.46
631.19	1185.59
631.53	1178.24
631.88	1170.65
632.22	1163.17
632.57	1156.02
632.91	1148.54
633.26	1141.17
633.60	1133.74
633.95	1126.76
634.29	1119.81
634.64	1113.23
634.98	1106.01
635.32	1099.00
635.67	1092.52
636.01	1085.96
636.36	1079.19
636.70	1072.79
637.05	1066.29
637.39	1059.91
637.73	1053.56
638.08	1047.80
638.42	1041.91
638.77	1035.58
639.11	1029.11
639.45	1022.92
639.80	1016.36
640.14	1010.10
640.49	1003.66
640.83	997.54
641.17	991.33
641.52	985.09
641.86	978.81
642.20	973.07
642.55	966.89
642.89	960.43
643.23	953.90
643.58	948.20
643.92	942.13
644.26	936.14
644.61	930.25
644.95	924.26
645.29	917.79
645.64	911.20
645.98	904.91
646.32	899.19
646.66	893.17
647.01	887.44
647.35	881.75
647.69	876.00
648.04	870.52
648.38	864.86
648.72	858.89
649.06	852.89
649.41	847.02
649.75	841.04
650.09	835.25
650.43	829.60
650.78	823.52
651.12	817.61
651.46	811.96
651.80	806.24
652.14	800.90
652.49	795.57
652.83	790.39
653.17	784.79
653.51	779.08
653.85	773.77
654.20	768.23
654.54	762.29
654.88	756.63
655.22	750.79
655.56	745.11
655.90	739.76
656.25	734.51
656.59	729.22
656.93	724.24
657.27	719.08
657.61	713.69
657.95	708.67
658.29	703.68
658.64	698.49
658.98	693.21
659.32	687.85
659.66	682.72
660.00	677.52
660.34	672.59
660.68	667.77
661.02	662.80
661.36	658.09
661.70	653.70
662.05	649.36
662.39	645.11
662.73	640.78
663.07	636.46
663.41	632.07
663.75	627.62
664.09	623.10
664.43	618.84
664.77	614.78
665.11	610.55
665.45	606.49
665.79	602.49
666.13	598.44
666.47	594.34
666.81	590.21
667.15	586.07
667.49	582.22
667.83	578.45
668.17	574.53
668.51	570.53
668.85	566.48
669.19	562.70
669.53	558.92
669.87	555.04
670.21	551.35
670.55	547.79
670.89	544.44
671.23	541.07
671.57	537.58
671.91	534.02
672.25	530.59
672.58	527.10
672.92	523.71
673.26	520.57
673.60	517.49
673.94	514.35
674.28	511.54
674.62	508.70
674.96	505.64
675.30	502.84
675.64	500.01
675.97	497.31
676.31	494.50
676.65	491.57
676.99	488.92
677.33	486.12
677.67	483.35
678.01	480.37
678.34	477.43
678.68	474.56
679.02	471.83
679.36	469.11
679.70	466.41
680.04	463.71
680.37	460.89
680.71	458.12
681.05	455.62
681.39	452.96
681.73	450.26
682.06	447.79
682.40	445.25
682.74	442.70
683.08	440.16
683.42	437.62
683.75	435.20
684.09	432.66
684.43	430.23
684.77	427.82
685.10	425.43
685.44	423.15
685.78	420.90
686.12	418.73
686.45	416.48
686.79	414.21
687.13	412.03
687.46	409.90
687.80	407.79
688.14	405.63
688.48	403.68
688.81	401.56
689.15	399.42
689.49	397.31
689.82	395.28
690.16	393.22
690.50	391.32
690.83	389.39
691.17	387.48
691.51	385.61
691.84	383.75
692.18	381.89
692.52	379.91
692.85	378.01
693.19	376.12
693.52	374.33
693.86	372.57
694.20	370.80
694.53	368.99
694.87	367.17
695.21	365.40
695.54	363.53
695.88	361.77
696.21	360.08
696.55	358.42
696.88	356.76
697.22	355.15
697.56	353.51
697.89	351.86
698.23	350.25
698.56	348.66
698.90	347.13
699.23	345.45
699.57	343.99
699.90	342.48
700.24	340.97
700.58	339.45
700.91	337.99
701.25	336.61
701.58	335.25
701.92	333.90
702.25	332.52
702.59	331.17
702.92	329.92
703.26	328.60
703.59	327.32
703.93	326.16
704.26	324.96
704.60	323.75
704.93	322.52
705.26	321.31
705.60	320.18
705.93	319.01
706.27	318.03
706.60	316.99
706.94	315.89
707.27	314.76
707.61	313.72
707.94	312.69
708.27	311.57
708.61	310.52
708.94	309.51
709.28	308.52
709.61	307.57
709.94	306.61
710.28	305.59
710.61	304.66
710.95	303.57
711.28	302.71
711.61	301.74
711.95	300.83
712.28	299.89
712.61	298.89
712.95	297.96
713.28	297.09
713.61	296.18
713.95	295.32
714.28	294.52
714.61	293.63
714.95	292.81
715.28	291.96
715.61	291.10
715.95	290.29
716.28	289.45
716.61	288.65
716.95	287.83
717.28	287.11
717.61	286.31
717.94	285.59
718.28	284.73
718.61	284.00
718.94	283.29
719.27	282.64
719.61	282.03
719.94	281.43
720.27	280.71
720.60	280.06
720.94	279.45
721.27	278.82
721.60	278.27
721.93	277.67
722.27	277.13
722.60	276.58
722.93	276.01
723.26	275.51
723.59	274.94
723.93	274.38
724.26	273.86
724.59	273.32
724.92	272.80
725.25	272.37
725.59	271.85
725.92	271.39
726.25	270.87
726.58	270.35
726.91	269.85
727.24	269.38
727.57	268.93
727.91	268.44
728.24	268.01
728.57	267.54
728.90	267.10
729.23	266.62
729.56	266.22
729.89	265.76
730.22	265.25
730.55	264.78
730.89	264.36
731.22	263.89
731.55	263.50
731.88	263.08
732.21	262.62
732.54	262.19
732.87	261.75
733.20	261.37
733.53	260.99
733.86	260.63
734.19	260.23
734.52	259.86
734.85	259.55
735.18	259.11
735.51	258.74
735.84	258.36
736.17	258.04
736.50	257.62
736.83	257.37
737.16	257.08
737.49	256.75
737.82	256.39
738.15	256.10
738.48	255.74
738.81	255.42
739.14	255.08
739.47	254.77
739.80	254.45
740.13	254.15
740.46	253.79
740.79	253.45
741.12	253.16
741.45	252.83
741.78	252.46
742.11	252.21
742.44	251.87
742.77	251.60
743.10	251.29
743.43	251.01
743.75	250.66
744.08	250.49
744.41	250.24
744.74	250.00
745.07	249.67
745.40	249.43
745.73	249.19
746.06	248.95
746.39	248.71
746.71	248.44
747.04	248.22
747.37	247.98
747.70	247.77
748.03	247.52
748.36	247.34
748.68	247.13
749.01	246.87
749.34	246.69
749.67	246.44
750.00	246.26
750.33	246.07
750.65	245.85
750.98	245.55
751.31	245.33
751.64	245.13
751.97	244.97
752.29	244.77
752.62	244.54
752.95	244.35
753.28	244.11
753.60	243.92
753.93	243.75
754.26	243.58
754.59	243.35
754.91	243.12
755.24	242.89
755.57	242.70
755.90	242.54
756.22	242.34
756.55	242.15
756.88	241.96
757.20	241.78
757.53	241.57
757.86	241.39
758.19	241.23
758.51	241.06
758.84	240.89
759.17	240.70
759.49	240.54
759.82	240.43
760.15	240.31
760.47	240.20
760.80	239.99
761.13	239.85
761.45	239.71
761.78	239.61
762.11	239.49
762.43	239.36
762.76	239.20
763.08	239.10
763.41	238.97
763.74	238.83
764.06	238.68
764.39	238.56
764.71	238.42
765.04	238.26
765.37	238.11
765.69	237.95
766.02	237.82
766.34	237.70
766.67	237.53
767.00	237.43
767.32	237.35
767.65	237.28
767.97	237.13
768.30	237.02
768.62	236.90
768.95	236.79
769.27	236.68
769.60	236.61
769.92	236.45
770.25	236.36
770.57	236.22
770.90	236.15
771.22	236.04
771.55	235.91
771.87	235.85
772.20	235.72
772.52	235.69
772.85	235.70
773.17	235.60
773.50	235.50
773.82	235.38
774.15	235.21
774.47	235.09
774.80	234.99
775.12	234.88
775.45	234.80
775.77	234.68
776.09	234.58
776.42	234.50
776.74	234.45
777.07	234.33
777.39	234.26
777.72	234.15
778.04	234.06
778.36	233.94
778.69	233.84
779.01	233.81
779.33	233.68
779.66	233.50
779.98	233.44
780.31	233.39
780.63	233.33
780.95	233.30
781.28	233.18
781.60	233.13
781.92	233.08
782.25	233.00
782.57	232.99
782.89	232.92
783.22	232.84
783.54	232.81
783.86	232.78
784.19	232.72
784.51	232.68
784.83	232.60
785.16	232.62
785.48	232.58
785.80	232.53
786.12	232.49
786.45	232.44
786.77	232.41
787.09	232.31
