SpectraSuite Data File
++++++++++++++++++++++++++++++++++++
Date: Fri Feb 01 17:47:57 EST 2013
User: group
Dark Spectrum Present: No
Reference Spectrum Present: No
Number of Sampled Component Spectra: 1
Spectrometers: USB2E7196
Integration Time (usec): 35000 (USB2E7196)
Spectra Averaged: 100 (USB2E7196)
Boxcar Smoothing: 10 (USB2E7196)
Correct for Electrical Dark: No (USB2E7196)
Strobe/Lamp Enabled: No (USB2E7196)
Correct for Detector Non-linearity: No (USB2E7196)
Correct for Stray Light: No (USB2E7196)
Number of Pixels in Processed Spectrum: 2048
>>>>>Begin Processed Spectral Data<<<<<
339.09	0.00
339.48	212.78
339.86	214.51
340.24	215.67
340.63	216.99
341.01	220.06
341.39	220.12
341.78	221.58
342.16	222.24
342.54	222.08
342.93	211.18
343.31	221.85
343.69	222.39
344.07	222.84
344.46	223.26
344.84	223.63
345.22	223.85
345.60	224.05
345.99	224.20
346.37	224.33
346.75	224.44
347.13	224.49
347.52	224.51
347.90	224.58
348.28	224.62
348.66	224.65
349.05	224.69
349.43	224.71
349.81	224.74
350.19	224.79
350.57	224.86
350.96	224.93
351.34	225.00
351.72	225.08
352.10	225.19
352.48	225.22
352.87	225.28
353.25	225.34
353.63	225.44
354.01	225.49
354.39	225.56
354.77	225.63
355.15	225.76
355.54	225.83
355.92	225.87
356.30	225.94
356.68	226.10
357.06	226.16
357.44	226.28
357.82	226.33
358.20	226.43
358.58	226.48
358.97	226.59
359.35	226.68
359.73	226.76
360.11	226.81
360.49	226.90
360.87	226.96
361.25	227.04
361.63	227.11
362.01	227.19
362.39	227.22
362.77	227.29
363.15	227.31
363.53	227.35
363.91	227.40
364.29	227.40
364.67	227.32
365.05	227.38
365.43	227.39
365.81	227.46
366.19	227.51
366.57	227.57
366.95	227.53
367.33	227.52
367.71	227.52
368.09	227.54
368.47	227.54
368.85	227.54
369.23	227.52
369.61	227.45
369.99	227.46
370.37	227.45
370.75	227.49
371.13	227.44
371.51	227.40
371.89	227.40
372.27	227.41
372.65	227.39
373.03	227.32
373.41	227.27
373.78	227.21
374.16	227.12
374.54	227.03
374.92	226.99
375.30	226.93
375.68	226.87
376.06	226.81
376.44	226.75
376.82	226.72
377.19	226.68
377.57	226.65
377.95	226.58
378.33	226.55
378.71	226.42
379.09	226.37
379.47	226.33
379.84	226.19
380.22	226.10
380.60	226.02
380.98	225.97
381.36	225.90
381.73	225.83
382.11	225.80
382.49	225.75
382.87	225.68
383.25	225.63
383.62	225.69
384.00	225.62
384.38	225.56
384.76	225.50
385.13	225.48
385.51	225.42
385.89	225.33
386.27	225.28
386.64	225.24
387.02	225.19
387.40	225.12
387.78	225.11
388.15	225.07
388.53	225.03
388.91	224.98
389.29	224.92
389.66	224.90
390.04	224.82
390.42	224.78
390.79	224.77
391.17	224.72
391.55	224.59
391.92	224.59
392.30	224.62
392.68	224.61
393.05	224.61
393.43	224.61
393.81	224.66
394.18	224.60
394.56	224.61
394.94	224.65
395.31	224.66
395.69	224.68
396.06	224.75
396.44	224.77
396.82	224.79
397.19	224.89
397.57	224.92
397.95	224.99
398.32	225.03
398.70	225.08
399.07	225.13
399.45	225.16
399.82	225.22
400.20	225.25
400.58	225.29
400.95	225.30
401.33	225.41
401.70	225.54
402.08	225.66
402.45	225.77
402.83	225.89
403.20	226.00
403.58	226.14
403.95	226.25
404.33	226.39
404.71	226.55
405.08	226.75
405.46	226.90
405.83	227.08
406.21	227.27
406.58	227.46
406.96	227.66
407.33	227.88
407.70	228.09
408.08	228.40
408.45	228.67
408.83	228.97
409.20	229.18
409.58	229.42
409.95	229.72
410.33	229.99
410.70	230.30
411.08	230.68
411.45	231.06
411.82	231.48
412.20	231.94
412.57	232.42
412.95	232.78
413.32	233.28
413.69	233.77
414.07	234.30
414.44	234.94
414.82	235.58
415.19	236.26
415.56	236.98
415.94	237.68
416.31	238.48
416.68	239.26
417.06	240.20
417.43	241.06
417.81	242.03
418.18	243.09
418.55	244.15
418.93	245.26
419.30	246.41
419.67	247.60
420.04	248.82
420.42	250.12
420.79	251.61
421.16	253.11
421.54	254.63
421.91	256.19
422.28	257.77
422.66	259.45
423.03	261.14
423.40	262.82
423.77	264.61
424.15	266.46
424.52	268.40
424.89	270.45
425.26	272.47
425.64	274.37
426.01	276.42
426.38	278.57
426.75	280.72
427.13	282.98
427.50	285.29
427.87	287.71
428.24	290.11
428.61	292.42
428.99	294.90
429.36	297.62
429.73	300.26
430.10	302.87
430.47	305.57
430.85	308.31
431.22	311.20
431.59	314.28
431.96	317.14
432.33	320.34
432.70	323.43
433.08	327.04
433.45	330.45
433.82	333.78
434.19	337.50
434.56	341.13
434.93	344.51
435.30	347.89
435.68	351.62
436.05	355.28
436.42	358.89
436.79	362.09
437.16	365.57
437.53	369.25
437.90	372.88
438.27	376.38
438.64	380.05
439.01	383.40
439.38	386.29
439.75	389.15
440.13	392.40
440.50	395.42
440.87	397.80
441.24	400.34
441.61	403.15
441.98	405.05
442.35	407.36
442.72	409.74
443.09	412.08
443.46	413.39
443.83	414.15
444.20	414.77
444.57	415.91
444.94	416.29
445.31	416.77
445.68	417.18
446.05	417.30
446.42	416.81
446.79	416.28
447.16	415.70
447.53	415.26
447.90	413.73
448.27	412.22
448.64	410.20
449.01	408.69
449.37	406.13
449.74	403.69
450.11	400.85
450.48	397.70
450.85	394.42
451.22	391.58
451.59	388.98
451.96	386.48
452.33	383.12
452.70	380.08
453.07	376.44
453.43	372.78
453.80	369.24
454.17	365.79
454.54	362.52
454.91	359.03
455.28	355.56
455.65	352.39
456.02	349.19
456.38	346.43
456.75	343.00
457.12	340.08
457.49	337.23
457.86	334.39
458.23	331.96
458.59	329.35
458.96	326.69
459.33	324.32
459.70	321.91
460.07	319.93
460.43	317.73
460.80	315.59
461.17	313.67
461.54	311.71
461.91	309.84
462.27	307.97
462.64	306.30
463.01	304.54
463.38	302.78
463.74	301.01
464.11	299.47
464.48	298.11
464.85	296.67
465.21	295.53
465.58	294.33
465.95	292.96
466.32	291.77
466.68	290.60
467.05	289.45
467.42	288.29
467.78	287.12
468.15	285.98
468.52	285.09
468.88	283.98
469.25	283.00
469.62	282.15
469.98	281.26
470.35	280.44
470.72	279.67
471.08	278.83
471.45	278.15
471.82	277.44
472.18	276.65
472.55	276.07
472.92	275.42
473.28	274.76
473.65	274.12
474.02	273.51
474.38	273.02
474.75	272.52
475.11	272.05
475.48	271.68
475.85	271.32
476.21	270.96
476.58	270.66
476.94	270.38
477.31	270.11
477.67	269.91
478.04	269.73
478.41	269.60
478.77	269.56
479.14	269.42
479.50	269.38
479.87	269.40
480.23	269.44
480.60	269.41
480.96	269.50
481.33	269.67
481.69	269.83
482.06	270.00
482.42	270.12
482.79	270.32
483.15	270.59
483.52	270.96
483.88	271.27
484.25	271.68
484.61	272.16
484.98	272.60
485.34	273.11
485.71	273.71
486.07	274.29
486.44	274.85
486.80	275.56
487.17	276.29
487.53	277.11
487.90	277.98
488.26	278.92
488.62	279.91
488.99	280.89
489.35	281.93
489.72	283.05
490.08	284.31
490.44	285.64
490.81	287.01
491.17	288.43
491.54	290.00
491.90	291.60
492.26	293.25
492.63	295.07
492.99	296.94
493.36	298.92
493.72	301.08
494.08	303.26
494.45	305.61
494.81	308.07
495.17	310.61
495.54	313.26
495.90	316.08
496.26	319.05
496.63	322.14
496.99	325.39
497.35	328.86
497.72	332.42
498.08	336.07
498.44	339.91
498.80	343.98
499.17	348.19
499.53	352.55
499.89	357.14
500.26	361.88
500.62	366.70
500.98	371.86
501.34	377.13
501.71	382.71
502.07	388.41
502.43	394.34
502.79	400.47
503.16	406.91
503.52	413.44
503.88	420.17
504.24	427.18
504.60	434.38
504.97	441.80
505.33	449.51
505.69	457.59
506.05	465.77
506.41	474.06
506.78	482.67
507.14	491.57
507.50	500.73
507.86	510.18
508.22	519.90
508.59	529.68
508.95	539.76
509.31	550.14
509.67	560.79
510.03	571.56
510.39	582.66
510.75	594.03
511.12	605.63
511.48	617.52
511.84	629.61
512.20	641.78
512.56	654.43
512.92	667.28
513.28	680.36
513.64	693.53
514.00	707.05
514.37	720.77
514.73	734.56
515.09	748.44
515.45	762.62
515.81	777.04
516.17	791.81
516.53	806.82
516.89	821.88
517.25	836.90
517.61	852.30
517.97	867.78
518.33	883.13
518.69	898.87
519.05	914.87
519.41	931.11
519.77	947.73
520.13	964.27
520.49	980.79
520.85	997.21
521.21	1014.00
521.57	1031.28
521.93	1048.13
522.29	1065.64
522.65	1083.09
523.01	1100.47
523.37	1117.74
523.73	1135.18
524.09	1152.51
524.45	1169.87
524.81	1187.82
525.17	1205.89
525.53	1224.01
525.89	1242.28
526.25	1260.53
526.61	1278.25
526.97	1296.36
527.33	1314.29
527.68	1332.12
528.04	1349.99
528.40	1368.07
528.76	1386.58
529.12	1404.77
529.48	1423.26
529.84	1440.80
530.20	1458.88
530.56	1477.31
530.91	1496.28
531.27	1514.56
531.63	1532.64
531.99	1551.03
532.35	1568.66
532.71	1586.20
533.07	1604.19
533.42	1621.80
533.78	1639.45
534.14	1657.37
534.50	1674.33
534.86	1691.81
535.21	1708.86
535.57	1726.55
535.93	1743.71
536.29	1760.36
536.65	1776.96
537.00	1793.43
537.36	1810.45
537.72	1826.64
538.08	1842.91
538.44	1858.31
538.79	1873.94
539.15	1889.25
539.51	1904.75
539.87	1920.78
540.22	1936.32
540.58	1951.88
540.94	1966.82
541.29	1981.43
541.65	1995.97
542.01	2010.91
542.37	2025.17
542.72	2039.45
543.08	2053.08
543.44	2067.39
543.79	2080.48
544.15	2093.44
544.51	2106.88
544.87	2119.75
545.22	2132.53
545.58	2144.64
545.94	2156.36
546.29	2168.19
546.65	2180.09
547.01	2191.22
547.36	2201.93
547.72	2212.23
548.07	2221.95
548.43	2231.87
548.79	2241.62
549.14	2250.93
549.50	2260.01
549.86	2269.32
550.21	2278.15
550.57	2287.11
550.92	2295.38
551.28	2303.95
551.64	2312.60
551.99	2320.81
552.35	2328.59
552.70	2336.18
553.06	2343.68
553.41	2351.65
553.77	2359.16
554.13	2366.70
554.48	2374.28
554.84	2381.33
555.19	2387.98
555.55	2394.63
555.90	2400.68
556.26	2407.29
556.61	2413.22
556.97	2419.12
557.32	2424.56
557.68	2430.20
558.03	2435.49
558.39	2440.38
558.74	2446.44
559.10	2451.86
559.45	2456.61
559.81	2462.12
560.16	2467.39
560.52	2471.93
560.87	2476.58
561.23	2480.34
561.58	2484.18
561.94	2488.04
562.29	2491.32
562.64	2495.39
563.00	2498.97
563.35	2503.66
563.71	2507.74
564.06	2512.27
564.42	2516.33
564.77	2520.10
565.12	2523.57
565.48	2526.84
565.83	2529.86
566.19	2532.32
566.54	2533.88
566.89	2536.19
567.25	2537.81
567.60	2540.10
567.96	2542.92
568.31	2544.60
568.66	2546.77
569.02	2548.37
569.37	2549.45
569.72	2551.33
570.08	2552.20
570.43	2552.81
570.78	2552.86
571.14	2551.94
571.49	2551.09
571.84	2551.29
572.20	2550.75
572.55	2550.08
572.90	2548.77
573.26	2547.89
573.61	2546.44
573.96	2545.39
574.31	2542.65
574.67	2539.99
575.02	2536.40
575.37	2532.91
575.72	2529.44
576.08	2525.97
576.43	2522.78
576.78	2519.20
577.13	2515.81
577.49	2512.56
577.84	2509.36
578.19	2505.57
578.54	2501.97
578.90	2497.74
579.25	2491.91
579.60	2486.79
579.95	2481.59
580.30	2476.32
580.66	2470.96
581.01	2465.73
581.36	2460.25
581.71	2456.02
582.06	2451.24
582.42	2446.69
582.77	2441.30
583.12	2436.38
583.47	2431.64
583.82	2426.55
584.17	2420.85
584.53	2415.28
584.88	2409.33
585.23	2403.13
585.58	2397.22
585.93	2391.36
586.28	2386.21
586.63	2380.88
586.98	2375.39
587.34	2370.34
587.69	2365.12
588.04	2359.56
588.39	2353.50
588.74	2346.59
589.09	2339.81
589.44	2332.57
589.79	2325.85
590.14	2319.58
590.49	2312.32
590.84	2305.34
591.19	2298.75
591.54	2291.82
591.89	2283.81
592.25	2276.51
592.60	2268.65
592.95	2260.47
593.30	2252.40
593.65	2244.00
594.00	2236.12
594.35	2228.05
594.70	2219.11
595.05	2211.42
595.40	2203.04
595.75	2194.63
596.10	2187.80
596.45	2180.29
596.80	2173.25
597.15	2166.07
597.50	2158.40
597.85	2151.15
598.19	2143.60
598.54	2135.81
598.89	2128.35
599.24	2121.63
599.59	2114.18
599.94	2107.15
600.29	2099.97
600.64	2092.52
600.99	2084.40
601.34	2076.77
601.69	2068.85
602.04	2061.21
602.39	2052.78
602.74	2045.27
603.08	2037.86
603.43	2030.09
603.78	2021.79
604.13	2013.77
604.48	2005.55
604.83	1997.80
605.18	1990.23
605.53	1981.35
605.87	1972.21
606.22	1963.87
606.57	1954.75
606.92	1946.19
607.27	1937.99
607.62	1930.11
607.96	1921.93
608.31	1914.35
608.66	1905.71
609.01	1897.27
609.36	1888.76
609.70	1879.55
610.05	1870.36
610.40	1861.50
610.75	1852.22
611.10	1843.54
611.44	1833.80
611.79	1824.59
612.14	1814.58
612.49	1803.86
612.83	1794.08
613.18	1784.65
613.53	1775.40
613.88	1765.74
614.22	1756.28
614.57	1746.34
614.92	1737.23
615.27	1728.67
615.61	1719.16
615.96	1709.88
616.31	1701.03
616.65	1692.49
617.00	1683.95
617.35	1675.06
617.70	1665.54
618.04	1655.72
618.39	1646.25
618.74	1637.61
619.08	1627.97
619.43	1619.31
619.78	1611.36
620.12	1603.36
620.47	1594.68
620.82	1585.40
621.16	1576.67
621.51	1567.83
621.85	1559.09
622.20	1549.25
622.55	1539.48
622.89	1530.33
623.24	1521.58
623.59	1513.02
623.93	1504.35
624.28	1495.97
624.62	1487.39
624.97	1479.06
625.32	1471.16
625.66	1463.16
626.01	1455.03
626.35	1446.65
626.70	1437.61
627.04	1428.84
627.39	1419.75
627.73	1411.27
628.08	1403.32
628.43	1395.17
628.77	1386.94
629.12	1378.37
629.46	1370.15
629.81	1361.48
630.15	1353.23
630.50	1344.75
630.84	1335.52
631.19	1326.30
631.53	1317.55
631.88	1308.91
632.22	1300.33
632.57	1292.02
632.91	1283.28
633.26	1274.76
633.60	1266.23
633.95	1258.15
634.29	1249.99
634.64	1242.34
634.98	1233.99
635.32	1225.82
635.67	1218.14
636.01	1210.53
636.36	1202.83
636.70	1195.35
637.05	1187.96
637.39	1180.51
637.73	1173.09
638.08	1166.31
638.42	1159.60
638.77	1152.31
639.11	1144.91
639.45	1137.56
639.80	1130.13
640.14	1122.91
640.49	1115.52
640.83	1108.39
641.17	1101.39
641.52	1094.19
641.86	1086.73
642.20	1080.01
642.55	1072.70
642.89	1065.43
643.23	1057.90
643.58	1051.23
643.92	1044.22
644.26	1037.40
644.61	1030.53
644.95	1023.74
645.29	1016.30
645.64	1008.57
645.98	1001.37
646.32	994.55
646.66	987.68
647.01	980.99
647.35	974.48
647.69	967.75
648.04	961.39
648.38	954.78
648.72	948.05
649.06	941.33
649.41	934.67
649.75	928.05
650.09	921.29
650.43	914.78
650.78	907.88
651.12	901.18
651.46	894.65
651.80	888.29
652.14	882.12
652.49	876.08
652.83	870.27
653.17	863.95
653.51	857.54
653.85	851.39
654.20	845.08
654.54	838.28
654.88	831.82
655.22	825.15
655.56	818.66
655.90	812.46
656.25	806.52
656.59	800.46
656.93	794.65
657.27	788.87
657.61	782.73
657.95	776.98
658.29	771.24
658.64	765.24
658.98	759.14
659.32	753.01
659.66	747.12
660.00	741.16
660.34	735.54
660.68	729.99
661.02	724.32
661.36	718.90
661.70	713.77
662.05	708.79
662.39	703.93
662.73	698.90
663.07	693.93
663.41	688.86
663.75	683.85
664.09	678.73
664.43	673.72
664.77	669.13
665.11	664.32
665.45	659.67
665.79	655.14
666.13	650.56
666.47	645.92
666.81	641.20
667.15	636.55
667.49	632.18
667.83	627.82
668.17	623.45
668.51	618.91
668.85	614.44
669.19	610.12
669.53	605.84
669.87	601.52
670.21	597.36
670.55	593.33
670.89	589.39
671.23	585.48
671.57	581.53
671.91	577.56
672.25	573.51
672.58	569.54
672.92	565.66
673.26	561.99
673.60	558.39
673.94	554.89
674.28	551.54
674.62	548.15
674.96	544.74
675.30	541.46
675.64	538.19
675.97	535.05
676.31	531.84
676.65	528.56
676.99	525.52
677.33	522.31
677.67	519.09
678.01	515.73
678.34	512.41
678.68	509.15
679.02	505.94
679.36	502.88
679.70	499.78
680.04	496.72
680.37	493.50
680.71	490.34
681.05	487.32
681.39	484.35
681.73	481.39
682.06	478.54
682.40	475.64
682.74	472.75
683.08	469.84
683.42	466.87
683.75	464.01
684.09	461.12
684.43	458.29
684.77	455.50
685.10	452.79
685.44	450.14
685.78	447.53
686.12	444.98
686.45	442.40
686.79	439.78
687.13	437.25
687.46	434.85
687.80	432.42
688.14	429.93
688.48	427.50
688.81	424.91
689.15	422.42
689.49	419.99
689.82	417.64
690.16	415.18
690.50	412.94
690.83	410.72
691.17	408.40
691.51	406.27
691.84	404.14
692.18	402.00
692.52	399.83
692.85	397.60
693.19	395.45
693.52	393.32
693.86	391.22
694.20	389.17
694.53	387.10
694.87	384.95
695.21	382.95
695.54	380.89
695.88	378.97
696.21	376.99
696.55	375.05
696.88	373.05
697.22	371.17
697.56	369.33
697.89	367.43
698.23	365.65
698.56	363.78
698.90	362.01
699.23	360.10
699.57	358.30
699.90	356.56
700.24	354.82
700.58	353.12
700.91	351.45
701.25	349.86
701.58	348.30
701.92	346.80
702.25	345.22
702.59	343.70
702.92	342.19
703.26	340.74
703.59	339.28
703.93	338.00
704.26	336.61
704.60	335.17
704.93	333.72
705.26	332.29
705.60	330.97
705.93	329.65
706.27	328.51
706.60	327.29
706.94	326.08
707.27	324.79
707.61	323.56
707.94	322.34
708.27	321.07
708.61	319.82
708.94	318.65
709.28	317.54
709.61	316.42
709.94	315.32
710.28	314.14
710.61	313.07
710.95	311.84
711.28	310.81
711.61	309.70
711.95	308.68
712.28	307.66
712.61	306.57
712.95	305.48
713.28	304.44
713.61	303.42
713.95	302.39
714.28	301.44
714.61	300.50
714.95	299.56
715.28	298.61
715.61	297.62
715.95	296.64
716.28	295.70
716.61	294.77
716.95	293.82
717.28	292.98
717.61	292.09
717.94	291.26
718.28	290.36
718.61	289.54
718.94	288.77
719.27	288.01
719.61	287.23
719.94	286.45
720.27	285.65
720.60	284.89
720.94	284.20
721.27	283.49
721.60	282.80
721.93	282.13
722.27	281.48
722.60	280.90
722.93	280.25
723.26	279.63
723.59	278.99
723.93	278.39
724.26	277.77
724.59	277.14
724.92	276.52
725.25	275.96
725.59	275.38
725.92	274.79
726.25	274.19
726.58	273.65
726.91	273.14
727.24	272.61
727.57	272.08
727.91	271.48
728.24	270.92
728.57	270.38
728.90	269.86
729.23	269.31
729.56	268.81
729.89	268.27
730.22	267.70
730.55	267.17
730.89	266.65
731.22	266.11
731.55	265.60
731.88	265.10
732.21	264.57
732.54	264.05
732.87	263.56
733.20	263.08
733.53	262.63
733.86	262.18
734.19	261.70
734.52	261.29
734.85	260.95
735.18	260.51
735.51	260.09
735.84	259.67
736.17	259.25
736.50	258.77
736.83	258.53
737.16	258.13
737.49	257.74
737.82	257.34
738.15	256.95
738.48	256.58
738.81	256.21
739.14	255.85
739.47	255.51
739.80	255.18
740.13	254.82
740.46	254.45
740.79	254.05
741.12	253.71
741.45	253.34
741.78	252.95
742.11	252.65
742.44	252.29
742.77	251.95
743.10	251.61
743.43	251.29
743.75	250.84
744.08	250.70
744.41	250.37
744.74	250.07
745.07	249.76
745.40	249.50
745.73	249.24
746.06	248.94
746.39	248.64
746.71	248.33
747.04	248.02
747.37	247.71
747.70	247.45
748.03	247.19
748.36	246.93
748.68	246.66
749.01	246.38
749.34	246.11
749.67	245.87
750.00	245.64
750.33	245.43
750.65	245.18
750.98	244.79
751.31	244.58
751.64	244.35
751.97	244.16
752.29	243.88
752.62	243.61
752.95	243.41
753.28	243.19
753.60	242.97
753.93	242.82
754.26	242.65
754.59	242.43
754.91	242.20
755.24	241.99
755.57	241.77
755.90	241.52
756.22	241.32
756.55	241.07
756.88	240.83
757.20	240.62
757.53	240.39
757.86	240.20
758.19	240.01
758.51	239.82
758.84	239.62
759.17	239.43
759.49	239.26
759.82	239.14
760.15	238.98
760.47	238.80
760.80	238.60
761.13	238.44
761.45	238.28
761.78	238.12
762.11	237.95
762.43	237.78
762.76	237.61
763.08	237.47
763.41	237.38
763.74	237.25
764.06	237.07
764.39	236.95
764.71	236.81
765.04	236.64
765.37	236.49
765.69	236.35
766.02	236.23
766.34	236.09
766.67	235.90
767.00	235.78
767.32	235.70
767.65	235.62
767.97	235.49
768.30	235.36
768.62	235.22
768.95	235.10
769.27	234.99
769.60	234.90
769.92	234.77
770.25	234.62
770.57	234.48
770.90	234.39
771.22	234.29
771.55	234.19
771.87	234.08
772.20	233.96
772.52	233.94
772.85	233.95
773.17	233.83
773.50	233.71
773.82	233.59
774.15	233.44
774.47	233.28
774.80	233.12
775.12	232.99
775.45	232.91
775.77	232.83
776.09	232.72
776.42	232.61
776.74	232.56
777.07	232.46
777.39	232.39
777.72	232.28
778.04	232.18
778.36	232.07
778.69	232.02
779.01	231.95
779.33	231.79
779.66	231.60
779.98	231.52
780.31	231.46
780.63	231.42
780.95	231.35
781.28	231.26
781.60	231.21
781.92	231.16
782.25	231.09
782.57	231.02
782.89	230.93
783.22	230.88
783.54	230.80
783.86	230.73
784.19	230.62
784.51	230.61
784.83	230.51
785.16	230.46
785.48	230.41
785.80	230.35
786.12	230.26
786.45	230.22
786.77	230.19
