SpectraSuite Data File
++++++++++++++++++++++++++++++++++++
Date: Fri Feb 01 16:48:22 EST 2013
User: group
Dark Spectrum Present: No
Reference Spectrum Present: No
Number of Sampled Component Spectra: 1
Spectrometers: USB2E7196
Integration Time (usec): 35000 (USB2E7196)
Spectra Averaged: 100 (USB2E7196)
Boxcar Smoothing: 10 (USB2E7196)
Correct for Electrical Dark: No (USB2E7196)
Strobe/Lamp Enabled: No (USB2E7196)
Correct for Detector Non-linearity: No (USB2E7196)
Correct for Stray Light: No (USB2E7196)
Number of Pixels in Processed Spectrum: 2048
>>>>>Begin Processed Spectral Data<<<<<
339.09	0.00
339.48	213.63
339.86	214.81
340.24	216.21
340.63	217.54
341.01	220.76
341.39	220.24
341.78	221.71
342.16	222.96
342.54	223.45
342.93	211.93
343.31	222.64
343.69	223.17
344.07	223.62
344.46	224.06
344.84	224.45
345.22	224.71
345.60	224.99
345.99	225.21
346.37	225.35
346.75	225.46
347.13	225.56
347.52	225.61
347.90	225.66
348.28	225.71
348.66	225.75
349.05	225.75
349.43	225.77
349.81	225.83
350.19	225.88
350.57	225.93
350.96	226.03
351.34	226.13
351.72	226.24
352.10	226.36
352.48	226.42
352.87	226.47
353.25	226.52
353.63	226.56
354.01	226.59
354.39	226.64
354.77	226.69
355.15	226.78
355.54	226.82
355.92	226.85
356.30	226.90
356.68	227.04
357.06	227.10
357.44	227.12
357.82	227.18
358.20	227.25
358.58	227.29
358.97	227.30
359.35	227.35
359.73	227.41
360.11	227.43
360.49	227.47
360.87	227.53
361.25	227.55
361.63	227.61
362.01	227.65
362.39	227.67
362.77	227.72
363.15	227.73
363.53	227.78
363.91	227.83
364.29	227.86
364.67	227.78
365.05	227.79
365.43	227.82
365.81	227.81
366.19	227.86
366.57	227.88
366.95	227.87
367.33	227.81
367.71	227.77
368.09	227.80
368.47	227.78
368.85	227.75
369.23	227.74
369.61	227.69
369.99	227.69
370.37	227.67
370.75	227.67
371.13	227.56
371.51	227.51
371.89	227.47
372.27	227.42
372.65	227.32
373.03	227.27
373.41	227.20
373.78	227.15
374.16	227.03
374.54	226.92
374.92	226.85
375.30	226.81
375.68	226.74
376.06	226.65
376.44	226.58
376.82	226.51
377.19	226.45
377.57	226.39
377.95	226.26
378.33	226.20
378.71	226.10
379.09	226.07
379.47	226.02
379.84	225.96
380.22	225.88
380.60	225.85
380.98	225.76
381.36	225.69
381.73	225.64
382.11	225.62
382.49	225.59
382.87	225.53
383.25	225.47
383.62	225.53
384.00	225.47
384.38	225.44
384.76	225.41
385.13	225.37
385.51	225.32
385.89	225.32
386.27	225.28
386.64	225.25
387.02	225.21
387.40	225.16
387.78	225.12
388.15	225.09
388.53	225.03
388.91	225.02
389.29	225.04
389.66	225.03
390.04	224.99
390.42	225.00
390.79	224.98
391.17	224.97
391.55	224.84
391.92	224.88
392.30	224.88
392.68	224.89
393.05	224.91
393.43	224.93
393.81	224.93
394.18	224.93
394.56	224.91
394.94	224.97
395.31	225.00
395.69	225.08
396.06	225.13
396.44	225.20
396.82	225.25
397.19	225.31
397.57	225.36
397.95	225.42
398.32	225.44
398.70	225.49
399.07	225.56
399.45	225.63
399.82	225.66
400.20	225.70
400.58	225.73
400.95	225.77
401.33	225.86
401.70	226.02
402.08	226.11
402.45	226.22
402.83	226.30
403.20	226.35
403.58	226.42
403.95	226.49
404.33	226.61
404.71	226.70
405.08	226.86
405.46	226.93
405.83	227.08
406.21	227.22
406.58	227.38
406.96	227.55
407.33	227.72
407.70	227.91
408.08	228.17
408.45	228.41
408.83	228.59
409.20	228.77
409.58	228.91
409.95	229.13
410.33	229.39
410.70	229.61
411.08	229.93
411.45	230.20
411.82	230.51
412.20	230.83
412.57	231.24
412.95	231.52
413.32	231.95
413.69	232.33
414.07	232.76
414.44	233.25
414.82	233.70
415.19	234.21
415.56	234.75
415.94	235.28
416.31	235.89
416.68	236.51
417.06	237.23
417.43	237.92
417.81	238.70
418.18	239.48
418.55	240.30
418.93	241.17
419.30	242.08
419.67	243.01
420.04	243.98
420.42	244.99
420.79	246.13
421.16	247.25
421.54	248.42
421.91	249.63
422.28	250.85
422.66	252.15
423.03	253.43
423.40	254.71
423.77	256.12
424.15	257.53
424.52	259.02
424.89	260.60
425.26	262.14
425.64	263.59
426.01	265.19
426.38	266.83
426.75	268.49
427.13	270.20
427.50	271.99
427.87	273.85
428.24	275.72
428.61	277.48
428.99	279.41
429.36	281.52
429.73	283.57
430.10	285.58
430.47	287.67
430.85	289.80
431.22	292.06
431.59	294.40
431.96	296.63
432.33	299.12
432.70	301.44
433.08	304.22
433.45	306.85
433.82	309.42
434.19	312.29
434.56	315.09
434.93	317.74
435.30	320.35
435.68	323.20
436.05	325.95
436.42	328.73
436.79	331.28
437.16	333.93
437.53	336.77
437.90	339.53
438.27	342.26
438.64	345.04
439.01	347.59
439.38	349.80
439.75	351.95
440.13	354.41
440.50	356.81
440.87	358.70
441.24	360.63
441.61	362.75
441.98	364.24
442.35	366.07
442.72	367.86
443.09	369.68
443.46	370.70
443.83	371.25
444.20	371.75
444.57	372.53
444.94	372.80
445.31	373.06
445.68	373.44
446.05	373.53
446.42	373.17
446.79	372.79
447.16	372.38
447.53	372.08
447.90	370.93
448.27	369.74
448.64	368.15
449.01	367.02
449.37	365.09
449.74	363.24
450.11	360.99
450.48	358.59
450.85	356.03
451.22	353.91
451.59	351.96
451.96	350.08
452.33	347.54
452.70	345.25
453.07	342.50
453.43	339.61
453.80	336.86
454.17	334.23
454.54	331.72
454.91	329.03
455.28	326.40
455.65	323.97
456.02	321.53
456.38	319.40
456.75	316.78
457.12	314.60
457.49	312.38
457.86	310.20
458.23	308.35
458.59	306.32
458.96	304.24
459.33	302.36
459.70	300.50
460.07	298.98
460.43	297.29
460.80	295.70
461.17	294.31
461.54	292.79
461.91	291.37
462.27	289.96
462.64	288.74
463.01	287.39
463.38	286.08
463.74	284.74
464.11	283.57
464.48	282.53
464.85	281.38
465.21	280.50
465.58	279.61
465.95	278.52
466.32	277.65
466.68	276.77
467.05	275.93
467.42	275.01
467.78	274.09
468.15	273.22
468.52	272.52
468.88	271.69
469.25	270.95
469.62	270.32
469.98	269.65
470.35	269.04
470.72	268.46
471.08	267.83
471.45	267.32
471.82	266.79
472.18	266.23
472.55	265.83
472.92	265.36
473.28	264.94
473.65	264.52
474.02	264.13
474.38	263.74
474.75	263.45
475.11	263.17
475.48	262.96
475.85	262.70
476.21	262.47
476.58	262.29
476.94	262.15
477.31	262.01
477.67	261.86
478.04	261.72
478.41	261.67
478.77	261.72
479.14	261.63
479.50	261.69
479.87	261.75
480.23	261.87
480.60	261.92
480.96	261.98
481.33	262.21
481.69	262.40
482.06	262.65
482.42	262.85
482.79	263.10
483.15	263.41
483.52	263.83
483.88	264.24
484.25	264.62
484.61	265.06
484.98	265.52
485.34	266.07
485.71	266.66
486.07	267.27
486.44	267.82
486.80	268.53
487.17	269.24
487.53	270.07
487.90	270.90
488.26	271.86
488.62	272.86
488.99	273.81
489.35	274.83
489.72	275.95
490.08	277.12
490.44	278.35
490.81	279.67
491.17	281.03
491.54	282.48
491.90	284.00
492.26	285.64
492.63	287.35
492.99	289.15
493.36	291.05
493.72	293.13
494.08	295.22
494.45	297.49
494.81	299.83
495.17	302.23
495.54	304.77
495.90	307.46
496.26	310.25
496.63	313.18
496.99	316.32
497.35	319.55
497.72	322.99
498.08	326.51
498.44	330.21
498.80	334.11
499.17	338.15
499.53	342.30
499.89	346.63
500.26	351.15
500.62	355.79
500.98	360.78
501.34	365.84
501.71	371.19
502.07	376.63
502.43	382.26
502.79	388.06
503.16	394.18
503.52	400.38
503.88	406.73
504.24	413.37
504.60	420.21
504.97	427.34
505.33	434.61
505.69	442.30
506.05	450.04
506.41	457.87
506.78	465.98
507.14	474.43
507.50	483.13
507.86	492.15
508.22	501.36
508.59	510.52
508.95	519.99
509.31	529.71
509.67	539.80
510.03	550.00
510.39	560.57
510.75	571.23
511.12	582.12
511.48	593.35
511.84	604.76
512.20	616.27
512.56	628.14
512.92	640.20
513.28	652.46
513.64	664.84
514.00	677.57
514.37	690.48
514.73	703.52
515.09	716.38
515.45	729.56
515.81	743.00
516.17	756.83
516.53	770.92
516.89	784.98
517.25	798.99
517.61	813.34
517.97	827.63
518.33	841.92
518.69	856.64
519.05	871.48
519.41	886.53
519.77	901.84
520.13	917.17
520.49	932.48
520.85	947.71
521.21	963.22
521.57	979.29
521.93	994.81
522.29	1010.94
522.65	1027.10
523.01	1043.08
523.37	1059.03
523.73	1075.14
524.09	1091.14
524.45	1107.31
524.81	1123.81
525.17	1140.41
525.53	1157.05
525.89	1173.86
526.25	1190.56
526.61	1206.85
526.97	1223.42
527.33	1239.82
527.68	1256.17
528.04	1272.45
528.40	1288.88
528.76	1305.81
529.12	1322.22
529.48	1338.96
529.84	1354.72
530.20	1371.26
530.56	1388.13
530.91	1405.22
531.27	1421.77
531.63	1437.95
531.99	1454.35
532.35	1470.14
532.71	1485.91
533.07	1502.07
533.42	1517.69
533.78	1533.54
534.14	1549.61
534.50	1564.65
534.86	1580.32
535.21	1595.29
535.57	1611.01
535.93	1626.32
536.29	1640.92
536.65	1655.68
537.00	1670.22
537.36	1685.59
537.72	1699.73
538.08	1714.02
538.44	1727.71
538.79	1741.30
539.15	1754.67
539.51	1768.19
539.87	1782.44
540.22	1795.98
540.58	1809.57
540.94	1822.68
541.29	1835.22
541.65	1847.72
542.01	1860.84
542.37	1873.03
542.72	1885.37
543.08	1897.03
543.44	1909.15
543.79	1920.30
544.15	1931.17
544.51	1942.54
544.87	1953.20
545.22	1964.09
545.58	1974.21
545.94	1983.90
546.29	1993.64
546.65	2003.54
547.01	2012.64
547.36	2021.14
547.72	2029.49
548.07	2037.26
548.43	2045.31
548.79	2053.14
549.14	2060.70
549.50	2067.93
549.86	2075.27
550.21	2082.45
550.57	2089.55
550.92	2096.21
551.28	2103.20
551.64	2110.19
551.99	2116.65
552.35	2122.73
552.70	2128.79
553.06	2134.83
553.41	2141.03
553.77	2147.10
554.13	2153.10
554.48	2159.19
554.84	2164.74
555.19	2169.81
555.55	2174.90
555.90	2179.35
556.26	2184.45
556.61	2189.01
556.97	2193.43
557.32	2197.69
557.68	2201.75
558.03	2205.85
558.39	2209.46
558.74	2213.88
559.10	2217.89
559.45	2221.68
559.81	2225.91
560.16	2229.79
560.52	2232.86
560.87	2236.24
561.23	2239.00
561.58	2241.75
561.94	2244.44
562.29	2246.63
562.64	2249.60
563.00	2252.18
563.35	2255.82
563.71	2258.98
564.06	2262.23
564.42	2265.11
564.77	2267.82
565.12	2270.34
565.48	2272.58
565.83	2274.62
566.19	2276.13
566.54	2276.94
566.89	2278.25
567.25	2279.10
567.60	2280.40
567.96	2282.29
568.31	2283.25
568.66	2284.36
569.02	2285.29
569.37	2285.66
569.72	2286.78
570.08	2287.09
570.43	2287.33
570.78	2286.96
571.14	2285.44
571.49	2284.22
571.84	2283.93
572.20	2282.93
572.55	2282.03
572.90	2280.36
573.26	2278.99
573.61	2277.21
573.96	2275.65
574.31	2272.72
574.67	2269.76
575.02	2266.24
575.37	2262.78
575.72	2259.11
576.08	2255.67
576.43	2252.20
576.78	2248.77
577.13	2245.52
577.49	2242.28
577.84	2238.94
578.19	2235.21
578.54	2231.68
578.90	2227.79
579.25	2222.38
579.60	2217.69
579.95	2212.75
580.30	2207.86
580.66	2202.84
581.01	2198.14
581.36	2193.21
581.71	2189.15
582.06	2184.88
582.42	2180.62
582.77	2175.63
583.12	2171.23
583.47	2166.99
583.82	2162.35
584.17	2157.27
584.53	2151.94
584.88	2146.43
585.23	2140.74
585.58	2135.39
585.93	2130.05
586.28	2125.07
586.63	2120.12
586.98	2114.90
587.34	2110.13
587.69	2105.40
588.04	2100.41
588.39	2094.85
588.74	2088.50
589.09	2082.43
589.44	2075.86
589.79	2069.66
590.14	2063.92
590.49	2057.55
590.84	2051.04
591.19	2045.03
591.54	2038.62
591.89	2031.60
592.25	2025.18
592.60	2018.10
592.95	2010.74
593.30	2003.58
593.65	1996.17
594.00	1989.25
594.35	1982.12
594.70	1974.27
595.05	1967.26
595.40	1959.90
595.75	1952.62
596.10	1946.78
596.45	1940.34
596.80	1934.21
597.15	1927.78
597.50	1921.22
597.85	1914.67
598.19	1908.23
598.54	1901.41
598.89	1894.92
599.24	1889.03
599.59	1882.44
599.94	1876.17
600.29	1869.77
600.64	1863.21
600.99	1855.98
601.34	1849.21
601.69	1842.22
602.04	1835.44
602.39	1828.17
602.74	1821.49
603.08	1814.85
603.43	1808.11
603.78	1800.70
604.13	1793.39
604.48	1786.30
604.83	1779.37
605.18	1772.67
605.53	1764.79
605.87	1756.72
606.22	1749.43
606.57	1741.47
606.92	1734.00
607.27	1727.05
607.62	1720.42
607.96	1713.28
608.31	1706.82
608.66	1699.39
609.01	1692.15
609.36	1684.71
609.70	1676.82
610.05	1668.99
610.40	1661.37
610.75	1653.06
611.10	1645.48
611.44	1637.26
611.79	1629.24
612.14	1620.60
612.49	1611.47
612.83	1603.21
613.18	1595.14
613.53	1587.09
613.88	1578.63
614.22	1570.40
614.57	1561.77
614.92	1553.56
615.27	1546.03
615.61	1537.76
615.96	1529.77
616.31	1522.03
616.65	1514.72
617.00	1507.17
617.35	1499.38
617.70	1491.12
618.04	1482.78
618.39	1474.53
618.74	1466.98
619.08	1458.67
619.43	1451.05
619.78	1444.05
620.12	1436.89
620.47	1429.33
620.82	1421.14
621.16	1413.61
621.51	1406.04
621.85	1398.42
622.20	1390.02
622.55	1381.69
622.89	1373.66
623.24	1365.85
623.59	1358.42
623.93	1350.80
624.28	1343.48
624.62	1336.05
624.97	1328.84
625.32	1321.88
625.66	1314.86
626.01	1307.68
626.35	1300.44
626.70	1292.69
627.04	1285.13
627.39	1277.21
627.73	1269.83
628.08	1262.89
628.43	1255.76
628.77	1248.51
629.12	1241.07
629.46	1233.87
629.81	1226.43
630.15	1219.27
630.50	1211.97
630.84	1203.84
631.19	1195.87
631.53	1188.36
631.88	1180.76
632.22	1173.09
632.57	1165.83
632.91	1158.27
633.26	1150.93
633.60	1143.48
633.95	1136.30
634.29	1129.05
634.64	1122.34
634.98	1114.98
635.32	1107.94
635.67	1101.24
636.01	1094.61
636.36	1087.81
636.70	1081.34
637.05	1074.82
637.39	1068.36
637.73	1061.91
638.08	1056.02
638.42	1050.10
638.77	1043.75
639.11	1037.24
639.45	1030.91
639.80	1024.33
640.14	1018.07
640.49	1011.47
640.83	1005.19
641.17	999.10
641.52	992.87
641.86	986.49
642.20	980.61
642.55	974.21
642.89	967.82
643.23	961.11
643.58	955.34
643.92	949.10
644.26	943.13
644.61	937.02
644.95	931.05
645.29	924.50
645.64	917.85
645.98	911.53
646.32	905.54
646.66	899.50
647.01	893.60
647.35	887.92
647.69	882.10
648.04	876.50
648.38	870.75
648.72	864.80
649.06	858.87
649.41	853.03
649.75	847.18
650.09	841.20
650.43	835.54
650.78	829.42
651.12	823.48
651.46	817.69
651.80	812.04
652.14	806.59
652.49	801.29
652.83	796.01
653.17	790.41
653.51	784.88
653.85	779.46
654.20	773.97
654.54	767.87
654.88	762.13
655.22	756.26
655.56	750.47
655.90	744.98
656.25	739.70
656.59	734.30
656.93	729.16
657.27	724.09
657.61	718.65
657.95	713.48
658.29	708.46
658.64	703.17
658.98	697.82
659.32	692.36
659.66	687.08
660.00	681.91
660.34	676.85
660.68	671.79
661.02	666.75
661.36	662.03
661.70	657.58
662.05	653.25
662.39	648.92
662.73	644.50
663.07	640.10
663.41	635.68
663.75	631.27
664.09	626.72
664.43	622.29
664.77	618.22
665.11	613.97
665.45	609.74
665.79	605.69
666.13	601.64
666.47	597.52
666.81	593.42
667.15	589.26
667.49	585.37
667.83	581.53
668.17	577.54
668.51	573.45
668.85	569.38
669.19	565.48
669.53	561.71
669.87	557.88
670.21	554.26
670.55	550.56
670.89	547.13
671.23	543.68
671.57	540.15
671.91	536.62
672.25	533.11
672.58	529.64
672.92	526.21
673.26	522.99
673.60	519.85
673.94	516.74
674.28	513.78
674.62	510.90
674.96	507.82
675.30	504.97
675.64	502.08
675.97	499.30
676.31	496.47
676.65	493.48
676.99	490.74
677.33	487.78
677.67	485.02
678.01	482.03
678.34	479.08
678.68	476.22
679.02	473.43
679.36	470.64
679.70	467.91
680.04	465.20
680.37	462.39
680.71	459.58
681.05	456.94
681.39	454.23
681.73	451.49
682.06	448.94
682.40	446.40
682.74	443.80
683.08	441.24
683.42	438.65
683.75	436.15
684.09	433.53
684.43	431.09
684.77	428.59
685.10	426.18
685.44	423.84
685.78	421.47
686.12	419.13
686.45	416.84
686.79	414.59
687.13	412.33
687.46	410.10
687.80	407.92
688.14	405.71
688.48	403.64
688.81	401.45
689.15	399.37
689.49	397.26
689.82	395.18
690.16	393.09
690.50	391.06
690.83	389.20
691.17	387.26
691.51	385.34
691.84	383.49
692.18	381.63
692.52	379.71
692.85	377.81
693.19	375.94
693.52	374.16
693.86	372.28
694.20	370.52
694.53	368.77
694.87	366.94
695.21	365.16
695.54	363.36
695.88	361.61
696.21	359.87
696.55	358.13
696.88	356.48
697.22	354.81
697.56	353.17
697.89	351.45
698.23	349.87
698.56	348.27
698.90	346.71
699.23	345.06
699.57	343.50
699.90	341.94
700.24	340.41
700.58	338.89
700.91	337.45
701.25	336.03
701.58	334.67
701.92	333.32
702.25	331.93
702.59	330.59
702.92	329.26
703.26	327.93
703.59	326.70
703.93	325.51
704.26	324.35
704.60	323.10
704.93	321.88
705.26	320.63
705.60	319.46
705.93	318.31
706.27	317.26
706.60	316.19
706.94	315.15
707.27	314.03
707.61	312.92
707.94	311.87
708.27	310.77
708.61	309.68
708.94	308.65
709.28	307.63
709.61	306.66
709.94	305.72
710.28	304.73
710.61	303.72
710.95	302.62
711.28	301.64
711.61	300.67
711.95	299.70
712.28	298.75
712.61	297.75
712.95	296.76
713.28	295.83
713.61	294.92
713.95	294.03
714.28	293.19
714.61	292.34
714.95	291.53
715.28	290.66
715.61	289.79
715.95	288.95
716.28	288.10
716.61	287.23
716.95	286.39
717.28	285.65
717.61	284.87
717.94	284.14
718.28	283.33
718.61	282.59
718.94	281.90
719.27	281.24
719.61	280.57
719.94	279.95
720.27	279.25
720.60	278.61
720.94	277.97
721.27	277.38
721.60	276.79
721.93	276.18
722.27	275.60
722.60	275.03
722.93	274.45
723.26	273.93
723.59	273.37
723.93	272.82
724.26	272.23
724.59	271.64
724.92	271.10
725.25	270.63
725.59	270.15
725.92	269.65
726.25	269.11
726.58	268.65
726.91	268.12
727.24	267.65
727.57	267.17
727.91	266.64
728.24	266.16
728.57	265.68
728.90	265.20
729.23	264.70
729.56	264.30
729.89	263.83
730.22	263.30
730.55	262.84
730.89	262.41
731.22	261.97
731.55	261.58
731.88	261.17
732.21	260.73
732.54	260.27
732.87	259.80
733.20	259.41
733.53	258.98
733.86	258.62
734.19	258.24
734.52	257.87
734.85	257.55
735.18	257.14
735.51	256.76
735.84	256.40
736.17	256.09
736.50	255.64
736.83	255.42
737.16	255.11
737.49	254.75
737.82	254.40
738.15	254.09
738.48	253.74
738.81	253.37
739.14	253.03
739.47	252.72
739.80	252.46
740.13	252.18
740.46	251.87
740.79	251.58
741.12	251.26
741.45	250.93
741.78	250.57
742.11	250.27
742.44	249.93
742.77	249.62
743.10	249.31
743.43	249.03
743.75	248.65
744.08	248.52
744.41	248.28
744.74	248.01
745.07	247.71
745.40	247.47
745.73	247.27
746.06	247.01
746.39	246.74
746.71	246.47
747.04	246.19
747.37	245.93
747.70	245.69
748.03	245.44
748.36	245.21
748.68	245.00
749.01	244.77
749.34	244.57
749.67	244.34
750.00	244.10
750.33	243.94
750.65	243.73
750.98	243.41
751.31	243.15
751.64	242.98
751.97	242.85
752.29	242.63
752.62	242.37
752.95	242.15
753.28	241.97
753.60	241.75
753.93	241.55
754.26	241.37
754.59	241.12
754.91	240.88
755.24	240.69
755.57	240.46
755.90	240.25
756.22	240.04
756.55	239.86
756.88	239.66
757.20	239.42
757.53	239.21
757.86	239.02
758.19	238.91
758.51	238.68
758.84	238.46
759.17	238.29
759.49	238.11
759.82	237.99
760.15	237.83
760.47	237.71
760.80	237.54
761.13	237.40
761.45	237.24
761.78	237.12
762.11	236.97
762.43	236.84
762.76	236.71
763.08	236.59
763.41	236.45
763.74	236.32
764.06	236.16
764.39	236.03
764.71	235.88
765.04	235.72
765.37	235.62
765.69	235.51
766.02	235.36
766.34	235.24
766.67	235.08
767.00	234.96
767.32	234.88
767.65	234.84
767.97	234.74
768.30	234.64
768.62	234.52
768.95	234.42
769.27	234.33
769.60	234.25
769.92	234.13
770.25	234.02
770.57	233.91
770.90	233.85
771.22	233.75
771.55	233.67
771.87	233.60
772.20	233.49
772.52	233.48
772.85	233.52
773.17	233.43
773.50	233.35
773.82	233.28
774.15	233.14
774.47	233.01
774.80	232.90
775.12	232.82
775.45	232.77
775.77	232.70
776.09	232.61
776.42	232.51
776.74	232.48
777.07	232.41
777.39	232.35
777.72	232.25
778.04	232.19
778.36	232.12
778.69	232.02
779.01	231.95
779.33	231.76
779.66	231.59
779.98	231.55
780.31	231.49
780.63	231.45
780.95	231.37
781.28	231.29
781.60	231.19
781.92	231.11
782.25	231.01
782.57	230.92
782.89	230.89
783.22	230.83
783.54	230.70
783.86	230.66
784.19	230.59
784.51	230.54
784.83	230.49
785.16	230.44
785.48	230.41
785.80	230.35
786.12	230.31
786.45	230.27
786.77	230.21
787.09	230.13
