SpectraSuite Data File
++++++++++++++++++++++++++++++++++++
Date: Fri Feb 01 14:52:22 EST 2013
User: group
Dark Spectrum Present: No
Reference Spectrum Present: No
Number of Sampled Component Spectra: 1
Spectrometers: USB2E7196
Integration Time (usec): 35000 (USB2E7196)
Spectra Averaged: 100 (USB2E7196)
Boxcar Smoothing: 10 (USB2E7196)
Correct for Electrical Dark: No (USB2E7196)
Strobe/Lamp Enabled: No (USB2E7196)
Correct for Detector Non-linearity: No (USB2E7196)
Correct for Stray Light: No (USB2E7196)
Number of Pixels in Processed Spectrum: 2048
>>>>>Begin Processed Spectral Data<<<<<
339.09	0.00
339.48	215.95
339.86	216.85
340.24	218.14
340.63	219.29
341.01	222.60
341.39	222.35
341.78	223.47
342.16	225.25
342.54	225.73
342.93	213.93
343.31	224.74
343.69	225.26
344.07	225.72
344.46	226.16
344.84	226.55
345.22	226.77
345.60	227.04
345.99	227.21
346.37	227.32
346.75	227.41
347.13	227.46
347.52	227.49
347.90	227.56
348.28	227.54
348.66	227.57
349.05	227.56
349.43	227.60
349.81	227.63
350.19	227.67
350.57	227.74
350.96	227.79
351.34	227.86
351.72	227.92
352.10	228.04
352.48	228.11
352.87	228.18
353.25	228.22
353.63	228.27
354.01	228.36
354.39	228.44
354.77	228.51
355.15	228.59
355.54	228.67
355.92	228.68
356.30	228.75
356.68	228.90
357.06	228.98
357.44	229.04
357.82	229.08
358.20	229.17
358.58	229.21
358.97	229.29
359.35	229.37
359.73	229.47
360.11	229.51
360.49	229.56
360.87	229.60
361.25	229.68
361.63	229.76
362.01	229.81
362.39	229.83
362.77	229.85
363.15	229.88
363.53	229.88
363.91	229.91
364.29	229.93
364.67	229.84
365.05	229.87
365.43	229.87
365.81	229.92
366.19	229.95
366.57	230.01
366.95	229.97
367.33	229.93
367.71	229.87
368.09	229.89
368.47	229.91
368.85	229.88
369.23	229.87
369.61	229.82
369.99	229.80
370.37	229.78
370.75	229.84
371.13	229.78
371.51	229.72
371.89	229.70
372.27	229.65
372.65	229.60
373.03	229.53
373.41	229.48
373.78	229.42
374.16	229.27
374.54	229.18
374.92	229.10
375.30	229.04
375.68	228.99
376.06	228.91
376.44	228.83
376.82	228.77
377.19	228.69
377.57	228.60
377.95	228.50
378.33	228.39
378.71	228.24
379.09	228.22
379.47	228.18
379.84	228.06
380.22	227.99
380.60	227.89
380.98	227.81
381.36	227.71
381.73	227.60
382.11	227.55
382.49	227.48
382.87	227.41
383.25	227.34
383.62	227.35
384.00	227.26
384.38	227.14
384.76	227.11
385.13	227.10
385.51	227.03
385.89	226.98
386.27	226.95
386.64	226.92
387.02	226.82
387.40	226.77
387.78	226.75
388.15	226.68
388.53	226.64
388.91	226.62
389.29	226.61
389.66	226.63
390.04	226.62
390.42	226.63
390.79	226.61
391.17	226.60
391.55	226.52
391.92	226.50
392.30	226.52
392.68	226.50
393.05	226.47
393.43	226.52
393.81	226.52
394.18	226.52
394.56	226.53
394.94	226.60
395.31	226.62
395.69	226.69
396.06	226.77
396.44	226.84
396.82	226.88
397.19	226.94
397.57	226.97
397.95	227.06
398.32	227.07
398.70	227.16
399.07	227.25
399.45	227.35
399.82	227.42
400.20	227.52
400.58	227.59
400.95	227.64
401.33	227.68
401.70	227.85
402.08	227.93
402.45	228.06
402.83	228.20
403.20	228.32
403.58	228.43
403.95	228.55
404.33	228.69
404.71	228.82
405.08	229.03
405.46	229.19
405.83	229.34
406.21	229.51
406.58	229.69
406.96	229.86
407.33	230.03
407.70	230.23
408.08	230.50
408.45	230.76
408.83	231.04
409.20	231.31
409.58	231.49
409.95	231.82
410.33	232.10
410.70	232.32
411.08	232.60
411.45	232.91
411.82	233.21
412.20	233.57
412.57	234.02
412.95	234.30
413.32	234.70
413.69	235.10
414.07	235.52
414.44	235.98
414.82	236.47
415.19	237.04
415.56	237.58
415.94	238.15
416.31	238.79
416.68	239.41
417.06	240.12
417.43	240.81
417.81	241.54
418.18	242.28
418.55	243.16
418.93	244.04
419.30	244.93
419.67	245.88
420.04	246.82
420.42	247.79
420.79	248.99
421.16	250.12
421.54	251.33
421.91	252.58
422.28	253.84
422.66	255.14
423.03	256.42
423.40	257.76
423.77	259.15
424.15	260.53
424.52	262.00
424.89	263.61
425.26	265.12
425.64	266.60
426.01	268.21
426.38	269.82
426.75	271.47
427.13	273.21
427.50	275.00
427.87	276.90
428.24	278.77
428.61	280.49
428.99	282.45
429.36	284.54
429.73	286.58
430.10	288.58
430.47	290.63
430.85	292.73
431.22	294.97
431.59	297.28
431.96	299.55
432.33	302.03
432.70	304.42
433.08	307.23
433.45	309.83
433.82	312.43
434.19	315.29
434.56	318.11
434.93	320.75
435.30	323.40
435.68	326.27
436.05	329.09
436.42	331.86
436.79	334.35
437.16	337.01
437.53	339.84
437.90	342.64
438.27	345.33
438.64	348.17
439.01	350.79
439.38	353.10
439.75	355.26
440.13	357.78
440.50	360.07
440.87	361.95
441.24	363.89
441.61	366.03
441.98	367.52
442.35	369.31
442.72	371.16
443.09	372.95
443.46	373.93
443.83	374.50
444.20	375.00
444.57	375.90
444.94	376.17
445.31	376.49
445.68	376.83
446.05	376.96
446.42	376.56
446.79	376.15
447.16	375.66
447.53	375.30
447.90	374.12
448.27	372.99
448.64	371.39
449.01	370.26
449.37	368.32
449.74	366.43
450.11	364.17
450.48	361.70
450.85	359.17
451.22	357.04
451.59	355.03
451.96	353.15
452.33	350.55
452.70	348.22
453.07	345.42
453.43	342.62
453.80	339.91
454.17	337.29
454.54	334.74
454.91	332.05
455.28	329.44
455.65	326.94
456.02	324.49
456.38	322.37
456.75	319.68
457.12	317.42
457.49	315.22
457.86	313.09
458.23	311.25
458.59	309.21
458.96	307.13
459.33	305.26
459.70	303.37
460.07	301.86
460.43	300.17
460.80	298.53
461.17	297.05
461.54	295.53
461.91	294.09
462.27	292.64
462.64	291.38
463.01	289.99
463.38	288.72
463.74	287.35
464.11	286.17
464.48	285.15
464.85	284.06
465.21	283.21
465.58	282.30
465.95	281.21
466.32	280.29
466.68	279.40
467.05	278.49
467.42	277.63
467.78	276.68
468.15	275.77
468.52	275.09
468.88	274.19
469.25	273.40
469.62	272.73
469.98	272.04
470.35	271.39
470.72	270.76
471.08	270.10
471.45	269.54
471.82	268.99
472.18	268.39
472.55	267.94
472.92	267.37
473.28	266.89
473.65	266.39
474.02	265.93
474.38	265.55
474.75	265.20
475.11	264.84
475.48	264.53
475.85	264.29
476.21	264.04
476.58	263.85
476.94	263.68
477.31	263.51
477.67	263.33
478.04	263.17
478.41	263.13
478.77	263.12
479.14	263.06
479.50	263.04
479.87	263.08
480.23	263.15
480.60	263.24
480.96	263.32
481.33	263.55
481.69	263.76
482.06	263.90
482.42	264.11
482.79	264.31
483.15	264.60
483.52	264.98
483.88	265.32
484.25	265.69
484.61	266.12
484.98	266.57
485.34	267.15
485.71	267.72
486.07	268.31
486.44	268.86
486.80	269.55
487.17	270.26
487.53	271.08
487.90	271.88
488.26	272.79
488.62	273.74
488.99	274.69
489.35	275.68
489.72	276.80
490.08	278.01
490.44	279.26
490.81	280.61
491.17	281.95
491.54	283.40
491.90	284.93
492.26	286.55
492.63	288.24
492.99	289.98
493.36	291.87
493.72	293.91
494.08	296.04
494.45	298.29
494.81	300.67
495.17	303.07
495.54	305.63
495.90	308.27
496.26	311.06
496.63	313.99
496.99	317.07
497.35	320.30
497.72	323.62
498.08	327.12
498.44	330.74
498.80	334.61
499.17	338.64
499.53	342.76
499.89	347.14
500.26	351.62
500.62	356.24
500.98	361.15
501.34	366.16
501.71	371.44
502.07	376.79
502.43	382.33
502.79	388.09
503.16	394.12
503.52	400.37
503.88	406.68
504.24	413.30
504.60	420.12
504.97	427.20
505.33	434.54
505.69	442.25
506.05	449.99
506.41	457.85
506.78	465.98
507.14	474.41
507.50	483.01
507.86	491.96
508.22	501.16
508.59	510.37
508.95	519.91
509.31	529.63
509.67	539.73
510.03	550.05
510.39	560.62
510.75	571.41
511.12	582.33
511.48	593.63
511.84	604.98
512.20	616.54
512.56	628.48
512.92	640.49
513.28	652.73
513.64	665.17
514.00	677.80
514.37	690.65
514.73	703.61
515.09	716.64
515.45	729.99
515.81	743.56
516.17	757.48
516.53	771.60
516.89	785.83
517.25	800.02
517.61	814.43
517.97	828.92
518.33	843.31
518.69	858.03
519.05	873.02
519.41	888.25
519.77	903.82
520.13	919.24
520.49	934.82
520.85	950.25
521.21	966.02
521.57	982.28
521.93	998.17
522.29	1014.70
522.65	1031.00
523.01	1047.14
523.37	1063.32
523.73	1079.62
524.09	1095.80
524.45	1112.09
524.81	1128.79
525.17	1145.61
525.53	1162.41
525.89	1179.42
526.25	1196.32
526.61	1212.66
526.97	1229.53
527.33	1246.01
527.68	1262.74
528.04	1279.20
528.40	1295.87
528.76	1313.01
529.12	1329.70
529.48	1346.57
529.84	1362.61
530.20	1379.31
530.56	1396.54
530.91	1413.81
531.27	1430.54
531.63	1447.08
531.99	1463.76
532.35	1479.80
532.71	1495.67
533.07	1512.12
533.42	1527.95
533.78	1544.02
534.14	1560.39
534.50	1575.70
534.86	1591.53
535.21	1606.69
535.57	1622.77
535.93	1638.32
536.29	1653.09
536.65	1668.29
537.00	1683.19
537.36	1698.52
537.72	1713.14
538.08	1727.60
538.44	1741.55
538.79	1755.53
539.15	1769.29
539.51	1783.11
539.87	1797.63
540.22	1811.38
540.58	1825.06
540.94	1838.47
541.29	1851.44
541.65	1864.29
542.01	1877.61
542.37	1890.01
542.72	1902.56
543.08	1914.30
543.44	1926.85
543.79	1938.23
544.15	1949.12
544.51	1960.75
544.87	1971.72
545.22	1982.55
545.58	1992.83
545.94	2002.49
546.29	2012.42
546.65	2022.11
547.01	2031.35
547.36	2040.05
547.72	2048.64
548.07	2056.69
548.43	2065.00
548.79	2073.05
549.14	2080.55
549.50	2087.98
549.86	2095.83
550.21	2103.07
550.57	2110.24
550.92	2116.71
551.28	2123.80
551.64	2130.91
551.99	2137.38
552.35	2143.51
552.70	2149.53
553.06	2155.35
553.41	2161.70
553.77	2167.59
554.13	2173.67
554.48	2179.69
554.84	2184.95
555.19	2190.12
555.55	2195.10
555.90	2199.55
556.26	2204.39
556.61	2209.00
556.97	2213.09
557.32	2217.18
557.68	2221.19
558.03	2225.30
558.39	2228.81
558.74	2233.22
559.10	2236.95
559.45	2240.29
559.81	2244.53
560.16	2248.25
560.52	2251.43
560.87	2254.74
561.23	2257.34
561.58	2260.23
561.94	2262.65
562.29	2264.92
562.64	2267.51
563.00	2270.03
563.35	2273.35
563.71	2276.17
564.06	2279.18
564.42	2281.90
564.77	2284.13
565.12	2286.39
565.48	2288.14
565.83	2289.78
566.19	2290.87
566.54	2291.84
566.89	2293.06
567.25	2293.36
567.60	2294.60
567.96	2295.99
568.31	2296.67
568.66	2297.53
569.02	2297.76
569.37	2297.89
569.72	2298.50
570.08	2298.37
570.43	2298.10
570.78	2296.98
571.14	2295.34
571.49	2293.86
571.84	2293.25
572.20	2291.77
572.55	2290.43
572.90	2288.59
573.26	2287.04
573.61	2285.09
573.96	2282.96
574.31	2279.77
574.67	2276.66
575.02	2272.66
575.37	2269.08
575.72	2265.01
576.08	2261.52
576.43	2258.22
576.78	2254.46
577.13	2250.98
577.49	2247.84
577.84	2244.22
578.19	2240.42
578.54	2236.67
578.90	2232.31
579.25	2226.75
579.60	2221.74
579.95	2216.59
580.30	2211.47
580.66	2206.18
581.01	2201.14
581.36	2196.09
581.71	2191.67
582.06	2187.11
582.42	2182.61
582.77	2177.27
583.12	2172.58
583.47	2167.67
583.82	2162.39
584.17	2156.88
584.53	2151.40
584.88	2145.57
585.23	2139.59
585.58	2133.98
585.93	2128.21
586.28	2123.18
586.63	2117.82
586.98	2112.48
587.34	2107.61
587.69	2102.55
588.04	2097.19
588.39	2091.36
588.74	2084.65
589.09	2078.41
589.44	2071.48
589.79	2065.20
590.14	2059.35
590.49	2052.53
590.84	2045.96
591.19	2039.71
591.54	2033.16
591.89	2025.54
592.25	2018.71
592.60	2011.44
592.95	2003.93
593.30	1996.56
593.65	1988.72
594.00	1981.62
594.35	1974.44
594.70	1966.28
595.05	1959.11
595.40	1951.86
595.75	1944.24
596.10	1937.91
596.45	1930.95
596.80	1924.63
597.15	1917.98
597.50	1910.71
597.85	1904.24
598.19	1897.59
598.54	1890.63
598.89	1883.96
599.24	1878.13
599.59	1871.34
599.94	1865.04
600.29	1858.56
600.64	1851.96
600.99	1844.59
601.34	1837.72
601.69	1830.70
602.04	1823.81
602.39	1816.41
602.74	1809.55
603.08	1802.87
603.43	1796.19
603.78	1788.91
604.13	1781.66
604.48	1774.34
604.83	1767.68
605.18	1760.74
605.53	1752.78
605.87	1744.72
606.22	1737.47
606.57	1729.46
606.92	1722.11
607.27	1714.97
607.62	1708.07
607.96	1700.70
608.31	1694.26
608.66	1686.63
609.01	1678.98
609.36	1671.54
609.70	1663.64
610.05	1655.68
610.40	1648.11
610.75	1639.87
611.10	1632.31
611.44	1624.06
611.79	1616.08
612.14	1607.56
612.49	1598.54
612.83	1590.27
613.18	1582.12
613.53	1574.13
613.88	1565.75
614.22	1557.60
614.57	1549.10
614.92	1541.27
615.27	1533.88
615.61	1525.64
615.96	1517.72
616.31	1510.29
616.65	1502.94
617.00	1495.31
617.35	1487.58
617.70	1479.15
618.04	1470.65
618.39	1462.50
618.74	1455.01
619.08	1446.90
619.43	1439.34
619.78	1432.58
620.12	1425.51
620.47	1418.13
620.82	1409.97
621.16	1402.60
621.51	1395.03
621.85	1387.47
622.20	1378.93
622.55	1370.74
622.89	1362.98
623.24	1355.47
623.59	1348.19
623.93	1340.72
624.28	1333.61
624.62	1326.39
624.97	1319.34
625.32	1312.66
625.66	1305.73
626.01	1298.54
626.35	1291.28
626.70	1283.55
627.04	1275.92
627.39	1268.16
627.73	1260.83
628.08	1254.06
628.43	1246.89
628.77	1239.58
629.12	1232.18
629.46	1225.10
629.81	1217.71
630.15	1210.55
630.50	1203.22
630.84	1195.02
631.19	1187.14
631.53	1179.74
631.88	1171.99
632.22	1164.47
632.57	1157.28
632.91	1149.88
633.26	1142.54
633.60	1135.18
633.95	1128.25
634.29	1121.20
634.64	1114.65
634.98	1107.44
635.32	1100.46
635.67	1093.92
636.01	1087.39
636.36	1080.62
636.70	1074.11
637.05	1067.69
637.39	1061.35
637.73	1054.95
638.08	1049.22
638.42	1043.42
638.77	1037.07
639.11	1030.66
639.45	1024.44
639.80	1017.81
640.14	1011.40
640.49	1004.93
640.83	998.69
641.17	992.51
641.52	986.20
641.86	979.82
642.20	974.08
642.55	967.79
642.89	961.41
643.23	954.90
643.58	949.23
643.92	943.18
644.26	937.24
644.61	931.25
644.95	925.31
645.29	918.82
645.64	912.08
645.98	905.82
646.32	900.08
646.66	894.10
647.01	888.44
647.35	882.84
647.69	877.13
648.04	871.64
648.38	865.93
648.72	860.04
649.06	854.05
649.41	848.11
649.75	842.16
650.09	836.24
650.43	830.58
650.78	824.48
651.12	818.55
651.46	812.84
651.80	807.10
652.14	801.77
652.49	796.42
652.83	791.25
653.17	785.54
653.51	779.75
653.85	774.33
654.20	768.64
654.54	762.63
654.88	756.96
655.22	751.13
655.56	745.49
655.90	740.07
656.25	734.81
656.59	729.49
656.93	724.51
657.27	719.33
657.61	713.90
657.95	708.85
658.29	703.87
658.64	698.61
658.98	693.34
659.32	687.82
659.66	682.67
660.00	677.45
660.34	672.59
660.68	667.77
661.02	662.81
661.36	658.22
661.70	653.82
662.05	649.54
662.39	645.24
662.73	640.83
663.07	636.53
663.41	632.16
663.75	627.80
664.09	623.23
664.43	618.97
664.77	614.91
665.11	610.68
665.45	606.65
665.79	602.62
666.13	598.62
666.47	594.56
666.81	590.37
667.15	586.30
667.49	582.48
667.83	578.70
668.17	574.83
668.51	570.86
668.85	566.85
669.19	563.02
669.53	559.21
669.87	555.36
670.21	551.71
670.55	548.12
670.89	544.71
671.23	541.34
671.57	537.86
671.91	534.36
672.25	530.98
672.58	527.47
672.92	524.13
673.26	520.96
673.60	517.96
673.94	514.93
674.28	512.10
674.62	509.20
674.96	506.21
675.30	503.33
675.64	500.39
675.97	497.69
676.31	494.87
676.65	491.99
676.99	489.33
677.33	486.51
677.67	483.73
678.01	480.75
678.34	477.81
678.68	474.97
679.02	472.15
679.36	469.40
679.70	466.68
680.04	463.91
680.37	461.06
680.71	458.23
681.05	455.68
681.39	452.98
681.73	450.38
682.06	447.88
682.40	445.32
682.74	442.85
683.08	440.28
683.42	437.74
683.75	435.32
684.09	432.81
684.43	430.39
684.77	427.97
685.10	425.67
685.44	423.42
685.78	421.15
686.12	418.95
686.45	416.67
686.79	414.43
687.13	412.28
687.46	410.19
687.80	408.11
688.14	405.93
688.48	403.91
688.81	401.68
689.15	399.53
689.49	397.48
689.82	395.40
690.16	393.37
690.50	391.42
690.83	389.50
691.17	387.54
691.51	385.61
691.84	383.77
692.18	381.87
692.52	379.89
692.85	378.03
693.19	376.21
693.52	374.36
693.86	372.56
694.20	370.86
694.53	369.08
694.87	367.23
695.21	365.49
695.54	363.70
695.88	361.99
696.21	360.28
696.55	358.57
696.88	356.92
697.22	355.29
697.56	353.67
697.89	352.03
698.23	350.44
698.56	348.90
698.90	347.34
699.23	345.67
699.57	344.14
699.90	342.59
700.24	341.01
700.58	339.50
700.91	338.06
701.25	336.60
701.58	335.24
701.92	333.92
702.25	332.53
702.59	331.15
702.92	329.83
703.26	328.56
703.59	327.28
703.93	326.12
704.26	324.95
704.60	323.70
704.93	322.43
705.26	321.18
705.60	319.98
705.93	318.86
706.27	317.87
706.60	316.85
706.94	315.83
707.27	314.72
707.61	313.70
707.94	312.66
708.27	311.55
708.61	310.49
708.94	309.46
709.28	308.50
709.61	307.55
709.94	306.62
710.28	305.61
710.61	304.67
710.95	303.61
711.28	302.67
711.61	301.74
711.95	300.85
712.28	299.94
712.61	299.02
712.95	298.07
713.28	297.21
713.61	296.32
713.95	295.43
714.28	294.62
714.61	293.77
714.95	292.92
715.28	292.13
715.61	291.23
715.95	290.41
716.28	289.55
716.61	288.68
716.95	287.87
717.28	287.14
717.61	286.40
717.94	285.67
718.28	284.85
718.61	284.15
718.94	283.47
719.27	282.83
719.61	282.19
719.94	281.53
720.27	280.84
720.60	280.17
720.94	279.52
721.27	278.94
721.60	278.38
721.93	277.79
722.27	277.24
722.60	276.72
722.93	276.14
723.26	275.59
723.59	275.12
723.93	274.59
724.26	274.01
724.59	273.46
724.92	272.95
725.25	272.49
725.59	271.98
725.92	271.46
726.25	270.95
726.58	270.41
726.91	269.93
727.24	269.43
727.57	268.93
727.91	268.43
728.24	267.96
728.57	267.51
728.90	267.08
729.23	266.58
729.56	266.15
729.89	265.71
730.22	265.23
730.55	264.74
730.89	264.33
731.22	263.92
731.55	263.52
731.88	263.08
732.21	262.64
732.54	262.19
732.87	261.80
733.20	261.40
733.53	261.03
733.86	260.64
734.19	260.28
734.52	259.94
734.85	259.66
735.18	259.24
735.51	258.88
735.84	258.45
736.17	258.10
736.50	257.73
736.83	257.50
737.16	257.20
737.49	256.87
737.82	256.51
738.15	256.19
738.48	255.84
738.81	255.49
739.14	255.16
739.47	254.85
739.80	254.55
740.13	254.28
740.46	253.96
740.79	253.66
741.12	253.37
741.45	253.06
741.78	252.72
742.11	252.44
742.44	252.10
742.77	251.85
743.10	251.57
743.43	251.27
743.75	250.88
744.08	250.73
744.41	250.50
744.74	250.23
745.07	249.94
745.40	249.68
745.73	249.50
746.06	249.24
746.39	248.96
746.71	248.74
747.04	248.48
747.37	248.21
747.70	247.95
748.03	247.67
748.36	247.44
748.68	247.22
749.01	246.95
749.34	246.71
749.67	246.50
750.00	246.28
750.33	246.14
750.65	245.95
750.98	245.59
751.31	245.37
751.64	245.17
751.97	245.00
752.29	244.77
752.62	244.51
752.95	244.31
753.28	244.09
753.60	243.84
753.93	243.63
754.26	243.44
754.59	243.24
754.91	243.03
755.24	242.87
755.57	242.63
755.90	242.47
756.22	242.25
756.55	242.03
756.88	241.80
757.20	241.55
757.53	241.31
757.86	241.15
758.19	240.99
758.51	240.77
758.84	240.57
759.17	240.39
759.49	240.23
759.82	240.08
760.15	239.95
760.47	239.80
760.80	239.63
761.13	239.49
761.45	239.34
761.78	239.20
762.11	239.01
762.43	238.86
762.76	238.72
763.08	238.61
763.41	238.50
763.74	238.37
764.06	238.21
764.39	238.06
764.71	237.92
765.04	237.76
765.37	237.66
765.69	237.51
766.02	237.42
766.34	237.26
766.67	237.11
767.00	236.99
767.32	236.91
767.65	236.84
767.97	236.72
768.30	236.60
768.62	236.46
768.95	236.32
769.27	236.25
769.60	236.18
769.92	236.05
770.25	235.93
770.57	235.81
770.90	235.71
771.22	235.65
771.55	235.56
771.87	235.45
772.20	235.32
772.52	235.30
772.85	235.27
773.17	235.21
773.50	235.13
773.82	235.03
774.15	234.86
774.47	234.74
774.80	234.64
775.12	234.55
775.45	234.48
775.77	234.40
776.09	234.28
776.42	234.16
776.74	234.11
777.07	234.02
777.39	233.98
777.72	233.91
778.04	233.83
778.36	233.75
778.69	233.69
779.01	233.68
779.33	233.54
779.66	233.38
779.98	233.31
780.31	233.24
780.63	233.22
780.95	233.21
781.28	233.14
781.60	233.07
781.92	233.03
782.25	232.99
782.57	232.97
782.89	232.93
783.22	232.87
783.54	232.78
783.86	232.75
784.19	232.66
784.51	232.66
784.83	232.62
785.16	232.60
785.48	232.54
785.80	232.48
786.12	232.45
786.45	232.42
786.77	232.35
787.09	232.33
