SpectraSuite Data File
++++++++++++++++++++++++++++++++++++
Date: Fri Feb 01 15:12:29 EST 2013
User: group
Dark Spectrum Present: No
Reference Spectrum Present: No
Number of Sampled Component Spectra: 1
Spectrometers: USB2E7196
Integration Time (usec): 35000 (USB2E7196)
Spectra Averaged: 100 (USB2E7196)
Boxcar Smoothing: 10 (USB2E7196)
Correct for Electrical Dark: No (USB2E7196)
Strobe/Lamp Enabled: No (USB2E7196)
Correct for Detector Non-linearity: No (USB2E7196)
Correct for Stray Light: No (USB2E7196)
Number of Pixels in Processed Spectrum: 2048
>>>>>Begin Processed Spectral Data<<<<<
339.09	0.00
339.48	215.19
339.86	216.95
340.24	218.22
340.63	219.42
341.01	222.01
341.39	222.08
341.78	223.48
342.16	224.99
342.54	224.99
342.93	213.57
343.31	224.37
343.69	224.94
344.07	225.42
344.46	225.86
344.84	226.26
345.22	226.54
345.60	226.81
345.99	227.02
346.37	227.13
346.75	227.24
347.13	227.32
347.52	227.37
347.90	227.46
348.28	227.52
348.66	227.56
349.05	227.58
349.43	227.59
349.81	227.66
350.19	227.71
350.57	227.82
350.96	227.90
351.34	227.98
351.72	228.05
352.10	228.12
352.48	228.16
352.87	228.20
353.25	228.25
353.63	228.32
354.01	228.37
354.39	228.45
354.77	228.53
355.15	228.61
355.54	228.68
355.92	228.70
356.30	228.77
356.68	228.89
357.06	228.96
357.44	229.00
357.82	229.06
358.20	229.13
358.58	229.15
358.97	229.19
359.35	229.26
359.73	229.29
360.11	229.33
360.49	229.36
360.87	229.41
361.25	229.44
361.63	229.47
362.01	229.51
362.39	229.54
362.77	229.59
363.15	229.59
363.53	229.60
363.91	229.60
364.29	229.62
364.67	229.52
365.05	229.50
365.43	229.52
365.81	229.50
366.19	229.52
366.57	229.53
366.95	229.52
367.33	229.48
367.71	229.45
368.09	229.45
368.47	229.44
368.85	229.41
369.23	229.38
369.61	229.28
369.99	229.25
370.37	229.21
370.75	229.14
371.13	229.08
371.51	229.02
371.89	228.98
372.27	228.88
372.65	228.80
373.03	228.74
373.41	228.72
373.78	228.64
374.16	228.52
374.54	228.41
374.92	228.30
375.30	228.21
375.68	228.14
376.06	228.07
376.44	227.98
376.82	227.87
377.19	227.78
377.57	227.73
377.95	227.66
378.33	227.59
378.71	227.50
379.09	227.47
379.47	227.41
379.84	227.32
380.22	227.27
380.60	227.21
380.98	227.17
381.36	227.03
381.73	226.97
382.11	226.96
382.49	226.91
382.87	226.84
383.25	226.81
383.62	226.87
384.00	226.80
384.38	226.76
384.76	226.75
385.13	226.72
385.51	226.68
385.89	226.64
386.27	226.59
386.64	226.59
387.02	226.52
387.40	226.47
387.78	226.46
388.15	226.45
388.53	226.43
388.91	226.40
389.29	226.40
389.66	226.39
390.04	226.35
390.42	226.36
390.79	226.39
391.17	226.37
391.55	226.25
391.92	226.24
392.30	226.22
392.68	226.19
393.05	226.26
393.43	226.29
393.81	226.29
394.18	226.29
394.56	226.27
394.94	226.33
395.31	226.37
395.69	226.39
396.06	226.45
396.44	226.52
396.82	226.57
397.19	226.67
397.57	226.72
397.95	226.76
398.32	226.79
398.70	226.88
399.07	226.99
399.45	227.09
399.82	227.18
400.20	227.31
400.58	227.43
400.95	227.45
401.33	227.55
401.70	227.71
402.08	227.83
402.45	227.96
402.83	228.08
403.20	228.21
403.58	228.37
403.95	228.48
404.33	228.60
404.71	228.73
405.08	228.91
405.46	229.05
405.83	229.22
406.21	229.38
406.58	229.52
406.96	229.68
407.33	229.86
407.70	230.06
408.08	230.32
408.45	230.56
408.83	230.80
409.20	231.00
409.58	231.19
409.95	231.45
410.33	231.75
410.70	231.97
411.08	232.26
411.45	232.51
411.82	232.81
412.20	233.14
412.57	233.55
412.95	233.83
413.32	234.23
413.69	234.63
414.07	235.07
414.44	235.54
414.82	235.99
415.19	236.51
415.56	237.08
415.94	237.59
416.31	238.20
416.68	238.82
417.06	239.55
417.43	240.22
417.81	241.01
418.18	241.77
418.55	242.61
418.93	243.51
419.30	244.42
419.67	245.37
420.04	246.33
420.42	247.32
420.79	248.52
421.16	249.68
421.54	250.87
421.91	252.09
422.28	253.34
422.66	254.66
423.03	255.97
423.40	257.28
423.77	258.68
424.15	260.11
424.52	261.58
424.89	263.16
425.26	264.70
425.64	266.09
426.01	267.66
426.38	269.31
426.75	270.97
427.13	272.70
427.50	274.55
427.87	276.40
428.24	278.23
428.61	279.98
428.99	281.90
429.36	284.00
429.73	286.05
430.10	288.04
430.47	290.11
430.85	292.24
431.22	294.48
431.59	296.91
431.96	299.13
432.33	301.65
432.70	304.03
433.08	306.86
433.45	309.48
433.82	312.13
434.19	315.03
434.56	317.85
434.93	320.56
435.30	323.16
435.68	326.08
436.05	328.91
436.42	331.70
436.79	334.22
437.16	336.97
437.53	339.82
437.90	342.67
438.27	345.44
438.64	348.30
439.01	350.95
439.38	353.18
439.75	355.43
440.13	357.96
440.50	360.36
440.87	362.27
441.24	364.30
441.61	366.45
441.98	367.97
442.35	369.77
442.72	371.60
443.09	373.44
443.46	374.49
443.83	375.12
444.20	375.66
444.57	376.51
444.94	376.80
445.31	377.15
445.68	377.52
446.05	377.57
446.42	377.17
446.79	376.72
447.16	376.28
447.53	375.94
447.90	374.76
448.27	373.59
448.64	372.00
449.01	370.85
449.37	368.85
449.74	366.95
450.11	364.70
450.48	362.23
450.85	359.70
451.22	357.49
451.59	355.47
451.96	353.48
452.33	350.89
452.70	348.50
453.07	345.70
453.43	342.79
453.80	340.05
454.17	337.38
454.54	334.83
454.91	332.07
455.28	329.38
455.65	326.85
456.02	324.41
456.38	322.24
456.75	319.52
457.12	317.25
457.49	315.02
457.86	312.83
458.23	310.96
458.59	308.91
458.96	306.83
459.33	304.97
459.70	303.10
460.07	301.55
460.43	299.81
460.80	298.10
461.17	296.66
461.54	295.14
461.91	293.71
462.27	292.28
462.64	291.01
463.01	289.64
463.38	288.39
463.74	286.96
464.11	285.77
464.48	284.76
464.85	283.64
465.21	282.76
465.58	281.82
465.95	280.71
466.32	279.79
466.68	278.85
467.05	277.94
467.42	277.07
467.78	276.15
468.15	275.25
468.52	274.60
468.88	273.73
469.25	272.92
469.62	272.27
469.98	271.56
470.35	270.94
470.72	270.29
471.08	269.60
471.45	269.05
471.82	268.49
472.18	267.88
472.55	267.47
472.92	266.93
473.28	266.41
473.65	265.96
474.02	265.52
474.38	265.18
474.75	264.84
475.11	264.46
475.48	264.19
475.85	263.98
476.21	263.73
476.58	263.59
476.94	263.46
477.31	263.28
477.67	263.13
478.04	263.00
478.41	262.94
478.77	262.99
479.14	262.91
479.50	262.92
479.87	262.99
480.23	263.04
480.60	263.12
480.96	263.22
481.33	263.41
481.69	263.63
482.06	263.79
482.42	264.01
482.79	264.29
483.15	264.64
483.52	265.01
483.88	265.37
484.25	265.71
484.61	266.13
484.98	266.59
485.34	267.13
485.71	267.73
486.07	268.34
486.44	268.90
486.80	269.62
487.17	270.35
487.53	271.17
487.90	272.03
488.26	272.95
488.62	273.95
488.99	274.91
489.35	275.93
489.72	277.08
490.08	278.23
490.44	279.45
490.81	280.76
491.17	282.11
491.54	283.61
491.90	285.19
492.26	286.83
492.63	288.52
492.99	290.34
493.36	292.24
493.72	294.28
494.08	296.33
494.45	298.59
494.81	300.94
495.17	303.37
495.54	305.96
495.90	308.67
496.26	311.46
496.63	314.41
496.99	317.49
497.35	320.71
497.72	324.17
498.08	327.68
498.44	331.35
498.80	335.22
499.17	339.22
499.53	343.33
499.89	347.69
500.26	352.20
500.62	356.80
500.98	361.74
501.34	366.81
501.71	372.17
502.07	377.60
502.43	383.22
502.79	388.95
503.16	395.02
503.52	401.33
503.88	407.68
504.24	414.32
504.60	421.24
504.97	428.34
505.33	435.62
505.69	443.31
506.05	451.04
506.41	458.96
506.78	467.14
507.14	475.58
507.50	484.35
507.86	493.42
508.22	502.61
508.59	511.83
508.95	521.42
509.31	531.19
509.67	541.29
510.03	551.58
510.39	562.15
510.75	572.96
511.12	583.84
511.48	595.12
511.84	606.60
512.20	618.04
512.56	630.01
512.92	642.22
513.28	654.55
513.64	667.08
514.00	679.85
514.37	692.76
514.73	705.85
515.09	718.87
515.45	732.11
515.81	745.75
516.17	759.72
516.53	773.86
516.89	788.10
517.25	802.30
517.61	816.77
517.97	831.33
518.33	845.71
518.69	860.52
519.05	875.64
519.41	890.88
519.77	906.56
520.13	922.10
520.49	937.55
520.85	953.07
521.21	968.82
521.57	985.03
521.93	1000.95
522.29	1017.40
522.65	1033.70
523.01	1050.09
523.37	1066.14
523.73	1082.38
524.09	1098.60
524.45	1115.00
524.81	1131.67
525.17	1148.53
525.53	1165.48
525.89	1182.46
526.25	1199.17
526.61	1215.60
526.97	1232.34
527.33	1248.70
527.68	1265.33
528.04	1281.83
528.40	1298.47
528.76	1315.62
529.12	1332.25
529.48	1349.12
529.84	1365.13
530.20	1381.83
530.56	1398.84
530.91	1416.28
531.27	1433.07
531.63	1449.46
531.99	1466.09
532.35	1482.13
532.71	1498.08
533.07	1514.36
533.42	1530.31
533.78	1546.60
534.14	1562.85
534.50	1578.21
534.86	1594.28
535.21	1609.51
535.57	1625.49
535.93	1641.06
536.29	1655.98
536.65	1671.33
537.00	1686.10
537.36	1701.48
537.72	1716.11
538.08	1730.61
538.44	1744.52
538.79	1758.55
539.15	1772.39
539.51	1786.31
539.87	1800.74
540.22	1814.57
540.58	1828.59
540.94	1842.05
541.29	1855.09
541.65	1868.05
542.01	1881.43
542.37	1893.68
542.72	1906.14
543.08	1917.97
543.44	1930.51
543.79	1941.77
544.15	1952.59
544.51	1964.21
544.87	1975.31
545.22	1986.19
545.58	1996.31
545.94	2006.11
546.29	2015.99
546.65	2025.81
547.01	2034.96
547.36	2043.71
547.72	2052.18
548.07	2059.92
548.43	2068.11
548.79	2076.06
549.14	2083.51
549.50	2090.75
549.86	2098.58
550.21	2106.00
550.57	2113.26
550.92	2119.72
551.28	2126.91
551.64	2133.92
551.99	2140.49
552.35	2146.69
552.70	2152.75
553.06	2158.88
553.41	2165.27
553.77	2171.20
554.13	2177.32
554.48	2183.48
554.84	2188.95
555.19	2194.33
555.55	2199.33
555.90	2203.78
556.26	2208.74
556.61	2213.53
556.97	2217.81
557.32	2221.99
557.68	2226.04
558.03	2230.44
558.39	2234.29
558.74	2238.72
559.10	2242.69
559.45	2246.45
559.81	2250.80
560.16	2254.59
560.52	2257.73
560.87	2261.07
561.23	2263.78
561.58	2266.75
561.94	2269.18
562.29	2271.66
562.64	2274.27
563.00	2277.00
563.35	2280.47
563.71	2283.61
564.06	2286.73
564.42	2289.54
564.77	2291.90
565.12	2294.23
565.48	2295.87
565.83	2297.49
566.19	2298.79
566.54	2299.82
566.89	2300.92
567.25	2301.41
567.60	2302.83
567.96	2304.44
568.31	2305.23
568.66	2306.32
569.02	2306.79
569.37	2307.11
569.72	2307.80
570.08	2307.83
570.43	2307.78
570.78	2307.08
571.14	2305.41
571.49	2304.09
571.84	2303.82
572.20	2302.60
572.55	2301.33
572.90	2299.69
573.26	2298.28
573.61	2296.46
573.96	2294.43
574.31	2291.22
574.67	2287.88
575.02	2284.05
575.37	2280.48
575.72	2276.59
576.08	2273.01
576.43	2269.61
576.78	2265.83
577.13	2262.50
577.49	2259.23
577.84	2255.64
578.19	2251.90
578.54	2247.94
578.90	2243.48
579.25	2237.71
579.60	2232.66
579.95	2227.54
580.30	2222.58
580.66	2217.38
581.01	2212.22
581.36	2207.14
581.71	2202.80
582.06	2198.35
582.42	2193.77
582.77	2188.50
583.12	2183.74
583.47	2178.94
583.82	2173.73
584.17	2168.43
584.53	2162.85
584.88	2157.18
585.23	2151.19
585.58	2145.54
585.93	2140.05
586.28	2135.36
586.63	2130.20
586.98	2124.96
587.34	2120.29
587.69	2115.22
588.04	2109.76
588.39	2104.17
588.74	2097.62
589.09	2091.53
589.44	2084.60
589.79	2078.49
590.14	2072.76
590.49	2066.09
590.84	2059.64
591.19	2053.57
591.54	2046.96
591.89	2039.39
592.25	2032.35
592.60	2025.11
592.95	2017.33
593.30	2010.02
593.65	2002.17
594.00	1995.06
594.35	1987.81
594.70	1979.57
595.05	1972.18
595.40	1964.84
595.75	1957.19
596.10	1950.83
596.45	1943.86
596.80	1937.72
597.15	1930.93
597.50	1923.85
597.85	1917.45
598.19	1910.75
598.54	1903.55
598.89	1896.81
599.24	1890.96
599.59	1884.35
599.94	1877.98
600.29	1871.75
600.64	1865.18
600.99	1857.63
601.34	1850.73
601.69	1843.73
602.04	1836.76
602.39	1829.45
602.74	1822.63
603.08	1815.83
603.43	1809.12
603.78	1801.87
604.13	1794.44
604.48	1787.11
604.83	1780.14
605.18	1773.09
605.53	1765.11
605.87	1757.08
606.22	1749.88
606.57	1741.96
606.92	1734.67
607.27	1727.46
607.62	1720.54
607.96	1713.11
608.31	1706.41
608.66	1698.76
609.01	1691.12
609.36	1683.57
609.70	1675.56
610.05	1667.41
610.40	1659.76
610.75	1651.35
611.10	1643.64
611.44	1635.44
611.79	1627.44
612.14	1618.84
612.49	1609.77
612.83	1601.45
613.18	1593.44
613.53	1585.25
613.88	1576.66
614.22	1568.34
614.57	1559.89
614.92	1551.83
615.27	1544.27
615.61	1536.03
615.96	1528.14
616.31	1520.51
616.65	1513.21
617.00	1505.53
617.35	1497.87
617.70	1489.45
618.04	1481.01
618.39	1472.82
618.74	1465.13
619.08	1456.89
619.43	1449.22
619.78	1442.25
620.12	1435.03
620.47	1427.44
620.82	1419.33
621.16	1412.02
621.51	1404.57
621.85	1396.95
622.20	1388.38
622.55	1380.13
622.89	1372.34
623.24	1364.71
623.59	1357.39
623.93	1349.87
624.28	1342.65
624.62	1335.12
624.97	1328.00
625.32	1321.34
625.66	1314.23
626.01	1307.10
626.35	1299.60
626.70	1292.00
627.04	1284.19
627.39	1276.35
627.73	1268.96
628.08	1262.09
628.43	1254.64
628.77	1247.10
629.12	1239.53
629.46	1232.39
629.81	1224.93
630.15	1217.71
630.50	1210.35
630.84	1202.27
631.19	1194.43
631.53	1187.04
631.88	1179.51
632.22	1171.97
632.57	1164.70
632.91	1157.30
633.26	1149.92
633.60	1142.78
633.95	1135.70
634.29	1128.81
634.64	1122.22
634.98	1114.87
635.32	1107.82
635.67	1101.34
636.01	1094.72
636.36	1087.92
636.70	1081.54
637.05	1074.98
637.39	1068.53
637.73	1061.95
638.08	1056.04
638.42	1050.05
638.77	1043.63
639.11	1037.16
639.45	1030.83
639.80	1024.07
640.14	1017.59
640.49	1011.05
640.83	1004.70
641.17	998.39
641.52	992.10
641.86	985.70
642.20	979.84
642.55	973.39
642.89	966.90
643.23	960.32
643.58	954.56
643.92	948.25
644.26	942.12
644.61	936.18
644.95	930.16
645.29	923.50
645.64	916.71
645.98	910.36
646.32	904.46
646.66	898.37
647.01	892.72
647.35	887.12
647.69	881.34
648.04	875.80
648.38	870.03
648.72	864.00
649.06	857.85
649.41	851.92
649.75	846.00
650.09	840.05
650.43	834.34
650.78	828.19
651.12	822.28
651.46	816.61
651.80	810.84
652.14	805.49
652.49	800.14
652.83	795.07
653.17	789.36
653.51	783.68
653.85	778.31
654.20	772.62
654.54	766.54
654.88	760.78
655.22	754.93
655.56	749.28
655.90	743.89
656.25	738.68
656.59	733.46
656.93	728.36
657.27	723.25
657.61	717.81
657.95	712.76
658.29	707.72
658.64	702.54
658.98	697.26
659.32	691.82
659.66	686.66
660.00	681.31
660.34	676.43
660.68	671.53
661.02	666.54
661.36	661.82
661.70	657.41
662.05	653.04
662.39	648.63
662.73	644.18
663.07	639.76
663.41	635.40
663.75	630.90
664.09	626.36
664.43	621.98
664.77	617.90
665.11	613.73
665.45	609.54
665.79	605.45
666.13	601.26
666.47	597.18
666.81	593.03
667.15	588.94
667.49	585.05
667.83	581.26
668.17	577.31
668.51	573.27
668.85	569.32
669.19	565.51
669.53	561.72
669.87	557.87
670.21	554.19
670.55	550.51
670.89	547.09
671.23	543.70
671.57	540.22
671.91	536.69
672.25	533.19
672.58	529.73
672.92	526.35
673.26	523.23
673.60	520.12
673.94	517.01
674.28	514.09
674.62	511.16
674.96	508.04
675.30	505.16
675.64	502.25
675.97	499.43
676.31	496.63
676.65	493.67
676.99	490.95
677.33	488.13
677.67	485.37
678.01	482.32
678.34	479.34
678.68	476.47
679.02	473.62
679.36	470.86
679.70	468.15
680.04	465.38
680.37	462.52
680.71	459.71
681.05	457.15
681.39	454.48
681.73	451.85
682.06	449.29
682.40	446.73
682.74	444.20
683.08	441.68
683.42	439.06
683.75	436.62
684.09	434.09
684.43	431.60
684.77	429.13
685.10	426.82
685.44	424.55
685.78	422.25
686.12	420.10
686.45	417.79
686.79	415.51
687.13	413.35
687.46	411.19
687.80	409.02
688.14	406.82
688.48	404.74
688.81	402.46
689.15	400.35
689.49	398.24
689.82	396.21
690.16	394.10
690.50	392.15
690.83	390.24
691.17	388.24
691.51	386.33
691.84	384.52
692.18	382.58
692.52	380.59
692.85	378.74
693.19	376.82
693.52	375.01
693.86	373.21
694.20	371.41
694.53	369.66
694.87	367.88
695.21	366.09
695.54	364.30
695.88	362.61
696.21	360.97
696.55	359.29
696.88	357.57
697.22	356.00
697.56	354.40
697.89	352.73
698.23	351.20
698.56	349.63
698.90	348.00
699.23	346.41
699.57	344.85
699.90	343.30
700.24	341.80
700.58	340.29
700.91	338.85
701.25	337.39
701.58	336.03
701.92	334.65
702.25	333.28
702.59	331.91
702.92	330.60
703.26	329.24
703.59	327.94
703.93	326.78
704.26	325.53
704.60	324.23
704.93	322.96
705.26	321.71
705.60	320.57
705.93	319.46
706.27	318.41
706.60	317.39
706.94	316.31
707.27	315.16
707.61	314.11
707.94	313.06
708.27	312.03
708.61	310.94
708.94	309.98
709.28	309.05
709.61	308.10
709.94	307.16
710.28	306.18
710.61	305.22
710.95	304.17
711.28	303.21
711.61	302.28
711.95	301.37
712.28	300.41
712.61	299.42
712.95	298.45
713.28	297.60
713.61	296.69
713.95	295.82
714.28	295.01
714.61	294.14
714.95	293.32
715.28	292.44
715.61	291.55
715.95	290.66
716.28	289.74
716.61	288.94
716.95	288.09
717.28	287.33
717.61	286.55
717.94	285.81
718.28	285.02
718.61	284.28
718.94	283.60
719.27	282.91
719.61	282.32
719.94	281.64
720.27	280.89
720.60	280.28
720.94	279.63
721.27	278.99
721.60	278.41
721.93	277.81
722.27	277.27
722.60	276.70
722.93	276.16
723.26	275.64
723.59	275.04
723.93	274.53
724.26	273.98
724.59	273.43
724.92	272.90
725.25	272.37
725.59	271.85
725.92	271.33
726.25	270.84
726.58	270.27
726.91	269.79
727.24	269.33
727.57	268.80
727.91	268.28
728.24	267.82
728.57	267.32
728.90	266.86
729.23	266.34
729.56	265.93
729.89	265.46
730.22	265.00
730.55	264.52
730.89	264.04
731.22	263.57
731.55	263.11
731.88	262.67
732.21	262.27
732.54	261.82
732.87	261.36
733.20	260.97
733.53	260.56
733.86	260.21
734.19	259.77
734.52	259.41
734.85	259.13
735.18	258.69
735.51	258.35
735.84	257.99
736.17	257.66
736.50	257.22
736.83	256.95
737.16	256.58
737.49	256.27
737.82	255.91
738.15	255.61
738.48	255.29
738.81	254.98
739.14	254.65
739.47	254.39
739.80	254.12
740.13	253.82
740.46	253.54
740.79	253.21
741.12	252.92
741.45	252.58
741.78	252.22
742.11	251.96
742.44	251.64
742.77	251.34
743.10	251.04
743.43	250.77
743.75	250.43
744.08	250.28
744.41	249.99
744.74	249.78
745.07	249.48
745.40	249.25
745.73	249.06
746.06	248.83
746.39	248.56
746.71	248.27
747.04	248.01
747.37	247.75
747.70	247.49
748.03	247.24
748.36	247.07
748.68	246.83
749.01	246.57
749.34	246.34
749.67	246.11
750.00	245.90
750.33	245.72
750.65	245.49
750.98	245.17
751.31	244.95
751.64	244.69
751.97	244.58
752.29	244.37
752.62	244.06
752.95	243.84
753.28	243.63
753.60	243.45
753.93	243.28
754.26	243.08
754.59	242.90
754.91	242.69
755.24	242.48
755.57	242.31
755.90	242.14
756.22	241.94
756.55	241.77
756.88	241.57
757.20	241.34
757.53	241.16
757.86	241.00
758.19	240.87
758.51	240.70
758.84	240.45
759.17	240.24
759.49	240.13
759.82	240.02
760.15	239.84
760.47	239.68
760.80	239.49
761.13	239.36
761.45	239.18
761.78	239.08
762.11	238.94
762.43	238.79
762.76	238.65
763.08	238.51
763.41	238.39
763.74	238.28
764.06	238.15
764.39	238.00
764.71	237.84
765.04	237.68
765.37	237.56
765.69	237.42
766.02	237.31
766.34	237.14
766.67	236.93
767.00	236.82
767.32	236.75
767.65	236.69
767.97	236.53
768.30	236.40
768.62	236.27
768.95	236.16
769.27	236.04
769.60	235.93
769.92	235.83
770.25	235.68
770.57	235.59
770.90	235.47
771.22	235.38
771.55	235.29
771.87	235.23
772.20	235.12
772.52	235.11
772.85	235.13
773.17	235.03
773.50	234.95
773.82	234.85
774.15	234.69
774.47	234.57
774.80	234.51
775.12	234.46
775.45	234.39
775.77	234.27
776.09	234.17
776.42	234.06
776.74	233.99
777.07	233.91
777.39	233.79
777.72	233.72
778.04	233.65
778.36	233.56
778.69	233.49
779.01	233.43
779.33	233.27
779.66	233.10
779.98	233.05
780.31	233.00
780.63	233.00
780.95	232.93
781.28	232.84
781.60	232.75
781.92	232.69
782.25	232.63
782.57	232.57
782.89	232.53
783.22	232.52
783.54	232.44
783.86	232.41
784.19	232.40
784.51	232.39
784.83	232.35
785.16	232.29
785.48	232.23
785.80	232.22
786.12	232.18
786.45	232.16
786.77	232.13
787.09	232.08
