SpectraSuite Data File
++++++++++++++++++++++++++++++++++++
Date: Fri Feb 01 15:00:11 EST 2013
User: group
Dark Spectrum Present: No
Reference Spectrum Present: No
Number of Sampled Component Spectra: 1
Spectrometers: USB2E7196
Integration Time (usec): 35000 (USB2E7196)
Spectra Averaged: 100 (USB2E7196)
Boxcar Smoothing: 10 (USB2E7196)
Correct for Electrical Dark: No (USB2E7196)
Strobe/Lamp Enabled: No (USB2E7196)
Correct for Detector Non-linearity: No (USB2E7196)
Correct for Stray Light: No (USB2E7196)
Number of Pixels in Processed Spectrum: 2048
>>>>>Begin Processed Spectral Data<<<<<
339.09	0.00
339.48	215.09
339.86	216.97
340.24	218.21
340.63	219.06
341.01	222.07
341.39	222.68
341.78	223.54
342.16	224.51
342.54	225.38
342.93	213.52
343.31	224.30
343.69	224.84
344.07	225.29
344.46	225.73
344.84	226.13
345.22	226.35
345.60	226.54
345.99	226.73
346.37	226.87
346.75	226.95
347.13	227.00
347.52	227.04
347.90	227.13
348.28	227.15
348.66	227.21
349.05	227.19
349.43	227.24
349.81	227.25
350.19	227.30
350.57	227.36
350.96	227.44
351.34	227.57
351.72	227.65
352.10	227.76
352.48	227.81
352.87	227.88
353.25	227.97
353.63	228.07
354.01	228.13
354.39	228.19
354.77	228.28
355.15	228.40
355.54	228.48
355.92	228.50
356.30	228.59
356.68	228.74
357.06	228.82
357.44	228.83
357.82	228.92
358.20	228.97
358.58	229.02
358.97	229.09
359.35	229.13
359.73	229.22
360.11	229.28
360.49	229.35
360.87	229.37
361.25	229.40
361.63	229.43
362.01	229.48
362.39	229.51
362.77	229.56
363.15	229.54
363.53	229.58
363.91	229.62
364.29	229.65
364.67	229.55
365.05	229.58
365.43	229.66
365.81	229.65
366.19	229.69
366.57	229.72
366.95	229.70
367.33	229.69
367.71	229.67
368.09	229.65
368.47	229.62
368.85	229.60
369.23	229.62
369.61	229.57
369.99	229.55
370.37	229.53
370.75	229.55
371.13	229.51
371.51	229.45
371.89	229.42
372.27	229.39
372.65	229.35
373.03	229.31
373.41	229.21
373.78	229.18
374.16	229.09
374.54	229.03
374.92	228.95
375.30	228.87
375.68	228.79
376.06	228.72
376.44	228.61
376.82	228.56
377.19	228.49
377.57	228.44
377.95	228.35
378.33	228.26
378.71	228.13
379.09	228.07
379.47	227.98
379.84	227.88
380.22	227.79
380.60	227.70
380.98	227.60
381.36	227.51
381.73	227.40
382.11	227.34
382.49	227.25
382.87	227.18
383.25	227.10
383.62	227.12
384.00	227.05
384.38	226.99
384.76	226.96
385.13	226.91
385.51	226.85
385.89	226.79
386.27	226.76
386.64	226.69
387.02	226.63
387.40	226.59
387.78	226.53
388.15	226.50
388.53	226.45
388.91	226.42
389.29	226.39
389.66	226.39
390.04	226.38
390.42	226.35
390.79	226.36
391.17	226.35
391.55	226.28
391.92	226.27
392.30	226.30
392.68	226.27
393.05	226.29
393.43	226.30
393.81	226.33
394.18	226.33
394.56	226.36
394.94	226.43
395.31	226.47
395.69	226.55
396.06	226.59
396.44	226.64
396.82	226.68
397.19	226.80
397.57	226.85
397.95	226.89
398.32	226.94
398.70	226.98
399.07	227.10
399.45	227.15
399.82	227.22
400.20	227.27
400.58	227.33
400.95	227.38
401.33	227.50
401.70	227.65
402.08	227.74
402.45	227.84
402.83	227.98
403.20	228.08
403.58	228.20
403.95	228.33
404.33	228.48
404.71	228.62
405.08	228.78
405.46	228.93
405.83	229.10
406.21	229.30
406.58	229.48
406.96	229.63
407.33	229.83
407.70	230.06
408.08	230.34
408.45	230.61
408.83	230.88
409.20	231.09
409.58	231.29
409.95	231.56
410.33	231.82
410.70	232.06
411.08	232.39
411.45	232.71
411.82	233.01
412.20	233.37
412.57	233.81
412.95	234.12
413.32	234.52
413.69	234.93
414.07	235.34
414.44	235.82
414.82	236.29
415.19	236.83
415.56	237.35
415.94	237.86
416.31	238.48
416.68	239.07
417.06	239.78
417.43	240.45
417.81	241.20
418.18	242.00
418.55	242.84
418.93	243.69
419.30	244.59
419.67	245.56
420.04	246.49
420.42	247.49
420.79	248.64
421.16	249.81
421.54	251.00
421.91	252.23
422.28	253.46
422.66	254.80
423.03	256.09
423.40	257.43
423.77	258.86
424.15	260.27
424.52	261.73
424.89	263.35
425.26	264.91
425.64	266.33
426.01	267.92
426.38	269.54
426.75	271.19
427.13	272.89
427.50	274.69
427.87	276.61
428.24	278.44
428.61	280.22
428.99	282.17
429.36	284.27
429.73	286.31
430.10	288.36
430.47	290.42
430.85	292.56
431.22	294.81
431.59	297.17
431.96	299.41
432.33	301.95
432.70	304.31
433.08	307.14
433.45	309.83
433.82	312.45
434.19	315.39
434.56	318.27
434.93	320.94
435.30	323.56
435.68	326.44
436.05	329.27
436.42	332.05
436.79	334.52
437.16	337.21
437.53	340.06
437.90	342.87
438.27	345.60
438.64	348.45
439.01	351.06
439.38	353.35
439.75	355.53
440.13	358.01
440.50	360.40
440.87	362.23
441.24	364.15
441.61	366.30
441.98	367.76
442.35	369.51
442.72	371.38
443.09	373.21
443.46	374.18
443.83	374.76
444.20	375.29
444.57	376.11
444.94	376.41
445.31	376.75
445.68	377.08
446.05	377.20
446.42	376.79
446.79	376.36
447.16	375.89
447.53	375.58
447.90	374.44
448.27	373.25
448.64	371.64
449.01	370.51
449.37	368.55
449.74	366.67
450.11	364.44
450.48	361.94
450.85	359.39
451.22	357.27
451.59	355.28
451.96	353.34
452.33	350.79
452.70	348.46
453.07	345.63
453.43	342.76
453.80	339.97
454.17	337.28
454.54	334.74
454.91	332.01
455.28	329.34
455.65	326.82
456.02	324.37
456.38	322.26
456.75	319.57
457.12	317.31
457.49	315.07
457.86	312.90
458.23	311.06
458.59	309.01
458.96	306.91
459.33	305.02
459.70	303.14
460.07	301.61
460.43	299.86
460.80	298.21
461.17	296.78
461.54	295.26
461.91	293.83
462.27	292.36
462.64	291.14
463.01	289.77
463.38	288.45
463.74	287.03
464.11	285.91
464.48	284.89
464.85	283.77
465.21	282.89
465.58	281.96
465.95	280.87
466.32	279.91
466.68	278.99
467.05	278.09
467.42	277.18
467.78	276.27
468.15	275.40
468.52	274.76
468.88	273.88
469.25	273.09
469.62	272.47
469.98	271.78
470.35	271.13
470.72	270.51
471.08	269.89
471.45	269.40
471.82	268.79
472.18	268.19
472.55	267.73
472.92	267.22
473.28	266.76
473.65	266.25
474.02	265.85
474.38	265.46
474.75	265.12
475.11	264.79
475.48	264.50
475.85	264.23
476.21	263.97
476.58	263.76
476.94	263.63
477.31	263.42
477.67	263.27
478.04	263.18
478.41	263.10
478.77	263.13
479.14	263.03
479.50	263.02
479.87	263.07
480.23	263.15
480.60	263.18
480.96	263.24
481.33	263.45
481.69	263.62
482.06	263.81
482.42	264.00
482.79	264.26
483.15	264.56
483.52	264.93
483.88	265.28
484.25	265.71
484.61	266.12
484.98	266.59
485.34	267.14
485.71	267.69
486.07	268.30
486.44	268.87
486.80	269.58
487.17	270.32
487.53	271.15
487.90	272.02
488.26	272.99
488.62	273.97
488.99	274.98
489.35	276.03
489.72	277.19
490.08	278.41
490.44	279.61
490.81	280.93
491.17	282.28
491.54	283.76
491.90	285.24
492.26	286.88
492.63	288.61
492.99	290.40
493.36	292.28
493.72	294.33
494.08	296.38
494.45	298.61
494.81	300.94
495.17	303.38
495.54	305.91
495.90	308.50
496.26	311.25
496.63	314.11
496.99	317.18
497.35	320.41
497.72	323.75
498.08	327.26
498.44	330.90
498.80	334.80
499.17	338.78
499.53	342.93
499.89	347.26
500.26	351.69
500.62	356.28
500.98	361.20
501.34	366.20
501.71	371.51
502.07	376.92
502.43	382.48
502.79	388.24
503.16	394.31
503.52	400.65
503.88	407.05
504.24	413.68
504.60	420.52
504.97	427.61
505.33	434.87
505.69	442.57
506.05	450.31
506.41	458.17
506.78	466.28
507.14	474.72
507.50	483.40
507.86	492.42
508.22	501.62
508.59	510.77
508.95	520.33
509.31	530.11
509.67	540.17
510.03	550.48
510.39	561.05
510.75	571.83
511.12	582.73
511.48	593.96
511.84	605.38
512.20	616.82
512.56	628.72
512.92	640.98
513.28	653.23
513.64	665.69
514.00	678.41
514.37	691.37
514.73	704.44
515.09	717.53
515.45	730.85
515.81	744.45
516.17	758.45
516.53	772.68
516.89	786.85
517.25	801.15
517.61	815.57
517.97	830.02
518.33	844.38
518.69	859.14
519.05	874.20
519.41	889.48
519.77	905.17
520.13	920.63
520.49	936.01
520.85	951.53
521.21	967.26
521.57	983.56
521.93	999.41
522.29	1015.91
522.65	1032.27
523.01	1048.53
523.37	1064.68
523.73	1080.97
524.09	1097.03
524.45	1113.53
524.81	1130.11
525.17	1147.05
525.53	1164.02
525.89	1181.00
526.25	1197.92
526.61	1214.33
526.97	1231.14
527.33	1247.66
527.68	1264.39
528.04	1280.93
528.40	1297.66
528.76	1314.80
529.12	1331.48
529.48	1348.41
529.84	1364.53
530.20	1381.18
530.56	1398.23
530.91	1415.62
531.27	1432.45
531.63	1449.10
531.99	1465.63
532.35	1481.72
532.71	1497.74
533.07	1514.20
533.42	1530.27
533.78	1546.40
534.14	1562.91
534.50	1578.24
534.86	1594.32
535.21	1609.52
535.57	1625.65
535.93	1641.18
536.29	1656.15
536.65	1671.34
537.00	1686.27
537.36	1701.69
537.72	1716.42
538.08	1730.98
538.44	1744.88
538.79	1758.75
539.15	1772.63
539.51	1786.56
539.87	1800.97
540.22	1814.82
540.58	1828.63
540.94	1842.06
541.29	1855.07
541.65	1867.69
542.01	1881.06
542.37	1893.33
542.72	1905.79
543.08	1917.56
543.44	1930.02
543.79	1941.22
544.15	1952.12
544.51	1963.71
544.87	1974.60
545.22	1985.33
545.58	1995.59
545.94	2005.44
546.29	2015.46
546.65	2025.12
547.01	2034.28
547.36	2043.11
547.72	2051.47
548.07	2059.24
548.43	2067.45
548.79	2075.56
549.14	2083.19
549.50	2090.58
549.86	2098.33
550.21	2105.75
550.57	2112.89
550.92	2119.51
551.28	2126.65
551.64	2133.94
551.99	2140.41
552.35	2146.61
552.70	2152.73
553.06	2158.68
553.41	2164.98
553.77	2171.10
554.13	2177.19
554.48	2183.31
554.84	2188.61
555.19	2193.96
555.55	2199.02
555.90	2203.28
556.26	2207.98
556.61	2212.67
556.97	2216.75
557.32	2220.87
557.68	2224.99
558.03	2229.30
558.39	2233.03
558.74	2237.58
559.10	2241.22
559.45	2244.91
559.81	2249.28
560.16	2253.07
560.52	2256.15
560.87	2259.56
561.23	2261.96
561.58	2264.83
561.94	2267.27
562.29	2269.68
562.64	2272.24
563.00	2274.91
563.35	2278.36
563.71	2281.36
564.06	2284.53
564.42	2287.40
564.77	2289.79
565.12	2291.80
565.48	2293.54
565.83	2295.11
566.19	2296.32
566.54	2297.21
566.89	2298.17
567.25	2298.36
567.60	2299.54
567.96	2301.14
568.31	2301.77
568.66	2302.72
569.02	2303.24
569.37	2303.49
569.72	2304.15
570.08	2304.12
570.43	2303.94
570.78	2303.19
571.14	2301.65
571.49	2300.17
571.84	2299.72
572.20	2298.26
572.55	2297.23
572.90	2295.65
573.26	2294.23
573.61	2292.30
573.96	2290.32
574.31	2287.11
574.67	2284.06
575.02	2280.26
575.37	2276.63
575.72	2272.72
576.08	2269.52
576.43	2266.02
576.78	2262.13
577.13	2258.73
577.49	2255.57
577.84	2251.95
578.19	2248.36
578.54	2244.49
578.90	2239.99
579.25	2234.45
579.60	2229.44
579.95	2224.26
580.30	2218.99
580.66	2213.57
581.01	2208.67
581.36	2203.64
581.71	2199.33
582.06	2194.75
582.42	2190.18
582.77	2184.89
583.12	2180.20
583.47	2175.12
583.82	2169.88
584.17	2164.55
584.53	2158.96
584.88	2153.17
585.23	2147.26
585.58	2141.54
585.93	2136.04
586.28	2131.27
586.63	2126.04
586.98	2120.91
587.34	2116.14
587.69	2111.22
588.04	2105.94
588.39	2099.98
588.74	2093.45
589.09	2087.31
589.44	2080.42
589.79	2074.34
590.14	2068.67
590.49	2061.94
590.84	2055.46
591.19	2049.45
591.54	2042.96
591.89	2035.38
592.25	2028.45
592.60	2021.11
592.95	2013.19
593.30	2005.71
593.65	1997.94
594.00	1990.74
594.35	1983.50
594.70	1975.24
595.05	1967.82
595.40	1960.45
595.75	1952.98
596.10	1946.54
596.45	1939.61
596.80	1933.33
597.15	1926.56
597.50	1919.32
597.85	1912.90
598.19	1905.98
598.54	1898.76
598.89	1892.14
599.24	1886.29
599.59	1879.51
599.94	1873.31
600.29	1867.17
600.64	1860.50
600.99	1852.99
601.34	1846.13
601.69	1838.93
602.04	1831.91
602.39	1824.54
602.74	1817.69
603.08	1810.97
603.43	1804.31
603.78	1797.01
604.13	1789.67
604.48	1782.39
604.83	1775.49
605.18	1768.37
605.53	1760.44
605.87	1752.58
606.22	1745.26
606.57	1737.35
606.92	1730.01
607.27	1722.68
607.62	1715.61
607.96	1708.25
608.31	1701.58
608.66	1693.94
609.01	1686.42
609.36	1679.02
609.70	1671.06
610.05	1662.86
610.40	1655.08
610.75	1646.63
611.10	1638.97
611.44	1630.79
611.79	1622.82
612.14	1614.16
612.49	1605.14
612.83	1596.92
613.18	1588.62
613.53	1580.50
613.88	1571.99
614.22	1563.76
614.57	1555.25
614.92	1547.17
615.27	1539.73
615.61	1531.40
615.96	1523.45
616.31	1515.94
616.65	1508.65
617.00	1501.10
617.35	1493.64
617.70	1485.35
618.04	1476.93
618.39	1468.77
618.74	1461.19
619.08	1452.95
619.43	1445.45
619.78	1438.62
620.12	1431.47
620.47	1424.04
620.82	1415.95
621.16	1408.62
621.51	1401.11
621.85	1393.61
622.20	1385.29
622.55	1377.05
622.89	1369.34
623.24	1361.77
623.59	1354.35
623.93	1346.80
624.28	1339.49
624.62	1331.84
624.97	1324.67
625.32	1317.95
625.66	1311.06
626.01	1303.87
626.35	1296.39
626.70	1288.72
627.04	1280.91
627.39	1273.11
627.73	1265.69
628.08	1258.78
628.43	1251.46
628.77	1244.04
629.12	1236.48
629.46	1229.42
629.81	1222.00
630.15	1214.79
630.50	1207.37
630.84	1199.36
631.19	1191.61
631.53	1184.24
631.88	1176.82
632.22	1169.31
632.57	1162.11
632.91	1154.54
633.26	1147.11
633.60	1139.83
633.95	1132.79
634.29	1125.93
634.64	1119.33
634.98	1112.00
635.32	1104.91
635.67	1098.34
636.01	1091.85
636.36	1085.14
636.70	1078.65
637.05	1072.09
637.39	1065.73
637.73	1059.26
638.08	1053.34
638.42	1047.32
638.77	1040.88
639.11	1034.42
639.45	1028.13
639.80	1021.47
640.14	1015.03
640.49	1008.54
640.83	1002.23
641.17	996.01
641.52	989.58
641.86	983.30
642.20	977.59
642.55	971.36
642.89	964.94
643.23	958.39
643.58	952.53
643.92	946.33
644.26	940.27
644.61	934.29
644.95	928.27
645.29	921.70
645.64	914.98
645.98	908.73
646.32	902.84
646.66	896.76
647.01	891.00
647.35	885.42
647.69	879.70
648.04	874.29
648.38	868.47
648.72	862.47
649.06	856.35
649.41	850.45
649.75	844.36
650.09	838.46
650.43	832.71
650.78	826.53
651.12	820.59
651.46	814.89
651.80	809.13
652.14	803.77
652.49	798.41
652.83	793.24
653.17	787.52
653.51	781.88
653.85	776.47
654.20	770.87
654.54	764.84
654.88	759.15
655.22	753.24
655.56	747.60
655.90	742.25
656.25	736.98
656.59	731.64
656.93	726.72
657.27	721.53
657.61	716.12
657.95	711.20
658.29	706.15
658.64	701.01
658.98	695.76
659.32	690.35
659.66	685.16
660.00	679.88
660.34	674.95
660.68	670.02
661.02	665.09
661.36	660.36
661.70	655.94
662.05	651.55
662.39	647.25
662.73	642.85
663.07	638.56
663.41	634.22
663.75	629.78
664.09	625.22
664.43	620.92
664.77	616.86
665.11	612.61
665.45	608.54
665.79	604.49
666.13	600.33
666.47	596.24
666.81	592.12
667.15	588.06
667.49	584.32
667.83	580.60
668.17	576.68
668.51	572.67
668.85	568.68
669.19	564.81
669.53	560.96
669.87	557.11
670.21	553.45
670.55	549.84
670.89	546.44
671.23	543.00
671.57	539.48
671.91	535.96
672.25	532.54
672.58	529.03
672.92	525.63
673.26	522.52
673.60	519.39
673.94	516.34
674.28	513.45
674.62	510.46
674.96	507.31
675.30	504.42
675.64	501.56
675.97	498.79
676.31	496.00
676.65	493.17
676.99	490.50
677.33	487.61
677.67	484.77
678.01	481.71
678.34	478.73
678.68	475.88
679.02	473.09
679.36	470.31
679.70	467.59
680.04	464.79
680.37	461.95
680.71	459.17
681.05	456.52
681.39	453.83
681.73	451.14
682.06	448.66
682.40	446.08
682.74	443.52
683.08	440.98
683.42	438.41
683.75	435.93
684.09	433.40
684.43	430.94
684.77	428.55
685.10	426.28
685.44	424.06
685.78	421.81
686.12	419.53
686.45	417.26
686.79	414.99
687.13	412.85
687.46	410.71
687.80	408.64
688.14	406.44
688.48	404.39
688.81	402.17
689.15	400.03
689.49	397.95
689.82	395.90
690.16	393.84
690.50	391.92
690.83	389.96
691.17	388.01
691.51	386.14
691.84	384.24
692.18	382.34
692.52	380.32
692.85	378.40
693.19	376.56
693.52	374.78
693.86	372.99
694.20	371.23
694.53	369.48
694.87	367.60
695.21	365.85
695.54	364.02
695.88	362.33
696.21	360.63
696.55	358.94
696.88	357.27
697.22	355.65
697.56	354.04
697.89	352.36
698.23	350.74
698.56	349.13
698.90	347.60
699.23	345.95
699.57	344.43
699.90	342.95
700.24	341.38
700.58	339.87
700.91	338.38
701.25	336.93
701.58	335.53
701.92	334.18
702.25	332.84
702.59	331.49
702.92	330.20
703.26	328.87
703.59	327.59
703.93	326.41
704.26	325.18
704.60	323.89
704.93	322.68
705.26	321.44
705.60	320.29
705.93	319.11
706.27	318.10
706.60	317.08
706.94	315.98
707.27	314.89
707.61	313.80
707.94	312.82
708.27	311.76
708.61	310.69
708.94	309.68
709.28	308.68
709.61	307.74
709.94	306.84
710.28	305.86
710.61	304.93
710.95	303.86
711.28	302.94
711.61	302.02
711.95	301.03
712.28	300.10
712.61	299.12
712.95	298.22
713.28	297.29
713.61	296.36
713.95	295.47
714.28	294.66
714.61	293.83
714.95	292.96
715.28	292.06
715.61	291.22
715.95	290.38
716.28	289.52
716.61	288.69
716.95	287.81
717.28	287.04
717.61	286.26
717.94	285.51
718.28	284.72
718.61	283.96
718.94	283.29
719.27	282.65
719.61	282.00
719.94	281.28
720.27	280.58
720.60	279.90
720.94	279.28
721.27	278.67
721.60	278.10
721.93	277.48
722.27	276.92
722.60	276.38
722.93	275.80
723.26	275.26
723.59	274.69
723.93	274.13
724.26	273.58
724.59	273.00
724.92	272.46
725.25	271.95
725.59	271.48
725.92	270.98
726.25	270.47
726.58	269.97
726.91	269.50
727.24	269.03
727.57	268.58
727.91	268.07
728.24	267.61
728.57	267.12
728.90	266.69
729.23	266.24
729.56	265.79
729.89	265.35
730.22	264.87
730.55	264.44
730.89	264.02
731.22	263.60
731.55	263.21
731.88	262.83
732.21	262.39
732.54	261.93
732.87	261.52
733.20	261.12
733.53	260.76
733.86	260.40
734.19	260.03
734.52	259.66
734.85	259.34
735.18	258.92
735.51	258.55
735.84	258.19
736.17	257.82
736.50	257.43
736.83	257.19
737.16	256.88
737.49	256.51
737.82	256.21
738.15	255.89
738.48	255.55
738.81	255.20
739.14	254.90
739.47	254.60
739.80	254.32
740.13	254.02
740.46	253.67
740.79	253.37
741.12	253.04
741.45	252.74
741.78	252.40
742.11	252.16
742.44	251.84
742.77	251.57
743.10	251.30
743.43	251.02
743.75	250.66
744.08	250.55
744.41	250.33
744.74	250.03
745.07	249.77
745.40	249.55
745.73	249.34
746.06	249.06
746.39	248.84
746.71	248.56
747.04	248.28
747.37	248.03
747.70	247.76
748.03	247.52
748.36	247.31
748.68	247.06
749.01	246.78
749.34	246.58
749.67	246.33
750.00	246.09
750.33	245.95
750.65	245.75
750.98	245.38
751.31	245.16
751.64	244.96
751.97	244.81
752.29	244.58
752.62	244.37
752.95	244.14
753.28	243.87
753.60	243.69
753.93	243.54
754.26	243.36
754.59	243.15
754.91	242.97
755.24	242.75
755.57	242.56
755.90	242.39
756.22	242.17
756.55	241.95
756.88	241.73
757.20	241.50
757.53	241.26
757.86	241.09
758.19	240.89
758.51	240.73
758.84	240.45
759.17	240.29
759.49	240.09
759.82	240.01
760.15	239.87
760.47	239.65
760.80	239.43
761.13	239.25
761.45	239.12
761.78	238.95
762.11	238.78
762.43	238.64
762.76	238.49
763.08	238.35
763.41	238.22
763.74	238.09
764.06	237.92
764.39	237.78
764.71	237.64
765.04	237.52
765.37	237.38
765.69	237.26
766.02	237.09
766.34	236.95
766.67	236.76
767.00	236.65
767.32	236.57
767.65	236.52
767.97	236.42
768.30	236.29
768.62	236.14
768.95	236.03
769.27	235.90
769.60	235.80
769.92	235.68
770.25	235.58
770.57	235.45
770.90	235.34
771.22	235.22
771.55	235.10
771.87	235.02
772.20	234.94
772.52	234.94
772.85	234.96
773.17	234.89
773.50	234.81
773.82	234.71
774.15	234.57
774.47	234.42
774.80	234.35
775.12	234.23
775.45	234.21
775.77	234.16
776.09	234.08
776.42	234.00
776.74	233.97
777.07	233.90
777.39	233.83
777.72	233.77
778.04	233.71
778.36	233.63
778.69	233.52
779.01	233.44
779.33	233.30
779.66	233.12
779.98	233.03
780.31	232.97
780.63	232.96
780.95	232.94
781.28	232.88
781.60	232.79
781.92	232.76
782.25	232.69
782.57	232.63
782.89	232.60
783.22	232.54
783.54	232.47
783.86	232.41
784.19	232.38
784.51	232.34
784.83	232.32
785.16	232.26
785.48	232.22
785.80	232.17
786.12	232.13
786.45	232.09
786.77	232.08
787.09	232.05
