SpectraSuite Data File
++++++++++++++++++++++++++++++++++++
Date: Fri Feb 01 16:00:12 EST 2013
User: group
Dark Spectrum Present: No
Reference Spectrum Present: No
Number of Sampled Component Spectra: 1
Spectrometers: USB2E7196
Integration Time (usec): 35000 (USB2E7196)
Spectra Averaged: 100 (USB2E7196)
Boxcar Smoothing: 10 (USB2E7196)
Correct for Electrical Dark: No (USB2E7196)
Strobe/Lamp Enabled: No (USB2E7196)
Correct for Detector Non-linearity: No (USB2E7196)
Correct for Stray Light: No (USB2E7196)
Number of Pixels in Processed Spectrum: 2048
>>>>>Begin Processed Spectral Data<<<<<
339.09	0.00
339.48	215.20
339.86	216.56
340.24	217.28
340.63	219.29
341.01	222.51
341.39	221.56
341.78	223.13
342.16	224.66
342.54	224.34
342.93	213.36
343.31	224.12
343.69	224.65
344.07	225.11
344.46	225.54
344.84	225.89
345.22	226.09
345.60	226.34
345.99	226.54
346.37	226.64
346.75	226.79
347.13	226.82
347.52	226.87
347.90	226.90
348.28	226.95
348.66	227.02
349.05	226.99
349.43	227.00
349.81	227.02
350.19	227.04
350.57	227.06
350.96	227.14
351.34	227.22
351.72	227.30
352.10	227.39
352.48	227.50
352.87	227.57
353.25	227.64
353.63	227.69
354.01	227.75
354.39	227.83
354.77	227.86
355.15	227.95
355.54	227.99
355.92	228.04
356.30	228.09
356.68	228.17
357.06	228.26
357.44	228.30
357.82	228.36
358.20	228.39
358.58	228.43
358.97	228.48
359.35	228.58
359.73	228.63
360.11	228.66
360.49	228.69
360.87	228.73
361.25	228.78
361.63	228.86
362.01	228.85
362.39	228.87
362.77	228.92
363.15	228.94
363.53	228.95
363.91	228.98
364.29	229.01
364.67	228.94
365.05	228.93
365.43	228.96
365.81	229.01
366.19	229.04
366.57	229.08
366.95	229.09
367.33	229.02
367.71	228.99
368.09	229.00
368.47	228.97
368.85	228.89
369.23	228.89
369.61	228.82
369.99	228.85
370.37	228.83
370.75	228.81
371.13	228.75
371.51	228.74
371.89	228.73
372.27	228.68
372.65	228.66
373.03	228.60
373.41	228.55
373.78	228.44
374.16	228.36
374.54	228.27
374.92	228.18
375.30	228.14
375.68	228.08
376.06	228.01
376.44	227.97
376.82	227.92
377.19	227.87
377.57	227.81
377.95	227.70
378.33	227.64
378.71	227.54
379.09	227.49
379.47	227.43
379.84	227.35
380.22	227.23
380.60	227.11
380.98	227.03
381.36	226.98
381.73	226.95
382.11	226.90
382.49	226.86
382.87	226.82
383.25	226.75
383.62	226.81
384.00	226.75
384.38	226.70
384.76	226.71
385.13	226.70
385.51	226.66
385.89	226.62
386.27	226.57
386.64	226.56
387.02	226.51
387.40	226.46
387.78	226.46
388.15	226.46
388.53	226.47
388.91	226.46
389.29	226.40
389.66	226.37
390.04	226.36
390.42	226.33
390.79	226.32
391.17	226.32
391.55	226.20
391.92	226.19
392.30	226.19
392.68	226.15
393.05	226.14
393.43	226.17
393.81	226.17
394.18	226.17
394.56	226.17
394.94	226.23
395.31	226.26
395.69	226.29
396.06	226.33
396.44	226.38
396.82	226.41
397.19	226.51
397.57	226.58
397.95	226.60
398.32	226.67
398.70	226.70
399.07	226.75
399.45	226.79
399.82	226.85
400.20	226.89
400.58	226.95
400.95	226.97
401.33	227.06
401.70	227.20
402.08	227.31
402.45	227.39
402.83	227.50
403.20	227.62
403.58	227.69
403.95	227.82
404.33	227.92
404.71	228.06
405.08	228.22
405.46	228.35
405.83	228.55
406.21	228.68
406.58	228.84
406.96	229.03
407.33	229.22
407.70	229.42
408.08	229.69
408.45	229.92
408.83	230.14
409.20	230.32
409.58	230.51
409.95	230.76
410.33	231.05
410.70	231.27
411.08	231.56
411.45	231.87
411.82	232.17
412.20	232.53
412.57	232.92
412.95	233.21
413.32	233.63
413.69	234.01
414.07	234.44
414.44	234.92
414.82	235.40
415.19	235.96
415.56	236.48
415.94	237.04
416.31	237.67
416.68	238.33
417.06	239.05
417.43	239.73
417.81	240.50
418.18	241.26
418.55	242.12
418.93	242.97
419.30	243.87
419.67	244.82
420.04	245.78
420.42	246.78
420.79	247.97
421.16	249.12
421.54	250.30
421.91	251.51
422.28	252.75
422.66	254.07
423.03	255.37
423.40	256.74
423.77	258.13
424.15	259.56
424.52	261.03
424.89	262.65
425.26	264.22
425.64	265.69
426.01	267.29
426.38	268.92
426.75	270.65
427.13	272.35
427.50	274.14
427.87	276.01
428.24	277.87
428.61	279.60
428.99	281.50
429.36	283.61
429.73	285.69
430.10	287.73
430.47	289.78
430.85	291.91
431.22	294.16
431.59	296.53
431.96	298.76
432.33	301.23
432.70	303.63
433.08	306.44
433.45	309.08
433.82	311.68
434.19	314.58
434.56	317.34
434.93	319.99
435.30	322.61
435.68	325.50
436.05	328.32
436.42	331.12
436.79	333.66
437.16	336.37
437.53	339.18
437.90	341.97
438.27	344.76
438.64	347.59
439.01	350.19
439.38	352.42
439.75	354.64
440.13	357.17
440.50	359.48
440.87	361.35
441.24	363.30
441.61	365.49
441.98	366.99
442.35	368.80
442.72	370.72
443.09	372.56
443.46	373.54
443.83	374.10
444.20	374.63
444.57	375.49
444.94	375.75
445.31	376.12
445.68	376.48
446.05	376.50
446.42	376.09
446.79	375.60
447.16	375.16
447.53	374.82
447.90	373.61
448.27	372.46
448.64	370.84
449.01	369.68
449.37	367.67
449.74	365.75
450.11	363.53
450.48	360.99
450.85	358.42
451.22	356.29
451.59	354.30
451.96	352.31
452.33	349.64
452.70	347.27
453.07	344.46
453.43	341.55
453.80	338.80
454.17	336.14
454.54	333.63
454.91	330.93
455.28	328.27
455.65	325.79
456.02	323.32
456.38	321.17
456.75	318.51
457.12	316.30
457.49	314.06
457.86	311.85
458.23	310.00
458.59	307.98
458.96	305.92
459.33	304.08
459.70	302.27
460.07	300.80
460.43	299.12
460.80	297.46
461.17	296.06
461.54	294.52
461.91	293.07
462.27	291.66
462.64	290.38
463.01	289.03
463.38	287.76
463.74	286.41
464.11	285.23
464.48	284.20
464.85	283.11
465.21	282.27
465.58	281.36
465.95	280.31
466.32	279.36
466.68	278.42
467.05	277.51
467.42	276.59
467.78	275.71
468.15	274.79
468.52	274.14
468.88	273.26
469.25	272.52
469.62	271.92
469.98	271.21
470.35	270.59
470.72	269.97
471.08	269.31
471.45	268.78
471.82	268.22
472.18	267.59
472.55	267.13
472.92	266.59
473.28	266.14
473.65	265.68
474.02	265.27
474.38	264.93
474.75	264.63
475.11	264.28
475.48	263.99
475.85	263.79
476.21	263.57
476.58	263.45
476.94	263.32
477.31	263.17
477.67	263.05
478.04	262.93
478.41	262.90
478.77	262.94
479.14	262.89
479.50	262.92
479.87	263.01
480.23	263.08
480.60	263.16
480.96	263.22
481.33	263.43
481.69	263.62
482.06	263.79
482.42	264.01
482.79	264.30
483.15	264.62
483.52	265.02
483.88	265.38
484.25	265.74
484.61	266.17
484.98	266.65
485.34	267.25
485.71	267.86
486.07	268.47
486.44	269.04
486.80	269.74
487.17	270.49
487.53	271.31
487.90	272.16
488.26	273.10
488.62	274.13
488.99	275.08
489.35	276.15
489.72	277.31
490.08	278.47
490.44	279.68
490.81	281.02
491.17	282.38
491.54	283.85
491.90	285.40
492.26	287.03
492.63	288.73
492.99	290.47
493.36	292.36
493.72	294.38
494.08	296.46
494.45	298.71
494.81	301.08
495.17	303.52
495.54	306.13
495.90	308.85
496.26	311.64
496.63	314.62
496.99	317.72
497.35	320.98
497.72	324.40
498.08	327.91
498.44	331.53
498.80	335.40
499.17	339.44
499.53	343.59
499.89	347.96
500.26	352.45
500.62	357.11
500.98	362.07
501.34	367.17
501.71	372.52
502.07	378.00
502.43	383.58
502.79	389.40
503.16	395.44
503.52	401.73
503.88	408.16
504.24	414.84
504.60	421.77
504.97	428.89
505.33	436.27
505.69	444.05
506.05	451.88
506.41	459.85
506.78	467.97
507.14	476.45
507.50	485.21
507.86	494.29
508.22	503.45
508.59	512.69
508.95	522.23
509.31	532.09
509.67	542.19
510.03	552.49
510.39	563.03
510.75	573.88
511.12	584.81
511.48	596.08
511.84	607.49
512.20	619.01
512.56	630.94
512.92	643.12
513.28	655.44
513.64	667.86
514.00	680.51
514.37	693.46
514.73	706.47
515.09	719.39
515.45	732.67
515.81	746.31
516.17	760.32
516.53	774.48
516.89	788.63
517.25	802.84
517.61	817.28
517.97	831.73
518.33	846.10
518.69	860.91
519.05	875.99
519.41	891.23
519.77	906.71
520.13	922.16
520.49	937.58
520.85	953.08
521.21	968.86
521.57	985.18
521.93	1001.00
522.29	1017.41
522.65	1033.81
523.01	1049.93
523.37	1065.92
523.73	1082.04
524.09	1098.03
524.45	1114.38
524.81	1130.92
525.17	1147.76
525.53	1164.80
525.89	1181.69
526.25	1198.31
526.61	1214.61
526.97	1231.26
527.33	1247.69
527.68	1264.22
528.04	1280.61
528.40	1297.16
528.76	1314.23
529.12	1330.72
529.48	1347.45
529.84	1363.53
530.20	1380.05
530.56	1397.12
530.91	1414.51
531.27	1431.25
531.63	1447.76
531.99	1464.21
532.35	1480.15
532.71	1495.96
533.07	1512.05
533.42	1527.93
533.78	1544.07
534.14	1560.33
534.50	1575.67
534.86	1591.57
535.21	1606.66
535.57	1622.49
535.93	1637.89
536.29	1652.65
536.65	1667.65
537.00	1682.50
537.36	1697.65
537.72	1712.07
538.08	1726.27
538.44	1740.06
538.79	1753.92
539.15	1767.59
539.51	1781.27
539.87	1795.54
540.22	1809.25
540.58	1822.99
540.94	1836.35
541.29	1849.18
541.65	1861.73
542.01	1874.95
542.37	1887.10
542.72	1899.65
543.08	1911.55
543.44	1923.93
543.79	1935.09
544.15	1946.05
544.51	1957.57
544.87	1968.63
545.22	1979.55
545.58	1989.82
545.94	1999.47
546.29	2009.17
546.65	2018.97
547.01	2028.19
547.36	2037.02
547.72	2045.46
548.07	2053.32
548.43	2061.48
548.79	2069.52
549.14	2077.06
549.50	2084.33
549.86	2092.07
550.21	2099.29
550.57	2106.27
550.92	2112.79
551.28	2119.77
551.64	2126.85
551.99	2133.37
552.35	2139.45
552.70	2145.52
553.06	2151.49
553.41	2157.98
553.77	2164.16
554.13	2170.35
554.48	2176.51
554.84	2181.89
555.19	2187.28
555.55	2192.45
555.90	2196.86
556.26	2201.79
556.61	2206.70
556.97	2210.82
557.32	2215.11
557.68	2219.25
558.03	2223.66
558.39	2227.39
558.74	2232.17
559.10	2235.99
559.45	2239.68
559.81	2244.01
560.16	2247.91
560.52	2251.24
560.87	2254.62
561.23	2257.17
561.58	2260.05
561.94	2262.64
562.29	2265.01
562.64	2267.59
563.00	2270.20
563.35	2273.53
563.71	2276.64
564.06	2279.78
564.42	2282.74
564.77	2285.03
565.12	2287.33
565.48	2289.26
565.83	2291.18
566.19	2292.35
566.54	2293.29
566.89	2294.30
567.25	2294.76
567.60	2295.98
567.96	2297.58
568.31	2298.42
568.66	2299.61
569.02	2300.22
569.37	2300.42
569.72	2301.39
570.08	2301.52
570.43	2301.44
570.78	2300.88
571.14	2299.24
571.49	2297.90
571.84	2297.65
572.20	2296.53
572.55	2295.56
572.90	2294.04
573.26	2292.54
573.61	2290.91
573.96	2289.16
574.31	2286.22
574.67	2283.40
575.02	2279.83
575.37	2276.50
575.72	2272.67
576.08	2269.36
576.43	2265.92
576.78	2262.33
577.13	2259.08
577.49	2256.06
577.84	2252.64
578.19	2249.12
578.54	2245.65
578.90	2241.50
579.25	2235.93
579.60	2231.03
579.95	2225.96
580.30	2220.97
580.66	2215.84
581.01	2210.89
581.36	2206.01
581.71	2201.91
582.06	2197.33
582.42	2192.81
582.77	2187.63
583.12	2183.04
583.47	2178.33
583.82	2173.48
584.17	2168.15
584.53	2162.69
584.88	2157.00
585.23	2151.15
585.58	2145.72
585.93	2140.20
586.28	2135.32
586.63	2130.21
586.98	2125.14
587.34	2120.41
587.69	2115.40
588.04	2110.20
588.39	2104.53
588.74	2098.08
589.09	2091.89
589.44	2085.07
589.79	2079.25
590.14	2073.70
590.49	2067.21
590.84	2060.75
591.19	2054.61
591.54	2048.32
591.89	2040.91
592.25	2034.12
592.60	2026.93
592.95	2019.19
593.30	2011.94
593.65	2004.31
594.00	1997.46
594.35	1990.19
594.70	1982.20
595.05	1974.97
595.40	1967.66
595.75	1960.19
596.10	1953.96
596.45	1947.25
596.80	1941.09
597.15	1934.34
597.50	1927.08
597.85	1920.59
598.19	1913.98
598.54	1906.86
598.89	1900.27
599.24	1894.41
599.59	1887.70
599.94	1881.60
600.29	1875.25
600.64	1868.59
600.99	1861.25
601.34	1854.30
601.69	1847.45
602.04	1840.59
602.39	1833.31
602.74	1826.47
603.08	1819.78
603.43	1813.09
603.78	1805.81
604.13	1798.74
604.48	1791.38
604.83	1784.67
605.18	1777.73
605.53	1769.75
605.87	1761.81
606.22	1754.52
606.57	1746.53
606.92	1739.27
607.27	1732.03
607.62	1725.11
607.96	1717.80
608.31	1711.11
608.66	1703.58
609.01	1696.03
609.36	1688.50
609.70	1680.44
610.05	1672.31
610.40	1664.61
610.75	1656.24
611.10	1648.53
611.44	1639.98
611.79	1632.05
612.14	1623.24
612.49	1614.12
612.83	1605.79
613.18	1597.65
613.53	1589.50
613.88	1581.00
614.22	1572.75
614.57	1564.18
614.92	1556.15
615.27	1548.55
615.61	1540.24
615.96	1532.07
616.31	1524.48
616.65	1517.10
617.00	1509.62
617.35	1502.01
617.70	1493.55
618.04	1485.01
618.39	1476.81
618.74	1469.33
619.08	1461.01
619.43	1453.49
619.78	1446.51
620.12	1439.32
620.47	1431.80
620.82	1423.68
621.16	1416.40
621.51	1408.79
621.85	1401.14
622.20	1392.62
622.55	1384.34
622.89	1376.64
623.24	1369.00
623.59	1361.57
623.93	1353.98
624.28	1346.70
624.62	1339.18
624.97	1332.06
625.32	1325.40
625.66	1318.31
626.01	1311.05
626.35	1303.63
626.70	1295.97
627.04	1288.26
627.39	1280.47
627.73	1273.11
628.08	1266.18
628.43	1258.76
628.77	1251.37
629.12	1243.78
629.46	1236.70
629.81	1229.24
630.15	1221.86
630.50	1214.53
630.84	1206.33
631.19	1198.36
631.53	1190.84
631.88	1183.26
632.22	1175.74
632.57	1168.42
632.91	1161.00
633.26	1153.61
633.60	1146.10
633.95	1139.01
634.29	1132.00
634.64	1125.30
634.98	1117.87
635.32	1110.72
635.67	1104.10
636.01	1097.48
636.36	1090.68
636.70	1084.12
637.05	1077.56
637.39	1071.07
637.73	1064.51
638.08	1058.62
638.42	1052.63
638.77	1046.23
639.11	1039.65
639.45	1033.20
639.80	1026.43
640.14	1019.98
640.49	1013.51
640.83	1007.29
641.17	1001.01
641.52	994.62
641.86	988.19
642.20	982.30
642.55	976.03
642.89	969.52
643.23	962.89
643.58	957.08
643.92	950.86
644.26	944.76
644.61	938.76
644.95	932.70
645.29	926.07
645.64	919.35
645.98	912.94
646.32	907.13
646.66	901.09
647.01	895.34
647.35	889.66
647.69	883.71
648.04	878.24
648.38	872.40
648.72	866.40
649.06	860.31
649.41	854.53
649.75	848.49
650.09	842.58
650.43	836.82
650.78	830.72
651.12	824.76
651.46	819.04
651.80	813.20
652.14	807.84
652.49	802.49
652.83	797.36
653.17	791.61
653.51	785.85
653.85	780.45
654.20	774.77
654.54	768.75
654.88	763.08
655.22	757.15
655.56	751.49
655.90	746.10
656.25	740.85
656.59	735.40
656.93	730.30
657.27	725.13
657.61	719.70
657.95	714.63
658.29	709.60
658.64	704.40
658.98	699.19
659.32	693.67
659.66	688.43
660.00	683.09
660.34	678.19
660.68	673.25
661.02	668.23
661.36	663.53
661.70	658.99
662.05	654.63
662.39	650.29
662.73	645.79
663.07	641.43
663.41	636.94
663.75	632.43
664.09	627.80
664.43	623.45
664.77	619.35
665.11	615.08
665.45	610.89
665.79	606.79
666.13	602.67
666.47	598.64
666.81	594.51
667.15	590.43
667.49	586.52
667.83	582.76
668.17	578.81
668.51	574.72
668.85	570.73
669.19	566.92
669.53	563.09
669.87	559.22
670.21	555.45
670.55	551.85
670.89	548.49
671.23	545.13
671.57	541.57
671.91	537.94
672.25	534.46
672.58	530.93
672.92	527.50
673.26	524.31
673.60	521.18
673.94	518.04
674.28	515.10
674.62	512.24
674.96	509.08
675.30	506.18
675.64	503.28
675.97	500.51
676.31	497.60
676.65	494.64
676.99	491.94
677.33	489.11
677.67	486.29
678.01	483.16
678.34	480.18
678.68	477.34
679.02	474.57
679.36	471.84
679.70	469.13
680.04	466.38
680.37	463.49
680.71	460.66
681.05	458.10
681.39	455.37
681.73	452.64
682.06	450.16
682.40	447.61
682.74	445.10
683.08	442.52
683.42	439.87
683.75	437.37
684.09	434.76
684.43	432.23
684.77	429.75
685.10	427.49
685.44	425.17
685.78	422.83
686.12	420.57
686.45	418.23
686.79	415.92
687.13	413.77
687.46	411.65
687.80	409.53
688.14	407.30
688.48	405.27
688.81	403.03
689.15	400.87
689.49	398.70
689.82	396.61
690.16	394.54
690.50	392.60
690.83	390.64
691.17	388.69
691.51	386.83
691.84	384.97
692.18	382.98
692.52	380.96
692.85	379.03
693.19	377.18
693.52	375.36
693.86	373.52
694.20	371.72
694.53	369.88
694.87	367.99
695.21	366.17
695.54	364.33
695.88	362.61
696.21	360.85
696.55	359.12
696.88	357.45
697.22	355.76
697.56	354.17
697.89	352.57
698.23	350.95
698.56	349.31
698.90	347.72
699.23	346.11
699.57	344.60
699.90	343.07
700.24	341.56
700.58	340.01
700.91	338.54
701.25	337.10
701.58	335.73
701.92	334.39
702.25	333.02
702.59	331.63
702.92	330.31
703.26	329.01
703.59	327.77
703.93	326.59
704.26	325.37
704.60	324.06
704.93	322.80
705.26	321.56
705.60	320.41
705.93	319.27
706.27	318.21
706.60	317.17
706.94	316.09
707.27	314.92
707.61	313.86
707.94	312.88
708.27	311.80
708.61	310.72
708.94	309.71
709.28	308.79
709.61	307.84
709.94	306.90
710.28	305.91
710.61	304.91
710.95	303.79
711.28	302.85
711.61	301.91
711.95	300.95
712.28	300.02
712.61	299.02
712.95	298.09
713.28	297.21
713.61	296.27
713.95	295.34
714.28	294.49
714.61	293.65
714.95	292.75
715.28	291.87
715.61	290.99
715.95	290.13
716.28	289.22
716.61	288.34
716.95	287.49
717.28	286.77
717.61	286.02
717.94	285.31
718.28	284.50
718.61	283.73
718.94	283.05
719.27	282.34
719.61	281.70
719.94	281.01
720.27	280.28
720.60	279.60
720.94	279.01
721.27	278.44
721.60	277.86
721.93	277.29
722.27	276.73
722.60	276.18
722.93	275.62
723.26	275.07
723.59	274.50
723.93	273.96
724.26	273.40
724.59	272.82
724.92	272.25
725.25	271.78
725.59	271.30
725.92	270.76
726.25	270.30
726.58	269.79
726.91	269.33
727.24	268.87
727.57	268.43
727.91	267.94
728.24	267.46
728.57	266.99
728.90	266.52
729.23	266.04
729.56	265.62
729.89	265.15
730.22	264.67
730.55	264.26
730.89	263.83
731.22	263.39
731.55	262.97
731.88	262.57
732.21	262.17
732.54	261.68
732.87	261.29
733.20	260.85
733.53	260.47
733.86	260.09
734.19	259.68
734.52	259.31
734.85	258.96
735.18	258.52
735.51	258.13
735.84	257.76
736.17	257.45
736.50	257.00
736.83	256.75
737.16	256.42
737.49	256.05
737.82	255.69
738.15	255.35
738.48	255.01
738.81	254.72
739.14	254.36
739.47	254.09
739.80	253.75
740.13	253.46
740.46	253.13
740.79	252.77
741.12	252.46
741.45	252.13
741.78	251.82
742.11	251.51
742.44	251.14
742.77	250.84
743.10	250.52
743.43	250.25
743.75	249.90
744.08	249.77
744.41	249.51
744.74	249.22
745.07	248.93
745.40	248.70
745.73	248.43
746.06	248.17
746.39	247.91
746.71	247.65
747.04	247.41
747.37	247.15
747.70	246.94
748.03	246.71
748.36	246.47
748.68	246.18
749.01	245.97
749.34	245.76
749.67	245.54
750.00	245.31
750.33	245.15
750.65	244.93
750.98	244.56
751.31	244.34
751.64	244.17
751.97	244.00
752.29	243.80
752.62	243.53
752.95	243.32
753.28	243.09
753.60	242.88
753.93	242.69
754.26	242.51
754.59	242.26
754.91	242.02
755.24	241.84
755.57	241.67
755.90	241.49
756.22	241.31
756.55	241.10
756.88	240.89
757.20	240.66
757.53	240.43
757.86	240.29
758.19	240.14
758.51	239.96
758.84	239.74
759.17	239.56
759.49	239.41
759.82	239.33
760.15	239.20
760.47	239.03
760.80	238.87
761.13	238.74
761.45	238.62
761.78	238.48
762.11	238.34
762.43	238.19
762.76	238.05
763.08	237.95
763.41	237.86
763.74	237.74
764.06	237.62
764.39	237.51
764.71	237.37
765.04	237.22
765.37	237.05
765.69	236.93
766.02	236.75
766.34	236.63
766.67	236.43
767.00	236.31
767.32	236.25
767.65	236.16
767.97	236.00
768.30	235.90
768.62	235.78
768.95	235.66
769.27	235.59
769.60	235.47
769.92	235.36
770.25	235.23
770.57	235.10
770.90	234.98
771.22	234.87
771.55	234.76
771.87	234.66
772.20	234.63
772.52	234.60
772.85	234.63
773.17	234.52
773.50	234.46
773.82	234.40
774.15	234.27
774.47	234.11
774.80	234.03
775.12	233.92
775.45	233.84
775.77	233.77
776.09	233.67
776.42	233.60
776.74	233.53
777.07	233.45
777.39	233.40
777.72	233.32
778.04	233.29
778.36	233.23
778.69	233.17
779.01	233.10
779.33	232.95
779.66	232.80
779.98	232.72
780.31	232.63
780.63	232.57
780.95	232.53
781.28	232.48
781.60	232.44
781.92	232.42
782.25	232.36
782.57	232.28
782.89	232.23
783.22	232.19
783.54	232.10
783.86	232.06
784.19	232.00
784.51	232.00
784.83	231.90
785.16	231.82
785.48	231.75
785.80	231.69
786.12	231.65
786.45	231.60
786.77	231.58
787.09	231.57
