SpectraSuite Data File
++++++++++++++++++++++++++++++++++++
Date: Fri Feb 01 16:57:38 EST 2013
User: group
Dark Spectrum Present: No
Reference Spectrum Present: No
Number of Sampled Component Spectra: 1
Spectrometers: USB2E7196
Integration Time (usec): 35000 (USB2E7196)
Spectra Averaged: 100 (USB2E7196)
Boxcar Smoothing: 10 (USB2E7196)
Correct for Electrical Dark: No (USB2E7196)
Strobe/Lamp Enabled: No (USB2E7196)
Correct for Detector Non-linearity: No (USB2E7196)
Correct for Stray Light: No (USB2E7196)
Number of Pixels in Processed Spectrum: 2048
>>>>>Begin Processed Spectral Data<<<<<
339.09	0.00
339.48	213.12
339.86	214.91
340.24	215.92
340.63	217.26
341.01	220.44
341.39	220.22
341.78	221.04
342.16	222.41
342.54	223.29
342.93	211.50
343.31	222.18
343.69	222.71
344.07	223.20
344.46	223.60
344.84	223.99
345.22	224.19
345.60	224.41
345.99	224.62
346.37	224.74
346.75	224.84
347.13	224.90
347.52	224.95
347.90	225.02
348.28	225.01
348.66	225.05
349.05	225.07
349.43	225.15
349.81	225.22
350.19	225.26
350.57	225.35
350.96	225.42
351.34	225.50
351.72	225.58
352.10	225.63
352.48	225.72
352.87	225.78
353.25	225.88
353.63	225.95
354.01	225.99
354.39	226.08
354.77	226.13
355.15	226.24
355.54	226.28
355.92	226.31
356.30	226.42
356.68	226.59
357.06	226.66
357.44	226.69
357.82	226.75
358.20	226.82
358.58	226.86
358.97	226.90
359.35	226.98
359.73	227.08
360.11	227.15
360.49	227.22
360.87	227.25
361.25	227.31
361.63	227.41
362.01	227.49
362.39	227.54
362.77	227.63
363.15	227.67
363.53	227.70
363.91	227.74
364.29	227.77
364.67	227.70
365.05	227.72
365.43	227.75
365.81	227.78
366.19	227.82
366.57	227.88
366.95	227.88
367.33	227.85
367.71	227.85
368.09	227.87
368.47	227.87
368.85	227.86
369.23	227.85
369.61	227.78
369.99	227.80
370.37	227.79
370.75	227.80
371.13	227.74
371.51	227.72
371.89	227.70
372.27	227.66
372.65	227.62
373.03	227.57
373.41	227.55
373.78	227.48
374.16	227.39
374.54	227.30
374.92	227.26
375.30	227.21
375.68	227.15
376.06	227.09
376.44	227.00
376.82	226.95
377.19	226.88
377.57	226.84
377.95	226.72
378.33	226.65
378.71	226.52
379.09	226.46
379.47	226.42
379.84	226.36
380.22	226.29
380.60	226.21
380.98	226.15
381.36	226.07
381.73	225.99
382.11	225.94
382.49	225.89
382.87	225.81
383.25	225.76
383.62	225.80
384.00	225.73
384.38	225.69
384.76	225.66
385.13	225.65
385.51	225.59
385.89	225.53
386.27	225.46
386.64	225.44
387.02	225.40
387.40	225.37
387.78	225.35
388.15	225.30
388.53	225.29
388.91	225.23
389.29	225.20
389.66	225.21
390.04	225.21
390.42	225.19
390.79	225.15
391.17	225.10
391.55	224.96
391.92	224.93
392.30	224.94
392.68	224.91
393.05	224.88
393.43	224.87
393.81	224.87
394.18	224.86
394.56	224.86
394.94	224.89
395.31	224.88
395.69	224.90
396.06	224.93
396.44	224.96
396.82	225.00
397.19	225.07
397.57	225.08
397.95	225.12
398.32	225.14
398.70	225.21
399.07	225.29
399.45	225.36
399.82	225.41
400.20	225.43
400.58	225.50
400.95	225.53
401.33	225.65
401.70	225.82
402.08	225.91
402.45	225.98
402.83	226.09
403.20	226.19
403.58	226.26
403.95	226.39
404.33	226.48
404.71	226.62
405.08	226.78
405.46	226.89
405.83	227.05
406.21	227.19
406.58	227.36
406.96	227.54
407.33	227.69
407.70	227.90
408.08	228.20
408.45	228.38
408.83	228.65
409.20	228.84
409.58	229.02
409.95	229.27
410.33	229.55
410.70	229.80
411.08	230.10
411.45	230.40
411.82	230.69
412.20	231.07
412.57	231.47
412.95	231.77
413.32	232.18
413.69	232.58
414.07	233.02
414.44	233.51
414.82	233.96
415.19	234.53
415.56	235.06
415.94	235.60
416.31	236.28
416.68	236.89
417.06	237.62
417.43	238.28
417.81	239.07
418.18	239.83
418.55	240.67
418.93	241.52
419.30	242.42
419.67	243.35
420.04	244.31
420.42	245.29
420.79	246.47
421.16	247.63
421.54	248.78
421.91	250.03
422.28	251.24
422.66	252.58
423.03	253.86
423.40	255.17
423.77	256.53
424.15	257.93
424.52	259.39
424.89	261.01
425.26	262.55
425.64	263.96
426.01	265.58
426.38	267.21
426.75	268.87
427.13	270.58
427.50	272.37
427.87	274.22
428.24	276.05
428.61	277.75
428.99	279.73
429.36	281.82
429.73	283.84
430.10	285.84
430.47	287.92
430.85	290.01
431.22	292.25
431.59	294.63
431.96	296.82
432.33	299.28
432.70	301.63
433.08	304.41
433.45	307.04
433.82	309.60
434.19	312.47
434.56	315.26
434.93	317.92
435.30	320.56
435.68	323.44
436.05	326.29
436.42	329.06
436.79	331.53
437.16	334.22
437.53	337.04
437.90	339.87
438.27	342.56
438.64	345.39
439.01	348.00
439.38	350.21
439.75	352.36
440.13	354.85
440.50	357.18
440.87	359.03
441.24	360.99
441.61	363.11
441.98	364.62
442.35	366.40
442.72	368.26
443.09	370.01
443.46	370.98
443.83	371.53
444.20	372.05
444.57	372.85
444.94	373.09
445.31	373.47
445.68	373.78
446.05	373.85
446.42	373.50
446.79	373.04
447.16	372.63
447.53	372.33
447.90	371.16
448.27	369.99
448.64	368.45
449.01	367.30
449.37	365.34
449.74	363.41
450.11	361.17
450.48	358.70
450.85	356.21
451.22	354.04
451.59	352.07
451.96	350.13
452.33	347.58
452.70	345.27
453.07	342.43
453.43	339.54
453.80	336.79
454.17	334.12
454.54	331.61
454.91	328.90
455.28	326.24
455.65	323.77
456.02	321.33
456.38	319.16
456.75	316.49
457.12	314.30
457.49	312.12
457.86	309.99
458.23	308.16
458.59	306.12
458.96	304.08
459.33	302.25
459.70	300.45
460.07	298.94
460.43	297.26
460.80	295.63
461.17	294.24
461.54	292.74
461.91	291.31
462.27	289.87
462.64	288.63
463.01	287.30
463.38	286.00
463.74	284.61
464.11	283.49
464.48	282.51
464.85	281.36
465.21	280.51
465.58	279.56
465.95	278.48
466.32	277.60
466.68	276.68
467.05	275.78
467.42	274.89
467.78	273.96
468.15	273.07
468.52	272.45
468.88	271.57
469.25	270.81
469.62	270.23
469.98	269.59
470.35	268.96
470.72	268.41
471.08	267.83
471.45	267.33
471.82	266.78
472.18	266.15
472.55	265.79
472.92	265.27
473.28	264.86
473.65	264.42
474.02	263.99
474.38	263.65
474.75	263.32
475.11	262.97
475.48	262.76
475.85	262.56
476.21	262.34
476.58	262.19
476.94	262.05
477.31	261.88
477.67	261.76
478.04	261.71
478.41	261.62
478.77	261.63
479.14	261.59
479.50	261.60
479.87	261.70
480.23	261.75
480.60	261.84
480.96	261.93
481.33	262.16
481.69	262.40
482.06	262.61
482.42	262.86
482.79	263.17
483.15	263.47
483.52	263.86
483.88	264.19
484.25	264.57
484.61	265.03
484.98	265.49
485.34	266.06
485.71	266.64
486.07	267.29
486.44	267.88
486.80	268.65
487.17	269.43
487.53	270.22
487.90	271.12
488.26	272.05
488.62	273.06
488.99	274.06
489.35	275.08
489.72	276.22
490.08	277.43
490.44	278.66
490.81	280.02
491.17	281.37
491.54	282.88
491.90	284.43
492.26	286.06
492.63	287.79
492.99	289.56
493.36	291.45
493.72	293.45
494.08	295.48
494.45	297.67
494.81	299.98
495.17	302.46
495.54	304.97
495.90	307.63
496.26	310.40
496.63	313.30
496.99	316.40
497.35	319.65
497.72	323.04
498.08	326.49
498.44	330.10
498.80	333.99
499.17	338.00
499.53	342.16
499.89	346.49
500.26	350.97
500.62	355.59
500.98	360.48
501.34	365.60
501.71	370.91
502.07	376.31
502.43	381.90
502.79	387.64
503.16	393.68
503.52	399.92
503.88	406.28
504.24	412.86
504.60	419.70
504.97	426.76
505.33	433.95
505.69	441.68
506.05	449.40
506.41	457.18
506.78	465.32
507.14	473.71
507.50	482.32
507.86	491.24
508.22	500.27
508.59	509.45
508.95	518.88
509.31	528.62
509.67	538.62
510.03	548.81
510.39	559.28
510.75	569.92
511.12	580.75
511.48	591.97
511.84	603.34
512.20	614.72
512.56	626.53
512.92	638.54
513.28	650.64
513.64	662.97
514.00	675.56
514.37	688.30
514.73	701.22
515.09	714.18
515.45	727.37
515.81	740.81
516.17	754.59
516.53	768.54
516.89	782.48
517.25	796.51
517.61	810.75
517.97	824.97
518.33	839.26
518.69	853.79
519.05	868.45
519.41	883.48
519.77	898.74
520.13	913.99
520.49	929.22
520.85	944.38
521.21	959.87
521.57	975.80
521.93	991.34
522.29	1007.37
522.65	1023.34
523.01	1039.21
523.37	1054.96
523.73	1070.84
524.09	1086.64
524.45	1102.60
524.81	1118.96
525.17	1135.36
525.53	1151.97
525.89	1168.62
526.25	1185.27
526.61	1201.43
526.97	1217.73
527.33	1233.97
527.68	1250.09
528.04	1266.17
528.40	1282.52
528.76	1299.21
529.12	1315.46
529.48	1332.05
529.84	1347.77
530.20	1364.01
530.56	1380.69
530.91	1397.83
531.27	1414.37
531.63	1430.48
531.99	1446.89
532.35	1462.47
532.71	1478.24
533.07	1494.20
533.42	1509.86
533.78	1525.51
534.14	1541.46
534.50	1556.54
534.86	1572.04
535.21	1587.13
535.57	1602.82
535.93	1618.04
536.29	1632.52
536.65	1647.33
537.00	1661.69
537.36	1676.66
537.72	1690.93
538.08	1705.12
538.44	1718.70
538.79	1732.24
539.15	1745.65
539.51	1759.06
539.87	1773.06
540.22	1786.44
540.58	1799.83
540.94	1812.75
541.29	1825.33
541.65	1837.83
542.01	1850.77
542.37	1862.96
542.72	1875.08
543.08	1886.58
543.44	1898.70
543.79	1909.77
544.15	1920.54
544.51	1931.94
544.87	1942.73
545.22	1953.44
545.58	1963.42
545.94	1972.94
546.29	1982.61
546.65	1992.32
547.01	2001.50
547.36	2010.18
547.72	2018.54
548.07	2026.36
548.43	2034.43
548.79	2042.38
549.14	2049.77
549.50	2056.98
549.86	2064.37
550.21	2071.62
550.57	2078.68
550.92	2085.19
551.28	2092.18
551.64	2099.14
551.99	2105.62
552.35	2111.72
552.70	2117.83
553.06	2123.92
553.41	2130.34
553.77	2136.38
554.13	2142.33
554.48	2148.48
554.84	2154.05
555.19	2159.24
555.55	2164.48
555.90	2168.90
556.26	2173.79
556.61	2178.51
556.97	2182.92
557.32	2187.10
557.68	2191.20
558.03	2195.54
558.39	2199.14
558.74	2203.84
559.10	2207.82
559.45	2211.63
559.81	2215.95
560.16	2219.76
560.52	2222.98
560.87	2226.32
561.23	2229.07
561.58	2232.07
561.94	2234.52
562.29	2236.89
562.64	2239.75
563.00	2242.24
563.35	2245.83
563.71	2249.01
564.06	2252.30
564.42	2255.33
564.77	2257.99
565.12	2260.37
565.48	2262.57
565.83	2264.71
566.19	2266.29
566.54	2267.31
566.89	2268.60
567.25	2269.37
567.60	2270.68
567.96	2272.56
568.31	2273.55
568.66	2274.78
569.02	2275.64
569.37	2276.12
569.72	2277.26
570.08	2277.55
570.43	2277.95
570.78	2277.75
571.14	2276.58
571.49	2275.43
571.84	2275.19
572.20	2274.49
572.55	2273.81
572.90	2272.28
573.26	2271.14
573.61	2269.41
573.96	2267.93
574.31	2265.10
574.67	2262.39
575.02	2259.13
575.37	2255.85
575.72	2252.26
576.08	2248.93
576.43	2245.78
576.78	2242.39
577.13	2239.20
577.49	2236.26
577.84	2232.82
578.19	2229.08
578.54	2225.53
578.90	2221.46
579.25	2216.08
579.60	2211.17
579.95	2206.37
580.30	2201.63
580.66	2196.54
581.01	2191.84
581.36	2187.05
581.71	2183.15
582.06	2178.90
582.42	2174.53
582.77	2169.53
583.12	2165.19
583.47	2160.88
583.82	2156.19
584.17	2151.18
584.53	2145.86
584.88	2140.44
585.23	2135.10
585.58	2129.79
585.93	2124.57
586.28	2119.90
586.63	2115.13
586.98	2110.26
587.34	2105.50
587.69	2100.81
588.04	2095.95
588.39	2090.36
588.74	2084.11
589.09	2078.04
589.44	2071.40
589.79	2065.50
590.14	2060.05
590.49	2053.70
590.84	2047.46
591.19	2041.47
591.54	2035.11
591.89	2028.12
592.25	2021.56
592.60	2014.42
592.95	2007.06
593.30	1999.76
593.65	1992.52
594.00	1985.50
594.35	1978.34
594.70	1970.58
595.05	1963.61
595.40	1956.35
595.75	1949.04
596.10	1943.03
596.45	1936.49
596.80	1930.56
597.15	1924.31
597.50	1917.33
597.85	1910.90
598.19	1904.28
598.54	1897.38
598.89	1890.89
599.24	1884.97
599.59	1878.43
599.94	1872.32
600.29	1866.14
600.64	1859.78
600.99	1852.47
601.34	1845.84
601.69	1838.99
602.04	1832.36
602.39	1824.96
602.74	1818.26
603.08	1811.56
603.43	1804.87
603.78	1797.52
604.13	1790.28
604.48	1783.00
604.83	1776.34
605.18	1769.57
605.53	1761.77
605.87	1753.78
606.22	1746.57
606.57	1738.65
606.92	1731.28
607.27	1724.28
607.62	1717.54
607.96	1710.33
608.31	1703.81
608.66	1696.32
609.01	1688.90
609.36	1681.37
609.70	1673.47
610.05	1665.70
610.40	1658.08
610.75	1649.87
611.10	1642.37
611.44	1634.00
611.79	1626.05
612.14	1617.41
612.49	1608.22
612.83	1599.97
613.18	1591.91
613.53	1583.91
613.88	1575.54
614.22	1567.43
614.57	1558.82
614.92	1550.66
615.27	1543.18
615.61	1534.88
615.96	1526.86
616.31	1519.22
616.65	1511.84
617.00	1504.29
617.35	1496.45
617.70	1488.31
618.04	1479.91
618.39	1471.80
618.74	1464.42
619.08	1456.20
619.43	1448.60
619.78	1441.85
620.12	1434.76
620.47	1427.29
620.82	1419.24
621.16	1411.87
621.51	1404.23
621.85	1396.66
622.20	1388.24
622.55	1379.91
622.89	1372.06
623.24	1364.45
623.59	1357.03
623.93	1349.54
624.28	1342.41
624.62	1334.92
624.97	1327.83
625.32	1320.93
625.66	1313.93
626.01	1306.74
626.35	1299.35
626.70	1291.64
627.04	1283.82
627.39	1276.04
627.73	1268.66
628.08	1261.73
628.43	1254.48
628.77	1247.20
629.12	1239.64
629.46	1232.62
629.81	1225.07
630.15	1217.91
630.50	1210.58
630.84	1202.51
631.19	1194.56
631.53	1186.93
631.88	1179.33
632.22	1171.68
632.57	1164.33
632.91	1156.83
633.26	1149.38
633.60	1141.93
633.95	1134.70
634.29	1127.75
634.64	1121.03
634.98	1113.75
635.32	1106.58
635.67	1099.91
636.01	1093.19
636.36	1086.42
636.70	1079.78
637.05	1073.33
637.39	1066.83
637.73	1060.34
638.08	1054.40
638.42	1048.40
638.77	1042.03
639.11	1035.60
639.45	1029.12
639.80	1022.58
640.14	1016.10
640.49	1009.60
640.83	1003.40
641.17	997.37
641.52	991.01
641.86	984.52
642.20	978.62
642.55	972.24
642.89	965.86
643.23	959.27
643.58	953.49
643.92	947.34
644.26	941.32
644.61	935.28
644.95	929.20
645.29	922.73
645.64	916.01
645.98	909.76
646.32	903.80
646.66	897.87
647.01	892.03
647.35	886.37
647.69	880.47
648.04	874.89
648.38	869.05
648.72	863.14
649.06	857.13
649.41	851.22
649.75	845.35
650.09	839.35
650.43	833.64
650.78	827.52
651.12	821.58
651.46	815.83
651.80	810.11
652.14	804.70
652.49	799.22
652.83	794.13
653.17	788.38
653.51	782.79
653.85	777.38
654.20	771.81
654.54	765.83
654.88	760.19
655.22	754.27
655.56	748.57
655.90	743.12
656.25	737.98
656.59	732.72
656.93	727.63
657.27	722.54
657.61	717.13
657.95	712.02
658.29	707.01
658.64	701.72
658.98	696.46
659.32	691.06
659.66	686.00
660.00	680.66
660.34	675.79
660.68	670.91
661.02	665.91
661.36	661.20
661.70	656.76
662.05	652.42
662.39	648.20
662.73	643.74
663.07	639.43
663.41	634.97
663.75	630.60
664.09	626.10
664.43	621.70
664.77	617.65
665.11	613.45
665.45	609.27
665.79	605.23
666.13	601.16
666.47	597.13
666.81	592.97
667.15	588.86
667.49	584.99
667.83	581.10
668.17	577.16
668.51	573.13
668.85	569.10
669.19	565.19
669.53	561.39
669.87	557.58
670.21	553.85
670.55	550.19
670.89	546.67
671.23	543.27
671.57	539.75
671.91	536.23
672.25	532.69
672.58	529.23
672.92	525.83
673.26	522.61
673.60	519.45
673.94	516.37
674.28	513.42
674.62	510.45
674.96	507.39
675.30	504.50
675.64	501.61
675.97	498.79
676.31	495.91
676.65	493.00
676.99	490.31
677.33	487.44
677.67	484.65
678.01	481.62
678.34	478.60
678.68	475.77
679.02	472.92
679.36	470.21
679.70	467.47
680.04	464.75
680.37	461.93
680.71	459.08
681.05	456.49
681.39	453.77
681.73	451.04
682.06	448.51
682.40	446.00
682.74	443.47
683.08	440.90
683.42	438.35
683.75	435.83
684.09	433.24
684.43	430.82
684.77	428.29
685.10	425.88
685.44	423.58
685.78	421.25
686.12	419.02
686.45	416.71
686.79	414.37
687.13	412.14
687.46	409.94
687.80	407.85
688.14	405.58
688.48	403.58
688.81	401.38
689.15	399.22
689.49	397.09
689.82	394.95
690.16	392.89
690.50	390.93
690.83	388.94
691.17	386.93
691.51	384.96
691.84	383.10
692.18	381.23
692.52	379.27
692.85	377.36
693.19	375.49
693.52	373.65
693.86	371.78
694.20	370.02
694.53	368.23
694.87	366.35
695.21	364.58
695.54	362.74
695.88	361.07
696.21	359.38
696.55	357.66
696.88	355.98
697.22	354.34
697.56	352.72
697.89	351.09
698.23	349.53
698.56	348.00
698.90	346.45
699.23	344.83
699.57	343.30
699.90	341.77
700.24	340.16
700.58	338.67
700.91	337.27
701.25	335.79
701.58	334.40
701.92	333.06
702.25	331.69
702.59	330.34
702.92	329.04
703.26	327.72
703.59	326.49
703.93	325.35
704.26	324.13
704.60	322.83
704.93	321.56
705.26	320.31
705.60	319.10
705.93	317.95
706.27	316.91
706.60	315.87
706.94	314.79
707.27	313.73
707.61	312.62
707.94	311.58
708.27	310.50
708.61	309.43
708.94	308.43
709.28	307.40
709.61	306.46
709.94	305.44
710.28	304.43
710.61	303.40
710.95	302.29
711.28	301.37
711.61	300.42
711.95	299.50
712.28	298.57
712.61	297.56
712.95	296.64
713.28	295.74
713.61	294.82
713.95	293.97
714.28	293.12
714.61	292.31
714.95	291.44
715.28	290.63
715.61	289.74
715.95	288.87
716.28	288.01
716.61	287.15
716.95	286.32
717.28	285.55
717.61	284.77
717.94	284.08
718.28	283.27
718.61	282.52
718.94	281.81
719.27	281.16
719.61	280.54
719.94	279.84
720.27	279.10
720.60	278.43
720.94	277.77
721.27	277.19
721.60	276.59
721.93	276.01
722.27	275.44
722.60	274.91
722.93	274.34
723.26	273.83
723.59	273.27
723.93	272.75
724.26	272.20
724.59	271.62
724.92	271.05
725.25	270.54
725.59	270.03
725.92	269.53
726.25	268.99
726.58	268.49
726.91	268.01
727.24	267.55
727.57	267.09
727.91	266.55
728.24	266.02
728.57	265.54
728.90	265.05
729.23	264.55
729.56	264.13
729.89	263.66
730.22	263.17
730.55	262.69
730.89	262.26
731.22	261.81
731.55	261.43
731.88	261.01
732.21	260.58
732.54	260.14
732.87	259.75
733.20	259.35
733.53	258.96
733.86	258.55
734.19	258.14
734.52	257.76
734.85	257.49
735.18	257.10
735.51	256.73
735.84	256.40
736.17	256.10
736.50	255.68
736.83	255.45
737.16	255.08
737.49	254.77
737.82	254.40
738.15	254.11
738.48	253.78
738.81	253.46
739.14	253.15
739.47	252.86
739.80	252.52
740.13	252.21
740.46	251.88
740.79	251.56
741.12	251.26
741.45	250.92
741.78	250.56
742.11	250.29
742.44	250.00
742.77	249.71
743.10	249.35
743.43	249.05
743.75	248.68
744.08	248.57
744.41	248.28
744.74	248.00
745.07	247.69
745.40	247.45
745.73	247.21
746.06	246.93
746.39	246.63
746.71	246.33
747.04	246.11
747.37	245.86
747.70	245.61
748.03	245.39
748.36	245.18
748.68	244.94
749.01	244.70
749.34	244.44
749.67	244.18
750.00	244.01
750.33	243.83
750.65	243.60
750.98	243.26
751.31	243.07
751.64	242.89
751.97	242.74
752.29	242.50
752.62	242.24
752.95	242.02
753.28	241.83
753.60	241.65
753.93	241.45
754.26	241.24
754.59	241.04
754.91	240.81
755.24	240.62
755.57	240.43
755.90	240.25
756.22	240.03
756.55	239.82
756.88	239.60
757.20	239.40
757.53	239.19
757.86	239.01
758.19	238.82
758.51	238.62
758.84	238.39
759.17	238.20
759.49	238.02
759.82	237.86
760.15	237.70
760.47	237.54
760.80	237.34
761.13	237.22
761.45	237.08
761.78	236.93
762.11	236.75
762.43	236.60
762.76	236.41
763.08	236.32
763.41	236.22
763.74	236.09
764.06	235.93
764.39	235.82
764.71	235.66
765.04	235.54
765.37	235.42
765.69	235.28
766.02	235.15
766.34	235.06
766.67	234.92
767.00	234.82
767.32	234.77
767.65	234.71
767.97	234.59
768.30	234.46
768.62	234.34
768.95	234.23
769.27	234.11
769.60	234.04
769.92	233.90
770.25	233.77
770.57	233.63
770.90	233.57
771.22	233.46
771.55	233.35
771.87	233.26
772.20	233.17
772.52	233.20
772.85	233.26
773.17	233.17
773.50	233.07
773.82	232.97
774.15	232.83
774.47	232.71
774.80	232.59
775.12	232.50
775.45	232.43
775.77	232.36
776.09	232.28
776.42	232.21
776.74	232.19
777.07	232.13
777.39	232.08
777.72	231.96
778.04	231.90
778.36	231.84
778.69	231.76
779.01	231.69
779.33	231.51
779.66	231.33
779.98	231.26
780.31	231.19
780.63	231.16
780.95	231.06
781.28	230.99
781.60	230.90
781.92	230.89
782.25	230.85
782.57	230.85
782.89	230.80
783.22	230.72
783.54	230.63
783.86	230.56
784.19	230.48
784.51	230.45
784.83	230.37
785.16	230.32
785.48	230.30
785.80	230.23
786.12	230.19
786.45	230.13
786.77	230.10
787.09	230.05
