SpectraSuite Data File
++++++++++++++++++++++++++++++++++++
Date: Fri Feb 01 15:55:25 EST 2013
User: group
Dark Spectrum Present: No
Reference Spectrum Present: No
Number of Sampled Component Spectra: 1
Spectrometers: USB2E7196
Integration Time (usec): 35000 (USB2E7196)
Spectra Averaged: 100 (USB2E7196)
Boxcar Smoothing: 10 (USB2E7196)
Correct for Electrical Dark: No (USB2E7196)
Strobe/Lamp Enabled: No (USB2E7196)
Correct for Detector Non-linearity: No (USB2E7196)
Correct for Stray Light: No (USB2E7196)
Number of Pixels in Processed Spectrum: 2048
>>>>>Begin Processed Spectral Data<<<<<
339.09	0.00
339.48	214.84
339.86	216.44
340.24	218.05
340.63	218.74
341.01	221.52
341.39	221.55
341.78	222.95
342.16	224.57
342.54	224.80
342.93	213.13
343.31	223.91
343.69	224.42
344.07	224.88
344.46	225.26
344.84	225.65
345.22	225.91
345.60	226.17
345.99	226.34
346.37	226.46
346.75	226.58
347.13	226.66
347.52	226.71
347.90	226.77
348.28	226.79
348.66	226.83
349.05	226.86
349.43	226.94
349.81	226.96
350.19	226.97
350.57	227.02
350.96	227.08
351.34	227.14
351.72	227.25
352.10	227.32
352.48	227.43
352.87	227.47
353.25	227.52
353.63	227.56
354.01	227.65
354.39	227.73
354.77	227.76
355.15	227.85
355.54	227.91
355.92	227.96
356.30	228.04
356.68	228.16
357.06	228.21
357.44	228.24
357.82	228.30
358.20	228.42
358.58	228.50
358.97	228.58
359.35	228.67
359.73	228.77
360.11	228.84
360.49	228.89
360.87	228.91
361.25	228.94
361.63	229.03
362.01	229.04
362.39	229.07
362.77	229.13
363.15	229.16
363.53	229.18
363.91	229.18
364.29	229.21
364.67	229.14
365.05	229.18
365.43	229.18
365.81	229.19
366.19	229.18
366.57	229.20
366.95	229.22
367.33	229.19
367.71	229.15
368.09	229.12
368.47	229.10
368.85	229.11
369.23	229.14
369.61	229.09
369.99	229.15
370.37	229.15
370.75	229.15
371.13	229.11
371.51	229.09
371.89	229.07
372.27	229.04
372.65	229.01
373.03	228.94
373.41	228.92
373.78	228.90
374.16	228.83
374.54	228.75
374.92	228.67
375.30	228.61
375.68	228.53
376.06	228.49
376.44	228.43
376.82	228.37
377.19	228.29
377.57	228.22
377.95	228.07
378.33	227.98
378.71	227.89
379.09	227.83
379.47	227.73
379.84	227.68
380.22	227.58
380.60	227.49
380.98	227.42
381.36	227.33
381.73	227.24
382.11	227.18
382.49	227.12
382.87	227.05
383.25	227.01
383.62	227.07
384.00	226.99
384.38	226.93
384.76	226.89
385.13	226.85
385.51	226.80
385.89	226.76
386.27	226.70
386.64	226.65
387.02	226.59
387.40	226.57
387.78	226.52
388.15	226.48
388.53	226.47
388.91	226.42
389.29	226.37
389.66	226.37
390.04	226.31
390.42	226.32
390.79	226.32
391.17	226.26
391.55	226.13
391.92	226.12
392.30	226.14
392.68	226.09
393.05	226.12
393.43	226.08
393.81	226.10
394.18	226.11
394.56	226.11
394.94	226.16
395.31	226.18
395.69	226.23
396.06	226.30
396.44	226.31
396.82	226.35
397.19	226.44
397.57	226.47
397.95	226.53
398.32	226.51
398.70	226.56
399.07	226.63
399.45	226.72
399.82	226.79
400.20	226.85
400.58	226.92
400.95	226.93
401.33	227.07
401.70	227.19
402.08	227.30
402.45	227.41
402.83	227.54
403.20	227.61
403.58	227.70
403.95	227.82
404.33	227.94
404.71	228.04
405.08	228.24
405.46	228.36
405.83	228.50
406.21	228.67
406.58	228.83
406.96	228.98
407.33	229.14
407.70	229.30
408.08	229.59
408.45	229.83
408.83	230.09
409.20	230.32
409.58	230.50
409.95	230.75
410.33	231.01
410.70	231.24
411.08	231.59
411.45	231.91
411.82	232.22
412.20	232.58
412.57	233.01
412.95	233.27
413.32	233.69
413.69	234.12
414.07	234.56
414.44	235.04
414.82	235.53
415.19	236.07
415.56	236.63
415.94	237.12
416.31	237.78
416.68	238.38
417.06	239.09
417.43	239.84
417.81	240.64
418.18	241.41
418.55	242.23
418.93	243.09
419.30	243.99
419.67	244.93
420.04	245.89
420.42	246.91
420.79	248.10
421.16	249.26
421.54	250.50
421.91	251.77
422.28	253.02
422.66	254.34
423.03	255.66
423.40	257.02
423.77	258.45
424.15	259.86
424.52	261.38
424.89	262.97
425.26	264.48
425.64	265.88
426.01	267.50
426.38	269.17
426.75	270.84
427.13	272.56
427.50	274.38
427.87	276.27
428.24	278.15
428.61	279.87
428.99	281.80
429.36	283.87
429.73	285.92
430.10	287.93
430.47	290.01
430.85	292.11
431.22	294.31
431.59	296.72
431.96	298.96
432.33	301.42
432.70	303.79
433.08	306.57
433.45	309.19
433.82	311.78
434.19	314.65
434.56	317.47
434.93	320.13
435.30	322.72
435.68	325.60
436.05	328.39
436.42	331.24
436.79	333.76
437.16	336.42
437.53	339.23
437.90	342.01
438.27	344.70
438.64	347.50
439.01	350.11
439.38	352.30
439.75	354.45
440.13	356.95
440.50	359.24
440.87	361.10
441.24	363.07
441.61	365.27
441.98	366.78
442.35	368.54
442.72	370.35
443.09	372.15
443.46	373.14
443.83	373.71
444.20	374.16
444.57	374.98
444.94	375.29
445.31	375.62
445.68	376.01
446.05	376.11
446.42	375.75
446.79	375.31
447.16	374.84
447.53	374.52
447.90	373.30
448.27	372.21
448.64	370.61
449.01	369.42
449.37	367.39
449.74	365.45
450.11	363.21
450.48	360.75
450.85	358.24
451.22	356.09
451.59	354.08
451.96	352.13
452.33	349.55
452.70	347.17
453.07	344.32
453.43	341.42
453.80	338.68
454.17	335.99
454.54	333.50
454.91	330.80
455.28	328.11
455.65	325.66
456.02	323.20
456.38	321.09
456.75	318.44
457.12	316.24
457.49	314.02
457.86	311.86
458.23	310.02
458.59	307.94
458.96	305.82
459.33	303.99
459.70	302.15
460.07	300.62
460.43	298.92
460.80	297.30
461.17	295.82
461.54	294.31
461.91	292.95
462.27	291.49
462.64	290.24
463.01	288.94
463.38	287.67
463.74	286.31
464.11	285.16
464.48	284.18
464.85	283.05
465.21	282.22
465.58	281.28
465.95	280.17
466.32	279.27
466.68	278.43
467.05	277.53
467.42	276.62
467.78	275.70
468.15	274.81
468.52	274.16
468.88	273.36
469.25	272.60
469.62	271.95
469.98	271.30
470.35	270.67
470.72	270.08
471.08	269.41
471.45	268.88
471.82	268.32
472.18	267.69
472.55	267.28
472.92	266.73
473.28	266.28
473.65	265.85
474.02	265.45
474.38	265.05
474.75	264.75
475.11	264.42
475.48	264.19
475.85	264.00
476.21	263.78
476.58	263.59
476.94	263.50
477.31	263.31
477.67	263.12
478.04	263.03
478.41	262.97
478.77	263.00
479.14	262.92
479.50	262.93
479.87	262.98
480.23	263.10
480.60	263.19
480.96	263.31
481.33	263.51
481.69	263.71
482.06	263.93
482.42	264.14
482.79	264.41
483.15	264.71
483.52	265.09
483.88	265.40
484.25	265.76
484.61	266.13
484.98	266.58
485.34	267.19
485.71	267.75
486.07	268.35
486.44	268.92
486.80	269.61
487.17	270.33
487.53	271.18
487.90	271.99
488.26	272.90
488.62	273.90
488.99	274.86
489.35	275.88
489.72	277.00
490.08	278.20
490.44	279.42
490.81	280.74
491.17	282.08
491.54	283.57
491.90	285.13
492.26	286.76
492.63	288.53
492.99	290.28
493.36	292.16
493.72	294.23
494.08	296.35
494.45	298.64
494.81	301.01
495.17	303.41
495.54	305.96
495.90	308.65
496.26	311.42
496.63	314.41
496.99	317.48
497.35	320.72
497.72	324.06
498.08	327.60
498.44	331.28
498.80	335.25
499.17	339.26
499.53	343.44
499.89	347.82
500.26	352.26
500.62	356.94
500.98	361.93
501.34	367.00
501.71	372.30
502.07	377.70
502.43	383.33
502.79	389.14
503.16	395.21
503.52	401.46
503.88	407.90
504.24	414.49
504.60	421.47
504.97	428.59
505.33	435.96
505.69	443.62
506.05	451.40
506.41	459.28
506.78	467.45
507.14	475.91
507.50	484.66
507.86	493.74
508.22	502.96
508.59	512.12
508.95	521.74
509.31	531.57
509.67	541.73
510.03	552.01
510.39	562.62
510.75	573.46
511.12	584.44
511.48	595.77
511.84	607.30
512.20	618.81
512.56	630.78
512.92	642.94
513.28	655.41
513.64	667.92
514.00	680.60
514.37	693.55
514.73	706.58
515.09	719.60
515.45	732.90
515.81	746.53
516.17	760.58
516.53	774.68
516.89	788.90
517.25	803.09
517.61	817.56
517.97	832.07
518.33	846.52
518.69	861.36
519.05	876.34
519.41	891.54
519.77	907.05
520.13	922.43
520.49	937.74
520.85	953.15
521.21	968.79
521.57	985.09
521.93	1000.82
522.29	1017.28
522.65	1033.55
523.01	1049.73
523.37	1065.73
523.73	1081.88
524.09	1097.91
524.45	1114.17
524.81	1130.73
525.17	1147.56
525.53	1164.39
525.89	1181.29
526.25	1198.03
526.61	1214.41
526.97	1231.12
527.33	1247.53
527.68	1264.15
528.04	1280.68
528.40	1297.19
528.76	1314.27
529.12	1330.83
529.48	1347.77
529.84	1363.71
530.20	1380.31
530.56	1397.32
530.91	1414.72
531.27	1431.39
531.63	1447.91
531.99	1464.56
532.35	1480.51
532.71	1496.22
533.07	1512.34
533.42	1528.09
533.78	1543.99
534.14	1560.18
534.50	1575.34
534.86	1591.30
535.21	1606.39
535.57	1622.18
535.93	1637.64
536.29	1652.37
536.65	1667.31
537.00	1681.98
537.36	1697.29
537.72	1711.69
538.08	1726.11
538.44	1739.88
538.79	1753.83
539.15	1767.51
539.51	1781.15
539.87	1795.41
540.22	1809.21
540.58	1823.03
540.94	1836.24
541.29	1849.17
541.65	1861.82
542.01	1875.02
542.37	1887.27
542.72	1899.81
543.08	1911.66
543.44	1923.98
543.79	1935.08
544.15	1946.17
544.51	1957.68
544.87	1968.51
545.22	1979.32
545.58	1989.44
545.94	1999.10
546.29	2008.92
546.65	2018.62
547.01	2027.85
547.36	2036.62
547.72	2045.13
548.07	2052.88
548.43	2061.12
548.79	2069.14
549.14	2076.66
549.50	2084.00
549.86	2091.62
550.21	2098.91
550.57	2105.94
550.92	2112.49
551.28	2119.61
551.64	2126.63
551.99	2133.06
552.35	2139.37
552.70	2145.54
553.06	2151.54
553.41	2157.91
553.77	2163.95
554.13	2170.04
554.48	2176.21
554.84	2181.62
555.19	2186.85
555.55	2191.99
555.90	2196.66
556.26	2201.56
556.61	2206.33
556.97	2210.66
557.32	2214.73
557.68	2218.74
558.03	2223.13
558.39	2226.91
558.74	2231.44
559.10	2235.18
559.45	2238.94
559.81	2243.15
560.16	2247.03
560.52	2250.24
560.87	2253.71
561.23	2256.36
561.58	2259.36
561.94	2261.85
562.29	2264.19
562.64	2266.77
563.00	2269.42
563.35	2272.81
563.71	2275.91
564.06	2279.13
564.42	2281.96
564.77	2284.55
565.12	2286.92
565.48	2288.82
565.83	2290.67
566.19	2292.08
566.54	2293.02
566.89	2294.14
567.25	2294.75
567.60	2296.12
567.96	2297.83
568.31	2298.64
568.66	2299.67
569.02	2300.19
569.37	2300.55
569.72	2301.44
570.08	2301.68
570.43	2301.76
570.78	2301.06
571.14	2299.53
571.49	2298.17
571.84	2298.04
572.20	2296.90
572.55	2295.88
572.90	2294.47
573.26	2293.11
573.61	2291.42
573.96	2289.61
574.31	2286.76
574.67	2283.73
575.02	2279.99
575.37	2276.57
575.72	2272.76
576.08	2269.44
576.43	2266.12
576.78	2262.39
577.13	2259.35
577.49	2256.45
577.84	2252.86
578.19	2249.21
578.54	2245.62
578.90	2241.34
579.25	2235.63
579.60	2230.71
579.95	2225.70
580.30	2220.63
580.66	2215.37
581.01	2210.42
581.36	2205.65
581.71	2201.35
582.06	2196.97
582.42	2192.54
582.77	2187.41
583.12	2182.82
583.47	2178.05
583.82	2173.09
584.17	2167.85
584.53	2162.24
584.88	2156.37
585.23	2150.60
585.58	2145.18
585.93	2139.70
586.28	2135.05
586.63	2129.93
586.98	2124.80
587.34	2120.01
587.69	2115.12
588.04	2109.91
588.39	2104.35
588.74	2097.81
589.09	2091.72
589.44	2084.80
589.79	2078.74
590.14	2072.99
590.49	2066.37
590.84	2060.04
591.19	2054.06
591.54	2047.51
591.89	2040.22
592.25	2033.48
592.60	2026.35
592.95	2018.71
593.30	2011.36
593.65	2003.65
594.00	1996.71
594.35	1989.34
594.70	1981.35
595.05	1974.04
595.40	1966.82
595.75	1959.29
596.10	1953.12
596.45	1946.41
596.80	1940.28
597.15	1933.67
597.50	1926.58
597.85	1920.16
598.19	1913.53
598.54	1906.40
598.89	1899.86
599.24	1893.81
599.59	1886.99
599.94	1880.80
600.29	1874.45
600.64	1867.84
600.99	1860.54
601.34	1853.61
601.69	1846.82
602.04	1840.08
602.39	1832.81
602.74	1825.96
603.08	1819.04
603.43	1812.28
603.78	1804.98
604.13	1797.93
604.48	1790.62
604.83	1783.75
605.18	1776.70
605.53	1768.67
605.87	1760.67
606.22	1753.48
606.57	1745.68
606.92	1738.51
607.27	1731.48
607.62	1724.58
607.96	1717.30
608.31	1710.67
608.66	1703.14
609.01	1695.51
609.36	1687.78
609.70	1679.77
610.05	1671.75
610.40	1664.24
610.75	1655.94
611.10	1648.23
611.44	1639.66
611.79	1631.68
612.14	1623.01
612.49	1613.93
612.83	1605.52
613.18	1597.35
613.53	1589.10
613.88	1580.52
614.22	1572.22
614.57	1563.49
614.92	1555.43
615.27	1547.79
615.61	1539.33
615.96	1531.35
616.31	1523.79
616.65	1516.44
617.00	1508.98
617.35	1501.29
617.70	1492.92
618.04	1484.36
618.39	1476.14
618.74	1468.64
619.08	1460.36
619.43	1452.91
619.78	1446.01
620.12	1438.91
620.47	1431.42
620.82	1423.35
621.16	1415.99
621.51	1408.39
621.85	1400.74
622.20	1392.26
622.55	1384.02
622.89	1376.22
623.24	1368.53
623.59	1361.16
623.93	1353.67
624.28	1346.36
624.62	1338.73
624.97	1331.62
625.32	1324.91
625.66	1317.94
626.01	1310.69
626.35	1303.20
626.70	1295.41
627.04	1287.67
627.39	1279.82
627.73	1272.37
628.08	1265.45
628.43	1258.03
628.77	1250.56
629.12	1243.00
629.46	1235.75
629.81	1228.29
630.15	1221.13
630.50	1213.73
630.84	1205.47
631.19	1197.51
631.53	1189.96
631.88	1182.52
632.22	1174.87
632.57	1167.56
632.91	1159.99
633.26	1152.54
633.60	1145.20
633.95	1138.04
634.29	1131.02
634.64	1124.35
634.98	1117.02
635.32	1109.78
635.67	1103.26
636.01	1096.77
636.36	1089.88
636.70	1083.46
637.05	1076.92
637.39	1070.37
637.73	1063.83
638.08	1057.95
638.42	1051.96
638.77	1045.57
639.11	1038.91
639.45	1032.48
639.80	1025.83
640.14	1019.37
640.49	1012.87
640.83	1006.56
641.17	1000.31
641.52	994.00
641.86	987.60
642.20	981.69
642.55	975.51
642.89	968.90
643.23	962.31
643.58	956.64
643.92	950.39
644.26	944.29
644.61	938.31
644.95	932.34
645.29	925.77
645.64	918.98
645.98	912.67
646.32	906.84
646.66	900.80
647.01	895.02
647.35	889.28
647.69	883.51
648.04	877.94
648.38	872.18
648.72	866.14
649.06	860.12
649.41	854.29
649.75	848.25
650.09	842.39
650.43	836.64
650.78	830.45
651.12	824.49
651.46	818.84
651.80	813.07
652.14	807.65
652.49	802.29
652.83	797.21
653.17	791.44
653.51	785.76
653.85	780.42
654.20	774.76
654.54	768.72
654.88	762.88
655.22	757.07
655.56	751.38
655.90	745.97
656.25	740.65
656.59	735.34
656.93	730.29
657.27	725.18
657.61	719.69
657.95	714.63
658.29	709.58
658.64	704.29
658.98	698.96
659.32	693.52
659.66	688.36
660.00	683.01
660.34	678.07
660.68	673.08
661.02	667.99
661.36	663.28
661.70	658.84
662.05	654.53
662.39	650.14
662.73	645.64
663.07	641.23
663.41	636.74
663.75	632.21
664.09	627.58
664.43	623.18
664.77	619.06
665.11	614.77
665.45	610.68
665.79	606.58
666.13	602.46
666.47	598.39
666.81	594.12
667.15	590.00
667.49	586.11
667.83	582.34
668.17	578.41
668.51	574.33
668.85	570.31
669.19	566.51
669.53	562.68
669.87	558.86
670.21	555.15
670.55	551.55
670.89	548.12
671.23	544.71
671.57	541.17
671.91	537.62
672.25	534.18
672.58	530.66
672.92	527.26
673.26	524.12
673.60	520.89
673.94	517.78
674.28	514.90
674.62	511.96
674.96	508.85
675.30	505.95
675.64	502.99
675.97	500.26
676.31	497.33
676.65	494.41
676.99	491.67
677.33	488.82
677.67	486.03
678.01	482.99
678.34	480.00
678.68	477.09
679.02	474.33
679.36	471.50
679.70	468.80
680.04	466.03
680.37	463.12
680.71	460.37
681.05	457.78
681.39	455.04
681.73	452.40
682.06	449.84
682.40	447.28
682.74	444.76
683.08	442.15
683.42	439.56
683.75	437.06
684.09	434.50
684.43	432.05
684.77	429.61
685.10	427.27
685.44	424.98
685.78	422.69
686.12	420.42
686.45	418.14
686.79	415.79
687.13	413.63
687.46	411.49
687.80	409.32
688.14	407.08
688.48	405.01
688.81	402.70
689.15	400.57
689.49	398.44
689.82	396.39
690.16	394.38
690.50	392.39
690.83	390.45
691.17	388.49
691.51	386.56
691.84	384.67
692.18	382.70
692.52	380.76
692.85	378.84
693.19	376.93
693.52	375.14
693.86	373.34
694.20	371.56
694.53	369.80
694.87	367.95
695.21	366.18
695.54	364.36
695.88	362.67
696.21	360.92
696.55	359.21
696.88	357.50
697.22	355.81
697.56	354.24
697.89	352.62
698.23	351.04
698.56	349.47
698.90	347.88
699.23	346.26
699.57	344.68
699.90	343.14
700.24	341.60
700.58	340.01
700.91	338.52
701.25	337.06
701.58	335.66
701.92	334.36
702.25	332.98
702.59	331.58
702.92	330.28
703.26	329.02
703.59	327.76
703.93	326.54
704.26	325.30
704.60	323.98
704.93	322.70
705.26	321.46
705.60	320.26
705.93	319.11
706.27	318.06
706.60	316.99
706.94	315.94
707.27	314.86
707.61	313.82
707.94	312.78
708.27	311.67
708.61	310.58
708.94	309.53
709.28	308.56
709.61	307.64
709.94	306.68
710.28	305.62
710.61	304.63
710.95	303.59
711.28	302.67
711.61	301.76
711.95	300.86
712.28	299.89
712.61	298.95
712.95	298.04
713.28	297.18
713.61	296.31
713.95	295.43
714.28	294.51
714.61	293.65
714.95	292.79
715.28	291.94
715.61	291.05
715.95	290.21
716.28	289.37
716.61	288.55
716.95	287.75
717.28	287.00
717.61	286.23
717.94	285.53
718.28	284.75
718.61	283.98
718.94	283.27
719.27	282.58
719.61	281.92
719.94	281.24
720.27	280.52
720.60	279.87
720.94	279.22
721.27	278.65
721.60	278.10
721.93	277.50
722.27	276.97
722.60	276.41
722.93	275.84
723.26	275.28
723.59	274.73
723.93	274.16
724.26	273.64
724.59	273.04
724.92	272.44
725.25	271.91
725.59	271.40
725.92	270.89
726.25	270.38
726.58	269.90
726.91	269.41
727.24	268.94
727.57	268.48
727.91	267.97
728.24	267.50
728.57	266.96
728.90	266.53
729.23	266.04
729.56	265.63
729.89	265.12
730.22	264.63
730.55	264.12
730.89	263.67
731.22	263.23
731.55	262.88
731.88	262.47
732.21	262.05
732.54	261.61
732.87	261.13
733.20	260.76
733.53	260.36
733.86	260.01
734.19	259.62
734.52	259.21
734.85	258.92
735.18	258.49
735.51	258.15
735.84	257.79
736.17	257.43
736.50	257.02
736.83	256.81
737.16	256.46
737.49	256.19
737.82	255.85
738.15	255.50
738.48	255.14
738.81	254.85
739.14	254.57
739.47	254.31
739.80	254.05
740.13	253.74
740.46	253.38
740.79	253.00
741.12	252.70
741.45	252.37
741.78	252.00
742.11	251.73
742.44	251.40
742.77	251.13
743.10	250.83
743.43	250.57
743.75	250.16
744.08	250.05
744.41	249.72
744.74	249.44
745.07	249.18
745.40	248.92
745.73	248.70
746.06	248.36
746.39	248.08
746.71	247.81
747.04	247.54
747.37	247.28
747.70	247.05
748.03	246.81
748.36	246.57
748.68	246.35
749.01	246.11
749.34	245.89
749.67	245.64
750.00	245.42
750.33	245.23
750.65	245.02
750.98	244.64
751.31	244.46
751.64	244.23
751.97	244.07
752.29	243.87
752.62	243.59
752.95	243.40
753.28	243.15
753.60	242.95
753.93	242.79
754.26	242.59
754.59	242.35
754.91	242.16
755.24	241.96
755.57	241.74
755.90	241.56
756.22	241.37
756.55	241.16
756.88	240.94
757.20	240.71
757.53	240.52
757.86	240.38
758.19	240.22
758.51	240.07
758.84	239.82
759.17	239.64
759.49	239.47
759.82	239.38
760.15	239.25
760.47	239.09
760.80	238.89
761.13	238.75
761.45	238.63
761.78	238.44
762.11	238.30
762.43	238.16
762.76	238.00
763.08	237.87
763.41	237.74
763.74	237.62
764.06	237.51
764.39	237.36
764.71	237.21
765.04	237.05
765.37	236.92
765.69	236.79
766.02	236.68
766.34	236.54
766.67	236.34
767.00	236.22
767.32	236.15
767.65	236.08
767.97	235.97
768.30	235.86
768.62	235.76
768.95	235.62
769.27	235.54
769.60	235.46
769.92	235.36
770.25	235.25
770.57	235.14
770.90	235.03
771.22	234.91
771.55	234.82
771.87	234.72
772.20	234.62
772.52	234.64
772.85	234.65
773.17	234.59
773.50	234.50
773.82	234.42
774.15	234.28
774.47	234.14
774.80	234.02
775.12	233.92
775.45	233.85
775.77	233.78
776.09	233.72
776.42	233.64
776.74	233.56
777.07	233.48
777.39	233.41
777.72	233.34
778.04	233.35
778.36	233.28
778.69	233.26
779.01	233.18
779.33	233.02
779.66	232.83
779.98	232.74
780.31	232.69
780.63	232.65
780.95	232.58
781.28	232.50
781.60	232.46
781.92	232.42
782.25	232.32
782.57	232.29
782.89	232.19
783.22	232.10
783.54	232.03
783.86	231.95
784.19	231.88
784.51	231.87
784.83	231.74
785.16	231.70
785.48	231.62
785.80	231.58
786.12	231.56
786.45	231.52
786.77	231.51
787.09	231.46
