SpectraSuite Data File
++++++++++++++++++++++++++++++++++++
Date: Fri Feb 01 15:22:42 EST 2013
User: group
Dark Spectrum Present: No
Reference Spectrum Present: No
Number of Sampled Component Spectra: 1
Spectrometers: USB2E7196
Integration Time (usec): 35000 (USB2E7196)
Spectra Averaged: 100 (USB2E7196)
Boxcar Smoothing: 10 (USB2E7196)
Correct for Electrical Dark: No (USB2E7196)
Strobe/Lamp Enabled: No (USB2E7196)
Correct for Detector Non-linearity: No (USB2E7196)
Correct for Stray Light: No (USB2E7196)
Number of Pixels in Processed Spectrum: 2048
>>>>>Begin Processed Spectral Data<<<<<
339.09	0.00
339.48	215.00
339.86	216.56
340.24	217.65
340.63	219.38
341.01	222.05
341.39	221.93
341.78	223.53
342.16	224.27
342.54	224.98
342.93	213.44
343.31	224.22
343.69	224.77
344.07	225.22
344.46	225.66
344.84	226.04
345.22	226.27
345.60	226.52
345.99	226.69
346.37	226.80
346.75	226.90
347.13	226.95
347.52	226.97
347.90	227.07
348.28	227.10
348.66	227.16
349.05	227.13
349.43	227.14
349.81	227.18
350.19	227.19
350.57	227.22
350.96	227.28
351.34	227.36
351.72	227.44
352.10	227.56
352.48	227.62
352.87	227.67
353.25	227.73
353.63	227.79
354.01	227.88
354.39	228.00
354.77	228.08
355.15	228.20
355.54	228.26
355.92	228.30
356.30	228.35
356.68	228.46
357.06	228.55
357.44	228.63
357.82	228.71
358.20	228.81
358.58	228.85
358.97	228.93
359.35	229.03
359.73	229.10
360.11	229.13
360.49	229.18
360.87	229.24
361.25	229.32
361.63	229.38
362.01	229.44
362.39	229.46
362.77	229.51
363.15	229.52
363.53	229.55
363.91	229.58
364.29	229.64
364.67	229.57
365.05	229.59
365.43	229.60
365.81	229.59
366.19	229.62
366.57	229.67
366.95	229.66
367.33	229.62
367.71	229.60
368.09	229.61
368.47	229.59
368.85	229.56
369.23	229.54
369.61	229.48
369.99	229.48
370.37	229.46
370.75	229.45
371.13	229.43
371.51	229.39
371.89	229.36
372.27	229.31
372.65	229.28
373.03	229.23
373.41	229.16
373.78	229.10
374.16	229.00
374.54	228.92
374.92	228.83
375.30	228.76
375.68	228.67
376.06	228.61
376.44	228.54
376.82	228.49
377.19	228.41
377.57	228.35
377.95	228.23
378.33	228.14
378.71	227.99
379.09	227.91
379.47	227.83
379.84	227.73
380.22	227.66
380.60	227.54
380.98	227.47
381.36	227.37
381.73	227.33
382.11	227.25
382.49	227.19
382.87	227.11
383.25	227.07
383.62	227.11
384.00	227.02
384.38	226.95
384.76	226.90
385.13	226.85
385.51	226.79
385.89	226.69
386.27	226.66
386.64	226.63
387.02	226.58
387.40	226.54
387.78	226.52
388.15	226.50
388.53	226.48
388.91	226.46
389.29	226.47
389.66	226.46
390.04	226.44
390.42	226.45
390.79	226.45
391.17	226.40
391.55	226.32
391.92	226.35
392.30	226.37
392.68	226.34
393.05	226.36
393.43	226.38
393.81	226.39
394.18	226.38
394.56	226.41
394.94	226.45
395.31	226.47
395.69	226.50
396.06	226.53
396.44	226.59
396.82	226.63
397.19	226.70
397.57	226.71
397.95	226.77
398.32	226.78
398.70	226.84
399.07	226.93
399.45	226.97
399.82	227.02
400.20	227.07
400.58	227.17
400.95	227.21
401.33	227.34
401.70	227.52
402.08	227.62
402.45	227.72
402.83	227.85
403.20	228.00
403.58	228.11
403.95	228.24
404.33	228.37
404.71	228.48
405.08	228.67
405.46	228.81
405.83	228.99
406.21	229.15
406.58	229.34
406.96	229.52
407.33	229.73
407.70	229.93
408.08	230.22
408.45	230.43
408.83	230.69
409.20	230.89
409.58	231.10
409.95	231.42
410.33	231.69
410.70	231.92
411.08	232.22
411.45	232.52
411.82	232.83
412.20	233.16
412.57	233.62
412.95	233.93
413.32	234.34
413.69	234.75
414.07	235.17
414.44	235.61
414.82	236.08
415.19	236.63
415.56	237.19
415.94	237.72
416.31	238.38
416.68	239.01
417.06	239.74
417.43	240.39
417.81	241.13
418.18	241.90
418.55	242.75
418.93	243.59
419.30	244.47
419.67	245.46
420.04	246.40
420.42	247.37
420.79	248.55
421.16	249.71
421.54	250.89
421.91	252.16
422.28	253.41
422.66	254.73
423.03	256.03
423.40	257.37
423.77	258.81
424.15	260.20
424.52	261.68
424.89	263.27
425.26	264.84
425.64	266.25
426.01	267.84
426.38	269.49
426.75	271.18
427.13	272.93
427.50	274.72
427.87	276.62
428.24	278.47
428.61	280.20
428.99	282.14
429.36	284.23
429.73	286.23
430.10	288.25
430.47	290.31
430.85	292.39
431.22	294.63
431.59	297.00
431.96	299.29
432.33	301.78
432.70	304.17
433.08	306.96
433.45	309.63
433.82	312.27
434.19	315.17
434.56	317.98
434.93	320.65
435.30	323.23
435.68	326.13
436.05	328.98
436.42	331.79
436.79	334.29
437.16	336.95
437.53	339.81
437.90	342.68
438.27	345.45
438.64	348.33
439.01	350.90
439.38	353.15
439.75	355.31
440.13	357.79
440.50	360.16
440.87	362.01
441.24	363.94
441.61	366.08
441.98	367.60
442.35	369.43
442.72	371.26
443.09	373.06
443.46	374.03
443.83	374.64
444.20	375.14
444.57	375.99
444.94	376.34
445.31	376.71
445.68	377.00
446.05	377.11
446.42	376.73
446.79	376.34
447.16	375.86
447.53	375.51
447.90	374.34
448.27	373.15
448.64	371.60
449.01	370.43
449.37	368.47
449.74	366.56
450.11	364.26
450.48	361.79
450.85	359.31
451.22	357.16
451.59	355.09
451.96	353.13
452.33	350.55
452.70	348.17
453.07	345.32
453.43	342.44
453.80	339.65
454.17	336.96
454.54	334.42
454.91	331.71
455.28	329.05
455.65	326.58
456.02	324.10
456.38	321.92
456.75	319.32
457.12	317.07
457.49	314.86
457.86	312.71
458.23	310.87
458.59	308.79
458.96	306.68
459.33	304.85
459.70	302.98
460.07	301.47
460.43	299.73
460.80	298.07
461.17	296.61
461.54	295.12
461.91	293.69
462.27	292.17
462.64	290.91
463.01	289.58
463.38	288.30
463.74	286.95
464.11	285.78
464.48	284.68
464.85	283.57
465.21	282.68
465.58	281.76
465.95	280.66
466.32	279.76
466.68	278.90
467.05	277.98
467.42	277.09
467.78	276.14
468.15	275.28
468.52	274.66
468.88	273.82
469.25	273.02
469.62	272.37
469.98	271.77
470.35	271.13
470.72	270.45
471.08	269.75
471.45	269.25
471.82	268.72
472.18	268.16
472.55	267.70
472.92	267.18
473.28	266.72
473.65	266.26
474.02	265.80
474.38	265.41
474.75	265.05
475.11	264.71
475.48	264.44
475.85	264.20
476.21	263.94
476.58	263.74
476.94	263.58
477.31	263.42
477.67	263.21
478.04	263.13
478.41	263.11
478.77	263.18
479.14	263.09
479.50	263.08
479.87	263.12
480.23	263.18
480.60	263.22
480.96	263.29
481.33	263.47
481.69	263.62
482.06	263.83
482.42	264.06
482.79	264.32
483.15	264.62
483.52	264.95
483.88	265.29
484.25	265.66
484.61	266.08
484.98	266.52
485.34	267.10
485.71	267.66
486.07	268.25
486.44	268.81
486.80	269.48
487.17	270.18
487.53	271.02
487.90	271.89
488.26	272.82
488.62	273.81
488.99	274.79
489.35	275.86
489.72	276.97
490.08	278.17
490.44	279.38
490.81	280.71
491.17	282.08
491.54	283.59
491.90	285.13
492.26	286.79
492.63	288.51
492.99	290.29
493.36	292.20
493.72	294.25
494.08	296.34
494.45	298.60
494.81	300.99
495.17	303.40
495.54	305.95
495.90	308.64
496.26	311.45
496.63	314.41
496.99	317.51
497.35	320.76
497.72	324.16
498.08	327.72
498.44	331.38
498.80	335.30
499.17	339.34
499.53	343.53
499.89	347.92
500.26	352.41
500.62	357.08
500.98	362.08
501.34	367.14
501.71	372.41
502.07	377.85
502.43	383.47
502.79	389.28
503.16	395.35
503.52	401.63
503.88	408.06
504.24	414.67
504.60	421.57
504.97	428.71
505.33	436.07
505.69	443.77
506.05	451.54
506.41	459.42
506.78	467.58
507.14	475.97
507.50	484.66
507.86	493.78
508.22	502.99
508.59	512.13
508.95	521.69
509.31	531.52
509.67	541.58
510.03	551.81
510.39	562.38
510.75	573.15
511.12	584.08
511.48	595.31
511.84	606.73
512.20	618.25
512.56	630.23
512.92	642.41
513.28	654.70
513.64	667.18
514.00	679.92
514.37	692.86
514.73	705.98
515.09	719.04
515.45	732.28
515.81	745.90
516.17	759.90
516.53	774.08
516.89	788.24
517.25	802.51
517.61	817.04
517.97	831.53
518.33	846.09
518.69	860.89
519.05	875.92
519.41	891.23
519.77	906.83
520.13	922.31
520.49	937.67
520.85	953.17
521.21	968.98
521.57	985.27
521.93	1001.03
522.29	1017.42
522.65	1033.69
523.01	1049.96
523.37	1066.02
523.73	1082.25
524.09	1098.46
524.45	1114.85
524.81	1131.54
525.17	1148.43
525.53	1165.41
525.89	1182.22
526.25	1199.05
526.61	1215.61
526.97	1232.34
527.33	1248.81
527.68	1265.38
528.04	1281.94
528.40	1298.60
528.76	1315.63
529.12	1332.27
529.48	1349.24
529.84	1365.44
530.20	1382.26
530.56	1399.43
530.91	1416.91
531.27	1433.76
531.63	1450.16
531.99	1466.84
532.35	1482.86
532.71	1498.78
533.07	1515.16
533.42	1531.17
533.78	1547.36
534.14	1563.60
534.50	1578.94
534.86	1595.00
535.21	1610.24
535.57	1626.37
535.93	1641.93
536.29	1656.86
536.65	1672.02
537.00	1686.84
537.36	1702.22
537.72	1716.61
538.08	1730.94
538.44	1744.85
538.79	1758.97
539.15	1772.79
539.51	1786.59
539.87	1801.00
540.22	1814.74
540.58	1828.44
540.94	1841.79
541.29	1854.84
541.65	1867.51
542.01	1880.90
542.37	1893.18
542.72	1905.78
543.08	1917.53
543.44	1929.89
543.79	1941.15
544.15	1952.23
544.51	1963.85
544.87	1974.81
545.22	1985.76
545.58	1996.08
545.94	2005.76
546.29	2015.59
546.65	2025.43
547.01	2034.64
547.36	2043.44
547.72	2051.92
548.07	2059.89
548.43	2068.14
548.79	2076.14
549.14	2083.84
549.50	2091.27
549.86	2099.06
550.21	2106.32
550.57	2113.58
550.92	2120.12
551.28	2127.26
551.64	2134.35
551.99	2140.98
552.35	2147.12
552.70	2153.31
553.06	2159.33
553.41	2165.76
553.77	2171.65
554.13	2177.87
554.48	2184.07
554.84	2189.40
555.19	2194.82
555.55	2200.01
555.90	2204.55
556.26	2209.41
556.61	2214.10
556.97	2218.19
557.32	2222.38
557.68	2226.56
558.03	2230.68
558.39	2234.60
558.74	2239.17
559.10	2242.93
559.45	2246.58
559.81	2250.91
560.16	2254.66
560.52	2257.73
560.87	2261.15
561.23	2263.71
561.58	2266.55
561.94	2269.09
562.29	2271.44
562.64	2274.04
563.00	2276.59
563.35	2280.06
563.71	2283.12
564.06	2286.31
564.42	2289.26
564.77	2291.69
565.12	2293.86
565.48	2295.78
565.83	2297.54
566.19	2298.65
566.54	2299.65
566.89	2300.61
567.25	2301.31
567.60	2302.69
567.96	2304.53
568.31	2305.38
568.66	2306.51
569.02	2307.02
569.37	2307.26
569.72	2307.99
570.08	2307.95
570.43	2307.94
570.78	2307.13
571.14	2305.56
571.49	2304.21
571.84	2303.79
572.20	2302.44
572.55	2301.47
572.90	2299.89
573.26	2298.55
573.61	2296.99
573.96	2295.02
574.31	2291.93
574.67	2288.54
575.02	2284.84
575.37	2281.20
575.72	2277.09
576.08	2273.87
576.43	2270.43
576.78	2266.61
577.13	2263.58
577.49	2260.65
577.84	2256.94
578.19	2253.21
578.54	2249.39
578.90	2244.99
579.25	2239.34
579.60	2234.28
579.95	2229.02
580.30	2223.85
580.66	2218.51
581.01	2213.44
581.36	2208.51
581.71	2204.35
582.06	2199.92
582.42	2195.34
582.77	2190.00
583.12	2185.41
583.47	2180.30
583.82	2175.28
584.17	2170.02
584.53	2164.35
584.88	2158.54
585.23	2152.66
585.58	2147.17
585.93	2141.66
586.28	2136.89
586.63	2131.71
586.98	2126.56
587.34	2121.98
587.69	2117.12
588.04	2111.70
588.39	2105.86
588.74	2099.37
589.09	2093.12
589.44	2086.12
589.79	2079.92
590.14	2074.33
590.49	2067.74
590.84	2061.50
591.19	2055.37
591.54	2048.85
591.89	2041.39
592.25	2034.49
592.60	2027.38
592.95	2019.59
593.30	2012.26
593.65	2004.62
594.00	1997.69
594.35	1990.49
594.70	1982.22
595.05	1974.74
595.40	1967.48
595.75	1959.95
596.10	1953.50
596.45	1946.59
596.80	1940.49
597.15	1933.82
597.50	1926.51
597.85	1920.10
598.19	1913.29
598.54	1906.07
598.89	1899.43
599.24	1893.47
599.59	1886.64
599.94	1880.38
600.29	1874.04
600.64	1867.37
600.99	1859.76
601.34	1852.76
601.69	1845.72
602.04	1838.72
602.39	1831.36
602.74	1824.49
603.08	1817.69
603.43	1810.97
603.78	1803.84
604.13	1796.60
604.48	1789.22
604.83	1782.48
605.18	1775.31
605.53	1767.29
605.87	1759.33
606.22	1751.94
606.57	1744.00
606.92	1736.72
607.27	1729.54
607.62	1722.74
607.96	1715.43
608.31	1708.79
608.66	1701.04
609.01	1693.44
609.36	1685.98
609.70	1677.99
610.05	1669.85
610.40	1662.16
610.75	1653.86
611.10	1646.06
611.44	1637.73
611.79	1629.88
612.14	1621.17
612.49	1612.14
612.83	1603.81
613.18	1595.72
613.53	1587.68
613.88	1579.18
614.22	1570.96
614.57	1562.23
614.92	1554.14
615.27	1546.56
615.61	1538.27
615.96	1530.37
616.31	1522.75
616.65	1515.39
617.00	1507.90
617.35	1500.26
617.70	1491.93
618.04	1483.35
618.39	1475.21
618.74	1467.51
619.08	1459.17
619.43	1451.70
619.78	1444.76
620.12	1437.52
620.47	1429.98
620.82	1421.91
621.16	1414.53
621.51	1406.89
621.85	1399.28
622.20	1390.62
622.55	1382.27
622.89	1374.48
623.24	1366.87
623.59	1359.52
623.93	1351.92
624.28	1344.65
624.62	1337.09
624.97	1329.95
625.32	1323.29
625.66	1316.24
626.01	1308.99
626.35	1301.41
626.70	1293.51
627.04	1285.69
627.39	1277.94
627.73	1270.54
628.08	1263.60
628.43	1256.20
628.77	1248.82
629.12	1241.18
629.46	1234.13
629.81	1226.73
630.15	1219.43
630.50	1212.01
630.84	1203.75
631.19	1195.87
631.53	1188.32
631.88	1180.79
632.22	1173.19
632.57	1165.86
632.91	1158.26
633.26	1150.98
633.60	1143.76
633.95	1136.78
634.29	1129.83
634.64	1123.16
634.98	1115.73
635.32	1108.50
635.67	1101.97
636.01	1095.31
636.36	1088.64
636.70	1082.13
637.05	1075.58
637.39	1069.24
637.73	1062.73
638.08	1056.93
638.42	1051.00
638.77	1044.58
639.11	1038.07
639.45	1031.69
639.80	1025.02
640.14	1018.64
640.49	1012.08
640.83	1005.78
641.17	999.53
641.52	993.24
641.86	986.84
642.20	981.00
642.55	974.81
642.89	968.26
643.23	961.80
643.58	956.06
643.92	949.88
644.26	943.77
644.61	937.57
644.95	931.61
645.29	924.96
645.64	918.14
645.98	911.80
646.32	905.89
646.66	899.79
647.01	894.05
647.35	888.37
647.69	882.60
648.04	877.16
648.38	871.28
648.72	865.22
649.06	859.17
649.41	853.36
649.75	847.33
650.09	841.45
650.43	835.65
650.78	829.43
651.12	823.45
651.46	817.69
651.80	812.00
652.14	806.63
652.49	801.27
652.83	796.21
653.17	790.53
653.51	784.80
653.85	779.54
654.20	773.81
654.54	767.79
654.88	761.99
655.22	756.00
655.56	750.33
655.90	744.89
656.25	739.60
656.59	734.23
656.93	729.12
657.27	723.89
657.61	718.46
657.95	713.30
658.29	708.25
658.64	703.06
658.98	697.80
659.32	692.25
659.66	687.00
660.00	681.61
660.34	676.72
660.68	671.89
661.02	666.76
661.36	662.01
661.70	657.58
662.05	653.28
662.39	649.01
662.73	644.60
663.07	640.27
663.41	635.85
663.75	631.33
664.09	626.78
664.43	622.47
664.77	618.28
665.11	614.11
665.45	609.99
665.79	605.94
666.13	601.75
666.47	597.67
666.81	593.58
667.15	589.56
667.49	585.69
667.83	581.90
668.17	578.03
668.51	574.04
668.85	570.00
669.19	566.15
669.53	562.32
669.87	558.46
670.21	554.80
670.55	551.18
670.89	547.81
671.23	544.38
671.57	540.83
671.91	537.31
672.25	533.82
672.58	530.30
672.92	526.94
673.26	523.81
673.60	520.71
673.94	517.56
674.28	514.64
674.62	511.68
674.96	508.55
675.30	505.64
675.64	502.75
675.97	500.01
676.31	497.16
676.65	494.20
676.99	491.48
677.33	488.56
677.67	485.72
678.01	482.66
678.34	479.70
678.68	476.92
679.02	474.17
679.36	471.41
679.70	468.71
680.04	465.94
680.37	463.07
680.71	460.27
681.05	457.70
681.39	454.95
681.73	452.31
682.06	449.74
682.40	447.21
682.74	444.72
683.08	442.22
683.42	439.62
683.75	437.09
684.09	434.59
684.43	432.13
684.77	429.69
685.10	427.38
685.44	425.07
685.78	422.74
686.12	420.53
686.45	418.25
686.79	415.95
687.13	413.77
687.46	411.65
687.80	409.51
688.14	407.32
688.48	405.32
688.81	403.03
689.15	400.91
689.49	398.78
689.82	396.65
690.16	394.48
690.50	392.46
690.83	390.56
691.17	388.51
691.51	386.63
691.84	384.78
692.18	382.80
692.52	380.84
692.85	378.94
693.19	377.02
693.52	375.19
693.86	373.37
694.20	371.59
694.53	369.79
694.87	367.97
695.21	366.16
695.54	364.29
695.88	362.59
696.21	360.85
696.55	359.14
696.88	357.45
697.22	355.84
697.56	354.23
697.89	352.57
698.23	350.99
698.56	349.39
698.90	347.77
699.23	346.10
699.57	344.47
699.90	342.91
700.24	341.38
700.58	339.84
700.91	338.30
701.25	336.86
701.58	335.49
701.92	334.13
702.25	332.74
702.59	331.38
702.92	330.03
703.26	328.74
703.59	327.46
703.93	326.30
704.26	325.03
704.60	323.74
704.93	322.45
705.26	321.23
705.60	320.06
705.93	318.94
706.27	317.96
706.60	316.96
706.94	315.89
707.27	314.79
707.61	313.75
707.94	312.77
708.27	311.66
708.61	310.58
708.94	309.53
709.28	308.59
709.61	307.62
709.94	306.69
710.28	305.67
710.61	304.69
710.95	303.60
711.28	302.67
711.61	301.75
711.95	300.83
712.28	299.87
712.61	298.88
712.95	297.95
713.28	297.07
713.61	296.14
713.95	295.25
714.28	294.40
714.61	293.55
714.95	292.72
715.28	291.86
715.61	291.00
715.95	290.22
716.28	289.34
716.61	288.56
716.95	287.77
717.28	287.03
717.61	286.29
717.94	285.58
718.28	284.80
718.61	284.08
718.94	283.44
719.27	282.77
719.61	282.16
719.94	281.51
720.27	280.82
720.60	280.20
720.94	279.58
721.27	279.00
721.60	278.41
721.93	277.84
722.27	277.32
722.60	276.80
722.93	276.20
723.26	275.72
723.59	275.19
723.93	274.68
724.26	274.13
724.59	273.56
724.92	273.03
725.25	272.53
725.59	272.03
725.92	271.48
726.25	271.00
726.58	270.52
726.91	269.98
727.24	269.49
727.57	269.01
727.91	268.50
728.24	268.00
728.57	267.54
728.90	267.08
729.23	266.59
729.56	266.13
729.89	265.67
730.22	265.16
730.55	264.65
730.89	264.17
731.22	263.75
731.55	263.37
731.88	262.94
732.21	262.51
732.54	262.09
732.87	261.71
733.20	261.33
733.53	260.90
733.86	260.59
734.19	260.22
734.52	259.86
734.85	259.53
735.18	259.12
735.51	258.75
735.84	258.30
736.17	257.92
736.50	257.52
736.83	257.26
737.16	256.92
737.49	256.62
737.82	256.26
738.15	255.93
738.48	255.56
738.81	255.25
739.14	254.95
739.47	254.61
739.80	254.29
740.13	253.96
740.46	253.65
740.79	253.31
741.12	252.97
741.45	252.64
741.78	252.31
742.11	252.04
742.44	251.73
742.77	251.50
743.10	251.21
743.43	250.93
743.75	250.56
744.08	250.43
744.41	250.11
744.74	249.84
745.07	249.54
745.40	249.30
745.73	249.02
746.06	248.73
746.39	248.49
746.71	248.23
747.04	247.95
747.37	247.69
747.70	247.45
748.03	247.20
748.36	246.96
748.68	246.71
749.01	246.44
749.34	246.20
749.67	245.94
750.00	245.70
750.33	245.54
750.65	245.32
750.98	244.97
751.31	244.77
751.64	244.57
751.97	244.40
752.29	244.18
752.62	243.94
752.95	243.74
753.28	243.50
753.60	243.31
753.93	243.14
754.26	242.95
754.59	242.72
754.91	242.53
755.24	242.36
755.57	242.19
755.90	242.04
756.22	241.81
756.55	241.61
756.88	241.44
757.20	241.20
757.53	240.98
757.86	240.80
758.19	240.64
758.51	240.46
758.84	240.27
759.17	240.09
759.49	239.96
759.82	239.87
760.15	239.71
760.47	239.52
760.80	239.35
761.13	239.22
761.45	239.06
761.78	238.92
762.11	238.75
762.43	238.57
762.76	238.43
763.08	238.32
763.41	238.21
763.74	238.06
764.06	237.95
764.39	237.82
764.71	237.69
765.04	237.53
765.37	237.40
765.69	237.26
766.02	237.11
766.34	236.96
766.67	236.75
767.00	236.65
767.32	236.58
767.65	236.55
767.97	236.43
768.30	236.32
768.62	236.20
768.95	236.04
769.27	235.94
769.60	235.85
769.92	235.73
770.25	235.59
770.57	235.50
770.90	235.38
771.22	235.27
771.55	235.15
771.87	235.08
772.20	234.99
772.52	234.98
772.85	235.02
773.17	234.92
773.50	234.84
773.82	234.74
774.15	234.61
774.47	234.42
774.80	234.30
775.12	234.20
775.45	234.13
775.77	234.10
776.09	234.02
776.42	233.92
776.74	233.85
777.07	233.78
777.39	233.70
777.72	233.61
778.04	233.51
778.36	233.44
778.69	233.39
779.01	233.34
779.33	233.17
779.66	233.01
779.98	232.94
780.31	232.90
780.63	232.85
780.95	232.83
781.28	232.78
781.60	232.72
781.92	232.66
782.25	232.58
782.57	232.52
782.89	232.44
783.22	232.37
783.54	232.33
783.86	232.29
784.19	232.25
784.51	232.25
784.83	232.22
785.16	232.16
785.48	232.10
785.80	232.04
786.12	232.01
786.45	231.96
786.77	231.92
787.09	231.82
