SpectraSuite Data File
++++++++++++++++++++++++++++++++++++
Date: Fri Feb 01 16:25:51 EST 2013
User: group
Dark Spectrum Present: No
Reference Spectrum Present: No
Number of Sampled Component Spectra: 1
Spectrometers: USB2E7196
Integration Time (usec): 35000 (USB2E7196)
Spectra Averaged: 100 (USB2E7196)
Boxcar Smoothing: 10 (USB2E7196)
Correct for Electrical Dark: No (USB2E7196)
Strobe/Lamp Enabled: No (USB2E7196)
Correct for Detector Non-linearity: No (USB2E7196)
Correct for Stray Light: No (USB2E7196)
Number of Pixels in Processed Spectrum: 2048
>>>>>Begin Processed Spectral Data<<<<<
339.09	0.00
339.48	214.47
339.86	215.37
340.24	216.79
340.63	218.24
341.01	221.50
341.39	220.56
341.78	222.12
342.16	223.54
342.54	224.23
342.93	212.45
343.31	223.20
343.69	223.74
344.07	224.22
344.46	224.62
344.84	224.98
345.22	225.19
345.60	225.45
345.99	225.66
346.37	225.78
346.75	225.88
347.13	225.97
347.52	226.00
347.90	226.07
348.28	226.09
348.66	226.14
349.05	226.15
349.43	226.20
349.81	226.23
350.19	226.25
350.57	226.33
350.96	226.41
351.34	226.49
351.72	226.54
352.10	226.62
352.48	226.73
352.87	226.81
353.25	226.89
353.63	226.95
354.01	226.98
354.39	227.05
354.77	227.12
355.15	227.21
355.54	227.27
355.92	227.33
356.30	227.40
356.68	227.50
357.06	227.56
357.44	227.61
357.82	227.69
358.20	227.77
358.58	227.78
358.97	227.82
359.35	227.87
359.73	227.96
360.11	228.02
360.49	228.05
360.87	228.09
361.25	228.14
361.63	228.23
362.01	228.27
362.39	228.31
362.77	228.36
363.15	228.37
363.53	228.42
363.91	228.46
364.29	228.49
364.67	228.42
365.05	228.43
365.43	228.46
365.81	228.48
366.19	228.52
366.57	228.58
366.95	228.59
367.33	228.57
367.71	228.56
368.09	228.57
368.47	228.57
368.85	228.56
369.23	228.58
369.61	228.52
369.99	228.55
370.37	228.55
370.75	228.58
371.13	228.54
371.51	228.48
371.89	228.45
372.27	228.43
372.65	228.40
373.03	228.35
373.41	228.32
373.78	228.27
374.16	228.16
374.54	228.09
374.92	228.01
375.30	227.94
375.68	227.89
376.06	227.83
376.44	227.76
376.82	227.72
377.19	227.62
377.57	227.54
377.95	227.45
378.33	227.34
378.71	227.21
379.09	227.14
379.47	227.09
379.84	226.98
380.22	226.89
380.60	226.80
380.98	226.72
381.36	226.63
381.73	226.53
382.11	226.48
382.49	226.41
382.87	226.38
383.25	226.33
383.62	226.36
384.00	226.30
384.38	226.24
384.76	226.19
385.13	226.17
385.51	226.11
385.89	226.04
386.27	226.04
386.64	225.98
387.02	225.94
387.40	225.92
387.78	225.88
388.15	225.87
388.53	225.85
388.91	225.84
389.29	225.81
389.66	225.82
390.04	225.80
390.42	225.78
390.79	225.73
391.17	225.72
391.55	225.59
391.92	225.57
392.30	225.61
392.68	225.58
393.05	225.57
393.43	225.56
393.81	225.60
394.18	225.57
394.56	225.58
394.94	225.61
395.31	225.59
395.69	225.67
396.06	225.68
396.44	225.69
396.82	225.74
397.19	225.82
397.57	225.83
397.95	225.90
398.32	225.94
398.70	225.99
399.07	226.08
399.45	226.13
399.82	226.18
400.20	226.19
400.58	226.26
400.95	226.27
401.33	226.39
401.70	226.51
402.08	226.61
402.45	226.69
402.83	226.80
403.20	226.89
403.58	226.96
403.95	227.09
404.33	227.22
404.71	227.30
405.08	227.47
405.46	227.61
405.83	227.74
406.21	227.88
406.58	228.07
406.96	228.18
407.33	228.37
407.70	228.58
408.08	228.85
408.45	229.10
408.83	229.35
409.20	229.51
409.58	229.69
409.95	229.95
410.33	230.24
410.70	230.51
411.08	230.82
411.45	231.13
411.82	231.40
412.20	231.77
412.57	232.21
412.95	232.50
413.32	232.90
413.69	233.30
414.07	233.72
414.44	234.18
414.82	234.67
415.19	235.19
415.56	235.72
415.94	236.23
416.31	236.85
416.68	237.46
417.06	238.22
417.43	238.88
417.81	239.65
418.18	240.43
418.55	241.24
418.93	242.08
419.30	242.96
419.67	243.90
420.04	244.87
420.42	245.84
420.79	247.03
421.16	248.17
421.54	249.37
421.91	250.59
422.28	251.86
422.66	253.18
423.03	254.52
423.40	255.83
423.77	257.24
424.15	258.66
424.52	260.14
424.89	261.74
425.26	263.35
425.64	264.81
426.01	266.36
426.38	268.03
426.75	269.73
427.13	271.47
427.50	273.25
427.87	275.09
428.24	276.95
428.61	278.64
428.99	280.57
429.36	282.65
429.73	284.68
430.10	286.69
430.47	288.75
430.85	290.84
431.22	293.09
431.59	295.47
431.96	297.71
432.33	300.17
432.70	302.51
433.08	305.26
433.45	307.85
433.82	310.43
434.19	313.28
434.56	316.08
434.93	318.69
435.30	321.31
435.68	324.21
436.05	327.07
436.42	329.86
436.79	332.34
437.16	335.05
437.53	337.90
437.90	340.72
438.27	343.46
438.64	346.28
439.01	348.83
439.38	351.10
439.75	353.24
440.13	355.75
440.50	358.06
440.87	359.95
441.24	361.93
441.61	364.09
441.98	365.59
442.35	367.36
442.72	369.21
443.09	371.05
443.46	372.01
443.83	372.53
444.20	373.03
444.57	373.87
444.94	374.14
445.31	374.49
445.68	374.82
446.05	374.87
446.42	374.49
446.79	374.11
447.16	373.65
447.53	373.35
447.90	372.17
448.27	371.05
448.64	369.42
449.01	368.21
449.37	366.26
449.74	364.36
450.11	362.10
450.48	359.66
450.85	357.08
451.22	354.95
451.59	352.96
451.96	351.05
452.33	348.48
452.70	346.15
453.07	343.30
453.43	340.39
453.80	337.62
454.17	334.94
454.54	332.40
454.91	329.63
455.28	326.93
455.65	324.47
456.02	322.01
456.38	319.89
456.75	317.29
457.12	315.04
457.49	312.84
457.86	310.74
458.23	308.87
458.59	306.88
458.96	304.80
459.33	302.93
459.70	301.04
460.07	299.54
460.43	297.82
460.80	296.20
461.17	294.76
461.54	293.27
461.91	291.82
462.27	290.37
462.64	289.15
463.01	287.84
463.38	286.53
463.74	285.19
464.11	284.04
464.48	283.01
464.85	281.90
465.21	281.02
465.58	280.08
465.95	279.02
466.32	278.09
466.68	277.22
467.05	276.32
467.42	275.45
467.78	274.54
468.15	273.69
468.52	273.06
468.88	272.20
469.25	271.45
469.62	270.86
469.98	270.21
470.35	269.58
470.72	268.99
471.08	268.34
471.45	267.77
471.82	267.23
472.18	266.67
472.55	266.21
472.92	265.73
473.28	265.27
473.65	264.85
474.02	264.39
474.38	264.02
474.75	263.71
475.11	263.39
475.48	263.14
475.85	262.89
476.21	262.65
476.58	262.46
476.94	262.32
477.31	262.19
477.67	262.02
478.04	261.94
478.41	261.88
478.77	261.92
479.14	261.92
479.50	261.94
479.87	262.00
480.23	262.17
480.60	262.23
480.96	262.30
481.33	262.54
481.69	262.76
482.06	263.00
482.42	263.27
482.79	263.53
483.15	263.85
483.52	264.26
483.88	264.64
484.25	265.07
484.61	265.52
484.98	265.99
485.34	266.59
485.71	267.16
486.07	267.79
486.44	268.38
486.80	269.06
487.17	269.78
487.53	270.59
487.90	271.40
488.26	272.34
488.62	273.37
488.99	274.33
489.35	275.36
489.72	276.48
490.08	277.64
490.44	278.88
490.81	280.20
491.17	281.55
491.54	283.04
491.90	284.56
492.26	286.20
492.63	287.92
492.99	289.69
493.36	291.65
493.72	293.72
494.08	295.84
494.45	298.13
494.81	300.51
495.17	302.96
495.54	305.52
495.90	308.23
496.26	311.02
496.63	314.00
496.99	317.17
497.35	320.47
497.72	323.86
498.08	327.41
498.44	331.08
498.80	335.02
499.17	339.10
499.53	343.29
499.89	347.66
500.26	352.14
500.62	356.84
500.98	361.79
501.34	366.85
501.71	372.20
502.07	377.61
502.43	383.26
502.79	389.11
503.16	395.22
503.52	401.50
503.88	407.89
504.24	414.49
504.60	421.33
504.97	428.42
505.33	435.84
505.69	443.58
506.05	451.41
506.41	459.31
506.78	467.42
507.14	475.90
507.50	484.66
507.86	493.77
508.22	502.94
508.59	512.12
508.95	521.72
509.31	531.52
509.67	541.59
510.03	551.90
510.39	562.49
510.75	573.24
511.12	584.18
511.48	595.52
511.84	607.00
512.20	618.45
512.56	630.38
512.92	642.51
513.28	654.81
513.64	667.24
514.00	679.91
514.37	692.80
514.73	705.87
515.09	718.86
515.45	732.07
515.81	745.67
516.17	759.70
516.53	773.75
516.89	787.93
517.25	802.18
517.61	816.53
517.97	830.88
518.33	845.27
518.69	859.90
519.05	874.81
519.41	889.94
519.77	905.56
520.13	920.88
520.49	936.15
520.85	951.47
521.21	967.11
521.57	983.26
521.93	998.91
522.29	1015.24
522.65	1031.46
523.01	1047.62
523.37	1063.55
523.73	1079.63
524.09	1095.64
524.45	1111.85
524.81	1128.27
525.17	1145.01
525.53	1161.81
525.89	1178.66
526.25	1195.57
526.61	1211.94
526.97	1228.60
527.33	1244.90
527.68	1261.48
528.04	1278.03
528.40	1294.51
528.76	1311.58
529.12	1328.22
529.48	1345.09
529.84	1361.00
530.20	1377.51
530.56	1394.36
530.91	1411.73
531.27	1428.47
531.63	1444.84
531.99	1461.35
532.35	1477.28
532.71	1493.11
533.07	1509.32
533.42	1525.16
533.78	1541.01
534.14	1557.15
534.50	1572.53
534.86	1588.42
535.21	1603.68
535.57	1619.48
535.93	1634.92
536.29	1649.42
536.65	1664.21
537.00	1678.93
537.36	1694.05
537.72	1708.47
538.08	1722.81
538.44	1736.49
538.79	1750.33
539.15	1764.11
539.51	1777.70
539.87	1791.97
540.22	1805.53
540.58	1819.10
540.94	1832.29
541.29	1845.09
541.65	1857.59
542.01	1870.55
542.37	1882.71
542.72	1895.03
543.08	1906.64
543.44	1918.86
543.79	1930.16
544.15	1941.20
544.51	1952.69
544.87	1963.73
545.22	1974.51
545.58	1984.70
545.94	1994.52
546.29	2004.17
546.65	2013.90
547.01	2023.21
547.36	2031.95
547.72	2040.46
548.07	2048.32
548.43	2056.50
548.79	2064.50
549.14	2071.94
549.50	2079.20
549.86	2086.91
550.21	2094.05
550.57	2101.13
550.92	2107.71
551.28	2114.72
551.64	2121.71
551.99	2128.11
552.35	2134.27
552.70	2140.48
553.06	2146.46
553.41	2152.55
553.77	2158.59
554.13	2164.66
554.48	2170.65
554.84	2176.06
555.19	2181.25
555.55	2186.45
555.90	2191.00
556.26	2195.79
556.61	2200.62
556.97	2205.00
557.32	2209.09
557.68	2213.28
558.03	2217.61
558.39	2221.42
558.74	2225.86
559.10	2229.70
559.45	2233.40
559.81	2237.51
560.16	2241.35
560.52	2244.67
560.87	2248.24
561.23	2250.85
561.58	2253.62
561.94	2256.22
562.29	2258.52
562.64	2261.21
563.00	2263.77
563.35	2267.07
563.71	2270.26
564.06	2273.54
564.42	2276.33
564.77	2278.86
565.12	2281.06
565.48	2283.00
565.83	2284.90
566.19	2286.36
566.54	2287.30
566.89	2288.38
567.25	2289.13
567.60	2290.30
567.96	2291.98
568.31	2292.81
568.66	2293.98
569.02	2294.59
569.37	2294.98
569.72	2295.86
570.08	2296.08
570.43	2296.22
570.78	2295.78
571.14	2294.32
571.49	2293.01
571.84	2292.78
572.20	2291.70
572.55	2290.73
572.90	2289.21
573.26	2287.80
573.61	2286.22
573.96	2284.60
574.31	2281.89
574.67	2279.01
575.02	2275.57
575.37	2272.17
575.72	2268.37
576.08	2265.09
576.43	2261.93
576.78	2258.25
577.13	2255.18
577.49	2252.08
577.84	2248.61
578.19	2245.08
578.54	2241.54
578.90	2237.37
579.25	2231.73
579.60	2226.82
579.95	2221.92
580.30	2216.89
580.66	2211.85
581.01	2206.99
581.36	2202.20
581.71	2198.02
582.06	2193.51
582.42	2188.96
582.77	2183.86
583.12	2179.44
583.47	2174.68
583.82	2169.71
584.17	2164.69
584.53	2159.32
584.88	2153.78
585.23	2148.03
585.58	2142.49
585.93	2137.08
586.28	2132.35
586.63	2127.50
586.98	2122.49
587.34	2117.86
587.69	2113.05
588.04	2107.81
588.39	2102.12
588.74	2095.69
589.09	2089.56
589.44	2082.90
589.79	2076.98
590.14	2071.49
590.49	2064.92
590.84	2058.66
591.19	2052.67
591.54	2046.10
591.89	2038.79
592.25	2032.01
592.60	2024.88
592.95	2017.41
593.30	2010.15
593.65	2002.60
594.00	1995.70
594.35	1988.56
594.70	1980.63
595.05	1973.52
595.40	1966.30
595.75	1959.00
596.10	1952.80
596.45	1946.25
596.80	1940.12
597.15	1933.56
597.50	1926.30
597.85	1919.95
598.19	1913.36
598.54	1906.25
598.89	1899.69
599.24	1893.74
599.59	1887.17
599.94	1880.99
600.29	1874.60
600.64	1867.98
600.99	1860.70
601.34	1853.83
601.69	1846.89
602.04	1839.99
602.39	1832.77
602.74	1826.03
603.08	1819.21
603.43	1812.44
603.78	1805.00
604.13	1797.68
604.48	1790.42
604.83	1783.64
605.18	1776.62
605.53	1768.76
605.87	1760.78
606.22	1753.59
606.57	1745.69
606.92	1738.38
607.27	1731.31
607.62	1724.35
607.96	1717.16
608.31	1710.47
608.66	1702.93
609.01	1695.46
609.36	1687.91
609.70	1679.90
610.05	1671.81
610.40	1663.97
610.75	1655.69
611.10	1647.99
611.44	1639.70
611.79	1631.82
612.14	1623.11
612.49	1614.00
612.83	1605.48
613.18	1597.45
613.53	1589.38
613.88	1580.82
614.22	1572.65
614.57	1563.96
614.92	1555.99
615.27	1548.35
615.61	1540.02
615.96	1532.04
616.31	1524.16
616.65	1516.76
617.00	1509.12
617.35	1501.44
617.70	1493.32
618.04	1484.76
618.39	1476.59
618.74	1469.04
619.08	1460.63
619.43	1453.16
619.78	1446.32
620.12	1439.12
620.47	1431.57
620.82	1423.36
621.16	1415.95
621.51	1408.28
621.85	1400.68
622.20	1392.16
622.55	1383.83
622.89	1376.02
623.24	1368.22
623.59	1360.87
623.93	1353.31
624.28	1346.11
624.62	1338.58
624.97	1331.33
625.32	1324.62
625.66	1317.70
626.01	1310.46
626.35	1303.10
626.70	1295.29
627.04	1287.51
627.39	1279.84
627.73	1272.38
628.08	1265.47
628.43	1258.14
628.77	1250.67
629.12	1243.12
629.46	1235.96
629.81	1228.59
630.15	1221.42
630.50	1214.02
630.84	1205.86
631.19	1198.04
631.53	1190.57
631.88	1183.00
632.22	1175.30
632.57	1167.94
632.91	1160.35
633.26	1152.88
633.60	1145.37
633.95	1138.21
634.29	1131.12
634.64	1124.41
634.98	1117.07
635.32	1109.89
635.67	1103.33
636.01	1096.74
636.36	1089.86
636.70	1083.29
637.05	1076.64
637.39	1070.07
637.73	1063.61
638.08	1057.74
638.42	1051.60
638.77	1045.10
639.11	1038.49
639.45	1032.18
639.80	1025.46
640.14	1019.02
640.49	1012.47
640.83	1006.16
641.17	999.90
641.52	993.56
641.86	987.05
642.20	981.20
642.55	974.95
642.89	968.45
643.23	961.88
643.58	956.17
643.92	949.96
644.26	943.84
644.61	937.71
644.95	931.67
645.29	925.06
645.64	918.41
645.98	912.02
646.32	906.21
646.66	900.13
647.01	894.34
647.35	888.65
647.69	882.85
648.04	877.34
648.38	871.56
648.72	865.56
649.06	859.51
649.41	853.61
649.75	847.56
650.09	841.65
650.43	835.90
650.78	829.78
651.12	823.92
651.46	818.29
651.80	812.62
652.14	807.20
652.49	801.81
652.83	796.64
653.17	790.98
653.51	785.22
653.85	779.89
654.20	774.31
654.54	768.30
654.88	762.59
655.22	756.70
655.56	751.03
655.90	745.63
656.25	740.42
656.59	735.05
656.93	729.97
657.27	724.81
657.61	719.36
657.95	714.22
658.29	709.13
658.64	703.89
658.98	698.62
659.32	693.12
659.66	687.97
660.00	682.57
660.34	677.70
660.68	672.83
661.02	667.78
661.36	663.05
661.70	658.58
662.05	654.20
662.39	649.91
662.73	645.52
663.07	641.11
663.41	636.70
663.75	632.27
664.09	627.76
664.43	623.35
664.77	619.24
665.11	615.06
665.45	610.92
665.79	606.81
666.13	602.67
666.47	598.64
666.81	594.55
667.15	590.50
667.49	586.58
667.83	582.76
668.17	578.84
668.51	574.82
668.85	570.79
669.19	566.92
669.53	563.05
669.87	559.14
670.21	555.49
670.55	551.82
670.89	548.37
671.23	544.90
671.57	541.37
671.91	537.78
672.25	534.16
672.58	530.63
672.92	527.25
673.26	524.07
673.60	520.91
673.94	517.74
674.28	514.80
674.62	511.86
674.96	508.79
675.30	505.85
675.64	502.93
675.97	500.09
676.31	497.31
676.65	494.37
676.99	491.66
677.33	488.78
677.67	485.87
678.01	482.84
678.34	479.87
678.68	476.97
679.02	474.21
679.36	471.51
679.70	468.73
680.04	465.93
680.37	463.07
680.71	460.21
681.05	457.56
681.39	454.82
681.73	452.14
682.06	449.60
682.40	447.06
682.74	444.46
683.08	441.92
683.42	439.26
683.75	436.78
684.09	434.17
684.43	431.67
684.77	429.26
685.10	426.87
685.44	424.57
685.78	422.25
686.12	419.97
686.45	417.64
686.79	415.35
687.13	413.14
687.46	410.95
687.80	408.83
688.14	406.60
688.48	404.55
688.81	402.26
689.15	400.07
689.49	397.91
689.82	395.80
690.16	393.68
690.50	391.65
690.83	389.69
691.17	387.73
691.51	385.83
691.84	383.96
692.18	382.00
692.52	380.01
692.85	378.11
693.19	376.18
693.52	374.35
693.86	372.52
694.20	370.74
694.53	368.97
694.87	367.13
695.21	365.32
695.54	363.52
695.88	361.80
696.21	360.07
696.55	358.39
696.88	356.73
697.22	355.05
697.56	353.47
697.89	351.82
698.23	350.21
698.56	348.58
698.90	347.00
699.23	345.41
699.57	343.83
699.90	342.29
700.24	340.78
700.58	339.25
700.91	337.75
701.25	336.31
701.58	334.95
701.92	333.59
702.25	332.24
702.59	330.85
702.92	329.55
703.26	328.23
703.59	326.93
703.93	325.77
704.26	324.55
704.60	323.25
704.93	321.97
705.26	320.71
705.60	319.55
705.93	318.39
706.27	317.35
706.60	316.33
706.94	315.28
707.27	314.15
707.61	313.10
707.94	312.10
708.27	311.03
708.61	309.91
708.94	308.92
709.28	307.90
709.61	306.94
709.94	305.98
710.28	304.97
710.61	304.01
710.95	302.92
711.28	302.00
711.61	301.07
711.95	300.18
712.28	299.27
712.61	298.30
712.95	297.36
713.28	296.48
713.61	295.59
713.95	294.69
714.28	293.86
714.61	292.99
714.95	292.15
715.28	291.29
715.61	290.43
715.95	289.53
716.28	288.71
716.61	287.87
716.95	287.03
717.28	286.28
717.61	285.49
717.94	284.75
718.28	283.94
718.61	283.24
718.94	282.51
719.27	281.84
719.61	281.20
719.94	280.54
720.27	279.79
720.60	279.09
720.94	278.45
721.27	277.88
721.60	277.30
721.93	276.71
722.27	276.16
722.60	275.60
722.93	275.04
723.26	274.48
723.59	273.90
723.93	273.40
724.26	272.84
724.59	272.29
724.92	271.78
725.25	271.25
725.59	270.70
725.92	270.17
726.25	269.67
726.58	269.17
726.91	268.67
727.24	268.22
727.57	267.79
727.91	267.25
728.24	266.73
728.57	266.24
728.90	265.78
729.23	265.28
729.56	264.85
729.89	264.36
730.22	263.86
730.55	263.45
730.89	263.00
731.22	262.58
731.55	262.14
731.88	261.71
732.21	261.34
732.54	260.86
732.87	260.48
733.20	260.05
733.53	259.66
733.86	259.28
734.19	258.85
734.52	258.42
734.85	258.15
735.18	257.76
735.51	257.40
735.84	257.01
736.17	256.66
736.50	256.25
736.83	256.07
737.16	255.78
737.49	255.43
737.82	255.06
738.15	254.68
738.48	254.34
738.81	254.01
739.14	253.68
739.47	253.39
739.80	253.03
740.13	252.75
740.46	252.43
740.79	252.11
741.12	251.83
741.45	251.55
741.78	251.21
742.11	250.93
742.44	250.63
742.77	250.35
743.10	250.05
743.43	249.79
743.75	249.38
744.08	249.22
744.41	248.94
744.74	248.68
745.07	248.42
745.40	248.18
745.73	247.95
746.06	247.67
746.39	247.43
746.71	247.20
747.04	246.93
747.37	246.64
747.70	246.40
748.03	246.18
748.36	245.95
748.68	245.71
749.01	245.48
749.34	245.24
749.67	245.01
750.00	244.77
750.33	244.62
750.65	244.40
750.98	244.06
751.31	243.86
751.64	243.68
751.97	243.50
752.29	243.30
752.62	243.11
752.95	242.90
753.28	242.72
753.60	242.53
753.93	242.35
754.26	242.17
754.59	241.96
754.91	241.75
755.24	241.55
755.57	241.37
755.90	241.17
756.22	241.00
756.55	240.78
756.88	240.62
757.20	240.39
757.53	240.20
757.86	240.02
758.19	239.85
758.51	239.71
758.84	239.49
759.17	239.34
759.49	239.12
759.82	239.00
760.15	238.84
760.47	238.65
760.80	238.47
761.13	238.33
761.45	238.19
761.78	238.06
762.11	237.89
762.43	237.78
762.76	237.64
763.08	237.48
763.41	237.37
763.74	237.22
764.06	237.05
764.39	236.92
764.71	236.82
765.04	236.64
765.37	236.46
765.69	236.36
766.02	236.20
766.34	236.09
766.67	235.94
767.00	235.83
767.32	235.76
767.65	235.68
767.97	235.56
768.30	235.45
768.62	235.34
768.95	235.25
769.27	235.07
769.60	234.95
769.92	234.83
770.25	234.71
770.57	234.63
770.90	234.53
771.22	234.40
771.55	234.27
771.87	234.18
772.20	234.08
772.52	234.07
772.85	234.08
773.17	233.96
773.50	233.85
773.82	233.74
774.15	233.61
774.47	233.50
774.80	233.39
775.12	233.31
775.45	233.19
775.77	233.09
776.09	233.03
776.42	232.93
776.74	232.89
777.07	232.80
777.39	232.72
777.72	232.63
778.04	232.60
778.36	232.55
778.69	232.50
779.01	232.42
779.33	232.25
779.66	232.08
779.98	232.00
780.31	231.93
780.63	231.91
780.95	231.84
781.28	231.74
781.60	231.66
781.92	231.59
782.25	231.54
782.57	231.50
782.89	231.44
783.22	231.39
783.54	231.31
783.86	231.27
784.19	231.20
784.51	231.18
784.83	231.10
785.16	231.05
785.48	230.98
785.80	230.98
786.12	230.92
786.45	230.85
786.77	230.89
787.09	230.84
