SpectraSuite Data File
++++++++++++++++++++++++++++++++++++
Date: Fri Feb 01 15:04:07 EST 2013
User: group
Dark Spectrum Present: No
Reference Spectrum Present: No
Number of Sampled Component Spectra: 1
Spectrometers: USB2E7196
Integration Time (usec): 35000 (USB2E7196)
Spectra Averaged: 100 (USB2E7196)
Boxcar Smoothing: 10 (USB2E7196)
Correct for Electrical Dark: No (USB2E7196)
Strobe/Lamp Enabled: No (USB2E7196)
Correct for Detector Non-linearity: No (USB2E7196)
Correct for Stray Light: No (USB2E7196)
Number of Pixels in Processed Spectrum: 2048
>>>>>Begin Processed Spectral Data<<<<<
339.09	0.00
339.48	215.37
339.86	217.04
340.24	217.56
340.63	218.96
341.01	222.00
341.39	221.43
341.78	223.09
342.16	224.65
342.54	225.15
342.93	213.24
343.31	224.00
343.69	224.55
344.07	225.00
344.46	225.44
344.84	225.85
345.22	226.08
345.60	226.35
345.99	226.55
346.37	226.68
346.75	226.77
347.13	226.82
347.52	226.86
347.90	226.96
348.28	227.01
348.66	227.08
349.05	227.09
349.43	227.13
349.81	227.21
350.19	227.28
350.57	227.33
350.96	227.42
351.34	227.54
351.72	227.63
352.10	227.73
352.48	227.83
352.87	227.89
353.25	227.99
353.63	228.07
354.01	228.13
354.39	228.21
354.77	228.27
355.15	228.39
355.54	228.47
355.92	228.51
356.30	228.57
356.68	228.68
357.06	228.78
357.44	228.83
357.82	228.89
358.20	228.97
358.58	229.10
358.97	229.15
359.35	229.21
359.73	229.26
360.11	229.29
360.49	229.31
360.87	229.34
361.25	229.38
361.63	229.44
362.01	229.49
362.39	229.51
362.77	229.54
363.15	229.57
363.53	229.58
363.91	229.59
364.29	229.64
364.67	229.54
365.05	229.55
365.43	229.56
365.81	229.56
366.19	229.59
366.57	229.58
366.95	229.56
367.33	229.53
367.71	229.49
368.09	229.49
368.47	229.48
368.85	229.46
369.23	229.44
369.61	229.37
369.99	229.39
370.37	229.35
370.75	229.37
371.13	229.27
371.51	229.19
371.89	229.12
372.27	229.06
372.65	229.04
373.03	228.96
373.41	228.90
373.78	228.82
374.16	228.73
374.54	228.62
374.92	228.56
375.30	228.48
375.68	228.42
376.06	228.33
376.44	228.23
376.82	228.14
377.19	228.05
377.57	227.97
377.95	227.83
378.33	227.74
378.71	227.60
379.09	227.54
379.47	227.49
379.84	227.45
380.22	227.34
380.60	227.23
380.98	227.16
381.36	227.08
381.73	227.01
382.11	226.95
382.49	226.85
382.87	226.76
383.25	226.72
383.62	226.75
384.00	226.68
384.38	226.68
384.76	226.67
385.13	226.68
385.51	226.65
385.89	226.60
386.27	226.55
386.64	226.54
387.02	226.52
387.40	226.48
387.78	226.44
388.15	226.41
388.53	226.40
388.91	226.38
389.29	226.35
389.66	226.35
390.04	226.33
390.42	226.38
390.79	226.42
391.17	226.39
391.55	226.28
391.92	226.29
392.30	226.25
392.68	226.22
393.05	226.16
393.43	226.14
393.81	226.14
394.18	226.15
394.56	226.15
394.94	226.19
395.31	226.22
395.69	226.28
396.06	226.33
396.44	226.35
396.82	226.40
397.19	226.53
397.57	226.56
397.95	226.61
398.32	226.63
398.70	226.69
399.07	226.76
399.45	226.86
399.82	226.94
400.20	227.00
400.58	227.08
400.95	227.18
401.33	227.30
401.70	227.48
402.08	227.59
402.45	227.70
402.83	227.80
403.20	227.92
403.58	228.04
403.95	228.20
404.33	228.37
404.71	228.52
405.08	228.67
405.46	228.81
405.83	228.96
406.21	229.13
406.58	229.29
406.96	229.46
407.33	229.64
407.70	229.83
408.08	230.14
408.45	230.35
408.83	230.56
409.20	230.76
409.58	230.94
409.95	231.23
410.33	231.51
410.70	231.74
411.08	232.04
411.45	232.32
411.82	232.62
412.20	232.97
412.57	233.36
412.95	233.66
413.32	234.07
413.69	234.47
414.07	234.90
414.44	235.36
414.82	235.88
415.19	236.40
415.56	236.94
415.94	237.47
416.31	238.13
416.68	238.78
417.06	239.53
417.43	240.24
417.81	241.01
418.18	241.78
418.55	242.67
418.93	243.56
419.30	244.44
419.67	245.37
420.04	246.31
420.42	247.32
420.79	248.48
421.16	249.63
421.54	250.83
421.91	252.03
422.28	253.29
422.66	254.59
423.03	255.90
423.40	257.23
423.77	258.64
424.15	260.06
424.52	261.54
424.89	263.13
425.26	264.66
425.64	266.05
426.01	267.62
426.38	269.27
426.75	270.95
427.13	272.66
427.50	274.47
427.87	276.37
428.24	278.21
428.61	279.98
428.99	281.92
429.36	284.07
429.73	286.12
430.10	288.16
430.47	290.21
430.85	292.34
431.22	294.53
431.59	296.95
431.96	299.18
432.33	301.68
432.70	304.05
433.08	306.85
433.45	309.51
433.82	312.17
434.19	315.07
434.56	317.89
434.93	320.60
435.30	323.24
435.68	326.12
436.05	328.97
436.42	331.75
436.79	334.32
437.16	337.02
437.53	339.86
437.90	342.68
438.27	345.39
438.64	348.23
439.01	350.90
439.38	353.13
439.75	355.37
440.13	357.87
440.50	360.22
440.87	362.10
441.24	364.07
441.61	366.21
441.98	367.74
442.35	369.52
442.72	371.41
443.09	373.20
443.46	374.21
443.83	374.81
444.20	375.38
444.57	376.18
444.94	376.47
445.31	376.80
445.68	377.16
446.05	377.31
446.42	376.92
446.79	376.47
447.16	376.00
447.53	375.67
447.90	374.51
448.27	373.35
448.64	371.73
449.01	370.57
449.37	368.62
449.74	366.66
450.11	364.44
450.48	361.93
450.85	359.40
451.22	357.27
451.59	355.22
451.96	353.24
452.33	350.62
452.70	348.22
453.07	345.40
453.43	342.49
453.80	339.66
454.17	336.96
454.54	334.45
454.91	331.74
455.28	329.04
455.65	326.57
456.02	324.14
456.38	321.98
456.75	319.33
457.12	317.11
457.49	314.89
457.86	312.69
458.23	310.83
458.59	308.77
458.96	306.65
459.33	304.81
459.70	302.99
460.07	301.48
460.43	299.79
460.80	298.14
461.17	296.67
461.54	295.19
461.91	293.79
462.27	292.32
462.64	291.04
463.01	289.69
463.38	288.39
463.74	286.96
464.11	285.85
464.48	284.80
464.85	283.66
465.21	282.77
465.58	281.83
465.95	280.74
466.32	279.87
466.68	278.97
467.05	278.04
467.42	277.13
467.78	276.20
468.15	275.29
468.52	274.65
468.88	273.81
469.25	273.00
469.62	272.38
469.98	271.67
470.35	271.04
470.72	270.42
471.08	269.74
471.45	269.20
471.82	268.63
472.18	268.01
472.55	267.57
472.92	267.05
473.28	266.61
473.65	266.11
474.02	265.65
474.38	265.22
474.75	264.87
475.11	264.49
475.48	264.20
475.85	263.94
476.21	263.71
476.58	263.49
476.94	263.34
477.31	263.12
477.67	262.98
478.04	262.84
478.41	262.76
478.77	262.78
479.14	262.71
479.50	262.70
479.87	262.78
480.23	262.83
480.60	262.88
480.96	262.92
481.33	263.16
481.69	263.35
482.06	263.55
482.42	263.78
482.79	264.02
483.15	264.36
483.52	264.74
483.88	265.06
484.25	265.44
484.61	265.90
484.98	266.37
485.34	266.93
485.71	267.51
486.07	268.09
486.44	268.63
486.80	269.31
487.17	270.04
487.53	270.83
487.90	271.71
488.26	272.64
488.62	273.64
488.99	274.58
489.35	275.62
489.72	276.79
490.08	277.96
490.44	279.22
490.81	280.54
491.17	281.90
491.54	283.41
491.90	284.96
492.26	286.61
492.63	288.35
492.99	290.11
493.36	291.99
493.72	294.07
494.08	296.20
494.45	298.50
494.81	300.88
495.17	303.32
495.54	305.86
495.90	308.55
496.26	311.36
496.63	314.34
496.99	317.47
497.35	320.67
497.72	324.10
498.08	327.60
498.44	331.20
498.80	335.11
499.17	339.09
499.53	343.24
499.89	347.60
500.26	352.05
500.62	356.72
500.98	361.72
501.34	366.77
501.71	372.08
502.07	377.50
502.43	383.09
502.79	388.84
503.16	394.92
503.52	401.19
503.88	407.57
504.24	414.17
504.60	421.05
504.97	428.21
505.33	435.48
505.69	443.13
506.05	450.89
506.41	458.79
506.78	467.00
507.14	475.44
507.50	484.13
507.86	493.16
508.22	502.32
508.59	511.43
508.95	521.00
509.31	530.80
509.67	540.90
510.03	551.15
510.39	561.75
510.75	572.48
511.12	583.39
511.48	594.61
511.84	606.03
512.20	617.46
512.56	629.34
512.92	641.59
513.28	653.91
513.64	666.46
514.00	679.08
514.37	691.99
514.73	705.04
515.09	718.04
515.45	731.39
515.81	744.98
516.17	758.95
516.53	773.10
516.89	787.26
517.25	801.41
517.61	815.84
517.97	830.34
518.33	844.81
518.69	859.62
519.05	874.69
519.41	889.96
519.77	905.55
520.13	921.05
520.49	936.33
520.85	951.79
521.21	967.60
521.57	983.94
521.93	999.68
522.29	1016.11
522.65	1032.39
523.01	1048.60
523.37	1064.77
523.73	1080.98
524.09	1097.15
524.45	1113.50
524.81	1130.21
525.17	1147.16
525.53	1164.04
525.89	1181.00
526.25	1197.85
526.61	1214.38
526.97	1231.24
527.33	1247.85
527.68	1264.59
528.04	1281.22
528.40	1297.96
528.76	1315.08
529.12	1331.68
529.48	1348.78
529.84	1364.85
530.20	1381.60
530.56	1398.76
530.91	1416.22
531.27	1433.12
531.63	1449.57
531.99	1466.30
532.35	1482.40
532.71	1498.37
533.07	1514.77
533.42	1530.69
533.78	1546.87
534.14	1563.07
534.50	1578.32
534.86	1594.22
535.21	1609.39
535.57	1625.42
535.93	1641.01
536.29	1655.76
536.65	1670.96
537.00	1685.74
537.36	1701.04
537.72	1715.78
538.08	1730.11
538.44	1743.99
538.79	1757.88
539.15	1771.77
539.51	1785.55
539.87	1799.90
540.22	1813.69
540.58	1827.51
540.94	1840.92
541.29	1853.89
541.65	1866.74
542.01	1880.19
542.37	1892.58
542.72	1905.18
543.08	1917.03
543.44	1929.59
543.79	1940.91
544.15	1952.04
544.51	1963.82
544.87	1975.05
545.22	1985.68
545.58	1996.14
545.94	2005.87
546.29	2015.90
546.65	2025.72
547.01	2035.05
547.36	2044.01
547.72	2052.54
548.07	2060.54
548.43	2068.84
548.79	2077.06
549.14	2084.71
549.50	2092.07
549.86	2099.88
550.21	2107.14
550.57	2114.42
550.92	2120.94
551.28	2128.18
551.64	2135.15
551.99	2141.60
552.35	2147.72
552.70	2153.90
553.06	2159.77
553.41	2166.14
553.77	2172.15
554.13	2178.27
554.48	2184.31
554.84	2189.44
555.19	2194.75
555.55	2199.74
555.90	2204.10
556.26	2208.73
556.61	2213.39
556.97	2217.53
557.32	2221.52
557.68	2225.62
558.03	2229.80
558.39	2233.31
558.74	2237.66
559.10	2241.48
559.45	2245.08
559.81	2249.42
560.16	2253.18
560.52	2256.35
560.87	2259.79
561.23	2262.31
561.58	2265.21
561.94	2267.65
562.29	2270.27
562.64	2272.89
563.00	2275.41
563.35	2278.99
563.71	2282.17
564.06	2285.31
564.42	2288.02
564.77	2290.44
565.12	2292.64
565.48	2294.28
565.83	2296.19
566.19	2297.49
566.54	2298.37
566.89	2299.44
567.25	2299.76
567.60	2301.16
567.96	2302.72
568.31	2303.38
568.66	2304.26
569.02	2304.62
569.37	2304.94
569.72	2305.46
570.08	2305.28
570.43	2305.18
570.78	2304.24
571.14	2302.53
571.49	2300.99
571.84	2300.70
572.20	2299.25
572.55	2297.97
572.90	2296.51
573.26	2294.94
573.61	2293.16
573.96	2291.16
574.31	2287.89
574.67	2284.79
575.02	2281.06
575.37	2277.52
575.72	2273.59
576.08	2270.35
576.43	2267.01
576.78	2263.11
577.13	2259.86
577.49	2256.78
577.84	2253.13
578.19	2249.43
578.54	2245.62
578.90	2241.22
579.25	2235.45
579.60	2230.62
579.95	2225.51
580.30	2220.24
580.66	2215.01
581.01	2209.81
581.36	2204.85
581.71	2200.65
582.06	2195.93
582.42	2191.22
582.77	2185.85
583.12	2181.12
583.47	2176.16
583.82	2171.01
584.17	2165.69
584.53	2160.07
584.88	2154.42
585.23	2148.50
585.58	2142.78
585.93	2137.23
586.28	2132.28
586.63	2127.03
586.98	2121.67
587.34	2116.98
587.69	2112.04
588.04	2106.57
588.39	2100.78
588.74	2094.24
589.09	2088.02
589.44	2081.17
589.79	2075.11
590.14	2069.47
590.49	2062.84
590.84	2056.30
591.19	2050.15
591.54	2043.50
591.89	2035.85
592.25	2028.83
592.60	2021.68
592.95	2013.96
593.30	2006.53
593.65	1998.93
594.00	1991.78
594.35	1984.50
594.70	1976.21
595.05	1968.88
595.40	1961.53
595.75	1954.07
596.10	1947.63
596.45	1940.67
596.80	1934.49
597.15	1927.75
597.50	1920.58
597.85	1914.09
598.19	1907.53
598.54	1900.38
598.89	1893.73
599.24	1887.94
599.59	1881.17
599.94	1874.79
600.29	1868.58
600.64	1861.92
600.99	1854.36
601.34	1847.52
601.69	1840.43
602.04	1833.48
602.39	1826.11
602.74	1819.28
603.08	1812.47
603.43	1805.82
603.78	1798.55
604.13	1791.29
604.48	1783.81
604.83	1776.89
605.18	1769.79
605.53	1761.66
605.87	1753.56
606.22	1746.41
606.57	1738.39
606.92	1731.08
607.27	1723.92
607.62	1716.92
607.96	1709.64
608.31	1703.00
608.66	1695.33
609.01	1687.97
609.36	1680.55
609.70	1672.58
610.05	1664.46
610.40	1656.74
610.75	1648.33
611.10	1640.71
611.44	1632.40
611.79	1624.51
612.14	1615.87
612.49	1606.73
612.83	1598.44
613.18	1590.42
613.53	1582.22
613.88	1573.73
614.22	1565.44
614.57	1556.90
614.92	1548.91
615.27	1541.31
615.61	1533.04
615.96	1525.10
616.31	1517.38
616.65	1509.94
617.00	1502.34
617.35	1494.83
617.70	1486.47
618.04	1478.04
618.39	1469.75
618.74	1462.03
619.08	1453.80
619.43	1446.29
619.78	1439.44
620.12	1432.32
620.47	1424.72
620.82	1416.72
621.16	1409.44
621.51	1401.93
621.85	1394.41
622.20	1385.87
622.55	1377.72
622.89	1369.96
623.24	1362.46
623.59	1355.18
623.93	1347.75
624.28	1340.56
624.62	1332.98
624.97	1325.95
625.32	1319.29
625.66	1312.41
626.01	1305.38
626.35	1297.85
626.70	1290.06
627.04	1282.34
627.39	1274.55
627.73	1267.24
628.08	1260.26
628.43	1252.87
628.77	1245.47
629.12	1237.85
629.46	1230.67
629.81	1223.21
630.15	1216.09
630.50	1208.73
630.84	1200.53
631.19	1192.67
631.53	1185.16
631.88	1177.77
632.22	1170.19
632.57	1162.89
632.91	1155.38
633.26	1147.98
633.60	1140.78
633.95	1133.80
634.29	1126.96
634.64	1120.42
634.98	1113.14
635.32	1106.16
635.67	1099.64
636.01	1093.09
636.36	1086.31
636.70	1079.85
637.05	1073.27
637.39	1066.81
637.73	1060.29
638.08	1054.52
638.42	1048.54
638.77	1042.08
639.11	1035.39
639.45	1029.00
639.80	1022.31
640.14	1015.87
640.49	1009.35
640.83	1003.03
641.17	996.76
641.52	990.37
641.86	983.96
642.20	978.12
642.55	971.81
642.89	965.33
643.23	958.82
643.58	953.14
643.92	947.02
644.26	940.96
644.61	934.97
644.95	928.93
645.29	922.34
645.64	915.63
645.98	909.42
646.32	903.68
646.66	897.66
647.01	891.95
647.35	886.20
647.69	880.43
648.04	874.95
648.38	869.18
648.72	863.13
649.06	857.01
649.41	851.10
649.75	845.05
650.09	839.13
650.43	833.32
650.78	827.15
651.12	821.18
651.46	815.46
651.80	809.62
652.14	804.20
652.49	798.83
652.83	793.70
653.17	787.93
653.51	782.11
653.85	776.70
654.20	771.02
654.54	765.10
654.88	759.39
655.22	753.52
655.56	747.85
655.90	742.47
656.25	737.18
656.59	731.89
656.93	726.93
657.27	721.70
657.61	716.23
657.95	711.17
658.29	706.09
658.64	700.96
658.98	695.78
659.32	690.46
659.66	685.30
660.00	679.97
660.34	675.09
660.68	670.32
661.02	665.31
661.36	660.69
661.70	656.19
662.05	651.87
662.39	647.53
662.73	643.11
663.07	638.72
663.41	634.32
663.75	629.80
664.09	625.23
664.43	620.94
664.77	616.90
665.11	612.64
665.45	608.58
665.79	604.48
666.13	600.34
666.47	596.26
666.81	592.04
667.15	588.00
667.49	584.11
667.83	580.28
668.17	576.44
668.51	572.38
668.85	568.40
669.19	564.57
669.53	560.79
669.87	556.96
670.21	553.33
670.55	549.82
670.89	546.41
671.23	542.95
671.57	539.44
671.91	535.91
672.25	532.52
672.58	529.06
672.92	525.70
673.26	522.51
673.60	519.37
673.94	516.33
674.28	513.46
674.62	510.57
674.96	507.49
675.30	504.56
675.64	501.66
675.97	498.96
676.31	496.05
676.65	493.13
676.99	490.42
677.33	487.57
677.67	484.73
678.01	481.70
678.34	478.73
678.68	475.94
679.02	473.18
679.36	470.40
679.70	467.70
680.04	464.92
680.37	462.12
680.71	459.39
681.05	456.75
681.39	454.03
681.73	451.38
682.06	448.89
682.40	446.41
682.74	443.86
683.08	441.30
683.42	438.76
683.75	436.26
684.09	433.71
684.43	431.29
684.77	428.85
685.10	426.57
685.44	424.32
685.78	422.08
686.12	419.85
686.45	417.59
686.79	415.32
687.13	413.18
687.46	411.07
687.80	408.96
688.14	406.81
688.48	404.75
688.81	402.50
689.15	400.33
689.49	398.15
689.82	396.11
690.16	393.98
690.50	392.00
690.83	390.11
691.17	388.13
691.51	386.20
691.84	384.30
692.18	382.36
692.52	380.35
692.85	378.39
693.19	376.49
693.52	374.67
693.86	372.84
694.20	371.08
694.53	369.25
694.87	367.35
695.21	365.58
695.54	363.76
695.88	362.07
696.21	360.36
696.55	358.70
696.88	357.04
697.22	355.46
697.56	353.89
697.89	352.20
698.23	350.61
698.56	349.01
698.90	347.43
699.23	345.76
699.57	344.20
699.90	342.69
700.24	341.15
700.58	339.59
700.91	338.07
701.25	336.55
701.58	335.19
701.92	333.82
702.25	332.43
702.59	331.07
702.92	329.75
703.26	328.48
703.59	327.20
703.93	325.98
704.26	324.75
704.60	323.43
704.93	322.20
705.26	320.96
705.60	319.80
705.93	318.69
706.27	317.68
706.60	316.65
706.94	315.57
707.27	314.45
707.61	313.45
707.94	312.46
708.27	311.41
708.61	310.32
708.94	309.31
709.28	308.33
709.61	307.38
709.94	306.43
710.28	305.38
710.61	304.42
710.95	303.33
711.28	302.41
711.61	301.52
711.95	300.60
712.28	299.64
712.61	298.64
712.95	297.72
713.28	296.87
713.61	295.99
713.95	295.07
714.28	294.24
714.61	293.33
714.95	292.48
715.28	291.67
715.61	290.81
715.95	289.98
716.28	289.18
716.61	288.36
716.95	287.55
717.28	286.89
717.61	286.13
717.94	285.44
718.28	284.66
718.61	283.91
718.94	283.25
719.27	282.58
719.61	281.99
719.94	281.35
720.27	280.65
720.60	280.02
720.94	279.43
721.27	278.87
721.60	278.31
721.93	277.69
722.27	277.15
722.60	276.62
722.93	276.06
723.26	275.53
723.59	274.95
723.93	274.43
724.26	273.83
724.59	273.29
724.92	272.79
725.25	272.28
725.59	271.78
725.92	271.25
726.25	270.80
726.58	270.31
726.91	269.78
727.24	269.28
727.57	268.81
727.91	268.26
728.24	267.79
728.57	267.32
728.90	266.91
729.23	266.41
729.56	265.99
729.89	265.50
730.22	265.00
730.55	264.54
730.89	264.08
731.22	263.64
731.55	263.18
731.88	262.74
732.21	262.30
732.54	261.89
732.87	261.48
733.20	261.07
733.53	260.69
733.86	260.33
734.19	259.93
734.52	259.54
734.85	259.29
735.18	258.85
735.51	258.48
735.84	258.11
736.17	257.75
736.50	257.32
736.83	257.11
737.16	256.77
737.49	256.43
737.82	256.07
738.15	255.74
738.48	255.40
738.81	255.05
739.14	254.73
739.47	254.41
739.80	254.08
740.13	253.74
740.46	253.39
740.79	253.06
741.12	252.77
741.45	252.46
741.78	252.08
742.11	251.82
742.44	251.51
742.77	251.20
743.10	250.87
743.43	250.58
743.75	250.19
744.08	250.03
744.41	249.79
744.74	249.51
745.07	249.23
745.40	248.97
745.73	248.77
746.06	248.47
746.39	248.16
746.71	247.87
747.04	247.61
747.37	247.34
747.70	247.12
748.03	246.87
748.36	246.66
748.68	246.42
749.01	246.13
749.34	245.92
749.67	245.72
750.00	245.53
750.33	245.37
750.65	245.16
750.98	244.83
751.31	244.61
751.64	244.46
751.97	244.30
752.29	244.10
752.62	243.86
752.95	243.69
753.28	243.53
753.60	243.35
753.93	243.22
754.26	243.04
754.59	242.77
754.91	242.52
755.24	242.29
755.57	242.15
755.90	242.03
756.22	241.81
756.55	241.61
756.88	241.45
757.20	241.21
757.53	241.03
757.86	240.85
758.19	240.69
758.51	240.47
758.84	240.30
759.17	240.15
759.49	239.99
759.82	239.89
760.15	239.75
760.47	239.62
760.80	239.45
761.13	239.34
761.45	239.22
761.78	239.15
762.11	239.03
762.43	238.86
762.76	238.70
763.08	238.59
763.41	238.47
763.74	238.29
764.06	238.19
764.39	238.04
764.71	237.92
765.04	237.78
765.37	237.69
765.69	237.55
766.02	237.41
766.34	237.29
766.67	237.10
767.00	236.98
767.32	236.89
767.65	236.84
767.97	236.71
768.30	236.61
768.62	236.50
768.95	236.38
769.27	236.25
769.60	236.18
769.92	236.08
770.25	235.94
770.57	235.86
770.90	235.73
771.22	235.65
771.55	235.54
771.87	235.47
772.20	235.35
772.52	235.29
772.85	235.32
773.17	235.20
773.50	235.11
773.82	235.01
774.15	234.88
774.47	234.69
774.80	234.58
775.12	234.47
775.45	234.38
775.77	234.30
776.09	234.20
776.42	234.07
776.74	233.97
777.07	233.90
777.39	233.83
777.72	233.73
778.04	233.65
778.36	233.55
778.69	233.44
779.01	233.36
779.33	233.20
779.66	233.03
779.98	232.96
780.31	232.87
780.63	232.80
780.95	232.72
781.28	232.66
781.60	232.58
781.92	232.56
782.25	232.49
782.57	232.43
782.89	232.36
783.22	232.31
783.54	232.26
783.86	232.19
784.19	232.09
784.51	232.08
784.83	231.99
785.16	231.96
785.48	231.91
785.80	231.86
786.12	231.84
786.45	231.75
786.77	231.72
787.09	231.68
