SpectraSuite Data File
++++++++++++++++++++++++++++++++++++
Date: Fri Feb 01 18:15:45 EST 2013
User: group
Dark Spectrum Present: No
Reference Spectrum Present: No
Number of Sampled Component Spectra: 1
Spectrometers: USB2E7196
Integration Time (usec): 35000 (USB2E7196)
Spectra Averaged: 100 (USB2E7196)
Boxcar Smoothing: 10 (USB2E7196)
Correct for Electrical Dark: No (USB2E7196)
Strobe/Lamp Enabled: No (USB2E7196)
Correct for Detector Non-linearity: No (USB2E7196)
Correct for Stray Light: No (USB2E7196)
Number of Pixels in Processed Spectrum: 2048
>>>>>Begin Processed Spectral Data<<<<<
339.09	0.00
339.48	213.88
339.86	214.91
340.24	216.51
340.63	217.24
341.01	220.46
341.39	220.15
341.78	221.64
342.16	223.03
342.54	222.89
342.93	211.70
343.31	222.39
343.69	222.90
344.07	223.35
344.46	223.76
344.84	224.14
345.22	224.39
345.60	224.63
345.99	224.82
346.37	224.94
346.75	225.07
347.13	225.11
347.52	225.16
347.90	225.25
348.28	225.26
348.66	225.34
349.05	225.34
349.43	225.36
349.81	225.40
350.19	225.40
350.57	225.43
350.96	225.51
351.34	225.60
351.72	225.65
352.10	225.76
352.48	225.83
352.87	225.88
353.25	225.91
353.63	225.96
354.01	226.01
354.39	226.09
354.77	226.13
355.15	226.27
355.54	226.31
355.92	226.34
356.30	226.41
356.68	226.50
357.06	226.55
357.44	226.63
357.82	226.68
358.20	226.81
358.58	226.88
358.97	226.93
359.35	227.01
359.73	227.12
360.11	227.12
360.49	227.14
360.87	227.22
361.25	227.27
361.63	227.37
362.01	227.41
362.39	227.41
362.77	227.47
363.15	227.47
363.53	227.48
363.91	227.50
364.29	227.53
364.67	227.46
365.05	227.49
365.43	227.48
365.81	227.51
366.19	227.53
366.57	227.60
366.95	227.60
367.33	227.58
367.71	227.54
368.09	227.60
368.47	227.59
368.85	227.57
369.23	227.60
369.61	227.53
369.99	227.54
370.37	227.53
370.75	227.57
371.13	227.50
371.51	227.49
371.89	227.43
372.27	227.44
372.65	227.42
373.03	227.42
373.41	227.39
373.78	227.34
374.16	227.24
374.54	227.15
374.92	227.11
375.30	227.06
375.68	226.99
376.06	226.93
376.44	226.90
376.82	226.81
377.19	226.72
377.57	226.66
377.95	226.57
378.33	226.53
378.71	226.41
379.09	226.39
379.47	226.35
379.84	226.30
380.22	226.23
380.60	226.15
380.98	226.08
381.36	226.05
381.73	225.99
382.11	225.98
382.49	225.91
382.87	225.84
383.25	225.80
383.62	225.90
384.00	225.84
384.38	225.77
384.76	225.76
385.13	225.77
385.51	225.76
385.89	225.72
386.27	225.67
386.64	225.63
387.02	225.58
387.40	225.52
387.78	225.53
388.15	225.49
388.53	225.45
388.91	225.42
389.29	225.40
389.66	225.38
390.04	225.33
390.42	225.32
390.79	225.33
391.17	225.32
391.55	225.20
391.92	225.18
392.30	225.22
392.68	225.21
393.05	225.19
393.43	225.19
393.81	225.23
394.18	225.22
394.56	225.23
394.94	225.24
395.31	225.24
395.69	225.25
396.06	225.31
396.44	225.33
396.82	225.36
397.19	225.40
397.57	225.45
397.95	225.51
398.32	225.53
398.70	225.57
399.07	225.64
399.45	225.67
399.82	225.72
400.20	225.77
400.58	225.82
400.95	225.86
401.33	225.95
401.70	226.09
402.08	226.21
402.45	226.31
402.83	226.44
403.20	226.56
403.58	226.66
403.95	226.81
404.33	226.95
404.71	227.07
405.08	227.25
405.46	227.37
405.83	227.53
406.21	227.75
406.58	227.94
406.96	228.11
407.33	228.33
407.70	228.58
408.08	228.89
408.45	229.18
408.83	229.45
409.20	229.70
409.58	229.95
409.95	230.24
410.33	230.56
410.70	230.89
411.08	231.30
411.45	231.71
411.82	232.09
412.20	232.55
412.57	233.12
412.95	233.54
413.32	234.13
413.69	234.70
414.07	235.27
414.44	235.89
414.82	236.56
415.19	237.33
415.56	238.09
415.94	238.86
416.31	239.75
416.68	240.63
417.06	241.64
417.43	242.54
417.81	243.62
418.18	244.73
418.55	245.91
418.93	247.17
419.30	248.44
419.67	249.78
420.04	251.13
420.42	252.50
420.79	254.16
421.16	255.74
421.54	257.38
421.91	259.11
422.28	260.91
422.66	262.78
423.03	264.55
423.40	266.41
423.77	268.44
424.15	270.44
424.52	272.54
424.89	274.80
425.26	277.00
425.64	279.05
426.01	281.29
426.38	283.58
426.75	285.92
427.13	288.35
427.50	290.89
427.87	293.55
428.24	296.25
428.61	298.73
428.99	301.48
429.36	304.44
429.73	307.33
430.10	310.15
430.47	313.03
430.85	316.03
431.22	319.23
431.59	322.52
431.96	325.67
432.33	329.19
432.70	332.56
433.08	336.53
433.45	340.26
433.82	343.94
434.19	348.05
434.56	352.01
434.93	355.75
435.30	359.43
435.68	363.52
436.05	367.47
436.42	371.43
436.79	374.94
437.16	378.78
437.53	382.85
437.90	386.85
438.27	390.78
438.64	394.81
439.01	398.42
439.38	401.60
439.75	404.69
440.13	408.16
440.50	411.47
440.87	414.13
441.24	416.87
441.61	419.94
441.98	422.04
442.35	424.61
442.72	427.25
443.09	429.83
443.46	431.26
443.83	432.07
444.20	432.81
444.57	434.06
444.94	434.47
445.31	434.93
445.68	435.35
446.05	435.44
446.42	434.89
446.79	434.30
447.16	433.69
447.53	433.18
447.90	431.58
448.27	429.92
448.64	427.66
449.01	426.06
449.37	423.27
449.74	420.54
450.11	417.31
450.48	413.79
450.85	410.19
451.22	407.11
451.59	404.23
451.96	401.44
452.33	397.72
452.70	394.38
453.07	390.35
453.43	386.31
453.80	382.38
454.17	378.62
454.54	375.07
454.91	371.24
455.28	367.46
455.65	363.95
456.02	360.39
456.38	357.31
456.75	353.53
457.12	350.35
457.49	347.23
457.86	344.16
458.23	341.48
458.59	338.57
458.96	335.62
459.33	332.95
459.70	330.30
460.07	328.19
460.43	325.74
460.80	323.40
461.17	321.32
461.54	319.15
461.91	317.11
462.27	315.00
462.64	313.19
463.01	311.27
463.38	309.41
463.74	307.54
464.11	305.91
464.48	304.48
464.85	302.89
465.21	301.62
465.58	300.32
465.95	298.79
466.32	297.52
466.68	296.24
467.05	294.99
467.42	293.74
467.78	292.39
468.15	291.14
468.52	290.20
468.88	289.01
469.25	287.96
469.62	287.03
469.98	286.07
470.35	285.16
470.72	284.31
471.08	283.40
471.45	282.64
471.82	281.84
472.18	280.94
472.55	280.28
472.92	279.58
473.28	278.92
473.65	278.27
474.02	277.64
474.38	277.11
474.75	276.61
475.11	276.10
475.48	275.69
475.85	275.35
476.21	275.00
476.58	274.74
476.94	274.44
477.31	274.18
477.67	273.92
478.04	273.68
478.41	273.50
478.77	273.46
479.14	273.30
479.50	273.25
479.87	273.28
480.23	273.32
480.60	273.31
480.96	273.30
481.33	273.48
481.69	273.63
482.06	273.70
482.42	273.87
482.79	274.08
483.15	274.39
483.52	274.73
483.88	275.07
484.25	275.40
484.61	275.83
484.98	276.23
485.34	276.82
485.71	277.44
486.07	278.09
486.44	278.64
486.80	279.37
487.17	280.10
487.53	280.93
487.90	281.80
488.26	282.79
488.62	283.81
488.99	284.85
489.35	285.91
489.72	287.14
490.08	288.45
490.44	289.76
490.81	291.14
491.17	292.58
491.54	294.11
491.90	295.70
492.26	297.47
492.63	299.33
492.99	301.18
493.36	303.21
493.72	305.37
494.08	307.62
494.45	310.03
494.81	312.53
495.17	315.15
495.54	317.88
495.90	320.75
496.26	323.80
496.63	326.94
496.99	330.30
497.35	333.77
497.72	337.35
498.08	341.07
498.44	345.00
498.80	349.20
499.17	353.55
499.53	358.05
499.89	362.72
500.26	367.55
500.62	372.52
500.98	377.82
501.34	383.31
501.71	389.01
502.07	394.83
502.43	400.87
502.79	407.08
503.16	413.60
503.52	420.31
503.88	427.15
504.24	434.27
504.60	441.63
504.97	449.32
505.33	457.18
505.69	465.55
506.05	474.00
506.41	482.47
506.78	491.29
507.14	500.42
507.50	509.80
507.86	519.56
508.22	529.55
508.59	539.52
508.95	549.82
509.31	560.50
509.67	571.48
510.03	582.66
510.39	594.14
510.75	605.83
511.12	617.69
511.48	630.01
511.84	642.47
512.20	655.06
512.56	668.05
512.92	681.46
513.28	694.85
513.64	708.41
514.00	722.29
514.37	736.33
514.73	750.64
515.09	764.92
515.45	779.43
515.81	794.35
516.17	809.71
516.53	825.26
516.89	840.83
517.25	856.45
517.61	872.34
517.97	888.22
518.33	904.17
518.69	920.46
519.05	937.02
519.41	953.79
519.77	971.08
520.13	988.19
520.49	1005.12
520.85	1022.21
521.21	1039.62
521.57	1057.67
521.93	1075.18
522.29	1093.42
522.65	1111.50
523.01	1129.61
523.37	1147.54
523.73	1165.57
524.09	1183.63
524.45	1201.82
524.81	1220.36
525.17	1239.09
525.53	1258.19
525.89	1277.19
526.25	1296.12
526.61	1314.50
526.97	1333.50
527.33	1352.09
527.68	1370.82
528.04	1389.47
528.40	1408.21
528.76	1427.56
529.12	1446.48
529.48	1465.83
529.84	1483.96
530.20	1502.94
530.56	1522.33
530.91	1542.15
531.27	1561.30
531.63	1580.05
531.99	1599.08
532.35	1617.58
532.71	1635.85
533.07	1654.49
533.42	1672.84
533.78	1691.43
534.14	1710.38
534.50	1728.03
534.86	1746.39
535.21	1764.19
535.57	1782.71
535.93	1800.82
536.29	1818.16
536.65	1835.54
537.00	1852.76
537.36	1870.82
537.72	1887.74
538.08	1904.80
538.44	1921.12
538.79	1937.51
539.15	1953.73
539.51	1970.05
539.87	1987.00
540.22	2003.45
540.58	2019.78
540.94	2035.67
541.29	2051.22
541.65	2066.41
542.01	2082.47
542.37	2097.39
542.72	2112.43
543.08	2126.89
543.44	2142.00
543.79	2155.81
544.15	2169.35
544.51	2183.65
544.87	2197.25
545.22	2210.80
545.58	2223.52
545.94	2235.78
546.29	2248.31
546.65	2260.92
547.01	2272.85
547.36	2283.91
547.72	2294.92
548.07	2305.21
548.43	2315.60
548.79	2325.84
549.14	2335.93
549.50	2345.31
549.86	2355.31
550.21	2364.90
550.57	2374.36
550.92	2383.15
551.28	2392.44
551.64	2401.90
551.99	2410.48
552.35	2418.77
552.70	2427.20
553.06	2435.26
553.41	2443.75
553.77	2451.76
554.13	2459.92
554.48	2468.16
554.84	2476.01
555.19	2483.09
555.55	2490.28
555.90	2496.88
556.26	2503.93
556.61	2510.33
556.97	2516.72
557.32	2522.74
557.68	2528.68
558.03	2534.80
558.39	2540.23
558.74	2546.79
559.10	2552.48
559.45	2557.89
559.81	2563.86
560.16	2569.42
560.52	2574.43
560.87	2579.51
561.23	2583.83
561.58	2588.25
561.94	2592.21
562.29	2595.80
562.64	2600.29
563.00	2604.37
563.35	2609.52
563.71	2613.95
564.06	2618.69
564.42	2623.07
564.77	2627.08
565.12	2630.86
565.48	2634.12
565.83	2637.52
566.19	2640.30
566.54	2642.34
566.89	2644.78
567.25	2646.63
567.60	2648.90
567.96	2651.79
568.31	2653.73
568.66	2655.96
569.02	2657.63
569.37	2658.86
569.72	2660.73
570.08	2661.55
570.43	2662.42
570.78	2662.61
571.14	2662.00
571.49	2661.29
571.84	2661.71
572.20	2661.24
572.55	2660.69
572.90	2659.44
573.26	2658.51
573.61	2657.03
573.96	2655.67
574.31	2653.03
574.67	2650.14
575.02	2646.63
575.37	2643.32
575.72	2639.64
576.08	2636.21
576.43	2632.75
576.78	2629.25
577.13	2626.07
577.49	2623.16
577.84	2619.79
578.19	2616.01
578.54	2612.21
578.90	2607.79
579.25	2601.87
579.60	2596.57
579.95	2591.23
580.30	2585.94
580.66	2580.33
581.01	2575.13
581.36	2569.94
581.71	2565.49
582.06	2560.79
582.42	2556.22
582.77	2550.57
583.12	2545.64
583.47	2540.68
583.82	2535.50
584.17	2529.67
584.53	2523.77
584.88	2517.40
585.23	2511.00
585.58	2504.79
585.93	2498.62
586.28	2493.39
586.63	2487.71
586.98	2482.10
587.34	2476.84
587.69	2471.35
588.04	2465.39
588.39	2458.80
588.74	2451.48
589.09	2444.44
589.44	2436.80
589.79	2429.75
590.14	2423.32
590.49	2415.77
590.84	2408.39
591.19	2401.28
591.54	2393.78
591.89	2385.25
592.25	2377.56
592.60	2369.15
592.95	2360.53
593.30	2352.04
593.65	2343.07
594.00	2334.85
594.35	2326.32
594.70	2316.93
595.05	2308.81
595.40	2300.31
595.75	2291.60
596.10	2284.32
596.45	2276.40
596.80	2269.24
597.15	2261.59
597.50	2253.33
597.85	2245.61
598.19	2237.80
598.54	2229.61
598.89	2221.80
599.24	2214.99
599.59	2207.14
599.94	2199.90
600.29	2192.30
600.64	2184.39
600.99	2175.83
601.34	2167.73
601.69	2159.40
602.04	2151.44
602.39	2142.58
602.74	2134.48
603.08	2126.51
603.43	2118.41
603.78	2109.67
604.13	2100.85
604.48	2092.13
604.83	2083.82
605.18	2075.76
605.53	2066.25
605.87	2056.64
606.22	2048.00
606.57	2038.28
606.92	2029.39
607.27	2020.76
607.62	2012.40
607.96	2003.87
608.31	1995.95
608.66	1986.71
609.01	1977.73
609.36	1968.64
609.70	1959.09
610.05	1949.45
610.40	1940.16
610.75	1930.32
611.10	1921.10
611.44	1910.98
611.79	1901.26
612.14	1890.88
612.49	1879.78
612.83	1869.70
613.18	1859.93
613.53	1850.23
613.88	1839.90
614.22	1829.96
614.57	1819.57
614.92	1810.03
615.27	1800.89
615.61	1790.85
615.96	1781.21
616.31	1771.90
616.65	1762.90
617.00	1753.75
617.35	1744.50
617.70	1734.52
618.04	1724.22
618.39	1714.26
618.74	1705.25
619.08	1695.33
619.43	1686.11
619.78	1677.81
620.12	1669.23
620.47	1660.24
620.82	1650.37
621.16	1641.33
621.51	1632.09
621.85	1622.82
622.20	1612.45
622.55	1602.44
622.89	1592.88
623.24	1583.65
623.59	1574.70
623.93	1565.63
624.28	1556.81
624.62	1547.78
624.97	1539.08
625.32	1530.82
625.66	1522.46
626.01	1513.88
626.35	1505.05
626.70	1495.79
627.04	1486.42
627.39	1476.97
627.73	1467.91
628.08	1459.57
628.43	1451.04
628.77	1442.21
629.12	1433.14
629.46	1424.63
629.81	1415.47
630.15	1406.77
630.50	1397.92
630.84	1388.20
631.19	1378.62
631.53	1369.49
631.88	1360.39
632.22	1351.29
632.57	1342.46
632.91	1333.27
633.26	1324.26
633.60	1315.24
633.95	1306.61
634.29	1298.04
634.64	1290.02
634.98	1281.16
635.32	1272.46
635.67	1264.40
636.01	1256.44
636.36	1248.33
636.70	1240.35
637.05	1232.45
637.39	1224.79
637.73	1217.06
638.08	1209.89
638.42	1202.71
638.77	1195.08
639.11	1187.19
639.45	1179.45
639.80	1171.64
640.14	1164.04
640.49	1156.28
640.83	1148.78
641.17	1141.40
641.52	1133.86
641.86	1126.20
642.20	1119.26
642.55	1111.72
642.89	1104.09
643.23	1096.28
643.58	1089.41
643.92	1082.08
644.26	1075.07
644.61	1067.82
644.95	1060.61
645.29	1052.89
645.64	1044.80
645.98	1037.25
646.32	1030.24
646.66	1023.13
647.01	1016.11
647.35	1009.27
647.69	1002.20
648.04	995.66
648.38	988.77
648.72	981.79
649.06	974.60
649.41	967.61
649.75	960.62
650.09	953.51
650.43	946.57
650.78	939.23
651.12	932.23
651.46	925.40
651.80	918.62
652.14	912.20
652.49	905.83
652.83	899.77
653.17	893.12
653.51	886.42
653.85	880.01
654.20	873.41
654.54	866.26
654.88	859.50
655.22	852.45
655.56	845.72
655.90	839.18
656.25	832.92
656.59	826.49
656.93	820.44
657.27	814.40
657.61	808.04
657.95	802.09
658.29	796.10
658.64	789.80
658.98	783.45
659.32	776.92
659.66	770.79
660.00	764.52
660.34	758.58
660.68	752.72
661.02	746.82
661.36	741.22
661.70	736.03
662.05	730.94
662.39	725.91
662.73	720.63
663.07	715.45
663.41	710.18
663.75	704.94
664.09	699.62
664.43	694.40
664.77	689.55
665.11	684.48
665.45	679.52
665.79	674.77
666.13	669.97
666.47	665.23
666.81	660.27
667.15	655.38
667.49	650.81
667.83	646.27
668.17	641.62
668.51	636.84
668.85	632.05
669.19	627.45
669.53	622.89
669.87	618.41
670.21	614.05
670.55	609.76
670.89	605.74
671.23	601.63
671.57	597.43
671.91	593.23
672.25	589.04
672.58	584.92
672.92	580.83
673.26	577.10
673.60	573.30
673.94	569.65
674.28	566.19
674.62	562.79
674.96	559.16
675.30	555.74
675.64	552.26
675.97	548.97
676.31	545.61
676.65	542.17
676.99	538.87
677.33	535.51
677.67	532.25
678.01	528.65
678.34	525.18
678.68	521.84
679.02	518.52
679.36	515.23
679.70	512.00
680.04	508.78
680.37	505.41
680.71	502.19
681.05	499.06
681.39	495.92
681.73	492.76
682.06	489.78
682.40	486.78
682.74	483.83
683.08	480.83
683.42	477.75
683.75	474.81
684.09	471.82
684.43	468.92
684.77	466.00
685.10	463.20
685.44	460.46
685.78	457.71
686.12	455.06
686.45	452.48
686.79	449.81
687.13	447.25
687.46	444.65
687.80	442.08
688.14	439.46
688.48	437.00
688.81	434.31
689.15	431.79
689.49	429.21
689.82	426.73
690.16	424.27
690.50	421.96
690.83	419.65
691.17	417.34
691.51	415.07
691.84	412.87
692.18	410.63
692.52	408.28
692.85	406.00
693.19	403.77
693.52	401.57
693.86	399.41
694.20	397.24
694.53	395.16
694.87	392.95
695.21	390.86
695.54	388.69
695.88	386.64
696.21	384.60
696.55	382.60
696.88	380.57
697.22	378.57
697.56	376.61
697.89	374.61
698.23	372.69
698.56	370.72
698.90	368.83
699.23	366.89
699.57	365.06
699.90	363.25
700.24	361.38
700.58	359.57
700.91	357.79
701.25	356.02
701.58	354.32
701.92	352.75
702.25	351.09
702.59	349.49
702.92	347.98
703.26	346.44
703.59	344.91
703.93	343.55
704.26	342.10
704.60	340.59
704.93	339.11
705.26	337.63
705.60	336.26
705.93	334.84
706.27	333.61
706.60	332.32
706.94	331.06
707.27	329.75
707.61	328.47
707.94	327.24
708.27	325.98
708.61	324.68
708.94	323.45
709.28	322.28
709.61	321.10
709.94	319.92
710.28	318.65
710.61	317.45
710.95	316.13
711.28	315.00
711.61	313.85
711.95	312.75
712.28	311.64
712.61	310.44
712.95	309.35
713.28	308.28
713.61	307.28
713.95	306.22
714.28	305.20
714.61	304.16
714.95	303.13
715.28	302.15
715.61	301.10
715.95	300.09
716.28	299.07
716.61	298.08
716.95	297.07
717.28	296.19
717.61	295.32
717.94	294.46
718.28	293.52
718.61	292.63
718.94	291.80
719.27	291.03
719.61	290.28
719.94	289.46
720.27	288.61
720.60	287.79
720.94	287.04
721.27	286.35
721.60	285.66
721.93	284.97
722.27	284.31
722.60	283.70
722.93	283.02
723.26	282.35
723.59	281.67
723.93	281.02
724.26	280.37
724.59	279.69
724.92	279.09
725.25	278.50
725.59	277.93
725.92	277.32
726.25	276.68
726.58	276.12
726.91	275.55
727.24	274.98
727.57	274.41
727.91	273.76
728.24	273.21
728.57	272.65
728.90	272.07
729.23	271.50
729.56	270.96
729.89	270.42
730.22	269.90
730.55	269.42
730.89	268.90
731.22	268.44
731.55	267.94
731.88	267.42
732.21	266.93
732.54	266.40
732.87	265.92
733.20	265.49
733.53	265.00
733.86	264.56
734.19	264.13
734.52	263.71
734.85	263.38
735.18	262.89
735.51	262.46
735.84	262.05
736.17	261.64
736.50	261.18
736.83	260.88
737.16	260.50
737.49	260.08
737.82	259.71
738.15	259.24
738.48	258.83
738.81	258.45
739.14	258.05
739.47	257.72
739.80	257.35
740.13	256.97
740.46	256.60
740.79	256.23
741.12	255.85
741.45	255.47
741.78	255.04
742.11	254.73
742.44	254.35
742.77	254.00
743.10	253.65
743.43	253.33
743.75	252.88
744.08	252.67
744.41	252.36
744.74	252.02
745.07	251.73
745.40	251.44
745.73	251.18
746.06	250.90
746.39	250.56
746.71	250.25
747.04	249.91
747.37	249.59
747.70	249.30
748.03	249.00
748.36	248.71
748.68	248.43
749.01	248.11
749.34	247.82
749.67	247.56
750.00	247.27
750.33	247.05
750.65	246.78
750.98	246.36
751.31	246.06
751.64	245.82
751.97	245.60
752.29	245.32
752.62	245.01
752.95	244.70
753.28	244.44
753.60	244.19
753.93	243.99
754.26	243.75
754.59	243.48
754.91	243.22
755.24	242.96
755.57	242.74
755.90	242.51
756.22	242.27
756.55	242.03
756.88	241.79
757.20	241.53
757.53	241.29
757.86	241.12
758.19	240.95
758.51	240.73
758.84	240.48
759.17	240.29
759.49	240.10
759.82	239.98
760.15	239.80
760.47	239.65
760.80	239.44
761.13	239.31
761.45	239.08
761.78	238.92
762.11	238.77
762.43	238.57
762.76	238.41
763.08	238.26
763.41	238.08
763.74	237.92
764.06	237.77
764.39	237.60
764.71	237.39
765.04	237.21
765.37	237.05
765.69	236.91
766.02	236.75
766.34	236.59
766.67	236.41
767.00	236.26
767.32	236.13
767.65	236.06
767.97	235.89
768.30	235.80
768.62	235.64
768.95	235.51
769.27	235.41
769.60	235.30
769.92	235.17
770.25	235.06
770.57	234.93
770.90	234.78
771.22	234.67
771.55	234.57
771.87	234.45
772.20	234.37
772.52	234.33
772.85	234.35
773.17	234.23
773.50	234.13
773.82	234.00
774.15	233.86
774.47	233.68
774.80	233.56
775.12	233.47
775.45	233.39
775.77	233.27
776.09	233.18
776.42	233.07
776.74	232.98
777.07	232.89
777.39	232.81
777.72	232.72
778.04	232.66
778.36	232.59
778.69	232.54
779.01	232.48
779.33	232.32
779.66	232.14
779.98	232.05
780.31	231.99
780.63	231.98
780.95	231.94
781.28	231.85
781.60	231.78
781.92	231.71
782.25	231.65
782.57	231.61
782.89	231.53
783.22	231.44
783.54	231.36
783.86	231.27
784.19	231.21
784.51	231.18
784.83	231.11
785.16	231.04
785.48	230.99
785.80	230.89
786.12	230.84
786.45	230.77
