SpectraSuite Data File
++++++++++++++++++++++++++++++++++++
Date: Fri Feb 01 17:28:06 EST 2013
User: group
Dark Spectrum Present: No
Reference Spectrum Present: No
Number of Sampled Component Spectra: 1
Spectrometers: USB2E7196
Integration Time (usec): 35000 (USB2E7196)
Spectra Averaged: 100 (USB2E7196)
Boxcar Smoothing: 10 (USB2E7196)
Correct for Electrical Dark: No (USB2E7196)
Strobe/Lamp Enabled: No (USB2E7196)
Correct for Detector Non-linearity: No (USB2E7196)
Correct for Stray Light: No (USB2E7196)
Number of Pixels in Processed Spectrum: 2048
>>>>>Begin Processed Spectral Data<<<<<
339.09	0.00
339.48	212.31
339.86	214.06
340.24	215.60
340.63	216.88
341.01	220.00
341.39	220.24
341.78	220.32
342.16	222.22
342.54	223.40
342.93	211.29
343.31	221.96
343.69	222.53
344.07	223.01
344.46	223.43
344.84	223.81
345.22	224.04
345.60	224.28
345.99	224.50
346.37	224.61
346.75	224.69
347.13	224.75
347.52	224.81
347.90	224.88
348.28	224.92
348.66	224.92
349.05	224.89
349.43	224.87
349.81	224.91
350.19	224.91
350.57	224.98
350.96	225.03
351.34	225.11
351.72	225.17
352.10	225.25
352.48	225.32
352.87	225.37
353.25	225.42
353.63	225.46
354.01	225.53
354.39	225.63
354.77	225.68
355.15	225.79
355.54	225.86
355.92	225.90
356.30	225.97
356.68	226.10
357.06	226.21
357.44	226.29
357.82	226.35
358.20	226.46
358.58	226.53
358.97	226.59
359.35	226.66
359.73	226.76
360.11	226.81
360.49	226.84
360.87	226.88
361.25	226.96
361.63	227.04
362.01	227.08
362.39	227.09
362.77	227.16
363.15	227.18
363.53	227.22
363.91	227.29
364.29	227.30
364.67	227.26
365.05	227.28
365.43	227.33
365.81	227.32
366.19	227.36
366.57	227.42
366.95	227.43
367.33	227.40
367.71	227.38
368.09	227.40
368.47	227.42
368.85	227.40
369.23	227.41
369.61	227.37
369.99	227.37
370.37	227.39
370.75	227.40
371.13	227.38
371.51	227.34
371.89	227.28
372.27	227.24
372.65	227.18
373.03	227.13
373.41	227.06
373.78	227.02
374.16	226.93
374.54	226.82
374.92	226.78
375.30	226.77
375.68	226.69
376.06	226.64
376.44	226.59
376.82	226.56
377.19	226.48
377.57	226.45
377.95	226.38
378.33	226.28
378.71	226.17
379.09	226.13
379.47	226.06
379.84	226.00
380.22	225.94
380.60	225.87
380.98	225.84
381.36	225.78
381.73	225.71
382.11	225.66
382.49	225.58
382.87	225.49
383.25	225.41
383.62	225.47
384.00	225.38
384.38	225.31
384.76	225.28
385.13	225.28
385.51	225.21
385.89	225.14
386.27	225.11
386.64	225.07
387.02	224.98
387.40	224.96
387.78	224.90
388.15	224.89
388.53	224.85
388.91	224.80
389.29	224.76
389.66	224.74
390.04	224.72
390.42	224.73
390.79	224.71
391.17	224.71
391.55	224.57
391.92	224.56
392.30	224.56
392.68	224.53
393.05	224.50
393.43	224.46
393.81	224.48
394.18	224.46
394.56	224.50
394.94	224.54
395.31	224.52
395.69	224.56
396.06	224.55
396.44	224.58
396.82	224.58
397.19	224.65
397.57	224.69
397.95	224.72
398.32	224.75
398.70	224.80
399.07	224.83
399.45	224.89
399.82	224.96
400.20	225.02
400.58	225.05
400.95	225.07
401.33	225.19
401.70	225.31
402.08	225.38
402.45	225.40
402.83	225.52
403.20	225.63
403.58	225.74
403.95	225.87
404.33	225.98
404.71	226.11
405.08	226.27
405.46	226.41
405.83	226.52
406.21	226.66
406.58	226.81
406.96	226.96
407.33	227.11
407.70	227.29
408.08	227.54
408.45	227.78
408.83	228.04
409.20	228.24
409.58	228.42
409.95	228.68
410.33	228.99
410.70	229.21
411.08	229.50
411.45	229.78
411.82	230.09
412.20	230.45
412.57	230.90
412.95	231.17
413.32	231.56
413.69	231.97
414.07	232.44
414.44	232.89
414.82	233.41
415.19	234.01
415.56	234.57
415.94	235.14
416.31	235.86
416.68	236.49
417.06	237.25
417.43	237.94
417.81	238.76
418.18	239.59
418.55	240.48
418.93	241.41
419.30	242.38
419.67	243.39
420.04	244.36
420.42	245.37
420.79	246.62
421.16	247.86
421.54	249.15
421.91	250.39
422.28	251.73
422.66	253.13
423.03	254.49
423.40	255.88
423.77	257.36
424.15	258.82
424.52	260.41
424.89	262.06
425.26	263.67
425.64	265.21
426.01	266.85
426.38	268.56
426.75	270.32
427.13	272.09
427.50	273.96
427.87	275.97
428.24	277.91
428.61	279.76
428.99	281.77
429.36	283.92
429.73	286.09
430.10	288.22
430.47	290.37
430.85	292.58
431.22	294.94
431.59	297.46
431.96	299.77
432.33	302.32
432.70	304.81
433.08	307.79
433.45	310.47
433.82	313.19
434.19	316.18
434.56	319.11
434.93	321.86
435.30	324.51
435.68	327.50
436.05	330.44
436.42	333.32
436.79	335.89
437.16	338.70
437.53	341.63
437.90	344.53
438.27	347.40
438.64	350.35
439.01	352.98
439.38	355.26
439.75	357.49
440.13	360.07
440.50	362.46
440.87	364.35
441.24	366.39
441.61	368.59
441.98	370.15
442.35	371.99
442.72	373.96
443.09	375.89
443.46	376.93
443.83	377.57
444.20	378.10
444.57	379.01
444.94	379.34
445.31	379.71
445.68	380.13
446.05	380.18
446.42	379.80
446.79	379.44
447.16	379.00
447.53	378.73
447.90	377.55
448.27	376.42
448.64	374.80
449.01	373.67
449.37	371.69
449.74	369.76
450.11	367.42
450.48	364.86
450.85	362.25
451.22	360.06
451.59	357.96
451.96	355.97
452.33	353.29
452.70	350.83
453.07	347.88
453.43	344.86
453.80	342.03
454.17	339.27
454.54	336.64
454.91	333.81
455.28	331.02
455.65	328.43
456.02	325.84
456.38	323.61
456.75	320.79
457.12	318.44
457.49	316.10
457.86	313.90
458.23	311.95
458.59	309.82
458.96	307.67
459.33	305.72
459.70	303.76
460.07	302.19
460.43	300.42
460.80	298.76
461.17	297.22
461.54	295.64
461.91	294.11
462.27	292.60
462.64	291.30
463.01	289.89
463.38	288.55
463.74	287.18
464.11	285.96
464.48	284.92
464.85	283.76
465.21	282.90
465.58	281.92
465.95	280.84
466.32	279.90
466.68	278.89
467.05	277.97
467.42	277.05
467.78	276.07
468.15	275.13
468.52	274.41
468.88	273.53
469.25	272.73
469.62	272.09
469.98	271.34
470.35	270.69
470.72	270.07
471.08	269.39
471.45	268.79
471.82	268.24
472.18	267.62
472.55	267.15
472.92	266.55
473.28	266.10
473.65	265.60
474.02	265.14
474.38	264.80
474.75	264.47
475.11	264.10
475.48	263.83
475.85	263.63
476.21	263.40
476.58	263.17
476.94	263.03
477.31	262.86
477.67	262.75
478.04	262.61
478.41	262.54
478.77	262.58
479.14	262.54
479.50	262.54
479.87	262.63
480.23	262.73
480.60	262.83
480.96	262.86
481.33	263.05
481.69	263.27
482.06	263.45
482.42	263.63
482.79	263.91
483.15	264.24
483.52	264.62
483.88	265.01
484.25	265.44
484.61	265.86
484.98	266.30
485.34	266.85
485.71	267.43
486.07	268.04
486.44	268.57
486.80	269.26
487.17	270.00
487.53	270.77
487.90	271.64
488.26	272.58
488.62	273.62
488.99	274.61
489.35	275.63
489.72	276.77
490.08	278.01
490.44	279.25
490.81	280.61
491.17	281.96
491.54	283.44
491.90	284.99
492.26	286.62
492.63	288.33
492.99	290.06
493.36	291.98
493.72	294.04
494.08	296.15
494.45	298.37
494.81	300.69
495.17	303.12
495.54	305.63
495.90	308.33
496.26	311.10
496.63	314.03
496.99	317.11
497.35	320.34
497.72	323.69
498.08	327.18
498.44	330.82
498.80	334.67
499.17	338.67
499.53	342.76
499.89	347.10
500.26	351.56
500.62	356.22
500.98	361.10
501.34	366.10
501.71	371.42
502.07	376.80
502.43	382.36
502.79	388.09
503.16	394.14
503.52	400.31
503.88	406.60
504.24	413.09
504.60	419.85
504.97	426.88
505.33	434.11
505.69	441.72
506.05	449.36
506.41	457.06
506.78	465.05
507.14	473.35
507.50	481.91
507.86	490.77
508.22	499.79
508.59	508.82
508.95	518.20
509.31	527.77
509.67	537.64
510.03	547.73
510.39	558.09
510.75	568.61
511.12	579.22
511.48	590.31
511.84	601.56
512.20	612.84
512.56	624.42
512.92	636.29
513.28	648.31
513.64	660.44
514.00	672.94
514.37	685.57
514.73	698.31
515.09	710.97
515.45	723.95
515.81	737.19
516.17	750.80
516.53	764.57
516.89	778.43
517.25	792.28
517.61	806.32
517.97	820.40
518.33	834.46
518.69	848.88
519.05	863.34
519.41	878.13
519.77	893.22
520.13	908.22
520.49	923.24
520.85	938.22
521.21	953.51
521.57	969.28
521.93	984.57
522.29	1000.42
522.65	1016.27
523.01	1031.93
523.37	1047.47
523.73	1063.17
524.09	1078.84
524.45	1094.62
524.81	1110.77
525.17	1127.00
525.53	1143.37
525.89	1159.75
526.25	1176.19
526.61	1192.15
526.97	1208.42
527.33	1224.41
527.68	1240.61
528.04	1256.58
528.40	1272.62
528.76	1289.25
529.12	1305.36
529.48	1321.86
529.84	1337.61
530.20	1353.84
530.56	1370.39
530.91	1387.42
531.27	1403.86
531.63	1419.83
531.99	1435.97
532.35	1451.59
532.71	1467.18
533.07	1483.18
533.42	1498.68
533.78	1514.29
534.14	1530.21
534.50	1545.25
534.86	1560.81
535.21	1575.74
535.57	1591.38
535.93	1606.61
536.29	1621.00
536.65	1635.78
537.00	1650.22
537.36	1665.04
537.72	1679.21
538.08	1693.46
538.44	1706.94
538.79	1720.50
539.15	1733.87
539.51	1747.36
539.87	1761.42
540.22	1774.86
540.58	1788.22
540.94	1801.38
541.29	1814.00
541.65	1826.47
542.01	1839.42
542.37	1851.60
542.72	1863.89
543.08	1875.54
543.44	1887.79
543.79	1899.10
544.15	1910.01
544.51	1921.36
544.87	1932.28
545.22	1943.05
545.58	1953.31
545.94	1963.15
546.29	1973.16
546.65	1983.25
547.01	1992.71
547.36	2001.46
547.72	2010.08
548.07	2018.21
548.43	2026.40
548.79	2034.52
549.14	2042.39
549.50	2049.97
549.86	2057.81
550.21	2065.24
550.57	2072.60
550.92	2079.44
551.28	2086.70
551.64	2093.86
551.99	2100.73
552.35	2107.31
552.70	2113.62
553.06	2119.86
553.41	2126.34
553.77	2132.42
554.13	2138.59
554.48	2144.89
554.84	2150.80
555.19	2156.31
555.55	2161.79
555.90	2166.64
556.26	2172.03
556.61	2177.01
556.97	2181.63
557.32	2186.05
557.68	2190.50
558.03	2195.04
558.39	2198.98
558.74	2203.92
559.10	2208.20
559.45	2212.05
559.81	2216.54
560.16	2220.80
560.52	2224.38
560.87	2228.14
561.23	2231.19
561.58	2234.27
561.94	2237.29
562.29	2239.79
562.64	2243.13
563.00	2245.95
563.35	2249.80
563.71	2253.18
564.06	2256.53
564.42	2259.79
564.77	2262.80
565.12	2265.60
565.48	2268.06
565.83	2270.48
566.19	2272.33
566.54	2273.55
566.89	2275.35
567.25	2276.50
567.60	2278.23
567.96	2280.38
568.31	2281.72
568.66	2283.29
569.02	2284.51
569.37	2285.15
569.72	2286.52
570.08	2287.00
570.43	2287.38
570.78	2287.32
571.14	2286.26
571.49	2285.39
571.84	2285.38
572.20	2284.70
572.55	2283.93
572.90	2282.53
573.26	2281.69
573.61	2280.18
573.96	2278.96
574.31	2276.40
574.67	2273.79
575.02	2270.60
575.37	2267.43
575.72	2264.07
576.08	2261.08
576.43	2257.95
576.78	2254.73
577.13	2251.68
577.49	2248.74
577.84	2245.76
578.19	2242.28
578.54	2239.04
578.90	2235.40
579.25	2230.20
579.60	2225.80
579.95	2221.23
580.30	2216.62
580.66	2211.65
581.01	2206.92
581.36	2202.25
581.71	2198.51
582.06	2194.36
582.42	2190.24
582.77	2185.43
583.12	2181.11
583.47	2176.81
583.82	2172.51
584.17	2167.62
584.53	2162.62
584.88	2157.41
585.23	2152.11
585.58	2146.86
585.93	2141.64
586.28	2136.98
586.63	2132.27
586.98	2127.11
587.34	2122.58
587.69	2117.97
588.04	2113.00
588.39	2107.79
588.74	2101.63
589.09	2095.52
589.44	2089.01
589.79	2083.06
590.14	2077.65
590.49	2071.34
590.84	2065.07
591.19	2059.16
591.54	2052.88
591.89	2045.98
592.25	2039.45
592.60	2032.32
592.95	2025.15
593.30	2018.06
593.65	2010.52
594.00	2003.60
594.35	1996.62
594.70	1988.76
595.05	1982.02
595.40	1974.95
595.75	1967.47
596.10	1961.59
596.45	1955.14
596.80	1949.19
597.15	1942.86
597.50	1936.16
597.85	1929.77
598.19	1923.23
598.54	1916.41
598.89	1909.94
599.24	1904.08
599.59	1897.62
599.94	1891.45
600.29	1885.17
600.64	1878.54
600.99	1871.39
601.34	1864.63
601.69	1857.73
602.04	1851.14
602.39	1843.69
602.74	1836.83
603.08	1830.24
603.43	1823.52
603.78	1816.32
604.13	1809.05
604.48	1801.91
604.83	1794.92
605.18	1788.24
605.53	1780.37
605.87	1772.29
606.22	1764.98
606.57	1756.99
606.92	1749.37
607.27	1742.37
607.62	1735.52
607.96	1728.40
608.31	1722.03
608.66	1714.61
609.01	1707.16
609.36	1699.54
609.70	1691.56
610.05	1683.55
610.40	1675.83
610.75	1667.56
611.10	1659.84
611.44	1651.40
611.79	1643.35
612.14	1634.64
612.49	1625.34
612.83	1616.84
613.18	1608.55
613.53	1600.37
613.88	1591.80
614.22	1583.67
614.57	1574.82
614.92	1566.73
615.27	1559.14
615.61	1550.62
615.96	1542.41
616.31	1534.60
616.65	1527.03
617.00	1519.36
617.35	1511.49
617.70	1503.10
618.04	1494.40
618.39	1485.93
618.74	1478.41
619.08	1469.88
619.43	1462.25
619.78	1455.23
620.12	1448.09
620.47	1440.52
620.82	1432.26
621.16	1424.64
621.51	1416.82
621.85	1409.21
622.20	1400.60
622.55	1392.17
622.89	1384.25
623.24	1376.49
623.59	1368.92
623.93	1361.36
624.28	1354.05
624.62	1346.56
624.97	1339.36
625.32	1332.40
625.66	1325.31
626.01	1318.06
626.35	1310.66
626.70	1302.71
627.04	1294.90
627.39	1287.02
627.73	1279.54
628.08	1272.58
628.43	1265.36
628.77	1258.04
629.12	1250.44
629.46	1243.17
629.81	1235.45
630.15	1228.03
630.50	1220.64
630.84	1212.47
631.19	1204.37
631.53	1196.77
631.88	1189.13
632.22	1181.39
632.57	1174.12
632.91	1166.59
633.26	1159.00
633.60	1151.51
633.95	1144.21
634.29	1137.10
634.64	1130.34
634.98	1122.96
635.32	1115.81
635.67	1109.01
636.01	1102.35
636.36	1095.43
636.70	1088.81
637.05	1082.25
637.39	1075.85
637.73	1069.33
638.08	1063.37
638.42	1057.40
638.77	1050.84
639.11	1044.23
639.45	1037.75
639.80	1031.07
640.14	1024.62
640.49	1018.13
640.83	1011.76
641.17	1005.60
641.52	999.23
641.86	992.69
642.20	986.82
642.55	980.26
642.89	973.85
643.23	967.03
643.58	961.26
643.92	955.13
644.26	949.20
644.61	943.00
644.95	937.00
645.29	930.49
645.64	923.72
645.98	917.39
646.32	911.40
646.66	905.39
647.01	899.52
647.35	893.78
647.69	887.82
648.04	882.27
648.38	876.48
648.72	870.48
649.06	864.43
649.41	858.47
649.75	852.58
650.09	846.64
650.43	840.98
650.78	834.87
651.12	828.76
651.46	822.95
651.80	817.32
652.14	811.74
652.49	806.33
652.83	801.13
653.17	795.47
653.51	789.83
653.85	784.39
654.20	778.86
654.54	772.81
654.88	766.97
655.22	761.00
655.56	755.23
655.90	749.72
656.25	744.50
656.59	739.14
656.93	734.06
657.27	728.92
657.61	723.39
657.95	718.17
658.29	713.14
658.64	707.79
658.98	702.38
659.32	696.85
659.66	691.63
660.00	686.40
660.34	681.43
660.68	676.43
661.02	671.38
661.36	666.50
661.70	661.94
662.05	657.64
662.39	653.34
662.73	648.85
663.07	644.47
663.41	639.96
663.75	635.48
664.09	630.87
664.43	626.33
664.77	622.28
665.11	618.04
665.45	613.82
665.79	609.76
666.13	605.65
666.47	601.56
666.81	597.41
667.15	593.20
667.49	589.23
667.83	585.32
668.17	581.31
668.51	577.29
668.85	573.23
669.19	569.29
669.53	565.46
669.87	561.68
670.21	557.94
670.55	554.29
670.89	550.83
671.23	547.40
671.57	543.87
671.91	540.31
672.25	536.79
672.58	533.31
672.92	529.85
673.26	526.60
673.60	523.37
673.94	520.22
674.28	517.23
674.62	514.32
674.96	511.26
675.30	508.40
675.64	505.45
675.97	502.65
676.31	499.79
676.65	496.88
676.99	494.16
677.33	491.27
677.67	488.40
678.01	485.33
678.34	482.35
678.68	479.50
679.02	476.64
679.36	473.78
679.70	471.04
680.04	468.27
680.37	465.43
680.71	462.61
681.05	459.97
681.39	457.23
681.73	454.48
682.06	451.97
682.40	449.35
682.74	446.77
683.08	444.25
683.42	441.61
683.75	439.03
684.09	436.37
684.43	433.86
684.77	431.38
685.10	429.05
685.44	426.70
685.78	424.36
686.12	422.05
686.45	419.76
686.79	417.46
687.13	415.20
687.46	412.97
687.80	410.81
688.14	408.52
688.48	406.45
688.81	404.22
689.15	402.05
689.49	399.91
689.82	397.80
690.16	395.68
690.50	393.78
690.83	391.84
691.17	389.80
691.51	387.87
691.84	385.98
692.18	383.97
692.52	381.95
692.85	379.98
693.19	378.07
693.52	376.18
693.86	374.26
694.20	372.44
694.53	370.63
694.87	368.74
695.21	366.92
695.54	365.03
695.88	363.25
696.21	361.48
696.55	359.75
696.88	358.01
697.22	356.24
697.56	354.52
697.89	352.81
698.23	351.24
698.56	349.60
698.90	348.01
699.23	346.35
699.57	344.77
699.90	343.20
700.24	341.65
700.58	340.13
700.91	338.65
701.25	337.18
701.58	335.81
701.92	334.46
702.25	333.08
702.59	331.76
702.92	330.40
703.26	329.05
703.59	327.74
703.93	326.56
704.26	325.36
704.60	324.06
704.93	322.76
705.26	321.45
705.60	320.24
705.93	319.05
706.27	318.00
706.60	316.98
706.94	315.86
707.27	314.74
707.61	313.62
707.94	312.57
708.27	311.49
708.61	310.39
708.94	309.32
709.28	308.31
709.61	307.29
709.94	306.33
710.28	305.33
710.61	304.31
710.95	303.15
711.28	302.24
711.61	301.29
711.95	300.37
712.28	299.44
712.61	298.44
712.95	297.48
713.28	296.55
713.61	295.60
713.95	294.73
714.28	293.87
714.61	293.01
714.95	292.15
715.28	291.31
715.61	290.41
715.95	289.55
716.28	288.68
716.61	287.88
716.95	287.03
717.28	286.26
717.61	285.51
717.94	284.83
718.28	283.97
718.61	283.24
718.94	282.53
719.27	281.88
719.61	281.21
719.94	280.56
720.27	279.83
720.60	279.15
720.94	278.50
721.27	277.86
721.60	277.28
721.93	276.65
722.27	276.08
722.60	275.49
722.93	274.96
723.26	274.42
723.59	273.82
723.93	273.28
724.26	272.68
724.59	272.11
724.92	271.55
725.25	271.05
725.59	270.50
725.92	270.01
726.25	269.46
726.58	268.98
726.91	268.48
727.24	268.05
727.57	267.58
727.91	267.05
728.24	266.60
728.57	266.09
728.90	265.65
729.23	265.12
729.56	264.73
729.89	264.20
730.22	263.69
730.55	263.24
730.89	262.79
731.22	262.33
731.55	261.88
731.88	261.42
732.21	260.99
732.54	260.56
732.87	260.11
733.20	259.72
733.53	259.29
733.86	258.88
734.19	258.46
734.52	258.08
734.85	257.75
735.18	257.32
735.51	256.96
735.84	256.57
736.17	256.21
736.50	255.79
736.83	255.55
737.16	255.20
737.49	254.84
737.82	254.48
738.15	254.16
738.48	253.82
738.81	253.48
739.14	253.13
739.47	252.80
739.80	252.47
740.13	252.14
740.46	251.79
740.79	251.50
741.12	251.17
741.45	250.84
741.78	250.51
742.11	250.22
742.44	249.88
742.77	249.56
743.10	249.23
743.43	248.92
743.75	248.53
744.08	248.37
744.41	248.09
744.74	247.80
745.07	247.55
745.40	247.27
745.73	247.06
746.06	246.78
746.39	246.52
746.71	246.25
747.04	245.99
747.37	245.75
747.70	245.46
748.03	245.22
748.36	244.97
748.68	244.72
749.01	244.44
749.34	244.23
749.67	244.03
750.00	243.80
750.33	243.65
750.65	243.46
750.98	243.12
751.31	242.89
751.64	242.68
751.97	242.49
752.29	242.29
752.62	242.00
752.95	241.79
753.28	241.56
753.60	241.35
753.93	241.17
754.26	240.99
754.59	240.81
754.91	240.58
755.24	240.39
755.57	240.23
755.90	240.06
756.22	239.85
756.55	239.63
756.88	239.44
757.20	239.21
757.53	239.00
757.86	238.84
758.19	238.69
758.51	238.52
758.84	238.32
759.17	238.15
759.49	238.04
759.82	237.96
760.15	237.83
760.47	237.68
760.80	237.50
761.13	237.37
761.45	237.21
761.78	237.08
762.11	236.92
762.43	236.73
762.76	236.62
763.08	236.51
763.41	236.41
763.74	236.31
764.06	236.19
764.39	236.08
764.71	235.93
765.04	235.81
765.37	235.69
765.69	235.55
766.02	235.43
766.34	235.31
766.67	235.13
767.00	235.03
767.32	234.98
767.65	234.93
767.97	234.79
768.30	234.67
768.62	234.57
768.95	234.45
769.27	234.36
769.60	234.25
769.92	234.12
770.25	233.99
770.57	233.86
770.90	233.73
771.22	233.61
771.55	233.53
771.87	233.41
772.20	233.30
772.52	233.31
772.85	233.31
773.17	233.22
773.50	233.13
773.82	233.03
774.15	232.90
774.47	232.71
774.80	232.62
775.12	232.56
775.45	232.45
775.77	232.39
776.09	232.30
776.42	232.22
776.74	232.15
777.07	232.07
777.39	231.99
777.72	231.89
778.04	231.82
778.36	231.72
778.69	231.67
779.01	231.63
779.33	231.46
779.66	231.32
779.98	231.21
780.31	231.11
780.63	231.06
780.95	230.99
781.28	230.94
781.60	230.87
781.92	230.77
782.25	230.71
782.57	230.65
782.89	230.59
783.22	230.50
783.54	230.41
783.86	230.36
784.19	230.29
784.51	230.25
784.83	230.18
785.16	230.09
785.48	229.99
785.80	229.91
786.12	229.87
786.45	229.74
786.77	229.69
787.09	229.65
