SpectraSuite Data File
++++++++++++++++++++++++++++++++++++
Date: Fri Feb 01 16:12:03 EST 2013
User: group
Dark Spectrum Present: No
Reference Spectrum Present: No
Number of Sampled Component Spectra: 1
Spectrometers: USB2E7196
Integration Time (usec): 35000 (USB2E7196)
Spectra Averaged: 100 (USB2E7196)
Boxcar Smoothing: 10 (USB2E7196)
Correct for Electrical Dark: No (USB2E7196)
Strobe/Lamp Enabled: No (USB2E7196)
Correct for Detector Non-linearity: No (USB2E7196)
Correct for Stray Light: No (USB2E7196)
Number of Pixels in Processed Spectrum: 2048
>>>>>Begin Processed Spectral Data<<<<<
339.09	0.00
339.48	214.49
339.86	216.40
340.24	217.79
340.63	218.17
341.01	222.01
341.39	221.04
341.78	222.54
342.16	223.93
342.54	224.55
342.93	212.87
343.31	223.61
343.69	224.14
344.07	224.59
344.46	224.99
344.84	225.40
345.22	225.61
345.60	225.88
345.99	226.10
346.37	226.24
346.75	226.37
347.13	226.42
347.52	226.46
347.90	226.54
348.28	226.54
348.66	226.61
349.05	226.60
349.43	226.64
349.81	226.68
350.19	226.71
350.57	226.77
350.96	226.85
351.34	226.93
351.72	227.05
352.10	227.13
352.48	227.17
352.87	227.22
353.25	227.27
353.63	227.33
354.01	227.34
354.39	227.42
354.77	227.48
355.15	227.58
355.54	227.63
355.92	227.68
356.30	227.73
356.68	227.81
357.06	227.88
357.44	227.94
357.82	227.98
358.20	228.06
358.58	228.09
358.97	228.11
359.35	228.17
359.73	228.22
360.11	228.26
360.49	228.33
360.87	228.38
361.25	228.43
361.63	228.50
362.01	228.57
362.39	228.56
362.77	228.57
363.15	228.61
363.53	228.63
363.91	228.64
364.29	228.68
364.67	228.63
365.05	228.64
365.43	228.66
365.81	228.70
366.19	228.75
366.57	228.78
366.95	228.83
367.33	228.83
367.71	228.79
368.09	228.81
368.47	228.77
368.85	228.74
369.23	228.74
369.61	228.67
369.99	228.65
370.37	228.64
370.75	228.63
371.13	228.57
371.51	228.54
371.89	228.51
372.27	228.49
372.65	228.47
373.03	228.41
373.41	228.34
373.78	228.28
374.16	228.17
374.54	228.09
374.92	228.02
375.30	227.95
375.68	227.90
376.06	227.82
376.44	227.79
376.82	227.74
377.19	227.67
377.57	227.61
377.95	227.56
378.33	227.47
378.71	227.40
379.09	227.36
379.47	227.31
379.84	227.20
380.22	227.11
380.60	227.03
380.98	227.00
381.36	226.97
381.73	226.91
382.11	226.87
382.49	226.81
382.87	226.71
383.25	226.66
383.62	226.71
384.00	226.65
384.38	226.62
384.76	226.57
385.13	226.55
385.51	226.49
385.89	226.40
386.27	226.39
386.64	226.35
387.02	226.30
387.40	226.22
387.78	226.21
388.15	226.14
388.53	226.10
388.91	226.06
389.29	226.01
389.66	226.00
390.04	225.96
390.42	225.96
390.79	225.97
391.17	225.94
391.55	225.81
391.92	225.77
392.30	225.72
392.68	225.70
393.05	225.67
393.43	225.70
393.81	225.71
394.18	225.69
394.56	225.71
394.94	225.74
395.31	225.76
395.69	225.77
396.06	225.84
396.44	225.89
396.82	225.91
397.19	226.01
397.57	226.00
397.95	226.02
398.32	226.01
398.70	226.06
399.07	226.15
399.45	226.19
399.82	226.28
400.20	226.34
400.58	226.41
400.95	226.45
401.33	226.51
401.70	226.65
402.08	226.72
402.45	226.80
402.83	226.90
403.20	227.01
403.58	227.15
403.95	227.26
404.33	227.34
404.71	227.45
405.08	227.58
405.46	227.72
405.83	227.88
406.21	228.05
406.58	228.19
406.96	228.36
407.33	228.55
407.70	228.73
408.08	229.00
408.45	229.24
408.83	229.47
409.20	229.67
409.58	229.83
409.95	230.09
410.33	230.34
410.70	230.60
411.08	230.91
411.45	231.22
411.82	231.49
412.20	231.86
412.57	232.29
412.95	232.61
413.32	233.01
413.69	233.42
414.07	233.85
414.44	234.33
414.82	234.83
415.19	235.35
415.56	235.91
415.94	236.46
416.31	237.07
416.68	237.68
417.06	238.41
417.43	239.09
417.81	239.91
418.18	240.68
418.55	241.51
418.93	242.36
419.30	243.27
419.67	244.24
420.04	245.23
420.42	246.21
420.79	247.41
421.16	248.59
421.54	249.79
421.91	251.02
422.28	252.26
422.66	253.58
423.03	254.90
423.40	256.23
423.77	257.65
424.15	259.09
424.52	260.65
424.89	262.27
425.26	263.85
425.64	265.23
426.01	266.85
426.38	268.50
426.75	270.19
427.13	271.89
427.50	273.71
427.87	275.59
428.24	277.45
428.61	279.19
428.99	281.14
429.36	283.23
429.73	285.27
430.10	287.33
430.47	289.33
430.85	291.47
431.22	293.69
431.59	296.06
431.96	298.31
432.33	300.74
432.70	303.10
433.08	305.91
433.45	308.60
433.82	311.17
434.19	314.07
434.56	316.88
434.93	319.51
435.30	322.12
435.68	324.98
436.05	327.80
436.42	330.60
436.79	333.12
437.16	335.85
437.53	338.72
437.90	341.50
438.27	344.27
438.64	347.07
439.01	349.66
439.38	351.87
439.75	354.02
440.13	356.49
440.50	358.84
440.87	360.66
441.24	362.58
441.61	364.72
441.98	366.21
442.35	368.00
442.72	369.90
443.09	371.75
443.46	372.75
443.83	373.32
444.20	373.79
444.57	374.56
444.94	374.81
445.31	375.09
445.68	375.45
446.05	375.53
446.42	375.15
446.79	374.75
447.16	374.29
447.53	374.01
447.90	372.91
448.27	371.75
448.64	370.18
449.01	369.04
449.37	367.09
449.74	365.19
450.11	362.93
450.48	360.43
450.85	357.82
451.22	355.67
451.59	353.63
451.96	351.69
452.33	349.14
452.70	346.76
453.07	343.97
453.43	341.07
453.80	338.32
454.17	335.61
454.54	333.05
454.91	330.39
455.28	327.70
455.65	325.18
456.02	322.73
456.38	320.63
456.75	317.98
457.12	315.78
457.49	313.54
457.86	311.36
458.23	309.52
458.59	307.47
458.96	305.45
459.33	303.61
459.70	301.74
460.07	300.26
460.43	298.56
460.80	296.92
461.17	295.52
461.54	293.99
461.91	292.60
462.27	291.18
462.64	289.92
463.01	288.52
463.38	287.23
463.74	285.85
464.11	284.64
464.48	283.60
464.85	282.51
465.21	281.66
465.58	280.77
465.95	279.70
466.32	278.82
466.68	277.92
467.05	277.05
467.42	276.21
467.78	275.24
468.15	274.38
468.52	273.76
468.88	272.85
469.25	272.10
469.62	271.49
469.98	270.84
470.35	270.18
470.72	269.63
471.08	268.96
471.45	268.41
471.82	267.91
472.18	267.32
472.55	266.87
472.92	266.36
473.28	265.88
473.65	265.44
474.02	265.02
474.38	264.60
474.75	264.27
475.11	263.91
475.48	263.69
475.85	263.44
476.21	263.18
476.58	263.03
476.94	262.92
477.31	262.77
477.67	262.63
478.04	262.53
478.41	262.46
478.77	262.55
479.14	262.53
479.50	262.51
479.87	262.60
480.23	262.66
480.60	262.70
480.96	262.79
481.33	262.97
481.69	263.17
482.06	263.39
482.42	263.59
482.79	263.82
483.15	264.07
483.52	264.44
483.88	264.80
484.25	265.20
484.61	265.61
484.98	266.04
485.34	266.56
485.71	267.12
486.07	267.74
486.44	268.29
486.80	268.98
487.17	269.70
487.53	270.53
487.90	271.39
488.26	272.33
488.62	273.36
488.99	274.36
489.35	275.40
489.72	276.49
490.08	277.69
490.44	278.97
490.81	280.35
491.17	281.75
491.54	283.27
491.90	284.78
492.26	286.42
492.63	288.17
492.99	289.95
493.36	291.86
493.72	293.92
494.08	296.02
494.45	298.26
494.81	300.66
495.17	303.08
495.54	305.64
495.90	308.36
496.26	311.18
496.63	314.11
496.99	317.25
497.35	320.54
497.72	323.95
498.08	327.50
498.44	331.18
498.80	335.11
499.17	339.12
499.53	343.32
499.89	347.71
500.26	352.22
500.62	356.86
500.98	361.86
501.34	366.91
501.71	372.26
502.07	377.75
502.43	383.36
502.79	389.21
503.16	395.30
503.52	401.59
503.88	408.02
504.24	414.67
504.60	421.57
504.97	428.73
505.33	436.09
505.69	443.77
506.05	451.59
506.41	459.50
506.78	467.66
507.14	476.10
507.50	484.81
507.86	493.82
508.22	503.06
508.59	512.31
508.95	521.91
509.31	531.72
509.67	541.79
510.03	552.06
510.39	562.63
510.75	573.44
511.12	584.34
511.48	595.63
511.84	607.07
512.20	618.56
512.56	630.50
512.92	642.69
513.28	655.09
513.64	667.56
514.00	680.18
514.37	693.10
514.73	706.20
515.09	719.30
515.45	732.60
515.81	746.11
516.17	760.05
516.53	774.11
516.89	788.32
517.25	802.48
517.61	816.88
517.97	831.20
518.33	845.63
518.69	860.47
519.05	875.38
519.41	890.55
519.77	905.99
520.13	921.40
520.49	936.77
520.85	952.03
521.21	967.61
521.57	983.93
521.93	999.73
522.29	1015.96
522.65	1032.18
523.01	1048.38
523.37	1064.48
523.73	1080.61
524.09	1096.69
524.45	1112.89
524.81	1129.50
525.17	1146.31
525.53	1163.33
525.89	1180.08
526.25	1196.77
526.61	1213.17
526.97	1229.92
527.33	1246.47
527.68	1263.07
528.04	1279.61
528.40	1296.28
528.76	1313.32
529.12	1329.78
529.48	1346.63
529.84	1362.68
530.20	1379.21
530.56	1396.15
530.91	1413.47
531.27	1430.20
531.63	1446.65
531.99	1463.17
532.35	1479.13
532.71	1495.04
533.07	1511.19
533.42	1527.10
533.78	1543.12
534.14	1559.33
534.50	1574.47
534.86	1590.20
535.21	1605.29
535.57	1621.03
535.93	1636.30
536.29	1650.96
536.65	1665.88
537.00	1680.45
537.36	1695.57
537.72	1709.84
538.08	1724.04
538.44	1737.54
538.79	1751.17
539.15	1764.57
539.51	1778.13
539.87	1792.19
540.22	1805.56
540.58	1819.05
540.94	1832.02
541.29	1844.58
541.65	1856.97
542.01	1870.07
542.37	1882.31
542.72	1894.59
543.08	1906.14
543.44	1918.39
543.79	1929.53
544.15	1940.38
544.51	1951.90
544.87	1962.81
545.22	1973.64
545.58	1983.80
545.94	1993.71
546.29	2003.58
546.65	2013.58
547.01	2022.87
547.36	2031.78
547.72	2040.36
548.07	2048.33
548.43	2056.62
548.79	2064.68
549.14	2072.37
549.50	2079.77
549.86	2087.49
550.21	2094.74
550.57	2102.04
550.92	2108.70
551.28	2115.86
551.64	2123.02
551.99	2129.57
552.35	2135.78
552.70	2142.00
553.06	2148.00
553.41	2154.46
553.77	2160.55
554.13	2166.57
554.48	2172.67
554.84	2178.15
555.19	2183.32
555.55	2188.54
555.90	2193.07
556.26	2198.16
556.61	2202.93
556.97	2207.29
557.32	2211.35
557.68	2215.49
558.03	2219.73
558.39	2223.45
558.74	2228.04
559.10	2231.97
559.45	2235.65
559.81	2239.89
560.16	2243.78
560.52	2247.19
560.87	2250.42
561.23	2253.14
561.58	2255.98
561.94	2258.62
562.29	2260.87
562.64	2263.77
563.00	2266.35
563.35	2269.81
563.71	2272.86
564.06	2275.94
564.42	2278.84
564.77	2281.44
565.12	2283.86
565.48	2285.84
565.83	2287.81
566.19	2289.26
566.54	2290.11
566.89	2291.24
567.25	2291.83
567.60	2293.03
567.96	2294.79
568.31	2295.76
568.66	2296.90
569.02	2297.68
569.37	2298.05
569.72	2299.06
570.08	2299.06
570.43	2299.00
570.78	2298.53
571.14	2297.01
571.49	2295.84
571.84	2295.56
572.20	2294.53
572.55	2293.50
572.90	2291.90
573.26	2290.58
573.61	2288.73
573.96	2287.18
574.31	2284.24
574.67	2281.41
575.02	2277.80
575.37	2274.29
575.72	2270.58
576.08	2267.10
576.43	2263.76
576.78	2260.17
577.13	2256.85
577.49	2253.63
577.84	2250.28
578.19	2246.51
578.54	2242.83
578.90	2238.67
579.25	2233.10
579.60	2228.07
579.95	2222.99
580.30	2217.96
580.66	2212.55
581.01	2207.59
581.36	2202.66
581.71	2198.64
582.06	2194.24
582.42	2189.89
582.77	2184.76
583.12	2180.19
583.47	2175.50
583.82	2170.50
584.17	2165.24
584.53	2159.88
584.88	2154.36
585.23	2148.64
585.58	2143.14
585.93	2137.78
586.28	2132.84
586.63	2127.87
586.98	2122.73
587.34	2118.03
587.69	2113.04
588.04	2108.00
588.39	2102.42
588.74	2095.77
589.09	2089.62
589.44	2082.89
589.79	2076.78
590.14	2071.02
590.49	2064.31
590.84	2058.08
591.19	2051.99
591.54	2045.45
591.89	2038.24
592.25	2031.71
592.60	2024.53
592.95	2017.15
593.30	2009.88
593.65	2002.34
594.00	1995.20
594.35	1987.99
594.70	1979.96
595.05	1973.08
595.40	1965.70
595.75	1958.26
596.10	1952.28
596.45	1945.52
596.80	1939.39
597.15	1932.81
597.50	1925.99
597.85	1919.63
598.19	1912.88
598.54	1906.00
598.89	1899.50
599.24	1893.51
599.59	1886.91
599.94	1880.64
600.29	1874.29
600.64	1867.59
600.99	1860.20
601.34	1853.43
601.69	1846.55
602.04	1839.83
602.39	1832.33
602.74	1825.64
603.08	1818.96
603.43	1812.14
603.78	1804.84
604.13	1797.56
604.48	1790.34
604.83	1783.36
605.18	1776.54
605.53	1768.61
605.87	1760.64
606.22	1753.22
606.57	1744.99
606.92	1737.35
607.27	1730.14
607.62	1723.18
607.96	1715.98
608.31	1709.36
608.66	1701.73
609.01	1694.06
609.36	1686.41
609.70	1678.41
610.05	1670.31
610.40	1662.58
610.75	1654.19
611.10	1646.51
611.44	1637.94
611.79	1629.82
612.14	1621.21
612.49	1611.93
612.83	1603.43
613.18	1595.11
613.53	1587.07
613.88	1578.77
614.22	1570.61
614.57	1562.04
614.92	1554.02
615.27	1546.66
615.61	1538.49
615.96	1530.46
616.31	1522.92
616.65	1515.64
617.00	1508.13
617.35	1500.51
617.70	1492.20
618.04	1483.81
618.39	1475.65
618.74	1468.27
619.08	1460.14
619.43	1452.55
619.78	1445.71
620.12	1438.69
620.47	1431.20
620.82	1423.07
621.16	1415.61
621.51	1408.05
621.85	1400.45
622.20	1391.92
622.55	1383.43
622.89	1375.54
623.24	1367.91
623.59	1360.46
623.93	1352.91
624.28	1345.67
624.62	1338.19
624.97	1331.06
625.32	1324.26
625.66	1317.15
626.01	1310.03
626.35	1302.62
626.70	1294.81
627.04	1287.09
627.39	1279.30
627.73	1271.98
628.08	1265.09
628.43	1257.88
628.77	1250.48
629.12	1243.02
629.46	1235.97
629.81	1228.44
630.15	1221.14
630.50	1213.84
630.84	1205.73
631.19	1197.76
631.53	1190.31
631.88	1182.72
632.22	1175.09
632.57	1167.76
632.91	1160.21
633.26	1152.72
633.60	1145.28
633.95	1138.29
634.29	1131.23
634.64	1124.52
634.98	1117.10
635.32	1109.90
635.67	1103.27
636.01	1096.65
636.36	1089.90
636.70	1083.27
637.05	1076.82
637.39	1070.38
637.73	1063.86
638.08	1057.95
638.42	1052.00
638.77	1045.52
639.11	1038.99
639.45	1032.61
639.80	1025.99
640.14	1019.56
640.49	1013.13
640.83	1006.76
641.17	1000.45
641.52	994.12
641.86	987.65
642.20	981.90
642.55	975.56
642.89	969.05
643.23	962.43
643.58	956.60
643.92	950.49
644.26	944.48
644.61	938.38
644.95	932.30
645.29	925.77
645.64	918.96
645.98	912.60
646.32	906.69
646.66	900.58
647.01	894.74
647.35	889.09
647.69	883.07
648.04	877.60
648.38	871.80
648.72	865.88
649.06	859.85
649.41	853.93
649.75	847.98
650.09	842.13
650.43	836.39
650.78	830.23
651.12	824.26
651.46	818.50
651.80	812.78
652.14	807.36
652.49	801.93
652.83	796.79
653.17	791.14
653.51	785.42
653.85	780.02
654.20	774.45
654.54	768.44
654.88	762.71
655.22	756.78
655.56	751.05
655.90	745.52
656.25	740.29
656.59	734.83
656.93	729.75
657.27	724.52
657.61	719.06
657.95	713.87
658.29	708.80
658.64	703.45
658.98	698.17
659.32	692.74
659.66	687.55
660.00	682.26
660.34	677.33
660.68	672.35
661.02	667.31
661.36	662.56
661.70	658.07
662.05	653.78
662.39	649.50
662.73	645.06
663.07	640.66
663.41	636.24
663.75	631.83
664.09	627.31
664.43	622.90
664.77	618.90
665.11	614.71
665.45	610.53
665.79	606.60
666.13	602.49
666.47	598.37
666.81	594.25
667.15	590.15
667.49	586.19
667.83	582.41
668.17	578.50
668.51	574.46
668.85	570.44
669.19	566.60
669.53	562.72
669.87	558.86
670.21	555.13
670.55	551.47
670.89	548.08
671.23	544.59
671.57	541.09
671.91	537.49
672.25	533.95
672.58	530.45
672.92	526.95
673.26	523.70
673.60	520.56
673.94	517.50
674.28	514.58
674.62	511.68
674.96	508.61
675.30	505.74
675.64	502.85
675.97	500.06
676.31	497.13
676.65	494.23
676.99	491.51
677.33	488.69
677.67	485.89
678.01	482.86
678.34	479.96
678.68	477.14
679.02	474.35
679.36	471.61
679.70	468.87
680.04	466.16
680.37	463.36
680.71	460.56
681.05	457.87
681.39	455.12
681.73	452.38
682.06	449.87
682.40	447.28
682.74	444.71
683.08	442.14
683.42	439.54
683.75	437.05
684.09	434.46
684.43	431.97
684.77	429.49
685.10	427.08
685.44	424.72
685.78	422.41
686.12	420.15
686.45	417.87
686.79	415.58
687.13	413.36
687.46	411.14
687.80	408.95
688.14	406.75
688.48	404.74
688.81	402.57
689.15	400.39
689.49	398.24
689.82	396.16
690.16	394.13
690.50	392.20
690.83	390.23
691.17	388.24
691.51	386.36
691.84	384.51
692.18	382.67
692.52	380.72
692.85	378.75
693.19	376.85
693.52	375.03
693.86	373.17
694.20	371.38
694.53	369.62
694.87	367.77
695.21	366.00
695.54	364.12
695.88	362.38
696.21	360.69
696.55	359.03
696.88	357.32
697.22	355.62
697.56	353.98
697.89	352.34
698.23	350.75
698.56	349.13
698.90	347.56
699.23	345.88
699.57	344.31
699.90	342.77
700.24	341.24
700.58	339.70
700.91	338.23
701.25	336.77
701.58	335.38
701.92	334.03
702.25	332.62
702.59	331.30
702.92	329.98
703.26	328.61
703.59	327.27
703.93	326.06
704.26	324.81
704.60	323.51
704.93	322.21
705.26	320.98
705.60	319.78
705.93	318.56
706.27	317.51
706.60	316.45
706.94	315.35
707.27	314.20
707.61	313.11
707.94	312.06
708.27	310.99
708.61	309.88
708.94	308.89
709.28	307.94
709.61	306.98
709.94	306.00
710.28	305.02
710.61	304.08
710.95	303.02
711.28	302.13
711.61	301.20
711.95	300.29
712.28	299.37
712.61	298.42
712.95	297.54
713.28	296.64
713.61	295.75
713.95	294.89
714.28	294.07
714.61	293.24
714.95	292.42
715.28	291.60
715.61	290.76
715.95	289.90
716.28	289.00
716.61	288.12
716.95	287.31
717.28	286.59
717.61	285.82
717.94	285.11
718.28	284.30
718.61	283.53
718.94	282.87
719.27	282.19
719.61	281.52
719.94	280.86
720.27	280.17
720.60	279.51
720.94	278.89
721.27	278.31
721.60	277.70
721.93	277.11
722.27	276.56
722.60	275.99
722.93	275.44
723.26	274.91
723.59	274.38
723.93	273.85
724.26	273.28
724.59	272.73
724.92	272.16
725.25	271.68
725.59	271.18
725.92	270.65
726.25	270.16
726.58	269.67
726.91	269.16
727.24	268.67
727.57	268.21
727.91	267.70
728.24	267.21
728.57	266.72
728.90	266.27
729.23	265.75
729.56	265.34
729.89	264.87
730.22	264.38
730.55	263.96
730.89	263.48
731.22	263.02
731.55	262.59
731.88	262.20
732.21	261.77
732.54	261.37
732.87	260.92
733.20	260.49
733.53	260.08
733.86	259.70
734.19	259.32
734.52	258.95
734.85	258.62
735.18	258.22
735.51	257.87
735.84	257.47
736.17	257.10
736.50	256.68
736.83	256.44
737.16	256.10
737.49	255.76
737.82	255.40
738.15	255.07
738.48	254.75
738.81	254.42
739.14	254.07
739.47	253.76
739.80	253.48
740.13	253.19
740.46	252.91
740.79	252.58
741.12	252.25
741.45	251.93
741.78	251.60
742.11	251.32
742.44	251.01
742.77	250.73
743.10	250.45
743.43	250.18
743.75	249.80
744.08	249.67
744.41	249.38
744.74	249.16
745.07	248.91
745.40	248.63
745.73	248.39
746.06	248.15
746.39	247.86
746.71	247.58
747.04	247.32
747.37	247.04
747.70	246.82
748.03	246.59
748.36	246.38
748.68	246.17
749.01	245.89
749.34	245.67
749.67	245.47
750.00	245.26
750.33	245.11
750.65	244.86
750.98	244.51
751.31	244.30
751.64	244.04
751.97	243.88
752.29	243.68
752.62	243.46
752.95	243.23
753.28	243.03
753.60	242.83
753.93	242.63
754.26	242.42
754.59	242.17
754.91	241.96
755.24	241.71
755.57	241.51
755.90	241.33
756.22	241.12
756.55	240.92
756.88	240.74
757.20	240.47
757.53	240.29
757.86	240.10
758.19	239.92
758.51	239.78
758.84	239.55
759.17	239.37
759.49	239.22
759.82	239.10
760.15	238.96
760.47	238.80
760.80	238.63
761.13	238.52
761.45	238.39
761.78	238.24
762.11	238.13
762.43	237.97
762.76	237.82
763.08	237.67
763.41	237.54
763.74	237.38
764.06	237.21
764.39	237.10
764.71	236.99
765.04	236.87
765.37	236.73
765.69	236.61
766.02	236.45
766.34	236.28
766.67	236.10
767.00	235.99
767.32	235.92
767.65	235.87
767.97	235.73
768.30	235.60
768.62	235.45
768.95	235.33
769.27	235.21
769.60	235.11
769.92	235.00
770.25	234.83
770.57	234.72
770.90	234.65
771.22	234.53
771.55	234.40
771.87	234.28
772.20	234.14
772.52	234.11
772.85	234.14
773.17	234.03
773.50	233.95
773.82	233.81
774.15	233.65
774.47	233.49
774.80	233.40
775.12	233.31
775.45	233.27
775.77	233.16
776.09	233.10
776.42	233.01
776.74	232.98
777.07	232.88
777.39	232.81
777.72	232.72
778.04	232.65
778.36	232.58
778.69	232.54
779.01	232.49
779.33	232.35
779.66	232.13
779.98	232.08
780.31	232.02
780.63	232.00
780.95	231.97
781.28	231.89
781.60	231.80
781.92	231.76
782.25	231.67
782.57	231.61
782.89	231.54
783.22	231.50
783.54	231.42
783.86	231.40
784.19	231.32
784.51	231.34
784.83	231.30
785.16	231.26
785.48	231.20
785.80	231.16
786.12	231.13
786.45	231.11
786.77	231.13
787.09	231.06
