SpectraSuite Data File
++++++++++++++++++++++++++++++++++++
Date: Fri Feb 01 18:07:26 EST 2013
User: group
Dark Spectrum Present: No
Reference Spectrum Present: No
Number of Sampled Component Spectra: 1
Spectrometers: USB2E7196
Integration Time (usec): 35000 (USB2E7196)
Spectra Averaged: 100 (USB2E7196)
Boxcar Smoothing: 10 (USB2E7196)
Correct for Electrical Dark: No (USB2E7196)
Strobe/Lamp Enabled: No (USB2E7196)
Correct for Detector Non-linearity: No (USB2E7196)
Correct for Stray Light: No (USB2E7196)
Number of Pixels in Processed Spectrum: 2048
>>>>>Begin Processed Spectral Data<<<<<
339.09	0.00
339.48	213.18
339.86	214.82
340.24	215.46
340.63	217.03
341.01	220.32
341.39	220.08
341.78	221.94
342.16	222.58
342.54	222.91
342.93	211.45
343.31	222.12
343.69	222.64
344.07	223.11
344.46	223.54
344.84	223.95
345.22	224.17
345.60	224.42
345.99	224.58
346.37	224.73
346.75	224.86
347.13	224.95
347.52	225.02
347.90	225.09
348.28	225.12
348.66	225.20
349.05	225.21
349.43	225.21
349.81	225.28
350.19	225.33
350.57	225.37
350.96	225.39
351.34	225.45
351.72	225.53
352.10	225.61
352.48	225.68
352.87	225.73
353.25	225.78
353.63	225.82
354.01	225.91
354.39	225.94
354.77	225.98
355.15	226.03
355.54	226.08
355.92	226.11
356.30	226.19
356.68	226.31
357.06	226.38
357.44	226.45
357.82	226.50
358.20	226.60
358.58	226.66
358.97	226.75
359.35	226.83
359.73	226.92
360.11	226.95
360.49	227.02
360.87	227.07
361.25	227.14
361.63	227.22
362.01	227.25
362.39	227.31
362.77	227.40
363.15	227.48
363.53	227.54
363.91	227.60
364.29	227.62
364.67	227.55
365.05	227.58
365.43	227.63
365.81	227.63
366.19	227.66
366.57	227.70
366.95	227.73
367.33	227.73
367.71	227.69
368.09	227.72
368.47	227.71
368.85	227.69
369.23	227.73
369.61	227.69
369.99	227.71
370.37	227.70
370.75	227.70
371.13	227.64
371.51	227.61
371.89	227.59
372.27	227.59
372.65	227.52
373.03	227.48
373.41	227.42
373.78	227.38
374.16	227.28
374.54	227.21
374.92	227.15
375.30	227.10
375.68	227.07
376.06	227.02
376.44	226.95
376.82	226.87
377.19	226.79
377.57	226.72
377.95	226.60
378.33	226.52
378.71	226.39
379.09	226.35
379.47	226.29
379.84	226.20
380.22	226.15
380.60	226.12
380.98	226.03
381.36	225.97
381.73	225.89
382.11	225.84
382.49	225.79
382.87	225.71
383.25	225.65
383.62	225.73
384.00	225.64
384.38	225.59
384.76	225.58
385.13	225.56
385.51	225.53
385.89	225.47
386.27	225.45
386.64	225.40
387.02	225.35
387.40	225.30
387.78	225.28
388.15	225.23
388.53	225.18
388.91	225.16
389.29	225.14
389.66	225.13
390.04	225.12
390.42	225.12
390.79	225.12
391.17	225.14
391.55	225.00
391.92	225.00
392.30	225.01
392.68	225.02
393.05	224.98
393.43	224.94
393.81	224.97
394.18	224.97
394.56	224.98
394.94	225.02
395.31	225.01
395.69	225.03
396.06	225.06
396.44	225.06
396.82	225.10
397.19	225.18
397.57	225.23
397.95	225.26
398.32	225.25
398.70	225.29
399.07	225.35
399.45	225.40
399.82	225.48
400.20	225.51
400.58	225.58
400.95	225.63
401.33	225.74
401.70	225.86
402.08	225.95
402.45	226.06
402.83	226.16
403.20	226.28
403.58	226.38
403.95	226.52
404.33	226.67
404.71	226.83
405.08	226.98
405.46	227.13
405.83	227.29
406.21	227.46
406.58	227.65
406.96	227.83
407.33	228.02
407.70	228.24
408.08	228.58
408.45	228.82
408.83	229.10
409.20	229.38
409.58	229.62
409.95	229.92
410.33	230.26
410.70	230.60
411.08	231.00
411.45	231.39
411.82	231.80
412.20	232.26
412.57	232.78
412.95	233.20
413.32	233.76
413.69	234.31
414.07	234.89
414.44	235.52
414.82	236.13
415.19	236.88
415.56	237.64
415.94	238.36
416.31	239.23
416.68	240.09
417.06	241.06
417.43	241.98
417.81	243.05
418.18	244.11
418.55	245.24
418.93	246.45
419.30	247.65
419.67	248.92
420.04	250.23
420.42	251.56
420.79	253.15
421.16	254.68
421.54	256.30
421.91	257.95
422.28	259.65
422.66	261.50
423.03	263.27
423.40	265.08
423.77	267.00
424.15	268.94
424.52	270.95
424.89	273.14
425.26	275.25
425.64	277.23
426.01	279.38
426.38	281.63
426.75	283.87
427.13	286.24
427.50	288.75
427.87	291.33
428.24	293.90
428.61	296.28
428.99	298.91
429.36	301.80
429.73	304.67
430.10	307.42
430.47	310.21
430.85	313.11
431.22	316.16
431.59	319.38
431.96	322.44
432.33	325.86
432.70	329.11
433.08	332.94
433.45	336.58
433.82	340.17
434.19	344.10
434.56	347.93
434.93	351.53
435.30	355.05
435.68	359.00
436.05	362.82
436.42	366.68
436.79	370.13
437.16	373.77
437.53	377.63
437.90	381.45
438.27	385.25
438.64	389.05
439.01	392.58
439.38	395.72
439.75	398.69
440.13	402.03
440.50	405.18
440.87	407.73
441.24	410.35
441.61	413.30
441.98	415.35
442.35	417.78
442.72	420.28
443.09	422.76
443.46	424.11
443.83	424.92
444.20	425.59
444.57	426.75
444.94	427.09
445.31	427.55
445.68	427.98
446.05	428.05
446.42	427.57
446.79	427.05
447.16	426.40
447.53	425.91
447.90	424.40
448.27	422.84
448.64	420.67
449.01	419.11
449.37	416.37
449.74	413.76
450.11	410.70
450.48	407.37
450.85	403.92
451.22	400.97
451.59	398.19
451.96	395.52
452.33	391.94
452.70	388.73
453.07	384.83
453.43	380.94
453.80	377.17
454.17	373.50
454.54	369.96
454.91	366.25
455.28	362.63
455.65	359.19
456.02	355.83
456.38	352.88
456.75	349.23
457.12	346.19
457.49	343.12
457.86	340.16
458.23	337.58
458.59	334.73
458.96	331.90
459.33	329.38
459.70	326.80
460.07	324.72
460.43	322.44
460.80	320.21
461.17	318.17
461.54	316.10
461.91	314.13
462.27	312.14
462.64	310.42
463.01	308.53
463.38	306.75
463.74	304.90
464.11	303.34
464.48	301.94
464.85	300.39
465.21	299.20
465.58	297.94
465.95	296.48
466.32	295.25
466.68	293.98
467.05	292.77
467.42	291.56
467.78	290.28
468.15	289.08
468.52	288.17
468.88	287.04
469.25	285.99
469.62	285.14
469.98	284.20
470.35	283.32
470.72	282.48
471.08	281.59
471.45	280.82
471.82	280.01
472.18	279.17
472.55	278.54
472.92	277.82
473.28	277.17
473.65	276.54
474.02	275.90
474.38	275.37
474.75	274.87
475.11	274.35
475.48	273.98
475.85	273.60
476.21	273.24
476.58	272.95
476.94	272.72
477.31	272.42
477.67	272.17
478.04	271.97
478.41	271.84
478.77	271.82
479.14	271.66
479.50	271.59
479.87	271.59
480.23	271.62
480.60	271.64
480.96	271.65
481.33	271.82
481.69	272.01
482.06	272.14
482.42	272.29
482.79	272.53
483.15	272.81
483.52	273.17
483.88	273.49
484.25	273.82
484.61	274.24
484.98	274.71
485.34	275.24
485.71	275.83
486.07	276.47
486.44	277.03
486.80	277.73
487.17	278.48
487.53	279.34
487.90	280.24
488.26	281.21
488.62	282.26
488.99	283.25
489.35	284.32
489.72	285.49
490.08	286.74
490.44	288.04
490.81	289.41
491.17	290.81
491.54	292.39
491.90	294.00
492.26	295.70
492.63	297.51
492.99	299.39
493.36	301.38
493.72	303.54
494.08	305.73
494.45	308.13
494.81	310.64
495.17	313.19
495.54	315.91
495.90	318.71
496.26	321.66
496.63	324.81
496.99	328.12
497.35	331.62
497.72	335.23
498.08	338.95
498.44	342.86
498.80	347.05
499.17	351.30
499.53	355.76
499.89	360.43
500.26	365.20
500.62	370.19
500.98	375.44
501.34	380.81
501.71	386.53
502.07	392.37
502.43	398.34
502.79	404.55
503.16	411.02
503.52	417.68
503.88	424.45
504.24	431.46
504.60	438.74
504.97	446.28
505.33	454.06
505.69	462.31
506.05	470.59
506.41	478.98
506.78	487.69
507.14	496.73
507.50	506.02
507.86	515.63
508.22	525.44
508.59	535.33
508.95	545.57
509.31	556.02
509.67	566.80
510.03	577.78
510.39	589.13
510.75	600.69
511.12	612.49
511.48	624.69
511.84	637.04
512.20	649.40
512.56	662.23
512.92	675.40
513.28	688.72
513.64	702.20
514.00	715.87
514.37	729.80
514.73	743.90
515.09	757.89
515.45	772.32
515.81	787.12
516.17	802.25
516.53	817.57
516.89	832.94
517.25	848.29
517.61	863.97
517.97	879.68
518.33	895.28
518.69	911.31
519.05	927.49
519.41	944.07
519.77	961.09
520.13	977.94
520.49	994.76
520.85	1011.47
521.21	1028.56
521.57	1046.33
521.93	1063.59
522.29	1081.51
522.65	1099.48
523.01	1117.23
523.37	1134.78
523.73	1152.52
524.09	1170.25
524.45	1188.12
524.81	1206.46
525.17	1224.98
525.53	1243.67
525.89	1262.49
526.25	1281.17
526.61	1299.49
526.97	1318.03
527.33	1336.36
527.68	1354.82
528.04	1373.15
528.40	1391.66
528.76	1410.67
529.12	1429.27
529.48	1448.19
529.84	1466.15
530.20	1484.76
530.56	1503.73
530.91	1523.28
531.27	1542.16
531.63	1560.66
531.99	1579.35
532.35	1597.34
532.71	1615.37
533.07	1633.72
533.42	1651.71
533.78	1669.92
534.14	1688.28
534.50	1705.71
534.86	1723.83
535.21	1741.28
535.57	1759.42
535.93	1777.15
536.29	1794.13
536.65	1811.32
537.00	1828.27
537.36	1845.89
537.72	1862.63
538.08	1879.37
538.44	1895.42
538.79	1911.53
539.15	1927.48
539.51	1943.49
539.87	1960.25
540.22	1976.27
540.58	1992.31
540.94	2007.93
541.29	2023.04
541.65	2038.01
542.01	2053.65
542.37	2068.25
542.72	2082.90
543.08	2097.10
543.44	2112.03
543.79	2125.61
544.15	2138.88
544.51	2152.78
544.87	2165.92
545.22	2178.98
545.58	2191.44
545.94	2203.30
546.29	2215.33
546.65	2227.49
547.01	2239.22
547.36	2249.93
547.72	2260.54
548.07	2270.48
548.43	2280.74
548.79	2290.75
549.14	2300.41
549.50	2309.67
549.86	2319.34
550.21	2328.76
550.57	2337.80
550.92	2346.15
551.28	2355.14
551.64	2364.27
551.99	2372.78
552.35	2380.97
552.70	2389.14
553.06	2397.02
553.41	2405.44
553.77	2413.35
554.13	2421.15
554.48	2429.24
554.84	2437.00
555.19	2444.04
555.55	2451.19
555.90	2457.44
556.26	2464.38
556.61	2470.91
556.97	2477.14
557.32	2482.89
557.68	2488.82
558.03	2494.95
558.39	2500.31
558.74	2506.73
559.10	2512.32
559.45	2517.62
559.81	2523.50
560.16	2528.95
560.52	2533.76
560.87	2538.71
561.23	2542.94
561.58	2547.38
561.94	2551.22
562.29	2554.60
562.64	2558.92
563.00	2562.73
563.35	2567.59
563.71	2572.09
564.06	2576.73
564.42	2580.82
564.77	2584.83
565.12	2588.34
565.48	2591.37
565.83	2594.52
566.19	2597.19
566.54	2599.03
566.89	2601.33
567.25	2602.99
567.60	2605.22
567.96	2608.19
568.31	2609.85
568.66	2612.06
569.02	2613.59
569.37	2614.73
569.72	2616.71
570.08	2617.62
570.43	2618.51
570.78	2618.84
571.14	2617.78
571.49	2616.95
571.84	2617.47
572.20	2617.00
572.55	2616.53
572.90	2615.41
573.26	2614.70
573.61	2613.19
573.96	2611.99
574.31	2609.19
574.67	2606.62
575.02	2603.31
575.37	2599.91
575.72	2596.47
576.08	2593.16
576.43	2589.91
576.78	2586.47
577.13	2583.30
577.49	2580.12
577.84	2576.57
578.19	2572.72
578.54	2569.15
578.90	2565.03
579.25	2559.01
579.60	2553.77
579.95	2548.59
580.30	2543.33
580.66	2537.70
581.01	2532.37
581.36	2527.10
581.71	2522.79
582.06	2518.00
582.42	2513.24
582.77	2507.75
583.12	2502.60
583.47	2497.64
583.82	2492.46
584.17	2486.85
584.53	2480.95
584.88	2474.93
585.23	2468.83
585.58	2462.83
585.93	2456.85
586.28	2451.43
586.63	2445.98
586.98	2440.36
587.34	2434.86
587.69	2429.52
588.04	2423.78
588.39	2417.67
588.74	2410.47
589.09	2403.69
589.44	2396.14
589.79	2389.30
590.14	2382.92
590.49	2375.78
590.84	2368.50
591.19	2361.68
591.54	2354.24
591.89	2346.04
592.25	2338.40
592.60	2330.13
592.95	2321.61
593.30	2313.32
593.65	2304.74
594.00	2296.61
594.35	2288.41
594.70	2279.38
595.05	2271.27
595.40	2262.84
595.75	2254.28
596.10	2247.22
596.45	2239.40
596.80	2232.27
597.15	2224.70
597.50	2216.79
597.85	2209.15
598.19	2201.59
598.54	2193.42
598.89	2185.67
599.24	2178.64
599.59	2170.95
599.94	2163.76
600.29	2156.44
600.64	2148.74
600.99	2140.25
601.34	2132.34
601.69	2124.19
602.04	2116.33
602.39	2107.72
602.74	2099.81
603.08	2091.88
603.43	2084.01
603.78	2075.36
604.13	2066.96
604.48	2058.44
604.83	2050.19
605.18	2042.24
605.53	2032.92
605.87	2023.55
606.22	2015.23
606.57	2005.89
606.92	1997.14
607.27	1988.83
607.62	1980.68
607.96	1972.21
608.31	1964.43
608.66	1955.57
609.01	1946.79
609.36	1937.93
609.70	1928.57
610.05	1919.21
610.40	1910.12
610.75	1900.32
611.10	1891.35
611.44	1881.29
611.79	1871.96
612.14	1861.94
612.49	1851.07
612.83	1841.13
613.18	1831.50
613.53	1821.78
613.88	1811.78
614.22	1802.06
614.57	1791.83
614.92	1782.30
615.27	1773.35
615.61	1763.47
615.96	1753.92
616.31	1744.79
616.65	1735.94
617.00	1727.05
617.35	1717.93
617.70	1708.30
618.04	1698.25
618.39	1688.58
618.74	1679.73
619.08	1669.85
619.43	1660.73
619.78	1652.50
620.12	1644.11
620.47	1635.14
620.82	1625.40
621.16	1616.47
621.51	1607.36
621.85	1598.34
622.20	1588.24
622.55	1578.29
622.89	1569.04
623.24	1560.01
623.59	1551.12
623.93	1542.23
624.28	1533.54
624.62	1524.59
624.97	1515.93
625.32	1507.93
625.66	1499.60
626.01	1491.09
626.35	1482.39
626.70	1473.21
627.04	1464.17
627.39	1454.81
627.73	1446.01
628.08	1438.02
628.43	1429.60
628.77	1420.99
629.12	1411.99
629.46	1403.59
629.81	1394.86
630.15	1386.19
630.50	1377.45
630.84	1367.91
631.19	1358.49
631.53	1349.66
631.88	1340.69
632.22	1331.92
632.57	1323.27
632.91	1314.31
633.26	1305.59
633.60	1296.79
633.95	1288.36
634.29	1280.06
634.64	1272.32
634.98	1263.80
635.32	1255.30
635.67	1247.36
636.01	1239.48
636.36	1231.60
636.70	1223.87
637.05	1216.18
637.39	1208.65
637.73	1201.02
638.08	1194.02
638.42	1186.99
638.77	1179.29
639.11	1171.63
639.45	1163.95
639.80	1156.09
640.14	1148.66
640.49	1141.03
640.83	1133.71
641.17	1126.42
641.52	1118.88
641.86	1111.19
642.20	1104.26
642.55	1096.80
642.89	1089.25
643.23	1081.61
643.58	1074.76
643.92	1067.51
644.26	1060.45
644.61	1053.29
644.95	1046.23
645.29	1038.59
645.64	1030.70
645.98	1023.30
646.32	1016.44
646.66	1009.41
647.01	1002.67
647.35	995.98
647.69	989.12
648.04	982.55
648.38	975.81
648.72	968.93
649.06	961.86
649.41	954.95
649.75	948.08
650.09	941.27
650.43	934.57
650.78	927.47
651.12	920.55
651.46	913.80
651.80	907.15
652.14	900.89
652.49	894.64
652.83	888.74
653.17	882.29
653.51	875.63
653.85	869.32
654.20	862.70
654.54	855.75
654.88	849.01
655.22	842.22
655.56	835.65
655.90	829.26
656.25	823.20
656.59	817.00
656.93	811.06
657.27	804.98
657.61	798.71
657.95	792.79
658.29	786.91
658.64	780.85
658.98	774.70
659.32	768.41
659.66	762.33
660.00	756.18
660.34	750.38
660.68	744.66
661.02	738.79
661.36	733.37
661.70	728.12
662.05	723.15
662.39	718.14
662.73	712.88
663.07	707.81
663.41	702.65
663.75	697.44
664.09	692.11
664.43	687.05
664.77	682.20
665.11	677.23
665.45	672.38
665.79	667.66
666.13	662.85
666.47	658.04
666.81	653.32
667.15	648.51
667.49	643.94
667.83	639.52
668.17	635.02
668.51	630.33
668.85	625.65
669.19	621.13
669.53	616.64
669.87	612.20
670.21	607.91
670.55	603.60
670.89	599.65
671.23	595.68
671.57	591.58
671.91	587.54
672.25	583.43
672.58	579.39
672.92	575.38
673.26	571.65
673.60	567.99
673.94	564.29
674.28	560.91
674.62	557.44
674.96	553.81
675.30	550.38
675.64	546.95
675.97	543.69
676.31	540.34
676.65	536.96
676.99	533.85
677.33	530.49
677.67	527.28
678.01	523.74
678.34	520.34
678.68	516.98
679.02	513.73
679.36	510.53
679.70	507.38
680.04	504.22
680.37	500.93
680.71	497.67
681.05	494.66
681.39	491.46
681.73	488.40
682.06	485.52
682.40	482.61
682.74	479.67
683.08	476.69
683.42	473.69
683.75	470.80
684.09	467.81
684.43	464.94
684.77	462.03
685.10	459.27
685.44	456.51
685.78	453.90
686.12	451.23
686.45	448.55
686.79	445.82
687.13	443.25
687.46	440.71
687.80	438.20
688.14	435.61
688.48	433.22
688.81	430.65
689.15	428.09
689.49	425.50
689.82	423.05
690.16	420.59
690.50	418.27
690.83	415.97
691.17	413.61
691.51	411.39
691.84	409.25
692.18	407.01
692.52	404.74
692.85	402.46
693.19	400.28
693.52	398.15
693.86	395.99
694.20	393.87
694.53	391.81
694.87	389.66
695.21	387.56
695.54	385.42
695.88	383.36
696.21	381.39
696.55	379.49
696.88	377.51
697.22	375.65
697.56	373.79
697.89	371.85
698.23	370.04
698.56	368.12
698.90	366.30
699.23	364.41
699.57	362.62
699.90	360.84
700.24	359.04
700.58	357.26
700.91	355.58
701.25	353.88
701.58	352.29
701.92	350.73
702.25	349.12
702.59	347.52
702.92	345.97
703.26	344.40
703.59	342.90
703.93	341.51
704.26	340.07
704.60	338.52
704.93	337.06
705.26	335.54
705.60	334.19
705.93	332.86
706.27	331.66
706.60	330.37
706.94	329.08
707.27	327.74
707.61	326.46
707.94	325.24
708.27	323.94
708.61	322.65
708.94	321.42
709.28	320.28
709.61	319.19
709.94	318.09
710.28	316.92
710.61	315.80
710.95	314.59
711.28	313.44
711.61	312.35
711.95	311.28
712.28	310.20
712.61	309.06
712.95	307.94
713.28	306.91
713.61	305.87
713.95	304.83
714.28	303.89
714.61	302.94
714.95	301.97
715.28	301.02
715.61	300.02
715.95	299.06
716.28	298.07
716.61	297.10
716.95	296.15
717.28	295.28
717.61	294.37
717.94	293.53
718.28	292.64
718.61	291.79
718.94	290.98
719.27	290.25
719.61	289.50
719.94	288.73
720.27	287.89
720.60	287.12
720.94	286.40
721.27	285.69
721.60	285.01
721.93	284.32
722.27	283.65
722.60	283.00
722.93	282.32
723.26	281.73
723.59	281.06
723.93	280.41
724.26	279.77
724.59	279.10
724.92	278.46
725.25	277.87
725.59	277.30
725.92	276.73
726.25	276.09
726.58	275.53
726.91	274.92
727.24	274.36
727.57	273.85
727.91	273.28
728.24	272.73
728.57	272.14
728.90	271.58
729.23	271.02
729.56	270.51
729.89	269.95
730.22	269.35
730.55	268.80
730.89	268.26
731.22	267.76
731.55	267.27
731.88	266.77
732.21	266.27
732.54	265.73
732.87	265.19
733.20	264.74
733.53	264.26
733.86	263.81
734.19	263.37
734.52	262.87
734.85	262.48
735.18	261.99
735.51	261.58
735.84	261.15
736.17	260.75
736.50	260.26
736.83	259.95
737.16	259.54
737.49	259.13
737.82	258.73
738.15	258.34
738.48	257.96
738.81	257.57
739.14	257.20
739.47	256.81
739.80	256.48
740.13	256.11
740.46	255.72
740.79	255.40
741.12	255.02
741.45	254.70
741.78	254.27
742.11	253.94
742.44	253.53
742.77	253.22
743.10	252.86
743.43	252.54
743.75	252.09
744.08	251.91
744.41	251.63
744.74	251.35
745.07	251.00
745.40	250.68
745.73	250.42
746.06	250.09
746.39	249.82
746.71	249.49
747.04	249.16
747.37	248.86
747.70	248.57
748.03	248.26
748.36	247.98
748.68	247.75
749.01	247.44
749.34	247.18
749.67	246.88
750.00	246.59
750.33	246.42
750.65	246.21
750.98	245.81
751.31	245.53
751.64	245.25
751.97	245.06
752.29	244.80
752.62	244.53
752.95	244.31
753.28	244.05
753.60	243.78
753.93	243.62
754.26	243.38
754.59	243.11
754.91	242.90
755.24	242.66
755.57	242.40
755.90	242.19
756.22	242.00
756.55	241.77
756.88	241.58
757.20	241.32
757.53	241.14
757.86	240.95
758.19	240.81
758.51	240.62
758.84	240.38
759.17	240.17
759.49	239.96
759.82	239.81
760.15	239.64
760.47	239.48
760.80	239.26
761.13	239.10
761.45	238.91
761.78	238.73
762.11	238.57
762.43	238.41
762.76	238.26
763.08	238.09
763.41	237.94
763.74	237.76
764.06	237.60
764.39	237.40
764.71	237.21
765.04	236.99
765.37	236.87
765.69	236.75
766.02	236.64
766.34	236.46
766.67	236.29
767.00	236.20
767.32	236.10
767.65	236.02
767.97	235.90
768.30	235.78
768.62	235.67
768.95	235.52
769.27	235.41
769.60	235.29
769.92	235.16
770.25	235.06
770.57	234.95
770.90	234.84
771.22	234.69
771.55	234.62
771.87	234.54
772.20	234.39
772.52	234.35
772.85	234.36
773.17	234.26
773.50	234.16
773.82	234.02
774.15	233.88
774.47	233.73
774.80	233.63
775.12	233.54
775.45	233.43
775.77	233.35
776.09	233.22
776.42	233.13
776.74	233.04
777.07	232.90
777.39	232.80
777.72	232.69
778.04	232.60
778.36	232.48
778.69	232.38
779.01	232.32
779.33	232.16
779.66	231.95
779.98	231.89
780.31	231.82
780.63	231.74
780.95	231.67
781.28	231.60
781.60	231.50
781.92	231.42
782.25	231.33
782.57	231.24
782.89	231.15
783.22	231.08
783.54	231.00
783.86	230.96
784.19	230.89
784.51	230.86
784.83	230.78
785.16	230.72
785.48	230.64
785.80	230.54
786.12	230.44
786.45	230.38
