SpectraSuite Data File
++++++++++++++++++++++++++++++++++++
Date: Fri Feb 01 15:59:21 EST 2013
User: group
Dark Spectrum Present: No
Reference Spectrum Present: No
Number of Sampled Component Spectra: 1
Spectrometers: USB2E7196
Integration Time (usec): 35000 (USB2E7196)
Spectra Averaged: 100 (USB2E7196)
Boxcar Smoothing: 10 (USB2E7196)
Correct for Electrical Dark: No (USB2E7196)
Strobe/Lamp Enabled: No (USB2E7196)
Correct for Detector Non-linearity: No (USB2E7196)
Correct for Stray Light: No (USB2E7196)
Number of Pixels in Processed Spectrum: 2048
>>>>>Begin Processed Spectral Data<<<<<
339.09	0.00
339.48	215.00
339.86	216.59
340.24	217.62
340.63	218.96
341.01	221.79
341.39	221.91
341.78	223.47
342.16	224.41
342.54	224.89
342.93	213.21
343.31	224.00
343.69	224.55
344.07	225.00
344.46	225.43
344.84	225.83
345.22	226.08
345.60	226.30
345.99	226.45
346.37	226.57
346.75	226.67
347.13	226.72
347.52	226.77
347.90	226.83
348.28	226.90
348.66	226.93
349.05	226.91
349.43	226.94
349.81	226.98
350.19	227.01
350.57	227.07
350.96	227.16
351.34	227.23
351.72	227.27
352.10	227.36
352.48	227.41
352.87	227.42
353.25	227.45
353.63	227.53
354.01	227.61
354.39	227.66
354.77	227.74
355.15	227.83
355.54	227.91
355.92	227.96
356.30	227.99
356.68	228.12
357.06	228.17
357.44	228.22
357.82	228.31
358.20	228.41
358.58	228.47
358.97	228.52
359.35	228.59
359.73	228.67
360.11	228.72
360.49	228.78
360.87	228.82
361.25	228.88
361.63	228.92
362.01	228.93
362.39	228.96
362.77	228.99
363.15	228.99
363.53	229.01
363.91	229.03
364.29	229.02
364.67	228.94
365.05	228.98
365.43	228.99
365.81	229.01
366.19	229.07
366.57	229.08
366.95	229.09
367.33	229.06
367.71	229.07
368.09	229.07
368.47	229.06
368.85	229.08
369.23	229.08
369.61	229.03
369.99	229.05
370.37	229.05
370.75	229.06
371.13	229.01
371.51	228.96
371.89	228.95
372.27	228.95
372.65	228.92
373.03	228.86
373.41	228.82
373.78	228.73
374.16	228.57
374.54	228.52
374.92	228.43
375.30	228.34
375.68	228.22
376.06	228.17
376.44	228.11
376.82	228.01
377.19	227.96
377.57	227.91
377.95	227.85
378.33	227.78
378.71	227.68
379.09	227.64
379.47	227.58
379.84	227.47
380.22	227.41
380.60	227.37
380.98	227.31
381.36	227.24
381.73	227.19
382.11	227.15
382.49	227.07
382.87	226.97
383.25	226.94
383.62	227.02
384.00	226.96
384.38	226.90
384.76	226.88
385.13	226.87
385.51	226.86
385.89	226.80
386.27	226.72
386.64	226.66
387.02	226.61
387.40	226.57
387.78	226.55
388.15	226.52
388.53	226.47
388.91	226.45
389.29	226.39
389.66	226.38
390.04	226.35
390.42	226.34
390.79	226.35
391.17	226.32
391.55	226.19
391.92	226.14
392.30	226.17
392.68	226.16
393.05	226.13
393.43	226.11
393.81	226.07
394.18	226.12
394.56	226.12
394.94	226.16
395.31	226.15
395.69	226.21
396.06	226.22
396.44	226.26
396.82	226.27
397.19	226.35
397.57	226.40
397.95	226.44
398.32	226.48
398.70	226.58
399.07	226.67
399.45	226.73
399.82	226.81
400.20	226.85
400.58	226.94
400.95	226.97
401.33	227.08
401.70	227.26
402.08	227.36
402.45	227.47
402.83	227.55
403.20	227.69
403.58	227.80
403.95	227.94
404.33	228.04
404.71	228.18
405.08	228.40
405.46	228.53
405.83	228.71
406.21	228.85
406.58	229.02
406.96	229.21
407.33	229.42
407.70	229.61
408.08	229.87
408.45	230.08
408.83	230.32
409.20	230.48
409.58	230.66
409.95	230.96
410.33	231.23
410.70	231.51
411.08	231.80
411.45	232.11
411.82	232.42
412.20	232.76
412.57	233.15
412.95	233.43
413.32	233.83
413.69	234.25
414.07	234.70
414.44	235.16
414.82	235.59
415.19	236.13
415.56	236.69
415.94	237.24
416.31	237.87
416.68	238.53
417.06	239.24
417.43	239.92
417.81	240.63
418.18	241.38
418.55	242.25
418.93	243.11
419.30	243.97
419.67	244.91
420.04	245.89
420.42	246.89
420.79	248.05
421.16	249.24
421.54	250.41
421.91	251.65
422.28	252.91
422.66	254.24
423.03	255.54
423.40	256.87
423.77	258.30
424.15	259.74
424.52	261.19
424.89	262.83
425.26	264.38
425.64	265.85
426.01	267.44
426.38	269.04
426.75	270.70
427.13	272.44
427.50	274.25
427.87	276.14
428.24	277.99
428.61	279.74
428.99	281.63
429.36	283.71
429.73	285.73
430.10	287.74
430.47	289.78
430.85	291.88
431.22	294.10
431.59	296.46
431.96	298.66
432.33	301.12
432.70	303.48
433.08	306.31
433.45	308.92
433.82	311.56
434.19	314.43
434.56	317.23
434.93	319.84
435.30	322.46
435.68	325.34
436.05	328.14
436.42	330.91
436.79	333.42
437.16	336.09
437.53	338.91
437.90	341.74
438.27	344.49
438.64	347.33
439.01	349.94
439.38	352.19
439.75	354.38
440.13	356.83
440.50	359.20
440.87	361.06
441.24	363.01
441.61	365.15
441.98	366.62
442.35	368.39
442.72	370.29
443.09	372.07
443.46	372.99
443.83	373.59
444.20	374.12
444.57	374.95
444.94	375.29
445.31	375.59
445.68	375.91
446.05	376.02
446.42	375.62
446.79	375.15
447.16	374.68
447.53	374.34
447.90	373.27
448.27	372.07
448.64	370.48
449.01	369.34
449.37	367.39
449.74	365.53
450.11	363.32
450.48	360.84
450.85	358.35
451.22	356.27
451.59	354.28
451.96	352.36
452.33	349.77
452.70	347.39
453.07	344.64
453.43	341.76
453.80	339.01
454.17	336.36
454.54	333.84
454.91	331.18
455.28	328.51
455.65	326.02
456.02	323.57
456.38	321.38
456.75	318.73
457.12	316.45
457.49	314.24
457.86	312.06
458.23	310.24
458.59	308.16
458.96	306.07
459.33	304.20
459.70	302.32
460.07	300.87
460.43	299.14
460.80	297.49
461.17	296.04
461.54	294.49
461.91	293.08
462.27	291.64
462.64	290.35
463.01	289.00
463.38	287.71
463.74	286.36
464.11	285.20
464.48	284.16
464.85	283.09
465.21	282.22
465.58	281.32
465.95	280.21
466.32	279.35
466.68	278.41
467.05	277.53
467.42	276.68
467.78	275.70
468.15	274.86
468.52	274.19
468.88	273.34
469.25	272.60
469.62	271.97
469.98	271.31
470.35	270.69
470.72	270.09
471.08	269.40
471.45	268.87
471.82	268.35
472.18	267.75
472.55	267.31
472.92	266.79
473.28	266.32
473.65	265.91
474.02	265.44
474.38	265.10
474.75	264.78
475.11	264.43
475.48	264.16
475.85	263.93
476.21	263.71
476.58	263.57
476.94	263.43
477.31	263.23
477.67	263.12
478.04	263.03
478.41	262.95
478.77	263.04
479.14	263.01
479.50	263.02
479.87	263.09
480.23	263.20
480.60	263.28
480.96	263.35
481.33	263.50
481.69	263.67
482.06	263.87
482.42	264.08
482.79	264.29
483.15	264.64
483.52	265.02
483.88	265.32
484.25	265.68
484.61	266.12
484.98	266.58
485.34	267.14
485.71	267.67
486.07	268.26
486.44	268.79
486.80	269.47
487.17	270.19
487.53	271.01
487.90	271.84
488.26	272.77
488.62	273.79
488.99	274.77
489.35	275.82
489.72	276.94
490.08	278.12
490.44	279.34
490.81	280.67
491.17	282.00
491.54	283.53
491.90	285.08
492.26	286.72
492.63	288.48
492.99	290.24
493.36	292.15
493.72	294.27
494.08	296.39
494.45	298.63
494.81	300.99
495.17	303.42
495.54	305.99
495.90	308.71
496.26	311.50
496.63	314.54
496.99	317.70
497.35	321.00
497.72	324.38
498.08	327.90
498.44	331.56
498.80	335.56
499.17	339.58
499.53	343.80
499.89	348.13
500.26	352.62
500.62	357.29
500.98	362.28
501.34	367.38
501.71	372.68
502.07	378.13
502.43	383.74
502.79	389.58
503.16	395.68
503.52	401.96
503.88	408.33
504.24	414.87
504.60	421.71
504.97	428.78
505.33	436.16
505.69	443.90
506.05	451.72
506.41	459.55
506.78	467.68
507.14	476.10
507.50	484.86
507.86	493.99
508.22	503.17
508.59	512.36
508.95	521.86
509.31	531.73
509.67	541.88
510.03	552.26
510.39	562.77
510.75	573.52
511.12	584.45
511.48	595.75
511.84	607.23
512.20	618.81
512.56	630.80
512.92	643.02
513.28	655.34
513.64	667.79
514.00	680.49
514.37	693.41
514.73	706.53
515.09	719.60
515.45	732.82
515.81	746.44
516.17	760.46
516.53	774.65
516.89	788.75
517.25	802.87
517.61	817.25
517.97	831.73
518.33	846.18
518.69	860.84
519.05	875.84
519.41	890.95
519.77	906.50
520.13	921.95
520.49	937.27
520.85	952.75
521.21	968.49
521.57	984.69
521.93	1000.51
522.29	1016.81
522.65	1032.98
523.01	1049.15
523.37	1065.07
523.73	1081.18
524.09	1097.22
524.45	1113.55
524.81	1130.09
525.17	1146.79
525.53	1163.65
525.89	1180.43
526.25	1197.26
526.61	1213.65
526.97	1230.53
527.33	1246.87
527.68	1263.33
528.04	1279.76
528.40	1296.23
528.76	1313.12
529.12	1329.67
529.48	1346.57
529.84	1362.51
530.20	1379.08
530.56	1396.11
530.91	1413.56
531.27	1430.20
531.63	1446.67
531.99	1463.28
532.35	1479.32
532.71	1495.20
533.07	1511.43
533.42	1527.32
533.78	1543.42
534.14	1559.74
534.50	1574.97
534.86	1590.81
535.21	1606.05
535.57	1621.93
535.93	1637.45
536.29	1652.28
536.65	1667.28
537.00	1681.88
537.36	1697.18
537.72	1711.73
538.08	1726.05
538.44	1739.75
538.79	1753.57
539.15	1767.15
539.51	1780.76
539.87	1795.07
540.22	1808.81
540.58	1822.57
540.94	1835.74
541.29	1848.55
541.65	1861.10
542.01	1874.32
542.37	1886.54
542.72	1898.83
543.08	1910.54
543.44	1922.87
543.79	1934.03
544.15	1945.10
544.51	1956.73
544.87	1967.64
545.22	1978.43
545.58	1988.60
545.94	1998.40
546.29	2008.33
546.65	2018.25
547.01	2027.40
547.36	2036.04
547.72	2044.36
548.07	2052.07
548.43	2060.31
548.79	2068.44
549.14	2075.85
549.50	2083.07
549.86	2090.72
550.21	2098.13
550.57	2105.42
550.92	2111.92
551.28	2118.96
551.64	2125.86
551.99	2132.26
552.35	2138.51
552.70	2144.66
553.06	2150.68
553.41	2157.11
553.77	2163.20
554.13	2169.27
554.48	2175.50
554.84	2181.03
555.19	2186.53
555.55	2191.77
555.90	2196.32
556.26	2201.06
556.61	2205.95
556.97	2210.23
557.32	2214.43
557.68	2218.45
558.03	2222.67
558.39	2226.39
558.74	2231.03
559.10	2234.95
559.45	2238.77
559.81	2242.94
560.16	2246.82
560.52	2250.10
560.87	2253.44
561.23	2256.17
561.58	2259.14
561.94	2261.61
562.29	2263.93
562.64	2266.41
563.00	2268.98
563.35	2272.47
563.71	2275.72
564.06	2278.86
564.42	2281.79
564.77	2284.39
565.12	2286.81
565.48	2288.82
565.83	2290.84
566.19	2292.11
566.54	2293.09
566.89	2294.17
567.25	2294.71
567.60	2295.88
567.96	2297.52
568.31	2298.40
568.66	2299.35
569.02	2299.77
569.37	2300.09
569.72	2301.00
570.08	2301.27
570.43	2301.48
570.78	2300.86
571.14	2299.22
571.49	2298.04
571.84	2297.81
572.20	2296.66
572.55	2295.52
572.90	2293.93
573.26	2292.42
573.61	2290.77
573.96	2288.98
574.31	2285.96
574.67	2283.09
575.02	2279.54
575.37	2276.17
575.72	2272.19
576.08	2269.03
576.43	2265.69
576.78	2261.97
577.13	2258.93
577.49	2255.86
577.84	2252.30
578.19	2248.66
578.54	2245.03
578.90	2240.58
579.25	2234.88
579.60	2229.91
579.95	2224.90
580.30	2219.83
580.66	2214.78
581.01	2209.87
581.36	2204.96
581.71	2200.81
582.06	2196.32
582.42	2191.95
582.77	2186.75
583.12	2182.31
583.47	2177.30
583.82	2172.45
584.17	2167.27
584.53	2161.71
584.88	2156.02
585.23	2150.14
585.58	2144.64
585.93	2139.22
586.28	2134.40
586.63	2129.37
586.98	2124.32
587.34	2119.60
587.69	2114.73
588.04	2109.31
588.39	2103.57
588.74	2097.14
589.09	2091.07
589.44	2084.28
589.79	2078.20
590.14	2072.65
590.49	2066.04
590.84	2059.87
591.19	2053.75
591.54	2047.36
591.89	2039.86
592.25	2033.05
592.60	2025.95
592.95	2018.39
593.30	2011.04
593.65	2003.61
594.00	1996.64
594.35	1989.31
594.70	1981.41
595.05	1974.09
595.40	1966.96
595.75	1959.56
596.10	1953.34
596.45	1946.63
596.80	1940.58
597.15	1933.98
597.50	1926.71
597.85	1920.35
598.19	1913.62
598.54	1906.47
598.89	1899.79
599.24	1893.93
599.59	1887.20
599.94	1880.95
600.29	1874.64
600.64	1868.07
600.99	1860.56
601.34	1853.68
601.69	1846.85
602.04	1839.94
602.39	1832.74
602.74	1825.84
603.08	1819.05
603.43	1812.24
603.78	1804.71
604.13	1797.43
604.48	1789.98
604.83	1783.13
605.18	1776.09
605.53	1768.09
605.87	1760.27
606.22	1753.06
606.57	1745.13
606.92	1738.03
607.27	1730.91
607.62	1723.92
607.96	1716.63
608.31	1710.13
608.66	1702.46
609.01	1694.88
609.36	1687.20
609.70	1679.07
610.05	1671.07
610.40	1663.41
610.75	1655.13
611.10	1647.62
611.44	1639.29
611.79	1631.49
612.14	1622.86
612.49	1613.80
612.83	1605.51
613.18	1597.24
613.53	1589.19
613.88	1580.64
614.22	1572.15
614.57	1563.51
614.92	1555.45
615.27	1547.94
615.61	1539.61
615.96	1531.62
616.31	1524.00
616.65	1516.71
617.00	1509.20
617.35	1501.52
617.70	1493.19
618.04	1484.82
618.39	1476.63
618.74	1468.98
619.08	1460.53
619.43	1452.92
619.78	1445.95
620.12	1438.69
620.47	1431.22
620.82	1423.03
621.16	1415.64
621.51	1408.16
621.85	1400.59
622.20	1392.13
622.55	1383.65
622.89	1375.79
623.24	1368.20
623.59	1360.79
623.93	1353.33
624.28	1346.12
624.62	1338.55
624.97	1331.38
625.32	1324.53
625.66	1317.45
626.01	1310.20
626.35	1302.77
626.70	1295.14
627.04	1287.33
627.39	1279.62
627.73	1272.19
628.08	1265.24
628.43	1257.98
628.77	1250.56
629.12	1242.97
629.46	1235.77
629.81	1228.42
630.15	1221.24
630.50	1213.87
630.84	1205.65
631.19	1197.73
631.53	1190.22
631.88	1182.70
632.22	1175.05
632.57	1167.70
632.91	1160.17
633.26	1152.75
633.60	1145.51
633.95	1138.37
634.29	1131.36
634.64	1124.66
634.98	1117.29
635.32	1110.04
635.67	1103.40
636.01	1096.80
636.36	1089.93
636.70	1083.40
637.05	1076.83
637.39	1070.28
637.73	1063.62
638.08	1057.79
638.42	1051.77
638.77	1045.32
639.11	1038.69
639.45	1032.34
639.80	1025.70
640.14	1019.25
640.49	1012.71
640.83	1006.32
641.17	1000.01
641.52	993.65
641.86	987.20
642.20	981.34
642.55	975.16
642.89	968.61
643.23	962.05
643.58	956.29
643.92	950.07
644.26	944.02
644.61	938.04
644.95	932.09
645.29	925.40
645.64	918.63
645.98	912.34
646.32	906.53
646.66	900.45
647.01	894.64
647.35	888.93
647.69	883.13
648.04	877.58
648.38	871.83
648.72	865.84
649.06	859.73
649.41	853.87
649.75	847.84
650.09	842.00
650.43	836.19
650.78	830.05
651.12	824.10
651.46	818.36
651.80	812.57
652.14	807.17
652.49	801.91
652.83	796.78
653.17	791.04
653.51	785.33
653.85	780.02
654.20	774.33
654.54	768.37
654.88	762.63
655.22	756.76
655.56	751.06
655.90	745.67
656.25	740.48
656.59	735.14
656.93	730.10
657.27	724.90
657.61	719.51
657.95	714.40
658.29	709.30
658.64	704.02
658.98	698.72
659.32	693.31
659.66	688.05
660.00	682.71
660.34	677.82
660.68	672.84
661.02	667.73
661.36	663.08
661.70	658.56
662.05	654.22
662.39	649.96
662.73	645.52
663.07	641.14
663.41	636.71
663.75	632.23
664.09	627.67
664.43	623.25
664.77	619.06
665.11	614.78
665.45	610.75
665.79	606.72
666.13	602.65
666.47	598.56
666.81	594.40
667.15	590.27
667.49	586.32
667.83	582.59
668.17	578.70
668.51	574.64
668.85	570.63
669.19	566.81
669.53	562.94
669.87	559.03
670.21	555.40
670.55	551.72
670.89	548.34
671.23	544.92
671.57	541.40
671.91	537.84
672.25	534.44
672.58	530.89
672.92	527.47
673.26	524.27
673.60	521.08
673.94	517.94
674.28	515.03
674.62	512.09
674.96	508.95
675.30	506.04
675.64	503.06
675.97	500.25
676.31	497.37
676.65	494.44
676.99	491.75
677.33	488.86
677.67	486.07
678.01	482.98
678.34	479.96
678.68	477.10
679.02	474.35
679.36	471.53
679.70	468.82
680.04	466.02
680.37	463.08
680.71	460.29
681.05	457.70
681.39	454.95
681.73	452.30
682.06	449.76
682.40	447.21
682.74	444.73
683.08	442.24
683.42	439.60
683.75	437.06
684.09	434.46
684.43	431.93
684.77	429.47
685.10	427.18
685.44	424.85
685.78	422.60
686.12	420.32
686.45	418.07
686.79	415.72
687.13	413.56
687.46	411.49
687.80	409.38
688.14	407.14
688.48	405.17
688.81	402.88
689.15	400.72
689.49	398.53
689.82	396.46
690.16	394.36
690.50	392.46
690.83	390.53
691.17	388.59
691.51	386.70
691.84	384.83
692.18	382.83
692.52	380.90
692.85	378.98
693.19	377.10
693.52	375.23
693.86	373.43
694.20	371.71
694.53	369.83
694.87	367.97
695.21	366.17
695.54	364.31
695.88	362.60
696.21	360.91
696.55	359.27
696.88	357.55
697.22	355.89
697.56	354.24
697.89	352.57
698.23	350.94
698.56	349.34
698.90	347.76
699.23	346.14
699.57	344.58
699.90	343.03
700.24	341.47
700.58	339.91
700.91	338.43
701.25	336.92
701.58	335.59
701.92	334.25
702.25	332.87
702.59	331.52
702.92	330.22
703.26	328.93
703.59	327.62
703.93	326.45
704.26	325.19
704.60	323.85
704.93	322.58
705.26	321.36
705.60	320.21
705.93	319.04
706.27	318.01
706.60	316.97
706.94	315.94
707.27	314.84
707.61	313.83
707.94	312.80
708.27	311.70
708.61	310.62
708.94	309.59
709.28	308.64
709.61	307.64
709.94	306.65
710.28	305.64
710.61	304.68
710.95	303.62
711.28	302.72
711.61	301.84
711.95	300.90
712.28	299.94
712.61	298.94
712.95	298.00
713.28	297.09
713.61	296.17
713.95	295.25
714.28	294.40
714.61	293.57
714.95	292.72
715.28	291.85
715.61	291.00
715.95	290.18
716.28	289.31
716.61	288.47
716.95	287.69
717.28	286.92
717.61	286.17
717.94	285.43
718.28	284.62
718.61	283.86
718.94	283.21
719.27	282.56
719.61	281.90
719.94	281.25
720.27	280.51
720.60	279.82
720.94	279.17
721.27	278.55
721.60	278.01
721.93	277.40
722.27	276.89
722.60	276.32
722.93	275.73
723.26	275.19
723.59	274.65
723.93	274.08
724.26	273.54
724.59	272.96
724.92	272.45
725.25	271.96
725.59	271.43
725.92	270.93
726.25	270.42
726.58	269.95
726.91	269.44
727.24	269.03
727.57	268.57
727.91	268.08
728.24	267.62
728.57	267.08
728.90	266.61
729.23	266.12
729.56	265.70
729.89	265.25
730.22	264.80
730.55	264.31
730.89	263.88
731.22	263.41
731.55	262.99
731.88	262.56
732.21	262.12
732.54	261.70
732.87	261.25
733.20	260.85
733.53	260.46
733.86	260.10
734.19	259.70
734.52	259.34
734.85	259.04
735.18	258.64
735.51	258.25
735.84	257.92
736.17	257.57
736.50	257.12
736.83	256.92
737.16	256.59
737.49	256.30
737.82	255.98
738.15	255.66
738.48	255.33
738.81	255.02
739.14	254.73
739.47	254.44
739.80	254.14
740.13	253.85
740.46	253.50
740.79	253.20
741.12	252.90
741.45	252.59
741.78	252.26
742.11	252.00
742.44	251.72
742.77	251.42
743.10	251.14
743.43	250.87
743.75	250.47
744.08	250.35
744.41	250.06
744.74	249.80
745.07	249.56
745.40	249.30
745.73	249.03
746.06	248.76
746.39	248.49
746.71	248.26
747.04	247.99
747.37	247.76
747.70	247.50
748.03	247.25
748.36	247.01
748.68	246.77
749.01	246.53
749.34	246.30
749.67	246.07
750.00	245.84
750.33	245.67
750.65	245.46
750.98	245.06
751.31	244.80
751.64	244.60
751.97	244.40
752.29	244.19
752.62	243.92
752.95	243.68
753.28	243.45
753.60	243.20
753.93	243.03
754.26	242.84
754.59	242.59
754.91	242.38
755.24	242.21
755.57	242.01
755.90	241.79
756.22	241.56
756.55	241.36
756.88	241.16
757.20	240.93
757.53	240.73
757.86	240.59
758.19	240.47
758.51	240.27
758.84	240.05
759.17	239.87
759.49	239.74
759.82	239.64
760.15	239.49
760.47	239.35
760.80	239.17
761.13	239.00
761.45	238.85
761.78	238.70
762.11	238.54
762.43	238.40
762.76	238.24
763.08	238.14
763.41	238.01
763.74	237.86
764.06	237.75
764.39	237.60
764.71	237.47
765.04	237.33
765.37	237.20
765.69	237.10
766.02	236.97
766.34	236.81
766.67	236.61
767.00	236.54
767.32	236.46
767.65	236.40
767.97	236.27
768.30	236.14
768.62	236.04
768.95	235.94
769.27	235.79
769.60	235.70
769.92	235.58
770.25	235.46
770.57	235.34
770.90	235.20
771.22	235.11
771.55	235.02
771.87	234.91
772.20	234.81
772.52	234.80
772.85	234.85
773.17	234.80
773.50	234.73
773.82	234.63
774.15	234.45
774.47	234.32
774.80	234.26
775.12	234.17
775.45	234.08
775.77	234.02
776.09	233.96
776.42	233.86
776.74	233.82
777.07	233.74
777.39	233.66
777.72	233.60
778.04	233.52
778.36	233.41
778.69	233.39
779.01	233.34
779.33	233.21
779.66	233.01
779.98	232.96
780.31	232.91
780.63	232.88
780.95	232.90
781.28	232.84
781.60	232.75
781.92	232.73
782.25	232.67
782.57	232.60
782.89	232.56
783.22	232.51
783.54	232.40
783.86	232.38
784.19	232.35
784.51	232.32
784.83	232.26
785.16	232.21
785.48	232.15
785.80	232.10
786.12	232.02
786.45	232.00
786.77	231.94
787.09	231.85
