SpectraSuite Data File
++++++++++++++++++++++++++++++++++++
Date: Fri Feb 01 16:29:54 EST 2013
User: group
Dark Spectrum Present: No
Reference Spectrum Present: No
Number of Sampled Component Spectra: 1
Spectrometers: USB2E7196
Integration Time (usec): 35000 (USB2E7196)
Spectra Averaged: 100 (USB2E7196)
Boxcar Smoothing: 10 (USB2E7196)
Correct for Electrical Dark: No (USB2E7196)
Strobe/Lamp Enabled: No (USB2E7196)
Correct for Detector Non-linearity: No (USB2E7196)
Correct for Stray Light: No (USB2E7196)
Number of Pixels in Processed Spectrum: 2048
>>>>>Begin Processed Spectral Data<<<<<
339.09	0.00
339.48	213.71
339.86	215.52
340.24	216.57
340.63	218.89
341.01	220.78
341.39	220.84
341.78	222.03
342.16	223.36
342.54	224.02
342.93	212.39
343.31	223.14
343.69	223.68
344.07	224.14
344.46	224.57
344.84	224.94
345.22	225.17
345.60	225.39
345.99	225.59
346.37	225.71
346.75	225.80
347.13	225.85
347.52	225.94
347.90	225.97
348.28	226.00
348.66	226.00
349.05	225.99
349.43	226.01
349.81	226.07
350.19	226.14
350.57	226.21
350.96	226.24
351.34	226.31
351.72	226.37
352.10	226.48
352.48	226.55
352.87	226.59
353.25	226.67
353.63	226.78
354.01	226.83
354.39	226.93
354.77	227.01
355.15	227.13
355.54	227.18
355.92	227.24
356.30	227.32
356.68	227.46
357.06	227.55
357.44	227.61
357.82	227.65
358.20	227.69
358.58	227.75
358.97	227.82
359.35	227.91
359.73	227.98
360.11	228.02
360.49	228.08
360.87	228.13
361.25	228.18
361.63	228.25
362.01	228.30
362.39	228.31
362.77	228.36
363.15	228.40
363.53	228.43
363.91	228.43
364.29	228.42
364.67	228.35
365.05	228.35
365.43	228.38
365.81	228.41
366.19	228.48
366.57	228.52
366.95	228.50
367.33	228.47
367.71	228.50
368.09	228.52
368.47	228.48
368.85	228.45
369.23	228.43
369.61	228.34
369.99	228.37
370.37	228.36
370.75	228.39
371.13	228.30
371.51	228.25
371.89	228.25
372.27	228.23
372.65	228.21
373.03	228.15
373.41	228.08
373.78	228.00
374.16	227.89
374.54	227.80
374.92	227.75
375.30	227.69
375.68	227.60
376.06	227.55
376.44	227.51
376.82	227.45
377.19	227.41
377.57	227.38
377.95	227.26
378.33	227.18
378.71	227.06
379.09	227.00
379.47	226.93
379.84	226.87
380.22	226.81
380.60	226.71
380.98	226.65
381.36	226.60
381.73	226.55
382.11	226.52
382.49	226.45
382.87	226.38
383.25	226.33
383.62	226.42
384.00	226.32
384.38	226.25
384.76	226.26
385.13	226.21
385.51	226.16
385.89	226.13
386.27	226.10
386.64	226.01
387.02	225.99
387.40	225.93
387.78	225.90
388.15	225.86
388.53	225.84
388.91	225.81
389.29	225.76
389.66	225.78
390.04	225.72
390.42	225.74
390.79	225.75
391.17	225.74
391.55	225.60
391.92	225.59
392.30	225.61
392.68	225.56
393.05	225.60
393.43	225.59
393.81	225.60
394.18	225.55
394.56	225.62
394.94	225.65
395.31	225.70
395.69	225.75
396.06	225.79
396.44	225.86
396.82	225.88
397.19	225.97
397.57	225.98
397.95	226.07
398.32	226.05
398.70	226.08
399.07	226.17
399.45	226.22
399.82	226.29
400.20	226.36
400.58	226.40
400.95	226.39
401.33	226.47
401.70	226.62
402.08	226.74
402.45	226.84
402.83	226.96
403.20	227.05
403.58	227.13
403.95	227.24
404.33	227.32
404.71	227.45
405.08	227.60
405.46	227.70
405.83	227.82
406.21	228.01
406.58	228.17
406.96	228.31
407.33	228.50
407.70	228.66
408.08	228.91
408.45	229.16
408.83	229.40
409.20	229.62
409.58	229.80
409.95	230.03
410.33	230.30
410.70	230.54
411.08	230.83
411.45	231.13
411.82	231.45
412.20	231.80
412.57	232.22
412.95	232.56
413.32	232.99
413.69	233.41
414.07	233.82
414.44	234.31
414.82	234.76
415.19	235.28
415.56	235.84
415.94	236.35
416.31	236.93
416.68	237.58
417.06	238.27
417.43	238.94
417.81	239.73
418.18	240.47
418.55	241.29
418.93	242.17
419.30	243.04
419.67	243.96
420.04	244.90
420.42	245.88
420.79	247.05
421.16	248.20
421.54	249.38
421.91	250.58
422.28	251.79
422.66	253.16
423.03	254.49
423.40	255.81
423.77	257.26
424.15	258.71
424.52	260.18
424.89	261.82
425.26	263.38
425.64	264.79
426.01	266.39
426.38	268.05
426.75	269.71
427.13	271.45
427.50	273.26
427.87	275.09
428.24	276.95
428.61	278.67
428.99	280.60
429.36	282.67
429.73	284.72
430.10	286.75
430.47	288.76
430.85	290.86
431.22	293.09
431.59	295.43
431.96	297.64
432.33	300.11
432.70	302.47
433.08	305.24
433.45	307.90
433.82	310.51
434.19	313.38
434.56	316.18
434.93	318.79
435.30	321.41
435.68	324.35
436.05	327.15
436.42	329.92
436.79	332.38
437.16	335.07
437.53	337.90
437.90	340.71
438.27	343.43
438.64	346.21
439.01	348.79
439.38	350.97
439.75	353.10
440.13	355.57
440.50	357.88
440.87	359.71
441.24	361.62
441.61	363.73
441.98	365.21
442.35	366.97
442.72	368.81
443.09	370.60
443.46	371.59
443.83	372.18
444.20	372.71
444.57	373.54
444.94	373.81
445.31	374.15
445.68	374.50
446.05	374.55
446.42	374.15
446.79	373.73
447.16	373.31
447.53	373.00
447.90	371.84
448.27	370.69
448.64	369.15
449.01	368.02
449.37	366.04
449.74	364.17
450.11	361.95
450.48	359.51
450.85	356.98
451.22	354.79
451.59	352.77
451.96	350.81
452.33	348.22
452.70	345.84
453.07	343.01
453.43	340.12
453.80	337.41
454.17	334.78
454.54	332.27
454.91	329.57
455.28	326.94
455.65	324.48
456.02	322.03
456.38	319.90
456.75	317.22
457.12	315.02
457.49	312.81
457.86	310.66
458.23	308.83
458.59	306.80
458.96	304.79
459.33	302.95
459.70	301.11
460.07	299.66
460.43	298.00
460.80	296.44
461.17	295.00
461.54	293.54
461.91	292.13
462.27	290.72
462.64	289.49
463.01	288.17
463.38	286.89
463.74	285.53
464.11	284.38
464.48	283.41
464.85	282.30
465.21	281.44
465.58	280.53
465.95	279.44
466.32	278.54
466.68	277.63
467.05	276.72
467.42	275.87
467.78	274.89
468.15	274.02
468.52	273.30
468.88	272.48
469.25	271.70
469.62	271.10
469.98	270.38
470.35	269.75
470.72	269.14
471.08	268.48
471.45	267.95
471.82	267.38
472.18	266.78
472.55	266.35
472.92	265.83
473.28	265.34
473.65	264.87
474.02	264.45
474.38	264.07
474.75	263.76
475.11	263.40
475.48	263.17
475.85	262.95
476.21	262.76
476.58	262.57
476.94	262.42
477.31	262.26
477.67	262.11
478.04	262.04
478.41	262.00
478.77	262.06
479.14	262.00
479.50	262.06
479.87	262.15
480.23	262.23
480.60	262.31
480.96	262.40
481.33	262.61
481.69	262.81
482.06	262.98
482.42	263.18
482.79	263.44
483.15	263.79
483.52	264.18
483.88	264.57
484.25	264.94
484.61	265.36
484.98	265.83
485.34	266.41
485.71	266.96
486.07	267.53
486.44	268.10
486.80	268.82
487.17	269.51
487.53	270.34
487.90	271.19
488.26	272.10
488.62	273.13
488.99	274.14
489.35	275.17
489.72	276.34
490.08	277.57
490.44	278.81
490.81	280.13
491.17	281.47
491.54	282.92
491.90	284.43
492.26	286.10
492.63	287.82
492.99	289.55
493.36	291.44
493.72	293.54
494.08	295.63
494.45	297.89
494.81	300.29
495.17	302.70
495.54	305.26
495.90	307.99
496.26	310.82
496.63	313.78
496.99	316.86
497.35	320.09
497.72	323.50
498.08	327.01
498.44	330.66
498.80	334.59
499.17	338.63
499.53	342.83
499.89	347.22
500.26	351.75
500.62	356.49
500.98	361.51
501.34	366.54
501.71	371.89
502.07	377.35
502.43	382.97
502.79	388.83
503.16	394.89
503.52	401.13
503.88	407.52
504.24	414.12
504.60	421.08
504.97	428.25
505.33	435.61
505.69	443.32
506.05	451.15
506.41	459.08
506.78	467.24
507.14	475.70
507.50	484.44
507.86	493.52
508.22	502.67
508.59	511.82
508.95	521.41
509.31	531.24
509.67	541.34
510.03	551.66
510.39	562.24
510.75	573.02
511.12	583.97
511.48	595.24
511.84	606.72
512.20	618.23
512.56	630.17
512.92	642.28
513.28	654.57
513.64	667.08
514.00	679.78
514.37	692.70
514.73	705.74
515.09	718.69
515.45	731.93
515.81	745.46
516.17	759.45
516.53	773.56
516.89	787.73
517.25	801.87
517.61	816.18
517.97	830.60
518.33	845.04
518.69	859.76
519.05	874.66
519.41	889.81
519.77	905.25
520.13	920.71
520.49	936.00
520.85	951.51
521.21	967.09
521.57	983.20
521.93	998.92
522.29	1015.24
522.65	1031.46
523.01	1047.59
523.37	1063.59
523.73	1079.76
524.09	1095.80
524.45	1111.98
524.81	1128.55
525.17	1145.30
525.53	1162.09
525.89	1178.88
526.25	1195.65
526.61	1212.06
526.97	1228.64
527.33	1245.09
527.68	1261.56
528.04	1277.99
528.40	1294.41
528.76	1311.41
529.12	1327.95
529.48	1344.67
529.84	1360.63
530.20	1377.16
530.56	1394.03
530.91	1411.41
531.27	1428.10
531.63	1444.50
531.99	1460.94
532.35	1476.74
532.71	1492.47
533.07	1508.65
533.42	1524.44
533.78	1540.43
534.14	1556.62
534.50	1571.98
534.86	1587.78
535.21	1602.93
535.57	1618.77
535.93	1634.11
536.29	1648.80
536.65	1663.74
537.00	1678.46
537.36	1693.59
537.72	1707.91
538.08	1722.25
538.44	1735.94
538.79	1749.61
539.15	1763.10
539.51	1776.73
539.87	1790.96
540.22	1804.70
540.58	1818.20
540.94	1831.44
541.29	1844.29
541.65	1856.88
542.01	1869.92
542.37	1882.19
542.72	1894.46
543.08	1906.22
543.44	1918.51
543.79	1929.69
544.15	1940.66
544.51	1952.23
544.87	1963.12
545.22	1973.99
545.58	1984.28
545.94	1993.83
546.29	2003.56
546.65	2013.42
547.01	2022.63
547.36	2031.41
547.72	2039.86
548.07	2047.74
548.43	2055.85
548.79	2063.76
549.14	2071.20
549.50	2078.41
549.86	2085.99
550.21	2093.24
550.57	2100.23
550.92	2106.66
551.28	2113.66
551.64	2120.57
551.99	2126.90
552.35	2133.18
552.70	2139.29
553.06	2145.17
553.41	2151.58
553.77	2157.70
554.13	2163.67
554.48	2169.95
554.84	2175.39
555.19	2180.62
555.55	2185.80
555.90	2190.36
556.26	2195.15
556.61	2199.85
556.97	2204.13
557.32	2208.22
557.68	2212.36
558.03	2216.67
558.39	2220.63
558.74	2225.24
559.10	2229.12
559.45	2232.94
559.81	2237.17
560.16	2240.99
560.52	2244.19
560.87	2247.70
561.23	2250.26
561.58	2253.21
561.94	2255.56
562.29	2257.85
562.64	2260.48
563.00	2263.03
563.35	2266.34
563.71	2269.51
564.06	2272.68
564.42	2275.67
564.77	2278.27
565.12	2280.45
565.48	2282.43
565.83	2284.21
566.19	2285.48
566.54	2286.46
566.89	2287.50
567.25	2288.08
567.60	2289.41
567.96	2291.26
568.31	2292.05
568.66	2293.32
569.02	2293.95
569.37	2294.35
569.72	2295.33
570.08	2295.64
570.43	2295.86
570.78	2295.57
571.14	2293.93
571.49	2292.59
571.84	2292.40
572.20	2291.31
572.55	2290.50
572.90	2288.97
573.26	2287.72
573.61	2286.13
573.96	2284.32
574.31	2281.58
574.67	2278.77
575.02	2275.22
575.37	2271.69
575.72	2268.06
576.08	2264.78
576.43	2261.52
576.78	2257.81
577.13	2254.70
577.49	2251.53
577.84	2247.93
578.19	2244.17
578.54	2240.69
578.90	2236.74
579.25	2231.18
579.60	2226.21
579.95	2221.20
580.30	2216.29
580.66	2211.21
581.01	2206.39
581.36	2201.65
581.71	2197.51
582.06	2193.00
582.42	2188.79
582.77	2183.72
583.12	2179.27
583.47	2174.55
583.82	2169.66
584.17	2164.71
584.53	2159.13
584.88	2153.56
585.23	2147.93
585.58	2142.48
585.93	2137.33
586.28	2132.56
586.63	2127.54
586.98	2122.44
587.34	2117.77
587.69	2112.81
588.04	2107.42
588.39	2101.77
588.74	2095.40
589.09	2089.26
589.44	2082.60
589.79	2076.59
590.14	2071.03
590.49	2064.46
590.84	2058.15
591.19	2052.12
591.54	2045.53
591.89	2038.31
592.25	2031.67
592.60	2024.61
592.95	2017.07
593.30	2009.70
593.65	2002.15
594.00	1995.25
594.35	1988.24
594.70	1980.18
595.05	1973.19
595.40	1966.04
595.75	1958.70
596.10	1952.49
596.45	1945.87
596.80	1939.69
597.15	1932.98
597.50	1925.90
597.85	1919.41
598.19	1912.87
598.54	1905.76
598.89	1899.18
599.24	1893.42
599.59	1886.66
599.94	1880.53
600.29	1874.32
600.64	1867.72
600.99	1860.38
601.34	1853.54
601.69	1846.53
602.04	1839.82
602.39	1832.53
602.74	1825.75
603.08	1819.04
603.43	1812.37
603.78	1804.96
604.13	1797.79
604.48	1790.51
604.83	1783.64
605.18	1776.76
605.53	1768.71
605.87	1760.82
606.22	1753.71
606.57	1745.70
606.92	1738.59
607.27	1731.30
607.62	1724.31
607.96	1716.96
608.31	1710.36
608.66	1702.79
609.01	1695.36
609.36	1687.82
609.70	1679.77
610.05	1671.88
610.40	1664.11
610.75	1655.82
611.10	1648.18
611.44	1639.84
611.79	1631.95
612.14	1623.29
612.49	1614.08
612.83	1605.71
613.18	1597.67
613.53	1589.55
613.88	1581.04
614.22	1572.77
614.57	1564.39
614.92	1556.47
615.27	1549.01
615.61	1540.58
615.96	1532.53
616.31	1524.88
616.65	1517.52
617.00	1510.00
617.35	1502.22
617.70	1493.86
618.04	1485.32
618.39	1477.14
618.74	1469.48
619.08	1461.11
619.43	1453.52
619.78	1446.59
620.12	1439.41
620.47	1431.78
620.82	1423.61
621.16	1416.21
621.51	1408.52
621.85	1400.77
622.20	1392.21
622.55	1383.81
622.89	1376.04
623.24	1368.38
623.59	1360.98
623.93	1353.37
624.28	1346.10
624.62	1338.62
624.97	1331.35
625.32	1324.65
625.66	1317.60
626.01	1310.51
626.35	1303.09
626.70	1295.37
627.04	1287.58
627.39	1279.84
627.73	1272.49
628.08	1265.65
628.43	1258.32
628.77	1250.87
629.12	1243.26
629.46	1236.12
629.81	1228.61
630.15	1221.30
630.50	1213.92
630.84	1205.70
631.19	1197.80
631.53	1190.31
631.88	1182.75
632.22	1175.17
632.57	1167.76
632.91	1160.21
633.26	1152.67
633.60	1145.24
633.95	1138.17
634.29	1131.31
634.64	1124.62
634.98	1117.23
635.32	1109.97
635.67	1103.34
636.01	1096.72
636.36	1089.93
636.70	1083.35
637.05	1076.84
637.39	1070.38
637.73	1063.89
638.08	1057.95
638.42	1051.97
638.77	1045.54
639.11	1038.93
639.45	1032.64
639.80	1025.96
640.14	1019.53
640.49	1013.01
640.83	1006.71
641.17	1000.39
641.52	993.92
641.86	987.53
642.20	981.69
642.55	975.36
642.89	968.89
643.23	962.37
643.58	956.63
643.92	950.36
644.26	944.34
644.61	938.35
644.95	932.26
645.29	925.68
645.64	918.95
645.98	912.55
646.32	906.69
646.66	900.66
647.01	894.92
647.35	889.15
647.69	883.32
648.04	877.72
648.38	871.95
648.72	866.04
649.06	859.98
649.41	854.06
649.75	848.10
650.09	842.17
650.43	836.42
650.78	830.22
651.12	824.37
651.46	818.65
651.80	812.89
652.14	807.55
652.49	802.22
652.83	797.08
653.17	791.46
653.51	785.80
653.85	780.37
654.20	774.73
654.54	768.77
654.88	763.05
655.22	757.20
655.56	751.56
655.90	746.07
656.25	740.76
656.59	735.36
656.93	730.34
657.27	725.23
657.61	719.78
657.95	714.66
658.29	709.58
658.64	704.31
658.98	699.00
659.32	693.58
659.66	688.35
660.00	682.97
660.34	677.96
660.68	672.97
661.02	667.88
661.36	663.20
661.70	658.73
662.05	654.39
662.39	650.08
662.73	645.63
663.07	641.25
663.41	636.82
663.75	632.36
664.09	627.77
664.43	623.30
664.77	619.19
665.11	614.95
665.45	610.74
665.79	606.65
666.13	602.50
666.47	598.33
666.81	594.19
667.15	590.07
667.49	586.18
667.83	582.36
668.17	578.46
668.51	574.35
668.85	570.26
669.19	566.40
669.53	562.53
669.87	558.63
670.21	554.85
670.55	551.19
670.89	547.73
671.23	544.31
671.57	540.80
671.91	537.22
672.25	533.65
672.58	530.16
672.92	526.70
673.26	523.52
673.60	520.33
673.94	517.14
674.28	514.25
674.62	511.31
674.96	508.20
675.30	505.28
675.64	502.31
675.97	499.56
676.31	496.64
676.65	493.72
676.99	490.98
677.33	488.18
677.67	485.36
678.01	482.35
678.34	479.35
678.68	476.46
679.02	473.61
679.36	470.90
679.70	468.18
680.04	465.41
680.37	462.50
680.71	459.72
681.05	457.10
681.39	454.35
681.73	451.65
682.06	449.14
682.40	446.54
682.74	444.05
683.08	441.50
683.42	438.92
683.75	436.40
684.09	433.79
684.43	431.30
684.77	428.83
685.10	426.47
685.44	424.18
685.78	421.95
686.12	419.73
686.45	417.44
686.79	415.13
687.13	412.94
687.46	410.83
687.80	408.72
688.14	406.48
688.48	404.46
688.81	402.22
689.15	400.07
689.49	397.95
689.82	395.86
690.16	393.83
690.50	391.89
690.83	389.94
691.17	388.04
691.51	386.20
691.84	384.33
692.18	382.41
692.52	380.43
692.85	378.43
693.19	376.57
693.52	374.72
693.86	372.94
694.20	371.19
694.53	369.39
694.87	367.51
695.21	365.76
695.54	363.90
695.88	362.17
696.21	360.38
696.55	358.69
696.88	357.05
697.22	355.35
697.56	353.72
697.89	352.08
698.23	350.44
698.56	348.79
698.90	347.23
699.23	345.64
699.57	344.07
699.90	342.56
700.24	340.99
700.58	339.49
700.91	338.00
701.25	336.57
701.58	335.17
701.92	333.81
702.25	332.43
702.59	331.06
702.92	329.74
703.26	328.50
703.59	327.25
703.93	326.02
704.26	324.77
704.60	323.45
704.93	322.20
705.26	320.95
705.60	319.83
705.93	318.61
706.27	317.54
706.60	316.50
706.94	315.39
707.27	314.28
707.61	313.21
707.94	312.19
708.27	311.07
708.61	310.00
708.94	308.98
709.28	308.03
709.61	307.10
709.94	306.15
710.28	305.07
710.61	304.11
710.95	303.04
711.28	302.13
711.61	301.20
711.95	300.25
712.28	299.29
712.61	298.28
712.95	297.38
713.28	296.47
713.61	295.59
713.95	294.71
714.28	293.81
714.61	292.94
714.95	292.10
715.28	291.28
715.61	290.38
715.95	289.57
716.28	288.69
716.61	287.84
716.95	287.05
717.28	286.34
717.61	285.54
717.94	284.78
718.28	283.98
718.61	283.24
718.94	282.56
719.27	281.90
719.61	281.26
719.94	280.61
720.27	279.89
720.60	279.20
720.94	278.57
721.27	277.99
721.60	277.42
721.93	276.80
722.27	276.26
722.60	275.73
722.93	275.12
723.26	274.54
723.59	273.98
723.93	273.38
724.26	272.83
724.59	272.28
724.92	271.78
725.25	271.27
725.59	270.74
725.92	270.21
726.25	269.72
726.58	269.22
726.91	268.68
727.24	268.22
727.57	267.72
727.91	267.22
728.24	266.75
728.57	266.26
728.90	265.79
729.23	265.25
729.56	264.82
729.89	264.35
730.22	263.89
730.55	263.43
730.89	262.96
731.22	262.48
731.55	262.02
731.88	261.59
732.21	261.15
732.54	260.72
732.87	260.31
733.20	259.89
733.53	259.50
733.86	259.16
734.19	258.74
734.52	258.40
734.85	258.09
735.18	257.71
735.51	257.32
735.84	256.97
736.17	256.60
736.50	256.18
736.83	255.93
737.16	255.59
737.49	255.26
737.82	254.95
738.15	254.65
738.48	254.37
738.81	254.02
739.14	253.72
739.47	253.44
739.80	253.15
740.13	252.84
740.46	252.55
740.79	252.17
741.12	251.86
741.45	251.54
741.78	251.18
742.11	250.90
742.44	250.62
742.77	250.37
743.10	250.10
743.43	249.83
743.75	249.47
744.08	249.36
744.41	249.07
744.74	248.80
745.07	248.53
745.40	248.23
745.73	248.00
746.06	247.73
746.39	247.44
746.71	247.18
747.04	246.92
747.37	246.66
747.70	246.46
748.03	246.24
748.36	246.03
748.68	245.82
749.01	245.55
749.34	245.32
749.67	245.06
750.00	244.85
750.33	244.71
750.65	244.49
750.98	244.15
751.31	243.97
751.64	243.77
751.97	243.61
752.29	243.42
752.62	243.16
752.95	242.95
753.28	242.75
753.60	242.52
753.93	242.36
754.26	242.15
754.59	241.93
754.91	241.69
755.24	241.49
755.57	241.27
755.90	241.12
756.22	240.91
756.55	240.73
756.88	240.53
757.20	240.28
757.53	240.10
757.86	239.90
758.19	239.75
758.51	239.57
758.84	239.34
759.17	239.17
759.49	239.04
759.82	238.92
760.15	238.78
760.47	238.66
760.80	238.48
761.13	238.33
761.45	238.16
761.78	238.02
762.11	237.85
762.43	237.71
762.76	237.53
763.08	237.38
763.41	237.20
763.74	237.05
764.06	236.89
764.39	236.74
764.71	236.62
765.04	236.44
765.37	236.28
765.69	236.12
766.02	235.95
766.34	235.81
766.67	235.65
767.00	235.56
767.32	235.48
767.65	235.39
767.97	235.28
768.30	235.19
768.62	235.07
768.95	234.97
769.27	234.85
769.60	234.73
769.92	234.64
770.25	234.53
770.57	234.44
770.90	234.33
771.22	234.22
771.55	234.15
771.87	234.08
772.20	233.99
772.52	233.99
772.85	234.04
773.17	233.91
773.50	233.80
773.82	233.68
774.15	233.52
774.47	233.38
774.80	233.29
775.12	233.19
775.45	233.11
775.77	233.01
776.09	232.94
776.42	232.91
776.74	232.85
777.07	232.75
777.39	232.65
777.72	232.58
778.04	232.53
778.36	232.42
778.69	232.33
779.01	232.29
779.33	232.12
779.66	231.95
779.98	231.91
780.31	231.87
780.63	231.86
780.95	231.87
781.28	231.79
781.60	231.67
781.92	231.60
782.25	231.52
782.57	231.48
782.89	231.43
783.22	231.32
783.54	231.22
783.86	231.19
784.19	231.14
784.51	231.08
784.83	231.02
785.16	230.94
785.48	230.87
785.80	230.83
786.12	230.80
786.45	230.72
786.77	230.69
787.09	230.62
