SpectraSuite Data File
++++++++++++++++++++++++++++++++++++
Date: Fri Feb 01 15:56:30 EST 2013
User: group
Dark Spectrum Present: No
Reference Spectrum Present: No
Number of Sampled Component Spectra: 1
Spectrometers: USB2E7196
Integration Time (usec): 35000 (USB2E7196)
Spectra Averaged: 100 (USB2E7196)
Boxcar Smoothing: 10 (USB2E7196)
Correct for Electrical Dark: No (USB2E7196)
Strobe/Lamp Enabled: No (USB2E7196)
Correct for Detector Non-linearity: No (USB2E7196)
Correct for Stray Light: No (USB2E7196)
Number of Pixels in Processed Spectrum: 2048
>>>>>Begin Processed Spectral Data<<<<<
339.09	0.00
339.48	214.94
339.86	216.06
340.24	217.67
340.63	219.27
341.01	221.13
341.39	221.72
341.78	223.21
342.16	223.76
342.54	225.37
342.93	213.14
343.31	223.91
343.69	224.43
344.07	224.94
344.46	225.36
344.84	225.73
345.22	226.04
345.60	226.29
345.99	226.48
346.37	226.66
346.75	226.74
347.13	226.86
347.52	226.91
347.90	226.98
348.28	227.00
348.66	227.10
349.05	227.10
349.43	227.14
349.81	227.22
350.19	227.26
350.57	227.30
350.96	227.33
351.34	227.44
351.72	227.51
352.10	227.58
352.48	227.68
352.87	227.75
353.25	227.81
353.63	227.88
354.01	227.93
354.39	227.98
354.77	228.06
355.15	228.14
355.54	228.23
355.92	228.28
356.30	228.36
356.68	228.45
357.06	228.55
357.44	228.56
357.82	228.61
358.20	228.69
358.58	228.74
358.97	228.79
359.35	228.86
359.73	228.97
360.11	229.01
360.49	229.02
360.87	229.06
361.25	229.10
361.63	229.15
362.01	229.17
362.39	229.20
362.77	229.25
363.15	229.28
363.53	229.27
363.91	229.29
364.29	229.30
364.67	229.20
365.05	229.19
365.43	229.21
365.81	229.20
366.19	229.24
366.57	229.27
366.95	229.24
367.33	229.20
367.71	229.16
368.09	229.18
368.47	229.17
368.85	229.13
369.23	229.10
369.61	229.03
369.99	229.03
370.37	228.99
370.75	228.97
371.13	228.92
371.51	228.87
371.89	228.81
372.27	228.76
372.65	228.74
373.03	228.74
373.41	228.68
373.78	228.63
374.16	228.51
374.54	228.41
374.92	228.37
375.30	228.30
375.68	228.22
376.06	228.13
376.44	228.04
376.82	227.98
377.19	227.94
377.57	227.87
377.95	227.77
378.33	227.72
378.71	227.58
379.09	227.51
379.47	227.47
379.84	227.38
380.22	227.29
380.60	227.17
380.98	227.06
381.36	227.01
381.73	226.91
382.11	226.88
382.49	226.82
382.87	226.76
383.25	226.71
383.62	226.74
384.00	226.66
384.38	226.61
384.76	226.57
385.13	226.55
385.51	226.51
385.89	226.45
386.27	226.38
386.64	226.36
387.02	226.30
387.40	226.26
387.78	226.25
388.15	226.23
388.53	226.22
388.91	226.16
389.29	226.15
389.66	226.14
390.04	226.09
390.42	226.10
390.79	226.08
391.17	226.04
391.55	225.97
391.92	225.96
392.30	225.98
392.68	225.98
393.05	225.94
393.43	225.98
393.81	226.05
394.18	226.07
394.56	226.11
394.94	226.15
395.31	226.13
395.69	226.23
396.06	226.25
396.44	226.29
396.82	226.33
397.19	226.40
397.57	226.47
397.95	226.55
398.32	226.60
398.70	226.67
399.07	226.75
399.45	226.79
399.82	226.88
400.20	226.94
400.58	227.00
400.95	227.06
401.33	227.17
401.70	227.29
402.08	227.38
402.45	227.48
402.83	227.63
403.20	227.76
403.58	227.84
403.95	228.01
404.33	228.16
404.71	228.31
405.08	228.47
405.46	228.59
405.83	228.76
406.21	228.88
406.58	229.03
406.96	229.18
407.33	229.38
407.70	229.55
408.08	229.82
408.45	230.04
408.83	230.26
409.20	230.46
409.58	230.62
409.95	230.88
410.33	231.15
410.70	231.38
411.08	231.68
411.45	231.93
411.82	232.23
412.20	232.57
412.57	232.97
412.95	233.27
413.32	233.72
413.69	234.13
414.07	234.59
414.44	235.05
414.82	235.53
415.19	236.08
415.56	236.66
415.94	237.22
416.31	237.88
416.68	238.50
417.06	239.22
417.43	239.89
417.81	240.67
418.18	241.42
418.55	242.26
418.93	243.10
419.30	244.06
419.67	244.98
420.04	245.94
420.42	246.92
420.79	248.08
421.16	249.18
421.54	250.34
421.91	251.51
422.28	252.76
422.66	254.07
423.03	255.35
423.40	256.66
423.77	258.02
424.15	259.44
424.52	260.90
424.89	262.43
425.26	264.00
425.64	265.43
426.01	267.06
426.38	268.69
426.75	270.38
427.13	272.06
427.50	273.80
427.87	275.68
428.24	277.52
428.61	279.27
428.99	281.22
429.36	283.29
429.73	285.35
430.10	287.35
430.47	289.41
430.85	291.54
431.22	293.76
431.59	296.19
431.96	298.45
432.33	300.93
432.70	303.34
433.08	306.15
433.45	308.80
433.82	311.38
434.19	314.30
434.56	317.09
434.93	319.75
435.30	322.42
435.68	325.30
436.05	328.14
436.42	330.89
436.79	333.42
437.16	336.08
437.53	338.92
437.90	341.80
438.27	344.52
438.64	347.35
439.01	349.98
439.38	352.14
439.75	354.30
440.13	356.81
440.50	359.11
440.87	361.01
441.24	362.88
441.61	365.03
441.98	366.48
442.35	368.30
442.72	370.17
443.09	371.98
443.46	372.98
443.83	373.58
444.20	374.14
444.57	374.98
444.94	375.27
445.31	375.60
445.68	375.85
446.05	375.96
446.42	375.53
446.79	375.04
447.16	374.68
447.53	374.36
447.90	373.20
448.27	372.09
448.64	370.44
449.01	369.35
449.37	367.39
449.74	365.52
450.11	363.29
450.48	360.81
450.85	358.28
451.22	356.12
451.59	354.11
451.96	352.22
452.33	349.60
452.70	347.31
453.07	344.52
453.43	341.71
453.80	338.98
454.17	336.32
454.54	333.81
454.91	331.06
455.28	328.40
455.65	325.88
456.02	323.41
456.38	321.29
456.75	318.64
457.12	316.41
457.49	314.16
457.86	312.00
458.23	310.16
458.59	308.12
458.96	306.01
459.33	304.16
459.70	302.26
460.07	300.75
460.43	298.98
460.80	297.36
461.17	295.89
461.54	294.41
461.91	293.03
462.27	291.59
462.64	290.30
463.01	288.93
463.38	287.70
463.74	286.34
464.11	285.15
464.48	284.13
464.85	283.02
465.21	282.19
465.58	281.22
465.95	280.15
466.32	279.25
466.68	278.38
467.05	277.49
467.42	276.58
467.78	275.66
468.15	274.85
468.52	274.18
468.88	273.34
469.25	272.56
469.62	271.92
469.98	271.27
470.35	270.70
470.72	270.09
471.08	269.41
471.45	268.88
471.82	268.37
472.18	267.75
472.55	267.30
472.92	266.71
473.28	266.29
473.65	265.82
474.02	265.41
474.38	265.03
474.75	264.68
475.11	264.37
475.48	264.08
475.85	263.84
476.21	263.58
476.58	263.40
476.94	263.21
477.31	263.05
477.67	262.89
478.04	262.75
478.41	262.69
478.77	262.73
479.14	262.66
479.50	262.67
479.87	262.76
480.23	262.85
480.60	262.96
480.96	263.07
481.33	263.27
481.69	263.46
482.06	263.66
482.42	263.87
482.79	264.14
483.15	264.47
483.52	264.83
483.88	265.19
484.25	265.57
484.61	266.03
484.98	266.47
485.34	267.03
485.71	267.63
486.07	268.25
486.44	268.80
486.80	269.53
487.17	270.25
487.53	271.06
487.90	271.93
488.26	272.85
488.62	273.83
488.99	274.82
489.35	275.86
489.72	276.98
490.08	278.15
490.44	279.36
490.81	280.70
491.17	282.08
491.54	283.58
491.90	285.13
492.26	286.73
492.63	288.46
492.99	290.24
493.36	292.12
493.72	294.16
494.08	296.30
494.45	298.51
494.81	300.89
495.17	303.33
495.54	305.88
495.90	308.59
496.26	311.36
496.63	314.32
496.99	317.43
497.35	320.69
497.72	324.16
498.08	327.69
498.44	331.34
498.80	335.24
499.17	339.33
499.53	343.51
499.89	347.94
500.26	352.47
500.62	357.15
500.98	362.16
501.34	367.24
501.71	372.56
502.07	378.03
502.43	383.64
502.79	389.48
503.16	395.51
503.52	401.76
503.88	408.21
504.24	414.87
504.60	421.80
504.97	428.95
505.33	436.27
505.69	444.04
506.05	451.85
506.41	459.76
506.78	467.87
507.14	476.28
507.50	484.95
507.86	494.03
508.22	503.21
508.59	512.35
508.95	521.91
509.31	531.70
509.67	541.81
510.03	552.09
510.39	562.59
510.75	573.39
511.12	584.33
511.48	595.60
511.84	606.98
512.20	618.44
512.56	630.32
512.92	642.47
513.28	654.77
513.64	667.27
514.00	679.93
514.37	692.84
514.73	705.95
515.09	718.96
515.45	732.26
515.81	745.86
516.17	759.94
516.53	774.10
516.89	788.29
517.25	802.46
517.61	816.90
517.97	831.39
518.33	845.83
518.69	860.58
519.05	875.59
519.41	890.78
519.77	906.40
520.13	921.83
520.49	937.26
520.85	952.72
521.21	968.45
521.57	984.74
521.93	1000.50
522.29	1016.79
522.65	1033.11
523.01	1049.17
523.37	1065.21
523.73	1081.30
524.09	1097.27
524.45	1113.65
524.81	1130.28
525.17	1147.00
525.53	1163.87
525.89	1180.68
526.25	1197.47
526.61	1213.82
526.97	1230.56
527.33	1246.95
527.68	1263.70
528.04	1279.99
528.40	1296.48
528.76	1313.43
529.12	1329.95
529.48	1346.85
529.84	1362.87
530.20	1379.42
530.56	1396.47
530.91	1413.80
531.27	1430.53
531.63	1446.94
531.99	1463.44
532.35	1479.32
532.71	1495.20
533.07	1511.39
533.42	1527.42
533.78	1543.38
534.14	1559.66
534.50	1574.85
534.86	1590.66
535.21	1605.64
535.57	1621.63
535.93	1637.08
536.29	1651.80
536.65	1666.79
537.00	1681.57
537.36	1696.83
537.72	1711.27
538.08	1725.55
538.44	1739.27
538.79	1753.08
539.15	1766.86
539.51	1780.58
539.87	1794.89
540.22	1808.63
540.58	1822.35
540.94	1835.56
541.29	1848.55
541.65	1861.17
542.01	1874.51
542.37	1886.87
542.72	1899.29
543.08	1911.05
543.44	1923.37
543.79	1934.67
544.15	1945.75
544.51	1957.18
544.87	1968.14
545.22	1979.02
545.58	1989.30
545.94	1998.95
546.29	2008.80
546.65	2018.60
547.01	2027.87
547.36	2036.52
547.72	2044.94
548.07	2052.64
548.43	2060.79
548.79	2068.82
549.14	2076.35
549.50	2083.58
549.86	2091.30
550.21	2098.66
550.57	2105.77
550.92	2112.42
551.28	2119.38
551.64	2126.37
551.99	2132.93
552.35	2139.16
552.70	2145.23
553.06	2151.37
553.41	2157.75
553.77	2163.82
554.13	2169.86
554.48	2175.95
554.84	2181.46
555.19	2186.79
555.55	2192.22
555.90	2196.60
556.26	2201.44
556.61	2206.13
556.97	2210.45
557.32	2214.46
557.68	2218.44
558.03	2222.94
558.39	2226.74
558.74	2231.42
559.10	2235.37
559.45	2239.00
559.81	2243.25
560.16	2247.23
560.52	2250.29
560.87	2253.86
561.23	2256.58
561.58	2259.47
561.94	2262.00
562.29	2264.39
562.64	2267.03
563.00	2269.52
563.35	2273.06
563.71	2276.06
564.06	2279.32
564.42	2282.09
564.77	2284.57
565.12	2286.85
565.48	2288.57
565.83	2290.29
566.19	2291.51
566.54	2292.36
566.89	2293.52
567.25	2294.17
567.60	2295.37
567.96	2296.97
568.31	2297.72
568.66	2298.76
569.02	2299.34
569.37	2299.63
569.72	2300.49
570.08	2300.53
570.43	2300.57
570.78	2299.96
571.14	2298.55
571.49	2297.18
571.84	2296.96
572.20	2295.90
572.55	2294.92
572.90	2293.42
573.26	2292.00
573.61	2290.48
573.96	2288.60
574.31	2285.66
574.67	2282.66
575.02	2279.03
575.37	2275.77
575.72	2271.87
576.08	2268.62
576.43	2265.38
576.78	2261.71
577.13	2258.57
577.49	2255.57
577.84	2252.14
578.19	2248.52
578.54	2244.88
578.90	2240.65
579.25	2235.07
579.60	2230.04
579.95	2225.02
580.30	2220.00
580.66	2214.91
581.01	2209.89
581.36	2205.08
581.71	2200.84
582.06	2196.31
582.42	2191.87
582.77	2186.69
583.12	2182.17
583.47	2177.31
583.82	2172.45
584.17	2167.12
584.53	2161.58
584.88	2155.90
585.23	2150.16
585.58	2144.69
585.93	2139.32
586.28	2134.55
586.63	2129.52
586.98	2124.56
587.34	2119.95
587.69	2115.04
588.04	2109.66
588.39	2103.98
588.74	2097.50
589.09	2091.27
589.44	2084.54
589.79	2078.58
590.14	2072.99
590.49	2066.51
590.84	2060.08
591.19	2053.82
591.54	2047.48
591.89	2040.09
592.25	2033.33
592.60	2026.08
592.95	2018.45
593.30	2010.92
593.65	2003.29
594.00	1996.22
594.35	1988.86
594.70	1980.77
595.05	1973.55
595.40	1966.50
595.75	1959.06
596.10	1952.89
596.45	1946.24
596.80	1940.02
597.15	1933.32
597.50	1926.21
597.85	1919.84
598.19	1913.36
598.54	1906.31
598.89	1899.63
599.24	1893.87
599.59	1887.13
599.94	1880.92
600.29	1874.56
600.64	1868.13
600.99	1860.75
601.34	1853.95
601.69	1847.12
602.04	1840.29
602.39	1833.09
602.74	1826.13
603.08	1819.30
603.43	1812.57
603.78	1805.35
604.13	1798.24
604.48	1790.87
604.83	1783.93
605.18	1776.97
605.53	1768.95
605.87	1760.90
606.22	1753.73
606.57	1745.70
606.92	1738.60
607.27	1731.43
607.62	1724.59
607.96	1717.20
608.31	1710.70
608.66	1703.11
609.01	1695.47
609.36	1687.97
609.70	1679.93
610.05	1671.89
610.40	1664.19
610.75	1655.79
611.10	1648.00
611.44	1639.47
611.79	1631.61
612.14	1623.02
612.49	1613.81
612.83	1605.42
613.18	1597.45
613.53	1589.34
613.88	1580.73
614.22	1572.28
614.57	1563.63
614.92	1555.50
615.27	1548.03
615.61	1539.42
615.96	1531.39
616.31	1523.78
616.65	1516.31
617.00	1508.58
617.35	1500.83
617.70	1492.53
618.04	1484.06
618.39	1475.92
618.74	1468.36
619.08	1460.01
619.43	1452.35
619.78	1445.36
620.12	1438.12
620.47	1430.50
620.82	1422.23
621.16	1414.88
621.51	1407.35
621.85	1399.81
622.20	1391.26
622.55	1382.88
622.89	1375.18
623.24	1367.49
623.59	1360.12
623.93	1352.61
624.28	1345.46
624.62	1338.09
624.97	1330.85
625.32	1324.05
625.66	1317.12
626.01	1310.03
626.35	1302.61
626.70	1294.93
627.04	1287.30
627.39	1279.61
627.73	1272.28
628.08	1265.39
628.43	1258.08
628.77	1250.62
629.12	1242.98
629.46	1235.92
629.81	1228.61
630.15	1221.45
630.50	1213.99
630.84	1205.74
631.19	1197.89
631.53	1190.39
631.88	1182.75
632.22	1175.19
632.57	1167.86
632.91	1160.20
633.26	1152.62
633.60	1145.21
633.95	1138.14
634.29	1131.03
634.64	1124.33
634.98	1116.89
635.32	1109.82
635.67	1103.29
636.01	1096.67
636.36	1089.76
636.70	1083.21
637.05	1076.59
637.39	1070.02
637.73	1063.59
638.08	1057.72
638.42	1051.64
638.77	1045.16
639.11	1038.58
639.45	1032.20
639.80	1025.62
640.14	1019.19
640.49	1012.76
640.83	1006.48
641.17	1000.14
641.52	993.79
641.86	987.34
642.20	981.47
642.55	975.17
642.89	968.70
643.23	962.22
643.58	956.66
643.92	950.43
644.26	944.27
644.61	938.26
644.95	932.14
645.29	925.52
645.64	918.77
645.98	912.46
646.32	906.62
646.66	900.70
647.01	894.86
647.35	889.18
647.69	883.36
648.04	877.88
648.38	872.08
648.72	866.11
649.06	860.01
649.41	854.19
649.75	848.16
650.09	842.24
650.43	836.43
650.78	830.14
651.12	824.26
651.46	818.58
651.80	812.87
652.14	807.52
652.49	802.25
652.83	797.09
653.17	791.36
653.51	785.59
653.85	780.13
654.20	774.57
654.54	768.54
654.88	762.75
655.22	756.79
655.56	751.13
655.90	745.70
656.25	740.50
656.59	735.12
656.93	730.05
657.27	724.78
657.61	719.36
657.95	714.31
658.29	709.25
658.64	704.01
658.98	698.72
659.32	693.32
659.66	688.05
660.00	682.76
660.34	677.88
660.68	673.03
661.02	668.00
661.36	663.29
661.70	658.79
662.05	654.44
662.39	650.13
662.73	645.70
663.07	641.31
663.41	636.76
663.75	632.30
664.09	627.75
664.43	623.40
664.77	619.34
665.11	615.14
665.45	610.99
665.79	606.91
666.13	602.77
666.47	598.68
666.81	594.56
667.15	590.45
667.49	586.53
667.83	582.72
668.17	578.78
668.51	574.70
668.85	570.65
669.19	566.84
669.53	563.00
669.87	559.06
670.21	555.39
670.55	551.81
670.89	548.34
671.23	544.94
671.57	541.44
671.91	537.84
672.25	534.28
672.58	530.73
672.92	527.34
673.26	524.15
673.60	521.00
673.94	517.85
674.28	514.98
674.62	512.04
674.96	508.87
675.30	505.95
675.64	503.00
675.97	500.28
676.31	497.39
676.65	494.42
676.99	491.75
677.33	488.85
677.67	486.05
678.01	483.03
678.34	480.02
678.68	477.17
679.02	474.36
679.36	471.62
679.70	468.87
680.04	466.05
680.37	463.19
680.71	460.36
681.05	457.74
681.39	454.95
681.73	452.26
682.06	449.69
682.40	447.13
682.74	444.61
683.08	442.05
683.42	439.42
683.75	436.96
684.09	434.41
684.43	431.95
684.77	429.45
685.10	427.08
685.44	424.79
685.78	422.51
686.12	420.24
686.45	417.93
686.79	415.65
687.13	413.49
687.46	411.36
687.80	409.23
688.14	407.05
688.48	405.00
688.81	402.75
689.15	400.64
689.49	398.49
689.82	396.42
690.16	394.34
690.50	392.49
690.83	390.54
691.17	388.54
691.51	386.63
691.84	384.83
692.18	382.90
692.52	380.89
692.85	378.90
693.19	377.01
693.52	375.19
693.86	373.37
694.20	371.56
694.53	369.73
694.87	367.90
695.21	366.12
695.54	364.28
695.88	362.57
696.21	360.83
696.55	359.14
696.88	357.44
697.22	355.81
697.56	354.16
697.89	352.48
698.23	350.87
698.56	349.26
698.90	347.65
699.23	346.00
699.57	344.48
699.90	343.00
700.24	341.50
700.58	339.98
700.91	338.51
701.25	337.11
701.58	335.75
701.92	334.41
702.25	333.06
702.59	331.68
702.92	330.40
703.26	329.17
703.59	327.91
703.93	326.75
704.26	325.53
704.60	324.18
704.93	322.93
705.26	321.68
705.60	320.49
705.93	319.32
706.27	318.30
706.60	317.28
706.94	316.17
707.27	315.01
707.61	313.95
707.94	312.93
708.27	311.80
708.61	310.72
708.94	309.69
709.28	308.70
709.61	307.77
709.94	306.80
710.28	305.74
710.61	304.76
710.95	303.66
711.28	302.71
711.61	301.80
711.95	300.90
712.28	300.00
712.61	299.02
712.95	298.10
713.28	297.23
713.61	296.30
713.95	295.39
714.28	294.58
714.61	293.71
714.95	292.88
715.28	292.03
715.61	291.14
715.95	290.28
716.28	289.42
716.61	288.58
716.95	287.80
717.28	287.06
717.61	286.29
717.94	285.60
718.28	284.79
718.61	284.05
718.94	283.38
719.27	282.72
719.61	282.11
719.94	281.48
720.27	280.79
720.60	280.12
720.94	279.53
721.27	278.95
721.60	278.39
721.93	277.76
722.27	277.21
722.60	276.68
722.93	276.11
723.26	275.57
723.59	275.02
723.93	274.44
724.26	273.87
724.59	273.35
724.92	272.82
725.25	272.31
725.59	271.82
725.92	271.28
726.25	270.76
726.58	270.24
726.91	269.70
727.24	269.20
727.57	268.72
727.91	268.17
728.24	267.68
728.57	267.16
728.90	266.76
729.23	266.27
729.56	265.82
729.89	265.35
730.22	264.87
730.55	264.40
730.89	263.96
731.22	263.54
731.55	263.06
731.88	262.61
732.21	262.17
732.54	261.71
732.87	261.32
733.20	260.90
733.53	260.53
733.86	260.18
734.19	259.75
734.52	259.40
734.85	259.09
735.18	258.69
735.51	258.36
735.84	257.95
736.17	257.59
736.50	257.27
736.83	257.04
737.16	256.73
737.49	256.41
737.82	256.06
738.15	255.71
738.48	255.37
738.81	255.05
739.14	254.74
739.47	254.41
739.80	254.07
740.13	253.75
740.46	253.42
740.79	253.09
741.12	252.77
741.45	252.45
741.78	252.10
742.11	251.81
742.44	251.46
742.77	251.15
743.10	250.86
743.43	250.51
743.75	250.08
744.08	249.91
744.41	249.62
744.74	249.37
745.07	249.08
745.40	248.83
745.73	248.61
746.06	248.33
746.39	248.09
746.71	247.83
747.04	247.55
747.37	247.25
747.70	246.96
748.03	246.74
748.36	246.48
748.68	246.24
749.01	245.99
749.34	245.78
749.67	245.55
750.00	245.33
750.33	245.18
750.65	244.98
750.98	244.65
751.31	244.42
751.64	244.20
751.97	244.05
752.29	243.87
752.62	243.61
752.95	243.41
753.28	243.19
753.60	242.96
753.93	242.82
754.26	242.64
754.59	242.46
754.91	242.29
755.24	242.11
755.57	241.92
755.90	241.76
756.22	241.56
756.55	241.38
756.88	241.18
757.20	240.94
757.53	240.72
757.86	240.56
758.19	240.42
758.51	240.24
758.84	240.03
759.17	239.84
759.49	239.70
759.82	239.59
760.15	239.43
760.47	239.30
760.80	239.10
761.13	238.97
761.45	238.81
761.78	238.63
762.11	238.48
762.43	238.33
762.76	238.17
763.08	238.05
763.41	237.92
763.74	237.77
764.06	237.59
764.39	237.47
764.71	237.35
765.04	237.18
765.37	237.04
765.69	236.93
766.02	236.80
766.34	236.66
766.67	236.51
767.00	236.42
767.32	236.33
767.65	236.32
767.97	236.20
768.30	236.07
768.62	235.97
768.95	235.85
769.27	235.73
769.60	235.65
769.92	235.51
770.25	235.43
770.57	235.37
770.90	235.32
771.22	235.22
771.55	235.12
771.87	235.04
772.20	234.98
772.52	234.96
772.85	234.97
773.17	234.87
773.50	234.77
773.82	234.66
774.15	234.53
774.47	234.38
774.80	234.27
775.12	234.17
775.45	234.06
775.77	233.98
776.09	233.91
776.42	233.81
776.74	233.75
777.07	233.64
777.39	233.56
777.72	233.47
778.04	233.41
778.36	233.32
778.69	233.24
779.01	233.13
779.33	232.98
779.66	232.79
779.98	232.74
780.31	232.65
780.63	232.66
780.95	232.64
781.28	232.55
781.60	232.49
781.92	232.47
782.25	232.42
782.57	232.36
782.89	232.29
783.22	232.22
783.54	232.17
783.86	232.13
784.19	232.03
784.51	231.99
784.83	231.91
785.16	231.88
785.48	231.84
785.80	231.78
786.12	231.75
786.45	231.71
786.77	231.67
787.09	231.64
