SpectraSuite Data File
++++++++++++++++++++++++++++++++++++
Date: Fri Feb 01 15:37:27 EST 2013
User: group
Dark Spectrum Present: No
Reference Spectrum Present: No
Number of Sampled Component Spectra: 1
Spectrometers: USB2E7196
Integration Time (usec): 35000 (USB2E7196)
Spectra Averaged: 100 (USB2E7196)
Boxcar Smoothing: 10 (USB2E7196)
Correct for Electrical Dark: No (USB2E7196)
Strobe/Lamp Enabled: No (USB2E7196)
Correct for Detector Non-linearity: No (USB2E7196)
Correct for Stray Light: No (USB2E7196)
Number of Pixels in Processed Spectrum: 2048
>>>>>Begin Processed Spectral Data<<<<<
339.09	0.00
339.48	214.76
339.86	216.04
340.24	217.74
340.63	218.93
341.01	222.52
341.39	221.90
341.78	223.42
342.16	224.08
342.54	225.14
342.93	213.38
343.31	224.17
343.69	224.70
344.07	225.17
344.46	225.60
344.84	225.99
345.22	226.17
345.60	226.42
345.99	226.57
346.37	226.71
346.75	226.83
347.13	226.89
347.52	226.96
347.90	227.02
348.28	227.05
348.66	227.09
349.05	227.06
349.43	227.08
349.81	227.09
350.19	227.14
350.57	227.18
350.96	227.20
351.34	227.25
351.72	227.36
352.10	227.43
352.48	227.54
352.87	227.60
353.25	227.67
353.63	227.70
354.01	227.76
354.39	227.82
354.77	227.81
355.15	227.92
355.54	227.96
355.92	227.98
356.30	228.03
356.68	228.18
357.06	228.27
357.44	228.35
357.82	228.41
358.20	228.46
358.58	228.51
358.97	228.57
359.35	228.69
359.73	228.78
360.11	228.83
360.49	228.86
360.87	228.92
361.25	229.01
361.63	229.10
362.01	229.15
362.39	229.17
362.77	229.27
363.15	229.26
363.53	229.28
363.91	229.35
364.29	229.38
364.67	229.27
365.05	229.26
365.43	229.28
365.81	229.26
366.19	229.34
366.57	229.37
366.95	229.35
367.33	229.31
367.71	229.26
368.09	229.26
368.47	229.24
368.85	229.23
369.23	229.21
369.61	229.16
369.99	229.17
370.37	229.16
370.75	229.14
371.13	229.11
371.51	229.08
371.89	229.02
372.27	228.99
372.65	228.97
373.03	228.98
373.41	228.91
373.78	228.87
374.16	228.73
374.54	228.64
374.92	228.57
375.30	228.46
375.68	228.41
376.06	228.37
376.44	228.28
376.82	228.17
377.19	228.08
377.57	228.03
377.95	227.95
378.33	227.88
378.71	227.77
379.09	227.72
379.47	227.62
379.84	227.55
380.22	227.48
380.60	227.40
380.98	227.27
381.36	227.19
381.73	227.13
382.11	227.10
382.49	227.05
382.87	226.99
383.25	226.95
383.62	227.01
384.00	226.92
384.38	226.91
384.76	226.87
385.13	226.84
385.51	226.80
385.89	226.73
386.27	226.68
386.64	226.67
387.02	226.64
387.40	226.61
387.78	226.58
388.15	226.56
388.53	226.54
388.91	226.51
389.29	226.49
389.66	226.47
390.04	226.44
390.42	226.44
390.79	226.45
391.17	226.45
391.55	226.31
391.92	226.31
392.30	226.25
392.68	226.23
393.05	226.23
393.43	226.21
393.81	226.24
394.18	226.23
394.56	226.24
394.94	226.24
395.31	226.28
395.69	226.32
396.06	226.36
396.44	226.36
396.82	226.37
397.19	226.48
397.57	226.50
397.95	226.60
398.32	226.63
398.70	226.67
399.07	226.73
399.45	226.80
399.82	226.88
400.20	226.94
400.58	227.02
400.95	227.10
401.33	227.20
401.70	227.32
402.08	227.40
402.45	227.48
402.83	227.62
403.20	227.71
403.58	227.82
403.95	227.93
404.33	228.10
404.71	228.26
405.08	228.39
405.46	228.54
405.83	228.64
406.21	228.78
406.58	228.96
406.96	229.15
407.33	229.33
407.70	229.52
408.08	229.83
408.45	230.05
408.83	230.27
409.20	230.51
409.58	230.70
409.95	230.98
410.33	231.25
410.70	231.48
411.08	231.75
411.45	232.06
411.82	232.38
412.20	232.74
412.57	233.17
412.95	233.49
413.32	233.89
413.69	234.29
414.07	234.75
414.44	235.24
414.82	235.71
415.19	236.28
415.56	236.84
415.94	237.36
416.31	238.04
416.68	238.66
417.06	239.39
417.43	240.10
417.81	240.89
418.18	241.68
418.55	242.52
418.93	243.44
419.30	244.32
419.67	245.24
420.04	246.17
420.42	247.12
420.79	248.28
421.16	249.42
421.54	250.65
421.91	251.85
422.28	253.06
422.66	254.39
423.03	255.67
423.40	257.02
423.77	258.43
424.15	259.82
424.52	261.31
424.89	262.87
425.26	264.40
425.64	265.84
426.01	267.43
426.38	269.08
426.75	270.72
427.13	272.47
427.50	274.29
427.87	276.19
428.24	278.09
428.61	279.90
428.99	281.88
429.36	283.98
429.73	286.05
430.10	288.12
430.47	290.18
430.85	292.27
431.22	294.48
431.59	296.89
431.96	299.14
432.33	301.63
432.70	304.03
433.08	306.84
433.45	309.52
433.82	312.10
434.19	315.02
434.56	317.88
434.93	320.55
435.30	323.19
435.68	326.05
436.05	328.88
436.42	331.64
436.79	334.11
437.16	336.77
437.53	339.58
437.90	342.40
438.27	345.18
438.64	348.04
439.01	350.64
439.38	352.86
439.75	355.05
440.13	357.56
440.50	359.89
440.87	361.72
441.24	363.63
441.61	365.82
441.98	367.32
442.35	369.11
442.72	370.98
443.09	372.80
443.46	373.79
443.83	374.39
444.20	374.87
444.57	375.78
444.94	376.11
445.31	376.50
445.68	376.82
446.05	376.84
446.42	376.43
446.79	376.00
447.16	375.57
447.53	375.23
447.90	374.06
448.27	372.88
448.64	371.33
449.01	370.23
449.37	368.26
449.74	366.31
450.11	363.99
450.48	361.49
450.85	358.94
451.22	356.82
451.59	354.75
451.96	352.84
452.33	350.19
452.70	347.82
453.07	344.95
453.43	342.08
453.80	339.30
454.17	336.59
454.54	334.06
454.91	331.31
455.28	328.65
455.65	326.15
456.02	323.77
456.38	321.64
456.75	318.95
457.12	316.72
457.49	314.55
457.86	312.43
458.23	310.57
458.59	308.52
458.96	306.45
459.33	304.58
459.70	302.71
460.07	301.21
460.43	299.47
460.80	297.86
461.17	296.42
461.54	294.96
461.91	293.58
462.27	292.18
462.64	290.90
463.01	289.52
463.38	288.20
463.74	286.75
464.11	285.56
464.48	284.51
464.85	283.38
465.21	282.50
465.58	281.55
465.95	280.46
466.32	279.52
466.68	278.59
467.05	277.73
467.42	276.82
467.78	275.88
468.15	275.03
468.52	274.34
468.88	273.45
469.25	272.66
469.62	272.03
469.98	271.29
470.35	270.69
470.72	270.10
471.08	269.45
471.45	268.97
471.82	268.42
472.18	267.80
472.55	267.34
472.92	266.79
473.28	266.33
473.65	265.87
474.02	265.44
474.38	265.11
474.75	264.77
475.11	264.41
475.48	264.11
475.85	263.85
476.21	263.65
476.58	263.50
476.94	263.36
477.31	263.20
477.67	263.06
478.04	262.95
478.41	262.93
478.77	262.96
479.14	262.90
479.50	262.89
479.87	263.01
480.23	263.08
480.60	263.18
480.96	263.26
481.33	263.46
481.69	263.64
482.06	263.81
482.42	264.01
482.79	264.28
483.15	264.63
483.52	265.06
483.88	265.38
484.25	265.74
484.61	266.16
484.98	266.64
485.34	267.21
485.71	267.78
486.07	268.38
486.44	268.94
486.80	269.62
487.17	270.37
487.53	271.22
487.90	272.05
488.26	272.94
488.62	273.96
488.99	274.92
489.35	276.01
489.72	277.10
490.08	278.30
490.44	279.58
490.81	280.92
491.17	282.24
491.54	283.71
491.90	285.25
492.26	286.91
492.63	288.61
492.99	290.39
493.36	292.29
493.72	294.33
494.08	296.44
494.45	298.67
494.81	300.99
495.17	303.36
495.54	305.97
495.90	308.67
496.26	311.42
496.63	314.39
496.99	317.48
497.35	320.78
497.72	324.15
498.08	327.64
498.44	331.30
498.80	335.17
499.17	339.23
499.53	343.38
499.89	347.79
500.26	352.27
500.62	356.94
500.98	361.91
501.34	366.98
501.71	372.33
502.07	377.78
502.43	383.37
502.79	389.20
503.16	395.24
503.52	401.50
503.88	407.90
504.24	414.53
504.60	421.40
504.97	428.49
505.33	435.82
505.69	443.52
506.05	451.26
506.41	459.19
506.78	467.36
507.14	475.80
507.50	484.47
507.86	493.47
508.22	502.60
508.59	511.74
508.95	521.29
509.31	531.10
509.67	541.19
510.03	551.53
510.39	562.07
510.75	572.87
511.12	583.85
511.48	595.18
511.84	606.68
512.20	618.19
512.56	630.16
512.92	642.31
513.28	654.63
513.64	667.17
514.00	679.86
514.37	692.79
514.73	705.85
515.09	718.92
515.45	732.31
515.81	745.97
516.17	759.97
516.53	774.10
516.89	788.33
517.25	802.54
517.61	817.01
517.97	831.46
518.33	845.92
518.69	860.68
519.05	875.66
519.41	890.85
519.77	906.45
520.13	921.93
520.49	937.35
520.85	952.83
521.21	968.59
521.57	984.77
521.93	1000.59
522.29	1017.05
522.65	1033.28
523.01	1049.55
523.37	1065.59
523.73	1081.81
524.09	1097.94
524.45	1114.20
524.81	1130.86
525.17	1147.63
525.53	1164.54
525.89	1181.31
526.25	1198.21
526.61	1214.69
526.97	1231.42
527.33	1247.87
527.68	1264.51
528.04	1281.04
528.40	1297.65
528.76	1314.74
529.12	1331.54
529.48	1348.37
529.84	1364.38
530.20	1381.13
530.56	1398.08
530.91	1415.48
531.27	1432.30
531.63	1448.87
531.99	1465.56
532.35	1481.59
532.71	1497.58
533.07	1513.83
533.42	1529.87
533.78	1545.87
534.14	1562.11
534.50	1577.44
534.86	1593.43
535.21	1608.74
535.57	1624.66
535.93	1640.08
536.29	1654.87
536.65	1669.87
537.00	1684.73
537.36	1700.19
537.72	1714.63
538.08	1729.08
538.44	1742.93
538.79	1756.83
539.15	1770.50
539.51	1784.20
539.87	1798.43
540.22	1812.05
540.58	1825.92
540.94	1839.34
541.29	1852.33
541.65	1865.07
542.01	1878.42
542.37	1890.66
542.72	1903.06
543.08	1914.90
543.44	1927.42
543.79	1938.60
544.15	1949.63
544.51	1961.19
544.87	1972.08
545.22	1982.88
545.58	1993.04
545.94	2002.84
546.29	2012.74
546.65	2022.54
547.01	2031.72
547.36	2040.67
547.72	2049.15
548.07	2057.06
548.43	2065.20
548.79	2073.30
549.14	2080.87
549.50	2088.01
549.86	2095.73
550.21	2103.00
550.57	2110.14
550.92	2116.73
551.28	2123.86
551.64	2130.95
551.99	2137.44
552.35	2143.60
552.70	2149.81
553.06	2155.83
553.41	2162.10
553.77	2168.08
554.13	2174.20
554.48	2180.44
554.84	2185.81
555.19	2191.30
555.55	2196.43
555.90	2200.84
556.26	2205.53
556.61	2210.17
556.97	2214.57
557.32	2218.70
557.68	2222.75
558.03	2227.10
558.39	2230.74
558.74	2235.40
559.10	2239.27
559.45	2242.90
559.81	2247.21
560.16	2250.93
560.52	2254.12
560.87	2257.54
561.23	2260.11
561.58	2263.05
561.94	2265.55
562.29	2267.95
562.64	2270.43
563.00	2272.94
563.35	2276.48
563.71	2279.58
564.06	2282.88
564.42	2285.61
564.77	2288.08
565.12	2290.30
565.48	2292.05
565.83	2293.90
566.19	2295.13
566.54	2295.92
566.89	2296.95
567.25	2297.53
567.60	2298.85
567.96	2300.49
568.31	2301.34
568.66	2302.53
569.02	2302.97
569.37	2303.12
569.72	2303.79
570.08	2303.96
570.43	2304.02
570.78	2303.46
571.14	2301.86
571.49	2300.31
571.84	2299.96
572.20	2298.75
572.55	2297.74
572.90	2296.21
573.26	2294.80
573.61	2293.10
573.96	2291.36
574.31	2288.45
574.67	2285.50
575.02	2281.95
575.37	2278.71
575.72	2274.85
576.08	2271.49
576.43	2268.26
576.78	2264.56
577.13	2261.54
577.49	2258.38
577.84	2254.82
578.19	2250.97
578.54	2247.32
578.90	2243.11
579.25	2237.70
579.60	2232.63
579.95	2227.60
580.30	2222.62
580.66	2217.56
581.01	2212.48
581.36	2207.48
581.71	2203.30
582.06	2198.65
582.42	2194.06
582.77	2188.65
583.12	2184.04
583.47	2179.11
583.82	2174.02
584.17	2168.78
584.53	2163.04
584.88	2157.38
585.23	2151.61
585.58	2146.08
585.93	2140.67
586.28	2136.02
586.63	2130.91
586.98	2125.87
587.34	2121.11
587.69	2116.05
588.04	2110.62
588.39	2104.95
588.74	2098.48
589.09	2092.28
589.44	2085.42
589.79	2079.53
590.14	2073.94
590.49	2067.36
590.84	2061.08
591.19	2055.03
591.54	2048.40
591.89	2040.97
592.25	2034.18
592.60	2026.85
592.95	2019.34
593.30	2012.03
593.65	2004.34
594.00	1997.23
594.35	1989.90
594.70	1981.78
595.05	1974.50
595.40	1967.33
595.75	1959.82
596.10	1953.51
596.45	1946.74
596.80	1940.56
597.15	1933.73
597.50	1926.50
597.85	1920.08
598.19	1913.29
598.54	1906.14
598.89	1899.64
599.24	1893.90
599.59	1887.10
599.94	1881.06
600.29	1874.66
600.64	1867.89
600.99	1860.39
601.34	1853.52
601.69	1846.71
602.04	1839.70
602.39	1832.47
602.74	1825.44
603.08	1818.59
603.43	1811.87
603.78	1804.54
604.13	1797.33
604.48	1790.09
604.83	1783.31
605.18	1776.18
605.53	1768.39
605.87	1760.40
606.22	1753.19
606.57	1745.15
606.92	1737.96
607.27	1730.58
607.62	1723.69
607.96	1716.44
608.31	1709.79
608.66	1702.15
609.01	1694.51
609.36	1687.15
609.70	1679.04
610.05	1671.00
610.40	1663.33
610.75	1654.96
611.10	1647.27
611.44	1638.98
611.79	1631.00
612.14	1622.21
612.49	1613.19
612.83	1604.67
613.18	1596.51
613.53	1588.38
613.88	1579.93
614.22	1571.63
614.57	1563.06
614.92	1554.99
615.27	1547.37
615.61	1539.08
615.96	1531.02
616.31	1523.38
616.65	1516.00
617.00	1508.50
617.35	1500.74
617.70	1492.26
618.04	1483.75
618.39	1475.51
618.74	1467.69
619.08	1459.26
619.43	1451.76
619.78	1444.70
620.12	1437.45
620.47	1429.89
620.82	1421.74
621.16	1414.26
621.51	1406.59
621.85	1399.03
622.20	1390.42
622.55	1382.06
622.89	1374.18
623.24	1366.53
623.59	1359.20
623.93	1351.61
624.28	1344.31
624.62	1336.81
624.97	1329.77
625.32	1323.04
625.66	1316.08
626.01	1309.06
626.35	1301.65
626.70	1293.86
627.04	1286.15
627.39	1278.50
627.73	1271.19
628.08	1264.33
628.43	1256.97
628.77	1249.60
629.12	1241.92
629.46	1234.83
629.81	1227.58
630.15	1220.38
630.50	1213.13
630.84	1204.80
631.19	1196.93
631.53	1189.56
631.88	1182.13
632.22	1174.61
632.57	1167.42
632.91	1159.91
633.26	1152.42
633.60	1145.18
633.95	1138.15
634.29	1131.12
634.64	1124.40
634.98	1117.00
635.32	1109.72
635.67	1103.22
636.01	1096.61
636.36	1089.91
636.70	1083.33
637.05	1076.61
637.39	1070.11
637.73	1063.51
638.08	1057.74
638.42	1051.70
638.77	1045.24
639.11	1038.58
639.45	1032.14
639.80	1025.39
640.14	1018.94
640.49	1012.38
640.83	1006.01
641.17	999.78
641.52	993.53
641.86	987.13
642.20	981.24
642.55	975.09
642.89	968.59
643.23	962.07
643.58	956.22
643.92	950.01
644.26	943.98
644.61	938.00
644.95	931.96
645.29	925.29
645.64	918.55
645.98	912.17
646.32	906.43
646.66	900.39
647.01	894.68
647.35	888.98
647.69	883.23
648.04	877.63
648.38	871.79
648.72	865.72
649.06	859.66
649.41	853.80
649.75	847.74
650.09	841.74
650.43	835.89
650.78	829.75
651.12	823.84
651.46	818.12
651.80	812.30
652.14	806.96
652.49	801.59
652.83	796.41
653.17	790.67
653.51	784.83
653.85	779.46
654.20	773.78
654.54	767.71
654.88	761.92
655.22	756.03
655.56	750.36
655.90	744.97
656.25	739.66
656.59	734.27
656.93	729.25
657.27	724.13
657.61	718.79
657.95	713.72
658.29	708.63
658.64	703.43
658.98	698.15
659.32	692.67
659.66	687.51
660.00	682.25
660.34	677.40
660.68	672.49
661.02	667.51
661.36	662.76
661.70	658.30
662.05	653.96
662.39	649.70
662.73	645.27
663.07	640.87
663.41	636.43
663.75	631.93
664.09	627.31
664.43	622.93
664.77	618.77
665.11	614.45
665.45	610.35
665.79	606.24
666.13	602.18
666.47	598.08
666.81	593.96
667.15	589.86
667.49	585.96
667.83	582.19
668.17	578.23
668.51	574.18
668.85	570.22
669.19	566.38
669.53	562.50
669.87	558.62
670.21	554.97
670.55	551.40
670.89	548.05
671.23	544.64
671.57	541.13
671.91	537.54
672.25	534.19
672.58	530.64
672.92	527.29
673.26	524.08
673.60	520.94
673.94	517.74
674.28	514.85
674.62	511.94
674.96	508.81
675.30	505.91
675.64	502.98
675.97	500.18
676.31	497.31
676.65	494.41
676.99	491.71
677.33	488.81
677.67	485.94
678.01	482.89
678.34	479.85
678.68	476.99
679.02	474.23
679.36	471.43
679.70	468.75
680.04	465.99
680.37	463.11
680.71	460.34
681.05	457.75
681.39	455.00
681.73	452.30
682.06	449.79
682.40	447.22
682.74	444.69
683.08	442.14
683.42	439.55
683.75	437.06
684.09	434.54
684.43	432.09
684.77	429.68
685.10	427.30
685.44	425.09
685.78	422.77
686.12	420.46
686.45	418.13
686.79	415.78
687.13	413.54
687.46	411.41
687.80	409.23
688.14	407.01
688.48	404.98
688.81	402.69
689.15	400.53
689.49	398.40
689.82	396.31
690.16	394.29
690.50	392.33
690.83	390.40
691.17	388.41
691.51	386.47
691.84	384.61
692.18	382.71
692.52	380.67
692.85	378.75
693.19	376.92
693.52	375.15
693.86	373.39
694.20	371.64
694.53	369.82
694.87	368.01
695.21	366.25
695.54	364.41
695.88	362.73
696.21	361.04
696.55	359.36
696.88	357.70
697.22	356.01
697.56	354.38
697.89	352.67
698.23	351.09
698.56	349.48
698.90	347.88
699.23	346.24
699.57	344.68
699.90	343.17
700.24	341.63
700.58	340.06
700.91	338.55
701.25	337.05
701.58	335.71
701.92	334.33
702.25	332.95
702.59	331.57
702.92	330.23
703.26	328.89
703.59	327.56
703.93	326.39
704.26	325.13
704.60	323.85
704.93	322.59
705.26	321.31
705.60	320.16
705.93	319.01
706.27	317.93
706.60	316.92
706.94	315.86
707.27	314.72
707.61	313.66
707.94	312.65
708.27	311.61
708.61	310.49
708.94	309.47
709.28	308.50
709.61	307.56
709.94	306.65
710.28	305.66
710.61	304.72
710.95	303.63
711.28	302.73
711.61	301.79
711.95	300.90
712.28	299.95
712.61	298.95
712.95	298.04
713.28	297.15
713.61	296.23
713.95	295.33
714.28	294.48
714.61	293.64
714.95	292.81
715.28	291.97
715.61	291.13
715.95	290.31
716.28	289.45
716.61	288.60
716.95	287.78
717.28	287.03
717.61	286.21
717.94	285.45
718.28	284.66
718.61	283.93
718.94	283.22
719.27	282.57
719.61	281.93
719.94	281.27
720.27	280.57
720.60	279.91
720.94	279.25
721.27	278.66
721.60	278.08
721.93	277.45
722.27	276.86
722.60	276.27
722.93	275.67
723.26	275.16
723.59	274.63
723.93	274.09
724.26	273.50
724.59	272.99
724.92	272.47
725.25	271.94
725.59	271.43
725.92	270.92
726.25	270.37
726.58	269.87
726.91	269.34
727.24	268.87
727.57	268.37
727.91	267.87
728.24	267.41
728.57	266.92
728.90	266.48
729.23	266.01
729.56	265.59
729.89	265.12
730.22	264.61
730.55	264.11
730.89	263.66
731.22	263.26
731.55	262.82
731.88	262.39
732.21	261.97
732.54	261.52
732.87	261.10
733.20	260.71
733.53	260.29
733.86	259.96
734.19	259.56
734.52	259.20
734.85	258.89
735.18	258.48
735.51	258.11
735.84	257.76
736.17	257.44
736.50	257.03
736.83	256.80
737.16	256.47
737.49	256.16
737.82	255.80
738.15	255.46
738.48	255.10
738.81	254.77
739.14	254.46
739.47	254.13
739.80	253.83
740.13	253.52
740.46	253.22
740.79	252.89
741.12	252.59
741.45	252.25
741.78	251.93
742.11	251.63
742.44	251.28
742.77	250.99
743.10	250.64
743.43	250.36
743.75	249.97
744.08	249.81
744.41	249.50
744.74	249.27
745.07	249.00
745.40	248.75
745.73	248.52
746.06	248.25
746.39	248.02
746.71	247.73
747.04	247.48
747.37	247.23
747.70	247.00
748.03	246.74
748.36	246.56
748.68	246.31
749.01	246.08
749.34	245.88
749.67	245.66
750.00	245.44
750.33	245.28
750.65	245.07
750.98	244.75
751.31	244.54
751.64	244.30
751.97	244.11
752.29	243.94
752.62	243.67
752.95	243.45
753.28	243.22
753.60	243.05
753.93	242.86
754.26	242.66
754.59	242.45
754.91	242.27
755.24	242.07
755.57	241.88
755.90	241.74
756.22	241.54
756.55	241.32
756.88	241.13
757.20	240.90
757.53	240.74
757.86	240.59
758.19	240.45
758.51	240.32
758.84	240.15
759.17	239.97
759.49	239.85
759.82	239.73
760.15	239.62
760.47	239.44
760.80	239.27
761.13	239.11
761.45	238.92
761.78	238.78
762.11	238.62
762.43	238.48
762.76	238.30
763.08	238.18
763.41	238.08
763.74	237.97
764.06	237.80
764.39	237.64
764.71	237.48
765.04	237.33
765.37	237.15
765.69	237.00
766.02	236.87
766.34	236.71
766.67	236.58
767.00	236.48
767.32	236.44
767.65	236.38
767.97	236.27
768.30	236.19
768.62	236.04
768.95	235.91
769.27	235.78
769.60	235.68
769.92	235.56
770.25	235.42
770.57	235.28
770.90	235.20
771.22	235.11
771.55	234.99
771.87	234.89
772.20	234.81
772.52	234.80
772.85	234.81
773.17	234.73
773.50	234.61
773.82	234.47
774.15	234.31
774.47	234.17
774.80	234.06
775.12	233.99
775.45	233.90
775.77	233.83
776.09	233.76
776.42	233.67
776.74	233.61
777.07	233.55
777.39	233.50
777.72	233.40
778.04	233.30
778.36	233.26
778.69	233.22
779.01	233.17
779.33	233.01
779.66	232.85
779.98	232.79
780.31	232.72
780.63	232.72
780.95	232.67
781.28	232.59
781.60	232.55
781.92	232.45
782.25	232.39
782.57	232.35
782.89	232.25
783.22	232.21
783.54	232.14
783.86	232.06
784.19	231.99
784.51	231.99
784.83	231.94
785.16	231.87
785.48	231.79
785.80	231.73
786.12	231.69
786.45	231.65
786.77	231.63
787.09	231.59
