SpectraSuite Data File
++++++++++++++++++++++++++++++++++++
Date: Fri Feb 01 14:53:05 EST 2013
User: group
Dark Spectrum Present: No
Reference Spectrum Present: No
Number of Sampled Component Spectra: 1
Spectrometers: USB2E7196
Integration Time (usec): 35000 (USB2E7196)
Spectra Averaged: 100 (USB2E7196)
Boxcar Smoothing: 10 (USB2E7196)
Correct for Electrical Dark: No (USB2E7196)
Strobe/Lamp Enabled: No (USB2E7196)
Correct for Detector Non-linearity: No (USB2E7196)
Correct for Stray Light: No (USB2E7196)
Number of Pixels in Processed Spectrum: 2048
>>>>>Begin Processed Spectral Data<<<<<
339.09	0.00
339.48	215.51
339.86	216.81
340.24	218.36
340.63	220.02
341.01	222.30
341.39	222.37
341.78	223.69
342.16	224.78
342.54	225.13
342.93	213.84
343.31	224.64
343.69	225.16
344.07	225.64
344.46	226.08
344.84	226.44
345.22	226.68
345.60	226.94
345.99	227.14
346.37	227.27
346.75	227.37
347.13	227.42
347.52	227.50
347.90	227.56
348.28	227.56
348.66	227.65
349.05	227.67
349.43	227.68
349.81	227.71
350.19	227.75
350.57	227.81
350.96	227.87
351.34	227.94
351.72	228.03
352.10	228.11
352.48	228.16
352.87	228.23
353.25	228.30
353.63	228.38
354.01	228.46
354.39	228.53
354.77	228.61
355.15	228.70
355.54	228.73
355.92	228.77
356.30	228.87
356.68	228.95
357.06	229.04
357.44	229.09
357.82	229.17
358.20	229.27
358.58	229.32
358.97	229.42
359.35	229.50
359.73	229.57
360.11	229.62
360.49	229.71
360.87	229.73
361.25	229.77
361.63	229.84
362.01	229.87
362.39	229.88
362.77	229.96
363.15	229.98
363.53	230.01
363.91	230.04
364.29	230.04
364.67	229.99
365.05	230.00
365.43	230.00
365.81	230.03
366.19	230.05
366.57	230.07
366.95	230.02
367.33	229.97
367.71	229.97
368.09	229.94
368.47	229.94
368.85	229.91
369.23	229.92
369.61	229.82
369.99	229.78
370.37	229.76
370.75	229.73
371.13	229.66
371.51	229.59
371.89	229.56
372.27	229.50
372.65	229.43
373.03	229.36
373.41	229.32
373.78	229.23
374.16	229.11
374.54	229.02
374.92	228.99
375.30	228.95
375.68	228.86
376.06	228.82
376.44	228.67
376.82	228.63
377.19	228.51
377.57	228.44
377.95	228.32
378.33	228.21
378.71	228.09
379.09	228.03
379.47	227.98
379.84	227.84
380.22	227.74
380.60	227.62
380.98	227.54
381.36	227.44
381.73	227.34
382.11	227.26
382.49	227.21
382.87	227.09
383.25	227.00
383.62	227.03
384.00	226.93
384.38	226.89
384.76	226.85
385.13	226.84
385.51	226.80
385.89	226.76
386.27	226.74
386.64	226.68
387.02	226.64
387.40	226.56
387.78	226.55
388.15	226.56
388.53	226.55
388.91	226.48
389.29	226.45
389.66	226.46
390.04	226.43
390.42	226.40
390.79	226.44
391.17	226.45
391.55	226.35
391.92	226.34
392.30	226.33
392.68	226.34
393.05	226.34
393.43	226.36
393.81	226.38
394.18	226.41
394.56	226.46
394.94	226.50
395.31	226.55
395.69	226.62
396.06	226.64
396.44	226.67
396.82	226.75
397.19	226.85
397.57	226.90
397.95	226.96
398.32	226.99
398.70	227.06
399.07	227.15
399.45	227.21
399.82	227.29
400.20	227.36
400.58	227.47
400.95	227.50
401.33	227.58
401.70	227.74
402.08	227.84
402.45	227.94
402.83	228.06
403.20	228.21
403.58	228.31
403.95	228.45
404.33	228.62
404.71	228.76
405.08	228.93
405.46	229.05
405.83	229.25
406.21	229.45
406.58	229.57
406.96	229.73
407.33	229.92
407.70	230.14
408.08	230.41
408.45	230.57
408.83	230.83
409.20	231.06
409.58	231.27
409.95	231.54
410.33	231.85
410.70	232.11
411.08	232.36
411.45	232.69
411.82	233.00
412.20	233.35
412.57	233.77
412.95	234.06
413.32	234.51
413.69	234.92
414.07	235.36
414.44	235.88
414.82	236.36
415.19	236.92
415.56	237.47
415.94	238.01
416.31	238.67
416.68	239.30
417.06	240.01
417.43	240.67
417.81	241.42
418.18	242.19
418.55	243.05
418.93	243.92
419.30	244.81
419.67	245.71
420.04	246.69
420.42	247.66
420.79	248.84
421.16	249.94
421.54	251.13
421.91	252.32
422.28	253.54
422.66	254.87
423.03	256.16
423.40	257.48
423.77	258.88
424.15	260.29
424.52	261.74
424.89	263.37
425.26	264.91
425.64	266.35
426.01	267.93
426.38	269.55
426.75	271.21
427.13	272.89
427.50	274.72
427.87	276.56
428.24	278.41
428.61	280.16
428.99	282.14
429.36	284.22
429.73	286.25
430.10	288.28
430.47	290.33
430.85	292.44
431.22	294.66
431.59	297.06
431.96	299.31
432.33	301.78
432.70	304.14
433.08	306.94
433.45	309.58
433.82	312.16
434.19	315.02
434.56	317.81
434.93	320.46
435.30	323.10
435.68	325.99
436.05	328.82
436.42	331.57
436.79	334.06
437.16	336.76
437.53	339.63
437.90	342.44
438.27	345.22
438.64	348.11
439.01	350.73
439.38	352.96
439.75	355.14
440.13	357.73
440.50	360.05
440.87	361.88
441.24	363.84
441.61	366.00
441.98	367.56
442.35	369.41
442.72	371.28
443.09	373.09
443.46	374.14
443.83	374.71
444.20	375.26
444.57	376.11
444.94	376.44
445.31	376.78
445.68	377.09
446.05	377.14
446.42	376.68
446.79	376.28
447.16	375.80
447.53	375.48
447.90	374.26
448.27	373.15
448.64	371.59
449.01	370.46
449.37	368.50
449.74	366.60
450.11	364.34
450.48	361.91
450.85	359.39
451.22	357.19
451.59	355.22
451.96	353.26
452.33	350.64
452.70	348.28
453.07	345.45
453.43	342.65
453.80	339.90
454.17	337.26
454.54	334.72
454.91	332.06
455.28	329.38
455.65	326.90
456.02	324.44
456.38	322.32
456.75	319.67
457.12	317.42
457.49	315.19
457.86	313.06
458.23	311.20
458.59	309.13
458.96	307.08
459.33	305.20
459.70	303.35
460.07	301.84
460.43	300.12
460.80	298.48
461.17	297.00
461.54	295.50
461.91	294.09
462.27	292.61
462.64	291.36
463.01	290.00
463.38	288.74
463.74	287.38
464.11	286.23
464.48	285.21
464.85	284.13
465.21	283.24
465.58	282.32
465.95	281.19
466.32	280.32
466.68	279.38
467.05	278.49
467.42	277.61
467.78	276.70
468.15	275.81
468.52	275.13
468.88	274.28
469.25	273.49
469.62	272.83
469.98	272.14
470.35	271.47
470.72	270.83
471.08	270.09
471.45	269.53
471.82	268.93
472.18	268.28
472.55	267.81
472.92	267.25
473.28	266.75
473.65	266.28
474.02	265.79
474.38	265.41
474.75	265.06
475.11	264.68
475.48	264.38
475.85	264.11
476.21	263.87
476.58	263.66
476.94	263.50
477.31	263.31
477.67	263.16
478.04	263.03
478.41	262.98
478.77	263.02
479.14	262.96
479.50	262.94
479.87	263.02
480.23	263.09
480.60	263.16
480.96	263.21
481.33	263.44
481.69	263.63
482.06	263.84
482.42	264.02
482.79	264.25
483.15	264.55
483.52	264.95
483.88	265.29
484.25	265.66
484.61	266.05
484.98	266.50
485.34	267.05
485.71	267.63
486.07	268.23
486.44	268.83
486.80	269.50
487.17	270.25
487.53	271.03
487.90	271.85
488.26	272.77
488.62	273.77
488.99	274.70
489.35	275.69
489.72	276.77
490.08	278.00
490.44	279.21
490.81	280.56
491.17	281.87
491.54	283.35
491.90	284.84
492.26	286.46
492.63	288.18
492.99	289.92
493.36	291.82
493.72	293.82
494.08	295.88
494.45	298.14
494.81	300.50
495.17	302.88
495.54	305.42
495.90	308.08
496.26	310.82
496.63	313.79
496.99	316.90
497.35	320.10
497.72	323.44
498.08	326.94
498.44	330.58
498.80	334.48
499.17	338.48
499.53	342.65
499.89	347.01
500.26	351.54
500.62	356.24
500.98	361.13
501.34	366.17
501.71	371.49
502.07	376.83
502.43	382.35
502.79	388.16
503.16	394.22
503.52	400.49
503.88	406.84
504.24	413.41
504.60	420.29
504.97	427.47
505.33	434.74
505.69	442.43
506.05	450.16
506.41	457.95
506.78	466.08
507.14	474.43
507.50	483.14
507.86	492.04
508.22	501.18
508.59	510.36
508.95	519.94
509.31	529.69
509.67	539.79
510.03	550.05
510.39	560.54
510.75	571.28
511.12	582.19
511.48	593.50
511.84	604.93
512.20	616.41
512.56	628.32
512.92	640.46
513.28	652.79
513.64	665.29
514.00	678.00
514.37	690.91
514.73	703.91
515.09	716.92
515.45	730.21
515.81	743.77
516.17	757.71
516.53	771.85
516.89	786.02
517.25	800.11
517.61	814.55
517.97	829.00
518.33	843.40
518.69	858.22
519.05	873.24
519.41	888.48
519.77	904.07
520.13	919.52
520.49	934.99
520.85	950.38
521.21	966.12
521.57	982.34
521.93	998.22
522.29	1014.75
522.65	1030.99
523.01	1047.32
523.37	1063.37
523.73	1079.62
524.09	1095.81
524.45	1112.16
524.81	1128.91
525.17	1145.90
525.53	1162.78
525.89	1179.80
526.25	1196.67
526.61	1213.11
526.97	1229.82
527.33	1246.37
527.68	1263.04
528.04	1279.61
528.40	1296.32
528.76	1313.41
529.12	1330.09
529.48	1347.00
529.84	1363.00
530.20	1379.71
530.56	1396.71
530.91	1414.14
531.27	1430.88
531.63	1447.37
531.99	1463.99
532.35	1480.10
532.71	1495.88
533.07	1512.36
533.42	1528.24
533.78	1544.22
534.14	1560.51
534.50	1575.96
534.86	1591.85
535.21	1607.04
535.57	1623.02
535.93	1638.57
536.29	1653.47
536.65	1668.68
537.00	1683.51
537.36	1699.02
537.72	1713.56
538.08	1728.09
538.44	1741.97
538.79	1756.06
539.15	1769.79
539.51	1783.65
539.87	1798.05
540.22	1811.88
540.58	1825.62
540.94	1839.02
541.29	1852.01
541.65	1864.80
542.01	1878.07
542.37	1890.43
542.72	1903.05
543.08	1914.94
543.44	1927.41
543.79	1938.64
544.15	1949.56
544.51	1961.04
544.87	1971.85
545.22	1982.81
545.58	1993.05
545.94	2003.00
546.29	2012.89
546.65	2022.76
547.01	2032.06
547.36	2040.88
547.72	2049.35
548.07	2057.31
548.43	2065.58
548.79	2073.52
549.14	2081.14
549.50	2088.55
549.86	2096.30
550.21	2103.55
550.57	2110.63
550.92	2117.22
551.28	2124.41
551.64	2131.51
551.99	2138.04
552.35	2144.37
552.70	2150.53
553.06	2156.39
553.41	2162.55
553.77	2168.64
554.13	2174.63
554.48	2180.54
554.84	2185.76
555.19	2191.01
555.55	2195.94
555.90	2200.32
556.26	2205.37
556.61	2209.87
556.97	2214.07
557.32	2218.01
557.68	2222.01
558.03	2226.20
558.39	2229.72
558.74	2234.08
559.10	2237.78
559.45	2241.36
559.81	2245.59
560.16	2249.16
560.52	2252.45
560.87	2255.84
561.23	2258.16
561.58	2260.91
561.94	2263.54
562.29	2266.01
562.64	2268.64
563.00	2271.37
563.35	2274.88
563.71	2277.72
564.06	2280.95
564.42	2283.58
564.77	2285.99
565.12	2288.22
565.48	2289.99
565.83	2291.76
566.19	2292.88
566.54	2293.75
566.89	2294.88
567.25	2295.30
567.60	2296.54
567.96	2297.96
568.31	2298.53
568.66	2299.39
569.02	2299.91
569.37	2299.93
569.72	2300.43
570.08	2300.34
570.43	2299.92
570.78	2298.82
571.14	2297.06
571.49	2295.46
571.84	2294.97
572.20	2293.51
572.55	2292.05
572.90	2290.14
573.26	2288.36
573.61	2286.54
573.96	2284.47
574.31	2281.28
574.67	2277.89
575.02	2273.95
575.37	2270.33
575.72	2266.28
576.08	2262.90
576.43	2259.32
576.78	2255.51
577.13	2252.10
577.49	2248.75
577.84	2245.17
578.19	2241.37
578.54	2237.58
578.90	2233.13
579.25	2227.49
579.60	2222.66
579.95	2217.54
580.30	2212.33
580.66	2207.03
581.01	2201.85
581.36	2196.93
581.71	2192.54
582.06	2188.14
582.42	2183.47
582.77	2177.90
583.12	2173.24
583.47	2168.27
583.82	2163.14
584.17	2157.78
584.53	2152.17
584.88	2146.42
585.23	2140.46
585.58	2134.78
585.93	2129.07
586.28	2124.08
586.63	2118.75
586.98	2113.30
587.34	2108.55
587.69	2103.68
588.04	2098.44
588.39	2092.66
588.74	2085.86
589.09	2079.66
589.44	2072.65
589.79	2066.56
590.14	2060.99
590.49	2054.28
590.84	2047.74
591.19	2041.46
591.54	2034.78
591.89	2027.37
592.25	2020.40
592.60	2013.32
592.95	2005.62
593.30	1998.35
593.65	1990.61
594.00	1983.54
594.35	1976.20
594.70	1967.96
595.05	1960.67
595.40	1953.17
595.75	1945.49
596.10	1939.27
596.45	1932.24
596.80	1925.92
597.15	1919.20
597.50	1912.13
597.85	1905.56
598.19	1898.94
598.54	1891.97
598.89	1885.31
599.24	1879.29
599.59	1872.56
599.94	1866.09
600.29	1859.66
600.64	1852.90
600.99	1845.43
601.34	1838.53
601.69	1831.46
602.04	1824.52
602.39	1817.19
602.74	1810.42
603.08	1803.73
603.43	1797.03
603.78	1789.76
604.13	1782.54
604.48	1775.30
604.83	1768.21
605.18	1761.45
605.53	1753.44
605.87	1745.32
606.22	1738.04
606.57	1730.15
606.92	1722.87
607.27	1715.77
607.62	1708.95
607.96	1701.63
608.31	1695.24
608.66	1687.54
609.01	1680.02
609.36	1672.64
609.70	1664.59
610.05	1656.56
610.40	1648.99
610.75	1640.67
611.10	1633.06
611.44	1624.74
611.79	1616.75
612.14	1608.19
612.49	1599.06
612.83	1590.72
613.18	1582.63
613.53	1574.54
613.88	1565.96
614.22	1557.87
614.57	1549.35
614.92	1541.52
615.27	1534.30
615.61	1525.99
615.96	1518.08
616.31	1510.67
616.65	1503.27
617.00	1495.73
617.35	1488.13
617.70	1479.85
618.04	1471.39
618.39	1463.27
618.74	1455.74
619.08	1447.60
619.43	1440.09
619.78	1433.25
620.12	1426.15
620.47	1418.80
620.82	1410.74
621.16	1403.41
621.51	1395.72
621.85	1388.14
622.20	1379.67
622.55	1371.31
622.89	1363.45
623.24	1355.88
623.59	1348.50
623.93	1341.04
624.28	1333.98
624.62	1326.53
624.97	1319.34
625.32	1312.61
625.66	1305.61
626.01	1298.63
626.35	1291.18
626.70	1283.54
627.04	1275.83
627.39	1268.06
627.73	1260.73
628.08	1253.96
628.43	1246.79
628.77	1239.57
629.12	1232.12
629.46	1224.95
629.81	1217.59
630.15	1210.56
630.50	1203.32
630.84	1195.27
631.19	1187.38
631.53	1179.91
631.88	1172.47
632.22	1165.05
632.57	1157.96
632.91	1150.66
633.26	1143.19
633.60	1135.90
633.95	1128.89
634.29	1121.85
634.64	1115.32
634.98	1108.03
635.32	1100.99
635.67	1094.43
636.01	1087.89
636.36	1081.22
636.70	1074.79
637.05	1068.39
637.39	1061.96
637.73	1055.62
638.08	1049.77
638.42	1043.85
638.77	1037.50
639.11	1031.01
639.45	1024.67
639.80	1018.08
640.14	1011.65
640.49	1005.28
640.83	999.19
641.17	993.13
641.52	986.94
641.86	980.60
642.20	974.89
642.55	968.67
642.89	962.32
643.23	955.89
643.58	950.14
643.92	944.08
644.26	938.04
644.61	932.09
644.95	926.01
645.29	919.50
645.64	912.89
645.98	906.65
646.32	900.85
646.66	894.88
647.01	889.21
647.35	883.58
647.69	877.79
648.04	872.17
648.38	866.36
648.72	860.46
649.06	854.45
649.41	848.48
649.75	842.49
650.09	836.55
650.43	830.75
650.78	824.66
651.12	818.71
651.46	813.00
651.80	807.24
652.14	801.95
652.49	796.66
652.83	791.53
653.17	785.85
653.51	780.17
653.85	774.75
654.20	769.05
654.54	763.09
654.88	757.32
655.22	751.54
655.56	745.93
655.90	740.37
656.25	735.16
656.59	729.90
656.93	724.88
657.27	719.82
657.61	714.40
657.95	709.33
658.29	704.25
658.64	699.05
658.98	693.83
659.32	688.35
659.66	683.18
660.00	677.98
660.34	673.13
660.68	668.26
661.02	663.25
661.36	658.54
661.70	654.10
662.05	649.82
662.39	645.55
662.73	641.11
663.07	636.91
663.41	632.55
663.75	628.05
664.09	623.52
664.43	619.16
664.77	615.13
665.11	610.87
665.45	606.82
665.79	602.77
666.13	598.61
666.47	594.52
666.81	590.36
667.15	586.28
667.49	582.43
667.83	578.61
668.17	574.82
668.51	570.90
668.85	566.89
669.19	563.10
669.53	559.27
669.87	555.45
670.21	551.75
670.55	548.12
670.89	544.80
671.23	541.45
671.57	537.93
671.91	534.48
672.25	531.07
672.58	527.63
672.92	524.30
673.26	521.26
673.60	518.23
673.94	515.16
674.28	512.27
674.62	509.38
674.96	506.41
675.30	503.55
675.64	500.65
675.97	497.94
676.31	495.12
676.65	492.18
676.99	489.52
677.33	486.72
677.67	483.99
678.01	480.95
678.34	477.99
678.68	475.24
679.02	472.47
679.36	469.75
679.70	467.05
680.04	464.27
680.37	461.43
680.71	458.63
681.05	456.10
681.39	453.41
681.73	450.72
682.06	448.22
682.40	445.70
682.74	443.13
683.08	440.59
683.42	438.02
683.75	435.63
684.09	433.11
684.43	430.69
684.77	428.24
685.10	425.99
685.44	423.75
685.78	421.48
686.12	419.22
686.45	416.98
686.79	414.71
687.13	412.58
687.46	410.43
687.80	408.32
688.14	406.14
688.48	404.14
688.81	401.96
689.15	399.84
689.49	397.71
689.82	395.71
690.16	393.63
690.50	391.71
690.83	389.78
691.17	387.76
691.51	385.83
691.84	383.97
692.18	382.03
692.52	380.05
692.85	378.14
693.19	376.27
693.52	374.42
693.86	372.64
694.20	370.89
694.53	369.11
694.87	367.31
695.21	365.54
695.54	363.74
695.88	362.01
696.21	360.31
696.55	358.62
696.88	356.95
697.22	355.33
697.56	353.65
697.89	352.01
698.23	350.44
698.56	348.90
698.90	347.36
699.23	345.70
699.57	344.19
699.90	342.62
700.24	341.04
700.58	339.54
700.91	338.04
701.25	336.56
701.58	335.19
701.92	333.80
702.25	332.42
702.59	331.06
702.92	329.78
703.26	328.42
703.59	327.14
703.93	325.92
704.26	324.71
704.60	323.46
704.93	322.21
705.26	320.98
705.60	319.82
705.93	318.67
706.27	317.66
706.60	316.59
706.94	315.54
707.27	314.49
707.61	313.43
707.94	312.40
708.27	311.38
708.61	310.30
708.94	309.28
709.28	308.31
709.61	307.31
709.94	306.34
710.28	305.37
710.61	304.42
710.95	303.38
711.28	302.45
711.61	301.50
711.95	300.57
712.28	299.62
712.61	298.67
712.95	297.74
713.28	296.87
713.61	295.99
713.95	295.14
714.28	294.31
714.61	293.48
714.95	292.67
715.28	291.81
715.61	290.96
715.95	290.13
716.28	289.27
716.61	288.49
716.95	287.72
717.28	286.99
717.61	286.23
717.94	285.53
718.28	284.75
718.61	284.09
718.94	283.46
719.27	282.84
719.61	282.20
719.94	281.55
720.27	280.88
720.60	280.23
720.94	279.57
721.27	278.96
721.60	278.39
721.93	277.82
722.27	277.31
722.60	276.78
722.93	276.24
723.26	275.73
723.59	275.19
723.93	274.63
724.26	274.07
724.59	273.53
724.92	273.03
725.25	272.55
725.59	272.01
725.92	271.51
726.25	270.98
726.58	270.51
726.91	270.03
727.24	269.56
727.57	269.08
727.91	268.61
728.24	268.20
728.57	267.72
728.90	267.24
729.23	266.76
729.56	266.34
729.89	265.90
730.22	265.43
730.55	265.00
730.89	264.57
731.22	264.14
731.55	263.73
731.88	263.28
732.21	262.85
732.54	262.42
732.87	261.96
733.20	261.58
733.53	261.18
733.86	260.77
734.19	260.38
734.52	260.02
734.85	259.72
735.18	259.29
735.51	258.92
735.84	258.55
736.17	258.16
736.50	257.77
736.83	257.52
737.16	257.19
737.49	256.85
737.82	256.49
738.15	256.14
738.48	255.78
738.81	255.43
739.14	255.13
739.47	254.82
739.80	254.53
740.13	254.22
740.46	253.89
740.79	253.60
741.12	253.26
741.45	252.95
741.78	252.60
742.11	252.34
742.44	252.02
742.77	251.71
743.10	251.44
743.43	251.11
743.75	250.71
744.08	250.55
744.41	250.25
744.74	249.99
745.07	249.71
745.40	249.44
745.73	249.21
746.06	248.90
746.39	248.63
746.71	248.33
747.04	248.02
747.37	247.75
747.70	247.53
748.03	247.26
748.36	247.04
748.68	246.77
749.01	246.47
749.34	246.22
749.67	245.99
750.00	245.73
750.33	245.56
750.65	245.33
750.98	244.98
751.31	244.75
751.64	244.52
751.97	244.39
752.29	244.20
752.62	243.95
752.95	243.77
753.28	243.55
753.60	243.39
753.93	243.27
754.26	243.09
754.59	242.87
754.91	242.70
755.24	242.47
755.57	242.31
755.90	242.15
756.22	241.99
756.55	241.78
756.88	241.61
757.20	241.39
757.53	241.24
757.86	241.11
758.19	240.96
758.51	240.83
758.84	240.57
759.17	240.37
759.49	240.27
759.82	240.15
760.15	240.02
760.47	239.85
760.80	239.67
761.13	239.55
761.45	239.38
761.78	239.25
762.11	239.12
762.43	238.98
762.76	238.82
763.08	238.70
763.41	238.59
763.74	238.47
764.06	238.38
764.39	238.25
764.71	238.08
765.04	237.97
765.37	237.84
765.69	237.74
766.02	237.64
766.34	237.47
766.67	237.32
767.00	237.23
767.32	237.19
767.65	237.17
767.97	237.06
768.30	236.96
768.62	236.83
768.95	236.76
769.27	236.64
769.60	236.60
769.92	236.49
770.25	236.37
770.57	236.25
770.90	236.14
771.22	236.04
771.55	235.98
771.87	235.88
772.20	235.81
772.52	235.81
772.85	235.83
773.17	235.76
773.50	235.66
773.82	235.57
774.15	235.41
774.47	235.25
774.80	235.16
775.12	235.05
775.45	235.01
775.77	234.92
776.09	234.84
776.42	234.73
776.74	234.68
777.07	234.61
777.39	234.55
777.72	234.48
778.04	234.39
778.36	234.32
778.69	234.24
779.01	234.18
779.33	234.01
779.66	233.83
779.98	233.73
780.31	233.66
780.63	233.61
780.95	233.57
781.28	233.50
781.60	233.39
781.92	233.35
782.25	233.24
782.57	233.16
782.89	233.08
783.22	233.00
783.54	232.87
783.86	232.82
784.19	232.72
784.51	232.64
784.83	232.57
785.16	232.47
785.48	232.41
785.80	232.31
786.12	232.29
786.45	232.19
786.77	232.16
787.09	232.09
