SpectraSuite Data File
++++++++++++++++++++++++++++++++++++
Date: Fri Feb 01 15:58:12 EST 2013
User: group
Dark Spectrum Present: No
Reference Spectrum Present: No
Number of Sampled Component Spectra: 1
Spectrometers: USB2E7196
Integration Time (usec): 35000 (USB2E7196)
Spectra Averaged: 100 (USB2E7196)
Boxcar Smoothing: 10 (USB2E7196)
Correct for Electrical Dark: No (USB2E7196)
Strobe/Lamp Enabled: No (USB2E7196)
Correct for Detector Non-linearity: No (USB2E7196)
Correct for Stray Light: No (USB2E7196)
Number of Pixels in Processed Spectrum: 2048
>>>>>Begin Processed Spectral Data<<<<<
339.09	0.00
339.48	214.53
339.86	216.20
340.24	216.80
340.63	218.68
341.01	221.35
341.39	221.78
341.78	222.41
342.16	223.96
342.54	224.78
342.93	212.91
343.31	223.68
343.69	224.21
344.07	224.67
344.46	225.12
344.84	225.51
345.22	225.78
345.60	226.06
345.99	226.25
346.37	226.38
346.75	226.44
347.13	226.51
347.52	226.56
347.90	226.62
348.28	226.64
348.66	226.72
349.05	226.73
349.43	226.78
349.81	226.83
350.19	226.89
350.57	226.96
350.96	227.03
351.34	227.10
351.72	227.17
352.10	227.25
352.48	227.33
352.87	227.37
353.25	227.43
353.63	227.45
354.01	227.54
354.39	227.65
354.77	227.76
355.15	227.86
355.54	227.93
355.92	227.99
356.30	228.07
356.68	228.17
357.06	228.24
357.44	228.30
357.82	228.38
358.20	228.45
358.58	228.51
358.97	228.57
359.35	228.66
359.73	228.75
360.11	228.82
360.49	228.91
360.87	228.98
361.25	229.02
361.63	229.11
362.01	229.14
362.39	229.15
362.77	229.19
363.15	229.21
363.53	229.23
363.91	229.25
364.29	229.25
364.67	229.17
365.05	229.17
365.43	229.18
365.81	229.17
366.19	229.23
366.57	229.27
366.95	229.28
367.33	229.25
367.71	229.25
368.09	229.26
368.47	229.21
368.85	229.17
369.23	229.20
369.61	229.14
369.99	229.14
370.37	229.10
370.75	229.11
371.13	229.02
371.51	228.98
371.89	228.94
372.27	228.91
372.65	228.85
373.03	228.83
373.41	228.77
373.78	228.74
374.16	228.66
374.54	228.56
374.92	228.49
375.30	228.41
375.68	228.32
376.06	228.25
376.44	228.20
376.82	228.12
377.19	228.01
377.57	227.92
377.95	227.81
378.33	227.75
378.71	227.64
379.09	227.59
379.47	227.55
379.84	227.46
380.22	227.39
380.60	227.32
380.98	227.20
381.36	227.13
381.73	227.03
382.11	226.94
382.49	226.91
382.87	226.82
383.25	226.79
383.62	226.85
384.00	226.77
384.38	226.70
384.76	226.67
385.13	226.67
385.51	226.61
385.89	226.55
386.27	226.50
386.64	226.46
387.02	226.43
387.40	226.38
387.78	226.33
388.15	226.31
388.53	226.27
388.91	226.27
389.29	226.22
389.66	226.19
390.04	226.16
390.42	226.13
390.79	226.14
391.17	226.12
391.55	226.00
391.92	226.00
392.30	226.02
392.68	226.02
393.05	226.00
393.43	226.01
393.81	226.03
394.18	226.05
394.56	226.06
394.94	226.10
395.31	226.11
395.69	226.21
396.06	226.25
396.44	226.31
396.82	226.37
397.19	226.50
397.57	226.57
397.95	226.62
398.32	226.67
398.70	226.72
399.07	226.77
399.45	226.88
399.82	226.93
400.20	226.99
400.58	227.07
400.95	227.12
401.33	227.27
401.70	227.46
402.08	227.56
402.45	227.67
402.83	227.80
403.20	227.93
403.58	227.99
403.95	228.10
404.33	228.25
404.71	228.35
405.08	228.48
405.46	228.60
405.83	228.78
406.21	228.94
406.58	229.10
406.96	229.29
407.33	229.43
407.70	229.65
408.08	229.92
408.45	230.11
408.83	230.39
409.20	230.57
409.58	230.73
409.95	231.00
410.33	231.25
410.70	231.48
411.08	231.74
411.45	232.10
411.82	232.41
412.20	232.73
412.57	233.17
412.95	233.49
413.32	233.90
413.69	234.31
414.07	234.68
414.44	235.15
414.82	235.60
415.19	236.14
415.56	236.70
415.94	237.24
416.31	237.90
416.68	238.46
417.06	239.18
417.43	239.88
417.81	240.61
418.18	241.40
418.55	242.20
418.93	243.06
419.30	243.92
419.67	244.86
420.04	245.84
420.42	246.84
420.79	247.98
421.16	249.09
421.54	250.25
421.91	251.49
422.28	252.75
422.66	254.09
423.03	255.41
423.40	256.73
423.77	258.10
424.15	259.51
424.52	261.01
424.89	262.59
425.26	264.10
425.64	265.55
426.01	267.11
426.38	268.78
426.75	270.52
427.13	272.26
427.50	274.07
427.87	275.91
428.24	277.74
428.61	279.51
428.99	281.47
429.36	283.56
429.73	285.65
430.10	287.68
430.47	289.73
430.85	291.80
431.22	294.03
431.59	296.39
431.96	298.63
432.33	301.14
432.70	303.50
433.08	306.29
433.45	308.91
433.82	311.50
434.19	314.39
434.56	317.15
434.93	319.77
435.30	322.38
435.68	325.26
436.05	328.08
436.42	330.85
436.79	333.38
437.16	336.10
437.53	338.90
437.90	341.69
438.27	344.40
438.64	347.26
439.01	349.84
439.38	352.14
439.75	354.27
440.13	356.70
440.50	359.04
440.87	360.92
441.24	362.89
441.61	365.02
441.98	366.50
442.35	368.28
442.72	370.13
443.09	371.93
443.46	372.90
443.83	373.48
444.20	373.98
444.57	374.82
444.94	375.12
445.31	375.51
445.68	375.88
446.05	375.99
446.42	375.59
446.79	375.18
447.16	374.75
447.53	374.47
447.90	373.35
448.27	372.20
448.64	370.62
449.01	369.49
449.37	367.57
449.74	365.70
450.11	363.47
450.48	360.99
450.85	358.49
451.22	356.41
451.59	354.42
451.96	352.46
452.33	349.86
452.70	347.48
453.07	344.60
453.43	341.69
453.80	338.95
454.17	336.28
454.54	333.74
454.91	330.98
455.28	328.29
455.65	325.82
456.02	323.38
456.38	321.24
456.75	318.58
457.12	316.34
457.49	314.11
457.86	311.93
458.23	310.10
458.59	308.03
458.96	305.92
459.33	304.07
459.70	302.25
460.07	300.73
460.43	299.01
460.80	297.43
461.17	295.99
461.54	294.46
461.91	293.05
462.27	291.60
462.64	290.33
463.01	289.00
463.38	287.69
463.74	286.34
464.11	285.18
464.48	284.21
464.85	283.09
465.21	282.21
465.58	281.31
465.95	280.22
466.32	279.35
466.68	278.44
467.05	277.59
467.42	276.69
467.78	275.76
468.15	274.88
468.52	274.21
468.88	273.36
469.25	272.58
469.62	271.93
469.98	271.29
470.35	270.66
470.72	270.07
471.08	269.42
471.45	268.87
471.82	268.32
472.18	267.68
472.55	267.25
472.92	266.74
473.28	266.27
473.65	265.82
474.02	265.37
474.38	265.01
474.75	264.67
475.11	264.33
475.48	264.06
475.85	263.85
476.21	263.60
476.58	263.41
476.94	263.29
477.31	263.17
477.67	263.01
478.04	262.91
478.41	262.82
478.77	262.86
479.14	262.83
479.50	262.82
479.87	262.88
480.23	262.94
480.60	262.97
480.96	263.07
481.33	263.27
481.69	263.47
482.06	263.67
482.42	263.85
482.79	264.11
483.15	264.45
483.52	264.81
483.88	265.17
484.25	265.53
484.61	265.96
484.98	266.39
485.34	266.95
485.71	267.55
486.07	268.18
486.44	268.74
486.80	269.45
487.17	270.20
487.53	271.01
487.90	271.89
488.26	272.84
488.62	273.84
488.99	274.81
489.35	275.84
489.72	276.93
490.08	278.18
490.44	279.45
490.81	280.76
491.17	282.09
491.54	283.57
491.90	285.14
492.26	286.79
492.63	288.54
492.99	290.27
493.36	292.18
493.72	294.23
494.08	296.32
494.45	298.55
494.81	300.93
495.17	303.40
495.54	305.98
495.90	308.68
496.26	311.46
496.63	314.45
496.99	317.57
497.35	320.85
497.72	324.26
498.08	327.79
498.44	331.42
498.80	335.39
499.17	339.49
499.53	343.65
499.89	348.00
500.26	352.51
500.62	357.26
500.98	362.23
501.34	367.28
501.71	372.65
502.07	378.09
502.43	383.67
502.79	389.48
503.16	395.55
503.52	401.82
503.88	408.28
504.24	414.94
504.60	421.87
504.97	428.99
505.33	436.27
505.69	443.95
506.05	451.74
506.41	459.61
506.78	467.69
507.14	476.20
507.50	484.96
507.86	493.99
508.22	503.21
508.59	512.37
508.95	522.02
509.31	531.81
509.67	541.89
510.03	552.22
510.39	562.81
510.75	573.62
511.12	584.58
511.48	595.84
511.84	607.25
512.20	618.76
512.56	630.78
512.92	643.02
513.28	655.40
513.64	667.90
514.00	680.64
514.37	693.60
514.73	706.61
515.09	719.63
515.45	732.83
515.81	746.32
516.17	760.39
516.53	774.42
516.89	788.61
517.25	802.81
517.61	817.25
517.97	831.68
518.33	846.09
518.69	860.85
519.05	875.85
519.41	891.02
519.77	906.45
520.13	921.78
520.49	937.12
520.85	952.59
521.21	968.32
521.57	984.60
521.93	1000.28
522.29	1016.69
522.65	1032.87
523.01	1049.10
523.37	1065.12
523.73	1081.18
524.09	1097.25
524.45	1113.51
524.81	1130.08
525.17	1146.93
525.53	1163.63
525.89	1180.48
526.25	1197.30
526.61	1213.65
526.97	1230.42
527.33	1246.91
527.68	1263.52
528.04	1279.97
528.40	1296.46
528.76	1313.50
529.12	1329.96
529.48	1346.85
529.84	1362.75
530.20	1379.45
530.56	1396.49
530.91	1414.01
531.27	1430.63
531.63	1447.09
531.99	1463.65
532.35	1479.56
532.71	1495.26
533.07	1511.62
533.42	1527.52
533.78	1543.44
534.14	1559.67
534.50	1574.99
534.86	1590.91
535.21	1606.07
535.57	1621.93
535.93	1637.32
536.29	1652.12
536.65	1667.16
537.00	1681.91
537.36	1697.16
537.72	1711.59
538.08	1725.99
538.44	1739.59
538.79	1753.52
539.15	1767.18
539.51	1780.87
539.87	1795.17
540.22	1808.95
540.58	1822.72
540.94	1836.05
541.29	1849.03
541.65	1861.65
542.01	1874.83
542.37	1886.98
542.72	1899.27
543.08	1910.96
543.44	1923.45
543.79	1934.56
544.15	1945.37
544.51	1956.86
544.87	1967.82
545.22	1978.56
545.58	1988.63
545.94	1998.38
546.29	2008.08
546.65	2017.83
547.01	2027.15
547.36	2035.95
547.72	2044.40
548.07	2052.02
548.43	2060.09
548.79	2068.05
549.14	2075.56
549.50	2082.80
549.86	2090.58
550.21	2097.92
550.57	2105.06
550.92	2111.46
551.28	2118.45
551.64	2125.61
551.99	2132.18
552.35	2138.31
552.70	2144.53
553.06	2150.47
553.41	2156.87
553.77	2163.01
554.13	2169.13
554.48	2175.25
554.84	2180.65
555.19	2185.94
555.55	2191.20
555.90	2195.70
556.26	2200.35
556.61	2205.19
556.97	2209.51
557.32	2213.61
557.68	2217.72
558.03	2222.08
558.39	2225.93
558.74	2230.72
559.10	2234.61
559.45	2238.24
559.81	2242.61
560.16	2246.34
560.52	2249.61
560.87	2252.86
561.23	2255.57
561.58	2258.60
561.94	2261.03
562.29	2263.51
562.64	2266.10
563.00	2268.73
563.35	2272.12
563.71	2275.39
564.06	2278.57
564.42	2281.37
564.77	2283.79
565.12	2286.01
565.48	2287.92
565.83	2289.74
566.19	2290.85
566.54	2291.80
566.89	2292.84
567.25	2293.35
567.60	2294.63
567.96	2296.41
568.31	2297.45
568.66	2298.60
569.02	2299.10
569.37	2299.60
569.72	2300.44
570.08	2300.60
570.43	2300.54
570.78	2300.04
571.14	2298.64
571.49	2297.24
571.84	2296.93
572.20	2295.75
572.55	2294.71
572.90	2293.20
573.26	2291.83
573.61	2290.23
573.96	2288.35
574.31	2285.55
574.67	2282.55
575.02	2278.99
575.37	2275.46
575.72	2271.58
576.08	2268.31
576.43	2265.05
576.78	2261.19
577.13	2257.97
577.49	2254.90
577.84	2251.50
578.19	2247.85
578.54	2244.11
578.90	2239.99
579.25	2234.38
579.60	2229.44
579.95	2224.61
580.30	2219.54
580.66	2214.43
581.01	2209.52
581.36	2204.68
581.71	2200.53
582.06	2196.17
582.42	2191.82
582.77	2186.62
583.12	2182.05
583.47	2177.30
583.82	2172.18
584.17	2166.97
584.53	2161.39
584.88	2155.83
585.23	2150.18
585.58	2144.69
585.93	2139.27
586.28	2134.46
586.63	2129.47
586.98	2124.49
587.34	2119.64
587.69	2114.82
588.04	2109.49
588.39	2103.88
588.74	2097.48
589.09	2091.34
589.44	2084.45
589.79	2078.34
590.14	2072.86
590.49	2066.30
590.84	2059.91
591.19	2054.05
591.54	2047.61
591.89	2040.26
592.25	2033.52
592.60	2026.24
592.95	2018.60
593.30	2011.20
593.65	2003.52
594.00	1996.51
594.35	1989.30
594.70	1981.31
595.05	1974.06
595.40	1966.79
595.75	1959.23
596.10	1952.94
596.45	1946.21
596.80	1940.24
597.15	1933.71
597.50	1926.55
597.85	1920.19
598.19	1913.45
598.54	1906.05
598.89	1899.36
599.24	1893.59
599.59	1886.73
599.94	1880.53
600.29	1874.23
600.64	1867.75
600.99	1860.25
601.34	1853.43
601.69	1846.48
602.04	1839.74
602.39	1832.47
602.74	1825.65
603.08	1818.89
603.43	1812.17
603.78	1804.81
604.13	1797.52
604.48	1790.19
604.83	1783.36
605.18	1776.16
605.53	1768.34
605.87	1760.55
606.22	1753.40
606.57	1745.37
606.92	1738.13
607.27	1730.89
607.62	1723.93
607.96	1716.69
608.31	1710.24
608.66	1702.62
609.01	1695.09
609.36	1687.43
609.70	1679.48
610.05	1671.45
610.40	1663.76
610.75	1655.48
611.10	1647.83
611.44	1639.41
611.79	1631.33
612.14	1622.61
612.49	1613.52
612.83	1605.06
613.18	1596.87
613.53	1588.80
613.88	1580.23
614.22	1571.87
614.57	1563.37
614.92	1555.37
615.27	1547.70
615.61	1539.32
615.96	1531.34
616.31	1523.62
616.65	1516.32
617.00	1508.63
617.35	1501.00
617.70	1492.58
618.04	1484.04
618.39	1475.67
618.74	1468.08
619.08	1459.78
619.43	1452.29
619.78	1445.49
620.12	1438.36
620.47	1430.82
620.82	1422.64
621.16	1415.30
621.51	1407.76
621.85	1400.09
622.20	1391.61
622.55	1383.23
622.89	1375.39
623.24	1367.74
623.59	1360.44
623.93	1352.88
624.28	1345.66
624.62	1338.06
624.97	1331.00
625.32	1324.31
625.66	1317.46
626.01	1310.28
626.35	1302.90
626.70	1295.19
627.04	1287.52
627.39	1279.65
627.73	1272.30
628.08	1265.30
628.43	1257.96
628.77	1250.57
629.12	1243.04
629.46	1235.81
629.81	1228.47
630.15	1221.23
630.50	1213.80
630.84	1205.57
631.19	1197.65
631.53	1190.16
631.88	1182.67
632.22	1175.08
632.57	1167.73
632.91	1160.03
633.26	1152.57
633.60	1145.16
633.95	1138.06
634.29	1130.93
634.64	1124.30
634.98	1116.97
635.32	1109.90
635.67	1103.35
636.01	1096.75
636.36	1089.94
636.70	1083.42
637.05	1076.85
637.39	1070.35
637.73	1063.80
638.08	1057.92
638.42	1051.91
638.77	1045.43
639.11	1038.79
639.45	1032.37
639.80	1025.75
640.14	1019.48
640.49	1012.96
640.83	1006.68
641.17	1000.37
641.52	994.00
641.86	987.53
642.20	981.59
642.55	975.30
642.89	968.81
643.23	962.24
643.58	956.36
643.92	950.26
644.26	944.13
644.61	938.14
644.95	932.13
645.29	925.55
645.64	918.70
645.98	912.40
646.32	906.57
646.66	900.51
647.01	894.61
647.35	888.81
647.69	882.95
648.04	877.45
648.38	871.61
648.72	865.63
649.06	859.56
649.41	853.78
649.75	847.80
650.09	841.88
650.43	836.08
650.78	830.04
651.12	824.03
651.46	818.30
651.80	812.57
652.14	807.25
652.49	801.89
652.83	796.82
653.17	791.04
653.51	785.28
653.85	779.94
654.20	774.40
654.54	768.42
654.88	762.73
655.22	756.82
655.56	751.19
655.90	745.84
656.25	740.60
656.59	735.25
656.93	730.10
657.27	724.88
657.61	719.47
657.95	714.37
658.29	709.27
658.64	704.12
658.98	698.81
659.32	693.29
659.66	688.10
660.00	682.82
660.34	677.98
660.68	673.04
661.02	667.97
661.36	663.20
661.70	658.70
662.05	654.35
662.39	650.05
662.73	645.62
663.07	641.21
663.41	636.78
663.75	632.23
664.09	627.66
664.43	623.27
664.77	619.18
665.11	614.94
665.45	610.86
665.79	606.74
666.13	602.58
666.47	598.46
666.81	594.31
667.15	590.18
667.49	586.24
667.83	582.44
668.17	578.51
668.51	574.42
668.85	570.43
669.19	566.58
669.53	562.68
669.87	558.76
670.21	555.09
670.55	551.41
670.89	548.02
671.23	544.58
671.57	541.07
671.91	537.53
672.25	534.05
672.58	530.55
672.92	527.13
673.26	523.93
673.60	520.81
673.94	517.63
674.28	514.76
674.62	511.87
674.96	508.80
675.30	505.88
675.64	502.96
675.97	500.21
676.31	497.36
676.65	494.40
676.99	491.72
677.33	488.80
677.67	485.97
678.01	482.93
678.34	480.04
678.68	477.20
679.02	474.38
679.36	471.57
679.70	468.77
680.04	466.05
680.37	463.21
680.71	460.41
681.05	457.86
681.39	455.15
681.73	452.47
682.06	449.93
682.40	447.40
682.74	444.89
683.08	442.33
683.42	439.72
683.75	437.29
684.09	434.77
684.43	432.27
684.77	429.85
685.10	427.47
685.44	425.15
685.78	422.84
686.12	420.58
686.45	418.31
686.79	416.08
687.13	413.87
687.46	411.70
687.80	409.53
688.14	407.33
688.48	405.20
688.81	402.94
689.15	400.77
689.49	398.63
689.82	396.59
690.16	394.50
690.50	392.58
690.83	390.63
691.17	388.61
691.51	386.78
691.84	384.92
692.18	383.03
692.52	381.04
692.85	379.10
693.19	377.19
693.52	375.36
693.86	373.52
694.20	371.69
694.53	369.91
694.87	368.07
695.21	366.24
695.54	364.43
695.88	362.70
696.21	360.99
696.55	359.29
696.88	357.59
697.22	355.94
697.56	354.30
697.89	352.65
698.23	351.04
698.56	349.39
698.90	347.79
699.23	346.11
699.57	344.55
699.90	343.00
700.24	341.54
700.58	340.00
700.91	338.50
701.25	337.06
701.58	335.67
701.92	334.33
702.25	332.94
702.59	331.57
702.92	330.25
703.26	328.96
703.59	327.68
703.93	326.51
704.26	325.26
704.60	323.94
704.93	322.67
705.26	321.45
705.60	320.31
705.93	319.14
706.27	318.12
706.60	317.08
706.94	316.02
707.27	314.88
707.61	313.82
707.94	312.81
708.27	311.73
708.61	310.66
708.94	309.68
709.28	308.74
709.61	307.75
709.94	306.80
710.28	305.80
710.61	304.78
710.95	303.72
711.28	302.78
711.61	301.86
711.95	300.92
712.28	299.96
712.61	298.95
712.95	298.01
713.28	297.14
713.61	296.25
713.95	295.37
714.28	294.47
714.61	293.60
714.95	292.70
715.28	291.87
715.61	291.01
715.95	290.13
716.28	289.26
716.61	288.46
716.95	287.66
717.28	286.91
717.61	286.17
717.94	285.40
718.28	284.61
718.61	283.86
718.94	283.16
719.27	282.52
719.61	281.87
719.94	281.24
720.27	280.54
720.60	279.83
720.94	279.17
721.27	278.64
721.60	278.09
721.93	277.54
722.27	276.98
722.60	276.46
722.93	275.87
723.26	275.33
723.59	274.73
723.93	274.20
724.26	273.63
724.59	273.08
724.92	272.60
725.25	272.08
725.59	271.57
725.92	271.12
726.25	270.58
726.58	270.11
726.91	269.62
727.24	269.12
727.57	268.63
727.91	268.15
728.24	267.64
728.57	267.14
728.90	266.68
729.23	266.16
729.56	265.70
729.89	265.24
730.22	264.77
730.55	264.33
730.89	263.89
731.22	263.44
731.55	263.01
731.88	262.54
732.21	262.17
732.54	261.76
732.87	261.26
733.20	260.91
733.53	260.52
733.86	260.13
734.19	259.75
734.52	259.39
734.85	259.08
735.18	258.67
735.51	258.28
735.84	257.90
736.17	257.59
736.50	257.19
736.83	256.96
737.16	256.61
737.49	256.29
737.82	255.92
738.15	255.62
738.48	255.24
738.81	254.92
739.14	254.56
739.47	254.25
739.80	253.97
740.13	253.61
740.46	253.27
740.79	252.94
741.12	252.62
741.45	252.32
741.78	251.97
742.11	251.68
742.44	251.38
742.77	251.08
743.10	250.76
743.43	250.48
743.75	250.10
744.08	249.95
744.41	249.70
744.74	249.40
745.07	249.07
745.40	248.83
745.73	248.60
746.06	248.32
746.39	248.05
746.71	247.79
747.04	247.53
747.37	247.27
747.70	247.03
748.03	246.79
748.36	246.55
748.68	246.28
749.01	246.07
749.34	245.83
749.67	245.61
750.00	245.37
750.33	245.21
750.65	244.99
750.98	244.65
751.31	244.41
751.64	244.21
751.97	244.07
752.29	243.88
752.62	243.61
752.95	243.40
753.28	243.19
753.60	242.95
753.93	242.77
754.26	242.60
754.59	242.36
754.91	242.13
755.24	241.93
755.57	241.74
755.90	241.51
756.22	241.33
756.55	241.17
756.88	241.00
757.20	240.77
757.53	240.56
757.86	240.41
758.19	240.24
758.51	240.09
758.84	239.89
759.17	239.70
759.49	239.56
759.82	239.41
760.15	239.28
760.47	239.17
760.80	239.02
761.13	238.87
761.45	238.76
761.78	238.64
762.11	238.54
762.43	238.39
762.76	238.26
763.08	238.14
763.41	237.98
763.74	237.83
764.06	237.72
764.39	237.58
764.71	237.44
765.04	237.28
765.37	237.15
765.69	237.04
766.02	236.92
766.34	236.78
766.67	236.69
767.00	236.59
767.32	236.50
767.65	236.43
767.97	236.34
768.30	236.20
768.62	236.10
768.95	235.96
769.27	235.90
769.60	235.86
769.92	235.72
770.25	235.63
770.57	235.52
770.90	235.40
771.22	235.34
771.55	235.23
771.87	235.17
772.20	235.05
772.52	235.03
772.85	235.08
773.17	234.99
773.50	234.88
773.82	234.79
774.15	234.65
774.47	234.51
774.80	234.39
775.12	234.32
775.45	234.24
775.77	234.15
776.09	234.06
776.42	233.92
776.74	233.87
777.07	233.75
777.39	233.68
777.72	233.62
778.04	233.57
778.36	233.50
778.69	233.45
779.01	233.43
779.33	233.28
779.66	233.09
779.98	233.04
780.31	232.95
780.63	232.88
780.95	232.85
781.28	232.79
781.60	232.72
781.92	232.62
782.25	232.55
782.57	232.49
782.89	232.41
783.22	232.35
783.54	232.29
783.86	232.28
784.19	232.22
784.51	232.18
784.83	232.10
785.16	232.00
785.48	231.93
785.80	231.87
786.12	231.84
786.45	231.79
786.77	231.71
787.09	231.65
