SpectraSuite Data File
++++++++++++++++++++++++++++++++++++
Date: Fri Feb 01 16:37:19 EST 2013
User: group
Dark Spectrum Present: No
Reference Spectrum Present: No
Number of Sampled Component Spectra: 1
Spectrometers: USB2E7196
Integration Time (usec): 35000 (USB2E7196)
Spectra Averaged: 100 (USB2E7196)
Boxcar Smoothing: 10 (USB2E7196)
Correct for Electrical Dark: No (USB2E7196)
Strobe/Lamp Enabled: No (USB2E7196)
Correct for Detector Non-linearity: No (USB2E7196)
Correct for Stray Light: No (USB2E7196)
Number of Pixels in Processed Spectrum: 2048
>>>>>Begin Processed Spectral Data<<<<<
339.09	0.00
339.48	213.67
339.86	215.29
340.24	217.06
340.63	218.14
341.01	221.58
341.39	220.87
341.78	223.00
342.16	223.55
342.54	223.53
342.93	212.41
343.31	223.16
343.69	223.72
344.07	224.19
344.46	224.59
344.84	225.00
345.22	225.19
345.60	225.46
345.99	225.63
346.37	225.74
346.75	225.87
347.13	225.96
347.52	226.06
347.90	226.14
348.28	226.16
348.66	226.20
349.05	226.21
349.43	226.24
349.81	226.31
350.19	226.31
350.57	226.39
350.96	226.45
351.34	226.54
351.72	226.60
352.10	226.68
352.48	226.74
352.87	226.80
353.25	226.89
353.63	226.92
354.01	227.00
354.39	227.07
354.77	227.15
355.15	227.23
355.54	227.27
355.92	227.31
356.30	227.40
356.68	227.52
357.06	227.57
357.44	227.63
357.82	227.68
358.20	227.79
358.58	227.84
358.97	227.91
359.35	227.96
359.73	228.05
360.11	228.12
360.49	228.18
360.87	228.19
361.25	228.26
361.63	228.33
362.01	228.32
362.39	228.38
362.77	228.38
363.15	228.39
363.53	228.43
363.91	228.47
364.29	228.48
364.67	228.40
365.05	228.40
365.43	228.44
365.81	228.47
366.19	228.49
366.57	228.49
366.95	228.49
367.33	228.46
367.71	228.43
368.09	228.43
368.47	228.41
368.85	228.40
369.23	228.39
369.61	228.35
369.99	228.36
370.37	228.34
370.75	228.38
371.13	228.33
371.51	228.28
371.89	228.23
372.27	228.16
372.65	228.14
373.03	228.11
373.41	228.01
373.78	227.95
374.16	227.84
374.54	227.78
374.92	227.73
375.30	227.66
375.68	227.59
376.06	227.54
376.44	227.49
376.82	227.40
377.19	227.33
377.57	227.23
377.95	227.17
378.33	227.09
378.71	226.98
379.09	226.94
379.47	226.88
379.84	226.80
380.22	226.75
380.60	226.65
380.98	226.57
381.36	226.50
381.73	226.42
382.11	226.40
382.49	226.34
382.87	226.23
383.25	226.19
383.62	226.25
384.00	226.16
384.38	226.10
384.76	226.10
385.13	226.05
385.51	226.03
385.89	225.94
386.27	225.88
386.64	225.83
387.02	225.79
387.40	225.76
387.78	225.75
388.15	225.73
388.53	225.69
388.91	225.67
389.29	225.67
389.66	225.67
390.04	225.61
390.42	225.58
390.79	225.57
391.17	225.55
391.55	225.44
391.92	225.43
392.30	225.45
392.68	225.39
393.05	225.41
393.43	225.44
393.81	225.46
394.18	225.47
394.56	225.45
394.94	225.45
395.31	225.47
395.69	225.50
396.06	225.49
396.44	225.51
396.82	225.53
397.19	225.61
397.57	225.65
397.95	225.71
398.32	225.74
398.70	225.82
399.07	225.89
399.45	225.93
399.82	226.01
400.20	226.05
400.58	226.17
400.95	226.17
401.33	226.26
401.70	226.40
402.08	226.48
402.45	226.58
402.83	226.72
403.20	226.80
403.58	226.90
403.95	227.04
404.33	227.18
404.71	227.36
405.08	227.53
405.46	227.62
405.83	227.75
406.21	227.91
406.58	228.08
406.96	228.21
407.33	228.37
407.70	228.55
408.08	228.81
408.45	229.02
408.83	229.26
409.20	229.45
409.58	229.65
409.95	229.91
410.33	230.19
410.70	230.40
411.08	230.69
411.45	230.97
411.82	231.28
412.20	231.61
412.57	231.96
412.95	232.24
413.32	232.66
413.69	233.06
414.07	233.48
414.44	233.91
414.82	234.39
415.19	234.91
415.56	235.47
415.94	236.00
416.31	236.61
416.68	237.22
417.06	237.92
417.43	238.59
417.81	239.34
418.18	240.11
418.55	240.97
418.93	241.86
419.30	242.76
419.67	243.67
420.04	244.63
420.42	245.64
420.79	246.87
421.16	248.03
421.54	249.23
421.91	250.47
422.28	251.74
422.66	253.09
423.03	254.39
423.40	255.66
423.77	257.04
424.15	258.44
424.52	259.92
424.89	261.49
425.26	263.03
425.64	264.47
426.01	266.07
426.38	267.70
426.75	269.33
427.13	271.05
427.50	272.84
427.87	274.72
428.24	276.56
428.61	278.25
428.99	280.15
429.36	282.20
429.73	284.21
430.10	286.19
430.47	288.21
430.85	290.33
431.22	292.57
431.59	294.98
431.96	297.20
432.33	299.66
432.70	302.06
433.08	304.82
433.45	307.45
433.82	310.02
434.19	312.90
434.56	315.68
434.93	318.32
435.30	320.95
435.68	323.78
436.05	326.57
436.42	329.34
436.79	331.86
437.16	334.56
437.53	337.41
437.90	340.24
438.27	342.98
438.64	345.74
439.01	348.36
439.38	350.52
439.75	352.73
440.13	355.19
440.50	357.46
440.87	359.32
441.24	361.24
441.61	363.37
441.98	364.82
442.35	366.64
442.72	368.52
443.09	370.32
443.46	371.35
443.83	371.96
444.20	372.45
444.57	373.27
444.94	373.56
445.31	373.86
445.68	374.17
446.05	374.24
446.42	373.86
446.79	373.41
447.16	372.99
447.53	372.63
447.90	371.52
448.27	370.39
448.64	368.84
449.01	367.71
449.37	365.74
449.74	363.86
450.11	361.61
450.48	359.09
450.85	356.56
451.22	354.42
451.59	352.40
451.96	350.47
452.33	347.89
452.70	345.55
453.07	342.74
453.43	339.88
453.80	337.12
454.17	334.50
454.54	331.99
454.91	329.32
455.28	326.68
455.65	324.18
456.02	321.77
456.38	319.63
456.75	316.99
457.12	314.80
457.49	312.62
457.86	310.44
458.23	308.59
458.59	306.57
458.96	304.51
459.33	302.67
459.70	300.79
460.07	299.28
460.43	297.58
460.80	295.99
461.17	294.53
461.54	293.04
461.91	291.63
462.27	290.19
462.64	288.92
463.01	287.57
463.38	286.30
463.74	284.97
464.11	283.80
464.48	282.78
464.85	281.65
465.21	280.78
465.58	279.90
465.95	278.83
466.32	277.92
466.68	277.01
467.05	276.12
467.42	275.30
467.78	274.42
468.15	273.57
468.52	272.91
468.88	272.07
469.25	271.35
469.62	270.75
469.98	270.12
470.35	269.53
470.72	268.95
471.08	268.31
471.45	267.78
471.82	267.29
472.18	266.72
472.55	266.34
472.92	265.84
473.28	265.40
473.65	264.97
474.02	264.58
474.38	264.22
474.75	263.96
475.11	263.62
475.48	263.39
475.85	263.20
476.21	262.99
476.58	262.86
476.94	262.72
477.31	262.55
477.67	262.40
478.04	262.29
478.41	262.25
478.77	262.32
479.14	262.26
479.50	262.25
479.87	262.35
480.23	262.40
480.60	262.49
480.96	262.59
481.33	262.79
481.69	262.99
482.06	263.19
482.42	263.40
482.79	263.63
483.15	263.90
483.52	264.23
483.88	264.57
484.25	264.94
484.61	265.36
484.98	265.86
485.34	266.45
485.71	267.03
486.07	267.66
486.44	268.21
486.80	268.92
487.17	269.63
487.53	270.41
487.90	271.28
488.26	272.22
488.62	273.19
488.99	274.19
489.35	275.21
489.72	276.36
490.08	277.56
490.44	278.82
490.81	280.15
491.17	281.53
491.54	283.04
491.90	284.60
492.26	286.24
492.63	287.96
492.99	289.73
493.36	291.63
493.72	293.66
494.08	295.78
494.45	298.01
494.81	300.41
495.17	302.86
495.54	305.46
495.90	308.11
496.26	310.93
496.63	313.86
496.99	316.99
497.35	320.21
497.72	323.65
498.08	327.14
498.44	330.83
498.80	334.75
499.17	338.79
499.53	342.95
499.89	347.35
500.26	351.87
500.62	356.52
500.98	361.50
501.34	366.59
501.71	371.91
502.07	377.35
502.43	382.95
502.79	388.77
503.16	394.79
503.52	401.09
503.88	407.54
504.24	414.19
504.60	421.11
504.97	428.21
505.33	435.50
505.69	443.23
506.05	451.00
506.41	458.87
506.78	467.04
507.14	475.49
507.50	484.15
507.86	493.16
508.22	502.39
508.59	511.58
508.95	521.14
509.31	531.00
509.67	541.11
510.03	551.40
510.39	561.95
510.75	572.67
511.12	583.54
511.48	594.79
511.84	606.23
512.20	617.74
512.56	629.74
512.92	641.90
513.28	654.24
513.64	666.70
514.00	679.39
514.37	692.30
514.73	705.29
515.09	718.32
515.45	731.56
515.81	745.11
516.17	759.06
516.53	773.21
516.89	787.30
517.25	801.44
517.61	815.79
517.97	830.18
518.33	844.59
518.69	859.30
519.05	874.23
519.41	889.34
519.77	904.74
520.13	920.06
520.49	935.37
520.85	950.76
521.21	966.40
521.57	982.52
521.93	998.13
522.29	1014.41
522.65	1030.60
523.01	1046.71
523.37	1062.56
523.73	1078.56
524.09	1094.44
524.45	1110.58
524.81	1127.16
525.17	1143.87
525.53	1160.66
525.89	1177.52
526.25	1194.28
526.61	1210.52
526.97	1227.14
527.33	1243.55
527.68	1260.10
528.04	1276.45
528.40	1292.81
528.76	1309.79
529.12	1326.43
529.48	1343.35
529.84	1359.28
530.20	1375.81
530.56	1392.67
530.91	1410.09
531.27	1426.91
531.63	1443.26
531.99	1459.74
532.35	1475.60
532.71	1491.38
533.07	1507.54
533.42	1523.38
533.78	1539.30
534.14	1555.41
534.50	1570.60
534.86	1586.29
535.21	1601.32
535.57	1617.15
535.93	1632.48
536.29	1646.98
536.65	1661.72
537.00	1676.24
537.36	1691.36
537.72	1705.68
538.08	1719.94
538.44	1733.46
538.79	1747.02
539.15	1760.39
539.51	1773.93
539.87	1788.08
540.22	1801.65
540.58	1815.16
540.94	1828.12
541.29	1840.82
541.65	1853.30
542.01	1866.36
542.37	1878.67
542.72	1890.83
543.08	1902.39
543.44	1914.63
543.79	1925.96
544.15	1936.95
544.51	1948.37
544.87	1959.28
545.22	1970.13
545.58	1980.19
545.94	1990.00
546.29	1999.93
546.65	2009.80
547.01	2019.13
547.36	2027.87
547.72	2036.25
548.07	2044.18
548.43	2052.34
548.79	2060.21
549.14	2067.82
549.50	2075.05
549.86	2082.54
550.21	2089.91
550.57	2097.07
550.92	2103.62
551.28	2110.48
551.64	2117.43
551.99	2123.92
552.35	2130.06
552.70	2135.94
553.06	2142.07
553.41	2148.35
553.77	2154.24
554.13	2160.35
554.48	2166.30
554.84	2171.79
555.19	2177.02
555.55	2182.18
555.90	2186.70
556.26	2191.77
556.61	2196.45
556.97	2200.86
557.32	2205.02
557.68	2209.16
558.03	2213.38
558.39	2217.09
558.74	2221.78
559.10	2225.67
559.45	2229.30
559.81	2233.55
560.16	2237.54
560.52	2240.77
560.87	2244.25
561.23	2246.89
561.58	2249.69
561.94	2252.27
562.29	2254.32
562.64	2257.26
563.00	2259.74
563.35	2263.26
563.71	2266.43
564.06	2269.71
564.42	2272.75
564.77	2275.39
565.12	2277.86
565.48	2279.89
565.83	2281.97
566.19	2283.33
566.54	2284.20
566.89	2285.46
567.25	2286.08
567.60	2287.27
567.96	2288.88
568.31	2289.61
568.66	2290.80
569.02	2291.61
569.37	2292.02
569.72	2293.11
570.08	2293.26
570.43	2293.40
570.78	2292.97
571.14	2291.33
571.49	2289.98
571.84	2289.45
572.20	2288.44
572.55	2287.30
572.90	2285.69
573.26	2284.22
573.61	2282.51
573.96	2280.88
574.31	2278.06
574.67	2275.17
575.02	2271.67
575.37	2268.47
575.72	2264.87
576.08	2261.49
576.43	2258.06
576.78	2254.57
577.13	2251.25
577.49	2247.92
577.84	2244.51
578.19	2240.60
578.54	2237.12
578.90	2233.07
579.25	2227.64
579.60	2222.75
579.95	2217.92
580.30	2212.99
580.66	2207.94
581.01	2203.07
581.36	2198.21
581.71	2194.10
582.06	2189.91
582.42	2185.67
582.77	2180.44
583.12	2175.94
583.47	2171.46
583.82	2166.67
584.17	2161.52
584.53	2156.25
584.88	2150.99
585.23	2145.34
585.58	2139.97
585.93	2134.60
586.28	2129.80
586.63	2124.90
586.98	2119.77
587.34	2115.06
587.69	2110.27
588.04	2105.17
588.39	2099.55
588.74	2093.08
589.09	2086.96
589.44	2080.29
589.79	2074.06
590.14	2068.46
590.49	2061.87
590.84	2055.41
591.19	2049.46
591.54	2043.02
591.89	2035.85
592.25	2029.16
592.60	2022.06
592.95	2014.66
593.30	2007.37
593.65	1999.82
594.00	1992.79
594.35	1985.62
594.70	1977.55
595.05	1970.63
595.40	1963.33
595.75	1955.84
596.10	1949.82
596.45	1943.24
596.80	1936.96
597.15	1930.58
597.50	1923.66
597.85	1917.27
598.19	1910.67
598.54	1903.80
598.89	1897.16
599.24	1891.22
599.59	1884.60
599.94	1878.38
600.29	1872.03
600.64	1865.36
600.99	1857.96
601.34	1851.28
601.69	1844.33
602.04	1837.61
602.39	1830.04
602.74	1823.28
603.08	1816.66
603.43	1809.94
603.78	1802.49
604.13	1795.42
604.48	1788.14
604.83	1781.29
605.18	1774.45
605.53	1766.69
605.87	1758.60
606.22	1751.39
606.57	1743.43
606.92	1735.94
607.27	1728.86
607.62	1722.05
607.96	1714.98
608.31	1708.57
608.66	1700.99
609.01	1693.60
609.36	1685.99
609.70	1678.10
610.05	1670.14
610.40	1662.53
610.75	1654.21
611.10	1646.58
611.44	1638.06
611.79	1630.10
612.14	1621.47
612.49	1612.29
612.83	1603.83
613.18	1595.64
613.53	1587.56
613.88	1579.00
614.22	1570.78
614.57	1562.08
614.92	1554.14
615.27	1546.67
615.61	1538.32
615.96	1530.14
616.31	1522.38
616.65	1514.98
617.00	1507.45
617.35	1499.67
617.70	1491.54
618.04	1483.10
618.39	1474.89
618.74	1467.50
619.08	1459.19
619.43	1451.62
619.78	1444.77
620.12	1437.69
620.47	1430.25
620.82	1422.06
621.16	1414.75
621.51	1407.17
621.85	1399.59
622.20	1391.04
622.55	1382.67
622.89	1374.81
623.24	1367.22
623.59	1359.74
623.93	1352.38
624.28	1345.18
624.62	1337.71
624.97	1330.35
625.32	1323.46
625.66	1316.37
626.01	1309.11
626.35	1301.75
626.70	1293.96
627.04	1286.34
627.39	1278.46
627.73	1271.01
628.08	1264.15
628.43	1256.88
628.77	1249.55
629.12	1241.99
629.46	1234.88
629.81	1227.34
630.15	1220.09
630.50	1212.76
630.84	1204.59
631.19	1196.55
631.53	1188.95
631.88	1181.36
632.22	1173.83
632.57	1166.53
632.91	1159.00
633.26	1151.60
633.60	1144.10
633.95	1136.93
634.29	1129.75
634.64	1123.10
634.98	1115.77
635.32	1108.63
635.67	1101.99
636.01	1095.31
636.36	1088.57
636.70	1082.00
637.05	1075.49
637.39	1069.05
637.73	1062.54
638.08	1056.66
638.42	1050.72
638.77	1044.35
639.11	1037.94
639.45	1031.53
639.80	1024.94
640.14	1018.68
640.49	1012.18
640.83	1005.93
641.17	999.86
641.52	993.45
641.86	987.05
642.20	981.26
642.55	974.83
642.89	968.48
643.23	961.85
643.58	956.07
643.92	949.86
644.26	943.91
644.61	937.82
644.95	931.83
645.29	925.39
645.64	918.62
645.98	912.33
646.32	906.34
646.66	900.33
647.01	894.58
647.35	888.93
647.69	883.00
648.04	877.48
648.38	871.67
648.72	865.87
649.06	859.79
649.41	853.85
649.75	848.00
650.09	842.01
650.43	836.22
650.78	830.06
651.12	824.17
651.46	818.37
651.80	812.74
652.14	807.36
652.49	801.97
652.83	796.86
653.17	791.20
653.51	785.57
653.85	780.10
654.20	774.49
654.54	768.35
654.88	762.58
655.22	756.69
655.56	750.98
655.90	745.48
656.25	740.19
656.59	734.83
656.93	729.72
657.27	724.56
657.61	719.22
657.95	714.14
658.29	709.03
658.64	703.72
658.98	698.32
659.32	692.84
659.66	687.61
660.00	682.32
660.34	677.35
660.68	672.38
661.02	667.37
661.36	662.69
661.70	658.24
662.05	653.96
662.39	649.63
662.73	645.09
663.07	640.70
663.41	636.24
663.75	631.78
664.09	627.19
664.43	622.80
664.77	618.73
665.11	614.47
665.45	610.31
665.79	606.25
666.13	602.19
666.47	598.11
666.81	593.92
667.15	589.80
667.49	585.82
667.83	581.95
668.17	578.03
668.51	573.90
668.85	569.86
669.19	565.98
669.53	562.11
669.87	558.35
670.21	554.65
670.55	551.01
670.89	547.57
671.23	544.17
671.57	540.64
671.91	537.09
672.25	533.57
672.58	530.09
672.92	526.65
673.26	523.41
673.60	520.18
673.94	517.11
674.28	514.17
674.62	511.26
674.96	508.20
675.30	505.31
675.64	502.43
675.97	499.61
676.31	496.73
676.65	493.88
676.99	491.17
677.33	488.27
677.67	485.50
678.01	482.47
678.34	479.52
678.68	476.66
679.02	473.83
679.36	471.05
679.70	468.30
680.04	465.58
680.37	462.73
680.71	460.00
681.05	457.36
681.39	454.63
681.73	451.97
682.06	449.43
682.40	446.85
682.74	444.28
683.08	441.77
683.42	439.14
683.75	436.57
684.09	433.95
684.43	431.47
684.77	429.00
685.10	426.63
685.44	424.26
685.78	421.94
686.12	419.63
686.45	417.29
686.79	414.99
687.13	412.75
687.46	410.62
687.80	408.44
688.14	406.24
688.48	404.19
688.81	401.98
689.15	399.84
689.49	397.71
689.82	395.64
690.16	393.56
690.50	391.63
690.83	389.74
691.17	387.77
691.51	385.87
691.84	384.01
692.18	382.12
692.52	380.23
692.85	378.29
693.19	376.46
693.52	374.64
693.86	372.82
694.20	371.09
694.53	369.26
694.87	367.41
695.21	365.58
695.54	363.73
695.88	361.97
696.21	360.20
696.55	358.51
696.88	356.82
697.22	355.12
697.56	353.50
697.89	351.84
698.23	350.21
698.56	348.61
698.90	347.06
699.23	345.42
699.57	343.83
699.90	342.27
700.24	340.69
700.58	339.21
700.91	337.75
701.25	336.26
701.58	334.90
701.92	333.49
702.25	332.12
702.59	330.73
702.92	329.44
703.26	328.15
703.59	326.86
703.93	325.67
704.26	324.45
704.60	323.15
704.93	321.86
705.26	320.62
705.60	319.39
705.93	318.21
706.27	317.16
706.60	316.09
706.94	315.05
707.27	313.92
707.61	312.85
707.94	311.79
708.27	310.72
708.61	309.59
708.94	308.64
709.28	307.66
709.61	306.70
709.94	305.72
710.28	304.73
710.61	303.71
710.95	302.58
711.28	301.64
711.61	300.69
711.95	299.80
712.28	298.87
712.61	297.91
712.95	296.94
713.28	296.02
713.61	295.14
713.95	294.28
714.28	293.48
714.61	292.61
714.95	291.75
715.28	290.90
715.61	290.07
715.95	289.19
716.28	288.35
716.61	287.55
716.95	286.74
717.28	286.01
717.61	285.27
717.94	284.61
718.28	283.81
718.61	283.05
718.94	282.34
719.27	281.69
719.61	281.07
719.94	280.43
720.27	279.75
720.60	279.06
720.94	278.41
721.27	277.81
721.60	277.24
721.93	276.66
722.27	276.11
722.60	275.56
722.93	275.03
723.26	274.51
723.59	273.96
723.93	273.42
724.26	272.83
724.59	272.25
724.92	271.68
725.25	271.19
725.59	270.69
725.92	270.20
726.25	269.70
726.58	269.17
726.91	268.67
727.24	268.17
727.57	267.71
727.91	267.19
728.24	266.72
728.57	266.21
728.90	265.76
729.23	265.25
729.56	264.85
729.89	264.36
730.22	263.84
730.55	263.33
730.89	262.89
731.22	262.45
731.55	262.06
731.88	261.64
732.21	261.22
732.54	260.78
732.87	260.34
733.20	259.91
733.53	259.54
733.86	259.18
734.19	258.79
734.52	258.42
734.85	258.11
735.18	257.67
735.51	257.32
735.84	256.94
736.17	256.59
736.50	256.11
736.83	255.90
737.16	255.60
737.49	255.30
737.82	254.94
738.15	254.62
738.48	254.29
738.81	253.96
739.14	253.62
739.47	253.35
739.80	253.04
740.13	252.76
740.46	252.43
740.79	252.10
741.12	251.80
741.45	251.48
741.78	251.14
742.11	250.85
742.44	250.51
742.77	250.23
743.10	249.94
743.43	249.68
743.75	249.23
744.08	249.06
744.41	248.76
744.74	248.49
745.07	248.19
745.40	247.94
745.73	247.73
746.06	247.48
746.39	247.17
746.71	246.90
747.04	246.63
747.37	246.38
747.70	246.14
748.03	245.90
748.36	245.65
748.68	245.40
749.01	245.17
749.34	244.95
749.67	244.72
750.00	244.53
750.33	244.37
750.65	244.18
750.98	243.81
751.31	243.61
751.64	243.42
751.97	243.22
752.29	242.98
752.62	242.68
752.95	242.49
753.28	242.30
753.60	242.09
753.93	241.90
754.26	241.71
754.59	241.45
754.91	241.24
755.24	241.05
755.57	240.90
755.90	240.70
756.22	240.50
756.55	240.28
756.88	240.03
757.20	239.80
757.53	239.62
757.86	239.49
758.19	239.32
758.51	239.13
758.84	238.98
759.17	238.81
759.49	238.69
759.82	238.57
760.15	238.37
760.47	238.21
760.80	238.03
761.13	237.90
761.45	237.79
761.78	237.67
762.11	237.52
762.43	237.32
762.76	237.17
763.08	237.05
763.41	236.94
763.74	236.82
764.06	236.68
764.39	236.56
764.71	236.40
765.04	236.26
765.37	236.15
765.69	235.99
766.02	235.88
766.34	235.70
766.67	235.55
767.00	235.50
767.32	235.43
767.65	235.37
767.97	235.23
768.30	235.11
768.62	235.00
768.95	234.88
769.27	234.76
769.60	234.67
769.92	234.57
770.25	234.45
770.57	234.33
770.90	234.24
771.22	234.13
771.55	234.06
771.87	233.97
772.20	233.90
772.52	233.88
772.85	233.89
773.17	233.84
773.50	233.75
773.82	233.63
774.15	233.53
774.47	233.38
774.80	233.28
775.12	233.15
775.45	233.05
775.77	232.99
776.09	232.94
776.42	232.86
776.74	232.79
777.07	232.73
777.39	232.67
777.72	232.60
778.04	232.54
778.36	232.43
778.69	232.38
779.01	232.26
779.33	232.11
779.66	231.95
779.98	231.87
780.31	231.82
780.63	231.82
780.95	231.76
781.28	231.70
781.60	231.64
781.92	231.60
782.25	231.53
782.57	231.46
782.89	231.40
783.22	231.33
783.54	231.24
783.86	231.18
784.19	231.11
784.51	231.06
784.83	230.99
785.16	230.95
785.48	230.86
785.80	230.82
786.12	230.81
786.45	230.75
786.77	230.71
787.09	230.60
