SpectraSuite Data File
++++++++++++++++++++++++++++++++++++
Date: Fri Feb 01 15:27:47 EST 2013
User: group
Dark Spectrum Present: No
Reference Spectrum Present: No
Number of Sampled Component Spectra: 1
Spectrometers: USB2E7196
Integration Time (usec): 35000 (USB2E7196)
Spectra Averaged: 100 (USB2E7196)
Boxcar Smoothing: 10 (USB2E7196)
Correct for Electrical Dark: No (USB2E7196)
Strobe/Lamp Enabled: No (USB2E7196)
Correct for Detector Non-linearity: No (USB2E7196)
Correct for Stray Light: No (USB2E7196)
Number of Pixels in Processed Spectrum: 2048
>>>>>Begin Processed Spectral Data<<<<<
339.09	0.00
339.48	215.18
339.86	216.26
340.24	218.27
340.63	219.56
341.01	222.03
341.39	222.03
341.78	223.81
342.16	224.70
342.54	224.84
342.93	213.38
343.31	224.16
343.69	224.71
344.07	225.18
344.46	225.59
344.84	225.97
345.22	226.24
345.60	226.49
345.99	226.66
346.37	226.78
346.75	226.91
347.13	226.96
347.52	227.04
347.90	227.13
348.28	227.17
348.66	227.21
349.05	227.23
349.43	227.25
349.81	227.29
350.19	227.30
350.57	227.33
350.96	227.42
351.34	227.51
351.72	227.55
352.10	227.65
352.48	227.71
352.87	227.78
353.25	227.80
353.63	227.87
354.01	227.95
354.39	228.03
354.77	228.09
355.15	228.23
355.54	228.30
355.92	228.33
356.30	228.41
356.68	228.52
357.06	228.63
357.44	228.69
357.82	228.75
358.20	228.83
358.58	228.90
358.97	228.94
359.35	229.01
359.73	229.10
360.11	229.15
360.49	229.22
360.87	229.24
361.25	229.28
361.63	229.34
362.01	229.37
362.39	229.40
362.77	229.44
363.15	229.44
363.53	229.49
363.91	229.50
364.29	229.54
364.67	229.51
365.05	229.49
365.43	229.53
365.81	229.57
366.19	229.63
366.57	229.67
366.95	229.71
367.33	229.67
367.71	229.66
368.09	229.66
368.47	229.63
368.85	229.63
369.23	229.62
369.61	229.56
369.99	229.54
370.37	229.50
370.75	229.49
371.13	229.43
371.51	229.35
371.89	229.35
372.27	229.26
372.65	229.20
373.03	229.18
373.41	229.09
373.78	229.04
374.16	228.91
374.54	228.82
374.92	228.74
375.30	228.70
375.68	228.62
376.06	228.56
376.44	228.51
376.82	228.45
377.19	228.40
377.57	228.33
377.95	228.25
378.33	228.15
378.71	228.04
379.09	227.98
379.47	227.93
379.84	227.84
380.22	227.76
380.60	227.66
380.98	227.57
381.36	227.47
381.73	227.39
382.11	227.33
382.49	227.25
382.87	227.17
383.25	227.11
383.62	227.16
384.00	227.09
384.38	226.99
384.76	226.93
385.13	226.90
385.51	226.84
385.89	226.74
386.27	226.70
386.64	226.68
387.02	226.61
387.40	226.55
387.78	226.52
388.15	226.49
388.53	226.45
388.91	226.40
389.29	226.38
389.66	226.36
390.04	226.32
390.42	226.30
390.79	226.31
391.17	226.28
391.55	226.14
391.92	226.13
392.30	226.17
392.68	226.18
393.05	226.14
393.43	226.19
393.81	226.23
394.18	226.27
394.56	226.27
394.94	226.32
395.31	226.36
395.69	226.40
396.06	226.47
396.44	226.50
396.82	226.54
397.19	226.63
397.57	226.69
397.95	226.77
398.32	226.81
398.70	226.85
399.07	226.92
399.45	227.00
399.82	227.07
400.20	227.13
400.58	227.20
400.95	227.28
401.33	227.35
401.70	227.53
402.08	227.62
402.45	227.72
402.83	227.87
403.20	228.00
403.58	228.11
403.95	228.23
404.33	228.39
404.71	228.52
405.08	228.71
405.46	228.83
405.83	228.99
406.21	229.16
406.58	229.31
406.96	229.48
407.33	229.66
407.70	229.83
408.08	230.12
408.45	230.33
408.83	230.57
409.20	230.79
409.58	230.96
409.95	231.23
410.33	231.49
410.70	231.72
411.08	232.02
411.45	232.34
411.82	232.60
412.20	232.97
412.57	233.39
412.95	233.68
413.32	234.11
413.69	234.51
414.07	234.94
414.44	235.39
414.82	235.86
415.19	236.41
415.56	236.94
415.94	237.45
416.31	238.07
416.68	238.71
417.06	239.42
417.43	240.13
417.81	240.89
418.18	241.68
418.55	242.50
418.93	243.37
419.30	244.23
419.67	245.21
420.04	246.14
420.42	247.11
420.79	248.30
421.16	249.45
421.54	250.64
421.91	251.82
422.28	253.10
422.66	254.43
423.03	255.71
423.40	257.07
423.77	258.51
424.15	259.95
424.52	261.38
424.89	263.01
425.26	264.52
425.64	265.96
426.01	267.53
426.38	269.21
426.75	270.86
427.13	272.60
427.50	274.41
427.87	276.30
428.24	278.18
428.61	279.92
428.99	281.89
429.36	283.98
429.73	286.10
430.10	288.13
430.47	290.20
430.85	292.38
431.22	294.61
431.59	297.00
431.96	299.19
432.33	301.70
432.70	304.05
433.08	306.87
433.45	309.51
433.82	312.13
434.19	315.03
434.56	317.86
434.93	320.52
435.30	323.13
435.68	326.02
436.05	328.86
436.42	331.64
436.79	334.14
437.16	336.88
437.53	339.70
437.90	342.50
438.27	345.25
438.64	348.05
439.01	350.68
439.38	352.86
439.75	355.02
440.13	357.58
440.50	359.94
440.87	361.78
441.24	363.72
441.61	365.92
441.98	367.42
442.35	369.22
442.72	371.12
443.09	372.92
443.46	373.92
443.83	374.51
444.20	375.03
444.57	375.85
444.94	376.10
445.31	376.40
445.68	376.80
446.05	376.86
446.42	376.50
446.79	376.10
447.16	375.71
447.53	375.46
447.90	374.28
448.27	373.12
448.64	371.56
449.01	370.44
449.37	368.42
449.74	366.50
450.11	364.26
450.48	361.78
450.85	359.28
451.22	357.14
451.59	355.15
451.96	353.24
452.33	350.69
452.70	348.37
453.07	345.55
453.43	342.65
453.80	339.94
454.17	337.22
454.54	334.66
454.91	331.92
455.28	329.24
455.65	326.80
456.02	324.32
456.38	322.19
456.75	319.53
457.12	317.29
457.49	315.07
457.86	312.88
458.23	310.98
458.59	308.93
458.96	306.81
459.33	304.95
459.70	303.03
460.07	301.47
460.43	299.73
460.80	298.13
461.17	296.68
461.54	295.16
461.91	293.75
462.27	292.28
462.64	291.03
463.01	289.68
463.38	288.29
463.74	286.91
464.11	285.68
464.48	284.66
464.85	283.56
465.21	282.68
465.58	281.76
465.95	280.63
466.32	279.73
466.68	278.81
467.05	277.88
467.42	276.97
467.78	276.04
468.15	275.16
468.52	274.48
468.88	273.62
469.25	272.83
469.62	272.21
469.98	271.54
470.35	270.92
470.72	270.26
471.08	269.63
471.45	269.10
471.82	268.61
472.18	267.96
472.55	267.49
472.92	266.99
473.28	266.50
473.65	266.06
474.02	265.61
474.38	265.23
474.75	264.93
475.11	264.62
475.48	264.34
475.85	264.10
476.21	263.87
476.58	263.64
476.94	263.47
477.31	263.30
477.67	263.12
478.04	263.02
478.41	263.00
478.77	263.06
479.14	262.99
479.50	263.00
479.87	263.09
480.23	263.20
480.60	263.26
480.96	263.39
481.33	263.62
481.69	263.83
482.06	264.04
482.42	264.27
482.79	264.51
483.15	264.83
483.52	265.20
483.88	265.54
484.25	265.95
484.61	266.41
484.98	266.89
485.34	267.45
485.71	268.04
486.07	268.63
486.44	269.17
486.80	269.85
487.17	270.61
487.53	271.45
487.90	272.25
488.26	273.18
488.62	274.12
488.99	275.09
489.35	276.14
489.72	277.25
490.08	278.43
490.44	279.67
490.81	281.00
491.17	282.35
491.54	283.84
491.90	285.35
492.26	286.99
492.63	288.70
492.99	290.47
493.36	292.37
493.72	294.39
494.08	296.52
494.45	298.80
494.81	301.07
495.17	303.45
495.54	306.05
495.90	308.73
496.26	311.58
496.63	314.52
496.99	317.59
497.35	320.85
497.72	324.25
498.08	327.77
498.44	331.44
498.80	335.34
499.17	339.38
499.53	343.60
499.89	347.98
500.26	352.47
500.62	357.13
500.98	362.12
501.34	367.15
501.71	372.46
502.07	377.91
502.43	383.57
502.79	389.45
503.16	395.51
503.52	401.75
503.88	408.16
504.24	414.80
504.60	421.72
504.97	428.89
505.33	436.19
505.69	443.94
506.05	451.71
506.41	459.66
506.78	467.79
507.14	476.18
507.50	484.89
507.86	493.93
508.22	503.20
508.59	512.38
508.95	522.04
509.31	531.82
509.67	541.90
510.03	552.21
510.39	562.75
510.75	573.55
511.12	584.47
511.48	595.73
511.84	607.20
512.20	618.72
512.56	630.67
512.92	642.92
513.28	655.21
513.64	667.74
514.00	680.42
514.37	693.40
514.73	706.41
515.09	719.53
515.45	732.87
515.81	746.42
516.17	760.48
516.53	774.62
516.89	788.83
517.25	803.11
517.61	817.55
517.97	832.01
518.33	846.44
518.69	861.33
519.05	876.37
519.41	891.64
519.77	907.25
520.13	922.66
520.49	938.04
520.85	953.50
521.21	969.22
521.57	985.57
521.93	1001.24
522.29	1017.70
522.65	1033.95
523.01	1050.12
523.37	1066.20
523.73	1082.27
524.09	1098.40
524.45	1114.78
524.81	1131.46
525.17	1148.35
525.53	1165.24
525.89	1182.13
526.25	1198.96
526.61	1215.34
526.97	1232.07
527.33	1248.55
527.68	1265.34
528.04	1281.91
528.40	1298.68
528.76	1315.87
529.12	1332.41
529.48	1349.49
529.84	1365.58
530.20	1382.20
530.56	1399.31
530.91	1416.75
531.27	1433.62
531.63	1450.15
531.99	1466.75
532.35	1482.81
532.71	1498.71
533.07	1515.18
533.42	1531.21
533.78	1547.35
534.14	1563.71
534.50	1579.07
534.86	1595.00
535.21	1610.12
535.57	1626.23
535.93	1641.64
536.29	1656.43
536.65	1671.71
537.00	1686.56
537.36	1701.97
537.72	1716.63
538.08	1731.13
538.44	1744.97
538.79	1758.92
539.15	1772.71
539.51	1786.65
539.87	1800.93
540.22	1814.70
540.58	1828.52
540.94	1841.94
541.29	1854.94
541.65	1867.75
542.01	1881.15
542.37	1893.56
542.72	1906.17
543.08	1917.78
543.44	1930.27
543.79	1941.51
544.15	1952.51
544.51	1964.15
544.87	1975.11
545.22	1985.97
545.58	1996.29
545.94	2006.18
546.29	2016.10
546.65	2025.92
547.01	2035.03
547.36	2043.99
547.72	2052.62
548.07	2060.48
548.43	2068.73
548.79	2076.88
549.14	2084.46
549.50	2091.88
549.86	2099.65
550.21	2106.81
550.57	2114.19
550.92	2120.86
551.28	2128.02
551.64	2135.02
551.99	2141.50
552.35	2147.62
552.70	2153.75
553.06	2159.63
553.41	2165.94
553.77	2172.02
554.13	2178.21
554.48	2184.41
554.84	2189.65
555.19	2194.92
555.55	2200.11
555.90	2204.66
556.26	2209.30
556.61	2213.95
556.97	2217.98
557.32	2222.08
557.68	2226.27
558.03	2230.49
558.39	2234.19
558.74	2238.82
559.10	2242.75
559.45	2246.35
559.81	2250.83
560.16	2254.76
560.52	2258.04
560.87	2261.36
561.23	2263.88
561.58	2266.76
561.94	2269.24
562.29	2271.76
562.64	2274.34
563.00	2276.97
563.35	2280.33
563.71	2283.55
564.06	2286.82
564.42	2289.67
564.77	2291.94
565.12	2294.16
565.48	2296.05
565.83	2297.83
566.19	2298.94
566.54	2299.88
566.89	2301.03
567.25	2301.47
567.60	2302.79
567.96	2304.35
568.31	2305.34
568.66	2306.43
569.02	2306.98
569.37	2307.35
569.72	2308.07
570.08	2308.17
570.43	2307.94
570.78	2307.22
571.14	2305.69
571.49	2304.30
571.84	2304.02
572.20	2302.89
572.55	2302.02
572.90	2300.39
573.26	2299.02
573.61	2297.41
573.96	2295.49
574.31	2292.25
574.67	2289.18
575.02	2285.35
575.37	2281.97
575.72	2278.02
576.08	2274.80
576.43	2271.48
576.78	2267.70
577.13	2264.57
577.49	2261.39
577.84	2258.03
578.19	2254.29
578.54	2250.36
578.90	2245.89
579.25	2240.30
579.60	2235.28
579.95	2229.98
580.30	2224.93
580.66	2219.62
581.01	2214.56
581.36	2209.69
581.71	2205.53
582.06	2200.98
582.42	2196.42
582.77	2191.05
583.12	2186.38
583.47	2181.34
583.82	2176.17
584.17	2170.74
584.53	2165.08
584.88	2159.29
585.23	2153.25
585.58	2147.67
585.93	2142.38
586.28	2137.78
586.63	2132.70
586.98	2127.63
587.34	2122.97
587.69	2117.87
588.04	2112.63
588.39	2106.91
588.74	2100.31
589.09	2094.11
589.44	2087.31
589.79	2081.31
590.14	2075.71
590.49	2069.09
590.84	2062.75
591.19	2056.69
591.54	2050.24
591.89	2042.78
592.25	2036.08
592.60	2028.96
592.95	2021.35
593.30	2013.94
593.65	2006.12
594.00	1998.92
594.35	1991.62
594.70	1983.51
595.05	1976.23
595.40	1968.81
595.75	1961.27
596.10	1954.81
596.45	1948.07
596.80	1941.83
597.15	1935.00
597.50	1927.83
597.85	1921.44
598.19	1914.64
598.54	1907.38
598.89	1900.78
599.24	1894.91
599.59	1888.03
599.94	1881.77
600.29	1875.39
600.64	1868.79
600.99	1861.42
601.34	1854.54
601.69	1847.49
602.04	1840.37
602.39	1832.98
602.74	1826.09
603.08	1819.37
603.43	1812.77
603.78	1805.45
604.13	1798.21
604.48	1790.97
604.83	1784.04
605.18	1776.95
605.53	1769.05
605.87	1761.01
606.22	1753.71
606.57	1745.73
606.92	1738.41
607.27	1731.11
607.62	1724.08
607.96	1716.54
608.31	1709.79
608.66	1702.21
609.01	1694.67
609.36	1687.17
609.70	1679.28
610.05	1671.17
610.40	1663.28
610.75	1654.92
611.10	1647.21
611.44	1638.89
611.79	1630.96
612.14	1622.34
612.49	1613.19
612.83	1604.79
613.18	1596.78
613.53	1588.67
613.88	1580.03
614.22	1571.79
614.57	1563.33
614.92	1555.36
615.27	1547.78
615.61	1539.47
615.96	1531.43
616.31	1523.79
616.65	1516.45
617.00	1508.83
617.35	1501.15
617.70	1492.77
618.04	1484.16
618.39	1475.86
618.74	1468.21
619.08	1459.84
619.43	1452.20
619.78	1445.34
620.12	1438.03
620.47	1430.42
620.82	1422.36
621.16	1414.93
621.51	1407.37
621.85	1399.68
622.20	1391.13
622.55	1382.84
622.89	1374.97
623.24	1367.28
623.59	1359.97
623.93	1352.44
624.28	1345.11
624.62	1337.51
624.97	1330.45
625.32	1323.77
625.66	1316.86
626.01	1309.58
626.35	1302.01
626.70	1294.30
627.04	1286.46
627.39	1278.78
627.73	1271.38
628.08	1264.32
628.43	1256.99
628.77	1249.48
629.12	1241.86
629.46	1234.75
629.81	1227.45
630.15	1220.17
630.50	1212.71
630.84	1204.62
631.19	1196.72
631.53	1189.40
631.88	1181.97
632.22	1174.32
632.57	1167.03
632.91	1159.49
633.26	1152.06
633.60	1144.82
633.95	1137.65
634.29	1130.62
634.64	1123.90
634.98	1116.61
635.32	1109.49
635.67	1102.98
636.01	1096.41
636.36	1089.69
636.70	1083.15
637.05	1076.57
637.39	1070.18
637.73	1063.82
638.08	1057.80
638.42	1051.73
638.77	1045.13
639.11	1038.52
639.45	1032.20
639.80	1025.51
640.14	1019.00
640.49	1012.54
640.83	1006.26
641.17	1000.02
641.52	993.71
641.86	987.36
642.20	981.42
642.55	975.12
642.89	968.63
643.23	962.09
643.58	956.22
643.92	950.02
644.26	943.85
644.61	937.84
644.95	931.68
645.29	924.98
645.64	918.28
645.98	912.00
646.32	906.20
646.66	900.19
647.01	894.34
647.35	888.62
647.69	882.72
648.04	877.12
648.38	871.36
648.72	865.30
649.06	859.17
649.41	853.31
649.75	847.35
650.09	841.34
650.43	835.55
650.78	829.40
651.12	823.44
651.46	817.70
651.80	811.86
652.14	806.48
652.49	801.16
652.83	796.00
653.17	790.31
653.51	784.48
653.85	778.98
654.20	773.39
654.54	767.51
654.88	761.89
655.22	756.04
655.56	750.34
655.90	744.94
656.25	739.68
656.59	734.32
656.93	729.17
657.27	724.04
657.61	718.58
657.95	713.51
658.29	708.38
658.64	703.25
658.98	698.05
659.32	692.69
659.66	687.58
660.00	682.17
660.34	677.21
660.68	672.36
661.02	667.39
661.36	662.72
661.70	658.22
662.05	653.85
662.39	649.54
662.73	645.12
663.07	640.75
663.41	636.35
663.75	631.82
664.09	627.35
664.43	622.99
664.77	618.94
665.11	614.71
665.45	610.63
665.79	606.53
666.13	602.32
666.47	598.20
666.81	593.94
667.15	589.85
667.49	586.02
667.83	582.25
668.17	578.28
668.51	574.16
668.85	570.20
669.19	566.26
669.53	562.36
669.87	558.48
670.21	554.80
670.55	551.16
670.89	547.83
671.23	544.36
671.57	540.84
671.91	537.24
672.25	533.76
672.58	530.30
672.92	526.91
673.26	523.77
673.60	520.64
673.94	517.52
674.28	514.66
674.62	511.73
674.96	508.62
675.30	505.71
675.64	502.85
675.97	500.07
676.31	497.32
676.65	494.39
676.99	491.71
677.33	488.86
677.67	486.06
678.01	482.98
678.34	480.02
678.68	477.17
679.02	474.41
679.36	471.63
679.70	468.86
680.04	466.14
680.37	463.27
680.71	460.50
681.05	457.94
681.39	455.30
681.73	452.67
682.06	450.07
682.40	447.53
682.74	444.98
683.08	442.38
683.42	439.70
683.75	437.26
684.09	434.69
684.43	432.21
684.77	429.71
685.10	427.35
685.44	425.07
685.78	422.78
686.12	420.54
686.45	418.28
686.79	415.99
687.13	413.73
687.46	411.59
687.80	409.40
688.14	407.16
688.48	405.07
688.81	402.77
689.15	400.66
689.49	398.52
689.82	396.48
690.16	394.41
690.50	392.50
690.83	390.54
691.17	388.58
691.51	386.68
691.84	384.87
692.18	382.93
692.52	380.91
692.85	378.97
693.19	377.07
693.52	375.25
693.86	373.39
694.20	371.61
694.53	369.82
694.87	367.98
695.21	366.23
695.54	364.33
695.88	362.61
696.21	360.90
696.55	359.21
696.88	357.52
697.22	355.88
697.56	354.24
697.89	352.59
698.23	350.97
698.56	349.31
698.90	347.72
699.23	346.05
699.57	344.53
699.90	343.01
700.24	341.45
700.58	339.91
700.91	338.44
701.25	336.96
701.58	335.57
701.92	334.23
702.25	332.85
702.59	331.54
702.92	330.21
703.26	328.88
703.59	327.60
703.93	326.41
704.26	325.16
704.60	323.88
704.93	322.62
705.26	321.41
705.60	320.29
705.93	319.12
706.27	318.16
706.60	317.07
706.94	315.96
707.27	314.83
707.61	313.78
707.94	312.80
708.27	311.74
708.61	310.66
708.94	309.65
709.28	308.68
709.61	307.72
709.94	306.78
710.28	305.77
710.61	304.80
710.95	303.74
711.28	302.82
711.61	301.87
711.95	300.94
712.28	299.94
712.61	298.94
712.95	298.02
713.28	297.12
713.61	296.26
713.95	295.37
714.28	294.58
714.61	293.74
714.95	292.89
715.28	292.04
715.61	291.19
715.95	290.34
716.28	289.52
716.61	288.72
716.95	287.91
717.28	287.18
717.61	286.41
717.94	285.63
718.28	284.83
718.61	284.15
718.94	283.45
719.27	282.82
719.61	282.20
719.94	281.59
720.27	280.89
720.60	280.25
720.94	279.66
721.27	279.05
721.60	278.44
721.93	277.88
722.27	277.36
722.60	276.82
722.93	276.26
723.26	275.71
723.59	275.13
723.93	274.59
724.26	274.02
724.59	273.51
724.92	273.01
725.25	272.49
725.59	271.92
725.92	271.40
726.25	270.86
726.58	270.37
726.91	269.80
727.24	269.32
727.57	268.82
727.91	268.33
728.24	267.83
728.57	267.37
728.90	266.92
729.23	266.38
729.56	265.96
729.89	265.46
730.22	264.98
730.55	264.52
730.89	264.08
731.22	263.63
731.55	263.18
731.88	262.78
732.21	262.33
732.54	261.92
732.87	261.50
733.20	261.12
733.53	260.68
733.86	260.33
734.19	259.92
734.52	259.56
734.85	259.21
735.18	258.80
735.51	258.44
735.84	258.04
736.17	257.70
736.50	257.28
736.83	257.06
737.16	256.70
737.49	256.34
737.82	255.99
738.15	255.67
738.48	255.30
738.81	254.97
739.14	254.66
739.47	254.33
739.80	254.04
740.13	253.72
740.46	253.40
740.79	253.08
741.12	252.79
741.45	252.48
741.78	252.15
742.11	251.89
742.44	251.53
742.77	251.23
743.10	250.93
743.43	250.64
743.75	250.26
744.08	250.15
744.41	249.89
744.74	249.60
745.07	249.32
745.40	249.09
745.73	248.85
746.06	248.58
746.39	248.34
746.71	248.05
747.04	247.76
747.37	247.52
747.70	247.26
748.03	247.01
748.36	246.80
748.68	246.56
749.01	246.29
749.34	246.09
749.67	245.89
750.00	245.69
750.33	245.54
750.65	245.34
750.98	245.02
751.31	244.81
751.64	244.64
751.97	244.50
752.29	244.32
752.62	244.08
752.95	243.91
753.28	243.74
753.60	243.58
753.93	243.45
754.26	243.27
754.59	243.07
754.91	242.86
755.24	242.64
755.57	242.48
755.90	242.34
756.22	242.14
756.55	241.94
756.88	241.70
757.20	241.48
757.53	241.28
757.86	241.11
758.19	240.96
758.51	240.79
758.84	240.58
759.17	240.41
759.49	240.24
759.82	240.11
760.15	239.94
760.47	239.80
760.80	239.62
761.13	239.49
761.45	239.33
761.78	239.20
762.11	239.07
762.43	238.92
762.76	238.76
763.08	238.64
763.41	238.52
763.74	238.44
764.06	238.31
764.39	238.17
764.71	238.01
765.04	237.84
765.37	237.71
765.69	237.57
766.02	237.44
766.34	237.31
766.67	237.18
767.00	237.07
767.32	237.00
767.65	236.94
767.97	236.83
768.30	236.74
768.62	236.59
768.95	236.47
769.27	236.31
769.60	236.23
769.92	236.12
770.25	235.96
770.57	235.81
770.90	235.70
771.22	235.56
771.55	235.46
771.87	235.41
772.20	235.29
772.52	235.25
772.85	235.26
773.17	235.17
773.50	235.04
773.82	234.94
774.15	234.76
774.47	234.62
774.80	234.50
775.12	234.40
775.45	234.34
775.77	234.27
776.09	234.18
776.42	234.09
776.74	234.02
777.07	233.93
777.39	233.84
777.72	233.76
778.04	233.72
778.36	233.65
778.69	233.55
779.01	233.48
779.33	233.34
779.66	233.15
779.98	233.06
780.31	232.97
780.63	232.94
780.95	232.90
781.28	232.81
781.60	232.71
781.92	232.69
782.25	232.62
782.57	232.53
782.89	232.47
783.22	232.43
783.54	232.35
783.86	232.31
784.19	232.24
784.51	232.21
784.83	232.13
785.16	232.06
785.48	232.03
785.80	231.97
786.12	231.93
786.45	231.84
786.77	231.80
787.09	231.75
